SpectraSuite Data File
++++++++++++++++++++++++++++++++++++
Date: Fri Feb 01 15:51:07 EST 2013
User: group
Dark Spectrum Present: No
Reference Spectrum Present: No
Number of Sampled Component Spectra: 1
Spectrometers: USB2E7196
Integration Time (usec): 35000 (USB2E7196)
Spectra Averaged: 100 (USB2E7196)
Boxcar Smoothing: 10 (USB2E7196)
Correct for Electrical Dark: No (USB2E7196)
Strobe/Lamp Enabled: No (USB2E7196)
Correct for Detector Non-linearity: No (USB2E7196)
Correct for Stray Light: No (USB2E7196)
Number of Pixels in Processed Spectrum: 2048
>>>>>Begin Processed Spectral Data<<<<<
339.09	0.00
339.48	214.96
339.86	216.02
340.24	216.55
340.63	219.17
341.01	221.43
341.39	221.77
341.78	223.20
342.16	224.52
342.54	224.55
342.93	213.04
343.31	223.80
343.69	224.35
344.07	224.83
344.46	225.31
344.84	225.66
345.22	225.93
345.60	226.21
345.99	226.39
346.37	226.52
346.75	226.62
347.13	226.68
347.52	226.74
347.90	226.83
348.28	226.85
348.66	226.95
349.05	226.95
349.43	227.00
349.81	227.07
350.19	227.11
350.57	227.18
350.96	227.26
351.34	227.37
351.72	227.44
352.10	227.56
352.48	227.60
352.87	227.72
353.25	227.77
353.63	227.84
354.01	227.92
354.39	227.99
354.77	228.06
355.15	228.20
355.54	228.25
355.92	228.29
356.30	228.33
356.68	228.44
357.06	228.52
357.44	228.58
357.82	228.63
358.20	228.74
358.58	228.79
358.97	228.85
359.35	228.92
359.73	228.97
360.11	228.99
360.49	229.07
360.87	229.07
361.25	229.11
361.63	229.16
362.01	229.18
362.39	229.18
362.77	229.24
363.15	229.19
363.53	229.20
363.91	229.20
364.29	229.22
364.67	229.15
365.05	229.15
365.43	229.13
365.81	229.17
366.19	229.16
366.57	229.21
366.95	229.21
367.33	229.17
367.71	229.14
368.09	229.14
368.47	229.13
368.85	229.09
369.23	229.10
369.61	229.01
369.99	228.99
370.37	228.99
370.75	229.02
371.13	228.96
371.51	228.90
371.89	228.83
372.27	228.80
372.65	228.76
373.03	228.70
373.41	228.60
373.78	228.50
374.16	228.39
374.54	228.28
374.92	228.16
375.30	228.11
375.68	228.05
376.06	227.99
376.44	227.88
376.82	227.80
377.19	227.72
377.57	227.66
377.95	227.57
378.33	227.47
378.71	227.32
379.09	227.28
379.47	227.26
379.84	227.22
380.22	227.15
380.60	227.02
380.98	226.94
381.36	226.88
381.73	226.83
382.11	226.82
382.49	226.77
382.87	226.73
383.25	226.68
383.62	226.72
384.00	226.66
384.38	226.63
384.76	226.62
385.13	226.62
385.51	226.56
385.89	226.51
386.27	226.46
386.64	226.44
387.02	226.43
387.40	226.37
387.78	226.33
388.15	226.30
388.53	226.30
388.91	226.26
389.29	226.26
389.66	226.26
390.04	226.22
390.42	226.20
390.79	226.18
391.17	226.17
391.55	226.05
391.92	226.02
392.30	226.05
392.68	226.01
393.05	225.98
393.43	225.97
393.81	226.00
394.18	226.01
394.56	226.04
394.94	226.07
395.31	226.11
395.69	226.14
396.06	226.19
396.44	226.26
396.82	226.34
397.19	226.43
397.57	226.45
397.95	226.50
398.32	226.54
398.70	226.63
399.07	226.70
399.45	226.79
399.82	226.88
400.20	226.90
400.58	226.96
400.95	227.04
401.33	227.15
401.70	227.31
402.08	227.41
402.45	227.48
402.83	227.60
403.20	227.74
403.58	227.86
403.95	227.99
404.33	228.13
404.71	228.24
405.08	228.41
405.46	228.53
405.83	228.69
406.21	228.84
406.58	229.01
406.96	229.16
407.33	229.32
407.70	229.48
408.08	229.78
408.45	230.01
408.83	230.25
409.20	230.48
409.58	230.65
409.95	230.93
410.33	231.21
410.70	231.41
411.08	231.69
411.45	232.00
411.82	232.30
412.20	232.61
412.57	233.02
412.95	233.34
413.32	233.74
413.69	234.11
414.07	234.56
414.44	235.03
414.82	235.50
415.19	236.04
415.56	236.60
415.94	237.13
416.31	237.80
416.68	238.41
417.06	239.13
417.43	239.80
417.81	240.58
418.18	241.35
418.55	242.20
418.93	243.05
419.30	243.95
419.67	244.88
420.04	245.84
420.42	246.83
420.79	248.00
421.16	249.15
421.54	250.35
421.91	251.58
422.28	252.80
422.66	254.16
423.03	255.49
423.40	256.80
423.77	258.22
424.15	259.63
424.52	261.14
424.89	262.74
425.26	264.34
425.64	265.79
426.01	267.37
426.38	269.07
426.75	270.74
427.13	272.46
427.50	274.27
427.87	276.16
428.24	278.01
428.61	279.73
428.99	281.71
429.36	283.84
429.73	285.88
430.10	287.90
430.47	289.97
430.85	292.11
431.22	294.39
431.59	296.78
431.96	299.03
432.33	301.50
432.70	303.92
433.08	306.72
433.45	309.38
433.82	312.00
434.19	314.90
434.56	317.71
434.93	320.36
435.30	322.94
435.68	325.82
436.05	328.68
436.42	331.51
436.79	334.00
437.16	336.72
437.53	339.54
437.90	342.39
438.27	345.13
438.64	347.93
439.01	350.53
439.38	352.76
439.75	354.91
440.13	357.40
440.50	359.68
440.87	361.46
441.24	363.37
441.61	365.53
441.98	366.95
442.35	368.75
442.72	370.62
443.09	372.50
443.46	373.51
443.83	374.08
444.20	374.56
444.57	375.36
444.94	375.60
445.31	375.98
445.68	376.27
446.05	376.33
446.42	375.88
446.79	375.44
447.16	374.97
447.53	374.65
447.90	373.47
448.27	372.34
448.64	370.82
449.01	369.70
449.37	367.71
449.74	365.86
450.11	363.65
450.48	361.20
450.85	358.66
451.22	356.57
451.59	354.58
451.96	352.62
452.33	350.04
452.70	347.70
453.07	344.87
453.43	341.98
453.80	339.21
454.17	336.61
454.54	334.08
454.91	331.37
455.28	328.69
455.65	326.21
456.02	323.73
456.38	321.55
456.75	318.87
457.12	316.66
457.49	314.43
457.86	312.25
458.23	310.36
458.59	308.31
458.96	306.18
459.33	304.28
459.70	302.43
460.07	300.92
460.43	299.20
460.80	297.53
461.17	296.16
461.54	294.66
461.91	293.22
462.27	291.76
462.64	290.51
463.01	289.18
463.38	287.91
463.74	286.58
464.11	285.43
464.48	284.41
464.85	283.30
465.21	282.41
465.58	281.47
465.95	280.38
466.32	279.46
466.68	278.54
467.05	277.62
467.42	276.75
467.78	275.83
468.15	274.94
468.52	274.33
468.88	273.42
469.25	272.67
469.62	272.02
469.98	271.35
470.35	270.68
470.72	270.08
471.08	269.41
471.45	268.88
471.82	268.31
472.18	267.74
472.55	267.29
472.92	266.80
473.28	266.36
473.65	265.90
474.02	265.47
474.38	265.15
474.75	264.85
475.11	264.50
475.48	264.22
475.85	264.01
476.21	263.76
476.58	263.60
476.94	263.45
477.31	263.32
477.67	263.19
478.04	263.10
478.41	263.02
478.77	263.04
479.14	263.00
479.50	263.02
479.87	263.07
480.23	263.17
480.60	263.19
480.96	263.27
481.33	263.48
481.69	263.69
482.06	263.86
482.42	264.07
482.79	264.30
483.15	264.68
483.52	265.07
483.88	265.44
484.25	265.84
484.61	266.27
484.98	266.73
485.34	267.28
485.71	267.88
486.07	268.49
486.44	269.07
486.80	269.74
487.17	270.45
487.53	271.27
487.90	272.11
488.26	273.09
488.62	274.11
488.99	275.06
489.35	276.06
489.72	277.17
490.08	278.35
490.44	279.60
490.81	280.89
491.17	282.23
491.54	283.73
491.90	285.28
492.26	286.91
492.63	288.61
492.99	290.41
493.36	292.29
493.72	294.36
494.08	296.45
494.45	298.74
494.81	301.09
495.17	303.55
495.54	306.12
495.90	308.80
496.26	311.57
496.63	314.57
496.99	317.73
497.35	320.98
497.72	324.40
498.08	327.95
498.44	331.63
498.80	335.56
499.17	339.60
499.53	343.73
499.89	348.08
500.26	352.55
500.62	357.22
500.98	362.19
501.34	367.27
501.71	372.58
502.07	377.99
502.43	383.65
502.79	389.42
503.16	395.49
503.52	401.74
503.88	408.09
504.24	414.75
504.60	421.66
504.97	428.76
505.33	436.12
505.69	443.76
506.05	451.55
506.41	459.43
506.78	467.55
507.14	476.02
507.50	484.76
507.86	493.81
508.22	503.01
508.59	512.23
508.95	521.81
509.31	531.68
509.67	541.78
510.03	552.04
510.39	562.60
510.75	573.40
511.12	584.34
511.48	595.70
511.84	607.12
512.20	618.64
512.56	630.58
512.92	642.69
513.28	655.08
513.64	667.50
514.00	680.27
514.37	693.24
514.73	706.27
515.09	719.32
515.45	732.65
515.81	746.23
516.17	760.23
516.53	774.34
516.89	788.41
517.25	802.59
517.61	816.97
517.97	831.45
518.33	845.85
518.69	860.71
519.05	875.75
519.41	890.92
519.77	906.48
520.13	921.97
520.49	937.30
520.85	952.69
521.21	968.57
521.57	984.74
521.93	1000.48
522.29	1016.88
522.65	1033.10
523.01	1049.30
523.37	1065.34
523.73	1081.50
524.09	1097.55
524.45	1113.95
524.81	1130.48
525.17	1147.44
525.53	1164.32
525.89	1181.18
526.25	1197.98
526.61	1214.31
526.97	1231.09
527.33	1247.50
527.68	1264.14
528.04	1280.71
528.40	1297.21
528.76	1314.19
529.12	1330.81
529.48	1347.74
529.84	1363.64
530.20	1380.30
530.56	1397.32
530.91	1414.79
531.27	1431.48
531.63	1447.99
531.99	1464.51
532.35	1480.59
532.71	1496.39
533.07	1512.66
533.42	1528.49
533.78	1544.46
534.14	1560.77
534.50	1576.02
534.86	1591.84
535.21	1607.03
535.57	1622.83
535.93	1638.45
536.29	1653.12
536.65	1668.18
537.00	1682.94
537.36	1698.28
537.72	1712.79
538.08	1727.18
538.44	1740.82
538.79	1754.71
539.15	1768.30
539.51	1781.98
539.87	1796.31
540.22	1809.94
540.58	1823.63
540.94	1837.07
541.29	1849.89
541.65	1862.47
542.01	1875.72
542.37	1888.08
542.72	1900.42
543.08	1912.32
543.44	1924.64
543.79	1935.88
544.15	1946.76
544.51	1958.29
544.87	1969.34
545.22	1980.07
545.58	1990.10
545.94	1999.89
546.29	2009.76
546.65	2019.74
547.01	2029.03
547.36	2037.78
547.72	2046.16
548.07	2053.92
548.43	2062.03
548.79	2070.10
549.14	2077.66
549.50	2085.04
549.86	2092.67
550.21	2099.97
550.57	2107.16
550.92	2113.70
551.28	2120.78
551.64	2127.79
551.99	2134.25
552.35	2140.28
552.70	2146.34
553.06	2152.54
553.41	2158.81
553.77	2164.78
554.13	2170.80
554.48	2176.97
554.84	2182.28
555.19	2187.71
555.55	2193.04
555.90	2197.48
556.26	2202.21
556.61	2207.00
556.97	2211.14
557.32	2215.26
557.68	2219.42
558.03	2223.70
558.39	2227.47
558.74	2232.09
559.10	2236.00
559.45	2239.69
559.81	2244.21
560.16	2248.04
560.52	2251.25
560.87	2254.68
561.23	2257.47
561.58	2260.31
561.94	2262.69
562.29	2265.22
562.64	2267.93
563.00	2270.36
563.35	2273.95
563.71	2277.19
564.06	2280.40
564.42	2283.21
564.77	2285.76
565.12	2288.00
565.48	2289.76
565.83	2291.59
566.19	2292.90
566.54	2293.81
566.89	2294.88
567.25	2295.36
567.60	2296.78
567.96	2298.37
568.31	2299.34
568.66	2300.31
569.02	2300.98
569.37	2301.31
569.72	2302.09
570.08	2302.18
570.43	2302.40
570.78	2301.85
571.14	2300.30
571.49	2298.86
571.84	2298.66
572.20	2297.48
572.55	2296.43
572.90	2295.03
573.26	2293.60
573.61	2291.87
573.96	2290.09
574.31	2287.14
574.67	2284.04
575.02	2280.43
575.37	2277.11
575.72	2273.21
576.08	2269.98
576.43	2266.58
576.78	2263.04
577.13	2259.83
577.49	2256.69
577.84	2253.17
578.19	2249.36
578.54	2245.74
578.90	2241.55
579.25	2236.06
579.60	2231.12
579.95	2226.11
580.30	2220.92
580.66	2215.84
581.01	2210.87
581.36	2205.91
581.71	2201.70
582.06	2197.31
582.42	2192.76
582.77	2187.49
583.12	2182.94
583.47	2178.11
583.82	2173.14
584.17	2167.92
584.53	2162.44
584.88	2156.90
585.23	2151.21
585.58	2145.78
585.93	2140.37
586.28	2135.66
586.63	2130.45
586.98	2125.31
587.34	2120.55
587.69	2115.73
588.04	2110.34
588.39	2104.82
588.74	2098.40
589.09	2092.27
589.44	2085.41
589.79	2079.42
590.14	2073.81
590.49	2067.21
590.84	2060.93
591.19	2054.93
591.54	2048.47
591.89	2041.08
592.25	2034.26
592.60	2026.82
592.95	2019.09
593.30	2011.70
593.65	2004.11
594.00	1997.11
594.35	1989.90
594.70	1981.97
595.05	1974.66
595.40	1967.55
595.75	1959.83
596.10	1953.61
596.45	1946.88
596.80	1940.81
597.15	1934.16
597.50	1926.96
597.85	1920.61
598.19	1913.85
598.54	1906.57
598.89	1899.79
599.24	1893.84
599.59	1887.11
599.94	1881.06
600.29	1874.78
600.64	1868.19
600.99	1860.68
601.34	1853.95
601.69	1847.09
602.04	1840.18
602.39	1832.94
602.74	1826.00
603.08	1819.27
603.43	1812.53
603.78	1805.11
604.13	1797.85
604.48	1790.41
604.83	1783.59
605.18	1776.58
605.53	1768.62
605.87	1760.81
606.22	1753.69
606.57	1745.87
606.92	1738.55
607.27	1731.24
607.62	1724.38
607.96	1716.98
608.31	1710.26
608.66	1702.55
609.01	1694.96
609.36	1687.26
609.70	1679.29
610.05	1671.15
610.40	1663.57
610.75	1655.18
611.10	1647.52
611.44	1639.03
611.79	1631.28
612.14	1622.64
612.49	1613.41
612.83	1605.02
613.18	1596.85
613.53	1588.68
613.88	1580.11
614.22	1571.86
614.57	1563.27
614.92	1555.09
615.27	1547.72
615.61	1539.49
615.96	1531.43
616.31	1523.78
616.65	1516.52
617.00	1508.86
617.35	1501.28
617.70	1492.89
618.04	1484.49
618.39	1476.42
618.74	1468.89
619.08	1460.49
619.43	1452.83
619.78	1445.92
620.12	1438.66
620.47	1431.08
620.82	1422.88
621.16	1415.44
621.51	1407.87
621.85	1400.32
622.20	1391.92
622.55	1383.53
622.89	1375.65
623.24	1368.13
623.59	1360.71
623.93	1353.13
624.28	1345.91
624.62	1338.44
624.97	1331.36
625.32	1324.65
625.66	1317.63
626.01	1310.43
626.35	1302.91
626.70	1295.28
627.04	1287.53
627.39	1279.87
627.73	1272.57
628.08	1265.65
628.43	1258.31
628.77	1250.91
629.12	1243.30
629.46	1236.07
629.81	1228.69
630.15	1221.58
630.50	1214.06
630.84	1205.84
631.19	1197.90
631.53	1190.37
631.88	1182.67
632.22	1175.00
632.57	1167.66
632.91	1160.05
633.26	1152.65
633.60	1145.38
633.95	1138.22
634.29	1131.29
634.64	1124.60
634.98	1117.18
635.32	1109.99
635.67	1103.41
636.01	1096.70
636.36	1089.89
636.70	1083.44
637.05	1076.77
637.39	1070.20
637.73	1063.65
638.08	1057.77
638.42	1051.87
638.77	1045.38
639.11	1038.84
639.45	1032.45
639.80	1025.81
640.14	1019.40
640.49	1012.84
640.83	1006.51
641.17	1000.19
641.52	993.78
641.86	987.31
642.20	981.40
642.55	975.18
642.89	968.67
643.23	962.17
643.58	956.44
643.92	950.15
644.26	944.03
644.61	938.04
644.95	932.04
645.29	925.45
645.64	918.70
645.98	912.46
646.32	906.66
646.66	900.65
647.01	894.83
647.35	889.08
647.69	883.27
648.04	877.78
648.38	872.09
648.72	866.04
649.06	860.01
649.41	854.15
649.75	848.21
650.09	842.28
650.43	836.55
650.78	830.35
651.12	824.44
651.46	818.76
651.80	812.97
652.14	807.61
652.49	802.24
652.83	797.03
653.17	791.32
653.51	785.58
653.85	780.16
654.20	774.48
654.54	768.53
654.88	762.81
655.22	756.95
655.56	751.27
655.90	745.91
656.25	740.63
656.59	735.29
656.93	730.21
657.27	725.04
657.61	719.53
657.95	714.47
658.29	709.35
658.64	704.16
658.98	698.87
659.32	693.41
659.66	688.27
660.00	682.96
660.34	677.98
660.68	673.06
661.02	668.12
661.36	663.40
661.70	658.88
662.05	654.53
662.39	650.14
662.73	645.67
663.07	641.26
663.41	636.81
663.75	632.36
664.09	627.70
664.43	623.32
664.77	619.22
665.11	614.93
665.45	610.89
665.79	606.77
666.13	602.67
666.47	598.59
666.81	594.36
667.15	590.23
667.49	586.39
667.83	582.61
668.17	578.55
668.51	574.45
668.85	570.43
669.19	566.51
669.53	562.64
669.87	558.77
670.21	555.16
670.55	551.51
670.89	548.06
671.23	544.76
671.57	541.21
671.91	537.65
672.25	534.18
672.58	530.59
672.92	527.20
673.26	524.05
673.60	520.88
673.94	517.85
674.28	514.95
674.62	511.92
674.96	508.81
675.30	505.97
675.64	503.10
675.97	500.33
676.31	497.54
676.65	494.64
676.99	491.94
677.33	489.05
677.67	486.26
678.01	483.19
678.34	480.18
678.68	477.34
679.02	474.55
679.36	471.78
679.70	469.08
680.04	466.28
680.37	463.31
680.71	460.51
681.05	457.81
681.39	455.05
681.73	452.43
682.06	449.89
682.40	447.35
682.74	444.74
683.08	442.19
683.42	439.55
683.75	437.04
684.09	434.45
684.43	431.91
684.77	429.39
685.10	427.08
685.44	424.74
685.78	422.48
686.12	420.16
686.45	417.90
686.79	415.62
687.13	413.42
687.46	411.29
687.80	409.13
688.14	406.95
688.48	404.92
688.81	402.69
689.15	400.51
689.49	398.32
689.82	396.26
690.16	394.15
690.50	392.25
690.83	390.28
691.17	388.31
691.51	386.40
691.84	384.56
692.18	382.58
692.52	380.54
692.85	378.58
693.19	376.75
693.52	374.89
693.86	373.06
694.20	371.27
694.53	369.48
694.87	367.65
695.21	365.89
695.54	364.03
695.88	362.33
696.21	360.62
696.55	358.99
696.88	357.33
697.22	355.69
697.56	354.04
697.89	352.39
698.23	350.78
698.56	349.23
698.90	347.65
699.23	346.01
699.57	344.57
699.90	343.02
700.24	341.48
700.58	339.92
700.91	338.40
701.25	337.01
701.58	335.60
701.92	334.23
702.25	332.88
702.59	331.55
702.92	330.21
703.26	328.93
703.59	327.63
703.93	326.44
704.26	325.21
704.60	323.88
704.93	322.67
705.26	321.43
705.60	320.29
705.93	319.15
706.27	318.10
706.60	317.00
706.94	315.96
707.27	314.82
707.61	313.77
707.94	312.78
708.27	311.67
708.61	310.69
708.94	309.67
709.28	308.68
709.61	307.69
709.94	306.75
710.28	305.71
710.61	304.76
710.95	303.73
711.28	302.80
711.61	301.90
711.95	300.96
712.28	300.04
712.61	299.01
712.95	298.07
713.28	297.26
713.61	296.36
713.95	295.45
714.28	294.66
714.61	293.80
714.95	292.92
715.28	292.08
715.61	291.17
715.95	290.35
716.28	289.47
716.61	288.68
716.95	287.88
717.28	287.14
717.61	286.35
717.94	285.61
718.28	284.84
718.61	284.15
718.94	283.42
719.27	282.75
719.61	282.13
719.94	281.48
720.27	280.73
720.60	280.05
720.94	279.44
721.27	278.81
721.60	278.26
721.93	277.65
722.27	277.08
722.60	276.53
722.93	275.93
723.26	275.42
723.59	274.83
723.93	274.25
724.26	273.73
724.59	273.14
724.92	272.61
725.25	272.10
725.59	271.57
725.92	271.08
726.25	270.56
726.58	270.07
726.91	269.58
727.24	269.13
727.57	268.70
727.91	268.19
728.24	267.73
728.57	267.23
728.90	266.81
729.23	266.33
729.56	265.90
729.89	265.43
730.22	264.93
730.55	264.47
730.89	264.01
731.22	263.56
731.55	263.11
731.88	262.66
732.21	262.22
732.54	261.73
732.87	261.32
733.20	260.91
733.53	260.47
733.86	260.10
734.19	259.64
734.52	259.23
734.85	258.90
735.18	258.46
735.51	258.12
735.84	257.74
736.17	257.40
736.50	257.01
736.83	256.77
737.16	256.44
737.49	256.13
737.82	255.82
738.15	255.48
738.48	255.17
738.81	254.84
739.14	254.54
739.47	254.28
739.80	253.97
740.13	253.66
740.46	253.33
740.79	253.01
741.12	252.73
741.45	252.43
741.78	252.08
742.11	251.82
742.44	251.49
742.77	251.19
743.10	250.90
743.43	250.60
743.75	250.23
744.08	250.07
744.41	249.76
744.74	249.44
745.07	249.17
745.40	248.94
745.73	248.75
746.06	248.46
746.39	248.19
746.71	247.90
747.04	247.66
747.37	247.44
747.70	247.17
748.03	246.93
748.36	246.71
748.68	246.48
749.01	246.27
749.34	246.08
749.67	245.86
750.00	245.65
750.33	245.51
750.65	245.32
750.98	244.98
751.31	244.77
751.64	244.59
751.97	244.44
752.29	244.20
752.62	243.92
752.95	243.70
753.28	243.47
753.60	243.28
753.93	243.09
754.26	242.91
754.59	242.71
754.91	242.49
755.24	242.31
755.57	242.12
755.90	241.89
756.22	241.68
756.55	241.51
756.88	241.32
757.20	241.06
757.53	240.86
757.86	240.73
758.19	240.60
758.51	240.43
758.84	240.23
759.17	240.07
759.49	239.94
759.82	239.86
760.15	239.75
760.47	239.61
760.80	239.45
761.13	239.29
761.45	239.13
761.78	239.00
762.11	238.86
762.43	238.73
762.76	238.58
763.08	238.45
763.41	238.29
763.74	238.13
764.06	237.99
764.39	237.84
764.71	237.70
765.04	237.57
765.37	237.42
765.69	237.26
766.02	237.13
766.34	236.96
766.67	236.78
767.00	236.65
767.32	236.61
767.65	236.55
767.97	236.42
768.30	236.30
768.62	236.18
768.95	236.04
769.27	235.91
769.60	235.85
769.92	235.70
770.25	235.56
770.57	235.43
770.90	235.34
771.22	235.23
771.55	235.10
771.87	234.94
772.20	234.86
772.52	234.84
772.85	234.87
773.17	234.79
773.50	234.69
773.82	234.60
774.15	234.43
774.47	234.30
774.80	234.22
775.12	234.15
775.45	234.06
775.77	233.97
776.09	233.87
776.42	233.75
776.74	233.72
777.07	233.67
777.39	233.62
777.72	233.56
778.04	233.51
778.36	233.45
778.69	233.44
779.01	233.36
779.33	233.22
779.66	233.03
779.98	232.93
780.31	232.87
780.63	232.87
780.95	232.79
781.28	232.70
781.60	232.64
781.92	232.54
782.25	232.49
782.57	232.44
782.89	232.40
783.22	232.34
783.54	232.28
783.86	232.22
784.19	232.15
784.51	232.10
784.83	232.04
785.16	231.99
785.48	231.93
785.80	231.89
786.12	231.87
786.45	231.82
786.77	231.80
787.09	231.74
