SpectraSuite Data File
++++++++++++++++++++++++++++++++++++
Date: Fri Feb 01 17:39:38 EST 2013
User: group
Dark Spectrum Present: No
Reference Spectrum Present: No
Number of Sampled Component Spectra: 1
Spectrometers: USB2E7196
Integration Time (usec): 35000 (USB2E7196)
Spectra Averaged: 100 (USB2E7196)
Boxcar Smoothing: 10 (USB2E7196)
Correct for Electrical Dark: No (USB2E7196)
Strobe/Lamp Enabled: No (USB2E7196)
Correct for Detector Non-linearity: No (USB2E7196)
Correct for Stray Light: No (USB2E7196)
Number of Pixels in Processed Spectrum: 2048
>>>>>Begin Processed Spectral Data<<<<<
339.09	0.00
339.48	212.37
339.86	214.33
340.24	215.69
340.63	217.63
341.01	220.26
341.39	219.40
341.78	221.15
342.16	222.44
342.54	223.24
342.93	211.30
343.31	221.98
343.69	222.54
344.07	223.03
344.46	223.44
344.84	223.77
345.22	223.98
345.60	224.26
345.99	224.45
346.37	224.58
346.75	224.64
347.13	224.69
347.52	224.72
347.90	224.77
348.28	224.81
348.66	224.85
349.05	224.85
349.43	224.87
349.81	224.89
350.19	224.93
350.57	225.00
350.96	225.05
351.34	225.15
351.72	225.24
352.10	225.31
352.48	225.35
352.87	225.43
353.25	225.48
353.63	225.53
354.01	225.59
354.39	225.66
354.77	225.76
355.15	225.89
355.54	225.95
355.92	225.99
356.30	226.09
356.68	226.22
357.06	226.28
357.44	226.33
357.82	226.40
358.20	226.48
358.58	226.52
358.97	226.58
359.35	226.64
359.73	226.70
360.11	226.75
360.49	226.82
360.87	226.88
361.25	226.94
361.63	227.00
362.01	227.04
362.39	227.05
362.77	227.09
363.15	227.09
363.53	227.15
363.91	227.16
364.29	227.21
364.67	227.12
365.05	227.15
365.43	227.21
365.81	227.22
366.19	227.27
366.57	227.33
366.95	227.35
367.33	227.30
367.71	227.30
368.09	227.35
368.47	227.36
368.85	227.34
369.23	227.35
369.61	227.29
369.99	227.29
370.37	227.30
370.75	227.33
371.13	227.29
371.51	227.22
371.89	227.21
372.27	227.14
372.65	227.12
373.03	227.08
373.41	226.99
373.78	226.96
374.16	226.88
374.54	226.77
374.92	226.72
375.30	226.66
375.68	226.58
376.06	226.52
376.44	226.45
376.82	226.40
377.19	226.31
377.57	226.28
377.95	226.19
378.33	226.10
378.71	225.96
379.09	225.92
379.47	225.91
379.84	225.84
380.22	225.73
380.60	225.68
380.98	225.61
381.36	225.55
381.73	225.46
382.11	225.39
382.49	225.37
382.87	225.28
383.25	225.26
383.62	225.33
384.00	225.24
384.38	225.22
384.76	225.18
385.13	225.19
385.51	225.13
385.89	225.07
386.27	225.06
386.64	225.04
387.02	224.99
387.40	224.93
387.78	224.91
388.15	224.92
388.53	224.88
388.91	224.84
389.29	224.81
389.66	224.80
390.04	224.78
390.42	224.75
390.79	224.75
391.17	224.71
391.55	224.58
391.92	224.57
392.30	224.53
392.68	224.49
393.05	224.46
393.43	224.50
393.81	224.51
394.18	224.48
394.56	224.47
394.94	224.49
395.31	224.50
395.69	224.54
396.06	224.57
396.44	224.61
396.82	224.61
397.19	224.66
397.57	224.69
397.95	224.76
398.32	224.78
398.70	224.84
399.07	224.91
399.45	224.94
399.82	224.95
400.20	225.01
400.58	225.04
400.95	225.07
401.33	225.12
401.70	225.24
402.08	225.33
402.45	225.42
402.83	225.52
403.20	225.58
403.58	225.64
403.95	225.77
404.33	225.86
404.71	226.02
405.08	226.19
405.46	226.30
405.83	226.43
406.21	226.55
406.58	226.68
406.96	226.85
407.33	227.05
407.70	227.28
408.08	227.55
408.45	227.78
408.83	228.02
409.20	228.22
409.58	228.45
409.95	228.68
410.33	228.95
410.70	229.15
411.08	229.48
411.45	229.83
411.82	230.13
412.20	230.50
412.57	230.93
412.95	231.24
413.32	231.68
413.69	232.12
414.07	232.61
414.44	233.11
414.82	233.62
415.19	234.19
415.56	234.79
415.94	235.36
416.31	236.07
416.68	236.73
417.06	237.48
417.43	238.17
417.81	239.02
418.18	239.83
418.55	240.81
418.93	241.73
419.30	242.67
419.67	243.67
420.04	244.69
420.42	245.76
420.79	247.05
421.16	248.28
421.54	249.51
421.91	250.82
422.28	252.18
422.66	253.58
423.03	254.99
423.40	256.39
423.77	257.92
424.15	259.44
424.52	261.05
424.89	262.82
425.26	264.48
425.64	266.06
426.01	267.80
426.38	269.59
426.75	271.40
427.13	273.23
427.50	275.20
427.87	277.25
428.24	279.27
428.61	281.18
428.99	283.24
429.36	285.53
429.73	287.72
430.10	289.88
430.47	292.10
430.85	294.39
431.22	296.77
431.59	299.30
431.96	301.69
432.33	304.33
432.70	306.88
433.08	309.90
433.45	312.71
433.82	315.52
434.19	318.56
434.56	321.54
434.93	324.38
435.30	327.17
435.68	330.28
436.05	333.26
436.42	336.18
436.79	338.84
437.16	341.69
437.53	344.73
437.90	347.74
438.27	350.66
438.64	353.62
439.01	356.44
439.38	358.83
439.75	361.20
440.13	363.89
440.50	366.36
440.87	368.32
441.24	370.36
441.61	372.68
441.98	374.34
442.35	376.33
442.72	378.39
443.09	380.34
443.46	381.39
443.83	382.04
444.20	382.67
444.57	383.60
444.94	383.94
445.31	384.31
445.68	384.71
446.05	384.86
446.42	384.49
446.79	384.05
447.16	383.60
447.53	383.24
447.90	382.00
448.27	380.75
448.64	379.08
449.01	377.91
449.37	375.78
449.74	373.70
450.11	371.28
450.48	368.61
450.85	365.90
451.22	363.60
451.59	361.48
451.96	359.40
452.33	356.62
452.70	354.12
453.07	351.08
453.43	347.95
453.80	344.94
454.17	342.09
454.54	339.36
454.91	336.44
455.28	333.53
455.65	330.89
456.02	328.30
456.38	326.02
456.75	323.17
457.12	320.77
457.49	318.37
457.86	315.99
458.23	313.97
458.59	311.77
458.96	309.52
459.33	307.47
459.70	305.44
460.07	303.80
460.43	301.96
460.80	300.24
461.17	298.70
461.54	297.09
461.91	295.54
462.27	293.96
462.64	292.57
463.01	291.17
463.38	289.76
463.74	288.27
464.11	287.05
464.48	285.92
464.85	284.73
465.21	283.82
465.58	282.87
465.95	281.74
466.32	280.77
466.68	279.85
467.05	278.89
467.42	277.97
467.78	277.00
468.15	276.03
468.52	275.33
468.88	274.43
469.25	273.63
469.62	272.97
469.98	272.30
470.35	271.66
470.72	271.02
471.08	270.34
471.45	269.81
471.82	269.23
472.18	268.59
472.55	268.14
472.92	267.58
473.28	267.10
473.65	266.64
474.02	266.19
474.38	265.74
474.75	265.40
475.11	265.01
475.48	264.76
475.85	264.54
476.21	264.27
476.58	264.08
476.94	263.93
477.31	263.75
477.67	263.56
478.04	263.43
478.41	263.37
478.77	263.38
479.14	263.25
479.50	263.22
479.87	263.33
480.23	263.41
480.60	263.51
480.96	263.58
481.33	263.73
481.69	263.92
482.06	264.15
482.42	264.34
482.79	264.60
483.15	264.89
483.52	265.26
483.88	265.64
484.25	266.01
484.61	266.41
484.98	266.85
485.34	267.41
485.71	268.02
486.07	268.59
486.44	269.16
486.80	269.89
487.17	270.63
487.53	271.45
487.90	272.27
488.26	273.18
488.62	274.20
488.99	275.20
489.35	276.22
489.72	277.32
490.08	278.51
490.44	279.76
490.81	281.10
491.17	282.44
491.54	283.91
491.90	285.41
492.26	287.07
492.63	288.82
492.99	290.62
493.36	292.50
493.72	294.58
494.08	296.69
494.45	298.92
494.81	301.23
495.17	303.60
495.54	306.19
495.90	308.84
496.26	311.58
496.63	314.48
496.99	317.57
497.35	320.80
497.72	324.18
498.08	327.66
498.44	331.30
498.80	335.17
499.17	339.18
499.53	343.36
499.89	347.68
500.26	352.11
500.62	356.74
500.98	361.67
501.34	366.67
501.71	371.90
502.07	377.26
502.43	382.81
502.79	388.53
503.16	394.46
503.52	400.67
503.88	407.03
504.24	413.63
504.60	420.40
504.97	427.40
505.33	434.65
505.69	442.31
506.05	449.99
506.41	457.77
506.78	465.86
507.14	474.21
507.50	482.79
507.86	491.70
508.22	500.76
508.59	509.81
508.95	519.23
509.31	528.96
509.67	538.93
510.03	549.09
510.39	559.53
510.75	570.21
511.12	580.89
511.48	591.93
511.84	603.15
512.20	614.45
512.56	626.25
512.92	638.13
513.28	650.25
513.64	662.47
514.00	675.01
514.37	687.68
514.73	700.42
515.09	713.28
515.45	726.30
515.81	739.57
516.17	753.31
516.53	767.16
516.89	781.08
517.25	795.07
517.61	809.21
517.97	823.42
518.33	837.46
518.69	852.00
519.05	866.74
519.41	881.65
519.77	896.87
520.13	912.05
520.49	927.20
520.85	942.15
521.21	957.46
521.57	973.19
521.93	988.64
522.29	1004.63
522.65	1020.62
523.01	1036.41
523.37	1052.21
523.73	1068.09
524.09	1083.82
524.45	1099.64
524.81	1115.84
525.17	1132.17
525.53	1148.59
525.89	1165.09
526.25	1181.55
526.61	1197.63
526.97	1213.96
527.33	1230.18
527.68	1246.30
528.04	1262.47
528.40	1278.75
528.76	1295.55
529.12	1311.98
529.48	1328.60
529.84	1344.41
530.20	1360.61
530.56	1377.36
530.91	1394.38
531.27	1410.80
531.63	1427.11
531.99	1443.54
532.35	1459.38
532.71	1475.11
533.07	1491.24
533.42	1507.06
533.78	1523.07
534.14	1539.10
534.50	1554.40
534.86	1570.01
535.21	1585.22
535.57	1600.94
535.93	1616.34
536.29	1631.04
536.65	1646.09
537.00	1660.73
537.36	1675.99
537.72	1690.40
538.08	1704.72
538.44	1718.52
538.79	1732.40
539.15	1745.77
539.51	1759.36
539.87	1773.62
540.22	1787.19
540.58	1800.88
540.94	1814.09
541.29	1826.77
541.65	1839.49
542.01	1852.61
542.37	1865.06
542.72	1877.44
543.08	1889.44
543.44	1901.83
543.79	1913.30
544.15	1924.18
544.51	1935.83
544.87	1946.80
545.22	1957.91
545.58	1968.43
545.94	1978.46
546.29	1988.63
546.65	1998.86
547.01	2008.65
547.36	2017.58
547.72	2026.49
548.07	2034.86
548.43	2043.34
548.79	2051.48
549.14	2059.45
549.50	2067.14
549.86	2075.03
550.21	2082.61
550.57	2090.22
550.92	2097.18
551.28	2104.42
551.64	2111.93
551.99	2118.88
552.35	2125.60
552.70	2132.05
553.06	2138.32
553.41	2145.04
553.77	2151.22
554.13	2157.56
554.48	2163.85
554.84	2170.05
555.19	2175.70
555.55	2181.08
555.90	2186.17
556.26	2191.83
556.61	2196.93
556.97	2201.83
557.32	2206.51
557.68	2211.12
558.03	2215.55
558.39	2219.81
558.74	2224.83
559.10	2229.21
559.45	2233.32
559.81	2237.96
560.16	2242.25
560.52	2246.10
560.87	2249.84
561.23	2253.06
561.58	2256.49
561.94	2259.59
562.29	2262.13
562.64	2265.61
563.00	2268.73
563.35	2272.55
563.71	2276.16
564.06	2279.60
564.42	2282.91
564.77	2285.95
565.12	2288.95
565.48	2291.55
565.83	2294.12
566.19	2296.09
566.54	2297.32
566.89	2299.12
567.25	2300.23
567.60	2301.88
567.96	2304.08
568.31	2305.48
568.66	2307.04
569.02	2308.23
569.37	2309.03
569.72	2310.40
570.08	2310.90
570.43	2311.41
570.78	2311.51
571.14	2310.53
571.49	2309.75
571.84	2309.64
572.20	2308.97
572.55	2308.17
572.90	2306.80
573.26	2305.85
573.61	2304.46
573.96	2303.38
574.31	2300.75
574.67	2298.37
575.02	2295.22
575.37	2292.14
575.72	2288.86
576.08	2285.83
576.43	2282.63
576.78	2279.68
577.13	2276.68
577.49	2273.77
577.84	2270.81
578.19	2267.18
578.54	2263.89
578.90	2260.24
579.25	2255.29
579.60	2250.91
579.95	2246.39
580.30	2241.86
580.66	2236.86
581.01	2232.19
581.36	2227.50
581.71	2223.81
582.06	2219.74
582.42	2215.79
582.77	2210.94
583.12	2206.56
583.47	2202.44
583.82	2198.07
584.17	2192.89
584.53	2187.84
584.88	2182.50
585.23	2176.98
585.58	2171.82
585.93	2166.55
586.28	2161.72
586.63	2156.90
586.98	2151.81
587.34	2147.23
587.69	2142.56
588.04	2137.74
588.39	2132.34
588.74	2126.17
589.09	2119.92
589.44	2113.34
589.79	2107.10
590.14	2101.41
590.49	2095.05
590.84	2088.61
591.19	2082.70
591.54	2076.44
591.89	2069.31
592.25	2062.85
592.60	2055.64
592.95	2048.43
593.30	2041.23
593.65	2033.78
594.00	2026.78
594.35	2019.64
594.70	2011.47
595.05	2004.42
595.40	1997.07
595.75	1989.71
596.10	1983.55
596.45	1977.05
596.80	1970.78
597.15	1964.54
597.50	1957.91
597.85	1951.48
598.19	1944.98
598.54	1938.13
598.89	1931.55
599.24	1925.62
599.59	1919.21
599.94	1912.95
600.29	1906.51
600.64	1899.72
600.99	1892.52
601.34	1885.65
601.69	1878.68
602.04	1872.12
602.39	1864.71
602.74	1857.73
603.08	1851.05
603.43	1844.14
603.78	1836.69
604.13	1829.42
604.48	1822.18
604.83	1815.32
605.18	1808.52
605.53	1800.59
605.87	1792.45
606.22	1784.97
606.57	1777.02
606.92	1769.15
607.27	1762.12
607.62	1755.26
607.96	1748.18
608.31	1741.64
608.66	1734.09
609.01	1726.52
609.36	1718.93
609.70	1710.97
610.05	1702.99
610.40	1695.17
610.75	1686.88
611.10	1679.22
611.44	1670.66
611.79	1662.30
612.14	1653.38
612.49	1643.90
612.83	1635.19
613.18	1626.64
613.53	1618.38
613.88	1609.72
614.22	1601.30
614.57	1592.37
614.92	1583.97
615.27	1576.26
615.61	1567.72
615.96	1559.46
616.31	1551.38
616.65	1543.69
617.00	1535.87
617.35	1528.02
617.70	1519.52
618.04	1510.97
618.39	1502.40
618.74	1494.69
619.08	1486.43
619.43	1478.59
619.78	1471.46
620.12	1464.27
620.47	1456.75
620.82	1448.31
621.16	1440.56
621.51	1432.83
621.85	1425.00
622.20	1416.34
622.55	1407.65
622.89	1399.55
623.24	1391.60
623.59	1384.08
623.93	1376.37
624.28	1368.86
624.62	1361.09
624.97	1353.67
625.32	1346.46
625.66	1339.30
626.01	1331.91
626.35	1324.36
626.70	1316.41
627.04	1308.60
627.39	1300.54
627.73	1292.83
628.08	1285.84
628.43	1278.49
628.77	1271.07
629.12	1263.41
629.46	1256.14
629.81	1248.41
630.15	1240.88
630.50	1233.41
630.84	1225.24
631.19	1217.05
631.53	1209.40
631.88	1201.61
632.22	1193.88
632.57	1186.39
632.91	1178.61
633.26	1171.06
633.60	1163.33
633.95	1155.86
634.29	1148.48
634.64	1141.54
634.98	1134.12
635.32	1126.83
635.67	1119.95
636.01	1113.06
636.36	1106.18
636.70	1099.44
637.05	1092.86
637.39	1086.32
637.73	1079.66
638.08	1073.53
638.42	1067.46
638.77	1060.86
639.11	1054.21
639.45	1047.68
639.80	1040.96
640.14	1034.54
640.49	1027.91
640.83	1021.40
641.17	1015.23
641.52	1008.90
641.86	1002.34
642.20	996.31
642.55	989.79
642.89	983.23
643.23	976.51
643.58	970.53
643.92	964.28
644.26	958.14
644.61	952.00
644.95	945.90
645.29	939.32
645.64	932.52
645.98	926.00
646.32	919.79
646.66	913.62
647.01	907.69
647.35	901.87
647.69	895.84
648.04	890.25
648.38	884.34
648.72	878.37
649.06	872.33
649.41	866.25
649.75	860.23
650.09	854.25
650.43	848.37
650.78	842.14
651.12	835.97
651.46	830.14
651.80	824.35
652.14	818.81
652.49	813.35
652.83	808.05
653.17	802.51
653.51	796.91
653.85	791.39
654.20	785.70
654.54	779.59
654.88	773.77
655.22	767.76
655.56	761.88
655.90	756.20
656.25	750.79
656.59	745.40
656.93	740.22
657.27	734.97
657.61	729.42
657.95	724.24
658.29	719.05
658.64	713.63
658.98	708.15
659.32	702.52
659.66	697.16
660.00	691.88
660.34	686.79
660.68	681.75
661.02	676.64
661.36	671.80
661.70	667.25
662.05	662.79
662.39	658.49
662.73	654.03
663.07	649.63
663.41	645.15
663.75	640.60
664.09	635.95
664.43	631.49
664.77	627.37
665.11	623.09
665.45	618.88
665.79	614.78
666.13	610.66
666.47	606.60
666.81	602.45
667.15	598.15
667.49	594.10
667.83	590.15
668.17	586.12
668.51	582.00
668.85	577.85
669.19	573.83
669.53	569.90
669.87	566.00
670.21	562.18
670.55	558.38
670.89	554.90
671.23	551.43
671.57	547.79
671.91	544.24
672.25	540.62
672.58	537.11
672.92	533.62
673.26	530.24
673.60	526.93
673.94	523.71
674.28	520.72
674.62	517.72
674.96	514.61
675.30	511.70
675.64	508.79
675.97	505.86
676.31	503.00
676.65	500.05
676.99	497.23
677.33	494.20
677.67	491.37
678.01	488.35
678.34	485.37
678.68	482.42
679.02	479.49
679.36	476.65
679.70	473.81
680.04	471.01
680.37	468.16
680.71	465.35
681.05	462.66
681.39	459.91
681.73	457.16
682.06	454.59
682.40	452.02
682.74	449.41
683.08	446.83
683.42	444.18
683.75	441.58
684.09	438.92
684.43	436.45
684.77	433.96
685.10	431.51
685.44	429.09
685.78	426.79
686.12	424.45
686.45	422.08
686.79	419.77
687.13	417.55
687.46	415.32
687.80	413.09
688.14	410.82
688.48	408.73
688.81	406.51
689.15	404.34
689.49	402.13
689.82	399.94
690.16	397.79
690.50	395.78
690.83	393.79
691.17	391.77
691.51	389.83
691.84	387.89
692.18	385.93
692.52	383.95
692.85	381.96
693.19	380.08
693.52	378.19
693.86	376.30
694.20	374.40
694.53	372.62
694.87	370.72
695.21	368.89
695.54	366.97
695.88	365.16
696.21	363.38
696.55	361.57
696.88	359.87
697.22	358.20
697.56	356.52
697.89	354.81
698.23	353.20
698.56	351.56
698.90	349.96
699.23	348.30
699.57	346.70
699.90	345.06
700.24	343.44
700.58	341.95
700.91	340.45
701.25	339.03
701.58	337.61
701.92	336.21
702.25	334.83
702.59	333.46
702.92	332.13
703.26	330.74
703.59	329.47
703.93	328.26
704.26	327.01
704.60	325.69
704.93	324.39
705.26	323.06
705.60	321.76
705.93	320.53
706.27	319.46
706.60	318.41
706.94	317.32
707.27	316.18
707.61	315.03
707.94	313.93
708.27	312.76
708.61	311.60
708.94	310.54
709.28	309.49
709.61	308.46
709.94	307.45
710.28	306.42
710.61	305.39
710.95	304.24
711.28	303.29
711.61	302.29
711.95	301.38
712.28	300.44
712.61	299.51
712.95	298.57
713.28	297.59
713.61	296.61
713.95	295.70
714.28	294.84
714.61	293.98
714.95	293.13
715.28	292.26
715.61	291.36
715.95	290.51
716.28	289.65
716.61	288.79
716.95	287.91
717.28	287.12
717.61	286.33
717.94	285.58
718.28	284.70
718.61	283.95
718.94	283.22
719.27	282.55
719.61	281.87
719.94	281.17
720.27	280.46
720.60	279.74
720.94	279.08
721.27	278.45
721.60	277.84
721.93	277.23
722.27	276.65
722.60	276.10
722.93	275.50
723.26	274.96
723.59	274.39
723.93	273.85
724.26	273.29
724.59	272.70
724.92	272.14
725.25	271.69
725.59	271.17
725.92	270.63
726.25	270.08
726.58	269.55
726.91	269.05
727.24	268.56
727.57	268.12
727.91	267.63
728.24	267.13
728.57	266.65
728.90	266.16
729.23	265.62
729.56	265.20
729.89	264.73
730.22	264.20
730.55	263.69
730.89	263.23
731.22	262.73
731.55	262.32
731.88	261.89
732.21	261.43
732.54	260.97
732.87	260.53
733.20	260.09
733.53	259.69
733.86	259.30
734.19	258.90
734.52	258.50
734.85	258.15
735.18	257.74
735.51	257.36
735.84	256.95
736.17	256.60
736.50	256.11
736.83	255.85
737.16	255.54
737.49	255.20
737.82	254.80
738.15	254.47
738.48	254.09
738.81	253.75
739.14	253.44
739.47	253.14
739.80	252.84
740.13	252.53
740.46	252.20
740.79	251.82
741.12	251.49
741.45	251.17
741.78	250.80
742.11	250.52
742.44	250.16
742.77	249.88
743.10	249.57
743.43	249.27
743.75	248.87
744.08	248.69
744.41	248.43
744.74	248.20
745.07	247.92
745.40	247.66
745.73	247.42
746.06	247.07
746.39	246.74
746.71	246.43
747.04	246.14
747.37	245.88
747.70	245.66
748.03	245.39
748.36	245.17
748.68	244.95
749.01	244.64
749.34	244.43
749.67	244.17
750.00	243.94
750.33	243.81
750.65	243.59
750.98	243.23
751.31	242.98
751.64	242.72
751.97	242.56
752.29	242.30
752.62	242.01
752.95	241.82
753.28	241.63
753.60	241.45
753.93	241.29
754.26	241.08
754.59	240.85
754.91	240.62
755.24	240.38
755.57	240.16
755.90	239.99
756.22	239.77
756.55	239.60
756.88	239.42
757.20	239.18
757.53	238.98
757.86	238.79
758.19	238.62
758.51	238.51
758.84	238.28
759.17	238.13
759.49	238.00
759.82	237.84
760.15	237.70
760.47	237.53
760.80	237.34
761.13	237.18
761.45	237.02
761.78	236.92
762.11	236.76
762.43	236.61
762.76	236.48
763.08	236.40
763.41	236.25
763.74	236.11
764.06	235.94
764.39	235.82
764.71	235.68
765.04	235.55
765.37	235.39
765.69	235.28
766.02	235.18
766.34	235.07
766.67	234.95
767.00	234.83
767.32	234.78
767.65	234.76
767.97	234.65
768.30	234.57
768.62	234.45
768.95	234.37
769.27	234.25
769.60	234.15
769.92	234.00
770.25	233.88
770.57	233.78
770.90	233.69
771.22	233.62
771.55	233.54
771.87	233.47
772.20	233.35
772.52	233.34
772.85	233.35
773.17	233.29
773.50	233.19
773.82	233.09
774.15	232.96
774.47	232.79
774.80	232.72
775.12	232.61
775.45	232.52
775.77	232.45
776.09	232.38
776.42	232.30
776.74	232.26
777.07	232.17
777.39	232.07
777.72	231.98
778.04	231.86
778.36	231.78
778.69	231.71
779.01	231.70
779.33	231.55
779.66	231.36
779.98	231.28
780.31	231.20
780.63	231.15
780.95	231.07
781.28	231.01
781.60	230.96
781.92	230.88
782.25	230.81
782.57	230.73
782.89	230.67
783.22	230.57
783.54	230.48
783.86	230.43
784.19	230.40
784.51	230.37
784.83	230.32
785.16	230.25
785.48	230.20
785.80	230.10
786.12	230.04
786.45	230.01
786.77	229.95
787.09	229.90
