SpectraSuite Data File
++++++++++++++++++++++++++++++++++++
Date: Fri Feb 01 17:03:28 EST 2013
User: group
Dark Spectrum Present: No
Reference Spectrum Present: No
Number of Sampled Component Spectra: 1
Spectrometers: USB2E7196
Integration Time (usec): 35000 (USB2E7196)
Spectra Averaged: 100 (USB2E7196)
Boxcar Smoothing: 10 (USB2E7196)
Correct for Electrical Dark: No (USB2E7196)
Strobe/Lamp Enabled: No (USB2E7196)
Correct for Detector Non-linearity: No (USB2E7196)
Correct for Stray Light: No (USB2E7196)
Number of Pixels in Processed Spectrum: 2048
>>>>>Begin Processed Spectral Data<<<<<
339.09	0.00
339.48	213.51
339.86	215.41
340.24	216.60
340.63	217.97
341.01	220.23
341.39	220.59
341.78	222.18
342.16	222.80
342.54	223.53
342.93	211.88
343.31	222.58
343.69	223.10
344.07	223.52
344.46	223.93
344.84	224.28
345.22	224.54
345.60	224.76
345.99	224.91
346.37	225.03
346.75	225.09
347.13	225.16
347.52	225.21
347.90	225.27
348.28	225.26
348.66	225.30
349.05	225.25
349.43	225.26
349.81	225.27
350.19	225.26
350.57	225.29
350.96	225.35
351.34	225.44
351.72	225.50
352.10	225.57
352.48	225.60
352.87	225.62
353.25	225.64
353.63	225.69
354.01	225.76
354.39	225.83
354.77	225.91
355.15	226.02
355.54	226.05
355.92	226.06
356.30	226.15
356.68	226.28
357.06	226.36
357.44	226.42
357.82	226.48
358.20	226.59
358.58	226.69
358.97	226.74
359.35	226.80
359.73	226.87
360.11	226.93
360.49	226.99
360.87	227.04
361.25	227.10
361.63	227.17
362.01	227.23
362.39	227.26
362.77	227.29
363.15	227.29
363.53	227.36
363.91	227.39
364.29	227.42
364.67	227.37
365.05	227.39
365.43	227.41
365.81	227.46
366.19	227.49
366.57	227.51
366.95	227.52
367.33	227.50
367.71	227.51
368.09	227.52
368.47	227.53
368.85	227.55
369.23	227.56
369.61	227.53
369.99	227.50
370.37	227.48
370.75	227.53
371.13	227.49
371.51	227.44
371.89	227.44
372.27	227.40
372.65	227.35
373.03	227.31
373.41	227.29
373.78	227.24
374.16	227.13
374.54	227.07
374.92	227.00
375.30	226.94
375.68	226.86
376.06	226.83
376.44	226.79
376.82	226.77
377.19	226.68
377.57	226.63
377.95	226.57
378.33	226.51
378.71	226.40
379.09	226.35
379.47	226.33
379.84	226.29
380.22	226.20
380.60	226.15
380.98	226.06
381.36	225.97
381.73	225.90
382.11	225.88
382.49	225.85
382.87	225.81
383.25	225.79
383.62	225.87
384.00	225.78
384.38	225.72
384.76	225.66
385.13	225.68
385.51	225.60
385.89	225.54
386.27	225.50
386.64	225.47
387.02	225.42
387.40	225.35
387.78	225.26
388.15	225.26
388.53	225.24
388.91	225.21
389.29	225.22
389.66	225.21
390.04	225.16
390.42	225.13
390.79	225.12
391.17	225.10
391.55	224.96
391.92	224.96
392.30	224.95
392.68	224.89
393.05	224.86
393.43	224.89
393.81	224.93
394.18	224.91
394.56	224.90
394.94	224.94
395.31	224.96
395.69	225.03
396.06	225.04
396.44	225.05
396.82	225.04
397.19	225.10
397.57	225.10
397.95	225.15
398.32	225.13
398.70	225.15
399.07	225.22
399.45	225.24
399.82	225.27
400.20	225.31
400.58	225.39
400.95	225.41
401.33	225.48
401.70	225.58
402.08	225.67
402.45	225.74
402.83	225.82
403.20	225.90
403.58	225.97
403.95	226.05
404.33	226.17
404.71	226.31
405.08	226.50
405.46	226.63
405.83	226.74
406.21	226.90
406.58	227.07
406.96	227.21
407.33	227.38
407.70	227.60
408.08	227.87
408.45	228.09
408.83	228.36
409.20	228.56
409.58	228.72
409.95	228.99
410.33	229.25
410.70	229.48
411.08	229.78
411.45	230.10
411.82	230.44
412.20	230.79
412.57	231.21
412.95	231.48
413.32	231.91
413.69	232.33
414.07	232.77
414.44	233.20
414.82	233.70
415.19	234.29
415.56	234.85
415.94	235.38
416.31	236.01
416.68	236.61
417.06	237.33
417.43	238.06
417.81	238.83
418.18	239.64
418.55	240.51
418.93	241.38
419.30	242.26
419.67	243.18
420.04	244.13
420.42	245.13
420.79	246.31
421.16	247.45
421.54	248.65
421.91	249.86
422.28	251.17
422.66	252.51
423.03	253.78
423.40	255.06
423.77	256.49
424.15	257.93
424.52	259.44
424.89	261.05
425.26	262.58
425.64	264.00
426.01	265.55
426.38	267.20
426.75	268.86
427.13	270.56
427.50	272.34
427.87	274.22
428.24	276.07
428.61	277.79
428.99	279.70
429.36	281.77
429.73	283.80
430.10	285.78
430.47	287.78
430.85	289.87
431.22	292.14
431.59	294.52
431.96	296.74
432.33	299.18
432.70	301.51
433.08	304.30
433.45	306.91
433.82	309.49
434.19	312.38
434.56	315.21
434.93	317.86
435.30	320.53
435.68	323.42
436.05	326.23
436.42	329.00
436.79	331.51
437.16	334.23
437.53	337.04
437.90	339.80
438.27	342.51
438.64	345.29
439.01	347.83
439.38	350.04
439.75	352.17
440.13	354.66
440.50	356.96
440.87	358.80
441.24	360.74
441.61	362.92
441.98	364.30
442.35	366.08
442.72	367.90
443.09	369.69
443.46	370.60
443.83	371.15
444.20	371.68
444.57	372.49
444.94	372.79
445.31	373.19
445.68	373.59
446.05	373.71
446.42	373.41
446.79	373.04
447.16	372.62
447.53	372.31
447.90	371.18
448.27	370.06
448.64	368.51
449.01	367.37
449.37	365.44
449.74	363.64
450.11	361.42
450.48	358.99
450.85	356.46
451.22	354.40
451.59	352.44
451.96	350.53
452.33	347.98
452.70	345.63
453.07	342.80
453.43	339.93
453.80	337.16
454.17	334.49
454.54	331.95
454.91	329.22
455.28	326.57
455.65	324.08
456.02	321.70
456.38	319.56
456.75	316.89
457.12	314.65
457.49	312.41
457.86	310.24
458.23	308.38
458.59	306.33
458.96	304.26
459.33	302.44
459.70	300.56
460.07	299.08
460.43	297.40
460.80	295.80
461.17	294.36
461.54	292.91
461.91	291.50
462.27	290.05
462.64	288.80
463.01	287.48
463.38	286.20
463.74	284.78
464.11	283.60
464.48	282.65
464.85	281.57
465.21	280.77
465.58	279.88
465.95	278.78
466.32	277.90
466.68	277.00
467.05	276.07
467.42	275.23
467.78	274.29
468.15	273.39
468.52	272.77
468.88	271.91
469.25	271.15
469.62	270.55
469.98	269.89
470.35	269.28
470.72	268.68
471.08	268.08
471.45	267.60
471.82	267.11
472.18	266.54
472.55	266.11
472.92	265.56
473.28	265.13
473.65	264.71
474.02	264.28
474.38	263.96
474.75	263.65
475.11	263.32
475.48	263.10
475.85	262.87
476.21	262.62
476.58	262.48
476.94	262.33
477.31	262.15
477.67	262.02
478.04	261.92
478.41	261.89
478.77	261.92
479.14	261.81
479.50	261.81
479.87	261.85
480.23	261.94
480.60	262.00
480.96	262.06
481.33	262.28
481.69	262.55
482.06	262.71
482.42	262.93
482.79	263.21
483.15	263.49
483.52	263.88
483.88	264.19
484.25	264.55
484.61	264.97
484.98	265.44
485.34	266.01
485.71	266.63
486.07	267.22
486.44	267.79
486.80	268.54
487.17	269.25
487.53	270.07
487.90	270.87
488.26	271.82
488.62	272.85
488.99	273.77
489.35	274.75
489.72	275.88
490.08	277.10
490.44	278.31
490.81	279.65
491.17	280.98
491.54	282.48
491.90	284.02
492.26	285.62
492.63	287.33
492.99	289.06
493.36	290.88
493.72	292.91
494.08	295.05
494.45	297.28
494.81	299.64
495.17	302.07
495.54	304.69
495.90	307.34
496.26	310.07
496.63	313.06
496.99	316.18
497.35	319.43
497.72	322.82
498.08	326.33
498.44	329.96
498.80	333.93
499.17	337.93
499.53	342.07
499.89	346.46
500.26	350.96
500.62	355.63
500.98	360.59
501.34	365.58
501.71	370.82
502.07	376.19
502.43	381.78
502.79	387.56
503.16	393.58
503.52	399.78
503.88	406.15
504.24	412.73
504.60	419.52
504.97	426.59
505.33	433.78
505.69	441.44
506.05	449.18
506.41	456.87
506.78	464.99
507.14	473.33
507.50	482.02
507.86	490.93
508.22	500.03
508.59	509.17
508.95	518.63
509.31	528.36
509.67	538.32
510.03	548.44
510.39	558.87
510.75	569.46
511.12	580.32
511.48	591.52
511.84	602.76
512.20	614.15
512.56	625.89
512.92	637.91
513.28	650.03
513.64	662.30
514.00	674.86
514.37	687.60
514.73	700.48
515.09	713.24
515.45	726.28
515.81	739.70
516.17	753.48
516.53	767.43
516.89	781.38
517.25	795.33
517.61	809.51
517.97	823.78
518.33	838.07
518.69	852.56
519.05	867.30
519.41	882.18
519.77	897.42
520.13	912.61
520.49	927.66
520.85	942.75
521.21	958.19
521.57	974.12
521.93	989.58
522.29	1005.62
522.65	1021.54
523.01	1037.38
523.37	1052.99
523.73	1068.78
524.09	1084.56
524.45	1100.45
524.81	1116.84
525.17	1133.35
525.53	1149.73
525.89	1166.14
526.25	1182.67
526.61	1198.73
526.97	1215.21
527.33	1231.33
527.68	1247.59
528.04	1263.74
528.40	1279.94
528.76	1296.66
529.12	1312.99
529.48	1329.54
529.84	1345.21
530.20	1361.49
530.56	1378.20
530.91	1395.24
531.27	1411.49
531.63	1427.61
531.99	1443.88
532.35	1459.38
532.71	1474.89
533.07	1490.89
533.42	1506.45
533.78	1522.15
534.14	1537.85
534.50	1552.87
534.86	1568.24
535.21	1583.04
535.57	1598.53
535.93	1613.73
536.29	1628.13
536.65	1642.61
537.00	1656.96
537.36	1671.92
537.72	1686.04
538.08	1700.24
538.44	1713.70
538.79	1727.34
539.15	1740.70
539.51	1754.08
539.87	1768.17
540.22	1781.56
540.58	1794.87
540.94	1807.82
541.29	1820.24
541.65	1832.81
542.01	1845.60
542.37	1857.75
542.72	1869.84
543.08	1881.45
543.44	1893.58
543.79	1904.61
544.15	1915.48
544.51	1926.77
544.87	1937.47
545.22	1948.10
545.58	1958.02
545.94	1967.64
546.29	1977.44
546.65	1987.25
547.01	1996.40
547.36	2004.94
547.72	2013.30
548.07	2021.21
548.43	2029.29
548.79	2037.11
549.14	2044.57
549.50	2051.78
549.86	2059.39
550.21	2066.66
550.57	2073.83
550.92	2080.24
551.28	2087.13
551.64	2094.23
551.99	2100.69
552.35	2106.83
552.70	2112.89
553.06	2118.81
553.41	2125.18
553.77	2130.99
554.13	2136.74
554.48	2142.84
554.84	2148.40
555.19	2153.70
555.55	2158.84
555.90	2163.37
556.26	2168.55
556.61	2173.16
556.97	2177.71
557.32	2181.69
557.68	2185.85
558.03	2190.05
558.39	2193.89
558.74	2198.50
559.10	2202.36
559.45	2206.08
559.81	2210.37
560.16	2214.39
560.52	2217.77
560.87	2221.13
561.23	2224.00
561.58	2227.11
561.94	2229.65
562.29	2231.88
562.64	2234.68
563.00	2237.29
563.35	2240.75
563.71	2243.74
564.06	2247.14
564.42	2250.08
564.77	2252.89
565.12	2255.45
565.48	2257.52
565.83	2259.55
566.19	2261.12
566.54	2262.04
566.89	2263.38
567.25	2264.24
567.60	2265.64
567.96	2267.44
568.31	2268.39
568.66	2269.56
569.02	2270.42
569.37	2271.00
569.72	2272.22
570.08	2272.66
570.43	2272.91
570.78	2272.77
571.14	2271.61
571.49	2270.41
571.84	2270.15
572.20	2269.29
572.55	2268.33
572.90	2266.88
573.26	2265.78
573.61	2264.21
573.96	2262.87
574.31	2260.20
574.67	2257.38
575.02	2253.89
575.37	2250.59
575.72	2247.21
576.08	2244.09
576.43	2240.84
576.78	2237.47
577.13	2234.43
577.49	2231.25
577.84	2228.09
578.19	2224.36
578.54	2221.00
578.90	2217.06
579.25	2211.75
579.60	2207.08
579.95	2202.28
580.30	2197.44
580.66	2192.37
581.01	2187.68
581.36	2182.90
581.71	2178.93
582.06	2174.84
582.42	2170.85
582.77	2165.89
583.12	2161.59
583.47	2157.28
583.82	2152.52
584.17	2147.53
584.53	2142.16
584.88	2136.77
585.23	2131.25
585.58	2126.04
585.93	2120.73
586.28	2116.04
586.63	2111.26
586.98	2106.31
587.34	2101.83
587.69	2097.24
588.04	2092.36
588.39	2086.91
588.74	2080.66
589.09	2074.75
589.44	2068.07
589.79	2061.95
590.14	2056.55
590.49	2050.03
590.84	2043.60
591.19	2037.69
591.54	2031.34
591.89	2024.41
592.25	2018.00
592.60	2010.89
592.95	2003.56
593.30	1996.43
593.65	1989.07
594.00	1982.25
594.35	1975.15
594.70	1967.20
595.05	1960.28
595.40	1953.07
595.75	1945.75
596.10	1939.77
596.45	1933.16
596.80	1927.22
597.15	1921.03
597.50	1914.25
597.85	1907.98
598.19	1901.53
598.54	1894.81
598.89	1888.21
599.24	1882.39
599.59	1875.81
599.94	1869.78
600.29	1863.58
600.64	1857.08
600.99	1849.84
601.34	1843.17
601.69	1836.29
602.04	1829.70
602.39	1822.53
602.74	1815.85
603.08	1809.23
603.43	1802.54
603.78	1795.41
604.13	1788.34
604.48	1781.10
604.83	1774.32
605.18	1767.58
605.53	1759.89
605.87	1751.83
606.22	1744.92
606.57	1737.00
606.92	1729.76
607.27	1722.65
607.62	1715.91
607.96	1708.71
608.31	1702.36
608.66	1694.85
609.01	1687.50
609.36	1680.10
609.70	1672.15
610.05	1664.17
610.40	1656.70
610.75	1648.51
611.10	1640.82
611.44	1632.29
611.79	1624.22
612.14	1615.59
612.49	1606.34
612.83	1597.96
613.18	1589.94
613.53	1581.87
613.88	1573.41
614.22	1565.13
614.57	1556.48
614.92	1548.38
615.27	1540.95
615.61	1532.67
615.96	1524.61
616.31	1516.94
616.65	1509.52
617.00	1502.07
617.35	1494.40
617.70	1486.14
618.04	1477.68
618.39	1469.61
618.74	1462.23
619.08	1454.17
619.43	1446.59
619.78	1439.79
620.12	1432.75
620.47	1425.23
620.82	1417.00
621.16	1409.63
621.51	1402.06
621.85	1394.52
622.20	1386.19
622.55	1377.84
622.89	1369.90
623.24	1362.33
623.59	1354.87
623.93	1347.32
624.28	1340.05
624.62	1332.56
624.97	1325.24
625.32	1318.47
625.66	1311.47
626.01	1304.33
626.35	1296.85
626.70	1289.13
627.04	1281.49
627.39	1273.68
627.73	1266.48
628.08	1259.61
628.43	1252.36
628.77	1245.06
629.12	1237.66
629.46	1230.48
629.81	1223.01
630.15	1215.72
630.50	1208.29
630.84	1200.22
631.19	1192.31
631.53	1184.87
631.88	1177.34
632.22	1169.81
632.57	1162.50
632.91	1154.97
633.26	1147.51
633.60	1140.08
633.95	1132.92
634.29	1125.85
634.64	1119.09
634.98	1111.66
635.32	1104.55
635.67	1097.96
636.01	1091.36
636.36	1084.63
636.70	1078.02
637.05	1071.54
637.39	1065.18
637.73	1058.73
638.08	1052.91
638.42	1047.00
638.77	1040.51
639.11	1034.05
639.45	1027.70
639.80	1021.07
640.14	1014.69
640.49	1008.26
640.83	1002.00
641.17	995.90
641.52	989.59
641.86	983.20
642.20	977.35
642.55	970.96
642.89	964.57
643.23	958.00
643.58	952.18
643.92	946.07
644.26	940.20
644.61	934.17
644.95	928.32
645.29	921.80
645.64	915.07
645.98	908.81
646.32	902.99
646.66	897.02
647.01	891.38
647.35	885.71
647.69	879.82
648.04	874.37
648.38	868.68
648.72	862.83
649.06	856.83
649.41	851.01
649.75	845.19
650.09	839.26
650.43	833.62
650.78	827.52
651.12	821.64
651.46	815.85
651.80	810.20
652.14	804.83
652.49	799.51
652.83	794.39
653.17	788.81
653.51	783.15
653.85	777.74
654.20	772.08
654.54	766.09
654.88	760.37
655.22	754.46
655.56	748.71
655.90	743.21
656.25	738.06
656.59	732.69
656.93	727.60
657.27	722.51
657.61	716.98
657.95	711.91
658.29	706.91
658.64	701.66
658.98	696.28
659.32	690.82
659.66	685.63
660.00	680.33
660.34	675.37
660.68	670.44
661.02	665.43
661.36	660.78
661.70	656.33
662.05	652.03
662.39	647.76
662.73	643.33
663.07	639.03
663.41	634.57
663.75	630.14
664.09	625.65
664.43	621.27
664.77	617.24
665.11	613.02
665.45	608.81
665.79	604.77
666.13	600.74
666.47	596.60
666.81	592.51
667.15	588.42
667.49	584.52
667.83	580.72
668.17	576.80
668.51	572.73
668.85	568.74
669.19	564.86
669.53	561.01
669.87	557.18
670.21	553.47
670.55	549.88
670.89	546.43
671.23	542.96
671.57	539.47
671.91	535.97
672.25	532.44
672.58	529.00
672.92	525.54
673.26	522.36
673.60	519.19
673.94	516.05
674.28	513.12
674.62	510.14
674.96	507.03
675.30	504.16
675.64	501.21
675.97	498.41
676.31	495.64
676.65	492.80
676.99	490.06
677.33	487.17
677.67	484.32
678.01	481.31
678.34	478.35
678.68	475.43
679.02	472.60
679.36	469.87
679.70	467.17
680.04	464.47
680.37	461.58
680.71	458.78
681.05	456.18
681.39	453.53
681.73	450.93
682.06	448.45
682.40	445.93
682.74	443.39
683.08	440.86
683.42	438.25
683.75	435.73
684.09	433.18
684.43	430.69
684.77	428.18
685.10	425.83
685.44	423.58
685.78	421.34
686.12	419.08
686.45	416.80
686.79	414.47
687.13	412.29
687.46	410.11
687.80	407.99
688.14	405.75
688.48	403.72
688.81	401.46
689.15	399.33
689.49	397.20
689.82	395.14
690.16	393.01
690.50	391.04
690.83	389.11
691.17	387.16
691.51	385.30
691.84	383.50
692.18	381.64
692.52	379.62
692.85	377.71
693.19	375.84
693.52	373.97
693.86	372.14
694.20	370.33
694.53	368.62
694.87	366.78
695.21	364.99
695.54	363.13
695.88	361.40
696.21	359.65
696.55	357.96
696.88	356.28
697.22	354.65
697.56	353.03
697.89	351.40
698.23	349.82
698.56	348.20
698.90	346.66
699.23	344.97
699.57	343.42
699.90	341.87
700.24	340.32
700.58	338.85
700.91	337.34
701.25	335.94
701.58	334.54
701.92	333.17
702.25	331.84
702.59	330.53
702.92	329.23
703.26	327.93
703.59	326.67
703.93	325.52
704.26	324.28
704.60	323.00
704.93	321.71
705.26	320.47
705.60	319.28
705.93	318.08
706.27	317.04
706.60	316.00
706.94	314.94
707.27	313.87
707.61	312.80
707.94	311.83
708.27	310.69
708.61	309.59
708.94	308.55
709.28	307.52
709.61	306.52
709.94	305.53
710.28	304.50
710.61	303.47
710.95	302.30
711.28	301.40
711.61	300.43
711.95	299.53
712.28	298.56
712.61	297.58
712.95	296.66
713.28	295.79
713.61	294.87
713.95	293.96
714.28	293.06
714.61	292.18
714.95	291.29
715.28	290.47
715.61	289.62
715.95	288.78
716.28	287.95
716.61	287.09
716.95	286.25
717.28	285.51
717.61	284.75
717.94	284.03
718.28	283.20
718.61	282.45
718.94	281.72
719.27	281.04
719.61	280.39
719.94	279.74
720.27	279.03
720.60	278.41
720.94	277.77
721.27	277.15
721.60	276.57
721.93	275.98
722.27	275.42
722.60	274.82
722.93	274.21
723.26	273.67
723.59	273.10
723.93	272.55
724.26	271.97
724.59	271.36
724.92	270.83
725.25	270.34
725.59	269.83
725.92	269.33
726.25	268.81
726.58	268.27
726.91	267.77
727.24	267.29
727.57	266.75
727.91	266.23
728.24	265.77
728.57	265.30
728.90	264.88
729.23	264.37
729.56	263.95
729.89	263.52
730.22	263.01
730.55	262.56
730.89	262.13
731.22	261.71
731.55	261.30
731.88	260.88
732.21	260.43
732.54	260.00
732.87	259.60
733.20	259.23
733.53	258.87
733.86	258.50
734.19	258.12
734.52	257.77
734.85	257.45
735.18	257.05
735.51	256.68
735.84	256.25
736.17	255.94
736.50	255.56
736.83	255.35
737.16	255.05
737.49	254.72
737.82	254.37
738.15	254.06
738.48	253.76
738.81	253.46
739.14	253.15
739.47	252.85
739.80	252.54
740.13	252.26
740.46	251.93
740.79	251.61
741.12	251.29
741.45	251.02
741.78	250.71
742.11	250.45
742.44	250.14
742.77	249.89
743.10	249.59
743.43	249.31
743.75	248.92
744.08	248.76
744.41	248.52
744.74	248.29
745.07	247.97
745.40	247.71
745.73	247.49
746.06	247.23
746.39	246.98
746.71	246.70
747.04	246.41
747.37	246.13
747.70	245.90
748.03	245.65
748.36	245.38
748.68	245.15
749.01	244.89
749.34	244.67
749.67	244.46
750.00	244.22
750.33	244.08
750.65	243.85
750.98	243.51
751.31	243.29
751.64	243.06
751.97	242.91
752.29	242.72
752.62	242.43
752.95	242.21
753.28	242.00
753.60	241.78
753.93	241.59
754.26	241.42
754.59	241.21
754.91	240.97
755.24	240.79
755.57	240.59
755.90	240.41
756.22	240.22
756.55	239.99
756.88	239.78
757.20	239.54
757.53	239.30
757.86	239.14
758.19	238.93
758.51	238.76
758.84	238.54
759.17	238.35
759.49	238.21
759.82	238.08
760.15	237.93
760.47	237.81
760.80	237.62
761.13	237.47
761.45	237.31
761.78	237.13
762.11	237.00
762.43	236.82
762.76	236.70
763.08	236.58
763.41	236.42
763.74	236.28
764.06	236.12
764.39	235.99
764.71	235.82
765.04	235.65
765.37	235.47
765.69	235.32
766.02	235.17
766.34	235.04
766.67	234.88
767.00	234.80
767.32	234.70
767.65	234.65
767.97	234.55
768.30	234.42
768.62	234.36
768.95	234.18
769.27	234.06
769.60	233.93
769.92	233.79
770.25	233.71
770.57	233.59
770.90	233.47
771.22	233.38
771.55	233.29
771.87	233.26
772.20	233.19
772.52	233.21
772.85	233.23
773.17	233.13
773.50	233.03
773.82	232.92
774.15	232.80
774.47	232.65
774.80	232.57
775.12	232.48
775.45	232.40
775.77	232.34
776.09	232.26
776.42	232.18
776.74	232.13
777.07	232.00
777.39	231.95
777.72	231.90
778.04	231.82
778.36	231.76
778.69	231.68
779.01	231.60
779.33	231.47
779.66	231.31
779.98	231.25
780.31	231.20
780.63	231.14
780.95	231.10
781.28	231.04
781.60	230.93
781.92	230.88
782.25	230.81
782.57	230.78
782.89	230.73
783.22	230.67
783.54	230.59
783.86	230.57
784.19	230.53
784.51	230.49
784.83	230.46
785.16	230.39
785.48	230.37
785.80	230.34
786.12	230.28
786.45	230.25
786.77	230.20
787.09	230.18
