SpectraSuite Data File
++++++++++++++++++++++++++++++++++++
Date: Fri Feb 01 16:48:52 EST 2013
User: group
Dark Spectrum Present: No
Reference Spectrum Present: No
Number of Sampled Component Spectra: 1
Spectrometers: USB2E7196
Integration Time (usec): 35000 (USB2E7196)
Spectra Averaged: 100 (USB2E7196)
Boxcar Smoothing: 10 (USB2E7196)
Correct for Electrical Dark: No (USB2E7196)
Strobe/Lamp Enabled: No (USB2E7196)
Correct for Detector Non-linearity: No (USB2E7196)
Correct for Stray Light: No (USB2E7196)
Number of Pixels in Processed Spectrum: 2048
>>>>>Begin Processed Spectral Data<<<<<
339.09	0.00
339.48	212.89
339.86	214.42
340.24	215.68
340.63	218.05
341.01	219.79
341.39	219.97
341.78	220.82
342.16	222.62
342.54	223.38
342.93	211.43
343.31	222.14
343.69	222.70
344.07	223.18
344.46	223.64
344.84	223.98
345.22	224.22
345.60	224.46
345.99	224.66
346.37	224.74
346.75	224.82
347.13	224.91
347.52	224.97
347.90	225.04
348.28	225.07
348.66	225.10
349.05	225.04
349.43	225.08
349.81	225.08
350.19	225.12
350.57	225.17
350.96	225.19
351.34	225.26
351.72	225.30
352.10	225.38
352.48	225.41
352.87	225.45
353.25	225.51
353.63	225.57
354.01	225.65
354.39	225.76
354.77	225.85
355.15	225.95
355.54	226.01
355.92	226.05
356.30	226.13
356.68	226.27
357.06	226.37
357.44	226.43
357.82	226.54
358.20	226.62
358.58	226.71
358.97	226.82
359.35	226.88
359.73	226.98
360.11	227.03
360.49	227.11
360.87	227.19
361.25	227.26
361.63	227.39
362.01	227.45
362.39	227.48
362.77	227.55
363.15	227.60
363.53	227.66
363.91	227.68
364.29	227.72
364.67	227.67
365.05	227.71
365.43	227.73
365.81	227.77
366.19	227.79
366.57	227.81
366.95	227.82
367.33	227.81
367.71	227.81
368.09	227.86
368.47	227.84
368.85	227.82
369.23	227.84
369.61	227.76
369.99	227.77
370.37	227.80
370.75	227.80
371.13	227.75
371.51	227.72
371.89	227.72
372.27	227.69
372.65	227.67
373.03	227.66
373.41	227.61
373.78	227.54
374.16	227.49
374.54	227.44
374.92	227.39
375.30	227.36
375.68	227.30
376.06	227.24
376.44	227.21
376.82	227.17
377.19	227.10
377.57	227.04
377.95	226.94
378.33	226.82
378.71	226.73
379.09	226.67
379.47	226.64
379.84	226.58
380.22	226.49
380.60	226.42
380.98	226.34
381.36	226.29
381.73	226.20
382.11	226.16
382.49	226.08
382.87	225.99
383.25	225.93
383.62	226.00
384.00	225.92
384.38	225.82
384.76	225.78
385.13	225.75
385.51	225.69
385.89	225.66
386.27	225.63
386.64	225.54
387.02	225.48
387.40	225.42
387.78	225.40
388.15	225.37
388.53	225.32
388.91	225.26
389.29	225.22
389.66	225.23
390.04	225.15
390.42	225.15
390.79	225.14
391.17	225.11
391.55	224.96
391.92	224.93
392.30	224.94
392.68	224.91
393.05	224.88
393.43	224.90
393.81	224.85
394.18	224.85
394.56	224.88
394.94	224.89
395.31	224.87
395.69	224.91
396.06	224.93
396.44	224.94
396.82	224.95
397.19	225.00
397.57	225.03
397.95	225.09
398.32	225.07
398.70	225.10
399.07	225.16
399.45	225.20
399.82	225.23
400.20	225.29
400.58	225.35
400.95	225.36
401.33	225.43
401.70	225.59
402.08	225.69
402.45	225.78
402.83	225.90
403.20	226.01
403.58	226.09
403.95	226.19
404.33	226.36
404.71	226.51
405.08	226.67
405.46	226.77
405.83	226.91
406.21	227.07
406.58	227.25
406.96	227.42
407.33	227.57
407.70	227.78
408.08	228.04
408.45	228.24
408.83	228.48
409.20	228.69
409.58	228.85
409.95	229.10
410.33	229.37
410.70	229.59
411.08	229.87
411.45	230.17
411.82	230.47
412.20	230.79
412.57	231.18
412.95	231.48
413.32	231.92
413.69	232.33
414.07	232.78
414.44	233.23
414.82	233.71
415.19	234.28
415.56	234.84
415.94	235.38
416.31	236.05
416.68	236.67
417.06	237.41
417.43	238.10
417.81	238.84
418.18	239.64
418.55	240.50
418.93	241.37
419.30	242.24
419.67	243.19
420.04	244.16
420.42	245.15
420.79	246.34
421.16	247.47
421.54	248.65
421.91	249.84
422.28	251.18
422.66	252.50
423.03	253.81
423.40	255.14
423.77	256.54
424.15	257.97
424.52	259.46
424.89	261.01
425.26	262.56
425.64	263.98
426.01	265.50
426.38	267.12
426.75	268.80
427.13	270.51
427.50	272.33
427.87	274.14
428.24	276.00
428.61	277.74
428.99	279.67
429.36	281.77
429.73	283.81
430.10	285.71
430.47	287.76
430.85	289.88
431.22	292.08
431.59	294.44
431.96	296.62
432.33	299.06
432.70	301.47
433.08	304.27
433.45	306.91
433.82	309.53
434.19	312.40
434.56	315.18
434.93	317.80
435.30	320.37
435.68	323.28
436.05	326.08
436.42	328.86
436.79	331.37
437.16	334.03
437.53	336.87
437.90	339.69
438.27	342.39
438.64	345.14
439.01	347.69
439.38	349.91
439.75	352.07
440.13	354.54
440.50	356.84
440.87	358.64
441.24	360.57
441.61	362.71
441.98	364.17
442.35	365.95
442.72	367.83
443.09	369.61
443.46	370.60
443.83	371.16
444.20	371.63
444.57	372.45
444.94	372.75
445.31	373.08
445.68	373.45
446.05	373.53
446.42	373.20
446.79	372.82
447.16	372.37
447.53	372.06
447.90	370.96
448.27	369.79
448.64	368.23
449.01	367.14
449.37	365.20
449.74	363.36
450.11	361.14
450.48	358.68
450.85	356.17
451.22	354.07
451.59	352.09
451.96	350.21
452.33	347.64
452.70	345.34
453.07	342.56
453.43	339.65
453.80	336.92
454.17	334.27
454.54	331.75
454.91	329.08
455.28	326.47
455.65	323.99
456.02	321.59
456.38	319.47
456.75	316.79
457.12	314.56
457.49	312.36
457.86	310.22
458.23	308.37
458.59	306.35
458.96	304.29
459.33	302.44
459.70	300.53
460.07	299.01
460.43	297.25
460.80	295.61
461.17	294.21
461.54	292.74
461.91	291.33
462.27	289.89
462.64	288.63
463.01	287.24
463.38	285.96
463.74	284.56
464.11	283.41
464.48	282.42
464.85	281.34
465.21	280.44
465.58	279.50
465.95	278.41
466.32	277.54
466.68	276.65
467.05	275.76
467.42	274.88
467.78	273.98
468.15	273.15
468.52	272.51
468.88	271.66
469.25	270.89
469.62	270.24
469.98	269.58
470.35	268.98
470.72	268.41
471.08	267.78
471.45	267.28
471.82	266.74
472.18	266.15
472.55	265.73
472.92	265.24
473.28	264.81
473.65	264.39
474.02	263.97
474.38	263.62
474.75	263.33
475.11	263.03
475.48	262.81
475.85	262.56
476.21	262.33
476.58	262.11
476.94	261.97
477.31	261.83
477.67	261.73
478.04	261.60
478.41	261.54
478.77	261.57
479.14	261.53
479.50	261.56
479.87	261.61
480.23	261.68
480.60	261.78
480.96	261.89
481.33	262.14
481.69	262.33
482.06	262.53
482.42	262.71
482.79	262.95
483.15	263.21
483.52	263.64
483.88	264.06
484.25	264.47
484.61	264.92
484.98	265.35
485.34	265.89
485.71	266.52
486.07	267.13
486.44	267.69
486.80	268.41
487.17	269.17
487.53	270.00
487.90	270.86
488.26	271.79
488.62	272.78
488.99	273.73
489.35	274.83
489.72	275.95
490.08	277.18
490.44	278.45
490.81	279.83
491.17	281.12
491.54	282.59
491.90	284.17
492.26	285.82
492.63	287.58
492.99	289.37
493.36	291.26
493.72	293.34
494.08	295.49
494.45	297.70
494.81	300.06
495.17	302.49
495.54	305.03
495.90	307.74
496.26	310.53
496.63	313.52
496.99	316.59
497.35	319.86
497.72	323.26
498.08	326.80
498.44	330.48
498.80	334.45
499.17	338.50
499.53	342.66
499.89	347.01
500.26	351.48
500.62	356.12
500.98	361.06
501.34	366.10
501.71	371.39
502.07	376.82
502.43	382.33
502.79	388.16
503.16	394.22
503.52	400.44
503.88	406.83
504.24	413.37
504.60	420.18
504.97	427.30
505.33	434.55
505.69	442.21
506.05	449.95
506.41	457.76
506.78	465.86
507.14	474.25
507.50	482.90
507.86	491.82
508.22	501.00
508.59	510.17
508.95	519.64
509.31	529.39
509.67	539.49
510.03	549.81
510.39	560.33
510.75	571.03
511.12	581.93
511.48	593.12
511.84	604.55
512.20	616.08
512.56	627.89
512.92	639.99
513.28	652.27
513.64	664.62
514.00	677.27
514.37	690.15
514.73	703.09
515.09	716.05
515.45	729.32
515.81	742.82
516.17	756.67
516.53	770.72
516.89	784.83
517.25	798.86
517.61	813.19
517.97	827.47
518.33	841.75
518.69	856.35
519.05	871.26
519.41	886.26
519.77	901.51
520.13	916.84
520.49	932.11
520.85	947.28
521.21	962.79
521.57	978.80
521.93	994.42
522.29	1010.58
522.65	1026.72
523.01	1042.75
523.37	1058.65
523.73	1074.59
524.09	1090.62
524.45	1106.72
524.81	1123.26
525.17	1139.75
525.53	1156.53
525.89	1173.25
526.25	1189.89
526.61	1206.05
526.97	1222.71
527.33	1239.16
527.68	1255.48
528.04	1271.77
528.40	1288.07
528.76	1304.87
529.12	1321.42
529.48	1338.11
529.84	1353.97
530.20	1370.37
530.56	1387.00
530.91	1404.08
531.27	1420.77
531.63	1436.96
531.99	1453.40
532.35	1469.19
532.71	1484.91
533.07	1500.91
533.42	1516.64
533.78	1532.55
534.14	1548.66
534.50	1563.67
534.86	1579.33
535.21	1594.37
535.57	1610.04
535.93	1625.35
536.29	1640.08
536.65	1654.68
537.00	1669.19
537.36	1684.39
537.72	1698.78
538.08	1713.28
538.44	1726.89
538.79	1740.51
539.15	1753.91
539.51	1767.34
539.87	1781.46
540.22	1795.02
540.58	1808.54
540.94	1821.56
541.29	1834.08
541.65	1846.56
542.01	1859.65
542.37	1871.70
542.72	1883.99
543.08	1895.60
543.44	1907.92
543.79	1918.94
544.15	1929.91
544.51	1941.25
544.87	1952.03
545.22	1962.65
545.58	1972.72
545.94	1982.43
546.29	1992.18
546.65	2001.93
547.01	2011.17
547.36	2019.71
547.72	2028.21
548.07	2036.04
548.43	2044.17
548.79	2052.05
549.14	2059.69
549.50	2066.76
549.86	2074.40
550.21	2081.56
550.57	2088.76
550.92	2095.38
551.28	2102.49
551.64	2109.57
551.99	2116.07
552.35	2122.12
552.70	2128.28
553.06	2134.10
553.41	2140.40
553.77	2146.30
554.13	2152.30
554.48	2158.30
554.84	2163.89
555.19	2169.02
555.55	2174.25
555.90	2178.77
556.26	2183.81
556.61	2188.39
556.97	2192.99
557.32	2197.11
557.68	2201.18
558.03	2205.49
558.39	2208.99
558.74	2213.54
559.10	2217.29
559.45	2221.09
559.81	2225.42
560.16	2229.17
560.52	2232.53
560.87	2235.90
561.23	2238.74
561.58	2241.75
561.94	2244.30
562.29	2246.45
562.64	2249.27
563.00	2251.79
563.35	2255.24
563.71	2258.49
564.06	2261.59
564.42	2264.53
564.77	2267.16
565.12	2269.64
565.48	2271.56
565.83	2273.68
566.19	2275.26
566.54	2276.32
566.89	2277.53
567.25	2278.37
567.60	2279.67
567.96	2281.47
568.31	2282.44
568.66	2283.75
569.02	2284.53
569.37	2285.10
569.72	2286.27
570.08	2286.55
570.43	2286.65
570.78	2286.29
571.14	2284.95
571.49	2283.78
571.84	2283.30
572.20	2282.25
572.55	2281.26
572.90	2279.75
573.26	2278.44
573.61	2276.56
573.96	2275.11
574.31	2272.33
574.67	2269.36
575.02	2265.99
575.37	2262.70
575.72	2259.12
576.08	2255.63
576.43	2252.25
576.78	2248.67
577.13	2245.46
577.49	2242.18
577.84	2238.92
578.19	2235.07
578.54	2231.64
578.90	2227.60
579.25	2222.28
579.60	2217.43
579.95	2212.74
580.30	2207.89
580.66	2202.74
581.01	2197.88
581.36	2192.88
581.71	2188.85
582.06	2184.63
582.42	2180.38
582.77	2175.24
583.12	2170.78
583.47	2166.55
583.82	2161.80
584.17	2156.80
584.53	2151.48
584.88	2146.09
585.23	2140.47
585.58	2135.34
585.93	2129.86
586.28	2125.07
586.63	2120.31
586.98	2115.40
587.34	2110.72
587.69	2105.78
588.04	2100.82
588.39	2095.23
588.74	2088.94
589.09	2082.83
589.44	2076.04
589.79	2069.80
590.14	2064.24
590.49	2057.68
590.84	2051.01
591.19	2045.02
591.54	2038.69
591.89	2031.59
592.25	2025.13
592.60	2018.00
592.95	2010.47
593.30	2003.22
593.65	1995.78
594.00	1988.68
594.35	1981.55
594.70	1973.54
595.05	1966.64
595.40	1959.37
595.75	1952.19
596.10	1946.16
596.45	1939.47
596.80	1933.43
597.15	1927.11
597.50	1920.33
597.85	1913.97
598.19	1907.57
598.54	1900.70
598.89	1894.12
599.24	1888.16
599.59	1881.70
599.94	1875.55
600.29	1869.35
600.64	1862.74
600.99	1855.39
601.34	1848.65
601.69	1841.69
602.04	1835.01
602.39	1827.67
602.74	1821.03
603.08	1814.26
603.43	1807.53
603.78	1800.34
604.13	1793.18
604.48	1786.00
604.83	1779.13
605.18	1772.46
605.53	1764.63
605.87	1756.59
606.22	1749.32
606.57	1741.40
606.92	1733.90
607.27	1726.86
607.62	1720.03
607.96	1712.99
608.31	1706.73
608.66	1699.33
609.01	1691.98
609.36	1684.52
609.70	1676.59
610.05	1668.64
610.40	1661.18
610.75	1652.97
611.10	1645.42
611.44	1637.03
611.79	1629.06
612.14	1620.37
612.49	1611.21
612.83	1602.74
613.18	1594.70
613.53	1586.57
613.88	1578.09
614.22	1569.77
614.57	1561.08
614.92	1553.08
615.27	1545.64
615.61	1537.23
615.96	1529.22
616.31	1521.65
616.65	1514.21
617.00	1506.73
617.35	1499.11
617.70	1490.96
618.04	1482.47
618.39	1474.14
618.74	1466.67
619.08	1458.39
619.43	1450.89
619.78	1443.90
620.12	1436.91
620.47	1429.40
620.82	1421.27
621.16	1413.88
621.51	1406.31
621.85	1398.67
622.20	1390.15
622.55	1381.69
622.89	1373.80
623.24	1366.01
623.59	1358.40
623.93	1350.91
624.28	1343.65
624.62	1336.09
624.97	1328.64
625.32	1321.86
625.66	1314.84
626.01	1307.77
626.35	1300.47
626.70	1292.66
627.04	1284.95
627.39	1277.10
627.73	1269.74
628.08	1262.91
628.43	1255.72
628.77	1248.41
629.12	1240.98
629.46	1233.85
629.81	1226.35
630.15	1219.12
630.50	1211.79
630.84	1203.75
631.19	1195.78
631.53	1188.21
631.88	1180.60
632.22	1173.02
632.57	1165.64
632.91	1158.11
633.26	1150.64
633.60	1143.11
633.95	1135.92
634.29	1128.89
634.64	1122.11
634.98	1114.79
635.32	1107.59
635.67	1100.96
636.01	1094.39
636.36	1087.68
636.70	1081.19
637.05	1074.69
637.39	1068.30
637.73	1061.88
638.08	1055.94
638.42	1049.99
638.77	1043.69
639.11	1037.24
639.45	1030.91
639.80	1024.39
640.14	1018.08
640.49	1011.52
640.83	1005.25
641.17	999.14
641.52	992.84
641.86	986.40
642.20	980.52
642.55	974.15
642.89	967.73
643.23	961.09
643.58	955.30
643.92	949.13
644.26	943.16
644.61	937.03
644.95	930.99
645.29	924.54
645.64	917.84
645.98	911.44
646.32	905.38
646.66	899.35
647.01	893.47
647.35	887.73
647.69	881.90
648.04	876.45
648.38	870.66
648.72	864.77
649.06	858.77
649.41	852.90
649.75	847.04
650.09	841.05
650.43	835.33
650.78	829.17
651.12	823.17
651.46	817.36
651.80	811.74
652.14	806.39
652.49	801.00
652.83	795.83
653.17	790.32
653.51	784.74
653.85	779.34
654.20	773.77
654.54	767.79
654.88	762.00
655.22	756.01
655.56	750.23
655.90	744.65
656.25	739.48
656.59	734.11
656.93	729.01
657.27	723.86
657.61	718.43
657.95	713.39
658.29	708.34
658.64	703.09
658.98	697.66
659.32	692.10
659.66	686.89
660.00	681.62
660.34	676.58
660.68	671.68
661.02	666.68
661.36	661.99
661.70	657.49
662.05	653.19
662.39	649.00
662.73	644.61
663.07	640.25
663.41	635.79
663.75	631.33
664.09	626.75
664.43	622.38
664.77	618.32
665.11	614.02
665.45	609.83
665.79	605.81
666.13	601.68
666.47	597.59
666.81	593.45
667.15	589.31
667.49	585.36
667.83	581.47
668.17	577.52
668.51	573.45
668.85	569.39
669.19	565.51
669.53	561.60
669.87	557.73
670.21	554.00
670.55	550.30
670.89	546.86
671.23	543.46
671.57	539.95
671.91	536.39
672.25	532.82
672.58	529.36
672.92	525.94
673.26	522.83
673.60	519.65
673.94	516.49
674.28	513.50
674.62	510.58
674.96	507.53
675.30	504.62
675.64	501.69
675.97	498.89
676.31	496.02
676.65	493.16
676.99	490.47
677.33	487.61
677.67	484.90
678.01	481.91
678.34	478.97
678.68	476.12
679.02	473.29
679.36	470.57
679.70	467.82
680.04	465.09
680.37	462.25
680.71	459.47
681.05	456.88
681.39	454.18
681.73	451.48
682.06	448.97
682.40	446.44
682.74	443.92
683.08	441.31
683.42	438.70
683.75	436.20
684.09	433.63
684.43	431.25
684.77	428.68
685.10	426.27
685.44	423.91
685.78	421.64
686.12	419.41
686.45	417.12
686.79	414.86
687.13	412.61
687.46	410.39
687.80	408.23
688.14	405.98
688.48	403.96
688.81	401.79
689.15	399.64
689.49	397.42
689.82	395.32
690.16	393.28
690.50	391.32
690.83	389.33
691.17	387.31
691.51	385.33
691.84	383.57
692.18	381.69
692.52	379.74
692.85	377.73
693.19	375.82
693.52	373.98
693.86	372.10
694.20	370.31
694.53	368.57
694.87	366.71
695.21	364.93
695.54	363.11
695.88	361.37
696.21	359.67
696.55	358.02
696.88	356.30
697.22	354.64
697.56	353.00
697.89	351.34
698.23	349.76
698.56	348.15
698.90	346.56
699.23	344.91
699.57	343.35
699.90	341.84
700.24	340.30
700.58	338.81
700.91	337.34
701.25	335.94
701.58	334.57
701.92	333.21
702.25	331.87
702.59	330.51
702.92	329.17
703.26	327.83
703.59	326.58
703.93	325.40
704.26	324.17
704.60	322.87
704.93	321.63
705.26	320.39
705.60	319.22
705.93	317.98
706.27	316.92
706.60	315.90
706.94	314.78
707.27	313.63
707.61	312.54
707.94	311.50
708.27	310.38
708.61	309.26
708.94	308.26
709.28	307.22
709.61	306.26
709.94	305.33
710.28	304.33
710.61	303.29
710.95	302.19
711.28	301.29
711.61	300.38
711.95	299.47
712.28	298.59
712.61	297.60
712.95	296.68
713.28	295.81
713.61	294.89
713.95	294.04
714.28	293.26
714.61	292.38
714.95	291.55
715.28	290.70
715.61	289.82
715.95	288.94
716.28	288.14
716.61	287.28
716.95	286.43
717.28	285.64
717.61	284.90
717.94	284.20
718.28	283.37
718.61	282.62
718.94	281.90
719.27	281.20
719.61	280.58
719.94	279.88
720.27	279.17
720.60	278.48
720.94	277.82
721.27	277.20
721.60	276.63
721.93	276.01
722.27	275.44
722.60	274.89
722.93	274.32
723.26	273.76
723.59	273.22
723.93	272.65
724.26	272.12
724.59	271.57
724.92	270.99
725.25	270.47
725.59	269.93
725.92	269.44
726.25	268.89
726.58	268.37
726.91	267.91
727.24	267.39
727.57	266.91
727.91	266.45
728.24	265.94
728.57	265.46
728.90	265.00
729.23	264.51
729.56	264.10
729.89	263.67
730.22	263.17
730.55	262.73
730.89	262.29
731.22	261.84
731.55	261.44
731.88	261.03
732.21	260.61
732.54	260.17
732.87	259.77
733.20	259.38
733.53	258.98
733.86	258.59
734.19	258.22
734.52	257.84
734.85	257.49
735.18	257.08
735.51	256.73
735.84	256.34
736.17	255.97
736.50	255.56
736.83	255.30
737.16	254.99
737.49	254.62
737.82	254.27
738.15	253.95
738.48	253.58
738.81	253.27
739.14	252.95
739.47	252.61
739.80	252.27
740.13	251.96
740.46	251.64
740.79	251.34
741.12	251.05
741.45	250.75
741.78	250.41
742.11	250.13
742.44	249.82
742.77	249.57
743.10	249.32
743.43	249.03
743.75	248.65
744.08	248.51
744.41	248.22
744.74	247.97
745.07	247.69
745.40	247.45
745.73	247.24
746.06	246.98
746.39	246.76
746.71	246.48
747.04	246.20
747.37	245.95
747.70	245.71
748.03	245.45
748.36	245.21
748.68	244.98
749.01	244.73
749.34	244.47
749.67	244.20
750.00	243.95
750.33	243.82
750.65	243.63
750.98	243.26
751.31	243.05
751.64	242.83
751.97	242.68
752.29	242.41
752.62	242.14
752.95	241.91
753.28	241.70
753.60	241.53
753.93	241.38
754.26	241.17
754.59	240.93
754.91	240.74
755.24	240.53
755.57	240.32
755.90	240.14
756.22	239.96
756.55	239.77
756.88	239.57
757.20	239.33
757.53	239.11
757.86	238.93
758.19	238.79
758.51	238.60
758.84	238.35
759.17	238.23
759.49	238.10
759.82	237.98
760.15	237.84
760.47	237.68
760.80	237.46
761.13	237.34
761.45	237.19
761.78	237.02
762.11	236.88
762.43	236.73
762.76	236.59
763.08	236.48
763.41	236.36
763.74	236.22
764.06	236.04
764.39	235.89
764.71	235.77
765.04	235.60
765.37	235.47
765.69	235.36
766.02	235.21
766.34	235.07
766.67	234.95
767.00	234.82
767.32	234.74
767.65	234.68
767.97	234.56
768.30	234.45
768.62	234.32
768.95	234.23
769.27	234.09
769.60	234.00
769.92	233.83
770.25	233.69
770.57	233.56
770.90	233.49
771.22	233.38
771.55	233.25
771.87	233.19
772.20	233.09
772.52	233.10
772.85	233.15
773.17	233.06
773.50	232.90
773.82	232.82
774.15	232.68
774.47	232.53
774.80	232.45
775.12	232.37
775.45	232.32
775.77	232.22
776.09	232.17
776.42	232.08
776.74	232.07
777.07	232.00
777.39	231.95
777.72	231.85
778.04	231.81
778.36	231.77
778.69	231.69
779.01	231.65
779.33	231.46
779.66	231.26
779.98	231.19
780.31	231.13
780.63	231.11
780.95	231.07
781.28	231.01
781.60	230.94
781.92	230.91
782.25	230.85
782.57	230.82
782.89	230.79
783.22	230.73
783.54	230.63
783.86	230.63
784.19	230.59
784.51	230.59
784.83	230.49
785.16	230.43
785.48	230.41
785.80	230.34
786.12	230.29
786.45	230.27
786.77	230.22
787.09	230.17
