SpectraSuite Data File
++++++++++++++++++++++++++++++++++++
Date: Fri Feb 01 15:35:05 EST 2013
User: group
Dark Spectrum Present: No
Reference Spectrum Present: No
Number of Sampled Component Spectra: 1
Spectrometers: USB2E7196
Integration Time (usec): 35000 (USB2E7196)
Spectra Averaged: 100 (USB2E7196)
Boxcar Smoothing: 10 (USB2E7196)
Correct for Electrical Dark: No (USB2E7196)
Strobe/Lamp Enabled: No (USB2E7196)
Correct for Detector Non-linearity: No (USB2E7196)
Correct for Stray Light: No (USB2E7196)
Number of Pixels in Processed Spectrum: 2048
>>>>>Begin Processed Spectral Data<<<<<
339.09	0.00
339.48	214.62
339.86	216.57
340.24	217.33
340.63	219.72
341.01	221.96
341.39	221.84
341.78	223.27
342.16	224.39
342.54	224.26
342.93	213.23
343.31	224.01
343.69	224.56
344.07	225.04
344.46	225.49
344.84	225.82
345.22	226.08
345.60	226.30
345.99	226.50
346.37	226.63
346.75	226.75
347.13	226.81
347.52	226.87
347.90	226.94
348.28	226.93
348.66	226.98
349.05	226.93
349.43	227.03
349.81	227.06
350.19	227.07
350.57	227.16
350.96	227.24
351.34	227.31
351.72	227.38
352.10	227.45
352.48	227.51
352.87	227.59
353.25	227.66
353.63	227.74
354.01	227.78
354.39	227.86
354.77	227.96
355.15	228.07
355.54	228.11
355.92	228.17
356.30	228.26
356.68	228.40
357.06	228.50
357.44	228.52
357.82	228.57
358.20	228.68
358.58	228.74
358.97	228.83
359.35	228.91
359.73	229.01
360.11	229.06
360.49	229.12
360.87	229.19
361.25	229.23
361.63	229.30
362.01	229.37
362.39	229.40
362.77	229.41
363.15	229.44
363.53	229.47
363.91	229.46
364.29	229.47
364.67	229.40
365.05	229.37
365.43	229.39
365.81	229.44
366.19	229.46
366.57	229.52
366.95	229.49
367.33	229.47
367.71	229.44
368.09	229.42
368.47	229.39
368.85	229.34
369.23	229.31
369.61	229.23
369.99	229.21
370.37	229.19
370.75	229.22
371.13	229.14
371.51	229.10
371.89	229.09
372.27	229.06
372.65	229.00
373.03	228.95
373.41	228.88
373.78	228.81
374.16	228.68
374.54	228.59
374.92	228.55
375.30	228.47
375.68	228.36
376.06	228.32
376.44	228.25
376.82	228.21
377.19	228.15
377.57	228.11
377.95	228.00
378.33	227.90
378.71	227.75
379.09	227.72
379.47	227.62
379.84	227.51
380.22	227.40
380.60	227.29
380.98	227.26
381.36	227.21
381.73	227.10
382.11	227.08
382.49	227.01
382.87	226.91
383.25	226.85
383.62	226.93
384.00	226.82
384.38	226.77
384.76	226.74
385.13	226.71
385.51	226.64
385.89	226.58
386.27	226.58
386.64	226.57
387.02	226.50
387.40	226.47
387.78	226.48
388.15	226.46
388.53	226.45
388.91	226.39
389.29	226.34
389.66	226.36
390.04	226.33
390.42	226.31
390.79	226.30
391.17	226.26
391.55	226.12
391.92	226.12
392.30	226.16
392.68	226.11
393.05	226.09
393.43	226.12
393.81	226.16
394.18	226.12
394.56	226.15
394.94	226.19
395.31	226.24
395.69	226.27
396.06	226.34
396.44	226.35
396.82	226.38
397.19	226.46
397.57	226.49
397.95	226.55
398.32	226.59
398.70	226.66
399.07	226.79
399.45	226.87
399.82	226.94
400.20	227.00
400.58	227.06
400.95	227.14
401.33	227.20
401.70	227.32
402.08	227.44
402.45	227.50
402.83	227.62
403.20	227.68
403.58	227.78
403.95	227.86
404.33	228.00
404.71	228.16
405.08	228.38
405.46	228.52
405.83	228.68
406.21	228.80
406.58	228.98
406.96	229.12
407.33	229.34
407.70	229.54
408.08	229.79
408.45	230.05
408.83	230.28
409.20	230.51
409.58	230.68
409.95	230.96
410.33	231.22
410.70	231.47
411.08	231.79
411.45	232.10
411.82	232.47
412.20	232.82
412.57	233.22
412.95	233.49
413.32	233.88
413.69	234.28
414.07	234.72
414.44	235.20
414.82	235.66
415.19	236.18
415.56	236.73
415.94	237.32
416.31	237.94
416.68	238.57
417.06	239.32
417.43	240.04
417.81	240.80
418.18	241.60
418.55	242.44
418.93	243.32
419.30	244.26
419.67	245.17
420.04	246.14
420.42	247.16
420.79	248.35
421.16	249.54
421.54	250.73
421.91	251.99
422.28	253.23
422.66	254.56
423.03	255.88
423.40	257.23
423.77	258.62
424.15	260.03
424.52	261.54
424.89	263.14
425.26	264.70
425.64	266.15
426.01	267.75
426.38	269.38
426.75	271.04
427.13	272.71
427.50	274.50
427.87	276.36
428.24	278.16
428.61	279.91
428.99	281.83
429.36	283.93
429.73	286.00
430.10	288.01
430.47	290.11
430.85	292.21
431.22	294.48
431.59	296.86
431.96	299.12
432.33	301.63
432.70	303.98
433.08	306.78
433.45	309.41
433.82	312.03
434.19	314.97
434.56	317.80
434.93	320.48
435.30	323.15
435.68	326.06
436.05	328.95
436.42	331.77
436.79	334.32
437.16	337.01
437.53	339.84
437.90	342.65
438.27	345.40
438.64	348.22
439.01	350.76
439.38	352.95
439.75	355.14
440.13	357.61
440.50	359.97
440.87	361.83
441.24	363.80
441.61	365.96
441.98	367.46
442.35	369.26
442.72	371.12
443.09	372.90
443.46	373.90
443.83	374.47
444.20	374.93
444.57	375.74
444.94	376.04
445.31	376.31
445.68	376.64
446.05	376.70
446.42	376.35
446.79	375.97
447.16	375.58
447.53	375.24
447.90	374.05
448.27	372.91
448.64	371.32
449.01	370.19
449.37	368.18
449.74	366.23
450.11	363.95
450.48	361.49
450.85	358.98
451.22	356.83
451.59	354.84
451.96	352.90
452.33	350.26
452.70	347.90
453.07	345.09
453.43	342.25
453.80	339.46
454.17	336.73
454.54	334.16
454.91	331.41
455.28	328.73
455.65	326.26
456.02	323.76
456.38	321.57
456.75	318.85
457.12	316.60
457.49	314.40
457.86	312.22
458.23	310.33
458.59	308.23
458.96	306.14
459.33	304.23
459.70	302.39
460.07	300.92
460.43	299.19
460.80	297.60
461.17	296.13
461.54	294.65
461.91	293.23
462.27	291.76
462.64	290.53
463.01	289.20
463.38	287.88
463.74	286.54
464.11	285.37
464.48	284.37
464.85	283.25
465.21	282.36
465.58	281.45
465.95	280.36
466.32	279.50
466.68	278.58
467.05	277.68
467.42	276.73
467.78	275.80
468.15	274.94
468.52	274.28
468.88	273.40
469.25	272.60
469.62	272.00
469.98	271.31
470.35	270.66
470.72	270.05
471.08	269.40
471.45	268.83
471.82	268.30
472.18	267.70
472.55	267.31
472.92	266.79
473.28	266.34
473.65	265.90
474.02	265.40
474.38	265.02
474.75	264.68
475.11	264.37
475.48	264.08
475.85	263.82
476.21	263.56
476.58	263.39
476.94	263.27
477.31	263.08
477.67	262.95
478.04	262.86
478.41	262.78
478.77	262.82
479.14	262.80
479.50	262.82
479.87	262.88
480.23	262.94
480.60	263.01
480.96	263.10
481.33	263.31
481.69	263.56
482.06	263.77
482.42	264.02
482.79	264.29
483.15	264.63
483.52	265.02
483.88	265.39
484.25	265.78
484.61	266.19
484.98	266.66
485.34	267.22
485.71	267.76
486.07	268.35
486.44	268.89
486.80	269.56
487.17	270.24
487.53	271.07
487.90	271.91
488.26	272.84
488.62	273.82
488.99	274.78
489.35	275.81
489.72	276.95
490.08	278.17
490.44	279.39
490.81	280.73
491.17	282.07
491.54	283.55
491.90	285.09
492.26	286.77
492.63	288.50
492.99	290.26
493.36	292.18
493.72	294.20
494.08	296.35
494.45	298.62
494.81	301.01
495.17	303.44
495.54	306.00
495.90	308.70
496.26	311.50
496.63	314.44
496.99	317.55
497.35	320.76
497.72	324.12
498.08	327.61
498.44	331.28
498.80	335.22
499.17	339.23
499.53	343.41
499.89	347.74
500.26	352.25
500.62	356.91
500.98	361.91
501.34	367.05
501.71	372.38
502.07	377.77
502.43	383.42
502.79	389.24
503.16	395.30
503.52	401.54
503.88	407.99
504.24	414.62
504.60	421.49
504.97	428.62
505.33	435.99
505.69	443.75
506.05	451.52
506.41	459.43
506.78	467.63
507.14	476.04
507.50	484.80
507.86	493.86
508.22	503.03
508.59	512.18
508.95	521.79
509.31	531.59
509.67	541.70
510.03	551.89
510.39	562.47
510.75	573.32
511.12	584.25
511.48	595.53
511.84	607.10
512.20	618.62
512.56	630.55
512.92	642.72
513.28	655.01
513.64	667.52
514.00	680.21
514.37	693.17
514.73	706.31
515.09	719.34
515.45	732.60
515.81	746.31
516.17	760.37
516.53	774.47
516.89	788.65
517.25	802.87
517.61	817.37
517.97	831.82
518.33	846.24
518.69	861.07
519.05	876.07
519.41	891.22
519.77	906.77
520.13	922.32
520.49	937.74
520.85	953.21
521.21	968.95
521.57	985.20
521.93	1001.05
522.29	1017.45
522.65	1033.80
523.01	1050.14
523.37	1066.16
523.73	1082.35
524.09	1098.47
524.45	1114.88
524.81	1131.43
525.17	1148.28
525.53	1165.19
525.89	1182.06
526.25	1198.90
526.61	1215.35
526.97	1232.06
527.33	1248.55
527.68	1265.25
528.04	1281.76
528.40	1298.39
528.76	1315.50
529.12	1332.06
529.48	1349.02
529.84	1364.98
530.20	1381.57
530.56	1398.64
530.91	1416.13
531.27	1432.85
531.63	1449.39
531.99	1465.98
532.35	1482.15
532.71	1498.06
533.07	1514.39
533.42	1530.20
533.78	1546.14
534.14	1562.49
534.50	1577.81
534.86	1593.78
535.21	1608.86
535.57	1624.83
535.93	1640.43
536.29	1655.15
536.65	1670.34
537.00	1684.97
537.36	1700.28
537.72	1714.81
538.08	1729.06
538.44	1742.79
538.79	1756.77
539.15	1770.35
539.51	1784.09
539.87	1798.36
540.22	1812.18
540.58	1825.95
540.94	1839.49
541.29	1852.53
541.65	1865.18
542.01	1878.47
542.37	1890.82
542.72	1903.34
543.08	1915.07
543.44	1927.57
543.79	1939.05
544.15	1950.12
544.51	1961.71
544.87	1972.71
545.22	1983.66
545.58	1993.90
545.94	2003.68
546.29	2013.61
546.65	2023.55
547.01	2032.77
547.36	2041.50
547.72	2049.88
548.07	2057.80
548.43	2066.09
548.79	2074.21
549.14	2081.70
549.50	2089.11
549.86	2096.84
550.21	2104.11
550.57	2111.40
550.92	2117.77
551.28	2124.61
551.64	2131.75
551.99	2138.29
552.35	2144.50
552.70	2150.59
553.06	2156.64
553.41	2162.98
553.77	2169.05
554.13	2175.09
554.48	2181.24
554.84	2186.63
555.19	2192.09
555.55	2197.20
555.90	2201.56
556.26	2206.36
556.61	2211.33
556.97	2215.56
557.32	2219.64
557.68	2223.88
558.03	2228.07
558.39	2231.85
558.74	2236.53
559.10	2240.18
559.45	2243.95
559.81	2248.34
560.16	2252.23
560.52	2255.48
560.87	2258.95
561.23	2261.51
561.58	2264.53
561.94	2267.10
562.29	2269.65
562.64	2272.10
563.00	2274.76
563.35	2278.31
563.71	2281.43
564.06	2284.51
564.42	2287.25
564.77	2289.78
565.12	2291.91
565.48	2293.79
565.83	2295.61
566.19	2296.91
566.54	2297.90
566.89	2298.95
567.25	2299.45
567.60	2300.67
567.96	2302.33
568.31	2303.23
568.66	2304.28
569.02	2304.83
569.37	2305.15
569.72	2305.87
570.08	2306.11
570.43	2306.09
570.78	2305.40
571.14	2303.84
571.49	2302.33
571.84	2302.09
572.20	2300.74
572.55	2299.67
572.90	2298.25
573.26	2296.91
573.61	2295.09
573.96	2293.34
574.31	2290.33
574.67	2287.22
575.02	2283.49
575.37	2280.11
575.72	2276.12
576.08	2272.81
576.43	2269.30
576.78	2265.53
577.13	2262.30
577.49	2259.27
577.84	2255.62
578.19	2251.73
578.54	2247.92
578.90	2243.69
579.25	2238.11
579.60	2233.14
579.95	2228.06
580.30	2222.84
580.66	2217.65
581.01	2212.78
581.36	2207.76
581.71	2203.52
582.06	2199.12
582.42	2194.63
582.77	2189.29
583.12	2184.60
583.47	2179.87
583.82	2174.85
584.17	2169.51
584.53	2163.98
584.88	2158.11
585.23	2152.35
585.58	2146.92
585.93	2141.51
586.28	2136.85
586.63	2131.86
586.98	2126.83
587.34	2122.07
587.69	2117.19
588.04	2111.75
588.39	2105.91
588.74	2099.43
589.09	2093.28
589.44	2086.41
589.79	2080.43
590.14	2074.78
590.49	2068.25
590.84	2061.73
591.19	2055.72
591.54	2049.21
591.89	2041.86
592.25	2035.07
592.60	2027.80
592.95	2020.14
593.30	2012.76
593.65	2004.90
594.00	1997.71
594.35	1990.49
594.70	1982.48
595.05	1975.15
595.40	1967.89
595.75	1960.44
596.10	1954.20
596.45	1947.30
596.80	1941.10
597.15	1934.29
597.50	1927.02
597.85	1920.54
598.19	1913.93
598.54	1906.73
598.89	1900.16
599.24	1894.16
599.59	1887.36
599.94	1881.07
600.29	1874.79
600.64	1868.20
600.99	1860.85
601.34	1853.95
601.69	1846.90
602.04	1839.93
602.39	1832.60
602.74	1825.66
603.08	1818.93
603.43	1812.10
603.78	1804.91
604.13	1797.59
604.48	1790.31
604.83	1783.52
605.18	1776.43
605.53	1768.31
605.87	1760.27
606.22	1753.09
606.57	1745.18
606.92	1737.97
607.27	1730.83
607.62	1723.85
607.96	1716.51
608.31	1709.84
608.66	1702.25
609.01	1694.66
609.36	1687.08
609.70	1679.07
610.05	1671.02
610.40	1663.24
610.75	1654.92
611.10	1647.14
611.44	1638.85
611.79	1630.91
612.14	1622.24
612.49	1613.15
612.83	1604.81
613.18	1596.75
613.53	1588.55
613.88	1580.03
614.22	1571.71
614.57	1563.11
614.92	1555.19
615.27	1547.74
615.61	1539.31
615.96	1531.28
616.31	1523.64
616.65	1516.27
617.00	1508.71
617.35	1501.11
617.70	1492.70
618.04	1484.18
618.39	1476.02
618.74	1468.40
619.08	1460.07
619.43	1452.49
619.78	1445.67
620.12	1438.49
620.47	1430.97
620.82	1422.81
621.16	1415.36
621.51	1407.73
621.85	1400.15
622.20	1391.49
622.55	1383.00
622.89	1375.17
623.24	1367.57
623.59	1360.15
623.93	1352.66
624.28	1345.37
624.62	1337.83
624.97	1330.71
625.32	1323.94
625.66	1316.90
626.01	1309.64
626.35	1302.14
626.70	1294.38
627.04	1286.55
627.39	1278.77
627.73	1271.26
628.08	1264.33
628.43	1256.94
628.77	1249.59
629.12	1242.06
629.46	1234.91
629.81	1227.57
630.15	1220.34
630.50	1212.83
630.84	1204.64
631.19	1196.73
631.53	1189.18
631.88	1181.57
632.22	1173.92
632.57	1166.62
632.91	1159.06
633.26	1151.67
633.60	1144.33
633.95	1137.21
634.29	1130.22
634.64	1123.58
634.98	1116.28
635.32	1109.08
635.67	1102.60
636.01	1095.89
636.36	1088.98
636.70	1082.43
637.05	1075.77
637.39	1069.31
637.73	1062.87
638.08	1057.03
638.42	1050.99
638.77	1044.59
639.11	1037.91
639.45	1031.64
639.80	1024.86
640.14	1018.41
640.49	1011.87
640.83	1005.57
641.17	999.30
641.52	992.96
641.86	986.41
642.20	980.59
642.55	974.41
642.89	967.88
643.23	961.41
643.58	955.74
643.92	949.60
644.26	943.61
644.61	937.59
644.95	931.55
645.29	924.94
645.64	918.25
645.98	911.93
646.32	906.23
646.66	900.10
647.01	894.43
647.35	888.72
647.69	882.88
648.04	877.38
648.38	871.64
648.72	865.63
649.06	859.62
649.41	853.76
649.75	847.73
650.09	841.77
650.43	835.97
650.78	829.76
651.12	823.83
651.46	818.11
651.80	812.41
652.14	807.01
652.49	801.57
652.83	796.38
653.17	790.70
653.51	784.92
653.85	779.58
654.20	773.89
654.54	767.92
654.88	762.18
655.22	756.28
655.56	750.62
655.90	745.14
656.25	739.91
656.59	734.53
656.93	729.43
657.27	724.25
657.61	718.89
657.95	713.78
658.29	708.67
658.64	703.41
658.98	698.11
659.32	692.66
659.66	687.48
660.00	682.15
660.34	677.20
660.68	672.33
661.02	667.32
661.36	662.74
661.70	658.25
662.05	653.87
662.39	649.55
662.73	645.00
663.07	640.68
663.41	636.21
663.75	631.67
664.09	627.11
664.43	622.83
664.77	618.64
665.11	614.42
665.45	610.30
665.79	606.22
666.13	602.08
666.47	597.99
666.81	593.87
667.15	589.78
667.49	585.91
667.83	582.14
668.17	578.13
668.51	573.99
668.85	569.94
669.19	566.16
669.53	562.36
669.87	558.51
670.21	554.82
670.55	551.22
670.89	547.82
671.23	544.37
671.57	540.73
671.91	537.17
672.25	533.67
672.58	530.16
672.92	526.79
673.26	523.64
673.60	520.51
673.94	517.40
674.28	514.54
674.62	511.57
674.96	508.40
675.30	505.55
675.64	502.58
675.97	499.86
676.31	496.95
676.65	494.02
676.99	491.38
677.33	488.50
677.67	485.65
678.01	482.62
678.34	479.66
678.68	476.84
679.02	474.04
679.36	471.22
679.70	468.52
680.04	465.70
680.37	462.79
680.71	460.01
681.05	457.37
681.39	454.62
681.73	451.95
682.06	449.48
682.40	446.93
682.74	444.50
683.08	441.89
683.42	439.30
683.75	436.84
684.09	434.27
684.43	431.79
684.77	429.35
685.10	426.98
685.44	424.70
685.78	422.43
686.12	420.20
686.45	417.99
686.79	415.70
687.13	413.57
687.46	411.44
687.80	409.24
688.14	407.09
688.48	405.02
688.81	402.82
689.15	400.65
689.49	398.47
689.82	396.33
690.16	394.30
690.50	392.33
690.83	390.31
691.17	388.34
691.51	386.45
691.84	384.63
692.18	382.75
692.52	380.74
692.85	378.79
693.19	376.92
693.52	375.08
693.86	373.24
694.20	371.45
694.53	369.63
694.87	367.82
695.21	366.04
695.54	364.25
695.88	362.54
696.21	360.79
696.55	359.15
696.88	357.48
697.22	355.83
697.56	354.24
697.89	352.60
698.23	350.98
698.56	349.40
698.90	347.77
699.23	346.10
699.57	344.57
699.90	343.09
700.24	341.57
700.58	340.02
700.91	338.54
701.25	337.09
701.58	335.73
701.92	334.39
702.25	332.98
702.59	331.60
702.92	330.28
703.26	328.96
703.59	327.68
703.93	326.52
704.26	325.30
704.60	324.01
704.93	322.73
705.26	321.54
705.60	320.35
705.93	319.21
706.27	318.18
706.60	317.16
706.94	316.08
707.27	314.94
707.61	313.90
707.94	312.92
708.27	311.84
708.61	310.76
708.94	309.78
709.28	308.84
709.61	307.89
709.94	306.94
710.28	305.96
710.61	304.96
710.95	303.91
711.28	302.99
711.61	302.06
711.95	301.19
712.28	300.21
712.61	299.23
712.95	298.33
713.28	297.49
713.61	296.59
713.95	295.70
714.28	294.89
714.61	294.04
714.95	293.16
715.28	292.31
715.61	291.44
715.95	290.57
716.28	289.72
716.61	288.89
716.95	288.04
717.28	287.33
717.61	286.57
717.94	285.81
718.28	285.00
718.61	284.28
718.94	283.54
719.27	282.87
719.61	282.21
719.94	281.55
720.27	280.80
720.60	280.15
720.94	279.48
721.27	278.89
721.60	278.27
721.93	277.65
722.27	277.09
722.60	276.54
722.93	276.00
723.26	275.44
723.59	274.88
723.93	274.38
724.26	273.78
724.59	273.23
724.92	272.70
725.25	272.21
725.59	271.71
725.92	271.22
726.25	270.71
726.58	270.22
726.91	269.70
727.24	269.25
727.57	268.74
727.91	268.24
728.24	267.76
728.57	267.29
728.90	266.88
729.23	266.37
729.56	265.92
729.89	265.44
730.22	264.92
730.55	264.43
730.89	263.95
731.22	263.50
731.55	263.07
731.88	262.63
732.21	262.21
732.54	261.74
732.87	261.33
733.20	260.93
733.53	260.55
733.86	260.20
734.19	259.79
734.52	259.42
734.85	259.13
735.18	258.73
735.51	258.34
735.84	257.95
736.17	257.62
736.50	257.25
736.83	256.99
737.16	256.66
737.49	256.33
737.82	255.98
738.15	255.67
738.48	255.31
738.81	254.98
739.14	254.64
739.47	254.36
739.80	254.05
740.13	253.73
740.46	253.38
740.79	253.05
741.12	252.75
741.45	252.41
741.78	252.05
742.11	251.75
742.44	251.44
742.77	251.17
743.10	250.87
743.43	250.58
743.75	250.21
744.08	250.09
744.41	249.83
744.74	249.60
745.07	249.32
745.40	249.14
745.73	248.92
746.06	248.65
746.39	248.39
746.71	248.12
747.04	247.87
747.37	247.64
747.70	247.38
748.03	247.13
748.36	246.93
748.68	246.70
749.01	246.45
749.34	246.23
749.67	246.00
750.00	245.75
750.33	245.58
750.65	245.35
750.98	245.01
751.31	244.82
751.64	244.58
751.97	244.42
752.29	244.18
752.62	243.92
752.95	243.74
753.28	243.54
753.60	243.31
753.93	243.17
754.26	242.95
754.59	242.74
754.91	242.53
755.24	242.31
755.57	242.10
755.90	241.91
756.22	241.72
756.55	241.54
756.88	241.36
757.20	241.16
757.53	240.97
757.86	240.80
758.19	240.66
758.51	240.50
758.84	240.29
759.17	240.13
759.49	240.00
759.82	239.86
760.15	239.72
760.47	239.60
760.80	239.38
761.13	239.24
761.45	239.11
761.78	239.00
762.11	238.90
762.43	238.77
762.76	238.65
763.08	238.52
763.41	238.36
763.74	238.22
764.06	238.06
764.39	237.97
764.71	237.83
765.04	237.70
765.37	237.56
765.69	237.43
766.02	237.30
766.34	237.18
766.67	237.03
767.00	236.87
767.32	236.81
767.65	236.77
767.97	236.69
768.30	236.56
768.62	236.45
768.95	236.31
769.27	236.19
769.60	236.13
769.92	236.01
770.25	235.92
770.57	235.82
770.90	235.69
771.22	235.52
771.55	235.42
771.87	235.27
772.20	235.14
772.52	235.12
772.85	235.16
773.17	235.05
773.50	234.95
773.82	234.85
774.15	234.69
774.47	234.53
774.80	234.40
775.12	234.31
775.45	234.19
775.77	234.11
776.09	234.03
776.42	233.93
776.74	233.88
777.07	233.79
777.39	233.68
777.72	233.63
778.04	233.60
778.36	233.49
778.69	233.44
779.01	233.43
779.33	233.27
779.66	233.02
779.98	232.96
780.31	232.90
780.63	232.90
780.95	232.85
781.28	232.79
781.60	232.72
781.92	232.67
782.25	232.60
782.57	232.49
782.89	232.47
783.22	232.39
783.54	232.28
783.86	232.20
784.19	232.13
784.51	232.12
784.83	232.05
785.16	232.01
785.48	231.93
785.80	231.88
786.12	231.84
786.45	231.84
786.77	231.77
787.09	231.70
