SpectraSuite Data File
++++++++++++++++++++++++++++++++++++
Date: Fri Feb 01 16:54:05 EST 2013
User: group
Dark Spectrum Present: No
Reference Spectrum Present: No
Number of Sampled Component Spectra: 1
Spectrometers: USB2E7196
Integration Time (usec): 35000 (USB2E7196)
Spectra Averaged: 100 (USB2E7196)
Boxcar Smoothing: 10 (USB2E7196)
Correct for Electrical Dark: No (USB2E7196)
Strobe/Lamp Enabled: No (USB2E7196)
Correct for Detector Non-linearity: No (USB2E7196)
Correct for Stray Light: No (USB2E7196)
Number of Pixels in Processed Spectrum: 2048
>>>>>Begin Processed Spectral Data<<<<<
339.09	0.00
339.48	212.88
339.86	214.66
340.24	215.69
340.63	217.68
341.01	220.43
341.39	220.05
341.78	221.32
342.16	222.85
342.54	222.91
342.93	211.69
343.31	222.39
343.69	222.96
344.07	223.42
344.46	223.86
344.84	224.23
345.22	224.48
345.60	224.74
345.99	224.93
346.37	225.09
346.75	225.24
347.13	225.31
347.52	225.35
347.90	225.46
348.28	225.47
348.66	225.53
349.05	225.52
349.43	225.55
349.81	225.60
350.19	225.63
350.57	225.71
350.96	225.78
351.34	225.85
351.72	225.94
352.10	226.07
352.48	226.15
352.87	226.20
353.25	226.22
353.63	226.31
354.01	226.39
354.39	226.45
354.77	226.52
355.15	226.63
355.54	226.70
355.92	226.73
356.30	226.81
356.68	226.98
357.06	227.08
357.44	227.12
357.82	227.19
358.20	227.27
358.58	227.32
358.97	227.39
359.35	227.49
359.73	227.54
360.11	227.56
360.49	227.62
360.87	227.68
361.25	227.76
361.63	227.84
362.01	227.89
362.39	227.91
362.77	227.97
363.15	228.01
363.53	228.07
363.91	228.05
364.29	228.09
364.67	228.00
365.05	227.99
365.43	228.04
365.81	228.08
366.19	228.12
366.57	228.16
366.95	228.13
367.33	228.08
367.71	228.09
368.09	228.11
368.47	228.08
368.85	228.05
369.23	228.05
369.61	227.98
369.99	227.94
370.37	227.92
370.75	227.89
371.13	227.84
371.51	227.78
371.89	227.76
372.27	227.75
372.65	227.71
373.03	227.62
373.41	227.55
373.78	227.48
374.16	227.39
374.54	227.27
374.92	227.20
375.30	227.15
375.68	227.06
376.06	227.01
376.44	226.94
376.82	226.89
377.19	226.82
377.57	226.75
377.95	226.65
378.33	226.56
378.71	226.40
379.09	226.34
379.47	226.26
379.84	226.19
380.22	226.09
380.60	226.01
380.98	225.95
381.36	225.88
381.73	225.80
382.11	225.73
382.49	225.70
382.87	225.68
383.25	225.62
383.62	225.68
384.00	225.61
384.38	225.57
384.76	225.52
385.13	225.49
385.51	225.44
385.89	225.43
386.27	225.41
386.64	225.43
387.02	225.38
387.40	225.31
387.78	225.32
388.15	225.28
388.53	225.25
388.91	225.24
389.29	225.18
389.66	225.14
390.04	225.12
390.42	225.09
390.79	225.04
391.17	225.02
391.55	224.89
391.92	224.85
392.30	224.86
392.68	224.84
393.05	224.82
393.43	224.81
393.81	224.80
394.18	224.79
394.56	224.78
394.94	224.79
395.31	224.82
395.69	224.83
396.06	224.84
396.44	224.84
396.82	224.84
397.19	224.92
397.57	224.96
397.95	224.98
398.32	225.05
398.70	225.09
399.07	225.16
399.45	225.21
399.82	225.27
400.20	225.34
400.58	225.41
400.95	225.45
401.33	225.53
401.70	225.69
402.08	225.79
402.45	225.89
402.83	226.00
403.20	226.08
403.58	226.19
403.95	226.32
404.33	226.47
404.71	226.60
405.08	226.77
405.46	226.90
405.83	227.04
406.21	227.18
406.58	227.35
406.96	227.49
407.33	227.66
407.70	227.85
408.08	228.10
408.45	228.33
408.83	228.59
409.20	228.78
409.58	228.92
409.95	229.17
410.33	229.41
410.70	229.67
411.08	229.98
411.45	230.27
411.82	230.59
412.20	230.90
412.57	231.34
412.95	231.61
413.32	232.03
413.69	232.49
414.07	232.89
414.44	233.36
414.82	233.82
415.19	234.40
415.56	234.95
415.94	235.44
416.31	236.08
416.68	236.70
417.06	237.40
417.43	238.11
417.81	238.85
418.18	239.66
418.55	240.49
418.93	241.34
419.30	242.22
419.67	243.13
420.04	244.08
420.42	245.04
420.79	246.23
421.16	247.35
421.54	248.50
421.91	249.73
422.28	250.99
422.66	252.33
423.03	253.62
423.40	254.95
423.77	256.37
424.15	257.74
424.52	259.23
424.89	260.86
425.26	262.40
425.64	263.84
426.01	265.40
426.38	267.04
426.75	268.71
427.13	270.45
427.50	272.25
427.87	274.16
428.24	276.03
428.61	277.77
428.99	279.72
429.36	281.83
429.73	283.86
430.10	285.85
430.47	287.92
430.85	290.07
431.22	292.30
431.59	294.65
431.96	296.89
432.33	299.35
432.70	301.71
433.08	304.51
433.45	307.12
433.82	309.70
434.19	312.55
434.56	315.34
434.93	317.95
435.30	320.58
435.68	323.40
436.05	326.20
436.42	328.96
436.79	331.47
437.16	334.14
437.53	336.94
437.90	339.71
438.27	342.38
438.64	345.13
439.01	347.70
439.38	349.87
439.75	352.03
440.13	354.46
440.50	356.73
440.87	358.57
441.24	360.56
441.61	362.74
441.98	364.23
442.35	365.98
442.72	367.83
443.09	369.65
443.46	370.66
443.83	371.24
444.20	371.77
444.57	372.56
444.94	372.81
445.31	373.15
445.68	373.52
446.05	373.62
446.42	373.26
446.79	372.86
447.16	372.46
447.53	372.14
447.90	371.06
448.27	369.93
448.64	368.38
449.01	367.22
449.37	365.27
449.74	363.41
450.11	361.24
450.48	358.79
450.85	356.22
451.22	354.11
451.59	352.08
451.96	350.15
452.33	347.57
452.70	345.28
453.07	342.45
453.43	339.56
453.80	336.85
454.17	334.19
454.54	331.66
454.91	328.99
455.28	326.32
455.65	323.82
456.02	321.39
456.38	319.23
456.75	316.58
457.12	314.30
457.49	312.09
457.86	309.90
458.23	308.03
458.59	306.07
458.96	303.97
459.33	302.12
459.70	300.28
460.07	298.82
460.43	297.10
460.80	295.51
461.17	294.12
461.54	292.62
461.91	291.17
462.27	289.76
462.64	288.54
463.01	287.18
463.38	285.87
463.74	284.55
464.11	283.39
464.48	282.36
464.85	281.29
465.21	280.44
465.58	279.54
465.95	278.48
466.32	277.54
466.68	276.66
467.05	275.81
467.42	274.94
467.78	274.02
468.15	273.18
468.52	272.56
468.88	271.72
469.25	270.95
469.62	270.37
469.98	269.67
470.35	269.02
470.72	268.43
471.08	267.84
471.45	267.27
471.82	266.75
472.18	266.18
472.55	265.76
472.92	265.25
473.28	264.84
473.65	264.43
474.02	264.01
474.38	263.70
474.75	263.39
475.11	263.03
475.48	262.77
475.85	262.51
476.21	262.28
476.58	262.10
476.94	262.02
477.31	261.89
477.67	261.79
478.04	261.73
478.41	261.73
478.77	261.81
479.14	261.80
479.50	261.82
479.87	261.85
480.23	261.93
480.60	262.00
480.96	262.08
481.33	262.25
481.69	262.44
482.06	262.59
482.42	262.76
482.79	263.05
483.15	263.37
483.52	263.78
483.88	264.11
484.25	264.52
484.61	264.93
484.98	265.35
485.34	265.89
485.71	266.45
486.07	267.05
486.44	267.58
486.80	268.28
487.17	268.99
487.53	269.85
487.90	270.71
488.26	271.65
488.62	272.64
488.99	273.62
489.35	274.70
489.72	275.84
490.08	277.06
490.44	278.27
490.81	279.63
491.17	280.96
491.54	282.43
491.90	283.90
492.26	285.53
492.63	287.22
492.99	289.00
493.36	290.89
493.72	292.89
494.08	294.99
494.45	297.20
494.81	299.56
495.17	301.96
495.54	304.55
495.90	307.21
496.26	310.01
496.63	312.96
496.99	316.08
497.35	319.31
497.72	322.69
498.08	326.23
498.44	329.89
498.80	333.82
499.17	337.85
499.53	342.06
499.89	346.41
500.26	350.93
500.62	355.59
500.98	360.55
501.34	365.63
501.71	370.93
502.07	376.40
502.43	381.95
502.79	387.78
503.16	393.80
503.52	400.06
503.88	406.42
504.24	412.99
504.60	419.83
504.97	426.91
505.33	434.19
505.69	441.83
506.05	449.49
506.41	457.31
506.78	465.39
507.14	473.80
507.50	482.43
507.86	491.35
508.22	500.45
508.59	509.57
508.95	519.04
509.31	528.80
509.67	538.78
510.03	549.06
510.39	559.53
510.75	570.24
511.12	581.05
511.48	592.25
511.84	603.63
512.20	615.03
512.56	626.81
512.92	638.87
513.28	651.10
513.64	663.48
514.00	676.11
514.37	688.97
514.73	701.84
515.09	714.76
515.45	727.98
515.81	741.34
516.17	755.20
516.53	769.23
516.89	783.20
517.25	797.25
517.61	811.46
517.97	825.73
518.33	839.95
518.69	854.55
519.05	869.28
519.41	884.32
519.77	899.61
520.13	914.93
520.49	930.03
520.85	945.23
521.21	960.62
521.57	976.54
521.93	992.01
522.29	1008.19
522.65	1024.30
523.01	1040.24
523.37	1056.13
523.73	1072.05
524.09	1087.85
524.45	1103.92
524.81	1120.21
525.17	1136.75
525.53	1153.36
525.89	1169.99
526.25	1186.56
526.61	1202.71
526.97	1219.14
527.33	1235.39
527.68	1251.74
528.04	1268.07
528.40	1284.33
528.76	1301.24
529.12	1317.61
529.48	1334.21
529.84	1349.94
530.20	1366.22
530.56	1382.90
530.91	1400.09
531.27	1416.66
531.63	1432.83
531.99	1449.02
532.35	1464.88
532.71	1480.50
533.07	1496.48
533.42	1512.10
533.78	1527.83
534.14	1543.87
534.50	1558.81
534.86	1574.33
535.21	1589.31
535.57	1604.93
535.93	1620.21
536.29	1634.61
536.65	1649.39
537.00	1663.90
537.36	1678.96
537.72	1693.28
538.08	1707.55
538.44	1721.14
538.79	1734.72
539.15	1748.10
539.51	1761.59
539.87	1775.61
540.22	1789.08
540.58	1802.55
540.94	1815.51
541.29	1828.00
541.65	1840.40
542.01	1853.59
542.37	1865.74
542.72	1877.80
543.08	1889.38
543.44	1901.54
543.79	1912.73
544.15	1923.56
544.51	1935.10
544.87	1945.79
545.22	1956.38
545.58	1966.41
545.94	1975.96
546.29	1985.65
546.65	1995.38
547.01	2004.67
547.36	2013.22
547.72	2021.70
548.07	2029.59
548.43	2037.78
548.79	2045.88
549.14	2053.49
549.50	2060.52
549.86	2067.99
550.21	2075.29
550.57	2082.42
550.92	2088.89
551.28	2095.80
551.64	2102.68
551.99	2109.01
552.35	2115.26
552.70	2121.41
553.06	2127.42
553.41	2133.75
553.77	2139.68
554.13	2145.67
554.48	2151.77
554.84	2157.34
555.19	2162.47
555.55	2167.63
555.90	2172.09
556.26	2176.99
556.61	2181.47
556.97	2186.02
557.32	2190.18
557.68	2194.36
558.03	2198.59
558.39	2202.26
558.74	2206.96
559.10	2210.99
559.45	2214.71
559.81	2218.91
560.16	2222.73
560.52	2225.94
560.87	2229.36
561.23	2232.15
561.58	2235.23
561.94	2237.81
562.29	2239.99
562.64	2242.75
563.00	2245.30
563.35	2248.97
563.71	2252.19
564.06	2255.56
564.42	2258.40
564.77	2261.31
565.12	2263.72
565.48	2265.67
565.83	2267.89
566.19	2269.48
566.54	2270.28
566.89	2271.61
567.25	2272.41
567.60	2273.67
567.96	2275.62
568.31	2276.57
568.66	2277.79
569.02	2278.55
569.37	2279.01
569.72	2280.20
570.08	2280.76
570.43	2280.93
570.78	2280.56
571.14	2279.25
571.49	2278.03
571.84	2277.93
572.20	2276.84
572.55	2275.92
572.90	2274.51
573.26	2273.15
573.61	2271.35
573.96	2270.04
574.31	2267.14
574.67	2264.30
575.02	2261.01
575.37	2257.66
575.72	2254.12
576.08	2250.74
576.43	2247.50
576.78	2244.03
577.13	2240.89
577.49	2237.61
577.84	2234.46
578.19	2230.76
578.54	2227.27
578.90	2223.53
579.25	2218.04
579.60	2213.28
579.95	2208.36
580.30	2203.54
580.66	2198.54
581.01	2193.71
581.36	2188.83
581.71	2184.96
582.06	2180.79
582.42	2176.59
582.77	2171.53
583.12	2167.08
583.47	2162.85
583.82	2158.10
584.17	2152.93
584.53	2147.72
584.88	2142.48
585.23	2136.78
585.58	2131.39
585.93	2125.99
586.28	2121.06
586.63	2116.21
586.98	2111.30
587.34	2106.74
587.69	2101.96
588.04	2097.09
588.39	2091.63
588.74	2085.30
589.09	2079.24
589.44	2072.47
589.79	2066.46
590.14	2060.77
590.49	2054.29
590.84	2047.83
591.19	2041.78
591.54	2035.44
591.89	2028.33
592.25	2021.70
592.60	2014.69
592.95	2007.48
593.30	2000.37
593.65	1992.98
594.00	1986.04
594.35	1978.89
594.70	1970.95
595.05	1964.15
595.40	1956.75
595.75	1949.50
596.10	1943.56
596.45	1937.00
596.80	1931.19
597.15	1924.89
597.50	1918.32
597.85	1911.92
598.19	1905.41
598.54	1898.70
598.89	1892.32
599.24	1886.43
599.59	1879.83
599.94	1873.66
600.29	1867.25
600.64	1860.65
600.99	1853.34
601.34	1846.70
601.69	1839.89
602.04	1833.32
602.39	1825.91
602.74	1819.21
603.08	1812.58
603.43	1805.77
603.78	1798.52
604.13	1791.20
604.48	1783.97
604.83	1777.14
605.18	1770.64
605.53	1762.93
605.87	1754.90
606.22	1747.76
606.57	1739.87
606.92	1732.58
607.27	1725.53
607.62	1718.84
607.96	1711.78
608.31	1705.47
608.66	1697.92
609.01	1690.46
609.36	1682.89
609.70	1675.04
610.05	1667.19
610.40	1659.69
610.75	1651.53
611.10	1644.10
611.44	1635.71
611.79	1627.65
612.14	1618.98
612.49	1609.61
612.83	1601.14
613.18	1593.12
613.53	1584.96
613.88	1576.51
614.22	1568.33
614.57	1559.67
614.92	1551.66
615.27	1544.18
615.61	1535.82
615.96	1527.87
616.31	1520.18
616.65	1512.80
617.00	1505.25
617.35	1497.55
617.70	1489.26
618.04	1480.85
618.39	1472.50
618.74	1465.05
619.08	1456.80
619.43	1449.20
619.78	1442.35
620.12	1435.32
620.47	1427.81
620.82	1419.69
621.16	1412.25
621.51	1404.57
621.85	1397.05
622.20	1388.58
622.55	1380.21
622.89	1372.26
623.24	1364.61
623.59	1357.11
623.93	1349.72
624.28	1342.53
624.62	1335.10
624.97	1327.85
625.32	1321.01
625.66	1314.01
626.01	1306.83
626.35	1299.49
626.70	1291.68
627.04	1283.96
627.39	1276.13
627.73	1268.66
628.08	1261.76
628.43	1254.55
628.77	1247.31
629.12	1239.77
629.46	1232.64
629.81	1225.09
630.15	1217.98
630.50	1210.55
630.84	1202.51
631.19	1194.51
631.53	1186.96
631.88	1179.33
632.22	1171.82
632.57	1164.53
632.91	1156.99
633.26	1149.61
633.60	1142.19
633.95	1135.09
634.29	1128.01
634.64	1121.29
634.98	1114.07
635.32	1106.94
635.67	1100.33
636.01	1093.64
636.36	1086.86
636.70	1080.24
637.05	1073.82
637.39	1067.25
637.73	1060.80
638.08	1054.95
638.42	1049.00
638.77	1042.57
639.11	1036.12
639.45	1029.69
639.80	1023.10
640.14	1016.80
640.49	1010.38
640.83	1004.11
641.17	998.02
641.52	991.74
641.86	985.33
642.20	979.40
642.55	973.05
642.89	966.63
643.23	960.01
643.58	954.26
643.92	948.13
644.26	942.13
644.61	936.04
644.95	930.10
645.29	923.56
645.64	916.92
645.98	910.65
646.32	904.67
646.66	898.60
647.01	892.81
647.35	887.08
647.69	881.18
648.04	875.59
648.38	869.84
648.72	863.96
649.06	857.92
649.41	852.08
649.75	846.23
650.09	840.28
650.43	834.67
650.78	828.57
651.12	822.66
651.46	816.95
651.80	811.34
652.14	805.95
652.49	800.59
652.83	795.30
653.17	789.65
653.51	784.10
653.85	778.65
654.20	773.07
654.54	767.04
654.88	761.26
655.22	755.40
655.56	749.66
655.90	744.14
656.25	738.94
656.59	733.60
656.93	728.50
657.27	723.37
657.61	717.84
657.95	712.72
658.29	707.68
658.64	702.35
658.98	697.10
659.32	691.58
659.66	686.49
660.00	681.26
660.34	676.34
660.68	671.33
661.02	666.48
661.36	661.81
661.70	657.32
662.05	652.98
662.39	648.70
662.73	644.24
663.07	639.90
663.41	635.44
663.75	631.02
664.09	626.50
664.43	622.10
664.77	618.03
665.11	613.78
665.45	609.62
665.79	605.64
666.13	601.53
666.47	597.42
666.81	593.23
667.15	589.18
667.49	585.23
667.83	581.38
668.17	577.41
668.51	573.26
668.85	569.30
669.19	565.45
669.53	561.65
669.87	557.85
670.21	554.12
670.55	550.52
670.89	547.06
671.23	543.61
671.57	540.14
671.91	536.69
672.25	533.18
672.58	529.70
672.92	526.23
673.26	523.03
673.60	519.91
673.94	516.77
674.28	513.81
674.62	510.89
674.96	507.86
675.30	504.93
675.64	502.02
675.97	499.19
676.31	496.31
676.65	493.36
676.99	490.63
677.33	487.74
677.67	484.94
678.01	481.91
678.34	478.98
678.68	476.07
679.02	473.27
679.36	470.54
679.70	467.76
680.04	464.98
680.37	462.12
680.71	459.34
681.05	456.70
681.39	453.98
681.73	451.30
682.06	448.74
682.40	446.21
682.74	443.72
683.08	441.16
683.42	438.57
683.75	436.06
684.09	433.50
684.43	431.09
684.77	428.61
685.10	426.24
685.44	423.90
685.78	421.63
686.12	419.30
686.45	416.98
686.79	414.66
687.13	412.49
687.46	410.32
687.80	408.17
688.14	405.93
688.48	403.85
688.81	401.63
689.15	399.46
689.49	397.27
689.82	395.16
690.16	393.08
690.50	391.13
690.83	389.19
691.17	387.18
691.51	385.27
691.84	383.39
692.18	381.43
692.52	379.48
692.85	377.52
693.19	375.65
693.52	373.78
693.86	371.98
694.20	370.18
694.53	368.33
694.87	366.50
695.21	364.73
695.54	362.85
695.88	361.10
696.21	359.39
696.55	357.73
696.88	356.03
697.22	354.35
697.56	352.69
697.89	351.09
698.23	349.53
698.56	347.93
698.90	346.37
699.23	344.81
699.57	343.24
699.90	341.71
700.24	340.23
700.58	338.78
700.91	337.36
701.25	335.94
701.58	334.63
701.92	333.27
702.25	331.95
702.59	330.68
702.92	329.38
703.26	328.12
703.59	326.86
703.93	325.71
704.26	324.49
704.60	323.23
704.93	321.93
705.26	320.67
705.60	319.46
705.93	318.29
706.27	317.24
706.60	316.17
706.94	315.06
707.27	313.90
707.61	312.77
707.94	311.70
708.27	310.61
708.61	309.49
708.94	308.47
709.28	307.44
709.61	306.45
709.94	305.52
710.28	304.47
710.61	303.46
710.95	302.36
711.28	301.43
711.61	300.48
711.95	299.55
712.28	298.58
712.61	297.61
712.95	296.68
713.28	295.76
713.61	294.83
713.95	293.95
714.28	293.09
714.61	292.24
714.95	291.39
715.28	290.51
715.61	289.64
715.95	288.80
716.28	287.95
716.61	287.09
716.95	286.22
717.28	285.45
717.61	284.66
717.94	283.93
718.28	283.10
718.61	282.37
718.94	281.63
719.27	280.98
719.61	280.32
719.94	279.65
720.27	278.94
720.60	278.28
720.94	277.64
721.27	277.05
721.60	276.44
721.93	275.85
722.27	275.32
722.60	274.78
722.93	274.19
723.26	273.64
723.59	273.09
723.93	272.57
724.26	272.01
724.59	271.45
724.92	270.94
725.25	270.44
725.59	269.90
725.92	269.41
726.25	268.93
726.58	268.43
726.91	267.93
727.24	267.47
727.57	267.03
727.91	266.53
728.24	266.06
728.57	265.58
728.90	265.08
729.23	264.56
729.56	264.14
729.89	263.69
730.22	263.23
730.55	262.79
730.89	262.34
731.22	261.92
731.55	261.50
731.88	261.06
732.21	260.63
732.54	260.21
732.87	259.81
733.20	259.37
733.53	259.01
733.86	258.64
734.19	258.23
734.52	257.84
734.85	257.52
735.18	257.14
735.51	256.80
735.84	256.46
736.17	256.14
736.50	255.74
736.83	255.49
737.16	255.16
737.49	254.83
737.82	254.48
738.15	254.18
738.48	253.87
738.81	253.54
739.14	253.25
739.47	252.97
739.80	252.65
740.13	252.36
740.46	252.01
740.79	251.71
741.12	251.42
741.45	251.10
741.78	250.76
742.11	250.51
742.44	250.18
742.77	249.88
743.10	249.55
743.43	249.28
743.75	248.86
744.08	248.72
744.41	248.44
744.74	248.18
745.07	247.88
745.40	247.62
745.73	247.40
746.06	247.13
746.39	246.86
746.71	246.59
747.04	246.31
747.37	246.08
747.70	245.85
748.03	245.61
748.36	245.40
748.68	245.16
749.01	244.86
749.34	244.66
749.67	244.45
750.00	244.22
750.33	244.04
750.65	243.85
750.98	243.48
751.31	243.25
751.64	243.04
751.97	242.86
752.29	242.65
752.62	242.41
752.95	242.22
753.28	242.00
753.60	241.79
753.93	241.61
754.26	241.38
754.59	241.14
754.91	240.89
755.24	240.67
755.57	240.47
755.90	240.28
756.22	240.08
756.55	239.87
756.88	239.70
757.20	239.44
757.53	239.27
757.86	239.09
758.19	238.94
758.51	238.75
758.84	238.55
759.17	238.37
759.49	238.20
759.82	238.07
760.15	237.91
760.47	237.77
760.80	237.60
761.13	237.50
761.45	237.35
761.78	237.28
762.11	237.11
762.43	237.00
762.76	236.85
763.08	236.70
763.41	236.55
763.74	236.43
764.06	236.32
764.39	236.18
764.71	236.05
765.04	235.87
765.37	235.73
765.69	235.60
766.02	235.46
766.34	235.32
766.67	235.14
767.00	235.04
767.32	234.97
767.65	234.93
767.97	234.79
768.30	234.67
768.62	234.49
768.95	234.40
769.27	234.26
769.60	234.20
769.92	234.08
770.25	233.96
770.57	233.84
770.90	233.71
771.22	233.61
771.55	233.51
771.87	233.42
772.20	233.33
772.52	233.30
772.85	233.33
773.17	233.25
773.50	233.10
773.82	233.00
774.15	232.84
774.47	232.69
774.80	232.60
775.12	232.50
775.45	232.44
775.77	232.35
776.09	232.27
776.42	232.18
776.74	232.14
777.07	232.09
777.39	232.01
777.72	231.93
778.04	231.87
778.36	231.80
778.69	231.79
779.01	231.76
779.33	231.60
779.66	231.39
779.98	231.29
780.31	231.28
780.63	231.26
780.95	231.23
781.28	231.19
781.60	231.13
781.92	231.08
782.25	231.00
782.57	230.96
782.89	230.90
783.22	230.80
783.54	230.72
783.86	230.67
784.19	230.63
784.51	230.62
784.83	230.53
785.16	230.46
785.48	230.38
785.80	230.29
786.12	230.25
786.45	230.21
786.77	230.18
787.09	230.13
