SpectraSuite Data File
++++++++++++++++++++++++++++++++++++
Date: Fri Feb 01 17:19:01 EST 2013
User: group
Dark Spectrum Present: No
Reference Spectrum Present: No
Number of Sampled Component Spectra: 1
Spectrometers: USB2E7196
Integration Time (usec): 35000 (USB2E7196)
Spectra Averaged: 100 (USB2E7196)
Boxcar Smoothing: 10 (USB2E7196)
Correct for Electrical Dark: No (USB2E7196)
Strobe/Lamp Enabled: No (USB2E7196)
Correct for Detector Non-linearity: No (USB2E7196)
Correct for Stray Light: No (USB2E7196)
Number of Pixels in Processed Spectrum: 2048
>>>>>Begin Processed Spectral Data<<<<<
339.09	0.00
339.48	212.90
339.86	214.26
340.24	215.26
340.63	216.26
341.01	220.34
341.39	219.51
341.78	220.96
342.16	222.54
342.54	222.64
342.93	211.22
343.31	221.92
343.69	222.47
344.07	222.92
344.46	223.38
344.84	223.79
345.22	223.98
345.60	224.26
345.99	224.41
346.37	224.57
346.75	224.70
347.13	224.76
347.52	224.84
347.90	224.92
348.28	224.97
348.66	225.01
349.05	225.03
349.43	225.07
349.81	225.11
350.19	225.17
350.57	225.27
350.96	225.38
351.34	225.45
351.72	225.54
352.10	225.66
352.48	225.72
352.87	225.78
353.25	225.90
353.63	225.94
354.01	226.06
354.39	226.11
354.77	226.17
355.15	226.29
355.54	226.36
355.92	226.40
356.30	226.48
356.68	226.63
357.06	226.70
357.44	226.77
357.82	226.86
358.20	226.94
358.58	226.98
358.97	227.03
359.35	227.10
359.73	227.17
360.11	227.23
360.49	227.28
360.87	227.34
361.25	227.37
361.63	227.49
362.01	227.54
362.39	227.59
362.77	227.66
363.15	227.69
363.53	227.72
363.91	227.72
364.29	227.73
364.67	227.64
365.05	227.67
365.43	227.63
365.81	227.64
366.19	227.65
366.57	227.69
366.95	227.68
367.33	227.67
367.71	227.66
368.09	227.67
368.47	227.65
368.85	227.65
369.23	227.65
369.61	227.56
369.99	227.55
370.37	227.51
370.75	227.49
371.13	227.41
371.51	227.36
371.89	227.37
372.27	227.34
372.65	227.32
373.03	227.25
373.41	227.23
373.78	227.15
374.16	227.04
374.54	226.94
374.92	226.90
375.30	226.82
375.68	226.74
376.06	226.66
376.44	226.58
376.82	226.53
377.19	226.47
377.57	226.35
377.95	226.25
378.33	226.19
378.71	226.07
379.09	226.05
379.47	225.96
379.84	225.87
380.22	225.80
380.60	225.71
380.98	225.68
381.36	225.62
381.73	225.54
382.11	225.48
382.49	225.41
382.87	225.33
383.25	225.27
383.62	225.32
384.00	225.26
384.38	225.21
384.76	225.14
385.13	225.12
385.51	225.11
385.89	225.08
386.27	225.04
386.64	225.00
387.02	224.95
387.40	224.92
387.78	224.89
388.15	224.85
388.53	224.79
388.91	224.69
389.29	224.62
389.66	224.62
390.04	224.57
390.42	224.57
390.79	224.51
391.17	224.51
391.55	224.38
391.92	224.39
392.30	224.38
392.68	224.36
393.05	224.36
393.43	224.39
393.81	224.37
394.18	224.34
394.56	224.37
394.94	224.38
395.31	224.41
395.69	224.43
396.06	224.46
396.44	224.51
396.82	224.58
397.19	224.71
397.57	224.76
397.95	224.84
398.32	224.87
398.70	224.95
399.07	225.00
399.45	225.07
399.82	225.11
400.20	225.19
400.58	225.24
400.95	225.26
401.33	225.32
401.70	225.46
402.08	225.58
402.45	225.65
402.83	225.78
403.20	225.88
403.58	225.98
403.95	226.07
404.33	226.20
404.71	226.32
405.08	226.48
405.46	226.58
405.83	226.70
406.21	226.88
406.58	227.01
406.96	227.17
407.33	227.37
407.70	227.54
408.08	227.76
408.45	228.00
408.83	228.26
409.20	228.48
409.58	228.68
409.95	228.92
410.33	229.20
410.70	229.40
411.08	229.69
411.45	230.01
411.82	230.34
412.20	230.69
412.57	231.10
412.95	231.39
413.32	231.79
413.69	232.22
414.07	232.64
414.44	233.13
414.82	233.62
415.19	234.16
415.56	234.74
415.94	235.32
416.31	235.98
416.68	236.62
417.06	237.32
417.43	238.04
417.81	238.81
418.18	239.61
418.55	240.51
418.93	241.38
419.30	242.29
419.67	243.24
420.04	244.23
420.42	245.23
420.79	246.43
421.16	247.65
421.54	248.88
421.91	250.14
422.28	251.40
422.66	252.78
423.03	254.09
423.40	255.48
423.77	256.96
424.15	258.43
424.52	259.94
424.89	261.58
425.26	263.12
425.64	264.60
426.01	266.27
426.38	267.97
426.75	269.76
427.13	271.57
427.50	273.46
427.87	275.38
428.24	277.31
428.61	279.14
428.99	281.14
429.36	283.32
429.73	285.42
430.10	287.52
430.47	289.64
430.85	291.87
431.22	294.18
431.59	296.62
431.96	298.92
432.33	301.48
432.70	303.96
433.08	306.92
433.45	309.64
433.82	312.29
434.19	315.25
434.56	318.11
434.93	320.83
435.30	323.53
435.68	326.53
436.05	329.45
436.42	332.29
436.79	334.88
437.16	337.64
437.53	340.57
437.90	343.48
438.27	346.33
438.64	349.20
439.01	351.84
439.38	354.10
439.75	356.33
440.13	358.90
440.50	361.30
440.87	363.19
441.24	365.24
441.61	367.49
441.98	369.07
442.35	370.94
442.72	372.84
443.09	374.73
443.46	375.77
443.83	376.40
444.20	376.96
444.57	377.84
444.94	378.16
445.31	378.53
445.68	378.89
446.05	378.96
446.42	378.62
446.79	378.23
447.16	377.80
447.53	377.51
447.90	376.35
448.27	375.20
448.64	373.61
449.01	372.40
449.37	370.37
449.74	368.41
450.11	366.08
450.48	363.54
450.85	360.95
451.22	358.77
451.59	356.73
451.96	354.80
452.33	352.08
452.70	349.69
453.07	346.82
453.43	343.88
453.80	341.06
454.17	338.28
454.54	335.69
454.91	332.90
455.28	330.15
455.65	327.57
456.02	325.00
456.38	322.76
456.75	320.05
457.12	317.74
457.49	315.43
457.86	313.21
458.23	311.30
458.59	309.18
458.96	307.01
459.33	305.04
459.70	303.08
460.07	301.58
460.43	299.79
460.80	298.10
461.17	296.62
461.54	295.06
461.91	293.59
462.27	292.07
462.64	290.79
463.01	289.40
463.38	288.09
463.74	286.70
464.11	285.49
464.48	284.42
464.85	283.27
465.21	282.40
465.58	281.46
465.95	280.34
466.32	279.36
466.68	278.46
467.05	277.55
467.42	276.64
467.78	275.64
468.15	274.76
468.52	274.10
468.88	273.20
469.25	272.40
469.62	271.77
469.98	271.10
470.35	270.44
470.72	269.86
471.08	269.18
471.45	268.64
471.82	268.08
472.18	267.49
472.55	267.04
472.92	266.54
473.28	266.07
473.65	265.60
474.02	265.17
474.38	264.78
474.75	264.45
475.11	264.06
475.48	263.80
475.85	263.57
476.21	263.29
476.58	263.10
476.94	262.94
477.31	262.72
477.67	262.55
478.04	262.42
478.41	262.34
478.77	262.35
479.14	262.29
479.50	262.33
479.87	262.44
480.23	262.51
480.60	262.57
480.96	262.66
481.33	262.85
481.69	263.08
482.06	263.28
482.42	263.46
482.79	263.73
483.15	264.08
483.52	264.46
483.88	264.80
484.25	265.20
484.61	265.63
484.98	266.13
485.34	266.70
485.71	267.30
486.07	267.91
486.44	268.50
486.80	269.20
487.17	269.91
487.53	270.66
487.90	271.51
488.26	272.41
488.62	273.38
488.99	274.39
489.35	275.39
489.72	276.54
490.08	277.77
490.44	279.01
490.81	280.34
491.17	281.66
491.54	283.16
491.90	284.70
492.26	286.32
492.63	288.01
492.99	289.82
493.36	291.66
493.72	293.71
494.08	295.81
494.45	298.05
494.81	300.39
495.17	302.83
495.54	305.41
495.90	308.09
496.26	310.89
496.63	313.84
496.99	316.97
497.35	320.16
497.72	323.53
498.08	327.03
498.44	330.65
498.80	334.56
499.17	338.58
499.53	342.72
499.89	347.10
500.26	351.60
500.62	356.21
500.98	361.19
501.34	366.20
501.71	371.50
502.07	376.84
502.43	382.38
502.79	388.15
503.16	394.15
503.52	400.36
503.88	406.70
504.24	413.24
504.60	420.11
504.97	427.21
505.33	434.46
505.69	442.06
506.05	449.77
506.41	457.57
506.78	465.59
507.14	474.00
507.50	482.57
507.86	491.49
508.22	500.57
508.59	509.64
508.95	519.06
509.31	528.77
509.67	538.80
510.03	548.97
510.39	559.32
510.75	569.90
511.12	580.58
511.48	591.65
511.84	603.02
512.20	614.30
512.56	626.03
512.92	637.96
513.28	650.18
513.64	662.37
514.00	674.84
514.37	687.55
514.73	700.26
515.09	713.08
515.45	726.13
515.81	739.44
516.17	753.14
516.53	767.05
516.89	780.94
517.25	794.75
517.61	808.98
517.97	823.16
518.33	837.37
518.69	851.90
519.05	866.61
519.41	881.35
519.77	896.55
520.13	911.64
520.49	926.72
520.85	941.63
521.21	957.03
521.57	972.89
521.93	988.31
522.29	1004.37
522.65	1020.25
523.01	1036.04
523.37	1051.83
523.73	1067.61
524.09	1083.31
524.45	1099.24
524.81	1115.54
525.17	1131.90
525.53	1148.33
525.89	1164.82
526.25	1181.34
526.61	1197.37
526.97	1213.74
527.33	1229.83
527.68	1246.03
528.04	1262.23
528.40	1278.42
528.76	1295.14
529.12	1311.47
529.48	1328.07
529.84	1343.69
530.20	1359.97
530.56	1376.55
530.91	1393.51
531.27	1410.06
531.63	1426.13
531.99	1442.32
532.35	1457.99
532.71	1473.49
533.07	1489.58
533.42	1505.20
533.78	1520.99
534.14	1536.91
534.50	1552.10
534.86	1567.65
535.21	1582.69
535.57	1598.33
535.93	1613.67
536.29	1628.17
536.65	1642.97
537.00	1657.50
537.36	1672.66
537.72	1687.00
538.08	1701.31
538.44	1714.95
538.79	1728.60
539.15	1742.13
539.51	1755.59
539.87	1769.85
540.22	1783.47
540.58	1797.04
540.94	1810.13
541.29	1822.64
541.65	1835.31
542.01	1848.22
542.37	1860.51
542.72	1872.75
543.08	1884.46
543.44	1896.82
543.79	1908.10
544.15	1919.08
544.51	1930.51
544.87	1941.50
545.22	1952.29
545.58	1962.59
545.94	1972.32
546.29	1982.13
546.65	1992.14
547.01	2001.53
547.36	2010.29
547.72	2018.84
548.07	2026.89
548.43	2035.19
548.79	2043.38
549.14	2051.10
549.50	2058.58
549.86	2066.36
550.21	2073.83
550.57	2081.15
550.92	2087.86
551.28	2095.02
551.64	2102.21
551.99	2109.05
552.35	2115.45
552.70	2121.85
553.06	2128.04
553.41	2134.59
553.77	2140.83
554.13	2147.08
554.48	2153.49
554.84	2159.33
555.19	2164.87
555.55	2170.25
555.90	2175.10
556.26	2180.44
556.61	2185.21
556.97	2189.98
557.32	2194.43
557.68	2198.80
558.03	2203.28
558.39	2207.23
558.74	2212.07
559.10	2216.12
559.45	2219.91
559.81	2224.28
560.16	2228.33
560.52	2231.83
560.87	2235.60
561.23	2238.69
561.58	2241.75
561.94	2244.66
562.29	2247.12
562.64	2250.20
563.00	2252.93
563.35	2256.68
563.71	2260.04
564.06	2263.60
564.42	2266.78
564.77	2269.61
565.12	2272.40
565.48	2274.78
565.83	2277.08
566.19	2278.96
566.54	2280.28
566.89	2281.89
567.25	2283.03
567.60	2284.55
567.96	2286.70
568.31	2287.88
568.66	2289.46
569.02	2290.49
569.37	2291.03
569.72	2292.30
570.08	2292.83
570.43	2293.30
570.78	2293.02
571.14	2291.88
571.49	2290.92
571.84	2290.69
572.20	2290.01
572.55	2289.23
572.90	2287.70
573.26	2286.64
573.61	2285.06
573.96	2283.72
574.31	2281.10
574.67	2278.52
575.02	2275.34
575.37	2272.07
575.72	2268.72
576.08	2265.35
576.43	2262.34
576.78	2259.07
577.13	2256.03
577.49	2253.03
577.84	2249.91
578.19	2246.55
578.54	2243.24
578.90	2239.44
579.25	2234.30
579.60	2229.65
579.95	2224.93
580.30	2220.36
580.66	2215.43
581.01	2210.70
581.36	2206.00
581.71	2202.21
582.06	2197.99
582.42	2193.78
582.77	2189.11
583.12	2184.71
583.47	2180.54
583.82	2175.84
584.17	2170.87
584.53	2165.82
584.88	2160.58
585.23	2155.17
585.58	2149.89
585.93	2144.63
586.28	2139.90
586.63	2135.14
586.98	2130.25
587.34	2125.64
587.69	2120.87
588.04	2116.01
588.39	2110.67
588.74	2104.42
589.09	2098.32
589.44	2091.67
589.79	2085.60
590.14	2079.92
590.49	2073.40
590.84	2067.18
591.19	2061.34
591.54	2054.91
591.89	2047.78
592.25	2041.34
592.60	2034.24
592.95	2026.94
593.30	2019.79
593.65	2012.35
594.00	2005.33
594.35	1998.24
594.70	1990.37
595.05	1983.43
595.40	1976.08
595.75	1968.68
596.10	1962.62
596.45	1956.09
596.80	1950.03
597.15	1943.80
597.50	1937.03
597.85	1930.78
598.19	1924.11
598.54	1917.27
598.89	1910.94
599.24	1905.05
599.59	1898.40
599.94	1892.19
600.29	1885.90
600.64	1879.27
600.99	1872.09
601.34	1865.45
601.69	1858.50
602.04	1851.77
602.39	1844.47
602.74	1837.83
603.08	1831.22
603.43	1824.48
603.78	1817.18
604.13	1810.08
604.48	1802.99
604.83	1796.07
605.18	1789.36
605.53	1781.49
605.87	1773.42
606.22	1766.15
606.57	1758.22
606.92	1750.78
607.27	1743.77
607.62	1736.88
607.96	1729.66
608.31	1723.14
608.66	1715.58
609.01	1708.06
609.36	1700.60
609.70	1692.61
610.05	1684.57
610.40	1676.89
610.75	1668.53
611.10	1660.88
611.44	1652.27
611.79	1644.11
612.14	1635.50
612.49	1626.08
612.83	1617.66
613.18	1609.37
613.53	1601.18
613.88	1592.67
614.22	1584.24
614.57	1575.29
614.92	1567.26
615.27	1559.77
615.61	1551.37
615.96	1543.23
616.31	1535.44
616.65	1527.87
617.00	1520.22
617.35	1512.47
617.70	1504.18
618.04	1495.70
618.39	1487.33
618.74	1479.75
619.08	1471.24
619.43	1463.48
619.78	1456.44
620.12	1449.20
620.47	1441.66
620.82	1433.42
621.16	1425.83
621.51	1418.21
621.85	1410.58
622.20	1401.90
622.55	1393.36
622.89	1385.17
623.24	1377.26
623.59	1369.60
623.93	1362.07
624.28	1354.76
624.62	1347.15
624.97	1339.78
625.32	1332.80
625.66	1325.68
626.01	1318.39
626.35	1311.04
626.70	1303.13
627.04	1295.37
627.39	1287.45
627.73	1279.94
628.08	1272.97
628.43	1265.63
628.77	1258.25
629.12	1250.71
629.46	1243.44
629.81	1235.87
630.15	1228.69
630.50	1221.32
630.84	1213.29
631.19	1205.18
631.53	1197.45
631.88	1189.75
632.22	1182.12
632.57	1174.78
632.91	1167.21
633.26	1159.70
633.60	1152.06
633.95	1144.74
634.29	1137.61
634.64	1130.76
634.98	1123.34
635.32	1116.12
635.67	1109.37
636.01	1102.52
636.36	1095.60
636.70	1088.92
637.05	1082.31
637.39	1075.83
637.73	1069.26
638.08	1063.30
638.42	1057.22
638.77	1050.80
639.11	1044.28
639.45	1037.75
639.80	1031.07
640.14	1024.61
640.49	1018.18
640.83	1011.86
641.17	1005.78
641.52	999.42
641.86	992.92
642.20	986.99
642.55	980.47
642.89	973.99
643.23	967.41
643.58	961.67
643.92	955.54
644.26	949.53
644.61	943.33
644.95	937.38
645.29	930.71
645.64	924.04
645.98	917.67
646.32	911.60
646.66	905.52
647.01	899.59
647.35	893.83
647.69	887.78
648.04	882.17
648.38	876.27
648.72	870.29
649.06	864.30
649.41	858.32
649.75	852.44
650.09	846.41
650.43	840.64
650.78	834.42
651.12	828.41
651.46	822.60
651.80	816.91
652.14	811.43
652.49	806.10
652.83	800.90
653.17	795.24
653.51	789.55
653.85	784.14
654.20	778.61
654.54	772.58
654.88	766.85
655.22	760.96
655.56	755.23
655.90	749.68
656.25	744.39
656.59	739.02
656.93	733.93
657.27	728.84
657.61	723.31
657.95	718.19
658.29	713.09
658.64	707.67
658.98	702.31
659.32	696.81
659.66	691.55
660.00	686.20
660.34	681.22
660.68	676.34
661.02	671.27
661.36	666.45
661.70	661.94
662.05	657.54
662.39	653.26
662.73	648.85
663.07	644.46
663.41	639.94
663.75	635.46
664.09	630.84
664.43	626.40
664.77	622.29
665.11	618.03
665.45	613.86
665.79	609.86
666.13	605.72
666.47	601.56
666.81	597.38
667.15	593.24
667.49	589.26
667.83	585.34
668.17	581.38
668.51	577.31
668.85	573.24
669.19	569.37
669.53	565.50
669.87	561.59
670.21	557.81
670.55	554.16
670.89	550.73
671.23	547.35
671.57	543.78
671.91	540.27
672.25	536.71
672.58	533.17
672.92	529.73
673.26	526.54
673.60	523.37
673.94	520.26
674.28	517.24
674.62	514.27
674.96	511.16
675.30	508.26
675.64	505.32
675.97	502.49
676.31	499.68
676.65	496.73
676.99	493.99
677.33	491.14
677.67	488.27
678.01	485.20
678.34	482.18
678.68	479.25
679.02	476.40
679.36	473.59
679.70	470.91
680.04	468.14
680.37	465.28
680.71	462.43
681.05	459.76
681.39	457.07
681.73	454.34
682.06	451.81
682.40	449.26
682.74	446.70
683.08	444.08
683.42	441.39
683.75	438.87
684.09	436.23
684.43	433.74
684.77	431.33
685.10	428.97
685.44	426.61
685.78	424.31
686.12	422.03
686.45	419.69
686.79	417.34
687.13	415.10
687.46	412.88
687.80	410.73
688.14	408.49
688.48	406.44
688.81	404.23
689.15	402.08
689.49	399.86
689.82	397.73
690.16	395.63
690.50	393.65
690.83	391.69
691.17	389.71
691.51	387.78
691.84	385.87
692.18	383.90
692.52	381.88
692.85	379.91
693.19	378.01
693.52	376.20
693.86	374.33
694.20	372.51
694.53	370.68
694.87	368.79
695.21	366.95
695.54	365.06
695.88	363.29
696.21	361.52
696.55	359.78
696.88	358.04
697.22	356.35
697.56	354.66
697.89	352.96
698.23	351.38
698.56	349.75
698.90	348.19
699.23	346.58
699.57	345.06
699.90	343.50
700.24	341.90
700.58	340.32
700.91	338.82
701.25	337.36
701.58	335.99
701.92	334.59
702.25	333.19
702.59	331.77
702.92	330.45
703.26	329.14
703.59	327.87
703.93	326.68
704.26	325.47
704.60	324.15
704.93	322.87
705.26	321.56
705.60	320.31
705.93	319.07
706.27	317.98
706.60	316.89
706.94	315.78
707.27	314.65
707.61	313.58
707.94	312.51
708.27	311.39
708.61	310.26
708.94	309.26
709.28	308.30
709.61	307.35
709.94	306.39
710.28	305.34
710.61	304.32
710.95	303.23
711.28	302.28
711.61	301.36
711.95	300.47
712.28	299.51
712.61	298.57
712.95	297.64
713.28	296.71
713.61	295.79
713.95	294.88
714.28	294.04
714.61	293.16
714.95	292.33
715.28	291.47
715.61	290.60
715.95	289.71
716.28	288.81
716.61	287.95
716.95	287.11
717.28	286.33
717.61	285.53
717.94	284.80
718.28	283.98
718.61	283.24
718.94	282.51
719.27	281.88
719.61	281.24
719.94	280.57
720.27	279.84
720.60	279.15
720.94	278.57
721.27	277.98
721.60	277.42
721.93	276.83
722.27	276.29
722.60	275.75
722.93	275.21
723.26	274.66
723.59	274.11
723.93	273.56
724.26	272.98
724.59	272.42
724.92	271.88
725.25	271.42
725.59	270.90
725.92	270.40
726.25	269.83
726.58	269.28
726.91	268.79
727.24	268.33
727.57	267.87
727.91	267.32
728.24	266.83
728.57	266.29
728.90	265.81
729.23	265.30
729.56	264.87
729.89	264.34
730.22	263.89
730.55	263.41
730.89	262.99
731.22	262.57
731.55	262.14
731.88	261.71
732.21	261.24
732.54	260.77
732.87	260.31
733.20	259.90
733.53	259.50
733.86	259.13
734.19	258.72
734.52	258.29
734.85	257.96
735.18	257.53
735.51	257.15
735.84	256.74
736.17	256.39
736.50	255.90
736.83	255.69
737.16	255.33
737.49	254.97
737.82	254.57
738.15	254.20
738.48	253.87
738.81	253.49
739.14	253.14
739.47	252.82
739.80	252.51
740.13	252.20
740.46	251.85
740.79	251.51
741.12	251.20
741.45	250.90
741.78	250.58
742.11	250.31
742.44	249.99
742.77	249.70
743.10	249.36
743.43	249.10
743.75	248.71
744.08	248.56
744.41	248.28
744.74	248.03
745.07	247.76
745.40	247.47
745.73	247.25
746.06	246.99
746.39	246.71
746.71	246.42
747.04	246.12
747.37	245.85
747.70	245.58
748.03	245.34
748.36	245.08
748.68	244.82
749.01	244.53
749.34	244.30
749.67	244.05
750.00	243.85
750.33	243.69
750.65	243.47
750.98	243.14
751.31	242.93
751.64	242.71
751.97	242.54
752.29	242.34
752.62	242.09
752.95	241.87
753.28	241.69
753.60	241.48
753.93	241.32
754.26	241.15
754.59	240.94
754.91	240.74
755.24	240.57
755.57	240.37
755.90	240.21
756.22	240.02
756.55	239.86
756.88	239.66
757.20	239.44
757.53	239.24
757.86	239.06
758.19	238.89
758.51	238.72
758.84	238.53
759.17	238.35
759.49	238.24
759.82	238.12
760.15	237.98
760.47	237.83
760.80	237.67
761.13	237.54
761.45	237.39
761.78	237.23
762.11	237.06
762.43	236.91
762.76	236.76
763.08	236.61
763.41	236.49
763.74	236.33
764.06	236.17
764.39	236.05
764.71	235.91
765.04	235.78
765.37	235.63
765.69	235.47
766.02	235.35
766.34	235.16
766.67	235.03
767.00	234.92
767.32	234.84
767.65	234.74
767.97	234.64
768.30	234.52
768.62	234.41
768.95	234.27
769.27	234.18
769.60	234.06
769.92	233.92
770.25	233.76
770.57	233.66
770.90	233.58
771.22	233.46
771.55	233.37
771.87	233.26
772.20	233.16
772.52	233.13
772.85	233.13
773.17	233.06
773.50	232.94
773.82	232.80
774.15	232.65
774.47	232.49
774.80	232.35
775.12	232.23
775.45	232.13
775.77	232.04
776.09	231.95
776.42	231.87
776.74	231.84
777.07	231.75
777.39	231.68
777.72	231.58
778.04	231.51
778.36	231.40
778.69	231.34
779.01	231.26
779.33	231.12
779.66	230.94
779.98	230.84
780.31	230.77
780.63	230.74
780.95	230.72
781.28	230.68
781.60	230.63
781.92	230.61
782.25	230.53
782.57	230.48
782.89	230.41
783.22	230.38
783.54	230.32
783.86	230.26
784.19	230.16
784.51	230.13
784.83	230.06
785.16	230.02
785.48	229.95
785.80	229.86
786.12	229.86
786.45	229.82
786.77	229.84
787.09	229.79
