SpectraSuite Data File
++++++++++++++++++++++++++++++++++++
Date: Fri Feb 01 16:30:41 EST 2013
User: group
Dark Spectrum Present: No
Reference Spectrum Present: No
Number of Sampled Component Spectra: 1
Spectrometers: USB2E7196
Integration Time (usec): 35000 (USB2E7196)
Spectra Averaged: 100 (USB2E7196)
Boxcar Smoothing: 10 (USB2E7196)
Correct for Electrical Dark: No (USB2E7196)
Strobe/Lamp Enabled: No (USB2E7196)
Correct for Detector Non-linearity: No (USB2E7196)
Correct for Stray Light: No (USB2E7196)
Number of Pixels in Processed Spectrum: 2048
>>>>>Begin Processed Spectral Data<<<<<
339.09	0.00
339.48	214.50
339.86	216.22
340.24	217.32
340.63	218.57
341.01	221.70
341.39	220.85
341.78	222.44
342.16	223.02
342.54	224.73
342.93	212.66
343.31	223.39
343.69	223.89
344.07	224.31
344.46	224.72
344.84	225.09
345.22	225.30
345.60	225.52
345.99	225.72
346.37	225.86
346.75	225.92
347.13	225.97
347.52	226.00
347.90	226.03
348.28	226.04
348.66	226.08
349.05	226.08
349.43	226.08
349.81	226.11
350.19	226.17
350.57	226.21
350.96	226.28
351.34	226.39
351.72	226.48
352.10	226.57
352.48	226.61
352.87	226.66
353.25	226.72
353.63	226.82
354.01	226.86
354.39	226.94
354.77	227.00
355.15	227.09
355.54	227.14
355.92	227.18
356.30	227.23
356.68	227.36
357.06	227.44
357.44	227.49
357.82	227.59
358.20	227.63
358.58	227.70
358.97	227.76
359.35	227.82
359.73	227.92
360.11	227.98
360.49	228.05
360.87	228.09
361.25	228.15
361.63	228.22
362.01	228.31
362.39	228.34
362.77	228.40
363.15	228.42
363.53	228.46
363.91	228.51
364.29	228.55
364.67	228.46
365.05	228.48
365.43	228.53
365.81	228.51
366.19	228.58
366.57	228.59
366.95	228.60
367.33	228.57
367.71	228.54
368.09	228.56
368.47	228.54
368.85	228.53
369.23	228.52
369.61	228.47
369.99	228.44
370.37	228.46
370.75	228.50
371.13	228.47
371.51	228.41
371.89	228.41
372.27	228.39
372.65	228.35
373.03	228.34
373.41	228.29
373.78	228.24
374.16	228.13
374.54	228.08
374.92	228.03
375.30	228.00
375.68	227.92
376.06	227.85
376.44	227.83
376.82	227.78
377.19	227.69
377.57	227.61
377.95	227.52
378.33	227.40
378.71	227.24
379.09	227.18
379.47	227.13
379.84	227.03
380.22	226.92
380.60	226.85
380.98	226.73
381.36	226.64
381.73	226.59
382.11	226.55
382.49	226.51
382.87	226.44
383.25	226.35
383.62	226.39
384.00	226.29
384.38	226.23
384.76	226.20
385.13	226.18
385.51	226.10
385.89	226.05
386.27	226.01
386.64	225.99
387.02	225.94
387.40	225.88
387.78	225.87
388.15	225.86
388.53	225.79
388.91	225.80
389.29	225.79
389.66	225.77
390.04	225.74
390.42	225.70
390.79	225.64
391.17	225.62
391.55	225.51
391.92	225.52
392.30	225.50
392.68	225.47
393.05	225.49
393.43	225.55
393.81	225.54
394.18	225.54
394.56	225.57
394.94	225.63
395.31	225.64
395.69	225.67
396.06	225.71
396.44	225.78
396.82	225.78
397.19	225.86
397.57	225.86
397.95	225.91
398.32	225.93
398.70	226.01
399.07	226.09
399.45	226.18
399.82	226.23
400.20	226.27
400.58	226.33
400.95	226.35
401.33	226.43
401.70	226.60
402.08	226.69
402.45	226.73
402.83	226.78
403.20	226.93
403.58	226.99
403.95	227.11
404.33	227.21
404.71	227.36
405.08	227.50
405.46	227.64
405.83	227.80
406.21	227.93
406.58	228.08
406.96	228.24
407.33	228.36
407.70	228.57
408.08	228.83
408.45	229.06
408.83	229.25
409.20	229.48
409.58	229.64
409.95	229.89
410.33	230.18
410.70	230.45
411.08	230.73
411.45	231.05
411.82	231.32
412.20	231.68
412.57	232.08
412.95	232.38
413.32	232.78
413.69	233.17
414.07	233.63
414.44	234.08
414.82	234.56
415.19	235.12
415.56	235.66
415.94	236.26
416.31	236.90
416.68	237.56
417.06	238.25
417.43	238.92
417.81	239.68
418.18	240.45
418.55	241.26
418.93	242.13
419.30	243.05
419.67	244.01
420.04	244.99
420.42	246.00
420.79	247.17
421.16	248.31
421.54	249.50
421.91	250.70
422.28	251.94
422.66	253.27
423.03	254.60
423.40	255.95
423.77	257.32
424.15	258.71
424.52	260.15
424.89	261.74
425.26	263.31
425.64	264.76
426.01	266.36
426.38	268.00
426.75	269.66
427.13	271.39
427.50	273.16
427.87	275.02
428.24	276.88
428.61	278.62
428.99	280.62
429.36	282.69
429.73	284.76
430.10	286.79
430.47	288.83
430.85	290.91
431.22	293.10
431.59	295.47
431.96	297.70
432.33	300.21
432.70	302.65
433.08	305.44
433.45	308.08
433.82	310.67
434.19	313.58
434.56	316.36
434.93	318.98
435.30	321.58
435.68	324.47
436.05	327.28
436.42	330.03
436.79	332.52
437.16	335.25
437.53	338.05
437.90	340.86
438.27	343.60
438.64	346.46
439.01	349.08
439.38	351.30
439.75	353.50
440.13	355.99
440.50	358.19
440.87	360.01
441.24	361.94
441.61	364.10
441.98	365.58
442.35	367.38
442.72	369.23
443.09	371.05
443.46	372.04
443.83	372.61
444.20	373.12
444.57	373.94
444.94	374.23
445.31	374.61
445.68	374.99
446.05	375.08
446.42	374.65
446.79	374.18
447.16	373.70
447.53	373.39
447.90	372.24
448.27	371.11
448.64	369.59
449.01	368.49
449.37	366.52
449.74	364.61
450.11	362.38
450.48	359.91
450.85	357.41
451.22	355.26
451.59	353.24
451.96	351.29
452.33	348.70
452.70	346.32
453.07	343.44
453.43	340.51
453.80	337.73
454.17	335.08
454.54	332.58
454.91	329.86
455.28	327.18
455.65	324.69
456.02	322.29
456.38	320.10
456.75	317.39
457.12	315.18
457.49	312.97
457.86	310.83
458.23	308.98
458.59	306.93
458.96	304.88
459.33	303.02
459.70	301.18
460.07	299.69
460.43	297.99
460.80	296.39
461.17	294.97
461.54	293.48
461.91	292.06
462.27	290.64
462.64	289.41
463.01	288.08
463.38	286.81
463.74	285.43
464.11	284.28
464.48	283.26
464.85	282.14
465.21	281.30
465.58	280.38
465.95	279.31
466.32	278.37
466.68	277.47
467.05	276.62
467.42	275.74
467.78	274.80
468.15	273.93
468.52	273.30
468.88	272.46
469.25	271.73
469.62	271.13
469.98	270.47
470.35	269.88
470.72	269.31
471.08	268.65
471.45	268.16
471.82	267.66
472.18	267.11
472.55	266.70
472.92	266.20
473.28	265.71
473.65	265.27
474.02	264.85
474.38	264.49
474.75	264.17
475.11	263.84
475.48	263.57
475.85	263.37
476.21	263.15
476.58	262.98
476.94	262.84
477.31	262.66
477.67	262.54
478.04	262.42
478.41	262.32
478.77	262.38
479.14	262.30
479.50	262.26
479.87	262.29
480.23	262.34
480.60	262.42
480.96	262.53
481.33	262.74
481.69	262.94
482.06	263.13
482.42	263.34
482.79	263.59
483.15	263.92
483.52	264.29
483.88	264.59
484.25	264.98
484.61	265.43
484.98	265.89
485.34	266.46
485.71	267.03
486.07	267.69
486.44	268.24
486.80	268.95
487.17	269.69
487.53	270.55
487.90	271.41
488.26	272.32
488.62	273.35
488.99	274.33
489.35	275.41
489.72	276.51
490.08	277.70
490.44	279.00
490.81	280.34
491.17	281.69
491.54	283.21
491.90	284.70
492.26	286.30
492.63	288.05
492.99	289.79
493.36	291.72
493.72	293.73
494.08	295.87
494.45	298.15
494.81	300.52
495.17	302.96
495.54	305.56
495.90	308.25
496.26	311.02
496.63	313.97
496.99	317.05
497.35	320.34
497.72	323.76
498.08	327.24
498.44	330.92
498.80	334.83
499.17	338.89
499.53	343.11
499.89	347.55
500.26	352.04
500.62	356.74
500.98	361.71
501.34	366.85
501.71	372.17
502.07	377.57
502.43	383.18
502.79	388.94
503.16	395.01
503.52	401.28
503.88	407.73
504.24	414.30
504.60	421.19
504.97	428.29
505.33	435.64
505.69	443.36
506.05	451.17
506.41	459.05
506.78	467.19
507.14	475.65
507.50	484.28
507.86	493.30
508.22	502.52
508.59	511.73
508.95	521.29
509.31	531.13
509.67	541.25
510.03	551.59
510.39	562.19
510.75	572.95
511.12	583.89
511.48	595.18
511.84	606.66
512.20	618.15
512.56	630.10
512.92	642.29
513.28	654.64
513.64	667.08
514.00	679.88
514.37	692.82
514.73	705.92
515.09	719.01
515.45	732.29
515.81	745.90
516.17	759.85
516.53	773.95
516.89	788.04
517.25	802.16
517.61	816.69
517.97	831.06
518.33	845.50
518.69	860.25
519.05	875.17
519.41	890.35
519.77	905.89
520.13	921.33
520.49	936.69
520.85	952.02
521.21	967.72
521.57	983.83
521.93	999.45
522.29	1015.69
522.65	1031.87
523.01	1047.99
523.37	1063.89
523.73	1080.03
524.09	1095.97
524.45	1112.23
524.81	1128.80
525.17	1145.34
525.53	1162.23
525.89	1178.95
526.25	1195.67
526.61	1211.94
526.97	1228.61
527.33	1244.97
527.68	1261.53
528.04	1277.84
528.40	1294.33
528.76	1311.23
529.12	1327.61
529.48	1344.41
529.84	1360.27
530.20	1376.74
530.56	1393.68
530.91	1410.95
531.27	1427.59
531.63	1444.07
531.99	1460.63
532.35	1476.48
532.71	1492.27
533.07	1508.44
533.42	1524.27
533.78	1540.31
534.14	1556.60
534.50	1571.87
534.86	1587.71
535.21	1602.81
535.57	1618.75
535.93	1634.23
536.29	1649.04
536.65	1664.07
537.00	1678.90
537.36	1694.14
537.72	1708.68
538.08	1723.00
538.44	1736.65
538.79	1750.52
539.15	1764.06
539.51	1777.61
539.87	1791.82
540.22	1805.49
540.58	1818.99
540.94	1832.26
541.29	1845.00
541.65	1857.50
542.01	1870.64
542.37	1882.83
542.72	1895.07
543.08	1906.63
543.44	1919.01
543.79	1930.14
544.15	1941.03
544.51	1952.47
544.87	1963.43
545.22	1974.07
545.58	1984.27
545.94	1994.01
546.29	2003.75
546.65	2013.62
547.01	2022.87
547.36	2031.62
547.72	2040.12
548.07	2048.08
548.43	2056.16
548.79	2064.22
549.14	2071.67
549.50	2078.79
549.86	2086.38
550.21	2093.55
550.57	2100.66
550.92	2106.98
551.28	2113.81
551.64	2120.82
551.99	2127.30
552.35	2133.40
552.70	2139.62
553.06	2145.50
553.41	2151.77
553.77	2157.78
554.13	2163.77
554.48	2169.81
554.84	2175.22
555.19	2180.40
555.55	2185.52
555.90	2190.04
556.26	2194.76
556.61	2199.51
556.97	2203.95
557.32	2208.04
557.68	2212.23
558.03	2216.51
558.39	2220.27
558.74	2225.00
559.10	2228.99
559.45	2232.67
559.81	2236.98
560.16	2240.80
560.52	2244.02
560.87	2247.51
561.23	2250.04
561.58	2252.93
561.94	2255.41
562.29	2257.75
562.64	2260.42
563.00	2263.15
563.35	2266.56
563.71	2269.73
564.06	2273.09
564.42	2275.90
564.77	2278.42
565.12	2280.77
565.48	2282.71
565.83	2284.66
566.19	2286.05
566.54	2286.93
566.89	2287.89
567.25	2288.48
567.60	2289.69
567.96	2291.45
568.31	2292.37
568.66	2293.59
569.02	2294.35
569.37	2294.84
569.72	2295.71
570.08	2295.87
570.43	2295.93
570.78	2295.45
571.14	2294.00
571.49	2292.57
571.84	2292.40
572.20	2291.39
572.55	2290.45
572.90	2288.96
573.26	2287.67
573.61	2286.08
573.96	2284.38
574.31	2281.60
574.67	2278.68
575.02	2275.21
575.37	2271.88
575.72	2268.05
576.08	2264.86
576.43	2261.60
576.78	2257.93
577.13	2254.85
577.49	2251.89
577.84	2248.24
578.19	2244.40
578.54	2240.95
578.90	2236.96
579.25	2231.41
579.60	2226.43
579.95	2221.38
580.30	2216.39
580.66	2211.21
581.01	2206.16
581.36	2201.35
581.71	2197.25
582.06	2192.91
582.42	2188.49
582.77	2183.33
583.12	2178.97
583.47	2174.22
583.82	2169.09
584.17	2163.90
584.53	2158.59
584.88	2152.95
585.23	2147.37
585.58	2142.07
585.93	2136.65
586.28	2131.79
586.63	2126.69
586.98	2121.71
587.34	2117.13
587.69	2112.27
588.04	2106.98
588.39	2101.43
588.74	2095.03
589.09	2089.07
589.44	2082.33
589.79	2076.44
590.14	2070.81
590.49	2064.18
590.84	2057.92
591.19	2052.11
591.54	2045.75
591.89	2038.26
592.25	2031.63
592.60	2024.42
592.95	2016.95
593.30	2009.49
593.65	2002.04
594.00	1995.16
594.35	1988.12
594.70	1980.13
595.05	1972.98
595.40	1965.93
595.75	1958.56
596.10	1952.43
596.45	1945.73
596.80	1939.52
597.15	1932.90
597.50	1925.87
597.85	1919.54
598.19	1912.91
598.54	1905.70
598.89	1899.08
599.24	1893.33
599.59	1886.61
599.94	1880.51
600.29	1874.26
600.64	1867.85
600.99	1860.43
601.34	1853.69
601.69	1846.85
602.04	1840.04
602.39	1832.78
602.74	1825.82
603.08	1818.98
603.43	1812.18
603.78	1804.77
604.13	1797.60
604.48	1790.26
604.83	1783.47
605.18	1776.55
605.53	1768.54
605.87	1760.62
606.22	1753.39
606.57	1745.55
606.92	1738.29
607.27	1731.13
607.62	1724.20
607.96	1716.89
608.31	1710.33
608.66	1702.69
609.01	1695.00
609.36	1687.36
609.70	1679.46
610.05	1671.52
610.40	1663.97
610.75	1655.71
611.10	1648.03
611.44	1639.60
611.79	1631.62
612.14	1622.91
612.49	1613.61
612.83	1605.27
613.18	1597.18
613.53	1589.13
613.88	1580.44
614.22	1572.15
614.57	1563.52
614.92	1555.47
615.27	1547.93
615.61	1539.57
615.96	1531.48
616.31	1523.87
616.65	1516.57
617.00	1508.92
617.35	1501.24
617.70	1492.84
618.04	1484.42
618.39	1476.33
618.74	1468.86
619.08	1460.54
619.43	1453.02
619.78	1446.21
620.12	1438.98
620.47	1431.47
620.82	1423.32
621.16	1415.95
621.51	1408.42
621.85	1400.79
622.20	1392.25
622.55	1383.88
622.89	1375.97
623.24	1368.41
623.59	1360.98
623.93	1353.50
624.28	1346.43
624.62	1338.94
624.97	1331.81
625.32	1325.06
625.66	1317.96
626.01	1310.76
626.35	1303.43
626.70	1295.64
627.04	1287.90
627.39	1280.25
627.73	1272.88
628.08	1266.03
628.43	1258.75
628.77	1251.27
629.12	1243.83
629.46	1236.77
629.81	1229.40
630.15	1222.14
630.50	1214.64
630.84	1206.50
631.19	1198.53
631.53	1190.98
631.88	1183.29
632.22	1175.67
632.57	1168.16
632.91	1160.63
633.26	1153.15
633.60	1145.72
633.95	1138.60
634.29	1131.52
634.64	1124.74
634.98	1117.28
635.32	1110.06
635.67	1103.51
636.01	1096.97
636.36	1090.09
636.70	1083.36
637.05	1076.70
637.39	1070.20
637.73	1063.71
638.08	1057.78
638.42	1051.77
638.77	1045.21
639.11	1038.71
639.45	1032.23
639.80	1025.63
640.14	1019.23
640.49	1012.74
640.83	1006.44
641.17	1000.18
641.52	993.84
641.86	987.40
642.20	981.55
642.55	975.20
642.89	968.61
643.23	962.04
643.58	956.25
643.92	950.19
644.26	944.08
644.61	938.06
644.95	932.05
645.29	925.40
645.64	918.63
645.98	912.28
646.32	906.50
646.66	900.47
647.01	894.67
647.35	888.97
647.69	883.11
648.04	877.54
648.38	871.76
648.72	865.76
649.06	859.67
649.41	853.87
649.75	847.89
650.09	842.06
650.43	836.20
650.78	830.09
651.12	824.17
651.46	818.54
651.80	812.80
652.14	807.44
652.49	802.09
652.83	797.00
653.17	791.29
653.51	785.45
653.85	780.04
654.20	774.37
654.54	768.37
654.88	762.62
655.22	756.76
655.56	751.08
655.90	745.62
656.25	740.37
656.59	734.93
656.93	729.82
657.27	724.59
657.61	719.26
657.95	714.14
658.29	708.99
658.64	703.70
658.98	698.46
659.32	693.00
659.66	687.84
660.00	682.50
660.34	677.60
660.68	672.72
661.02	667.69
661.36	663.05
661.70	658.50
662.05	654.13
662.39	649.82
662.73	645.32
663.07	641.05
663.41	636.60
663.75	632.16
664.09	627.68
664.43	623.31
664.77	619.15
665.11	614.91
665.45	610.79
665.79	606.73
666.13	602.60
666.47	598.51
666.81	594.36
667.15	590.25
667.49	586.34
667.83	582.54
668.17	578.71
668.51	574.60
668.85	570.60
669.19	566.84
669.53	562.97
669.87	559.15
670.21	555.43
670.55	551.80
670.89	548.38
671.23	544.93
671.57	541.41
671.91	537.88
672.25	534.35
672.58	530.87
672.92	527.45
673.26	524.27
673.60	521.06
673.94	517.93
674.28	515.01
674.62	512.04
674.96	508.92
675.30	505.95
675.64	503.07
675.97	500.29
676.31	497.34
676.65	494.46
676.99	491.72
677.33	488.86
677.67	486.01
678.01	482.94
678.34	479.94
678.68	477.10
679.02	474.25
679.36	471.50
679.70	468.73
680.04	465.92
680.37	462.96
680.71	460.18
681.05	457.60
681.39	454.83
681.73	452.22
682.06	449.70
682.40	447.15
682.74	444.57
683.08	442.00
683.42	439.38
683.75	436.81
684.09	434.28
684.43	431.75
684.77	429.29
685.10	426.88
685.44	424.59
685.78	422.29
686.12	420.02
686.45	417.70
686.79	415.37
687.13	413.17
687.46	411.06
687.80	408.91
688.14	406.64
688.48	404.58
688.81	402.26
689.15	400.12
689.49	397.93
689.82	395.84
690.16	393.74
690.50	391.84
690.83	389.95
691.17	387.97
691.51	386.04
691.84	384.19
692.18	382.28
692.52	380.25
692.85	378.28
693.19	376.44
693.52	374.62
693.86	372.84
694.20	371.07
694.53	369.26
694.87	367.39
695.21	365.61
695.54	363.79
695.88	362.11
696.21	360.35
696.55	358.74
696.88	357.07
697.22	355.43
697.56	353.79
697.89	352.09
698.23	350.49
698.56	348.92
698.90	347.31
699.23	345.67
699.57	344.13
699.90	342.63
700.24	341.06
700.58	339.52
700.91	338.04
701.25	336.58
701.58	335.20
701.92	333.86
702.25	332.48
702.59	331.11
702.92	329.79
703.26	328.49
703.59	327.17
703.93	326.00
704.26	324.75
704.60	323.46
704.93	322.20
705.26	320.96
705.60	319.82
705.93	318.69
706.27	317.67
706.60	316.60
706.94	315.49
707.27	314.33
707.61	313.27
707.94	312.22
708.27	311.14
708.61	310.10
708.94	309.08
709.28	308.11
709.61	307.15
709.94	306.21
710.28	305.22
710.61	304.27
710.95	303.23
711.28	302.36
711.61	301.42
711.95	300.51
712.28	299.52
712.61	298.51
712.95	297.60
713.28	296.73
713.61	295.86
713.95	294.98
714.28	294.17
714.61	293.34
714.95	292.53
715.28	291.72
715.61	290.85
715.95	290.01
716.28	289.15
716.61	288.34
716.95	287.50
717.28	286.77
717.61	285.96
717.94	285.18
718.28	284.33
718.61	283.62
718.94	282.92
719.27	282.27
719.61	281.64
719.94	280.93
720.27	280.19
720.60	279.53
720.94	278.87
721.27	278.27
721.60	277.66
721.93	277.03
722.27	276.43
722.60	275.85
722.93	275.28
723.26	274.76
723.59	274.20
723.93	273.64
724.26	273.03
724.59	272.51
724.92	271.97
725.25	271.47
725.59	270.95
725.92	270.45
726.25	269.93
726.58	269.38
726.91	268.89
727.24	268.42
727.57	267.92
727.91	267.42
728.24	266.94
728.57	266.44
728.90	265.96
729.23	265.46
729.56	265.04
729.89	264.55
730.22	264.01
730.55	263.54
730.89	263.10
731.22	262.68
731.55	262.20
731.88	261.77
732.21	261.34
732.54	260.86
732.87	260.41
733.20	260.00
733.53	259.63
733.86	259.24
734.19	258.82
734.52	258.44
734.85	258.12
735.18	257.71
735.51	257.38
735.84	257.01
736.17	256.69
736.50	256.27
736.83	256.05
737.16	255.72
737.49	255.39
737.82	255.02
738.15	254.69
738.48	254.37
738.81	254.04
739.14	253.70
739.47	253.37
739.80	253.04
740.13	252.74
740.46	252.44
740.79	252.10
741.12	251.84
741.45	251.53
741.78	251.18
742.11	250.91
742.44	250.57
742.77	250.29
743.10	249.97
743.43	249.68
743.75	249.29
744.08	249.13
744.41	248.88
744.74	248.61
745.07	248.34
745.40	248.10
745.73	247.85
746.06	247.56
746.39	247.33
746.71	247.11
747.04	246.83
747.37	246.57
747.70	246.35
748.03	246.09
748.36	245.87
748.68	245.64
749.01	245.39
749.34	245.19
749.67	244.95
750.00	244.76
750.33	244.62
750.65	244.43
750.98	244.09
751.31	243.84
751.64	243.68
751.97	243.51
752.29	243.32
752.62	243.10
752.95	242.93
753.28	242.70
753.60	242.47
753.93	242.34
754.26	242.15
754.59	241.92
754.91	241.70
755.24	241.51
755.57	241.34
755.90	241.16
756.22	240.96
756.55	240.76
756.88	240.56
757.20	240.31
757.53	240.09
757.86	239.95
758.19	239.81
758.51	239.59
758.84	239.40
759.17	239.21
759.49	239.05
759.82	238.91
760.15	238.77
760.47	238.63
760.80	238.40
761.13	238.27
761.45	238.13
761.78	237.99
762.11	237.81
762.43	237.64
762.76	237.49
763.08	237.36
763.41	237.20
763.74	237.04
764.06	236.89
764.39	236.75
764.71	236.58
765.04	236.42
765.37	236.26
765.69	236.13
766.02	235.99
766.34	235.84
766.67	235.70
767.00	235.59
767.32	235.50
767.65	235.48
767.97	235.33
768.30	235.21
768.62	235.09
768.95	234.98
769.27	234.83
769.60	234.77
769.92	234.63
770.25	234.51
770.57	234.40
770.90	234.29
771.22	234.16
771.55	234.07
771.87	234.00
772.20	233.91
772.52	233.90
772.85	233.92
773.17	233.85
773.50	233.74
773.82	233.62
774.15	233.51
774.47	233.36
774.80	233.28
775.12	233.17
775.45	233.10
775.77	233.05
776.09	232.98
776.42	232.86
776.74	232.81
777.07	232.71
777.39	232.65
777.72	232.60
778.04	232.57
778.36	232.49
778.69	232.42
779.01	232.35
779.33	232.19
779.66	232.04
779.98	231.95
780.31	231.91
780.63	231.88
780.95	231.85
781.28	231.79
781.60	231.74
781.92	231.71
782.25	231.68
782.57	231.59
782.89	231.57
783.22	231.52
783.54	231.47
783.86	231.47
784.19	231.38
784.51	231.34
784.83	231.27
785.16	231.23
785.48	231.16
785.80	231.13
786.12	231.09
786.45	231.02
786.77	230.98
787.09	230.90
