SpectraSuite Data File
++++++++++++++++++++++++++++++++++++
Date: Fri Feb 01 16:32:52 EST 2013
User: group
Dark Spectrum Present: No
Reference Spectrum Present: No
Number of Sampled Component Spectra: 1
Spectrometers: USB2E7196
Integration Time (usec): 35000 (USB2E7196)
Spectra Averaged: 100 (USB2E7196)
Boxcar Smoothing: 10 (USB2E7196)
Correct for Electrical Dark: No (USB2E7196)
Strobe/Lamp Enabled: No (USB2E7196)
Correct for Detector Non-linearity: No (USB2E7196)
Correct for Stray Light: No (USB2E7196)
Number of Pixels in Processed Spectrum: 2048
>>>>>Begin Processed Spectral Data<<<<<
339.09	0.00
339.48	214.08
339.86	215.46
340.24	216.96
340.63	218.25
341.01	221.25
341.39	221.27
341.78	222.66
342.16	223.49
342.54	224.28
342.93	212.50
343.31	223.24
343.69	223.77
344.07	224.26
344.46	224.66
344.84	225.07
345.22	225.29
345.60	225.52
345.99	225.67
346.37	225.78
346.75	225.89
347.13	225.97
347.52	226.02
347.90	226.06
348.28	226.08
348.66	226.08
349.05	226.07
349.43	226.13
349.81	226.17
350.19	226.24
350.57	226.22
350.96	226.34
351.34	226.42
351.72	226.48
352.10	226.53
352.48	226.62
352.87	226.65
353.25	226.73
353.63	226.80
354.01	226.87
354.39	226.95
354.77	227.02
355.15	227.11
355.54	227.19
355.92	227.24
356.30	227.31
356.68	227.45
357.06	227.53
357.44	227.57
357.82	227.61
358.20	227.64
358.58	227.74
358.97	227.77
359.35	227.85
359.73	227.93
360.11	227.97
360.49	228.01
360.87	228.04
361.25	228.12
361.63	228.19
362.01	228.23
362.39	228.26
362.77	228.28
363.15	228.31
363.53	228.33
363.91	228.36
364.29	228.38
364.67	228.30
365.05	228.33
365.43	228.32
365.81	228.35
366.19	228.41
366.57	228.46
366.95	228.46
367.33	228.44
367.71	228.43
368.09	228.47
368.47	228.45
368.85	228.45
369.23	228.40
369.61	228.34
369.99	228.36
370.37	228.35
370.75	228.36
371.13	228.31
371.51	228.23
371.89	228.16
372.27	228.14
372.65	228.11
373.03	228.06
373.41	228.04
373.78	228.01
374.16	227.90
374.54	227.80
374.92	227.74
375.30	227.69
375.68	227.60
376.06	227.52
376.44	227.44
376.82	227.38
377.19	227.30
377.57	227.25
377.95	227.14
378.33	227.08
378.71	226.96
379.09	226.89
379.47	226.88
379.84	226.83
380.22	226.74
380.60	226.67
380.98	226.59
381.36	226.50
381.73	226.39
382.11	226.34
382.49	226.31
382.87	226.25
383.25	226.18
383.62	226.24
384.00	226.18
384.38	226.17
384.76	226.15
385.13	226.17
385.51	226.13
385.89	226.08
386.27	226.05
386.64	226.02
387.02	225.97
387.40	225.91
387.78	225.84
388.15	225.84
388.53	225.82
388.91	225.77
389.29	225.74
389.66	225.75
390.04	225.69
390.42	225.66
390.79	225.62
391.17	225.59
391.55	225.47
391.92	225.48
392.30	225.45
392.68	225.40
393.05	225.37
393.43	225.35
393.81	225.40
394.18	225.37
394.56	225.38
394.94	225.43
395.31	225.45
395.69	225.55
396.06	225.57
396.44	225.57
396.82	225.60
397.19	225.66
397.57	225.68
397.95	225.76
398.32	225.76
398.70	225.84
399.07	225.95
399.45	226.00
399.82	226.06
400.20	226.09
400.58	226.18
400.95	226.19
401.33	226.29
401.70	226.39
402.08	226.47
402.45	226.56
402.83	226.64
403.20	226.76
403.58	226.81
403.95	226.89
404.33	227.02
404.71	227.13
405.08	227.33
405.46	227.45
405.83	227.58
406.21	227.77
406.58	227.89
406.96	227.99
407.33	228.13
407.70	228.30
408.08	228.59
408.45	228.77
408.83	228.99
409.20	229.19
409.58	229.35
409.95	229.62
410.33	229.88
410.70	230.15
411.08	230.44
411.45	230.73
411.82	231.06
412.20	231.43
412.57	231.85
412.95	232.13
413.32	232.54
413.69	232.96
414.07	233.36
414.44	233.84
414.82	234.33
415.19	234.93
415.56	235.50
415.94	236.00
416.31	236.64
416.68	237.26
417.06	237.98
417.43	238.69
417.81	239.43
418.18	240.20
418.55	241.01
418.93	241.88
419.30	242.79
419.67	243.74
420.04	244.69
420.42	245.67
420.79	246.83
421.16	247.99
421.54	249.17
421.91	250.40
422.28	251.67
422.66	253.01
423.03	254.26
423.40	255.57
423.77	257.01
424.15	258.45
424.52	259.94
424.89	261.55
425.26	263.10
425.64	264.57
426.01	266.17
426.38	267.86
426.75	269.49
427.13	271.24
427.50	273.01
427.87	274.89
428.24	276.77
428.61	278.53
428.99	280.46
429.36	282.54
429.73	284.62
430.10	286.61
430.47	288.65
430.85	290.78
431.22	292.98
431.59	295.33
431.96	297.56
432.33	300.03
432.70	302.37
433.08	305.12
433.45	307.71
433.82	310.26
434.19	313.12
434.56	315.94
434.93	318.56
435.30	321.15
435.68	324.01
436.05	326.83
436.42	329.60
436.79	332.15
437.16	334.84
437.53	337.65
437.90	340.42
438.27	343.16
438.64	345.99
439.01	348.61
439.38	350.86
439.75	353.03
440.13	355.56
440.50	357.94
440.87	359.84
441.24	361.79
441.61	363.97
441.98	365.43
442.35	367.19
442.72	369.02
443.09	370.83
443.46	371.77
443.83	372.32
444.20	372.84
444.57	373.63
444.94	373.85
445.31	374.20
445.68	374.55
446.05	374.60
446.42	374.14
446.79	373.73
447.16	373.28
447.53	372.97
447.90	371.79
448.27	370.57
448.64	368.94
449.01	367.80
449.37	365.82
449.74	363.95
450.11	361.73
450.48	359.30
450.85	356.77
451.22	354.69
451.59	352.67
451.96	350.73
452.33	348.09
452.70	345.79
453.07	342.93
453.43	340.05
453.80	337.32
454.17	334.72
454.54	332.16
454.91	329.44
455.28	326.73
455.65	324.27
456.02	321.83
456.38	319.70
456.75	317.05
457.12	314.82
457.49	312.60
457.86	310.44
458.23	308.59
458.59	306.54
458.96	304.44
459.33	302.60
459.70	300.79
460.07	299.36
460.43	297.66
460.80	296.07
461.17	294.64
461.54	293.17
461.91	291.78
462.27	290.36
462.64	289.13
463.01	287.81
463.38	286.52
463.74	285.14
464.11	283.99
464.48	283.00
464.85	281.90
465.21	281.08
465.58	280.17
465.95	279.11
466.32	278.28
466.68	277.39
467.05	276.53
467.42	275.61
467.78	274.68
468.15	273.82
468.52	273.19
468.88	272.38
469.25	271.61
469.62	271.01
469.98	270.35
470.35	269.74
470.72	269.13
471.08	268.47
471.45	267.97
471.82	267.45
472.18	266.84
472.55	266.42
472.92	265.90
473.28	265.42
473.65	264.98
474.02	264.54
474.38	264.22
474.75	263.93
475.11	263.58
475.48	263.35
475.85	263.13
476.21	262.89
476.58	262.72
476.94	262.60
477.31	262.40
477.67	262.24
478.04	262.13
478.41	262.11
478.77	262.17
479.14	262.13
479.50	262.13
479.87	262.19
480.23	262.25
480.60	262.31
480.96	262.42
481.33	262.56
481.69	262.74
482.06	262.89
482.42	263.06
482.79	263.34
483.15	263.63
483.52	263.96
483.88	264.24
484.25	264.64
484.61	265.03
484.98	265.46
485.34	266.02
485.71	266.60
486.07	267.15
486.44	267.69
486.80	268.37
487.17	269.11
487.53	269.96
487.90	270.82
488.26	271.74
488.62	272.71
488.99	273.71
489.35	274.77
489.72	275.90
490.08	277.12
490.44	278.33
490.81	279.69
491.17	281.10
491.54	282.62
491.90	284.14
492.26	285.78
492.63	287.52
492.99	289.30
493.36	291.22
493.72	293.29
494.08	295.40
494.45	297.67
494.81	300.02
495.17	302.45
495.54	305.04
495.90	307.73
496.26	310.55
496.63	313.51
496.99	316.61
497.35	319.85
497.72	323.24
498.08	326.74
498.44	330.40
498.80	334.35
499.17	338.39
499.53	342.60
499.89	346.98
500.26	351.51
500.62	356.25
500.98	361.28
501.34	366.40
501.71	371.71
502.07	377.17
502.43	382.81
502.79	388.66
503.16	394.70
503.52	401.03
503.88	407.49
504.24	414.17
504.60	421.10
504.97	428.25
505.33	435.57
505.69	443.32
506.05	451.11
506.41	458.89
506.78	467.07
507.14	475.57
507.50	484.32
507.86	493.39
508.22	502.57
508.59	511.73
508.95	521.26
509.31	531.13
509.67	541.22
510.03	551.56
510.39	562.08
510.75	572.88
511.12	583.82
511.48	595.11
511.84	606.55
512.20	618.05
512.56	630.05
512.92	642.29
513.28	654.67
513.64	667.21
514.00	679.92
514.37	692.87
514.73	705.88
515.09	718.86
515.45	732.11
515.81	745.61
516.17	759.54
516.53	773.70
516.89	787.78
517.25	801.97
517.61	816.38
517.97	830.83
518.33	845.19
518.69	859.97
519.05	874.98
519.41	890.09
519.77	905.59
520.13	921.07
520.49	936.34
520.85	951.63
521.21	967.27
521.57	983.45
521.93	999.17
522.29	1015.39
522.65	1031.64
523.01	1047.70
523.37	1063.69
523.73	1079.81
524.09	1095.79
524.45	1112.09
524.81	1128.60
525.17	1145.32
525.53	1162.10
525.89	1178.95
526.25	1195.63
526.61	1211.89
526.97	1228.58
527.33	1245.05
527.68	1261.54
528.04	1277.98
528.40	1294.50
528.76	1311.36
529.12	1328.00
529.48	1344.72
529.84	1360.73
530.20	1377.25
530.56	1394.28
530.91	1411.56
531.27	1428.28
531.63	1444.62
531.99	1461.17
532.35	1477.00
532.71	1492.69
533.07	1508.92
533.42	1524.69
533.78	1540.58
534.14	1556.69
534.50	1571.91
534.86	1587.53
535.21	1602.64
535.57	1618.33
535.93	1633.70
536.29	1648.37
536.65	1663.11
537.00	1677.66
537.36	1692.73
537.72	1706.97
538.08	1721.26
538.44	1734.90
538.79	1748.58
539.15	1762.14
539.51	1775.59
539.87	1789.73
540.22	1803.21
540.58	1816.60
540.94	1829.66
541.29	1842.44
541.65	1854.86
542.01	1867.72
542.37	1879.81
542.72	1891.93
543.08	1903.66
543.44	1915.83
543.79	1926.97
544.15	1937.93
544.51	1949.57
544.87	1960.35
545.22	1971.16
545.58	1981.30
545.94	1990.99
546.29	2000.79
546.65	2010.58
547.01	2019.79
547.36	2028.62
547.72	2037.16
548.07	2045.14
548.43	2053.41
548.79	2061.52
549.14	2069.22
549.50	2076.78
549.86	2084.67
550.21	2092.05
550.57	2099.23
550.92	2105.89
551.28	2112.90
551.64	2119.90
551.99	2126.31
552.35	2132.57
552.70	2138.73
553.06	2144.71
553.41	2151.10
553.77	2157.18
554.13	2163.28
554.48	2169.53
554.84	2174.95
555.19	2180.18
555.55	2185.39
555.90	2189.94
556.26	2194.68
556.61	2199.30
556.97	2203.62
557.32	2207.73
557.68	2211.93
558.03	2216.17
558.39	2219.84
558.74	2224.51
559.10	2228.47
559.45	2232.20
559.81	2236.73
560.16	2240.73
560.52	2244.02
560.87	2247.52
561.23	2250.24
561.58	2253.12
561.94	2255.61
562.29	2258.00
562.64	2260.71
563.00	2263.28
563.35	2266.70
563.71	2269.87
564.06	2273.32
564.42	2276.13
564.77	2278.49
565.12	2280.82
565.48	2282.87
565.83	2284.91
566.19	2286.22
566.54	2287.12
566.89	2288.22
567.25	2288.77
567.60	2290.03
567.96	2291.71
568.31	2292.39
568.66	2293.52
569.02	2294.11
569.37	2294.43
569.72	2295.43
570.08	2295.63
570.43	2295.79
570.78	2295.30
571.14	2293.71
571.49	2292.21
571.84	2292.02
572.20	2291.08
572.55	2289.94
572.90	2288.31
573.26	2286.86
573.61	2285.34
573.96	2283.74
574.31	2280.85
574.67	2277.91
575.02	2274.32
575.37	2270.92
575.72	2267.32
576.08	2263.95
576.43	2260.73
576.78	2257.08
577.13	2253.79
577.49	2250.76
577.84	2247.16
578.19	2243.43
578.54	2240.02
578.90	2235.86
579.25	2230.27
579.60	2225.44
579.95	2220.54
580.30	2215.64
580.66	2210.64
581.01	2205.67
581.36	2200.83
581.71	2196.78
582.06	2192.29
582.42	2187.98
582.77	2182.81
583.12	2178.29
583.47	2173.70
583.82	2168.86
584.17	2163.77
584.53	2158.33
584.88	2152.71
585.23	2147.13
585.58	2141.82
585.93	2136.35
586.28	2131.70
586.63	2126.63
586.98	2121.63
587.34	2116.90
587.69	2112.07
588.04	2106.91
588.39	2101.35
588.74	2094.78
589.09	2088.73
589.44	2082.04
589.79	2075.99
590.14	2070.47
590.49	2064.04
590.84	2057.54
591.19	2051.48
591.54	2044.99
591.89	2037.84
592.25	2031.14
592.60	2024.06
592.95	2016.57
593.30	2009.29
593.65	2001.80
594.00	1994.82
594.35	1987.50
594.70	1979.51
595.05	1972.35
595.40	1965.07
595.75	1957.62
596.10	1951.51
596.45	1944.73
596.80	1938.56
597.15	1931.94
597.50	1924.85
597.85	1918.38
598.19	1911.91
598.54	1904.90
598.89	1898.28
599.24	1892.31
599.59	1885.75
599.94	1879.61
600.29	1873.24
600.64	1866.71
600.99	1859.26
601.34	1852.45
601.69	1845.52
602.04	1838.72
602.39	1831.50
602.74	1824.77
603.08	1817.89
603.43	1811.25
603.78	1803.98
604.13	1796.88
604.48	1789.69
604.83	1782.87
605.18	1776.04
605.53	1767.96
605.87	1759.91
606.22	1752.72
606.57	1744.68
606.92	1737.27
607.27	1730.02
607.62	1723.02
607.96	1715.75
608.31	1709.07
608.66	1701.58
609.01	1693.97
609.36	1686.40
609.70	1678.21
610.05	1670.06
610.40	1662.46
610.75	1654.05
611.10	1646.48
611.44	1637.98
611.79	1630.01
612.14	1621.30
612.49	1612.03
612.83	1603.76
613.18	1595.72
613.53	1587.61
613.88	1579.21
614.22	1571.01
614.57	1562.41
614.92	1554.56
615.27	1547.07
615.61	1538.88
615.96	1530.85
616.31	1523.35
616.65	1516.07
617.00	1508.66
617.35	1501.00
617.70	1492.76
618.04	1484.36
618.39	1476.13
618.74	1468.62
619.08	1460.33
619.43	1452.83
619.78	1445.95
620.12	1438.76
620.47	1431.29
620.82	1423.20
621.16	1415.82
621.51	1408.23
621.85	1400.63
622.20	1392.04
622.55	1383.67
622.89	1375.74
623.24	1368.06
623.59	1360.65
623.93	1353.10
624.28	1345.82
624.62	1338.32
624.97	1331.09
625.32	1324.32
625.66	1317.34
626.01	1310.22
626.35	1302.72
626.70	1295.04
627.04	1287.32
627.39	1279.56
627.73	1272.09
628.08	1265.25
628.43	1258.01
628.77	1250.62
629.12	1243.06
629.46	1235.98
629.81	1228.52
630.15	1221.35
630.50	1214.06
630.84	1205.84
631.19	1197.88
631.53	1190.41
631.88	1182.81
632.22	1175.21
632.57	1167.90
632.91	1160.27
633.26	1152.80
633.60	1145.43
633.95	1138.22
634.29	1131.20
634.64	1124.50
634.98	1117.20
635.32	1109.93
635.67	1103.29
636.01	1096.70
636.36	1089.94
636.70	1083.39
637.05	1076.98
637.39	1070.47
637.73	1063.91
638.08	1058.02
638.42	1052.01
638.77	1045.56
639.11	1038.99
639.45	1032.56
639.80	1025.90
640.14	1019.55
640.49	1012.98
640.83	1006.68
641.17	1000.48
641.52	994.13
641.86	987.58
642.20	981.73
642.55	975.47
642.89	969.00
643.23	962.40
643.58	956.66
643.92	950.39
644.26	944.23
644.61	938.18
644.95	932.13
645.29	925.55
645.64	918.95
645.98	912.62
646.32	906.81
646.66	900.79
647.01	894.99
647.35	889.23
647.69	883.35
648.04	877.78
648.38	871.97
648.72	865.95
649.06	859.98
649.41	854.08
649.75	848.14
650.09	842.19
650.43	836.42
650.78	830.21
651.12	824.30
651.46	818.58
651.80	812.88
652.14	807.53
652.49	802.23
652.83	797.03
653.17	791.29
653.51	785.56
653.85	780.20
654.20	774.50
654.54	768.47
654.88	762.79
655.22	756.88
655.56	751.25
655.90	745.82
656.25	740.58
656.59	735.26
656.93	730.16
657.27	724.97
657.61	719.56
657.95	714.44
658.29	709.36
658.64	704.05
658.98	698.73
659.32	693.26
659.66	688.02
660.00	682.63
660.34	677.72
660.68	672.78
661.02	667.80
661.36	663.12
661.70	658.66
662.05	654.30
662.39	649.98
662.73	645.43
663.07	641.05
663.41	636.57
663.75	632.01
664.09	627.45
664.43	623.08
664.77	618.98
665.11	614.74
665.45	610.59
665.79	606.54
666.13	602.40
666.47	598.29
666.81	594.14
667.15	590.08
667.49	586.16
667.83	582.31
668.17	578.37
668.51	574.30
668.85	570.30
669.19	566.44
669.53	562.60
669.87	558.76
670.21	555.06
670.55	551.42
670.89	547.98
671.23	544.49
671.57	540.97
671.91	537.38
672.25	533.83
672.58	530.32
672.92	526.87
673.26	523.76
673.60	520.59
673.94	517.48
674.28	514.53
674.62	511.64
674.96	508.57
675.30	505.62
675.64	502.69
675.97	499.89
676.31	497.05
676.65	494.12
676.99	491.43
677.33	488.56
677.67	485.80
678.01	482.78
678.34	479.81
678.68	476.96
679.02	474.17
679.36	471.43
679.70	468.68
680.04	465.95
680.37	463.01
680.71	460.24
681.05	457.62
681.39	454.86
681.73	452.13
682.06	449.61
682.40	447.06
682.74	444.52
683.08	441.99
683.42	439.37
683.75	436.84
684.09	434.31
684.43	431.78
684.77	429.24
685.10	426.88
685.44	424.62
685.78	422.27
686.12	420.00
686.45	417.70
686.79	415.39
687.13	413.17
687.46	410.99
687.80	408.78
688.14	406.52
688.48	404.48
688.81	402.28
689.15	400.09
689.49	397.91
689.82	395.83
690.16	393.69
690.50	391.71
690.83	389.80
691.17	387.71
691.51	385.85
691.84	384.03
692.18	382.08
692.52	380.02
692.85	378.11
693.19	376.23
693.52	374.41
693.86	372.61
694.20	370.82
694.53	369.04
694.87	367.23
695.21	365.45
695.54	363.61
695.88	361.84
696.21	360.16
696.55	358.48
696.88	356.78
697.22	355.09
697.56	353.48
697.89	351.79
698.23	350.25
698.56	348.63
698.90	347.05
699.23	345.43
699.57	343.92
699.90	342.37
700.24	340.84
700.58	339.30
700.91	337.78
701.25	336.34
701.58	334.97
701.92	333.59
702.25	332.24
702.59	330.89
702.92	329.59
703.26	328.27
703.59	327.04
703.93	325.84
704.26	324.61
704.60	323.31
704.93	322.08
705.26	320.85
705.60	319.67
705.93	318.51
706.27	317.45
706.60	316.40
706.94	315.33
707.27	314.20
707.61	313.15
707.94	312.14
708.27	311.09
708.61	310.01
708.94	308.99
709.28	308.02
709.61	307.09
709.94	306.12
710.28	305.10
710.61	304.09
710.95	303.08
711.28	302.18
711.61	301.24
711.95	300.33
712.28	299.32
712.61	298.32
712.95	297.41
713.28	296.52
713.61	295.64
713.95	294.75
714.28	293.93
714.61	293.05
714.95	292.20
715.28	291.33
715.61	290.47
715.95	289.64
716.28	288.72
716.61	287.88
716.95	287.06
717.28	286.30
717.61	285.58
717.94	284.84
718.28	284.04
718.61	283.32
718.94	282.66
719.27	282.02
719.61	281.39
719.94	280.72
720.27	280.00
720.60	279.31
720.94	278.64
721.27	278.00
721.60	277.46
721.93	276.83
722.27	276.22
722.60	275.63
722.93	275.04
723.26	274.55
723.59	273.99
723.93	273.47
724.26	272.92
724.59	272.29
724.92	271.76
725.25	271.28
725.59	270.73
725.92	270.18
726.25	269.67
726.58	269.19
726.91	268.67
727.24	268.20
727.57	267.73
727.91	267.26
728.24	266.80
728.57	266.28
728.90	265.83
729.23	265.39
729.56	264.95
729.89	264.49
730.22	264.01
730.55	263.55
730.89	263.06
731.22	262.58
731.55	262.18
731.88	261.73
732.21	261.26
732.54	260.86
732.87	260.41
733.20	260.04
733.53	259.60
733.86	259.19
734.19	258.79
734.52	258.40
734.85	258.10
735.18	257.72
735.51	257.39
735.84	257.02
736.17	256.66
736.50	256.27
736.83	256.05
737.16	255.70
737.49	255.36
737.82	255.01
738.15	254.70
738.48	254.34
738.81	253.99
739.14	253.70
739.47	253.38
739.80	253.10
740.13	252.79
740.46	252.49
740.79	252.18
741.12	251.87
741.45	251.54
741.78	251.18
742.11	250.87
742.44	250.51
742.77	250.22
743.10	249.93
743.43	249.67
743.75	249.26
744.08	249.10
744.41	248.83
744.74	248.57
745.07	248.29
745.40	248.05
745.73	247.87
746.06	247.57
746.39	247.27
746.71	247.00
747.04	246.70
747.37	246.46
747.70	246.22
748.03	246.00
748.36	245.78
748.68	245.54
749.01	245.30
749.34	245.09
749.67	244.86
750.00	244.64
750.33	244.45
750.65	244.24
750.98	243.90
751.31	243.63
751.64	243.41
751.97	243.24
752.29	243.01
752.62	242.77
752.95	242.58
753.28	242.37
753.60	242.14
753.93	241.99
754.26	241.77
754.59	241.56
754.91	241.34
755.24	241.14
755.57	240.95
755.90	240.74
756.22	240.53
756.55	240.34
756.88	240.12
757.20	239.91
757.53	239.74
757.86	239.62
758.19	239.49
758.51	239.32
758.84	239.10
759.17	238.92
759.49	238.74
759.82	238.61
760.15	238.50
760.47	238.36
760.80	238.18
761.13	238.03
761.45	237.90
761.78	237.72
762.11	237.59
762.43	237.44
762.76	237.30
763.08	237.16
763.41	237.00
763.74	236.89
764.06	236.75
764.39	236.58
764.71	236.39
765.04	236.25
765.37	236.11
765.69	236.03
766.02	235.93
766.34	235.80
766.67	235.66
767.00	235.53
767.32	235.50
767.65	235.45
767.97	235.36
768.30	235.22
768.62	235.15
768.95	235.03
769.27	234.92
769.60	234.88
769.92	234.78
770.25	234.66
770.57	234.53
770.90	234.45
771.22	234.35
771.55	234.24
771.87	234.15
772.20	234.06
772.52	234.05
772.85	234.07
773.17	233.95
773.50	233.88
773.82	233.80
774.15	233.63
774.47	233.48
774.80	233.38
775.12	233.33
775.45	233.25
775.77	233.19
776.09	233.10
776.42	232.99
776.74	232.96
777.07	232.88
777.39	232.79
777.72	232.70
778.04	232.63
778.36	232.57
778.69	232.49
779.01	232.48
779.33	232.29
779.66	232.10
779.98	232.06
780.31	231.99
780.63	231.96
780.95	231.92
781.28	231.87
781.60	231.80
781.92	231.72
782.25	231.66
782.57	231.58
782.89	231.53
783.22	231.46
783.54	231.37
783.86	231.33
784.19	231.29
784.51	231.27
784.83	231.19
785.16	231.15
785.48	231.11
785.80	231.04
786.12	230.99
786.45	230.94
786.77	230.91
787.09	230.88
