SpectraSuite Data File
++++++++++++++++++++++++++++++++++++
Date: Fri Feb 01 15:56:34 EST 2013
User: group
Dark Spectrum Present: No
Reference Spectrum Present: No
Number of Sampled Component Spectra: 1
Spectrometers: USB2E7196
Integration Time (usec): 35000 (USB2E7196)
Spectra Averaged: 100 (USB2E7196)
Boxcar Smoothing: 10 (USB2E7196)
Correct for Electrical Dark: No (USB2E7196)
Strobe/Lamp Enabled: No (USB2E7196)
Correct for Detector Non-linearity: No (USB2E7196)
Correct for Stray Light: No (USB2E7196)
Number of Pixels in Processed Spectrum: 2048
>>>>>Begin Processed Spectral Data<<<<<
339.09	0.00
339.48	214.99
339.86	216.53
340.24	217.61
340.63	218.37
341.01	222.33
341.39	221.37
341.78	222.76
342.16	224.65
342.54	224.23
342.93	213.02
343.31	223.80
343.69	224.32
344.07	224.75
344.46	225.14
344.84	225.53
345.22	225.72
345.60	225.95
345.99	226.15
346.37	226.25
346.75	226.35
347.13	226.45
347.52	226.48
347.90	226.53
348.28	226.52
348.66	226.53
349.05	226.51
349.43	226.54
349.81	226.59
350.19	226.64
350.57	226.70
350.96	226.77
351.34	226.81
351.72	226.91
352.10	227.03
352.48	227.10
352.87	227.15
353.25	227.22
353.63	227.30
354.01	227.34
354.39	227.40
354.77	227.46
355.15	227.54
355.54	227.62
355.92	227.65
356.30	227.70
356.68	227.85
357.06	227.92
357.44	227.99
357.82	228.03
358.20	228.08
358.58	228.16
358.97	228.22
359.35	228.33
359.73	228.40
360.11	228.40
360.49	228.47
360.87	228.53
361.25	228.57
361.63	228.67
362.01	228.72
362.39	228.76
362.77	228.85
363.15	228.89
363.53	228.92
363.91	228.97
364.29	229.02
364.67	228.92
365.05	228.97
365.43	229.02
365.81	229.06
366.19	229.12
366.57	229.16
366.95	229.17
367.33	229.13
367.71	229.11
368.09	229.15
368.47	229.14
368.85	229.15
369.23	229.17
369.61	229.09
369.99	229.12
370.37	229.08
370.75	229.07
371.13	229.02
371.51	228.97
371.89	228.95
372.27	228.90
372.65	228.88
373.03	228.84
373.41	228.80
373.78	228.75
374.16	228.66
374.54	228.55
374.92	228.48
375.30	228.44
375.68	228.35
376.06	228.30
376.44	228.25
376.82	228.14
377.19	228.07
377.57	228.03
377.95	227.93
378.33	227.87
378.71	227.75
379.09	227.71
379.47	227.70
379.84	227.61
380.22	227.55
380.60	227.47
380.98	227.38
381.36	227.28
381.73	227.18
382.11	227.13
382.49	227.08
382.87	227.03
383.25	226.97
383.62	227.05
384.00	226.96
384.38	226.92
384.76	226.92
385.13	226.89
385.51	226.83
385.89	226.76
386.27	226.74
386.64	226.71
387.02	226.62
387.40	226.54
387.78	226.53
388.15	226.46
388.53	226.44
388.91	226.41
389.29	226.36
389.66	226.37
390.04	226.33
390.42	226.34
390.79	226.30
391.17	226.27
391.55	226.15
391.92	226.14
392.30	226.14
392.68	226.11
393.05	226.07
393.43	226.10
393.81	226.10
394.18	226.08
394.56	226.10
394.94	226.17
395.31	226.21
395.69	226.26
396.06	226.30
396.44	226.33
396.82	226.33
397.19	226.44
397.57	226.45
397.95	226.53
398.32	226.51
398.70	226.59
399.07	226.66
399.45	226.74
399.82	226.77
400.20	226.83
400.58	226.89
400.95	226.94
401.33	227.02
401.70	227.20
402.08	227.32
402.45	227.41
402.83	227.53
403.20	227.61
403.58	227.65
403.95	227.81
404.33	227.95
404.71	228.10
405.08	228.28
405.46	228.43
405.83	228.56
406.21	228.76
406.58	228.94
406.96	229.11
407.33	229.29
407.70	229.51
408.08	229.78
408.45	230.04
408.83	230.30
409.20	230.53
409.58	230.71
409.95	230.96
410.33	231.23
410.70	231.49
411.08	231.81
411.45	232.16
411.82	232.43
412.20	232.77
412.57	233.19
412.95	233.54
413.32	233.93
413.69	234.36
414.07	234.80
414.44	235.23
414.82	235.67
415.19	236.20
415.56	236.74
415.94	237.25
416.31	237.89
416.68	238.51
417.06	239.22
417.43	239.90
417.81	240.65
418.18	241.43
418.55	242.26
418.93	243.13
419.30	244.02
419.67	244.99
420.04	245.94
420.42	246.92
420.79	248.08
421.16	249.26
421.54	250.44
421.91	251.67
422.28	252.94
422.66	254.30
423.03	255.56
423.40	256.90
423.77	258.33
424.15	259.73
424.52	261.21
424.89	262.79
425.26	264.33
425.64	265.79
426.01	267.36
426.38	269.00
426.75	270.67
427.13	272.40
427.50	274.22
427.87	276.11
428.24	277.98
428.61	279.70
428.99	281.62
429.36	283.74
429.73	285.78
430.10	287.82
430.47	289.88
430.85	292.04
431.22	294.30
431.59	296.69
431.96	298.93
432.33	301.39
432.70	303.77
433.08	306.60
433.45	309.21
433.82	311.84
434.19	314.72
434.56	317.50
434.93	320.15
435.30	322.74
435.68	325.62
436.05	328.44
436.42	331.19
436.79	333.70
437.16	336.40
437.53	339.24
437.90	342.01
438.27	344.72
438.64	347.56
439.01	350.10
439.38	352.32
439.75	354.47
440.13	356.98
440.50	359.32
440.87	361.13
441.24	363.13
441.61	365.27
441.98	366.80
442.35	368.63
442.72	370.49
443.09	372.31
443.46	373.28
443.83	373.85
444.20	374.39
444.57	375.27
444.94	375.50
445.31	375.82
445.68	376.16
446.05	376.25
446.42	375.82
446.79	375.44
447.16	375.00
447.53	374.72
447.90	373.56
448.27	372.40
448.64	370.84
449.01	369.65
449.37	367.69
449.74	365.75
450.11	363.48
450.48	361.01
450.85	358.44
451.22	356.31
451.59	354.32
451.96	352.38
452.33	349.73
452.70	347.41
453.07	344.65
453.43	341.74
453.80	338.99
454.17	336.36
454.54	333.87
454.91	331.19
455.28	328.51
455.65	326.05
456.02	323.62
456.38	321.49
456.75	318.86
457.12	316.64
457.49	314.41
457.86	312.27
458.23	310.37
458.59	308.36
458.96	306.32
459.33	304.44
459.70	302.57
460.07	301.05
460.43	299.34
460.80	297.68
461.17	296.25
461.54	294.78
461.91	293.37
462.27	291.91
462.64	290.61
463.01	289.26
463.38	287.96
463.74	286.54
464.11	285.34
464.48	284.30
464.85	283.14
465.21	282.28
465.58	281.34
465.95	280.27
466.32	279.35
466.68	278.43
467.05	277.53
467.42	276.65
467.78	275.72
468.15	274.83
468.52	274.17
468.88	273.33
469.25	272.54
469.62	271.89
469.98	271.19
470.35	270.58
470.72	269.96
471.08	269.29
471.45	268.77
471.82	268.25
472.18	267.64
472.55	267.23
472.92	266.69
473.28	266.24
473.65	265.84
474.02	265.38
474.38	264.98
474.75	264.69
475.11	264.33
475.48	264.05
475.85	263.80
476.21	263.55
476.58	263.36
476.94	263.20
477.31	263.02
477.67	262.87
478.04	262.79
478.41	262.72
478.77	262.75
479.14	262.73
479.50	262.73
479.87	262.83
480.23	262.91
480.60	263.00
480.96	263.09
481.33	263.25
481.69	263.45
482.06	263.65
482.42	263.80
482.79	264.08
483.15	264.42
483.52	264.84
483.88	265.20
484.25	265.61
484.61	266.05
484.98	266.50
485.34	267.07
485.71	267.63
486.07	268.24
486.44	268.84
486.80	269.51
487.17	270.24
487.53	271.03
487.90	271.91
488.26	272.87
488.62	273.87
488.99	274.85
489.35	275.94
489.72	277.11
490.08	278.38
490.44	279.62
490.81	280.95
491.17	282.30
491.54	283.80
491.90	285.33
492.26	286.95
492.63	288.71
492.99	290.48
493.36	292.37
493.72	294.39
494.08	296.49
494.45	298.71
494.81	301.08
495.17	303.55
495.54	306.08
495.90	308.75
496.26	311.58
496.63	314.54
496.99	317.62
497.35	320.85
497.72	324.21
498.08	327.75
498.44	331.39
498.80	335.32
499.17	339.36
499.53	343.51
499.89	347.92
500.26	352.38
500.62	357.03
500.98	362.03
501.34	367.08
501.71	372.44
502.07	377.98
502.43	383.60
502.79	389.41
503.16	395.50
503.52	401.79
503.88	408.23
504.24	414.90
504.60	421.78
504.97	428.91
505.33	436.23
505.69	443.93
506.05	451.78
506.41	459.67
506.78	467.80
507.14	476.29
507.50	485.04
507.86	494.13
508.22	503.37
508.59	512.57
508.95	522.17
509.31	531.90
509.67	541.92
510.03	552.14
510.39	562.67
510.75	573.48
511.12	584.35
511.48	595.61
511.84	606.99
512.20	618.54
512.56	630.48
512.92	642.64
513.28	654.88
513.64	667.32
514.00	680.05
514.37	693.00
514.73	705.98
515.09	718.96
515.45	732.20
515.81	745.69
516.17	759.69
516.53	773.87
516.89	788.09
517.25	802.27
517.61	816.73
517.97	831.13
518.33	845.54
518.69	860.45
519.05	875.42
519.41	890.64
519.77	906.24
520.13	921.63
520.49	937.04
520.85	952.52
521.21	968.15
521.57	984.38
521.93	1000.06
522.29	1016.48
522.65	1032.69
523.01	1048.87
523.37	1065.01
523.73	1080.99
524.09	1097.00
524.45	1113.27
524.81	1129.91
525.17	1146.78
525.53	1163.73
525.89	1180.70
526.25	1197.33
526.61	1213.71
526.97	1230.45
527.33	1246.78
527.68	1263.47
528.04	1279.99
528.40	1296.48
528.76	1313.62
529.12	1330.17
529.48	1347.02
529.84	1362.95
530.20	1379.55
530.56	1396.62
530.91	1413.95
531.27	1430.82
531.63	1447.32
531.99	1463.81
532.35	1479.65
532.71	1495.37
533.07	1511.69
533.42	1527.38
533.78	1543.49
534.14	1559.79
534.50	1574.99
534.86	1590.84
535.21	1606.02
535.57	1621.85
535.93	1637.38
536.29	1652.06
536.65	1667.06
537.00	1682.01
537.36	1697.38
537.72	1711.95
538.08	1726.29
538.44	1740.03
538.79	1753.78
539.15	1767.44
539.51	1781.20
539.87	1795.70
540.22	1809.43
540.58	1823.12
540.94	1836.50
541.29	1849.31
541.65	1861.82
542.01	1875.06
542.37	1887.25
542.72	1899.57
543.08	1911.32
543.44	1923.66
543.79	1934.92
544.15	1945.87
544.51	1957.27
544.87	1968.26
545.22	1979.02
545.58	1989.16
545.94	1998.99
546.29	2008.87
546.65	2018.73
547.01	2027.89
547.36	2036.42
547.72	2045.03
548.07	2052.77
548.43	2060.85
548.79	2068.93
549.14	2076.44
549.50	2083.84
549.86	2091.60
550.21	2098.85
550.57	2105.95
550.92	2112.48
551.28	2119.34
551.64	2126.51
551.99	2133.03
552.35	2139.11
552.70	2145.26
553.06	2151.29
553.41	2157.49
553.77	2163.56
554.13	2169.70
554.48	2175.91
554.84	2181.31
555.19	2186.44
555.55	2191.68
555.90	2196.14
556.26	2200.93
556.61	2205.67
556.97	2209.80
557.32	2213.94
557.68	2218.19
558.03	2222.52
558.39	2226.43
558.74	2231.14
559.10	2235.06
559.45	2238.81
559.81	2243.10
560.16	2246.79
560.52	2249.99
560.87	2253.40
561.23	2256.12
561.58	2258.94
561.94	2261.52
562.29	2263.89
562.64	2266.63
563.00	2269.13
563.35	2272.64
563.71	2275.78
564.06	2279.17
564.42	2282.03
564.77	2284.60
565.12	2286.87
565.48	2288.76
565.83	2290.55
566.19	2291.84
566.54	2292.56
566.89	2293.67
567.25	2294.24
567.60	2295.73
567.96	2297.58
568.31	2298.42
568.66	2299.38
569.02	2299.93
569.37	2300.16
569.72	2301.11
570.08	2301.30
570.43	2301.39
570.78	2300.95
571.14	2299.41
571.49	2297.92
571.84	2297.74
572.20	2296.53
572.55	2295.54
572.90	2294.03
573.26	2292.54
573.61	2290.88
573.96	2289.09
574.31	2286.00
574.67	2283.03
575.02	2279.29
575.37	2275.80
575.72	2272.05
576.08	2268.85
576.43	2265.45
576.78	2261.84
577.13	2258.70
577.49	2255.57
577.84	2252.04
578.19	2248.27
578.54	2244.63
578.90	2240.50
579.25	2234.92
579.60	2229.95
579.95	2224.91
580.30	2219.93
580.66	2214.93
581.01	2210.11
581.36	2205.26
581.71	2200.99
582.06	2196.54
582.42	2192.15
582.77	2186.94
583.12	2182.44
583.47	2177.60
583.82	2172.63
584.17	2167.40
584.53	2161.85
584.88	2156.17
585.23	2150.44
585.58	2144.92
585.93	2139.43
586.28	2134.68
586.63	2129.69
586.98	2124.61
587.34	2119.84
587.69	2114.94
588.04	2109.55
588.39	2103.95
588.74	2097.45
589.09	2091.59
589.44	2084.78
589.79	2078.73
590.14	2073.12
590.49	2066.51
590.84	2060.14
591.19	2054.21
591.54	2047.83
591.89	2040.57
592.25	2033.86
592.60	2026.74
592.95	2019.14
593.30	2011.91
593.65	2004.30
594.00	1997.07
594.35	1989.87
594.70	1981.88
595.05	1974.65
595.40	1967.42
595.75	1959.82
596.10	1953.63
596.45	1946.77
596.80	1940.54
597.15	1933.88
597.50	1926.74
597.85	1920.39
598.19	1913.78
598.54	1906.65
598.89	1899.97
599.24	1894.03
599.59	1887.11
599.94	1880.78
600.29	1874.42
600.64	1867.97
600.99	1860.46
601.34	1853.77
601.69	1846.89
602.04	1840.04
602.39	1832.73
602.74	1825.87
603.08	1819.14
603.43	1812.45
603.78	1805.14
604.13	1797.90
604.48	1790.61
604.83	1783.74
605.18	1776.61
605.53	1768.65
605.87	1760.65
606.22	1753.43
606.57	1745.48
606.92	1738.36
607.27	1731.21
607.62	1724.28
607.96	1716.78
608.31	1710.19
608.66	1702.64
609.01	1695.02
609.36	1687.36
609.70	1679.38
610.05	1671.24
610.40	1663.51
610.75	1655.20
611.10	1647.58
611.44	1639.28
611.79	1631.21
612.14	1622.54
612.49	1613.47
612.83	1605.17
613.18	1597.05
613.53	1588.87
613.88	1580.26
614.22	1571.89
614.57	1563.31
614.92	1555.35
615.27	1547.87
615.61	1539.50
615.96	1531.40
616.31	1523.80
616.65	1516.41
617.00	1508.94
617.35	1501.37
617.70	1493.02
618.04	1484.52
618.39	1476.37
618.74	1468.82
619.08	1460.61
619.43	1453.05
619.78	1446.07
620.12	1438.80
620.47	1431.32
620.82	1423.28
621.16	1415.91
621.51	1408.45
621.85	1400.88
622.20	1392.31
622.55	1383.95
622.89	1376.19
623.24	1368.53
623.59	1361.16
623.93	1353.67
624.28	1346.28
624.62	1338.70
624.97	1331.52
625.32	1324.76
625.66	1317.66
626.01	1310.46
626.35	1303.07
626.70	1295.34
627.04	1287.75
627.39	1279.99
627.73	1272.58
628.08	1265.60
628.43	1258.25
628.77	1250.76
629.12	1243.14
629.46	1235.98
629.81	1228.59
630.15	1221.28
630.50	1213.86
630.84	1205.65
631.19	1197.80
631.53	1190.34
631.88	1182.82
632.22	1175.20
632.57	1167.87
632.91	1160.30
633.26	1152.82
633.60	1145.46
633.95	1138.34
634.29	1131.19
634.64	1124.49
634.98	1117.07
635.32	1109.84
635.67	1103.28
636.01	1096.62
636.36	1089.78
636.70	1083.29
637.05	1076.68
637.39	1070.22
637.73	1063.69
638.08	1057.72
638.42	1051.66
638.77	1045.12
639.11	1038.52
639.45	1032.20
639.80	1025.49
640.14	1019.06
640.49	1012.51
640.83	1006.14
641.17	999.82
641.52	993.48
641.86	987.03
642.20	981.13
642.55	974.81
642.89	968.26
643.23	961.80
643.58	956.01
643.92	949.77
644.26	943.71
644.61	937.69
644.95	931.69
645.29	925.13
645.64	918.39
645.98	912.12
646.32	906.20
646.66	900.08
647.01	894.35
647.35	888.57
647.69	882.74
648.04	877.17
648.38	871.40
648.72	865.36
649.06	859.27
649.41	853.47
649.75	847.52
650.09	841.71
650.43	835.84
650.78	829.73
651.12	823.80
651.46	818.06
651.80	812.27
652.14	806.91
652.49	801.54
652.83	796.39
653.17	790.70
653.51	785.07
653.85	779.69
654.20	773.95
654.54	768.10
654.88	762.36
655.22	756.53
655.56	750.92
655.90	745.62
656.25	740.46
656.59	735.09
656.93	730.07
657.27	724.87
657.61	719.44
657.95	714.38
658.29	709.30
658.64	704.11
658.98	698.92
659.32	693.48
659.66	688.31
660.00	683.00
660.34	678.08
660.68	673.21
661.02	668.23
661.36	663.58
661.70	659.08
662.05	654.78
662.39	650.52
662.73	646.02
663.07	641.59
663.41	637.14
663.75	632.61
664.09	628.01
664.43	623.62
664.77	619.52
665.11	615.22
665.45	611.10
665.79	606.97
666.13	602.83
666.47	598.73
666.81	594.55
667.15	590.37
667.49	586.47
667.83	582.67
668.17	578.75
668.51	574.66
668.85	570.61
669.19	566.73
669.53	562.84
669.87	558.98
670.21	555.26
670.55	551.58
670.89	548.23
671.23	544.81
671.57	541.32
671.91	537.79
672.25	534.36
672.58	530.85
672.92	527.43
673.26	524.24
673.60	521.09
673.94	518.02
674.28	515.20
674.62	512.28
674.96	509.10
675.30	506.19
675.64	503.23
675.97	500.40
676.31	497.56
676.65	494.55
676.99	491.85
677.33	488.98
677.67	486.16
678.01	483.11
678.34	480.10
678.68	477.21
679.02	474.39
679.36	471.60
679.70	468.84
680.04	466.10
680.37	463.23
680.71	460.41
681.05	457.74
681.39	454.97
681.73	452.28
682.06	449.73
682.40	447.16
682.74	444.64
683.08	442.13
683.42	439.55
683.75	437.12
684.09	434.57
684.43	432.11
684.77	429.61
685.10	427.23
685.44	424.92
685.78	422.64
686.12	420.36
686.45	418.09
686.79	415.78
687.13	413.55
687.46	411.37
687.80	409.20
688.14	407.01
688.48	404.94
688.81	402.70
689.15	400.58
689.49	398.41
689.82	396.35
690.16	394.24
690.50	392.31
690.83	390.34
691.17	388.35
691.51	386.44
691.84	384.62
692.18	382.69
692.52	380.66
692.85	378.75
693.19	376.89
693.52	375.06
693.86	373.30
694.20	371.54
694.53	369.75
694.87	367.91
695.21	366.15
695.54	364.33
695.88	362.63
696.21	360.90
696.55	359.25
696.88	357.54
697.22	355.91
697.56	354.26
697.89	352.62
698.23	351.00
698.56	349.45
698.90	347.87
699.23	346.24
699.57	344.75
699.90	343.22
700.24	341.70
700.58	340.19
700.91	338.71
701.25	337.28
701.58	335.93
701.92	334.56
702.25	333.13
702.59	331.76
702.92	330.44
703.26	329.13
703.59	327.82
703.93	326.67
704.26	325.44
704.60	324.13
704.93	322.85
705.26	321.61
705.60	320.43
705.93	319.27
706.27	318.23
706.60	317.19
706.94	316.08
707.27	314.94
707.61	313.88
707.94	312.82
708.27	311.73
708.61	310.69
708.94	309.74
709.28	308.76
709.61	307.80
709.94	306.79
710.28	305.77
710.61	304.79
710.95	303.72
711.28	302.82
711.61	301.87
711.95	300.97
712.28	300.00
712.61	298.99
712.95	298.05
713.28	297.17
713.61	296.28
713.95	295.40
714.28	294.56
714.61	293.65
714.95	292.79
715.28	291.93
715.61	290.99
715.95	290.07
716.28	289.26
716.61	288.40
716.95	287.61
717.28	286.83
717.61	286.10
717.94	285.30
718.28	284.44
718.61	283.73
718.94	283.01
719.27	282.32
719.61	281.66
719.94	280.98
720.27	280.22
720.60	279.52
720.94	278.90
721.27	278.28
721.60	277.71
721.93	277.12
722.27	276.55
722.60	276.04
722.93	275.47
723.26	274.89
723.59	274.33
723.93	273.77
724.26	273.24
724.59	272.65
724.92	272.16
725.25	271.67
725.59	271.16
725.92	270.67
726.25	270.20
726.58	269.69
726.91	269.22
727.24	268.78
727.57	268.34
727.91	267.83
728.24	267.41
728.57	266.91
728.90	266.48
729.23	265.97
729.56	265.50
729.89	265.05
730.22	264.59
730.55	264.15
730.89	263.71
731.22	263.28
731.55	262.85
731.88	262.41
732.21	262.01
732.54	261.57
732.87	261.16
733.20	260.78
733.53	260.41
733.86	260.05
734.19	259.65
734.52	259.24
734.85	258.93
735.18	258.50
735.51	258.18
735.84	257.81
736.17	257.47
736.50	257.09
736.83	256.86
737.16	256.53
737.49	256.22
737.82	255.88
738.15	255.54
738.48	255.21
738.81	254.92
739.14	254.58
739.47	254.26
739.80	253.92
740.13	253.60
740.46	253.29
740.79	252.93
741.12	252.64
741.45	252.33
741.78	251.98
742.11	251.68
742.44	251.33
742.77	251.03
743.10	250.76
743.43	250.44
743.75	250.06
744.08	249.94
744.41	249.67
744.74	249.39
745.07	249.13
745.40	248.89
745.73	248.66
746.06	248.39
746.39	248.11
746.71	247.86
747.04	247.59
747.37	247.32
747.70	247.10
748.03	246.85
748.36	246.68
748.68	246.43
749.01	246.19
749.34	245.98
749.67	245.76
750.00	245.54
750.33	245.45
750.65	245.25
750.98	244.89
751.31	244.66
751.64	244.48
751.97	244.30
752.29	244.07
752.62	243.81
752.95	243.60
753.28	243.38
753.60	243.15
753.93	242.99
754.26	242.80
754.59	242.58
754.91	242.39
755.24	242.14
755.57	241.93
755.90	241.79
756.22	241.58
756.55	241.39
756.88	241.19
757.20	240.88
757.53	240.66
757.86	240.48
758.19	240.35
758.51	240.18
758.84	239.98
759.17	239.83
759.49	239.66
759.82	239.54
760.15	239.47
760.47	239.31
760.80	239.11
761.13	238.98
761.45	238.78
761.78	238.61
762.11	238.46
762.43	238.32
762.76	238.14
763.08	238.01
763.41	237.86
763.74	237.71
764.06	237.58
764.39	237.46
764.71	237.34
765.04	237.20
765.37	237.04
765.69	236.87
766.02	236.76
766.34	236.65
766.67	236.49
767.00	236.36
767.32	236.29
767.65	236.24
767.97	236.11
768.30	236.03
768.62	235.90
768.95	235.77
769.27	235.69
769.60	235.59
769.92	235.49
770.25	235.40
770.57	235.30
770.90	235.21
771.22	235.09
771.55	234.98
771.87	234.86
772.20	234.79
772.52	234.78
772.85	234.79
773.17	234.71
773.50	234.61
773.82	234.48
774.15	234.38
774.47	234.22
774.80	234.14
775.12	234.06
775.45	234.02
775.77	233.98
776.09	233.86
776.42	233.77
776.74	233.70
777.07	233.58
777.39	233.50
777.72	233.43
778.04	233.37
778.36	233.29
778.69	233.20
779.01	233.12
779.33	232.97
779.66	232.82
779.98	232.71
780.31	232.66
780.63	232.64
780.95	232.56
781.28	232.49
781.60	232.43
781.92	232.37
782.25	232.29
782.57	232.22
782.89	232.15
783.22	232.12
783.54	232.07
783.86	232.01
784.19	231.95
784.51	231.91
784.83	231.84
785.16	231.78
785.48	231.74
785.80	231.70
786.12	231.67
786.45	231.59
786.77	231.60
787.09	231.55
