SpectraSuite Data File
++++++++++++++++++++++++++++++++++++
Date: Fri Feb 01 14:59:34 EST 2013
User: group
Dark Spectrum Present: No
Reference Spectrum Present: No
Number of Sampled Component Spectra: 1
Spectrometers: USB2E7196
Integration Time (usec): 35000 (USB2E7196)
Spectra Averaged: 100 (USB2E7196)
Boxcar Smoothing: 10 (USB2E7196)
Correct for Electrical Dark: No (USB2E7196)
Strobe/Lamp Enabled: No (USB2E7196)
Correct for Detector Non-linearity: No (USB2E7196)
Correct for Stray Light: No (USB2E7196)
Number of Pixels in Processed Spectrum: 2048
>>>>>Begin Processed Spectral Data<<<<<
339.09	0.00
339.48	215.19
339.86	216.86
340.24	218.73
340.63	219.70
341.01	221.90
341.39	222.46
341.78	223.41
342.16	224.93
342.54	225.42
342.93	213.69
343.31	224.50
343.69	225.06
344.07	225.53
344.46	225.93
344.84	226.29
345.22	226.55
345.60	226.81
345.99	227.04
346.37	227.17
346.75	227.26
347.13	227.33
347.52	227.36
347.90	227.42
348.28	227.43
348.66	227.48
349.05	227.47
349.43	227.52
349.81	227.54
350.19	227.57
350.57	227.61
350.96	227.66
351.34	227.71
351.72	227.78
352.10	227.84
352.48	227.91
352.87	227.97
353.25	228.04
353.63	228.09
354.01	228.12
354.39	228.15
354.77	228.22
355.15	228.33
355.54	228.38
355.92	228.39
356.30	228.49
356.68	228.60
357.06	228.67
357.44	228.74
357.82	228.83
358.20	228.95
358.58	229.01
358.97	229.09
359.35	229.20
359.73	229.27
360.11	229.33
360.49	229.39
360.87	229.43
361.25	229.47
361.63	229.54
362.01	229.57
362.39	229.62
362.77	229.67
363.15	229.69
363.53	229.74
363.91	229.79
364.29	229.82
364.67	229.77
365.05	229.77
365.43	229.74
365.81	229.74
366.19	229.72
366.57	229.74
366.95	229.71
367.33	229.62
367.71	229.62
368.09	229.63
368.47	229.56
368.85	229.52
369.23	229.51
369.61	229.40
369.99	229.38
370.37	229.35
370.75	229.36
371.13	229.29
371.51	229.20
371.89	229.14
372.27	229.06
372.65	228.98
373.03	228.98
373.41	228.90
373.78	228.83
374.16	228.73
374.54	228.63
374.92	228.52
375.30	228.47
375.68	228.35
376.06	228.27
376.44	228.19
376.82	228.13
377.19	228.05
377.57	227.98
377.95	227.90
378.33	227.84
378.71	227.71
379.09	227.62
379.47	227.58
379.84	227.52
380.22	227.43
380.60	227.37
380.98	227.26
381.36	227.20
381.73	227.13
382.11	227.10
382.49	227.04
382.87	226.96
383.25	226.92
383.62	226.98
384.00	226.87
384.38	226.81
384.76	226.77
385.13	226.75
385.51	226.67
385.89	226.61
386.27	226.54
386.64	226.46
387.02	226.42
387.40	226.33
387.78	226.28
388.15	226.27
388.53	226.26
388.91	226.22
389.29	226.18
389.66	226.15
390.04	226.12
390.42	226.14
390.79	226.17
391.17	226.13
391.55	226.01
391.92	226.05
392.30	226.06
392.68	226.07
393.05	226.05
393.43	226.11
393.81	226.15
394.18	226.18
394.56	226.24
394.94	226.30
395.31	226.34
395.69	226.43
396.06	226.47
396.44	226.50
396.82	226.52
397.19	226.61
397.57	226.65
397.95	226.71
398.32	226.75
398.70	226.85
399.07	226.98
399.45	227.03
399.82	227.11
400.20	227.21
400.58	227.28
400.95	227.32
401.33	227.44
401.70	227.58
402.08	227.68
402.45	227.80
402.83	227.94
403.20	228.09
403.58	228.20
403.95	228.32
404.33	228.47
404.71	228.66
405.08	228.85
405.46	228.99
405.83	229.15
406.21	229.31
406.58	229.46
406.96	229.65
407.33	229.88
407.70	230.11
408.08	230.38
408.45	230.63
408.83	230.90
409.20	231.13
409.58	231.32
409.95	231.57
410.33	231.84
410.70	232.08
411.08	232.36
411.45	232.65
411.82	232.95
412.20	233.28
412.57	233.68
412.95	233.97
413.32	234.39
413.69	234.79
414.07	235.25
414.44	235.70
414.82	236.17
415.19	236.69
415.56	237.24
415.94	237.79
416.31	238.41
416.68	239.05
417.06	239.75
417.43	240.43
417.81	241.20
418.18	241.96
418.55	242.77
418.93	243.64
419.30	244.51
419.67	245.42
420.04	246.40
420.42	247.40
420.79	248.59
421.16	249.72
421.54	250.93
421.91	252.11
422.28	253.38
422.66	254.70
423.03	256.00
423.40	257.31
423.77	258.69
424.15	260.10
424.52	261.55
424.89	263.14
425.26	264.67
425.64	266.10
426.01	267.70
426.38	269.33
426.75	271.04
427.13	272.80
427.50	274.59
427.87	276.46
428.24	278.32
428.61	280.06
428.99	281.98
429.36	284.06
429.73	286.09
430.10	288.08
430.47	290.09
430.85	292.20
431.22	294.45
431.59	296.85
431.96	299.12
432.33	301.63
432.70	304.03
433.08	306.89
433.45	309.55
433.82	312.17
434.19	315.09
434.56	317.88
434.93	320.58
435.30	323.23
435.68	326.16
436.05	328.97
436.42	331.77
436.79	334.29
437.16	337.01
437.53	339.88
437.90	342.73
438.27	345.55
438.64	348.37
439.01	350.99
439.38	353.22
439.75	355.40
440.13	357.95
440.50	360.30
440.87	362.14
441.24	364.08
441.61	366.26
441.98	367.79
442.35	369.62
442.72	371.42
443.09	373.26
443.46	374.28
443.83	374.88
444.20	375.41
444.57	376.26
444.94	376.55
445.31	376.88
445.68	377.23
446.05	377.27
446.42	376.94
446.79	376.52
447.16	376.06
447.53	375.76
447.90	374.55
448.27	373.33
448.64	371.74
449.01	370.61
449.37	368.59
449.74	366.71
450.11	364.43
450.48	361.97
450.85	359.41
451.22	357.25
451.59	355.22
451.96	353.28
452.33	350.69
452.70	348.35
453.07	345.52
453.43	342.64
453.80	339.89
454.17	337.17
454.54	334.61
454.91	331.91
455.28	329.18
455.65	326.67
456.02	324.25
456.38	322.09
456.75	319.44
457.12	317.26
457.49	315.02
457.86	312.86
458.23	311.03
458.59	308.99
458.96	306.89
459.33	305.02
459.70	303.15
460.07	301.63
460.43	299.87
460.80	298.26
461.17	296.77
461.54	295.27
461.91	293.85
462.27	292.38
462.64	291.13
463.01	289.80
463.38	288.53
463.74	287.14
464.11	285.97
464.48	284.93
464.85	283.78
465.21	282.88
465.58	281.93
465.95	280.80
466.32	279.86
466.68	278.94
467.05	278.03
467.42	277.09
467.78	276.15
468.15	275.30
468.52	274.60
468.88	273.74
469.25	272.95
469.62	272.31
469.98	271.67
470.35	270.99
470.72	270.37
471.08	269.70
471.45	269.19
471.82	268.63
472.18	268.03
472.55	267.54
472.92	267.01
473.28	266.57
473.65	266.11
474.02	265.67
474.38	265.32
474.75	265.00
475.11	264.65
475.48	264.37
475.85	264.11
476.21	263.87
476.58	263.69
476.94	263.52
477.31	263.36
477.67	263.18
478.04	263.05
478.41	263.01
478.77	263.01
479.14	262.90
479.50	262.90
479.87	262.97
480.23	263.07
480.60	263.15
480.96	263.19
481.33	263.41
481.69	263.61
482.06	263.77
482.42	263.99
482.79	264.26
483.15	264.60
483.52	264.99
483.88	265.34
484.25	265.74
484.61	266.18
484.98	266.60
485.34	267.16
485.71	267.74
486.07	268.35
486.44	268.95
486.80	269.70
487.17	270.39
487.53	271.17
487.90	272.01
488.26	272.92
488.62	273.91
488.99	274.86
489.35	275.87
489.72	277.00
490.08	278.19
490.44	279.42
490.81	280.67
491.17	282.00
491.54	283.47
491.90	284.95
492.26	286.58
492.63	288.27
492.99	290.00
493.36	291.87
493.72	293.84
494.08	295.92
494.45	298.11
494.81	300.48
495.17	302.87
495.54	305.41
495.90	308.07
496.26	310.85
496.63	313.80
496.99	316.90
497.35	320.15
497.72	323.49
498.08	327.00
498.44	330.69
498.80	334.58
499.17	338.60
499.53	342.78
499.89	347.10
500.26	351.61
500.62	356.31
500.98	361.27
501.34	366.35
501.71	371.65
502.07	377.05
502.43	382.65
502.79	388.47
503.16	394.54
503.52	400.81
503.88	407.22
504.24	413.83
504.60	420.73
504.97	427.81
505.33	435.10
505.69	442.73
506.05	450.47
506.41	458.36
506.78	466.53
507.14	474.99
507.50	483.73
507.86	492.76
508.22	501.89
508.59	511.10
508.95	520.68
509.31	530.43
509.67	540.56
510.03	550.77
510.39	561.30
510.75	572.09
511.12	582.95
511.48	594.16
511.84	605.61
512.20	617.04
512.56	628.99
512.92	641.16
513.28	653.42
513.64	665.97
514.00	678.69
514.37	691.57
514.73	704.60
515.09	717.61
515.45	730.81
515.81	744.40
516.17	758.40
516.53	772.49
516.89	786.70
517.25	800.93
517.61	815.33
517.97	829.78
518.33	844.23
518.69	859.06
519.05	874.21
519.41	889.46
519.77	905.09
520.13	920.53
520.49	936.02
520.85	951.54
521.21	967.29
521.57	983.64
521.93	999.55
522.29	1016.01
522.65	1032.32
523.01	1048.69
523.37	1064.87
523.73	1081.04
524.09	1097.20
524.45	1113.63
524.81	1130.24
525.17	1147.26
525.53	1164.14
525.89	1181.12
526.25	1198.00
526.61	1214.37
526.97	1231.17
527.33	1247.73
527.68	1264.43
528.04	1280.93
528.40	1297.66
528.76	1314.83
529.12	1331.44
529.48	1348.36
529.84	1364.42
530.20	1381.19
530.56	1398.26
530.91	1415.67
531.27	1432.55
531.63	1449.08
531.99	1465.71
532.35	1481.71
532.71	1497.65
533.07	1514.02
533.42	1529.97
533.78	1545.99
534.14	1562.45
534.50	1577.93
534.86	1593.87
535.21	1609.05
535.57	1625.24
535.93	1640.84
536.29	1655.72
536.65	1670.93
537.00	1685.78
537.36	1701.19
537.72	1715.80
538.08	1730.22
538.44	1744.09
538.79	1758.01
539.15	1771.96
539.51	1785.89
539.87	1800.53
540.22	1814.48
540.58	1828.61
540.94	1841.99
541.29	1855.23
541.65	1867.88
542.01	1881.14
542.37	1893.43
542.72	1906.15
543.08	1917.86
543.44	1930.38
543.79	1941.63
544.15	1952.58
544.51	1964.14
544.87	1975.10
545.22	1985.90
545.58	1996.26
545.94	2006.13
546.29	2016.11
546.65	2025.83
547.01	2035.07
547.36	2043.85
547.72	2052.14
548.07	2059.85
548.43	2068.11
548.79	2076.06
549.14	2083.62
549.50	2091.04
549.86	2098.89
550.21	2106.01
550.57	2113.18
550.92	2119.61
551.28	2126.68
551.64	2133.72
551.99	2140.15
552.35	2146.40
552.70	2152.39
553.06	2158.25
553.41	2164.47
553.77	2170.43
554.13	2176.56
554.48	2182.62
554.84	2187.74
555.19	2193.18
555.55	2198.20
555.90	2202.57
556.26	2207.14
556.61	2211.76
556.97	2215.74
557.32	2219.84
557.68	2224.00
558.03	2228.21
558.39	2231.97
558.74	2236.52
559.10	2240.44
559.45	2244.11
559.81	2248.29
560.16	2252.11
560.52	2255.22
560.87	2258.69
561.23	2261.20
561.58	2264.04
561.94	2266.42
562.29	2268.87
562.64	2271.51
563.00	2274.14
563.35	2277.55
563.71	2280.74
564.06	2283.93
564.42	2286.84
564.77	2289.25
565.12	2291.42
565.48	2293.22
565.83	2294.80
566.19	2295.97
566.54	2296.79
566.89	2297.89
567.25	2298.29
567.60	2299.64
567.96	2301.21
568.31	2301.84
568.66	2302.87
569.02	2303.18
569.37	2303.40
569.72	2303.99
570.08	2303.77
570.43	2303.65
570.78	2302.81
571.14	2301.22
571.49	2299.78
571.84	2299.28
572.20	2297.83
572.55	2296.60
572.90	2295.02
573.26	2293.50
573.61	2291.76
573.96	2289.83
574.31	2286.55
574.67	2283.42
575.02	2279.69
575.37	2276.19
575.72	2272.26
576.08	2268.88
576.43	2265.60
576.78	2261.88
577.13	2258.62
577.49	2255.39
577.84	2251.80
578.19	2248.17
578.54	2244.21
578.90	2239.86
579.25	2234.12
579.60	2229.26
579.95	2224.10
580.30	2218.88
580.66	2213.58
581.01	2208.36
581.36	2203.29
581.71	2199.10
582.06	2194.54
582.42	2189.85
582.77	2184.52
583.12	2179.90
583.47	2174.91
583.82	2169.59
584.17	2164.09
584.53	2158.51
584.88	2152.91
585.23	2146.96
585.58	2141.35
585.93	2135.98
586.28	2131.15
586.63	2126.10
586.98	2120.82
587.34	2115.92
587.69	2110.85
588.04	2105.55
588.39	2099.78
588.74	2093.26
589.09	2086.98
589.44	2080.04
589.79	2073.88
590.14	2068.13
590.49	2061.32
590.84	2054.79
591.19	2048.73
591.54	2042.21
591.89	2034.68
592.25	2027.63
592.60	2020.31
592.95	2012.34
593.30	2004.72
593.65	1996.92
594.00	1989.73
594.35	1982.39
594.70	1974.42
595.05	1967.18
595.40	1959.87
595.75	1952.40
596.10	1945.93
596.45	1939.10
596.80	1932.94
597.15	1926.23
597.50	1919.03
597.85	1912.53
598.19	1905.84
598.54	1898.71
598.89	1892.11
599.24	1886.26
599.59	1879.40
599.94	1873.11
600.29	1866.92
600.64	1860.42
600.99	1852.86
601.34	1845.97
601.69	1838.98
602.04	1831.91
602.39	1824.51
602.74	1817.63
603.08	1810.79
603.43	1804.05
603.78	1796.73
604.13	1789.46
604.48	1782.06
604.83	1775.28
605.18	1768.27
605.53	1760.20
605.87	1752.13
606.22	1744.68
606.57	1736.67
606.92	1729.48
607.27	1722.17
607.62	1715.18
607.96	1707.86
608.31	1701.19
608.66	1693.49
609.01	1685.86
609.36	1678.37
609.70	1670.38
610.05	1662.30
610.40	1654.62
610.75	1646.38
611.10	1638.71
611.44	1630.47
611.79	1622.56
612.14	1613.80
612.49	1604.78
612.83	1596.49
613.18	1588.38
613.53	1580.43
613.88	1572.01
614.22	1563.73
614.57	1555.28
614.92	1547.28
615.27	1539.85
615.61	1531.57
615.96	1523.62
616.31	1515.91
616.65	1508.49
617.00	1500.92
617.35	1493.19
617.70	1484.83
618.04	1476.23
618.39	1468.00
618.74	1460.35
619.08	1452.05
619.43	1444.61
619.78	1437.72
620.12	1430.68
620.47	1423.29
620.82	1415.20
621.16	1407.80
621.51	1400.23
621.85	1392.78
622.20	1384.41
622.55	1376.05
622.89	1368.38
623.24	1360.93
623.59	1353.62
623.93	1346.20
624.28	1339.02
624.62	1331.63
624.97	1324.55
625.32	1317.94
625.66	1311.06
626.01	1303.89
626.35	1296.41
626.70	1288.69
627.04	1280.86
627.39	1273.06
627.73	1265.66
628.08	1258.68
628.43	1251.30
628.77	1244.00
629.12	1236.39
629.46	1229.16
629.81	1221.81
630.15	1214.58
630.50	1207.15
630.84	1199.04
631.19	1191.16
631.53	1183.70
631.88	1176.15
632.22	1168.59
632.57	1161.32
632.91	1153.80
633.26	1146.46
633.60	1139.31
633.95	1132.39
634.29	1125.48
634.64	1118.90
634.98	1111.60
635.32	1104.57
635.67	1098.11
636.01	1091.53
636.36	1084.75
636.70	1078.41
637.05	1071.94
637.39	1065.50
637.73	1059.05
638.08	1053.33
638.42	1047.45
638.77	1041.03
639.11	1034.53
639.45	1028.21
639.80	1021.54
640.14	1015.05
640.49	1008.50
640.83	1002.20
641.17	995.89
641.52	989.67
641.86	983.26
642.20	977.47
642.55	971.20
642.89	964.77
643.23	958.28
643.58	952.51
643.92	946.32
644.26	940.15
644.61	934.22
644.95	928.22
645.29	921.58
645.64	914.87
645.98	908.65
646.32	902.87
646.66	896.87
647.01	891.11
647.35	885.51
647.69	879.77
648.04	874.27
648.38	868.50
648.72	862.45
649.06	856.37
649.41	850.44
649.75	844.51
650.09	838.47
650.43	832.65
650.78	826.58
651.12	820.57
651.46	814.87
651.80	809.07
652.14	803.63
652.49	798.28
652.83	793.07
653.17	787.32
653.51	781.57
653.85	776.17
654.20	770.51
654.54	764.56
654.88	758.83
655.22	753.04
655.56	747.35
655.90	741.98
656.25	736.74
656.59	731.54
656.93	726.48
657.27	721.43
657.61	716.06
657.95	711.00
658.29	705.97
658.64	700.78
658.98	695.56
659.32	690.21
659.66	685.02
660.00	679.76
660.34	674.88
660.68	670.04
661.02	664.98
661.36	660.28
661.70	655.88
662.05	651.58
662.39	647.26
662.73	642.88
663.07	638.54
663.41	634.12
663.75	629.54
664.09	624.99
664.43	620.67
664.77	616.58
665.11	612.32
665.45	608.22
665.79	604.21
666.13	600.08
666.47	595.98
666.81	591.86
667.15	587.80
667.49	583.92
667.83	580.16
668.17	576.33
668.51	572.33
668.85	568.28
669.19	564.42
669.53	560.55
669.87	556.66
670.21	553.04
670.55	549.48
670.89	546.08
671.23	542.67
671.57	539.16
671.91	535.70
672.25	532.26
672.58	528.82
672.92	525.46
673.26	522.31
673.60	519.19
673.94	516.09
674.28	513.25
674.62	510.35
674.96	507.21
675.30	504.33
675.64	501.41
675.97	498.70
676.31	495.87
676.65	492.97
676.99	490.27
677.33	487.36
677.67	484.55
678.01	481.57
678.34	478.65
678.68	475.82
679.02	472.99
679.36	470.23
679.70	467.47
680.04	464.67
680.37	461.83
680.71	459.05
681.05	456.48
681.39	453.73
681.73	451.10
682.06	448.61
682.40	446.08
682.74	443.61
683.08	441.04
683.42	438.49
683.75	436.04
684.09	433.54
684.43	431.13
684.77	428.68
685.10	426.33
685.44	424.05
685.78	421.75
686.12	419.51
686.45	417.23
686.79	414.94
687.13	412.82
687.46	410.65
687.80	408.51
688.14	406.31
688.48	404.30
688.81	402.04
689.15	399.87
689.49	397.70
689.82	395.61
690.16	393.53
690.50	391.53
690.83	389.56
691.17	387.56
691.51	385.64
691.84	383.79
692.18	381.86
692.52	379.85
692.85	377.96
693.19	376.05
693.52	374.23
693.86	372.42
694.20	370.62
694.53	368.83
694.87	367.01
695.21	365.26
695.54	363.43
695.88	361.72
696.21	360.03
696.55	358.37
696.88	356.70
697.22	355.07
697.56	353.49
697.89	351.88
698.23	350.26
698.56	348.63
698.90	347.02
699.23	345.42
699.57	343.92
699.90	342.37
700.24	340.89
700.58	339.41
700.91	337.94
701.25	336.51
701.58	335.14
701.92	333.79
702.25	332.41
702.59	331.03
702.92	329.71
703.26	328.43
703.59	327.14
703.93	325.98
704.26	324.76
704.60	323.47
704.93	322.20
705.26	321.00
705.60	319.88
705.93	318.76
706.27	317.72
706.60	316.65
706.94	315.59
707.27	314.42
707.61	313.37
707.94	312.37
708.27	311.30
708.61	310.28
708.94	309.26
709.28	308.33
709.61	307.40
709.94	306.51
710.28	305.51
710.61	304.57
710.95	303.51
711.28	302.60
711.61	301.67
711.95	300.77
712.28	299.84
712.61	298.86
712.95	297.94
713.28	297.07
713.61	296.16
713.95	295.32
714.28	294.57
714.61	293.71
714.95	292.90
715.28	292.07
715.61	291.20
715.95	290.37
716.28	289.52
716.61	288.71
716.95	287.89
717.28	287.18
717.61	286.41
717.94	285.70
718.28	284.87
718.61	284.19
718.94	283.51
719.27	282.84
719.61	282.24
719.94	281.59
720.27	280.92
720.60	280.31
720.94	279.65
721.27	279.02
721.60	278.45
721.93	277.83
722.27	277.31
722.60	276.77
722.93	276.19
723.26	275.67
723.59	275.13
723.93	274.58
724.26	274.02
724.59	273.48
724.92	272.90
725.25	272.43
725.59	271.92
725.92	271.42
726.25	270.93
726.58	270.42
726.91	269.96
727.24	269.47
727.57	268.98
727.91	268.51
728.24	268.04
728.57	267.54
728.90	267.06
729.23	266.55
729.56	266.08
729.89	265.65
730.22	265.13
730.55	264.67
730.89	264.21
731.22	263.78
731.55	263.34
731.88	262.92
732.21	262.48
732.54	262.00
732.87	261.59
733.20	261.17
733.53	260.79
733.86	260.35
734.19	259.98
734.52	259.60
734.85	259.26
735.18	258.87
735.51	258.51
735.84	258.16
736.17	257.78
736.50	257.39
736.83	257.13
737.16	256.78
737.49	256.42
737.82	256.06
738.15	255.69
738.48	255.35
738.81	255.06
739.14	254.70
739.47	254.39
739.80	254.07
740.13	253.74
740.46	253.37
740.79	253.08
741.12	252.74
741.45	252.44
741.78	252.10
742.11	251.77
742.44	251.44
742.77	251.14
743.10	250.85
743.43	250.52
743.75	250.13
744.08	249.96
744.41	249.69
744.74	249.44
745.07	249.15
745.40	248.92
745.73	248.67
746.06	248.42
746.39	248.14
746.71	247.86
747.04	247.60
747.37	247.36
747.70	247.08
748.03	246.85
748.36	246.58
748.68	246.36
749.01	246.11
749.34	245.89
749.67	245.64
750.00	245.41
750.33	245.31
750.65	245.13
750.98	244.79
751.31	244.60
751.64	244.39
751.97	244.24
752.29	244.03
752.62	243.77
752.95	243.60
753.28	243.40
753.60	243.22
753.93	243.07
754.26	242.90
754.59	242.68
754.91	242.48
755.24	242.32
755.57	242.16
755.90	242.01
756.22	241.85
756.55	241.69
756.88	241.54
757.20	241.29
757.53	241.08
757.86	240.95
758.19	240.77
758.51	240.60
758.84	240.43
759.17	240.28
759.49	240.17
759.82	240.06
760.15	239.94
760.47	239.81
760.80	239.61
761.13	239.50
761.45	239.39
761.78	239.22
762.11	239.07
762.43	238.90
762.76	238.76
763.08	238.65
763.41	238.50
763.74	238.37
764.06	238.26
764.39	238.15
764.71	238.01
765.04	237.91
765.37	237.77
765.69	237.61
766.02	237.48
766.34	237.32
766.67	237.16
767.00	237.08
767.32	237.01
767.65	237.00
767.97	236.90
768.30	236.78
768.62	236.69
768.95	236.55
769.27	236.47
769.60	236.38
769.92	236.24
770.25	236.14
770.57	236.00
770.90	235.88
771.22	235.76
771.55	235.65
771.87	235.53
772.20	235.41
772.52	235.42
772.85	235.44
773.17	235.38
773.50	235.25
773.82	235.12
774.15	234.94
774.47	234.76
774.80	234.63
775.12	234.55
775.45	234.45
775.77	234.38
776.09	234.22
776.42	234.12
776.74	234.07
777.07	233.95
777.39	233.86
777.72	233.77
778.04	233.71
778.36	233.62
778.69	233.55
779.01	233.52
779.33	233.33
779.66	233.14
779.98	233.06
780.31	232.97
780.63	232.93
780.95	232.89
781.28	232.80
781.60	232.72
781.92	232.62
782.25	232.57
782.57	232.48
782.89	232.45
783.22	232.39
783.54	232.26
783.86	232.21
784.19	232.14
784.51	232.10
784.83	231.97
785.16	231.90
785.48	231.84
785.80	231.74
786.12	231.67
786.45	231.59
786.77	231.51
787.09	231.48
