SpectraSuite Data File
++++++++++++++++++++++++++++++++++++
Date: Fri Feb 01 18:05:23 EST 2013
User: group
Dark Spectrum Present: No
Reference Spectrum Present: No
Number of Sampled Component Spectra: 1
Spectrometers: USB2E7196
Integration Time (usec): 35000 (USB2E7196)
Spectra Averaged: 100 (USB2E7196)
Boxcar Smoothing: 10 (USB2E7196)
Correct for Electrical Dark: No (USB2E7196)
Strobe/Lamp Enabled: No (USB2E7196)
Correct for Detector Non-linearity: No (USB2E7196)
Correct for Stray Light: No (USB2E7196)
Number of Pixels in Processed Spectrum: 2048
>>>>>Begin Processed Spectral Data<<<<<
339.09	0.00
339.48	212.86
339.86	214.68
340.24	216.00
340.63	217.56
341.01	219.99
341.39	220.02
341.78	221.03
342.16	222.41
342.54	223.59
342.93	211.47
343.31	222.16
343.69	222.72
344.07	223.19
344.46	223.63
344.84	224.01
345.22	224.27
345.60	224.52
345.99	224.74
346.37	224.85
346.75	224.92
347.13	224.98
347.52	225.02
347.90	225.09
348.28	225.13
348.66	225.15
349.05	225.12
349.43	225.18
349.81	225.25
350.19	225.30
350.57	225.38
350.96	225.41
351.34	225.51
351.72	225.59
352.10	225.68
352.48	225.73
352.87	225.78
353.25	225.83
353.63	225.91
354.01	225.98
354.39	226.10
354.77	226.16
355.15	226.30
355.54	226.39
355.92	226.44
356.30	226.49
356.68	226.66
357.06	226.76
357.44	226.79
357.82	226.84
358.20	226.93
358.58	226.98
358.97	227.03
359.35	227.10
359.73	227.15
360.11	227.20
360.49	227.25
360.87	227.27
361.25	227.30
361.63	227.36
362.01	227.35
362.39	227.32
362.77	227.40
363.15	227.42
363.53	227.42
363.91	227.46
364.29	227.47
364.67	227.38
365.05	227.35
365.43	227.38
365.81	227.39
366.19	227.44
366.57	227.49
366.95	227.49
367.33	227.47
367.71	227.47
368.09	227.47
368.47	227.43
368.85	227.41
369.23	227.44
369.61	227.37
369.99	227.43
370.37	227.44
370.75	227.46
371.13	227.41
371.51	227.37
371.89	227.34
372.27	227.33
372.65	227.29
373.03	227.26
373.41	227.20
373.78	227.15
374.16	227.02
374.54	226.91
374.92	226.85
375.30	226.82
375.68	226.73
376.06	226.68
376.44	226.67
376.82	226.63
377.19	226.56
377.57	226.50
377.95	226.42
378.33	226.35
378.71	226.21
379.09	226.21
379.47	226.18
379.84	226.11
380.22	226.04
380.60	225.99
380.98	225.93
381.36	225.87
381.73	225.77
382.11	225.75
382.49	225.73
382.87	225.66
383.25	225.59
383.62	225.64
384.00	225.56
384.38	225.48
384.76	225.44
385.13	225.43
385.51	225.39
385.89	225.32
386.27	225.30
386.64	225.32
387.02	225.22
387.40	225.15
387.78	225.13
388.15	225.10
388.53	225.08
388.91	225.07
389.29	225.07
389.66	225.10
390.04	225.11
390.42	225.11
390.79	225.10
391.17	225.09
391.55	225.00
391.92	225.04
392.30	225.06
392.68	225.05
393.05	225.04
393.43	225.06
393.81	225.09
394.18	225.05
394.56	225.04
394.94	225.07
395.31	225.07
395.69	225.09
396.06	225.14
396.44	225.18
396.82	225.19
397.19	225.26
397.57	225.26
397.95	225.30
398.32	225.31
398.70	225.40
399.07	225.48
399.45	225.53
399.82	225.53
400.20	225.57
400.58	225.63
400.95	225.67
401.33	225.74
401.70	225.87
402.08	226.00
402.45	226.08
402.83	226.20
403.20	226.33
403.58	226.44
403.95	226.55
404.33	226.64
404.71	226.77
405.08	226.93
405.46	227.09
405.83	227.25
406.21	227.40
406.58	227.56
406.96	227.75
407.33	227.95
407.70	228.21
408.08	228.53
408.45	228.77
408.83	229.05
409.20	229.33
409.58	229.58
409.95	229.88
410.33	230.20
410.70	230.50
411.08	230.87
411.45	231.26
411.82	231.67
412.20	232.13
412.57	232.68
412.95	233.08
413.32	233.61
413.69	234.14
414.07	234.71
414.44	235.32
414.82	235.91
415.19	236.61
415.56	237.32
415.94	238.07
416.31	238.94
416.68	239.76
417.06	240.72
417.43	241.61
417.81	242.66
418.18	243.71
418.55	244.88
418.93	246.07
419.30	247.29
419.67	248.55
420.04	249.86
420.42	251.17
420.79	252.71
421.16	254.25
421.54	255.84
421.91	257.49
422.28	259.20
422.66	261.04
423.03	262.80
423.40	264.61
423.77	266.50
424.15	268.48
424.52	270.52
424.89	272.68
425.26	274.82
425.64	276.77
426.01	278.97
426.38	281.16
426.75	283.45
427.13	285.77
427.50	288.21
427.87	290.74
428.24	293.32
428.61	295.73
428.99	298.39
429.36	301.27
429.73	304.13
430.10	306.87
430.47	309.68
430.85	312.65
431.22	315.70
431.59	318.88
431.96	321.89
432.33	325.29
432.70	328.55
433.08	332.32
433.45	335.89
433.82	339.41
434.19	343.36
434.56	347.16
434.93	350.81
435.30	354.37
435.68	358.32
436.05	362.18
436.42	366.01
436.79	369.44
437.16	373.12
437.53	376.98
437.90	380.82
438.27	384.56
438.64	388.40
439.01	391.96
439.38	395.05
439.75	398.06
440.13	401.45
440.50	404.58
440.87	407.15
441.24	409.84
441.61	412.77
441.98	414.79
442.35	417.25
442.72	419.78
443.09	422.31
443.46	423.68
443.83	424.50
444.20	425.19
444.57	426.36
444.94	426.80
445.31	427.26
445.68	427.69
446.05	427.78
446.42	427.25
446.79	426.69
447.16	426.12
447.53	425.64
447.90	424.04
448.27	422.56
448.64	420.39
449.01	418.86
449.37	416.21
449.74	413.63
450.11	410.54
450.48	407.16
450.85	403.69
451.22	400.77
451.59	397.98
451.96	395.38
452.33	391.82
452.70	388.60
453.07	384.72
453.43	380.89
453.80	377.15
454.17	373.52
454.54	370.03
454.91	366.30
455.28	362.70
455.65	359.32
456.02	355.89
456.38	352.95
456.75	349.33
457.12	346.22
457.49	343.21
457.86	340.26
458.23	337.71
458.59	334.87
458.96	331.99
459.33	329.46
459.70	326.87
460.07	324.81
460.43	322.42
460.80	320.20
461.17	318.13
461.54	316.02
461.91	314.03
462.27	312.06
462.64	310.37
463.01	308.49
463.38	306.73
463.74	304.91
464.11	303.28
464.48	301.84
464.85	300.33
465.21	299.09
465.58	297.85
465.95	296.35
466.32	295.12
466.68	293.87
467.05	292.64
467.42	291.40
467.78	290.12
468.15	288.92
468.52	288.02
468.88	286.87
469.25	285.82
469.62	284.93
469.98	283.99
470.35	283.07
470.72	282.23
471.08	281.28
471.45	280.53
471.82	279.81
472.18	278.99
472.55	278.39
472.92	277.68
473.28	277.01
473.65	276.40
474.02	275.75
474.38	275.21
474.75	274.70
475.11	274.22
475.48	273.80
475.85	273.43
476.21	273.06
476.58	272.77
476.94	272.55
477.31	272.30
477.67	272.07
478.04	271.89
478.41	271.77
478.77	271.74
479.14	271.58
479.50	271.51
479.87	271.49
480.23	271.50
480.60	271.52
480.96	271.56
481.33	271.71
481.69	271.89
482.06	272.08
482.42	272.26
482.79	272.48
483.15	272.78
483.52	273.16
483.88	273.45
484.25	273.82
484.61	274.20
484.98	274.64
485.34	275.18
485.71	275.75
486.07	276.33
486.44	276.90
486.80	277.60
487.17	278.33
487.53	279.17
487.90	280.07
488.26	281.04
488.62	282.09
488.99	283.10
489.35	284.19
489.72	285.38
490.08	286.65
490.44	287.92
490.81	289.29
491.17	290.72
491.54	292.30
491.90	293.88
492.26	295.64
492.63	297.48
492.99	299.37
493.36	301.38
493.72	303.55
494.08	305.77
494.45	308.14
494.81	310.63
495.17	313.21
495.54	315.92
495.90	318.78
496.26	321.72
496.63	324.81
496.99	328.12
497.35	331.53
497.72	335.18
498.08	338.93
498.44	342.82
498.80	346.95
499.17	351.21
499.53	355.66
499.89	360.30
500.26	365.06
500.62	370.02
500.98	375.30
501.34	380.63
501.71	386.30
502.07	392.08
502.43	398.10
502.79	404.28
503.16	410.74
503.52	417.34
503.88	424.13
504.24	431.26
504.60	438.57
504.97	446.16
505.33	453.87
505.69	462.09
506.05	470.35
506.41	478.75
506.78	487.45
507.14	496.45
507.50	505.69
507.86	515.30
508.22	525.11
508.59	534.95
508.95	545.22
509.31	555.69
509.67	566.53
510.03	577.52
510.39	588.85
510.75	600.37
511.12	612.09
511.48	624.20
511.84	636.41
512.20	648.79
512.56	661.66
512.92	674.88
513.28	688.14
513.64	701.58
514.00	715.28
514.37	729.26
514.73	743.32
515.09	757.37
515.45	771.71
515.81	786.39
516.17	801.40
516.53	816.79
516.89	832.15
517.25	847.52
517.61	863.20
517.97	878.89
518.33	894.52
518.69	910.60
519.05	926.92
519.41	943.50
519.77	960.39
520.13	977.31
520.49	993.98
520.85	1010.88
521.21	1027.96
521.57	1045.79
521.93	1063.09
522.29	1080.99
522.65	1098.97
523.01	1116.77
523.37	1134.38
523.73	1152.20
524.09	1169.79
524.45	1187.86
524.81	1206.13
525.17	1224.54
525.53	1243.29
525.89	1261.93
526.25	1280.66
526.61	1298.95
526.97	1317.47
527.33	1335.85
527.68	1354.14
528.04	1372.41
528.40	1390.86
528.76	1409.91
529.12	1428.47
529.48	1447.33
529.84	1465.20
530.20	1483.81
530.56	1502.89
530.91	1522.39
531.27	1541.33
531.63	1559.81
531.99	1578.42
532.35	1596.46
532.71	1614.48
533.07	1632.73
533.42	1650.96
533.78	1669.07
534.14	1687.46
534.50	1705.03
534.86	1723.13
535.21	1740.62
535.57	1758.91
535.93	1776.60
536.29	1793.76
536.65	1810.92
537.00	1827.84
537.36	1845.51
537.72	1862.12
538.08	1878.76
538.44	1894.72
538.79	1910.87
539.15	1926.85
539.51	1942.66
539.87	1959.35
540.22	1975.37
540.58	1991.47
540.94	2006.90
541.29	2022.08
541.65	2037.14
542.01	2052.59
542.37	2067.10
542.72	2081.77
543.08	2095.71
543.44	2110.46
543.79	2123.81
544.15	2136.99
544.51	2151.08
544.87	2164.39
545.22	2177.61
545.58	2190.09
545.94	2202.17
546.29	2214.18
546.65	2226.34
547.01	2238.00
547.36	2248.94
547.72	2259.62
548.07	2269.60
548.43	2279.99
548.79	2290.06
549.14	2299.60
549.50	2308.98
549.86	2318.79
550.21	2328.12
550.57	2337.42
550.92	2345.98
551.28	2355.02
551.64	2364.26
551.99	2372.73
552.35	2380.91
552.70	2388.97
553.06	2397.04
553.41	2405.28
553.77	2413.24
554.13	2421.15
554.48	2429.24
554.84	2436.64
555.19	2443.63
555.55	2450.66
555.90	2456.87
556.26	2463.64
556.61	2470.09
556.97	2476.18
557.32	2482.02
557.68	2487.80
558.03	2493.82
558.39	2499.04
558.74	2505.44
559.10	2510.89
559.45	2516.03
559.81	2521.77
560.16	2527.23
560.52	2531.79
560.87	2536.62
561.23	2540.65
561.58	2544.96
561.94	2548.78
562.29	2552.44
562.64	2556.46
563.00	2560.33
563.35	2565.31
563.71	2569.75
564.06	2574.30
564.42	2578.47
564.77	2582.32
565.12	2586.03
565.48	2589.17
565.83	2592.39
566.19	2594.86
566.54	2596.69
566.89	2598.87
567.25	2600.58
567.60	2602.96
567.96	2605.83
568.31	2607.83
568.66	2610.19
569.02	2611.85
569.37	2613.08
569.72	2614.90
570.08	2616.12
570.43	2617.09
570.78	2617.15
571.14	2616.30
571.49	2615.53
571.84	2615.90
572.20	2615.49
572.55	2614.88
572.90	2613.53
573.26	2612.65
573.61	2611.31
573.96	2610.12
574.31	2607.39
574.67	2604.72
575.02	2601.24
575.37	2597.95
575.72	2594.23
576.08	2590.81
576.43	2587.63
576.78	2584.14
577.13	2581.00
577.49	2577.88
577.84	2574.27
578.19	2570.61
578.54	2567.07
578.90	2563.01
579.25	2557.15
579.60	2551.89
579.95	2546.66
580.30	2541.60
580.66	2536.19
581.01	2530.94
581.36	2525.72
581.71	2521.39
582.06	2516.54
582.42	2511.71
582.77	2506.11
583.12	2501.29
583.47	2496.29
583.82	2490.93
584.17	2485.27
584.53	2479.26
584.88	2473.08
585.23	2466.98
585.58	2460.84
585.93	2454.59
586.28	2449.14
586.63	2443.64
586.98	2437.94
587.34	2432.70
587.69	2427.34
588.04	2421.56
588.39	2415.28
588.74	2408.10
589.09	2401.30
589.44	2393.80
589.79	2387.26
590.14	2380.94
590.49	2373.54
590.84	2366.25
591.19	2359.37
591.54	2351.91
591.89	2343.81
592.25	2336.14
592.60	2327.85
592.95	2319.36
593.30	2311.09
593.65	2302.55
594.00	2294.48
594.35	2286.28
594.70	2277.16
595.05	2269.03
595.40	2260.59
595.75	2252.06
596.10	2244.94
596.45	2237.27
596.80	2230.16
597.15	2222.47
597.50	2214.55
597.85	2207.02
598.19	2199.49
598.54	2191.44
598.89	2183.86
599.24	2177.02
599.59	2169.50
599.94	2162.44
600.29	2155.17
600.64	2147.56
600.99	2138.92
601.34	2131.04
601.69	2123.06
602.04	2115.17
602.39	2106.62
602.74	2098.64
603.08	2090.78
603.43	2082.95
603.78	2074.23
604.13	2065.88
604.48	2057.35
604.83	2049.24
605.18	2041.22
605.53	2031.98
605.87	2022.61
606.22	2014.18
606.57	2004.75
606.92	1995.94
607.27	1987.37
607.62	1979.19
607.96	1970.79
608.31	1963.07
608.66	1954.11
609.01	1945.20
609.36	1936.19
609.70	1926.73
610.05	1917.40
610.40	1908.34
610.75	1898.53
611.10	1889.68
611.44	1879.73
611.79	1870.28
612.14	1860.07
612.49	1849.24
612.83	1839.15
613.18	1829.49
613.53	1819.83
613.88	1809.71
614.22	1799.97
614.57	1789.86
614.92	1780.35
615.27	1771.46
615.61	1761.58
615.96	1752.15
616.31	1743.07
616.65	1734.36
617.00	1725.32
617.35	1716.20
617.70	1706.39
618.04	1696.34
618.39	1686.51
618.74	1677.51
619.08	1667.72
619.43	1658.64
619.78	1650.47
620.12	1642.07
620.47	1633.29
620.82	1623.63
621.16	1614.86
621.51	1605.92
621.85	1597.02
622.20	1586.99
622.55	1577.09
622.89	1567.86
623.24	1558.84
623.59	1549.99
623.93	1541.13
624.28	1532.70
624.62	1523.87
624.97	1515.38
625.32	1507.28
625.66	1498.96
626.01	1490.48
626.35	1481.72
626.70	1472.56
627.04	1463.42
627.39	1454.17
627.73	1445.34
628.08	1437.20
628.43	1428.79
628.77	1420.08
629.12	1411.05
629.46	1402.61
629.81	1393.75
630.15	1385.15
630.50	1376.32
630.84	1366.81
631.19	1357.43
631.53	1348.52
631.88	1339.49
632.22	1330.58
632.57	1321.91
632.91	1313.08
633.26	1304.40
633.60	1295.59
633.95	1287.18
634.29	1278.87
634.64	1271.04
634.98	1262.35
635.32	1253.90
635.67	1245.88
636.01	1238.06
636.36	1230.10
636.70	1222.39
637.05	1214.68
637.39	1207.06
637.73	1199.45
638.08	1192.42
638.42	1185.33
638.77	1177.80
639.11	1170.17
639.45	1162.66
639.80	1155.00
640.14	1147.44
640.49	1139.79
640.83	1132.47
641.17	1125.20
641.52	1117.78
641.86	1110.17
642.20	1103.27
642.55	1095.83
642.89	1088.43
643.23	1080.74
643.58	1073.98
643.92	1066.79
644.26	1059.72
644.61	1052.69
644.95	1045.66
645.29	1038.05
645.64	1030.22
645.98	1022.80
646.32	1015.89
646.66	1008.91
647.01	1002.16
647.35	995.52
647.69	988.68
648.04	982.17
648.38	975.42
648.72	968.43
649.06	961.42
649.41	954.64
649.75	947.78
650.09	940.82
650.43	934.14
650.78	926.95
651.12	920.02
651.46	913.38
651.80	906.66
652.14	900.38
652.49	894.10
652.83	888.12
653.17	881.54
653.51	874.88
653.85	868.51
654.20	861.92
654.54	854.96
654.88	848.27
655.22	841.52
655.56	834.94
655.90	828.58
656.25	822.49
656.59	816.18
656.93	810.31
657.27	804.24
657.61	797.87
657.95	791.97
658.29	786.03
658.64	779.86
658.98	773.79
659.32	767.50
659.66	761.41
660.00	755.22
660.34	749.44
660.68	743.76
661.02	737.91
661.36	732.41
661.70	727.16
662.05	722.10
662.39	717.02
662.73	711.87
663.07	706.85
663.41	701.69
663.75	696.60
664.09	691.28
664.43	686.25
664.77	681.61
665.11	676.73
665.45	671.91
665.79	667.23
666.13	662.36
666.47	657.59
666.81	652.82
667.15	648.08
667.49	643.58
667.83	639.19
668.17	634.65
668.51	629.92
668.85	625.26
669.19	620.83
669.53	616.45
669.87	611.92
670.21	607.62
670.55	603.34
670.89	599.25
671.23	595.26
671.57	591.14
671.91	586.95
672.25	582.78
672.58	578.75
672.92	574.73
673.26	571.10
673.60	567.44
673.94	563.86
674.28	560.44
674.62	557.02
674.96	553.38
675.30	550.04
675.64	546.65
675.97	543.40
676.31	540.03
676.65	536.59
676.99	533.45
677.33	530.15
677.67	526.93
678.01	523.46
678.34	520.02
678.68	516.76
679.02	513.51
679.36	510.36
679.70	507.23
680.04	504.08
680.37	500.73
680.71	497.50
681.05	494.45
681.39	491.36
681.73	488.26
682.06	485.36
682.40	482.42
682.74	479.57
683.08	476.62
683.42	473.65
683.75	470.76
684.09	467.80
684.43	464.90
684.77	462.05
685.10	459.28
685.44	456.59
685.78	453.91
686.12	451.26
686.45	448.58
686.79	445.87
687.13	443.27
687.46	440.74
687.80	438.21
688.14	435.62
688.48	433.17
688.81	430.53
689.15	427.99
689.49	425.43
689.82	422.95
690.16	420.53
690.50	418.24
690.83	415.97
691.17	413.65
691.51	411.43
691.84	409.32
692.18	407.14
692.52	404.86
692.85	402.55
693.19	400.34
693.52	398.21
693.86	396.06
694.20	393.97
694.53	391.85
694.87	389.69
695.21	387.58
695.54	385.47
695.88	383.46
696.21	381.46
696.55	379.54
696.88	377.57
697.22	375.64
697.56	373.77
697.89	371.83
698.23	370.00
698.56	368.14
698.90	366.24
699.23	364.27
699.57	362.47
699.90	360.65
700.24	358.90
700.58	357.09
700.91	355.41
701.25	353.75
701.58	352.11
701.92	350.55
702.25	348.97
702.59	347.39
702.92	345.84
703.26	344.31
703.59	342.79
703.93	341.43
704.26	340.01
704.60	338.48
704.93	337.01
705.26	335.51
705.60	334.14
705.93	332.76
706.27	331.58
706.60	330.35
706.94	329.08
707.27	327.71
707.61	326.49
707.94	325.29
708.27	324.03
708.61	322.83
708.94	321.67
709.28	320.50
709.61	319.36
709.94	318.26
710.28	317.04
710.61	315.87
710.95	314.57
711.28	313.51
711.61	312.41
711.95	311.34
712.28	310.24
712.61	309.08
712.95	307.96
713.28	306.89
713.61	305.85
713.95	304.89
714.28	303.94
714.61	302.91
714.95	301.90
715.28	300.91
715.61	299.87
715.95	298.85
716.28	297.88
716.61	296.86
716.95	295.91
717.28	295.05
717.61	294.19
717.94	293.34
718.28	292.35
718.61	291.47
718.94	290.64
719.27	289.89
719.61	289.16
719.94	288.44
720.27	287.64
720.60	286.82
720.94	286.01
721.27	285.28
721.60	284.62
721.93	283.89
722.27	283.17
722.60	282.56
722.93	281.87
723.26	281.23
723.59	280.58
723.93	279.93
724.26	279.31
724.59	278.65
724.92	278.06
725.25	277.52
725.59	276.93
725.92	276.37
726.25	275.76
726.58	275.17
726.91	274.59
727.24	274.03
727.57	273.49
727.91	272.95
728.24	272.42
728.57	271.83
728.90	271.32
729.23	270.79
729.56	270.23
729.89	269.70
730.22	269.14
730.55	268.62
730.89	268.12
731.22	267.62
731.55	267.11
731.88	266.59
732.21	266.08
732.54	265.58
732.87	265.06
733.20	264.60
733.53	264.15
733.86	263.70
734.19	263.26
734.52	262.80
734.85	262.45
735.18	261.97
735.51	261.61
735.84	261.16
736.17	260.75
736.50	260.34
736.83	260.06
737.16	259.69
737.49	259.32
737.82	258.90
738.15	258.49
738.48	258.11
738.81	257.74
739.14	257.34
739.47	256.95
739.80	256.62
740.13	256.23
740.46	255.82
740.79	255.42
741.12	255.04
741.45	254.66
741.78	254.23
742.11	253.91
742.44	253.49
742.77	253.17
743.10	252.80
743.43	252.45
743.75	252.01
744.08	251.81
744.41	251.48
744.74	251.20
745.07	250.90
745.40	250.59
745.73	250.31
746.06	250.02
746.39	249.75
746.71	249.38
747.04	249.11
747.37	248.78
747.70	248.52
748.03	248.22
748.36	247.95
748.68	247.70
749.01	247.38
749.34	247.15
749.67	246.88
750.00	246.65
750.33	246.45
750.65	246.18
750.98	245.78
751.31	245.52
751.64	245.26
751.97	245.05
752.29	244.78
752.62	244.48
752.95	244.23
753.28	243.96
753.60	243.75
753.93	243.53
754.26	243.36
754.59	243.10
754.91	242.88
755.24	242.68
755.57	242.43
755.90	242.23
756.22	241.99
756.55	241.78
756.88	241.51
757.20	241.25
757.53	241.04
757.86	240.83
758.19	240.66
758.51	240.45
758.84	240.21
759.17	240.01
759.49	239.82
759.82	239.70
760.15	239.56
760.47	239.41
760.80	239.19
761.13	239.00
761.45	238.85
761.78	238.68
762.11	238.50
762.43	238.33
762.76	238.19
763.08	238.03
763.41	237.85
763.74	237.74
764.06	237.58
764.39	237.43
764.71	237.28
765.04	237.08
765.37	236.92
765.69	236.78
766.02	236.64
766.34	236.50
766.67	236.29
767.00	236.12
767.32	236.00
767.65	235.95
767.97	235.82
768.30	235.66
768.62	235.52
768.95	235.40
769.27	235.27
769.60	235.12
769.92	234.95
770.25	234.83
770.57	234.68
770.90	234.54
771.22	234.42
771.55	234.30
771.87	234.22
772.20	234.10
772.52	234.08
772.85	234.10
773.17	233.99
773.50	233.86
773.82	233.77
774.15	233.61
774.47	233.42
774.80	233.32
775.12	233.20
775.45	233.13
775.77	233.03
776.09	232.95
776.42	232.85
776.74	232.81
777.07	232.69
777.39	232.59
777.72	232.49
778.04	232.39
778.36	232.30
778.69	232.21
779.01	232.15
779.33	231.97
779.66	231.77
779.98	231.70
780.31	231.67
780.63	231.62
780.95	231.58
781.28	231.50
781.60	231.41
781.92	231.37
782.25	231.27
782.57	231.19
782.89	231.09
783.22	231.01
783.54	230.92
783.86	230.86
784.19	230.83
784.51	230.82
784.83	230.76
785.16	230.69
785.48	230.66
785.80	230.60
786.12	230.53
786.45	230.46
