SpectraSuite Data File
++++++++++++++++++++++++++++++++++++
Date: Fri Feb 01 17:20:41 EST 2013
User: group
Dark Spectrum Present: No
Reference Spectrum Present: No
Number of Sampled Component Spectra: 1
Spectrometers: USB2E7196
Integration Time (usec): 35000 (USB2E7196)
Spectra Averaged: 100 (USB2E7196)
Boxcar Smoothing: 10 (USB2E7196)
Correct for Electrical Dark: No (USB2E7196)
Strobe/Lamp Enabled: No (USB2E7196)
Correct for Detector Non-linearity: No (USB2E7196)
Correct for Stray Light: No (USB2E7196)
Number of Pixels in Processed Spectrum: 2048
>>>>>Begin Processed Spectral Data<<<<<
339.09	0.00
339.48	212.74
339.86	214.33
340.24	215.72
340.63	216.55
341.01	219.32
341.39	220.15
341.78	221.41
342.16	222.77
342.54	222.99
342.93	211.27
343.31	221.95
343.69	222.50
344.07	222.99
344.46	223.41
344.84	223.81
345.22	224.07
345.60	224.31
345.99	224.47
346.37	224.57
346.75	224.66
347.13	224.70
347.52	224.78
347.90	224.87
348.28	224.89
348.66	224.95
349.05	224.93
349.43	224.98
349.81	225.00
350.19	225.08
350.57	225.15
350.96	225.20
351.34	225.29
351.72	225.39
352.10	225.47
352.48	225.57
352.87	225.61
353.25	225.68
353.63	225.75
354.01	225.83
354.39	225.93
354.77	226.05
355.15	226.15
355.54	226.19
355.92	226.26
356.30	226.36
356.68	226.52
357.06	226.58
357.44	226.63
357.82	226.76
358.20	226.83
358.58	226.88
358.97	226.97
359.35	227.04
359.73	227.09
360.11	227.14
360.49	227.18
360.87	227.25
361.25	227.32
361.63	227.40
362.01	227.46
362.39	227.47
362.77	227.49
363.15	227.53
363.53	227.55
363.91	227.57
364.29	227.57
364.67	227.48
365.05	227.54
365.43	227.56
365.81	227.56
366.19	227.60
366.57	227.66
366.95	227.65
367.33	227.62
367.71	227.63
368.09	227.64
368.47	227.61
368.85	227.61
369.23	227.61
369.61	227.55
369.99	227.56
370.37	227.58
370.75	227.58
371.13	227.56
371.51	227.51
371.89	227.48
372.27	227.46
372.65	227.39
373.03	227.33
373.41	227.28
373.78	227.21
374.16	227.09
374.54	226.99
374.92	226.90
375.30	226.85
375.68	226.75
376.06	226.69
376.44	226.64
376.82	226.58
377.19	226.49
377.57	226.44
377.95	226.32
378.33	226.21
378.71	226.08
379.09	226.02
379.47	225.95
379.84	225.88
380.22	225.80
380.60	225.74
380.98	225.69
381.36	225.63
381.73	225.54
382.11	225.51
382.49	225.47
382.87	225.44
383.25	225.40
383.62	225.48
384.00	225.39
384.38	225.34
384.76	225.30
385.13	225.28
385.51	225.20
385.89	225.15
386.27	225.12
386.64	225.09
387.02	225.01
387.40	224.97
387.78	224.94
388.15	224.92
388.53	224.87
388.91	224.83
389.29	224.80
389.66	224.79
390.04	224.75
390.42	224.71
390.79	224.70
391.17	224.65
391.55	224.50
391.92	224.48
392.30	224.48
392.68	224.46
393.05	224.45
393.43	224.49
393.81	224.49
394.18	224.48
394.56	224.48
394.94	224.52
395.31	224.55
395.69	224.60
396.06	224.61
396.44	224.69
396.82	224.72
397.19	224.80
397.57	224.81
397.95	224.89
398.32	224.90
398.70	224.93
399.07	225.06
399.45	225.15
399.82	225.22
400.20	225.26
400.58	225.34
400.95	225.35
401.33	225.40
401.70	225.55
402.08	225.65
402.45	225.73
402.83	225.85
403.20	225.92
403.58	225.99
403.95	226.07
404.33	226.17
404.71	226.27
405.08	226.45
405.46	226.59
405.83	226.67
406.21	226.83
406.58	226.99
406.96	227.11
407.33	227.24
407.70	227.44
408.08	227.70
408.45	227.92
408.83	228.13
409.20	228.37
409.58	228.52
409.95	228.77
410.33	229.05
410.70	229.28
411.08	229.57
411.45	229.88
411.82	230.22
412.20	230.58
412.57	231.01
412.95	231.29
413.32	231.68
413.69	232.10
414.07	232.54
414.44	233.01
414.82	233.50
415.19	234.10
415.56	234.63
415.94	235.19
416.31	235.83
416.68	236.48
417.06	237.22
417.43	237.94
417.81	238.73
418.18	239.55
418.55	240.44
418.93	241.34
419.30	242.27
419.67	243.27
420.04	244.23
420.42	245.26
420.79	246.51
421.16	247.71
421.54	248.97
421.91	250.25
422.28	251.56
422.66	252.92
423.03	254.26
423.40	255.70
423.77	257.17
424.15	258.60
424.52	260.15
424.89	261.83
425.26	263.44
425.64	264.93
426.01	266.59
426.38	268.30
426.75	270.05
427.13	271.86
427.50	273.70
427.87	275.69
428.24	277.62
428.61	279.45
428.99	281.49
429.36	283.67
429.73	285.80
430.10	287.87
430.47	290.03
430.85	292.22
431.22	294.52
431.59	296.98
431.96	299.35
432.33	301.93
432.70	304.35
433.08	307.24
433.45	309.96
433.82	312.62
434.19	315.62
434.56	318.52
434.93	321.25
435.30	323.97
435.68	326.95
436.05	329.82
436.42	332.68
436.79	335.29
437.16	338.05
437.53	340.92
437.90	343.81
438.27	346.63
438.64	349.53
439.01	352.19
439.38	354.48
439.75	356.70
440.13	359.29
440.50	361.77
440.87	363.73
441.24	365.83
441.61	368.08
441.98	369.58
442.35	371.46
442.72	373.35
443.09	375.27
443.46	376.32
443.83	376.99
444.20	377.50
444.57	378.37
444.94	378.69
445.31	379.11
445.68	379.46
446.05	379.58
446.42	379.19
446.79	378.80
447.16	378.38
447.53	378.09
447.90	376.92
448.27	375.67
448.64	374.03
449.01	372.77
449.37	370.73
449.74	368.83
450.11	366.49
450.48	363.98
450.85	361.36
451.22	359.11
451.59	357.05
451.96	355.07
452.33	352.33
452.70	349.91
453.07	347.02
453.43	344.07
453.80	341.21
454.17	338.44
454.54	335.80
454.91	332.99
455.28	330.22
455.65	327.63
456.02	325.10
456.38	322.87
456.75	320.15
457.12	317.86
457.49	315.53
457.86	313.27
458.23	311.36
458.59	309.19
458.96	307.02
459.33	305.07
459.70	303.12
460.07	301.60
460.43	299.81
460.80	298.10
461.17	296.59
461.54	295.02
461.91	293.57
462.27	292.08
462.64	290.79
463.01	289.41
463.38	288.07
463.74	286.65
464.11	285.46
464.48	284.39
464.85	283.23
465.21	282.36
465.58	281.43
465.95	280.29
466.32	279.41
466.68	278.50
467.05	277.57
467.42	276.70
467.78	275.74
468.15	274.86
468.52	274.18
468.88	273.38
469.25	272.59
469.62	271.99
469.98	271.31
470.35	270.64
470.72	270.04
471.08	269.41
471.45	268.89
471.82	268.33
472.18	267.75
472.55	267.32
472.92	266.77
473.28	266.32
473.65	265.87
474.02	265.38
474.38	265.02
474.75	264.71
475.11	264.33
475.48	264.10
475.85	263.88
476.21	263.65
476.58	263.42
476.94	263.27
477.31	263.07
477.67	262.89
478.04	262.79
478.41	262.72
478.77	262.76
479.14	262.69
479.50	262.72
479.87	262.78
480.23	262.83
480.60	262.91
480.96	262.99
481.33	263.20
481.69	263.43
482.06	263.63
482.42	263.83
482.79	264.14
483.15	264.41
483.52	264.81
483.88	265.17
484.25	265.56
484.61	265.99
484.98	266.42
485.34	267.01
485.71	267.60
486.07	268.20
486.44	268.75
486.80	269.47
487.17	270.16
487.53	270.97
487.90	271.81
488.26	272.72
488.62	273.71
488.99	274.66
489.35	275.65
489.72	276.78
490.08	277.97
490.44	279.19
490.81	280.50
491.17	281.79
491.54	283.29
491.90	284.85
492.26	286.46
492.63	288.19
492.99	289.94
493.36	291.82
493.72	293.84
494.08	295.93
494.45	298.18
494.81	300.54
495.17	302.96
495.54	305.52
495.90	308.20
496.26	310.98
496.63	313.90
496.99	317.04
497.35	320.22
497.72	323.60
498.08	327.06
498.44	330.75
498.80	334.68
499.17	338.70
499.53	342.80
499.89	347.17
500.26	351.63
500.62	356.25
500.98	361.22
501.34	366.27
501.71	371.50
502.07	376.90
502.43	382.49
502.79	388.20
503.16	394.21
503.52	400.43
503.88	406.73
504.24	413.30
504.60	420.01
504.97	427.07
505.33	434.31
505.69	441.95
506.05	449.65
506.41	457.39
506.78	465.39
507.14	473.73
507.50	482.34
507.86	491.25
508.22	500.36
508.59	509.42
508.95	518.77
509.31	528.53
509.67	538.48
510.03	548.52
510.39	558.97
510.75	569.58
511.12	580.31
511.48	591.42
511.84	602.70
512.20	614.09
512.56	625.80
512.92	637.76
513.28	649.81
513.64	662.00
514.00	674.52
514.37	687.21
514.73	700.03
515.09	712.78
515.45	725.79
515.81	739.07
516.17	752.72
516.53	766.68
516.89	780.54
517.25	794.37
517.61	808.59
517.97	822.71
518.33	836.91
518.69	851.44
519.05	866.15
519.41	881.03
519.77	896.20
520.13	911.35
520.49	926.42
520.85	941.46
521.21	956.77
521.57	972.66
521.93	988.07
522.29	1004.05
522.65	1019.90
523.01	1035.75
523.37	1051.43
523.73	1067.28
524.09	1082.94
524.45	1098.79
524.81	1115.14
525.17	1131.43
525.53	1147.92
525.89	1164.46
526.25	1180.91
526.61	1196.94
526.97	1213.31
527.33	1229.38
527.68	1245.64
528.04	1261.64
528.40	1277.92
528.76	1294.56
529.12	1310.78
529.48	1327.34
529.84	1343.08
530.20	1359.37
530.56	1376.01
530.91	1392.95
531.27	1409.32
531.63	1425.45
531.99	1441.71
532.35	1457.34
532.71	1473.06
533.07	1488.98
533.42	1504.52
533.78	1520.26
534.14	1536.18
534.50	1551.25
534.86	1566.85
535.21	1581.73
535.57	1597.51
535.93	1612.60
536.29	1627.18
536.65	1641.95
537.00	1656.48
537.36	1671.39
537.72	1685.59
538.08	1699.79
538.44	1713.41
538.79	1727.10
539.15	1740.48
539.51	1753.96
539.87	1767.84
540.22	1781.36
540.58	1794.85
540.94	1807.81
541.29	1820.31
541.65	1832.82
542.01	1845.91
542.37	1858.23
542.72	1870.66
543.08	1882.28
543.44	1894.63
543.79	1905.83
544.15	1916.80
544.51	1928.24
544.87	1939.17
545.22	1950.17
545.58	1960.48
545.94	1970.32
546.29	1980.17
546.65	1990.23
547.01	1999.59
547.36	2008.63
547.72	2017.03
548.07	2025.23
548.43	2033.58
548.79	2041.68
549.14	2049.58
549.50	2056.83
549.86	2064.45
550.21	2071.72
550.57	2079.11
550.92	2085.99
551.28	2093.31
551.64	2100.53
551.99	2107.33
552.35	2113.82
552.70	2120.15
553.06	2126.25
553.41	2132.87
553.77	2139.11
554.13	2145.37
554.48	2151.81
554.84	2157.72
555.19	2163.25
555.55	2168.61
555.90	2173.61
556.26	2178.89
556.61	2183.71
556.97	2188.56
557.32	2193.04
557.68	2197.51
558.03	2201.85
558.39	2205.72
558.74	2210.52
559.10	2214.72
559.45	2218.63
559.81	2223.12
560.16	2227.25
560.52	2230.97
560.87	2234.52
561.23	2237.52
561.58	2240.56
561.94	2243.44
562.29	2245.87
562.64	2248.97
563.00	2251.70
563.35	2255.34
563.71	2258.77
564.06	2262.22
564.42	2265.32
564.77	2268.28
565.12	2271.03
565.48	2273.50
565.83	2275.92
566.19	2277.73
566.54	2278.89
566.89	2280.50
567.25	2281.60
567.60	2283.12
567.96	2285.05
568.31	2286.29
568.66	2287.78
569.02	2288.95
569.37	2289.60
569.72	2290.96
570.08	2291.64
570.43	2292.27
570.78	2292.11
571.14	2291.09
571.49	2290.02
571.84	2289.83
572.20	2289.17
572.55	2288.39
572.90	2287.06
573.26	2285.99
573.61	2284.59
573.96	2283.36
574.31	2280.78
574.67	2278.12
575.02	2274.91
575.37	2271.78
575.72	2268.47
576.08	2265.42
576.43	2262.28
576.78	2259.01
577.13	2255.96
577.49	2253.00
577.84	2249.71
578.19	2246.21
578.54	2242.89
578.90	2239.23
579.25	2234.17
579.60	2229.42
579.95	2224.79
580.30	2220.14
580.66	2215.18
581.01	2210.32
581.36	2205.54
581.71	2201.71
582.06	2197.53
582.42	2193.42
582.77	2188.56
583.12	2184.26
583.47	2179.89
583.82	2175.21
584.17	2170.35
584.53	2165.16
584.88	2159.77
585.23	2154.39
585.58	2149.10
585.93	2143.88
586.28	2139.13
586.63	2134.39
586.98	2129.47
587.34	2124.88
587.69	2120.22
588.04	2115.33
588.39	2110.01
588.74	2103.71
589.09	2097.59
589.44	2091.10
589.79	2085.12
590.14	2079.60
590.49	2073.26
590.84	2067.11
591.19	2061.27
591.54	2054.84
591.89	2047.77
592.25	2041.32
592.60	2034.29
592.95	2027.02
593.30	2019.91
593.65	2012.57
594.00	2005.58
594.35	1998.52
594.70	1990.63
595.05	1983.75
595.40	1976.42
595.75	1969.09
596.10	1963.28
596.45	1956.80
596.80	1950.72
597.15	1944.38
597.50	1937.60
597.85	1930.91
598.19	1924.32
598.54	1917.50
598.89	1910.93
599.24	1905.07
599.59	1898.53
599.94	1892.42
600.29	1886.22
600.64	1879.59
600.99	1872.21
601.34	1865.54
601.69	1858.55
602.04	1851.92
602.39	1844.55
602.74	1837.84
603.08	1831.17
603.43	1824.30
603.78	1817.05
604.13	1809.84
604.48	1802.65
604.83	1795.78
605.18	1789.20
605.53	1781.31
605.87	1773.33
606.22	1766.04
606.57	1758.06
606.92	1750.54
607.27	1743.47
607.62	1736.62
607.96	1729.49
608.31	1723.11
608.66	1715.58
609.01	1708.23
609.36	1700.64
609.70	1692.67
610.05	1684.68
610.40	1677.06
610.75	1668.76
611.10	1660.98
611.44	1652.42
611.79	1644.35
612.14	1635.57
612.49	1626.32
612.83	1617.81
613.18	1609.41
613.53	1601.31
613.88	1592.79
614.22	1584.51
614.57	1575.74
614.92	1567.53
615.27	1559.98
615.61	1551.50
615.96	1543.30
616.31	1535.49
616.65	1528.00
617.00	1520.27
617.35	1512.46
617.70	1504.02
618.04	1495.49
618.39	1487.20
618.74	1479.62
619.08	1471.09
619.43	1463.44
619.78	1456.36
620.12	1449.13
620.47	1441.61
620.82	1433.30
621.16	1425.65
621.51	1417.90
621.85	1410.06
622.20	1401.47
622.55	1392.93
622.89	1385.01
623.24	1377.21
623.59	1369.64
623.93	1362.03
624.28	1354.77
624.62	1347.18
624.97	1339.83
625.32	1332.88
625.66	1325.74
626.01	1318.45
626.35	1311.09
626.70	1303.17
627.04	1295.41
627.39	1287.49
627.73	1280.03
628.08	1273.10
628.43	1265.92
628.77	1258.53
629.12	1251.00
629.46	1243.74
629.81	1236.07
630.15	1228.70
630.50	1221.28
630.84	1213.15
631.19	1204.99
631.53	1197.30
631.88	1189.56
632.22	1181.93
632.57	1174.56
632.91	1166.95
633.26	1159.54
633.60	1152.06
633.95	1144.86
634.29	1137.67
634.64	1130.90
634.98	1123.44
635.32	1116.20
635.67	1109.43
636.01	1102.71
636.36	1095.86
636.70	1089.20
637.05	1082.57
637.39	1076.08
637.73	1069.55
638.08	1063.47
638.42	1057.45
638.77	1050.92
639.11	1044.45
639.45	1037.97
639.80	1031.27
640.14	1024.85
640.49	1018.34
640.83	1011.97
641.17	1005.69
641.52	999.39
641.86	992.97
642.20	987.09
642.55	980.66
642.89	974.19
643.23	967.51
643.58	961.60
643.92	955.52
644.26	949.59
644.61	943.42
644.95	937.31
645.29	930.74
645.64	924.07
645.98	917.75
646.32	911.69
646.66	905.63
647.01	899.76
647.35	894.03
647.69	888.00
648.04	882.37
648.38	876.58
648.72	870.63
649.06	864.55
649.41	858.58
649.75	852.72
650.09	846.68
650.43	840.94
650.78	834.77
651.12	828.71
651.46	822.89
651.80	817.17
652.14	811.77
652.49	806.37
652.83	801.14
653.17	795.52
653.51	789.92
653.85	784.48
654.20	778.93
654.54	772.92
654.88	767.14
655.22	761.17
655.56	755.48
655.90	749.91
656.25	744.64
656.59	739.28
656.93	734.04
657.27	728.90
657.61	723.40
657.95	718.31
658.29	713.20
658.64	707.85
658.98	702.50
659.32	696.92
659.66	691.70
660.00	686.37
660.34	681.38
660.68	676.34
661.02	671.28
661.36	666.47
661.70	661.88
662.05	657.42
662.39	653.25
662.73	648.71
663.07	644.31
663.41	639.79
663.75	635.30
664.09	630.74
664.43	626.33
664.77	622.20
665.11	617.94
665.45	613.78
665.79	609.78
666.13	605.63
666.47	601.57
666.81	597.38
667.15	593.20
667.49	589.19
667.83	585.40
668.17	581.43
668.51	577.36
668.85	573.25
669.19	569.39
669.53	565.46
669.87	561.61
670.21	557.85
670.55	554.16
670.89	550.67
671.23	547.25
671.57	543.66
671.91	540.12
672.25	536.54
672.58	532.97
672.92	529.44
673.26	526.22
673.60	523.00
673.94	519.92
674.28	516.99
674.62	514.00
674.96	510.83
675.30	507.90
675.64	504.96
675.97	502.20
676.31	499.39
676.65	496.41
676.99	493.70
677.33	490.81
677.67	487.99
678.01	484.98
678.34	481.97
678.68	479.12
679.02	476.32
679.36	473.54
679.70	470.79
680.04	468.09
680.37	465.26
680.71	462.47
681.05	459.82
681.39	457.12
681.73	454.46
682.06	451.96
682.40	449.42
682.74	446.82
683.08	444.26
683.42	441.64
683.75	439.10
684.09	436.50
684.43	434.06
684.77	431.59
685.10	429.18
685.44	426.86
685.78	424.54
686.12	422.19
686.45	419.88
686.79	417.54
687.13	415.25
687.46	413.04
687.80	410.87
688.14	408.63
688.48	406.53
688.81	404.28
689.15	402.07
689.49	399.90
689.82	397.81
690.16	395.65
690.50	393.66
690.83	391.75
691.17	389.71
691.51	387.76
691.84	385.91
692.18	383.97
692.52	381.99
692.85	380.02
693.19	378.19
693.52	376.34
693.86	374.52
694.20	372.70
694.53	370.90
694.87	369.01
695.21	367.16
695.54	365.34
695.88	363.56
696.21	361.82
696.55	360.09
696.88	358.33
697.22	356.62
697.56	354.93
697.89	353.23
698.23	351.65
698.56	349.98
698.90	348.37
699.23	346.73
699.57	345.10
699.90	343.54
700.24	341.94
700.58	340.44
700.91	338.91
701.25	337.47
701.58	336.07
701.92	334.71
702.25	333.30
702.59	331.86
702.92	330.53
703.26	329.19
703.59	327.92
703.93	326.74
704.26	325.51
704.60	324.19
704.93	322.89
705.26	321.60
705.60	320.41
705.93	319.19
706.27	318.11
706.60	317.06
706.94	315.95
707.27	314.81
707.61	313.66
707.94	312.63
708.27	311.53
708.61	310.40
708.94	309.36
709.28	308.39
709.61	307.39
709.94	306.41
710.28	305.31
710.61	304.28
710.95	303.19
711.28	302.23
711.61	301.30
711.95	300.35
712.28	299.41
712.61	298.38
712.95	297.45
713.28	296.56
713.61	295.60
713.95	294.72
714.28	293.85
714.61	292.99
714.95	292.15
715.28	291.28
715.61	290.37
715.95	289.47
716.28	288.60
716.61	287.80
716.95	286.94
717.28	286.24
717.61	285.47
717.94	284.72
718.28	283.91
718.61	283.16
718.94	282.46
719.27	281.79
719.61	281.13
719.94	280.44
720.27	279.70
720.60	279.04
720.94	278.36
721.27	277.75
721.60	277.16
721.93	276.54
722.27	275.99
722.60	275.44
722.93	274.87
723.26	274.33
723.59	273.75
723.93	273.22
724.26	272.68
724.59	272.13
724.92	271.56
725.25	271.12
725.59	270.56
725.92	270.05
726.25	269.52
726.58	269.04
726.91	268.57
727.24	268.11
727.57	267.68
727.91	267.20
728.24	266.74
728.57	266.24
728.90	265.75
729.23	265.26
729.56	264.85
729.89	264.36
730.22	263.86
730.55	263.39
730.89	262.92
731.22	262.45
731.55	262.00
731.88	261.61
732.21	261.11
732.54	260.72
732.87	260.26
733.20	259.85
733.53	259.48
733.86	259.08
734.19	258.64
734.52	258.24
734.85	257.92
735.18	257.50
735.51	257.14
735.84	256.77
736.17	256.42
736.50	256.01
736.83	255.79
737.16	255.44
737.49	255.10
737.82	254.76
738.15	254.41
738.48	254.05
738.81	253.68
739.14	253.36
739.47	253.04
739.80	252.74
740.13	252.46
740.46	252.10
740.79	251.74
741.12	251.42
741.45	251.07
741.78	250.71
742.11	250.45
742.44	250.14
742.77	249.84
743.10	249.51
743.43	249.17
743.75	248.79
744.08	248.63
744.41	248.35
744.74	248.08
745.07	247.79
745.40	247.55
745.73	247.32
746.06	247.04
746.39	246.79
746.71	246.48
747.04	246.19
747.37	245.93
747.70	245.70
748.03	245.45
748.36	245.23
748.68	245.01
749.01	244.68
749.34	244.44
749.67	244.21
750.00	243.95
750.33	243.85
750.65	243.61
750.98	243.26
751.31	243.01
751.64	242.76
751.97	242.61
752.29	242.36
752.62	242.09
752.95	241.88
753.28	241.61
753.60	241.42
753.93	241.27
754.26	241.09
754.59	240.86
754.91	240.63
755.24	240.41
755.57	240.19
755.90	240.02
756.22	239.82
756.55	239.60
756.88	239.42
757.20	239.15
757.53	238.96
757.86	238.79
758.19	238.64
758.51	238.52
758.84	238.30
759.17	238.15
759.49	238.03
759.82	237.90
760.15	237.77
760.47	237.64
760.80	237.39
761.13	237.26
761.45	237.10
761.78	236.96
762.11	236.82
762.43	236.68
762.76	236.55
763.08	236.43
763.41	236.32
763.74	236.20
764.06	236.03
764.39	235.89
764.71	235.76
765.04	235.61
765.37	235.45
765.69	235.33
766.02	235.21
766.34	235.08
766.67	234.98
767.00	234.88
767.32	234.77
767.65	234.73
767.97	234.61
768.30	234.54
768.62	234.45
768.95	234.35
769.27	234.22
769.60	234.11
769.92	233.98
770.25	233.87
770.57	233.75
770.90	233.69
771.22	233.62
771.55	233.55
771.87	233.44
772.20	233.36
772.52	233.35
772.85	233.38
773.17	233.28
773.50	233.13
773.82	233.04
774.15	232.90
774.47	232.75
774.80	232.65
775.12	232.58
775.45	232.50
775.77	232.44
776.09	232.37
776.42	232.33
776.74	232.29
777.07	232.22
777.39	232.15
777.72	232.06
778.04	231.94
778.36	231.83
778.69	231.81
779.01	231.70
779.33	231.51
779.66	231.31
779.98	231.24
780.31	231.21
780.63	231.18
780.95	231.16
781.28	231.13
781.60	231.07
781.92	231.00
782.25	230.93
782.57	230.84
782.89	230.80
783.22	230.72
783.54	230.62
783.86	230.55
784.19	230.52
784.51	230.50
784.83	230.45
785.16	230.39
785.48	230.31
785.80	230.30
786.12	230.26
786.45	230.20
786.77	230.14
787.09	230.08
