SpectraSuite Data File
++++++++++++++++++++++++++++++++++++
Date: Fri Feb 01 17:22:45 EST 2013
User: group
Dark Spectrum Present: No
Reference Spectrum Present: No
Number of Sampled Component Spectra: 1
Spectrometers: USB2E7196
Integration Time (usec): 35000 (USB2E7196)
Spectra Averaged: 100 (USB2E7196)
Boxcar Smoothing: 10 (USB2E7196)
Correct for Electrical Dark: No (USB2E7196)
Strobe/Lamp Enabled: No (USB2E7196)
Correct for Detector Non-linearity: No (USB2E7196)
Correct for Stray Light: No (USB2E7196)
Number of Pixels in Processed Spectrum: 2048
>>>>>Begin Processed Spectral Data<<<<<
339.09	0.00
339.48	213.24
339.86	214.79
340.24	215.88
340.63	217.55
341.01	220.32
341.39	219.70
341.78	221.42
342.16	222.53
342.54	222.50
342.93	211.44
343.31	222.13
343.69	222.67
344.07	223.12
344.46	223.53
344.84	223.89
345.22	224.10
345.60	224.36
345.99	224.54
346.37	224.66
346.75	224.77
347.13	224.83
347.52	224.92
347.90	224.98
348.28	225.01
348.66	225.07
349.05	225.08
349.43	225.14
349.81	225.20
350.19	225.22
350.57	225.27
350.96	225.31
351.34	225.38
351.72	225.46
352.10	225.55
352.48	225.61
352.87	225.64
353.25	225.74
353.63	225.80
354.01	225.86
354.39	225.91
354.77	225.97
355.15	226.06
355.54	226.07
355.92	226.09
356.30	226.14
356.68	226.24
357.06	226.32
357.44	226.34
357.82	226.41
358.20	226.49
358.58	226.53
358.97	226.60
359.35	226.67
359.73	226.72
360.11	226.75
360.49	226.81
360.87	226.89
361.25	226.93
361.63	226.99
362.01	227.03
362.39	227.06
362.77	227.13
363.15	227.17
363.53	227.22
363.91	227.25
364.29	227.28
364.67	227.22
365.05	227.21
365.43	227.27
365.81	227.27
366.19	227.29
366.57	227.35
366.95	227.37
367.33	227.33
367.71	227.35
368.09	227.40
368.47	227.36
368.85	227.31
369.23	227.30
369.61	227.22
369.99	227.23
370.37	227.20
370.75	227.19
371.13	227.09
371.51	227.04
371.89	227.02
372.27	226.99
372.65	226.96
373.03	226.96
373.41	226.87
373.78	226.82
374.16	226.75
374.54	226.64
374.92	226.57
375.30	226.53
375.68	226.40
376.06	226.34
376.44	226.29
376.82	226.25
377.19	226.21
377.57	226.17
377.95	226.09
378.33	226.05
378.71	225.95
379.09	225.91
379.47	225.86
379.84	225.76
380.22	225.67
380.60	225.58
380.98	225.47
381.36	225.43
381.73	225.35
382.11	225.31
382.49	225.26
382.87	225.21
383.25	225.16
383.62	225.24
384.00	225.14
384.38	225.12
384.76	225.10
385.13	225.07
385.51	225.02
385.89	224.97
386.27	224.92
386.64	224.87
387.02	224.81
387.40	224.79
387.78	224.79
388.15	224.78
388.53	224.75
388.91	224.70
389.29	224.66
389.66	224.66
390.04	224.65
390.42	224.69
390.79	224.66
391.17	224.65
391.55	224.54
391.92	224.55
392.30	224.57
392.68	224.54
393.05	224.52
393.43	224.55
393.81	224.54
394.18	224.53
394.56	224.58
394.94	224.65
395.31	224.66
395.69	224.68
396.06	224.70
396.44	224.75
396.82	224.82
397.19	224.90
397.57	224.93
397.95	224.98
398.32	224.96
398.70	225.02
399.07	225.09
399.45	225.11
399.82	225.16
400.20	225.20
400.58	225.27
400.95	225.30
401.33	225.40
401.70	225.57
402.08	225.67
402.45	225.71
402.83	225.78
403.20	225.88
403.58	225.97
403.95	226.08
404.33	226.22
404.71	226.31
405.08	226.48
405.46	226.60
405.83	226.73
406.21	226.88
406.58	227.02
406.96	227.17
407.33	227.38
407.70	227.59
408.08	227.84
408.45	228.06
408.83	228.28
409.20	228.45
409.58	228.60
409.95	228.86
410.33	229.16
410.70	229.40
411.08	229.70
411.45	230.01
411.82	230.31
412.20	230.65
412.57	231.07
412.95	231.37
413.32	231.80
413.69	232.21
414.07	232.65
414.44	233.14
414.82	233.63
415.19	234.16
415.56	234.72
415.94	235.25
416.31	235.89
416.68	236.56
417.06	237.31
417.43	238.04
417.81	238.82
418.18	239.64
418.55	240.50
418.93	241.42
419.30	242.35
419.67	243.36
420.04	244.33
420.42	245.36
420.79	246.61
421.16	247.81
421.54	249.08
421.91	250.35
422.28	251.68
422.66	253.10
423.03	254.46
423.40	255.86
423.77	257.38
424.15	258.88
424.52	260.44
424.89	262.10
425.26	263.69
425.64	265.19
426.01	266.80
426.38	268.55
426.75	270.28
427.13	272.05
427.50	273.94
427.87	275.92
428.24	277.85
428.61	279.64
428.99	281.64
429.36	283.80
429.73	285.95
430.10	288.01
430.47	290.15
430.85	292.36
431.22	294.64
431.59	297.07
431.96	299.37
432.33	301.91
432.70	304.36
433.08	307.26
433.45	310.01
433.82	312.70
434.19	315.70
434.56	318.58
434.93	321.38
435.30	324.06
435.68	327.06
436.05	329.99
436.42	332.88
436.79	335.50
437.16	338.33
437.53	341.25
437.90	344.14
438.27	346.95
438.64	349.89
439.01	352.58
439.38	354.92
439.75	357.17
440.13	359.72
440.50	362.13
440.87	364.08
441.24	366.09
441.61	368.38
441.98	369.89
442.35	371.81
442.72	373.69
443.09	375.62
443.46	376.67
443.83	377.32
444.20	377.83
444.57	378.75
444.94	379.02
445.31	379.36
445.68	379.76
446.05	379.89
446.42	379.51
446.79	379.14
447.16	378.68
447.53	378.38
447.90	377.25
448.27	376.04
448.64	374.42
449.01	373.28
449.37	371.25
449.74	369.31
450.11	366.97
450.48	364.45
450.85	361.81
451.22	359.63
451.59	357.53
451.96	355.55
452.33	352.83
452.70	350.40
453.07	347.52
453.43	344.51
453.80	341.64
454.17	338.89
454.54	336.22
454.91	333.41
455.28	330.64
455.65	328.07
456.02	325.58
456.38	323.34
456.75	320.62
457.12	318.28
457.49	316.00
457.86	313.76
458.23	311.82
458.59	309.71
458.96	307.53
459.33	305.63
459.70	303.69
460.07	302.11
460.43	300.37
460.80	298.69
461.17	297.24
461.54	295.66
461.91	294.13
462.27	292.67
462.64	291.38
463.01	289.99
463.38	288.66
463.74	287.28
464.11	286.07
464.48	284.98
464.85	283.85
465.21	282.94
465.58	281.99
465.95	280.84
466.32	279.87
466.68	278.91
467.05	277.91
467.42	276.99
467.78	276.04
468.15	275.09
468.52	274.43
468.88	273.48
469.25	272.72
469.62	272.12
469.98	271.42
470.35	270.75
470.72	270.14
471.08	269.45
471.45	268.88
471.82	268.35
472.18	267.72
472.55	267.25
472.92	266.71
473.28	266.25
473.65	265.80
474.02	265.35
474.38	264.98
474.75	264.69
475.11	264.33
475.48	264.06
475.85	263.80
476.21	263.50
476.58	263.31
476.94	263.12
477.31	262.89
477.67	262.73
478.04	262.61
478.41	262.51
478.77	262.57
479.14	262.50
479.50	262.46
479.87	262.53
480.23	262.62
480.60	262.71
480.96	262.78
481.33	263.02
481.69	263.25
482.06	263.46
482.42	263.62
482.79	263.89
483.15	264.18
483.52	264.59
483.88	264.94
484.25	265.37
484.61	265.79
484.98	266.28
485.34	266.81
485.71	267.41
486.07	267.99
486.44	268.51
486.80	269.22
487.17	269.99
487.53	270.79
487.90	271.62
488.26	272.50
488.62	273.49
488.99	274.46
489.35	275.48
489.72	276.60
490.08	277.86
490.44	279.12
490.81	280.46
491.17	281.80
491.54	283.26
491.90	284.74
492.26	286.38
492.63	288.08
492.99	289.85
493.36	291.69
493.72	293.76
494.08	295.84
494.45	298.04
494.81	300.39
495.17	302.83
495.54	305.38
495.90	308.05
496.26	310.80
496.63	313.74
496.99	316.84
497.35	320.02
497.72	323.38
498.08	326.82
498.44	330.48
498.80	334.39
499.17	338.41
499.53	342.56
499.89	346.92
500.26	351.40
500.62	356.04
500.98	360.99
501.34	366.00
501.71	371.27
502.07	376.67
502.43	382.16
502.79	387.88
503.16	393.85
503.52	400.07
503.88	406.38
504.24	412.93
504.60	419.73
504.97	426.83
505.33	434.01
505.69	441.67
506.05	449.35
506.41	457.09
506.78	465.17
507.14	473.53
507.50	482.17
507.86	491.05
508.22	500.18
508.59	509.22
508.95	518.63
509.31	528.31
509.67	538.23
510.03	548.34
510.39	558.71
510.75	569.27
511.12	579.95
511.48	591.04
511.84	602.30
512.20	613.59
512.56	625.22
512.92	637.20
513.28	649.30
513.64	661.50
514.00	674.01
514.37	686.68
514.73	699.43
515.09	712.07
515.45	725.07
515.81	738.32
516.17	751.95
516.53	765.82
516.89	779.68
517.25	793.53
517.61	807.66
517.97	821.79
518.33	836.02
518.69	850.49
519.05	865.11
519.41	879.89
519.77	894.97
520.13	910.11
520.49	925.12
520.85	940.15
521.21	955.42
521.57	971.17
521.93	986.57
522.29	1002.53
522.65	1018.43
523.01	1034.23
523.37	1049.86
523.73	1065.68
524.09	1081.27
524.45	1097.07
524.81	1113.41
525.17	1129.72
525.53	1146.14
525.89	1162.55
526.25	1179.03
526.61	1195.02
526.97	1211.33
527.33	1227.56
527.68	1243.64
528.04	1259.82
528.40	1276.02
528.76	1292.64
529.12	1308.81
529.48	1325.37
529.84	1340.97
530.20	1357.23
530.56	1373.79
530.91	1390.91
531.27	1407.44
531.63	1423.52
531.99	1439.83
532.35	1455.37
532.71	1471.06
533.07	1487.01
533.42	1502.65
533.78	1518.34
534.14	1534.38
534.50	1549.36
534.86	1564.95
535.21	1579.98
535.57	1595.47
535.93	1610.66
536.29	1625.19
536.65	1640.06
537.00	1654.35
537.36	1669.50
537.72	1683.72
538.08	1697.93
538.44	1711.32
538.79	1724.89
539.15	1738.31
539.51	1751.86
539.87	1765.96
540.22	1779.36
540.58	1792.93
540.94	1805.92
541.29	1818.44
541.65	1830.94
542.01	1844.02
542.37	1856.17
542.72	1868.39
543.08	1880.11
543.44	1892.46
543.79	1903.85
544.15	1914.65
544.51	1926.36
544.87	1937.09
545.22	1948.02
545.58	1958.26
545.94	1968.14
546.29	1978.01
546.65	1987.94
547.01	1997.30
547.36	2006.19
547.72	2014.78
548.07	2022.84
548.43	2031.13
548.79	2039.29
549.14	2047.06
549.50	2054.44
549.86	2062.10
550.21	2069.69
550.57	2076.99
550.92	2083.69
551.28	2090.91
551.64	2098.27
551.99	2104.89
552.35	2111.38
552.70	2117.69
553.06	2123.87
553.41	2130.50
553.77	2136.76
554.13	2143.12
554.48	2149.41
554.84	2155.15
555.19	2160.61
555.55	2166.10
555.90	2170.89
556.26	2176.12
556.61	2181.08
556.97	2186.08
557.32	2190.62
557.68	2195.01
558.03	2199.55
558.39	2203.47
558.74	2208.25
559.10	2212.41
559.45	2216.37
559.81	2220.86
560.16	2224.98
560.52	2228.55
560.87	2232.20
561.23	2235.11
561.58	2238.25
561.94	2241.21
562.29	2243.91
562.64	2247.25
563.00	2250.05
563.35	2253.91
563.71	2257.46
564.06	2261.00
564.42	2264.09
564.77	2267.13
565.12	2269.97
565.48	2272.38
565.83	2274.76
566.19	2276.36
566.54	2277.56
566.89	2279.14
567.25	2280.32
567.60	2281.90
567.96	2284.21
568.31	2285.29
568.66	2286.84
569.02	2287.95
569.37	2288.59
569.72	2289.79
570.08	2290.23
570.43	2290.71
570.78	2290.73
571.14	2289.58
571.49	2288.33
571.84	2288.14
572.20	2287.39
572.55	2286.46
572.90	2285.02
573.26	2284.00
573.61	2282.63
573.96	2281.37
574.31	2278.89
574.67	2276.17
575.02	2272.92
575.37	2269.66
575.72	2266.52
576.08	2263.49
576.43	2260.26
576.78	2257.18
577.13	2254.17
577.49	2251.12
577.84	2247.91
578.19	2244.25
578.54	2241.02
578.90	2237.57
579.25	2232.41
579.60	2227.68
579.95	2223.12
580.30	2218.48
580.66	2213.70
581.01	2209.19
581.36	2204.56
581.71	2200.71
582.06	2196.71
582.42	2192.59
582.77	2187.72
583.12	2183.35
583.47	2179.03
583.82	2174.59
584.17	2169.48
584.53	2164.34
584.88	2159.09
585.23	2153.79
585.58	2148.45
585.93	2143.15
586.28	2138.37
586.63	2133.62
586.98	2128.74
587.34	2124.24
587.69	2119.64
588.04	2114.55
588.39	2109.13
588.74	2102.84
589.09	2096.73
589.44	2090.17
589.79	2084.20
590.14	2078.68
590.49	2072.30
590.84	2065.97
591.19	2060.15
591.54	2053.91
591.89	2047.06
592.25	2040.62
592.60	2033.43
592.95	2026.27
593.30	2019.14
593.65	2011.67
594.00	2004.77
594.35	1997.69
594.70	1989.69
595.05	1982.79
595.40	1975.61
595.75	1968.23
596.10	1962.29
596.45	1955.74
596.80	1949.68
597.15	1943.35
597.50	1936.61
597.85	1930.23
598.19	1923.83
598.54	1917.05
598.89	1910.53
599.24	1904.46
599.59	1898.04
599.94	1891.91
600.29	1885.59
600.64	1879.02
600.99	1871.97
601.34	1865.18
601.69	1858.19
602.04	1851.52
602.39	1844.21
602.74	1837.54
603.08	1830.85
603.43	1824.01
603.78	1816.72
604.13	1809.50
604.48	1802.38
604.83	1795.51
605.18	1788.81
605.53	1780.83
605.87	1772.75
606.22	1765.44
606.57	1757.50
606.92	1749.95
607.27	1742.90
607.62	1736.05
607.96	1728.92
608.31	1722.26
608.66	1714.77
609.01	1707.42
609.36	1699.94
609.70	1691.92
610.05	1683.84
610.40	1676.26
610.75	1668.09
611.10	1660.52
611.44	1651.93
611.79	1643.75
612.14	1635.10
612.49	1625.76
612.83	1617.24
613.18	1608.86
613.53	1600.71
613.88	1592.18
614.22	1583.82
614.57	1575.02
614.92	1566.98
615.27	1559.45
615.61	1551.05
615.96	1542.92
616.31	1535.13
616.65	1527.60
617.00	1519.94
617.35	1512.20
617.70	1503.89
618.04	1495.25
618.39	1486.92
618.74	1479.42
619.08	1471.05
619.43	1463.26
619.78	1456.15
620.12	1449.03
620.47	1441.50
620.82	1433.17
621.16	1425.52
621.51	1417.78
621.85	1410.09
622.20	1401.50
622.55	1392.85
622.89	1384.95
623.24	1377.13
623.59	1369.55
623.93	1361.95
624.28	1354.65
624.62	1347.04
624.97	1339.59
625.32	1332.66
625.66	1325.52
626.01	1318.28
626.35	1310.89
626.70	1302.96
627.04	1295.20
627.39	1287.28
627.73	1279.76
628.08	1272.80
628.43	1265.69
628.77	1258.34
629.12	1250.65
629.46	1243.30
629.81	1235.74
630.15	1228.33
630.50	1220.94
630.84	1212.66
631.19	1204.52
631.53	1196.75
631.88	1188.97
632.22	1181.26
632.57	1173.82
632.91	1166.12
633.26	1158.61
633.60	1151.00
633.95	1143.79
634.29	1136.60
634.64	1129.75
634.98	1122.35
635.32	1115.14
635.67	1108.24
636.01	1101.57
636.36	1094.88
636.70	1088.31
637.05	1081.73
637.39	1075.17
637.73	1068.52
638.08	1062.65
638.42	1056.75
638.77	1050.37
639.11	1043.85
639.45	1037.44
639.80	1030.89
640.14	1024.54
640.49	1017.98
640.83	1011.69
641.17	1005.51
641.52	999.21
641.86	992.73
642.20	986.83
642.55	980.40
642.89	973.91
643.23	967.18
643.58	961.35
643.92	955.15
644.26	949.17
644.61	943.02
644.95	937.06
645.29	930.49
645.64	923.66
645.98	917.33
646.32	911.35
646.66	905.25
647.01	899.35
647.35	893.61
647.69	887.71
648.04	882.09
648.38	876.30
648.72	870.35
649.06	864.40
649.41	858.43
649.75	852.46
650.09	846.59
650.43	840.84
650.78	834.57
651.12	828.55
651.46	822.77
651.80	817.13
652.14	811.73
652.49	806.34
652.83	801.06
653.17	795.40
653.51	789.72
653.85	784.25
654.20	778.71
654.54	772.62
654.88	766.86
655.22	760.96
655.56	755.22
655.90	749.68
656.25	744.34
656.59	739.04
656.93	733.91
657.27	728.72
657.61	723.19
657.95	718.13
658.29	713.01
658.64	707.66
658.98	702.29
659.32	696.74
659.66	691.47
660.00	686.24
660.34	681.23
660.68	676.34
661.02	671.32
661.36	666.48
661.70	661.96
662.05	657.55
662.39	653.24
662.73	648.77
663.07	644.38
663.41	639.88
663.75	635.36
664.09	630.84
664.43	626.44
664.77	622.41
665.11	618.17
665.45	614.01
665.79	609.94
666.13	605.79
666.47	601.63
666.81	597.43
667.15	593.24
667.49	589.28
667.83	585.32
668.17	581.39
668.51	577.35
668.85	573.31
669.19	569.40
669.53	565.55
669.87	561.63
670.21	557.88
670.55	554.20
670.89	550.78
671.23	547.31
671.57	543.72
671.91	540.18
672.25	536.61
672.58	533.09
672.92	529.64
673.26	526.40
673.60	523.23
673.94	520.15
674.28	517.15
674.62	514.26
674.96	511.19
675.30	508.29
675.64	505.37
675.97	502.53
676.31	499.64
676.65	496.69
676.99	493.97
677.33	491.05
677.67	488.29
678.01	485.16
678.34	482.19
678.68	479.32
679.02	476.46
679.36	473.61
679.70	470.84
680.04	468.09
680.37	465.30
680.71	462.50
681.05	459.84
681.39	457.17
681.73	454.42
682.06	451.84
682.40	449.26
682.74	446.61
683.08	444.05
683.42	441.44
683.75	438.88
684.09	436.34
684.43	433.90
684.77	431.38
685.10	429.01
685.44	426.67
685.78	424.35
686.12	422.06
686.45	419.77
686.79	417.48
687.13	415.25
687.46	413.00
687.80	410.82
688.14	408.59
688.48	406.53
688.81	404.35
689.15	402.23
689.49	400.04
689.82	398.00
690.16	395.87
690.50	393.93
690.83	392.01
691.17	389.94
691.51	388.02
691.84	386.09
692.18	384.15
692.52	382.19
692.85	380.22
693.19	378.33
693.52	376.44
693.86	374.58
694.20	372.73
694.53	370.92
694.87	369.04
695.21	367.20
695.54	365.32
695.88	363.51
696.21	361.71
696.55	360.00
696.88	358.26
697.22	356.57
697.56	354.85
697.89	353.16
698.23	351.57
698.56	349.91
698.90	348.39
699.23	346.76
699.57	345.16
699.90	343.56
700.24	342.01
700.58	340.50
700.91	339.02
701.25	337.59
701.58	336.17
701.92	334.76
702.25	333.39
702.59	331.99
702.92	330.67
703.26	329.36
703.59	328.05
703.93	326.81
704.26	325.59
704.60	324.32
704.93	323.02
705.26	321.72
705.60	320.49
705.93	319.22
706.27	318.12
706.60	317.08
706.94	316.00
707.27	314.77
707.61	313.66
707.94	312.60
708.27	311.48
708.61	310.39
708.94	309.35
709.28	308.32
709.61	307.31
709.94	306.27
710.28	305.24
710.61	304.25
710.95	303.18
711.28	302.21
711.61	301.26
711.95	300.38
712.28	299.44
712.61	298.47
712.95	297.59
713.28	296.73
713.61	295.78
713.95	294.86
714.28	294.06
714.61	293.18
714.95	292.31
715.28	291.44
715.61	290.54
715.95	289.68
716.28	288.82
716.61	288.01
716.95	287.21
717.28	286.40
717.61	285.58
717.94	284.84
718.28	284.04
718.61	283.29
718.94	282.52
719.27	281.86
719.61	281.19
719.94	280.44
720.27	279.66
720.60	279.02
720.94	278.36
721.27	277.74
721.60	277.18
721.93	276.57
722.27	276.01
722.60	275.44
722.93	274.88
723.26	274.34
723.59	273.75
723.93	273.22
724.26	272.69
724.59	272.11
724.92	271.59
725.25	271.11
725.59	270.58
725.92	270.05
726.25	269.52
726.58	268.97
726.91	268.51
727.24	268.06
727.57	267.52
727.91	267.04
728.24	266.56
728.57	266.04
728.90	265.55
729.23	265.03
729.56	264.65
729.89	264.17
730.22	263.68
730.55	263.18
730.89	262.69
731.22	262.24
731.55	261.81
731.88	261.36
732.21	260.88
732.54	260.42
732.87	259.98
733.20	259.52
733.53	259.14
733.86	258.78
734.19	258.37
734.52	258.01
734.85	257.68
735.18	257.25
735.51	256.89
735.84	256.53
736.17	256.19
736.50	255.72
736.83	255.51
737.16	255.19
737.49	254.86
737.82	254.51
738.15	254.21
738.48	253.87
738.81	253.53
739.14	253.22
739.47	252.92
739.80	252.62
740.13	252.39
740.46	252.08
740.79	251.71
741.12	251.37
741.45	251.06
741.78	250.72
742.11	250.44
742.44	250.12
742.77	249.83
743.10	249.54
743.43	249.25
743.75	248.83
744.08	248.67
744.41	248.40
744.74	248.12
745.07	247.81
745.40	247.57
745.73	247.34
746.06	247.05
746.39	246.80
746.71	246.51
747.04	246.17
747.37	245.92
747.70	245.67
748.03	245.47
748.36	245.24
748.68	244.96
749.01	244.70
749.34	244.47
749.67	244.23
750.00	243.96
750.33	243.85
750.65	243.62
750.98	243.25
751.31	243.01
751.64	242.80
751.97	242.62
752.29	242.36
752.62	242.10
752.95	241.89
753.28	241.67
753.60	241.46
753.93	241.34
754.26	241.13
754.59	240.92
754.91	240.66
755.24	240.42
755.57	240.23
755.90	240.06
756.22	239.88
756.55	239.66
756.88	239.47
757.20	239.19
757.53	238.97
757.86	238.81
758.19	238.64
758.51	238.47
758.84	238.26
759.17	238.11
759.49	237.94
759.82	237.84
760.15	237.66
760.47	237.51
760.80	237.31
761.13	237.19
761.45	237.02
761.78	236.87
762.11	236.76
762.43	236.63
762.76	236.44
763.08	236.29
763.41	236.19
763.74	236.08
764.06	235.95
764.39	235.82
764.71	235.68
765.04	235.56
765.37	235.43
765.69	235.31
766.02	235.19
766.34	235.08
766.67	234.91
767.00	234.82
767.32	234.75
767.65	234.68
767.97	234.54
768.30	234.46
768.62	234.34
768.95	234.20
769.27	234.09
769.60	234.03
769.92	233.91
770.25	233.77
770.57	233.63
770.90	233.53
771.22	233.46
771.55	233.36
771.87	233.28
772.20	233.17
772.52	233.16
772.85	233.20
773.17	233.10
773.50	233.03
773.82	232.92
774.15	232.76
774.47	232.60
774.80	232.48
775.12	232.39
775.45	232.37
775.77	232.30
776.09	232.20
776.42	232.10
776.74	232.08
777.07	232.02
777.39	231.99
777.72	231.90
778.04	231.81
778.36	231.75
778.69	231.69
779.01	231.63
779.33	231.45
779.66	231.26
779.98	231.16
780.31	231.09
780.63	231.07
780.95	231.05
781.28	231.01
781.60	230.94
781.92	230.87
782.25	230.77
782.57	230.72
782.89	230.67
783.22	230.60
783.54	230.52
783.86	230.47
784.19	230.38
784.51	230.34
784.83	230.28
785.16	230.24
785.48	230.15
785.80	230.09
786.12	230.07
786.45	230.02
786.77	230.00
787.09	229.92
