SpectraSuite Data File
++++++++++++++++++++++++++++++++++++
Date: Fri Feb 01 15:41:08 EST 2013
User: group
Dark Spectrum Present: No
Reference Spectrum Present: No
Number of Sampled Component Spectra: 1
Spectrometers: USB2E7196
Integration Time (usec): 35000 (USB2E7196)
Spectra Averaged: 100 (USB2E7196)
Boxcar Smoothing: 10 (USB2E7196)
Correct for Electrical Dark: No (USB2E7196)
Strobe/Lamp Enabled: No (USB2E7196)
Correct for Detector Non-linearity: No (USB2E7196)
Correct for Stray Light: No (USB2E7196)
Number of Pixels in Processed Spectrum: 2048
>>>>>Begin Processed Spectral Data<<<<<
339.09	0.00
339.48	215.20
339.86	216.44
340.24	217.26
340.63	219.22
341.01	221.57
341.39	221.24
341.78	222.99
342.16	224.40
342.54	224.69
342.93	213.17
343.31	223.94
343.69	224.45
344.07	224.89
344.46	225.36
344.84	225.73
345.22	226.00
345.60	226.27
345.99	226.45
346.37	226.57
346.75	226.70
347.13	226.80
347.52	226.86
347.90	226.93
348.28	226.94
348.66	226.96
349.05	226.94
349.43	226.97
349.81	227.02
350.19	227.07
350.57	227.10
350.96	227.20
351.34	227.30
351.72	227.39
352.10	227.52
352.48	227.56
352.87	227.64
353.25	227.69
353.63	227.76
354.01	227.83
354.39	227.94
354.77	228.01
355.15	228.12
355.54	228.20
355.92	228.24
356.30	228.31
356.68	228.49
357.06	228.57
357.44	228.63
357.82	228.69
358.20	228.76
358.58	228.83
358.97	228.85
359.35	228.94
359.73	229.03
360.11	229.03
360.49	229.11
360.87	229.14
361.25	229.19
361.63	229.30
362.01	229.36
362.39	229.39
362.77	229.45
363.15	229.43
363.53	229.45
363.91	229.48
364.29	229.49
364.67	229.41
365.05	229.44
365.43	229.47
365.81	229.51
366.19	229.54
366.57	229.58
366.95	229.61
367.33	229.60
367.71	229.55
368.09	229.58
368.47	229.54
368.85	229.52
369.23	229.54
369.61	229.45
369.99	229.43
370.37	229.37
370.75	229.38
371.13	229.34
371.51	229.29
371.89	229.26
372.27	229.22
372.65	229.19
373.03	229.12
373.41	229.06
373.78	228.98
374.16	228.88
374.54	228.79
374.92	228.71
375.30	228.62
375.68	228.56
376.06	228.49
376.44	228.45
376.82	228.39
377.19	228.28
377.57	228.20
377.95	228.12
378.33	228.03
378.71	227.90
379.09	227.85
379.47	227.79
379.84	227.70
380.22	227.63
380.60	227.52
380.98	227.47
381.36	227.41
381.73	227.34
382.11	227.27
382.49	227.20
382.87	227.09
383.25	227.02
383.62	227.05
384.00	227.00
384.38	226.91
384.76	226.87
385.13	226.85
385.51	226.79
385.89	226.73
386.27	226.68
386.64	226.63
387.02	226.55
387.40	226.47
387.78	226.42
388.15	226.40
388.53	226.35
388.91	226.33
389.29	226.29
389.66	226.29
390.04	226.27
390.42	226.27
390.79	226.27
391.17	226.26
391.55	226.17
391.92	226.13
392.30	226.14
392.68	226.11
393.05	226.08
393.43	226.07
393.81	226.05
394.18	226.06
394.56	226.07
394.94	226.13
395.31	226.17
395.69	226.24
396.06	226.27
396.44	226.31
396.82	226.32
397.19	226.39
397.57	226.38
397.95	226.45
398.32	226.47
398.70	226.57
399.07	226.68
399.45	226.73
399.82	226.81
400.20	226.90
400.58	227.00
400.95	227.08
401.33	227.23
401.70	227.41
402.08	227.54
402.45	227.63
402.83	227.76
403.20	227.85
403.58	227.95
403.95	228.10
404.33	228.26
404.71	228.41
405.08	228.61
405.46	228.76
405.83	228.93
406.21	229.09
406.58	229.26
406.96	229.43
407.33	229.62
407.70	229.83
408.08	230.08
408.45	230.26
408.83	230.50
409.20	230.71
409.58	230.90
409.95	231.14
410.33	231.42
410.70	231.66
411.08	231.99
411.45	232.30
411.82	232.59
412.20	232.94
412.57	233.36
412.95	233.64
413.32	234.05
413.69	234.46
414.07	234.92
414.44	235.40
414.82	235.86
415.19	236.41
415.56	236.96
415.94	237.50
416.31	238.17
416.68	238.77
417.06	239.48
417.43	240.13
417.81	240.94
418.18	241.70
418.55	242.55
418.93	243.43
419.30	244.32
419.67	245.24
420.04	246.18
420.42	247.20
420.79	248.41
421.16	249.57
421.54	250.72
421.91	251.92
422.28	253.12
422.66	254.41
423.03	255.69
423.40	257.01
423.77	258.40
424.15	259.80
424.52	261.31
424.89	262.91
425.26	264.45
425.64	265.87
426.01	267.46
426.38	269.07
426.75	270.69
427.13	272.40
427.50	274.20
427.87	276.09
428.24	277.90
428.61	279.60
428.99	281.50
429.36	283.59
429.73	285.66
430.10	287.73
430.47	289.82
430.85	291.95
431.22	294.17
431.59	296.56
431.96	298.78
432.33	301.27
432.70	303.67
433.08	306.52
433.45	309.13
433.82	311.73
434.19	314.64
434.56	317.45
434.93	320.12
435.30	322.78
435.68	325.66
436.05	328.49
436.42	331.34
436.79	333.89
437.16	336.63
437.53	339.48
437.90	342.29
438.27	345.02
438.64	347.88
439.01	350.52
439.38	352.78
439.75	354.99
440.13	357.44
440.50	359.74
440.87	361.57
441.24	363.53
441.61	365.73
441.98	367.25
442.35	369.06
442.72	370.86
443.09	372.67
443.46	373.66
443.83	374.23
444.20	374.73
444.57	375.58
444.94	375.89
445.31	376.17
445.68	376.50
446.05	376.62
446.42	376.14
446.79	375.71
447.16	375.22
447.53	374.90
447.90	373.78
448.27	372.64
448.64	371.08
449.01	369.92
449.37	367.95
449.74	366.04
450.11	363.80
450.48	361.40
450.85	358.91
451.22	356.79
451.59	354.81
451.96	352.84
452.33	350.23
452.70	347.84
453.07	345.04
453.43	342.15
453.80	339.36
454.17	336.73
454.54	334.19
454.91	331.52
455.28	328.86
455.65	326.36
456.02	323.91
456.38	321.76
456.75	319.12
457.12	316.87
457.49	314.70
457.86	312.56
458.23	310.68
458.59	308.59
458.96	306.48
459.33	304.60
459.70	302.72
460.07	301.19
460.43	299.48
460.80	297.85
461.17	296.40
461.54	294.89
461.91	293.45
462.27	291.98
462.64	290.70
463.01	289.34
463.38	288.03
463.74	286.64
464.11	285.48
464.48	284.43
464.85	283.29
465.21	282.36
465.58	281.37
465.95	280.28
466.32	279.34
466.68	278.44
467.05	277.55
467.42	276.69
467.78	275.74
468.15	274.82
468.52	274.15
468.88	273.31
469.25	272.49
469.62	271.84
469.98	271.19
470.35	270.55
470.72	269.95
471.08	269.27
471.45	268.73
471.82	268.18
472.18	267.57
472.55	267.13
472.92	266.59
473.28	266.16
473.65	265.71
474.02	265.27
474.38	264.86
474.75	264.58
475.11	264.24
475.48	264.02
475.85	263.81
476.21	263.57
476.58	263.36
476.94	263.25
477.31	263.07
477.67	262.90
478.04	262.80
478.41	262.73
478.77	262.80
479.14	262.75
479.50	262.79
479.87	262.86
480.23	262.92
480.60	263.01
480.96	263.08
481.33	263.33
481.69	263.53
482.06	263.77
482.42	263.93
482.79	264.18
483.15	264.49
483.52	264.87
483.88	265.24
484.25	265.66
484.61	266.09
484.98	266.61
485.34	267.19
485.71	267.78
486.07	268.41
486.44	268.95
486.80	269.67
487.17	270.40
487.53	271.26
487.90	272.13
488.26	273.10
488.62	274.14
488.99	275.11
489.35	276.18
489.72	277.31
490.08	278.51
490.44	279.72
490.81	281.07
491.17	282.45
491.54	283.92
491.90	285.46
492.26	287.11
492.63	288.81
492.99	290.57
493.36	292.46
493.72	294.49
494.08	296.64
494.45	298.87
494.81	301.22
495.17	303.58
495.54	306.18
495.90	308.88
496.26	311.65
496.63	314.54
496.99	317.65
497.35	320.92
497.72	324.35
498.08	327.86
498.44	331.50
498.80	335.38
499.17	339.39
499.53	343.53
499.89	347.87
500.26	352.38
500.62	357.01
500.98	362.01
501.34	367.06
501.71	372.37
502.07	377.84
502.43	383.44
502.79	389.31
503.16	395.37
503.52	401.61
503.88	408.00
504.24	414.68
504.60	421.57
504.97	428.73
505.33	435.98
505.69	443.71
506.05	451.50
506.41	459.42
506.78	467.61
507.14	476.07
507.50	484.82
507.86	493.83
508.22	503.06
508.59	512.25
508.95	521.88
509.31	531.69
509.67	541.80
510.03	552.10
510.39	562.63
510.75	573.44
511.12	584.38
511.48	595.74
511.84	607.19
512.20	618.70
512.56	630.61
512.92	642.84
513.28	655.22
513.64	667.69
514.00	680.37
514.37	693.32
514.73	706.37
515.09	719.38
515.45	732.65
515.81	746.29
516.17	760.23
516.53	774.26
516.89	788.42
517.25	802.55
517.61	816.98
517.97	831.52
518.33	845.96
518.69	860.74
519.05	875.62
519.41	890.80
519.77	906.32
520.13	921.75
520.49	937.14
520.85	952.60
521.21	968.35
521.57	984.68
521.93	1000.49
522.29	1016.92
522.65	1033.20
523.01	1049.43
523.37	1065.50
523.73	1081.76
524.09	1097.91
524.45	1114.24
524.81	1130.87
525.17	1147.72
525.53	1164.52
525.89	1181.38
526.25	1198.27
526.61	1214.66
526.97	1231.44
527.33	1247.94
527.68	1264.59
528.04	1281.05
528.40	1297.66
528.76	1314.76
529.12	1331.29
529.48	1348.04
529.84	1364.07
530.20	1380.79
530.56	1397.94
530.91	1415.26
531.27	1432.03
531.63	1448.55
531.99	1465.21
532.35	1481.21
532.71	1497.03
533.07	1513.34
533.42	1529.29
533.78	1545.22
534.14	1561.58
534.50	1576.86
534.86	1592.76
535.21	1607.93
535.57	1623.95
535.93	1639.45
536.29	1654.18
536.65	1669.23
537.00	1684.17
537.36	1699.41
537.72	1713.89
538.08	1728.16
538.44	1741.98
538.79	1755.85
539.15	1769.56
539.51	1783.31
539.87	1797.61
540.22	1811.40
540.58	1825.26
540.94	1838.55
541.29	1851.48
541.65	1864.13
542.01	1877.50
542.37	1889.87
542.72	1902.30
543.08	1914.01
543.44	1926.41
543.79	1937.71
544.15	1948.60
544.51	1960.21
544.87	1971.31
545.22	1982.20
545.58	1992.45
545.94	2002.26
546.29	2012.10
546.65	2021.92
547.01	2031.11
547.36	2039.89
547.72	2048.32
548.07	2056.03
548.43	2064.18
548.79	2072.42
549.14	2080.08
549.50	2087.37
549.86	2095.07
550.21	2102.36
550.57	2109.71
550.92	2116.27
551.28	2123.36
551.64	2130.45
551.99	2136.83
552.35	2142.80
552.70	2148.86
553.06	2154.77
553.41	2161.22
553.77	2167.16
554.13	2173.38
554.48	2179.51
554.84	2184.89
555.19	2190.31
555.55	2195.54
555.90	2200.02
556.26	2204.81
556.61	2209.48
556.97	2213.60
557.32	2217.56
557.68	2221.72
558.03	2225.89
558.39	2229.60
558.74	2234.23
559.10	2238.13
559.45	2242.04
559.81	2246.49
560.16	2250.23
560.52	2253.56
560.87	2256.85
561.23	2259.63
561.58	2262.42
561.94	2264.96
562.29	2267.42
562.64	2269.98
563.00	2272.59
563.35	2276.18
563.71	2279.28
564.06	2282.40
564.42	2285.30
564.77	2287.99
565.12	2290.18
565.48	2291.93
565.83	2293.71
566.19	2294.98
566.54	2295.89
566.89	2296.96
567.25	2297.40
567.60	2298.84
567.96	2300.59
568.31	2301.45
568.66	2302.51
569.02	2303.16
569.37	2303.40
569.72	2304.23
570.08	2304.39
570.43	2304.27
570.78	2303.60
571.14	2301.93
571.49	2300.61
571.84	2300.25
572.20	2299.09
572.55	2298.21
572.90	2296.77
573.26	2295.36
573.61	2293.55
573.96	2291.75
574.31	2288.56
574.67	2285.68
575.02	2282.09
575.37	2278.58
575.72	2274.63
576.08	2271.40
576.43	2267.91
576.78	2264.23
577.13	2261.07
577.49	2257.92
577.84	2254.49
578.19	2250.72
578.54	2246.99
578.90	2242.67
579.25	2237.23
579.60	2232.25
579.95	2227.02
580.30	2221.97
580.66	2216.84
581.01	2211.82
581.36	2206.90
581.71	2202.73
582.06	2198.24
582.42	2193.56
582.77	2188.11
583.12	2183.55
583.47	2178.55
583.82	2173.58
584.17	2168.27
584.53	2162.68
584.88	2157.12
585.23	2151.35
585.58	2145.83
585.93	2140.46
586.28	2135.85
586.63	2130.63
586.98	2125.50
587.34	2120.91
587.69	2115.94
588.04	2110.65
588.39	2105.03
588.74	2098.69
589.09	2092.63
589.44	2085.69
589.79	2079.89
590.14	2074.43
590.49	2067.86
590.84	2061.54
591.19	2055.53
591.54	2049.07
591.89	2041.66
592.25	2034.64
592.60	2027.45
592.95	2019.90
593.30	2012.47
593.65	2004.74
594.00	1997.78
594.35	1990.54
594.70	1982.43
595.05	1975.23
595.40	1968.05
595.75	1960.59
596.10	1954.29
596.45	1947.35
596.80	1941.25
597.15	1934.50
597.50	1927.34
597.85	1920.93
598.19	1914.33
598.54	1907.12
598.89	1900.49
599.24	1894.68
599.59	1888.04
599.94	1881.77
600.29	1875.41
600.64	1868.94
600.99	1861.54
601.34	1854.64
601.69	1847.62
602.04	1840.73
602.39	1833.36
602.74	1826.39
603.08	1819.53
603.43	1812.70
603.78	1805.49
604.13	1798.25
604.48	1790.75
604.83	1784.04
605.18	1776.90
605.53	1768.83
605.87	1760.82
606.22	1753.61
606.57	1745.49
606.92	1738.20
607.27	1730.98
607.62	1724.13
607.96	1716.80
608.31	1710.15
608.66	1702.48
609.01	1694.87
609.36	1687.27
609.70	1679.17
610.05	1671.02
610.40	1663.40
610.75	1655.06
611.10	1647.39
611.44	1638.99
611.79	1631.19
612.14	1622.40
612.49	1613.38
612.83	1604.95
613.18	1596.88
613.53	1588.81
613.88	1580.27
614.22	1571.98
614.57	1563.38
614.92	1555.09
615.27	1547.52
615.61	1539.11
615.96	1531.12
616.31	1523.52
616.65	1516.17
617.00	1508.72
617.35	1501.20
617.70	1492.79
618.04	1484.20
618.39	1475.97
618.74	1468.35
619.08	1459.95
619.43	1452.41
619.78	1445.54
620.12	1438.45
620.47	1430.84
620.82	1422.57
621.16	1415.32
621.51	1407.68
621.85	1400.06
622.20	1391.71
622.55	1383.35
622.89	1375.55
623.24	1367.90
623.59	1360.55
623.93	1353.03
624.28	1345.76
624.62	1338.00
624.97	1330.82
625.32	1324.21
625.66	1317.20
626.01	1310.01
626.35	1302.53
626.70	1294.77
627.04	1286.97
627.39	1279.15
627.73	1271.82
628.08	1264.84
628.43	1257.53
628.77	1250.22
629.12	1242.68
629.46	1235.51
629.81	1228.07
630.15	1220.83
630.50	1213.46
630.84	1205.22
631.19	1197.36
631.53	1189.77
631.88	1182.45
632.22	1174.88
632.57	1167.51
632.91	1159.95
633.26	1152.46
633.60	1145.26
633.95	1138.17
634.29	1131.30
634.64	1124.62
634.98	1117.21
635.32	1110.11
635.67	1103.50
636.01	1096.84
636.36	1089.99
636.70	1083.38
637.05	1076.78
637.39	1070.35
637.73	1063.83
638.08	1057.94
638.42	1051.89
638.77	1045.49
639.11	1038.71
639.45	1032.27
639.80	1025.63
640.14	1019.19
640.49	1012.69
640.83	1006.27
641.17	999.94
641.52	993.38
641.86	986.95
642.20	981.10
642.55	974.82
642.89	968.28
643.23	961.76
643.58	956.05
643.92	949.89
644.26	943.79
644.61	937.76
644.95	931.68
645.29	925.11
645.64	918.38
645.98	912.05
646.32	906.34
646.66	900.40
647.01	894.56
647.35	888.90
647.69	883.11
648.04	877.58
648.38	871.89
648.72	865.87
649.06	859.82
649.41	853.88
649.75	847.96
650.09	842.04
650.43	836.19
650.78	830.00
651.12	824.12
651.46	818.48
651.80	812.72
652.14	807.43
652.49	802.03
652.83	796.82
653.17	791.10
653.51	785.29
653.85	779.91
654.20	774.25
654.54	768.27
654.88	762.54
655.22	756.65
655.56	750.90
655.90	745.51
656.25	740.28
656.59	734.98
656.93	729.88
657.27	724.71
657.61	719.34
657.95	714.27
658.29	709.14
658.64	703.87
658.98	698.63
659.32	693.09
659.66	687.91
660.00	682.60
660.34	677.71
660.68	672.85
661.02	667.78
661.36	663.07
661.70	658.54
662.05	654.16
662.39	649.86
662.73	645.46
663.07	641.04
663.41	636.60
663.75	632.13
664.09	627.53
664.43	623.17
664.77	619.03
665.11	614.81
665.45	610.69
665.79	606.58
666.13	602.40
666.47	598.39
666.81	594.17
667.15	590.01
667.49	586.11
667.83	582.33
668.17	578.38
668.51	574.30
668.85	570.24
669.19	566.35
669.53	562.52
669.87	558.65
670.21	555.00
670.55	551.35
670.89	547.95
671.23	544.57
671.57	541.02
671.91	537.45
672.25	533.93
672.58	530.40
672.92	527.01
673.26	523.85
673.60	520.65
673.94	517.58
674.28	514.72
674.62	511.81
674.96	508.66
675.30	505.77
675.64	502.87
675.97	500.13
676.31	497.25
676.65	494.27
676.99	491.56
677.33	488.65
677.67	485.81
678.01	482.74
678.34	479.68
678.68	476.84
679.02	474.07
679.36	471.33
679.70	468.63
680.04	465.87
680.37	462.94
680.71	460.19
681.05	457.60
681.39	454.84
681.73	452.14
682.06	449.68
682.40	447.12
682.74	444.61
683.08	442.10
683.42	439.55
683.75	437.06
684.09	434.50
684.43	432.16
684.77	429.71
685.10	427.40
685.44	425.17
685.78	422.90
686.12	420.63
686.45	418.30
686.79	416.00
687.13	413.81
687.46	411.68
687.80	409.53
688.14	407.31
688.48	405.31
688.81	403.10
689.15	400.92
689.49	398.79
689.82	396.72
690.16	394.61
690.50	392.67
690.83	390.72
691.17	388.78
691.51	386.85
691.84	384.99
692.18	383.08
692.52	381.06
692.85	379.13
693.19	377.25
693.52	375.48
693.86	373.67
694.20	371.92
694.53	370.12
694.87	368.32
695.21	366.51
695.54	364.68
695.88	362.93
696.21	361.24
696.55	359.54
696.88	357.87
697.22	356.22
697.56	354.64
697.89	353.00
698.23	351.38
698.56	349.76
698.90	348.16
699.23	346.50
699.57	344.97
699.90	343.45
700.24	341.92
700.58	340.38
700.91	338.89
701.25	337.44
701.58	336.08
701.92	334.68
702.25	333.32
702.59	331.96
702.92	330.65
703.26	329.30
703.59	328.01
703.93	326.79
704.26	325.56
704.60	324.23
704.93	322.95
705.26	321.68
705.60	320.49
705.93	319.30
706.27	318.23
706.60	317.16
706.94	316.04
707.27	314.88
707.61	313.82
707.94	312.76
708.27	311.62
708.61	310.52
708.94	309.51
709.28	308.57
709.61	307.59
709.94	306.68
710.28	305.67
710.61	304.72
710.95	303.67
711.28	302.73
711.61	301.76
711.95	300.85
712.28	299.91
712.61	298.92
712.95	298.01
713.28	297.18
713.61	296.30
713.95	295.43
714.28	294.61
714.61	293.72
714.95	292.93
715.28	292.08
715.61	291.20
715.95	290.31
716.28	289.43
716.61	288.60
716.95	287.77
717.28	287.04
717.61	286.29
717.94	285.57
718.28	284.76
718.61	284.02
718.94	283.34
719.27	282.66
719.61	281.99
719.94	281.34
720.27	280.59
720.60	279.90
720.94	279.29
721.27	278.70
721.60	278.16
721.93	277.53
722.27	277.01
722.60	276.45
722.93	275.93
723.26	275.39
723.59	274.79
723.93	274.24
724.26	273.63
724.59	273.08
724.92	272.56
725.25	272.05
725.59	271.56
725.92	271.05
726.25	270.54
726.58	270.07
726.91	269.57
727.24	269.11
727.57	268.68
727.91	268.16
728.24	267.69
728.57	267.15
728.90	266.66
729.23	266.17
729.56	265.74
729.89	265.25
730.22	264.77
730.55	264.34
730.89	263.91
731.22	263.46
731.55	262.98
731.88	262.55
732.21	262.16
732.54	261.73
732.87	261.30
733.20	260.94
733.53	260.57
733.86	260.23
734.19	259.82
734.52	259.46
734.85	259.13
735.18	258.70
735.51	258.35
735.84	258.01
736.17	257.67
736.50	257.30
736.83	257.09
737.16	256.76
737.49	256.43
737.82	256.05
738.15	255.77
738.48	255.45
738.81	255.13
739.14	254.77
739.47	254.45
739.80	254.17
740.13	253.84
740.46	253.52
740.79	253.15
741.12	252.89
741.45	252.55
741.78	252.23
742.11	251.97
742.44	251.65
742.77	251.36
743.10	251.08
743.43	250.76
743.75	250.38
744.08	250.24
744.41	249.93
744.74	249.65
745.07	249.37
745.40	249.10
745.73	248.83
746.06	248.60
746.39	248.31
746.71	248.03
747.04	247.75
747.37	247.47
747.70	247.19
748.03	246.90
748.36	246.65
748.68	246.40
749.01	246.15
749.34	245.97
749.67	245.74
750.00	245.49
750.33	245.35
750.65	245.14
750.98	244.77
751.31	244.57
751.64	244.35
751.97	244.18
752.29	244.01
752.62	243.80
752.95	243.58
753.28	243.39
753.60	243.21
753.93	243.04
754.26	242.86
754.59	242.65
754.91	242.47
755.24	242.25
755.57	242.07
755.90	241.84
756.22	241.63
756.55	241.44
756.88	241.25
757.20	241.04
757.53	240.83
757.86	240.69
758.19	240.54
758.51	240.42
758.84	240.19
759.17	240.01
759.49	239.83
759.82	239.71
760.15	239.58
760.47	239.41
760.80	239.23
761.13	239.12
761.45	238.97
761.78	238.85
762.11	238.73
762.43	238.57
762.76	238.49
763.08	238.36
763.41	238.20
763.74	238.09
764.06	237.92
764.39	237.78
764.71	237.67
765.04	237.52
765.37	237.39
765.69	237.28
766.02	237.15
766.34	237.05
766.67	236.88
767.00	236.76
767.32	236.73
767.65	236.65
767.97	236.50
768.30	236.41
768.62	236.31
768.95	236.15
769.27	236.03
769.60	235.90
769.92	235.78
770.25	235.63
770.57	235.49
770.90	235.35
771.22	235.22
771.55	235.07
771.87	234.97
772.20	234.87
772.52	234.86
772.85	234.87
773.17	234.76
773.50	234.69
773.82	234.61
774.15	234.46
774.47	234.35
774.80	234.23
775.12	234.16
775.45	234.07
775.77	234.01
776.09	233.94
776.42	233.87
776.74	233.82
777.07	233.77
777.39	233.71
777.72	233.66
778.04	233.61
778.36	233.53
778.69	233.47
779.01	233.39
779.33	233.23
779.66	233.05
779.98	232.97
780.31	232.88
780.63	232.83
780.95	232.76
781.28	232.68
781.60	232.64
781.92	232.55
782.25	232.45
782.57	232.36
782.89	232.26
783.22	232.19
783.54	232.10
783.86	232.05
784.19	231.97
784.51	231.92
784.83	231.87
785.16	231.83
785.48	231.77
785.80	231.71
786.12	231.63
786.45	231.55
786.77	231.50
787.09	231.49
