SpectraSuite Data File
++++++++++++++++++++++++++++++++++++
Date: Fri Feb 01 15:00:36 EST 2013
User: group
Dark Spectrum Present: No
Reference Spectrum Present: No
Number of Sampled Component Spectra: 1
Spectrometers: USB2E7196
Integration Time (usec): 35000 (USB2E7196)
Spectra Averaged: 100 (USB2E7196)
Boxcar Smoothing: 10 (USB2E7196)
Correct for Electrical Dark: No (USB2E7196)
Strobe/Lamp Enabled: No (USB2E7196)
Correct for Detector Non-linearity: No (USB2E7196)
Correct for Stray Light: No (USB2E7196)
Number of Pixels in Processed Spectrum: 2048
>>>>>Begin Processed Spectral Data<<<<<
339.09	0.00
339.48	215.81
339.86	217.22
340.24	218.65
340.63	219.58
341.01	222.70
341.39	222.83
341.78	223.90
342.16	225.35
342.54	225.26
342.93	213.86
343.31	224.67
343.69	225.21
344.07	225.65
344.46	226.04
344.84	226.39
345.22	226.63
345.60	226.84
345.99	227.02
346.37	227.13
346.75	227.22
347.13	227.30
347.52	227.34
347.90	227.40
348.28	227.41
348.66	227.48
349.05	227.50
349.43	227.53
349.81	227.55
350.19	227.61
350.57	227.63
350.96	227.70
351.34	227.77
351.72	227.84
352.10	227.95
352.48	228.02
352.87	228.09
353.25	228.12
353.63	228.18
354.01	228.23
354.39	228.30
354.77	228.38
355.15	228.49
355.54	228.54
355.92	228.55
356.30	228.63
356.68	228.76
357.06	228.83
357.44	228.85
357.82	228.92
358.20	228.99
358.58	229.05
358.97	229.12
359.35	229.15
359.73	229.19
360.11	229.22
360.49	229.26
360.87	229.33
361.25	229.40
361.63	229.47
362.01	229.51
362.39	229.53
362.77	229.56
363.15	229.54
363.53	229.54
363.91	229.58
364.29	229.57
364.67	229.47
365.05	229.44
365.43	229.48
365.81	229.48
366.19	229.48
366.57	229.50
366.95	229.45
367.33	229.43
367.71	229.41
368.09	229.39
368.47	229.37
368.85	229.28
369.23	229.27
369.61	229.20
369.99	229.17
370.37	229.15
370.75	229.16
371.13	229.10
371.51	229.03
371.89	228.98
372.27	228.95
372.65	228.89
373.03	228.83
373.41	228.75
373.78	228.68
374.16	228.58
374.54	228.45
374.92	228.39
375.30	228.33
375.68	228.23
376.06	228.15
376.44	228.07
376.82	228.03
377.19	227.96
377.57	227.88
377.95	227.79
378.33	227.72
378.71	227.56
379.09	227.54
379.47	227.51
379.84	227.43
380.22	227.36
380.60	227.29
380.98	227.23
381.36	227.16
381.73	227.09
382.11	227.04
382.49	226.99
382.87	226.92
383.25	226.90
383.62	226.95
384.00	226.89
384.38	226.83
384.76	226.81
385.13	226.77
385.51	226.69
385.89	226.62
386.27	226.54
386.64	226.53
387.02	226.45
387.40	226.40
387.78	226.33
388.15	226.27
388.53	226.22
388.91	226.22
389.29	226.19
389.66	226.17
390.04	226.14
390.42	226.14
390.79	226.12
391.17	226.05
391.55	225.97
391.92	225.97
392.30	225.99
392.68	225.97
393.05	225.97
393.43	226.01
393.81	226.04
394.18	226.05
394.56	226.06
394.94	226.09
395.31	226.10
395.69	226.21
396.06	226.26
396.44	226.31
396.82	226.35
397.19	226.44
397.57	226.49
397.95	226.58
398.32	226.65
398.70	226.73
399.07	226.85
399.45	226.91
399.82	226.99
400.20	227.07
400.58	227.14
400.95	227.22
401.33	227.35
401.70	227.50
402.08	227.62
402.45	227.74
402.83	227.87
403.20	228.01
403.58	228.12
403.95	228.28
404.33	228.43
404.71	228.53
405.08	228.74
405.46	228.87
405.83	229.02
406.21	229.18
406.58	229.40
406.96	229.56
407.33	229.73
407.70	229.95
408.08	230.23
408.45	230.46
408.83	230.71
409.20	230.91
409.58	231.12
409.95	231.38
410.33	231.68
410.70	231.94
411.08	232.28
411.45	232.58
411.82	232.90
412.20	233.25
412.57	233.71
412.95	233.98
413.32	234.44
413.69	234.86
414.07	235.29
414.44	235.74
414.82	236.22
415.19	236.80
415.56	237.33
415.94	237.87
416.31	238.52
416.68	239.11
417.06	239.86
417.43	240.55
417.81	241.35
418.18	242.10
418.55	242.95
418.93	243.80
419.30	244.71
419.67	245.66
420.04	246.58
420.42	247.56
420.79	248.75
421.16	249.87
421.54	251.04
421.91	252.27
422.28	253.51
422.66	254.84
423.03	256.13
423.40	257.43
423.77	258.80
424.15	260.21
424.52	261.72
424.89	263.29
425.26	264.81
425.64	266.22
426.01	267.80
426.38	269.45
426.75	271.13
427.13	272.82
427.50	274.63
427.87	276.55
428.24	278.39
428.61	280.10
428.99	282.03
429.36	284.12
429.73	286.18
430.10	288.19
430.47	290.25
430.85	292.39
431.22	294.68
431.59	297.10
431.96	299.33
432.33	301.80
432.70	304.20
433.08	307.07
433.45	309.77
433.82	312.37
434.19	315.23
434.56	318.06
434.93	320.73
435.30	323.37
435.68	326.27
436.05	329.09
436.42	331.93
436.79	334.49
437.16	337.18
437.53	340.01
437.90	342.88
438.27	345.62
438.64	348.42
439.01	350.98
439.38	353.22
439.75	355.41
440.13	357.91
440.50	360.28
440.87	362.08
441.24	363.96
441.61	366.13
441.98	367.68
442.35	369.48
442.72	371.36
443.09	373.12
443.46	374.13
443.83	374.76
444.20	375.27
444.57	376.06
444.94	376.38
445.31	376.71
445.68	377.01
446.05	377.12
446.42	376.74
446.79	376.33
447.16	375.88
447.53	375.58
447.90	374.46
448.27	373.23
448.64	371.66
449.01	370.52
449.37	368.55
449.74	366.63
450.11	364.35
450.48	361.85
450.85	359.35
451.22	357.19
451.59	355.17
451.96	353.20
452.33	350.58
452.70	348.26
453.07	345.42
453.43	342.53
453.80	339.77
454.17	337.11
454.54	334.58
454.91	331.86
455.28	329.17
455.65	326.64
456.02	324.22
456.38	322.06
456.75	319.41
457.12	317.16
457.49	314.90
457.86	312.73
458.23	310.88
458.59	308.80
458.96	306.68
459.33	304.80
459.70	302.94
460.07	301.46
460.43	299.72
460.80	298.09
461.17	296.67
461.54	295.14
461.91	293.68
462.27	292.22
462.64	290.99
463.01	289.64
463.38	288.33
463.74	286.96
464.11	285.80
464.48	284.74
464.85	283.63
465.21	282.76
465.58	281.83
465.95	280.72
466.32	279.79
466.68	278.91
467.05	278.01
467.42	277.13
467.78	276.18
468.15	275.26
468.52	274.59
468.88	273.70
469.25	272.89
469.62	272.27
469.98	271.57
470.35	270.90
470.72	270.27
471.08	269.60
471.45	269.02
471.82	268.45
472.18	267.86
472.55	267.40
472.92	266.86
473.28	266.37
473.65	265.93
474.02	265.52
474.38	265.13
474.75	264.78
475.11	264.39
475.48	264.12
475.85	263.89
476.21	263.61
476.58	263.43
476.94	263.24
477.31	263.05
477.67	262.87
478.04	262.76
478.41	262.70
478.77	262.73
479.14	262.67
479.50	262.65
479.87	262.72
480.23	262.79
480.60	262.91
480.96	263.00
481.33	263.17
481.69	263.34
482.06	263.50
482.42	263.68
482.79	263.95
483.15	264.25
483.52	264.61
483.88	264.99
484.25	265.35
484.61	265.79
484.98	266.25
485.34	266.80
485.71	267.35
486.07	267.90
486.44	268.47
486.80	269.18
487.17	269.92
487.53	270.73
487.90	271.58
488.26	272.47
488.62	273.46
488.99	274.42
489.35	275.45
489.72	276.61
490.08	277.84
490.44	279.05
490.81	280.36
491.17	281.68
491.54	283.13
491.90	284.65
492.26	286.31
492.63	288.03
492.99	289.81
493.36	291.71
493.72	293.76
494.08	295.84
494.45	298.08
494.81	300.43
495.17	302.85
495.54	305.44
495.90	308.12
496.26	310.89
496.63	313.87
496.99	316.97
497.35	320.14
497.72	323.50
498.08	327.00
498.44	330.68
498.80	334.65
499.17	338.71
499.53	342.89
499.89	347.25
500.26	351.76
500.62	356.49
500.98	361.43
501.34	366.49
501.71	371.84
502.07	377.26
502.43	382.86
502.79	388.62
503.16	394.63
503.52	400.87
503.88	407.26
504.24	413.89
504.60	420.78
504.97	427.95
505.33	435.26
505.69	442.89
506.05	450.60
506.41	458.43
506.78	466.58
507.14	474.97
507.50	483.67
507.86	492.65
508.22	501.82
508.59	511.01
508.95	520.57
509.31	530.35
509.67	540.41
510.03	550.68
510.39	561.26
510.75	572.09
511.12	582.97
511.48	594.28
511.84	605.68
512.20	617.17
512.56	629.10
512.92	641.32
513.28	653.68
513.64	666.21
514.00	678.92
514.37	691.83
514.73	704.92
515.09	717.93
515.45	731.24
515.81	744.81
516.17	758.82
516.53	773.06
516.89	787.24
517.25	801.51
517.61	815.98
517.97	830.41
518.33	844.79
518.69	859.66
519.05	874.70
519.41	889.90
519.77	905.52
520.13	921.03
520.49	936.40
520.85	951.89
521.21	967.62
521.57	983.84
521.93	999.62
522.29	1016.05
522.65	1032.43
523.01	1048.64
523.37	1064.79
523.73	1081.09
524.09	1097.14
524.45	1113.56
524.81	1130.21
525.17	1147.08
525.53	1164.11
525.89	1181.10
526.25	1198.04
526.61	1214.48
526.97	1231.29
527.33	1247.84
527.68	1264.44
528.04	1281.00
528.40	1297.73
528.76	1314.77
529.12	1331.45
529.48	1348.44
529.84	1364.53
530.20	1381.19
530.56	1398.39
530.91	1415.86
531.27	1432.70
531.63	1449.31
531.99	1465.83
532.35	1481.88
532.71	1497.82
533.07	1514.06
533.42	1530.00
533.78	1546.07
534.14	1562.31
534.50	1577.65
534.86	1593.53
535.21	1608.85
535.57	1624.86
535.93	1640.47
536.29	1655.53
536.65	1670.85
537.00	1685.82
537.36	1701.37
537.72	1716.06
538.08	1730.53
538.44	1744.38
538.79	1758.25
539.15	1772.13
539.51	1786.21
539.87	1800.69
540.22	1814.53
540.58	1828.56
540.94	1842.07
541.29	1855.11
541.65	1867.96
542.01	1881.35
542.37	1893.67
542.72	1906.16
543.08	1918.07
543.44	1930.53
543.79	1941.85
544.15	1952.84
544.51	1964.37
544.87	1975.35
545.22	1986.12
545.58	1996.29
545.94	2006.02
546.29	2015.88
546.65	2025.59
547.01	2034.58
547.36	2043.32
547.72	2051.82
548.07	2059.66
548.43	2067.84
548.79	2075.88
549.14	2083.54
549.50	2090.99
549.86	2098.84
550.21	2106.29
550.57	2113.43
550.92	2119.86
551.28	2126.87
551.64	2134.00
551.99	2140.51
552.35	2146.69
552.70	2152.83
553.06	2158.88
553.41	2165.35
553.77	2171.35
554.13	2177.39
554.48	2183.64
554.84	2188.99
555.19	2194.44
555.55	2199.49
555.90	2203.95
556.26	2208.66
556.61	2213.29
556.97	2217.27
557.32	2221.48
557.68	2225.48
558.03	2229.89
558.39	2233.74
558.74	2238.32
559.10	2242.00
559.45	2245.55
559.81	2249.75
560.16	2253.43
560.52	2256.56
560.87	2259.91
561.23	2262.56
561.58	2265.47
561.94	2267.86
562.29	2270.27
562.64	2272.71
563.00	2275.31
563.35	2278.73
563.71	2281.77
564.06	2284.90
564.42	2287.78
564.77	2289.98
565.12	2292.07
565.48	2293.58
565.83	2295.18
566.19	2296.36
566.54	2297.16
566.89	2298.15
567.25	2298.66
567.60	2300.10
567.96	2301.70
568.31	2302.45
568.66	2303.36
569.02	2303.82
569.37	2304.06
569.72	2304.71
570.08	2304.61
570.43	2304.35
570.78	2303.48
571.14	2301.95
571.49	2300.37
571.84	2299.95
572.20	2298.69
572.55	2297.57
572.90	2296.11
573.26	2294.59
573.61	2292.72
573.96	2290.88
574.31	2287.86
574.67	2284.66
575.02	2280.71
575.37	2277.15
575.72	2273.02
576.08	2269.66
576.43	2266.38
576.78	2262.58
577.13	2259.31
577.49	2256.26
577.84	2252.79
578.19	2248.94
578.54	2245.02
578.90	2240.77
579.25	2235.15
579.60	2230.07
579.95	2224.78
580.30	2219.45
580.66	2214.23
581.01	2209.19
581.36	2204.05
581.71	2199.74
582.06	2194.97
582.42	2190.42
582.77	2185.02
583.12	2180.44
583.47	2175.38
583.82	2169.89
584.17	2164.57
584.53	2158.83
584.88	2152.99
585.23	2146.89
585.58	2141.45
585.93	2135.96
586.28	2131.08
586.63	2125.77
586.98	2120.73
587.34	2115.99
587.69	2110.94
588.04	2105.40
588.39	2099.62
588.74	2093.10
589.09	2086.92
589.44	2080.16
589.79	2074.13
590.14	2068.43
590.49	2061.70
590.84	2055.37
591.19	2049.34
591.54	2042.79
591.89	2035.14
592.25	2028.11
592.60	2020.88
592.95	2013.11
593.30	2005.60
593.65	1997.90
594.00	1990.81
594.35	1983.25
594.70	1975.20
595.05	1967.99
595.40	1960.85
595.75	1953.26
596.10	1946.79
596.45	1939.79
596.80	1933.60
597.15	1926.63
597.50	1919.38
597.85	1912.87
598.19	1906.21
598.54	1899.04
598.89	1892.47
599.24	1886.76
599.59	1880.01
599.94	1873.83
600.29	1867.53
600.64	1860.98
600.99	1853.41
601.34	1846.51
601.69	1839.57
602.04	1832.49
602.39	1825.16
602.74	1818.18
603.08	1811.41
603.43	1804.72
603.78	1797.55
604.13	1790.16
604.48	1782.85
604.83	1776.06
605.18	1769.04
605.53	1760.91
605.87	1752.93
606.22	1745.57
606.57	1737.63
606.92	1730.56
607.27	1723.30
607.62	1716.27
607.96	1708.87
608.31	1702.28
608.66	1694.55
609.01	1687.04
609.36	1679.54
609.70	1671.42
610.05	1663.34
610.40	1655.61
610.75	1647.32
611.10	1639.59
611.44	1631.44
611.79	1623.53
612.14	1614.91
612.49	1605.87
612.83	1597.51
613.18	1589.34
613.53	1581.19
613.88	1572.67
614.22	1564.26
614.57	1555.76
614.92	1547.73
615.27	1540.19
615.61	1531.88
615.96	1524.06
616.31	1516.40
616.65	1509.00
617.00	1501.51
617.35	1493.98
617.70	1485.63
618.04	1477.11
618.39	1468.87
618.74	1461.24
619.08	1453.04
619.43	1445.57
619.78	1438.62
620.12	1431.58
620.47	1424.21
620.82	1416.09
621.16	1408.67
621.51	1401.06
621.85	1393.47
622.20	1384.93
622.55	1376.68
622.89	1368.90
623.24	1361.37
623.59	1354.03
623.93	1346.61
624.28	1339.39
624.62	1331.86
624.97	1324.79
625.32	1318.13
625.66	1311.17
626.01	1303.88
626.35	1296.48
626.70	1288.72
627.04	1281.01
627.39	1273.21
627.73	1265.84
628.08	1258.90
628.43	1251.64
628.77	1244.29
629.12	1236.74
629.46	1229.66
629.81	1222.33
630.15	1215.12
630.50	1207.73
630.84	1199.64
631.19	1191.79
631.53	1184.41
631.88	1176.81
632.22	1169.21
632.57	1161.92
632.91	1154.46
633.26	1147.07
633.60	1139.80
633.95	1132.80
634.29	1125.75
634.64	1119.14
634.98	1111.72
635.32	1104.67
635.67	1098.17
636.01	1091.62
636.36	1084.85
636.70	1078.45
637.05	1071.88
637.39	1065.44
637.73	1058.90
638.08	1053.12
638.42	1047.22
638.77	1040.84
639.11	1034.31
639.45	1028.07
639.80	1021.48
640.14	1015.08
640.49	1008.64
640.83	1002.29
641.17	995.97
641.52	989.76
641.86	983.43
642.20	977.70
642.55	971.50
642.89	965.06
643.23	958.58
643.58	952.80
643.92	946.60
644.26	940.47
644.61	934.56
644.95	928.46
645.29	921.82
645.64	915.12
645.98	908.80
646.32	903.00
646.66	896.99
647.01	891.21
647.35	885.54
647.69	879.83
648.04	874.35
648.38	868.59
648.72	862.51
649.06	856.39
649.41	850.59
649.75	844.57
650.09	838.68
650.43	832.87
650.78	826.81
651.12	820.87
651.46	815.25
651.80	809.43
652.14	804.13
652.49	798.83
652.83	793.61
653.17	787.90
653.51	782.14
653.85	776.68
654.20	771.02
654.54	765.05
654.88	759.26
655.22	753.37
655.56	747.72
655.90	742.34
656.25	737.07
656.59	731.64
656.93	726.61
657.27	721.38
657.61	715.99
657.95	710.89
658.29	705.86
658.64	700.71
658.98	695.50
659.32	690.08
659.66	684.83
660.00	679.52
660.34	674.59
660.68	669.77
661.02	664.75
661.36	660.06
661.70	655.57
662.05	651.25
662.39	646.97
662.73	642.58
663.07	638.24
663.41	633.88
663.75	629.41
664.09	624.83
664.43	620.50
664.77	616.43
665.11	612.21
665.45	608.14
665.79	604.02
666.13	599.89
666.47	595.81
666.81	591.74
667.15	587.64
667.49	583.82
667.83	580.07
668.17	576.19
668.51	572.18
668.85	568.17
669.19	564.44
669.53	560.63
669.87	556.75
670.21	553.12
670.55	549.49
670.89	546.10
671.23	542.72
671.57	539.19
671.91	535.68
672.25	532.23
672.58	528.68
672.92	525.36
673.26	522.26
673.60	519.13
673.94	516.06
674.28	513.22
674.62	510.22
674.96	507.10
675.30	504.27
675.64	501.38
675.97	498.66
676.31	495.78
676.65	492.89
676.99	490.23
677.33	487.37
677.67	484.61
678.01	481.59
678.34	478.62
678.68	475.79
679.02	472.99
679.36	470.20
679.70	467.57
680.04	464.79
680.37	461.89
680.71	459.16
681.05	456.50
681.39	453.81
681.73	451.24
682.06	448.80
682.40	446.23
682.74	443.74
683.08	441.23
683.42	438.59
683.75	436.08
684.09	433.55
684.43	431.12
684.77	428.63
685.10	426.35
685.44	424.06
685.78	421.84
686.12	419.62
686.45	417.41
686.79	415.09
687.13	412.92
687.46	410.81
687.80	408.67
688.14	406.53
688.48	404.49
688.81	402.25
689.15	400.10
689.49	397.97
689.82	395.87
690.16	393.80
690.50	391.86
690.83	389.95
691.17	387.98
691.51	386.10
691.84	384.26
692.18	382.30
692.52	380.34
692.85	378.41
693.19	376.53
693.52	374.69
693.86	372.92
694.20	371.14
694.53	369.36
694.87	367.54
695.21	365.73
695.54	363.90
695.88	362.13
696.21	360.35
696.55	358.68
696.88	356.99
697.22	355.32
697.56	353.70
697.89	352.05
698.23	350.45
698.56	348.82
698.90	347.23
699.23	345.55
699.57	344.00
699.90	342.45
700.24	340.90
700.58	339.41
700.91	337.92
701.25	336.47
701.58	335.11
701.92	333.72
702.25	332.35
702.59	331.02
702.92	329.76
703.26	328.49
703.59	327.20
703.93	326.05
704.26	324.84
704.60	323.57
704.93	322.31
705.26	321.04
705.60	319.88
705.93	318.76
706.27	317.79
706.60	316.74
706.94	315.68
707.27	314.56
707.61	313.50
707.94	312.48
708.27	311.35
708.61	310.28
708.94	309.28
709.28	308.30
709.61	307.33
709.94	306.37
710.28	305.33
710.61	304.40
710.95	303.37
711.28	302.49
711.61	301.56
711.95	300.66
712.28	299.69
712.61	298.72
712.95	297.79
713.28	296.90
713.61	296.06
713.95	295.17
714.28	294.34
714.61	293.48
714.95	292.63
715.28	291.83
715.61	290.97
715.95	290.13
716.28	289.30
716.61	288.50
716.95	287.70
717.28	286.99
717.61	286.20
717.94	285.43
718.28	284.60
718.61	283.92
718.94	283.24
719.27	282.60
719.61	281.98
719.94	281.39
720.27	280.68
720.60	280.00
720.94	279.38
721.27	278.77
721.60	278.22
721.93	277.63
722.27	277.11
722.60	276.61
722.93	276.07
723.26	275.54
723.59	274.97
723.93	274.42
724.26	273.87
724.59	273.34
724.92	272.86
725.25	272.38
725.59	271.84
725.92	271.33
726.25	270.84
726.58	270.36
726.91	269.81
727.24	269.35
727.57	268.86
727.91	268.35
728.24	267.93
728.57	267.41
728.90	266.95
729.23	266.45
729.56	265.99
729.89	265.53
730.22	265.06
730.55	264.61
730.89	264.18
731.22	263.72
731.55	263.29
731.88	262.84
732.21	262.38
732.54	261.96
732.87	261.56
733.20	261.17
733.53	260.78
733.86	260.44
734.19	260.04
734.52	259.67
734.85	259.39
735.18	258.95
735.51	258.59
735.84	258.20
736.17	257.86
736.50	257.44
736.83	257.17
737.16	256.79
737.49	256.44
737.82	256.10
738.15	255.77
738.48	255.43
738.81	255.13
739.14	254.82
739.47	254.50
739.80	254.17
740.13	253.89
740.46	253.53
740.79	253.16
741.12	252.85
741.45	252.54
741.78	252.16
742.11	251.87
742.44	251.55
742.77	251.27
743.10	250.96
743.43	250.64
743.75	250.27
744.08	250.14
744.41	249.87
744.74	249.59
745.07	249.29
745.40	249.06
745.73	248.79
746.06	248.50
746.39	248.23
746.71	247.95
747.04	247.69
747.37	247.42
747.70	247.18
748.03	246.89
748.36	246.70
748.68	246.44
749.01	246.21
749.34	246.01
749.67	245.80
750.00	245.59
750.33	245.45
750.65	245.21
750.98	244.87
751.31	244.63
751.64	244.43
751.97	244.28
752.29	244.05
752.62	243.84
752.95	243.65
753.28	243.43
753.60	243.21
753.93	243.00
754.26	242.82
754.59	242.62
754.91	242.44
755.24	242.23
755.57	242.06
755.90	241.89
756.22	241.69
756.55	241.46
756.88	241.28
757.20	241.06
757.53	240.92
757.86	240.76
758.19	240.61
758.51	240.45
758.84	240.24
759.17	240.06
759.49	239.93
759.82	239.83
760.15	239.70
760.47	239.55
760.80	239.39
761.13	239.29
761.45	239.13
761.78	239.01
762.11	238.87
762.43	238.77
762.76	238.59
763.08	238.48
763.41	238.38
763.74	238.27
764.06	238.12
764.39	238.01
764.71	237.87
765.04	237.72
765.37	237.57
765.69	237.47
766.02	237.35
766.34	237.22
766.67	237.03
767.00	236.95
767.32	236.90
767.65	236.86
767.97	236.75
768.30	236.66
768.62	236.52
768.95	236.39
769.27	236.27
769.60	236.15
769.92	236.03
770.25	235.91
770.57	235.76
770.90	235.67
771.22	235.54
771.55	235.47
771.87	235.40
772.20	235.31
772.52	235.27
772.85	235.32
773.17	235.20
773.50	235.13
773.82	235.02
774.15	234.89
774.47	234.73
774.80	234.62
775.12	234.52
775.45	234.44
775.77	234.35
776.09	234.26
776.42	234.19
776.74	234.13
777.07	234.01
777.39	233.94
777.72	233.86
778.04	233.79
778.36	233.68
778.69	233.62
779.01	233.59
779.33	233.47
779.66	233.24
779.98	233.19
780.31	233.13
780.63	233.09
780.95	233.04
781.28	232.97
781.60	232.89
781.92	232.84
782.25	232.80
782.57	232.74
782.89	232.65
783.22	232.61
783.54	232.53
783.86	232.51
784.19	232.44
784.51	232.42
784.83	232.35
785.16	232.32
785.48	232.23
785.80	232.16
786.12	232.08
786.45	232.04
786.77	231.99
787.09	231.96
