SpectraSuite Data File
++++++++++++++++++++++++++++++++++++
Date: Fri Feb 01 16:08:52 EST 2013
User: group
Dark Spectrum Present: No
Reference Spectrum Present: No
Number of Sampled Component Spectra: 1
Spectrometers: USB2E7196
Integration Time (usec): 35000 (USB2E7196)
Spectra Averaged: 100 (USB2E7196)
Boxcar Smoothing: 10 (USB2E7196)
Correct for Electrical Dark: No (USB2E7196)
Strobe/Lamp Enabled: No (USB2E7196)
Correct for Detector Non-linearity: No (USB2E7196)
Correct for Stray Light: No (USB2E7196)
Number of Pixels in Processed Spectrum: 2048
>>>>>Begin Processed Spectral Data<<<<<
339.09	0.00
339.48	214.05
339.86	215.98
340.24	216.98
340.63	218.85
341.01	221.20
341.39	221.88
341.78	222.67
342.16	224.00
342.54	224.00
342.93	212.66
343.31	223.44
343.69	224.02
344.07	224.48
344.46	224.92
344.84	225.31
345.22	225.56
345.60	225.77
345.99	225.95
346.37	226.06
346.75	226.17
347.13	226.27
347.52	226.33
347.90	226.39
348.28	226.44
348.66	226.49
349.05	226.47
349.43	226.49
349.81	226.58
350.19	226.63
350.57	226.67
350.96	226.78
351.34	226.86
351.72	226.92
352.10	227.00
352.48	227.06
352.87	227.11
353.25	227.16
353.63	227.22
354.01	227.30
354.39	227.38
354.77	227.44
355.15	227.55
355.54	227.61
355.92	227.65
356.30	227.70
356.68	227.85
357.06	227.92
357.44	228.00
357.82	228.03
358.20	228.10
358.58	228.16
358.97	228.19
359.35	228.26
359.73	228.32
360.11	228.40
360.49	228.45
360.87	228.49
361.25	228.53
361.63	228.61
362.01	228.67
362.39	228.69
362.77	228.77
363.15	228.79
363.53	228.83
363.91	228.87
364.29	228.91
364.67	228.84
365.05	228.88
365.43	228.90
365.81	228.94
366.19	228.97
366.57	229.01
366.95	229.02
367.33	228.98
367.71	229.00
368.09	229.01
368.47	228.99
368.85	229.01
369.23	229.03
369.61	228.98
369.99	228.96
370.37	228.94
370.75	228.93
371.13	228.89
371.51	228.84
371.89	228.81
372.27	228.77
372.65	228.70
373.03	228.64
373.41	228.59
373.78	228.51
374.16	228.44
374.54	228.34
374.92	228.27
375.30	228.20
375.68	228.12
376.06	228.01
376.44	227.93
376.82	227.81
377.19	227.75
377.57	227.69
377.95	227.58
378.33	227.51
378.71	227.41
379.09	227.35
379.47	227.29
379.84	227.23
380.22	227.19
380.60	227.11
380.98	227.06
381.36	226.98
381.73	226.92
382.11	226.86
382.49	226.80
382.87	226.74
383.25	226.69
383.62	226.75
384.00	226.67
384.38	226.62
384.76	226.64
385.13	226.62
385.51	226.53
385.89	226.49
386.27	226.43
386.64	226.38
387.02	226.31
387.40	226.27
387.78	226.23
388.15	226.17
388.53	226.16
388.91	226.10
389.29	226.07
389.66	226.04
390.04	226.00
390.42	226.00
390.79	225.98
391.17	225.98
391.55	225.86
391.92	225.88
392.30	225.89
392.68	225.84
393.05	225.84
393.43	225.85
393.81	225.87
394.18	225.88
394.56	225.90
394.94	225.94
395.31	225.93
395.69	225.96
396.06	226.02
396.44	226.07
396.82	226.10
397.19	226.19
397.57	226.24
397.95	226.31
398.32	226.34
398.70	226.40
399.07	226.49
399.45	226.54
399.82	226.63
400.20	226.69
400.58	226.75
400.95	226.78
401.33	226.90
401.70	227.04
402.08	227.17
402.45	227.28
402.83	227.38
403.20	227.52
403.58	227.60
403.95	227.71
404.33	227.87
404.71	227.99
405.08	228.17
405.46	228.32
405.83	228.49
406.21	228.64
406.58	228.83
406.96	229.00
407.33	229.20
407.70	229.40
408.08	229.71
408.45	229.96
408.83	230.22
409.20	230.43
409.58	230.62
409.95	230.90
410.33	231.13
410.70	231.42
411.08	231.71
411.45	232.03
411.82	232.32
412.20	232.62
412.57	233.03
412.95	233.29
413.32	233.71
413.69	234.08
414.07	234.49
414.44	234.95
414.82	235.40
415.19	235.91
415.56	236.44
415.94	236.97
416.31	237.57
416.68	238.20
417.06	238.91
417.43	239.60
417.81	240.29
418.18	241.09
418.55	241.89
418.93	242.77
419.30	243.65
419.67	244.60
420.04	245.56
420.42	246.56
420.79	247.75
421.16	248.89
421.54	250.08
421.91	251.30
422.28	252.53
422.66	253.88
423.03	255.22
423.40	256.51
423.77	257.91
424.15	259.33
424.52	260.80
424.89	262.41
425.26	263.96
425.64	265.42
426.01	267.02
426.38	268.67
426.75	270.37
427.13	272.16
427.50	273.99
427.87	275.83
428.24	277.69
428.61	279.42
428.99	281.36
429.36	283.47
429.73	285.53
430.10	287.51
430.47	289.54
430.85	291.61
431.22	293.88
431.59	296.25
431.96	298.52
432.33	300.98
432.70	303.35
433.08	306.10
433.45	308.76
433.82	311.36
434.19	314.25
434.56	317.03
434.93	319.63
435.30	322.20
435.68	325.12
436.05	327.93
436.42	330.75
436.79	333.24
437.16	335.93
437.53	338.73
437.90	341.56
438.27	344.30
438.64	347.08
439.01	349.64
439.38	351.79
439.75	353.90
440.13	356.39
440.50	358.69
440.87	360.54
441.24	362.45
441.61	364.55
441.98	366.02
442.35	367.81
442.72	369.63
443.09	371.42
443.46	372.42
443.83	372.99
444.20	373.49
444.57	374.33
444.94	374.62
445.31	374.96
445.68	375.28
446.05	375.37
446.42	375.01
446.79	374.58
447.16	374.23
447.53	373.91
447.90	372.77
448.27	371.62
448.64	370.11
449.01	368.97
449.37	367.03
449.74	365.18
450.11	362.94
450.48	360.47
450.85	357.98
451.22	355.82
451.59	353.77
451.96	351.81
452.33	349.25
452.70	346.89
453.07	344.12
453.43	341.26
453.80	338.51
454.17	335.86
454.54	333.35
454.91	330.61
455.28	327.97
455.65	325.49
456.02	323.06
456.38	320.90
456.75	318.22
457.12	315.99
457.49	313.78
457.86	311.60
458.23	309.78
458.59	307.73
458.96	305.66
459.33	303.83
459.70	301.98
460.07	300.48
460.43	298.78
460.80	297.15
461.17	295.75
461.54	294.24
461.91	292.84
462.27	291.39
462.64	290.13
463.01	288.78
463.38	287.51
463.74	286.13
464.11	284.99
464.48	284.02
464.85	282.92
465.21	282.04
465.58	281.15
465.95	280.03
466.32	279.11
466.68	278.22
467.05	277.36
467.42	276.50
467.78	275.53
468.15	274.63
468.52	273.96
468.88	273.10
469.25	272.37
469.62	271.76
469.98	271.07
470.35	270.47
470.72	269.90
471.08	269.24
471.45	268.73
471.82	268.16
472.18	267.55
472.55	267.08
472.92	266.55
473.28	266.06
473.65	265.62
474.02	265.17
474.38	264.81
474.75	264.46
475.11	264.11
475.48	263.86
475.85	263.62
476.21	263.42
476.58	263.21
476.94	263.06
477.31	262.90
477.67	262.74
478.04	262.61
478.41	262.53
478.77	262.58
479.14	262.49
479.50	262.46
479.87	262.54
480.23	262.64
480.60	262.72
480.96	262.81
481.33	263.04
481.69	263.25
482.06	263.42
482.42	263.63
482.79	263.87
483.15	264.19
483.52	264.56
483.88	264.91
484.25	265.34
484.61	265.72
484.98	266.15
485.34	266.73
485.71	267.35
486.07	267.99
486.44	268.56
486.80	269.30
487.17	270.07
487.53	270.91
487.90	271.77
488.26	272.72
488.62	273.70
488.99	274.70
489.35	275.76
489.72	276.92
490.08	278.13
490.44	279.41
490.81	280.76
491.17	282.15
491.54	283.61
491.90	285.14
492.26	286.81
492.63	288.52
492.99	290.30
493.36	292.17
493.72	294.20
494.08	296.32
494.45	298.55
494.81	300.89
495.17	303.30
495.54	305.83
495.90	308.48
496.26	311.33
496.63	314.26
496.99	317.39
497.35	320.66
497.72	324.07
498.08	327.59
498.44	331.24
498.80	335.22
499.17	339.28
499.53	343.47
499.89	347.89
500.26	352.47
500.62	357.13
500.98	362.08
501.34	367.20
501.71	372.54
502.07	378.03
502.43	383.67
502.79	389.53
503.16	395.65
503.52	401.95
503.88	408.34
504.24	414.97
504.60	421.83
504.97	428.99
505.33	436.34
505.69	444.05
506.05	451.87
506.41	459.70
506.78	467.88
507.14	476.35
507.50	485.06
507.86	494.12
508.22	503.35
508.59	512.58
508.95	522.13
509.31	531.98
509.67	542.08
510.03	552.39
510.39	562.95
510.75	573.72
511.12	584.68
511.48	595.93
511.84	607.41
512.20	618.95
512.56	630.90
512.92	643.07
513.28	655.46
513.64	667.89
514.00	680.69
514.37	693.61
514.73	706.65
515.09	719.67
515.45	732.86
515.81	746.44
516.17	760.47
516.53	774.54
516.89	788.67
517.25	802.76
517.61	817.17
517.97	831.53
518.33	846.02
518.69	860.76
519.05	875.79
519.41	890.92
519.77	906.45
520.13	921.74
520.49	937.00
520.85	952.28
521.21	967.95
521.57	984.06
521.93	999.83
522.29	1016.10
522.65	1032.27
523.01	1048.45
523.37	1064.43
523.73	1080.50
524.09	1096.55
524.45	1112.82
524.81	1129.47
525.17	1146.15
525.53	1162.97
525.89	1179.71
526.25	1196.55
526.61	1212.84
526.97	1229.50
527.33	1245.78
527.68	1262.31
528.04	1278.83
528.40	1295.38
528.76	1312.45
529.12	1329.00
529.48	1345.76
529.84	1361.73
530.20	1378.32
530.56	1395.37
530.91	1412.69
531.27	1429.37
531.63	1445.83
531.99	1462.31
532.35	1478.19
532.71	1494.04
533.07	1510.27
533.42	1526.16
533.78	1542.09
534.14	1558.28
534.50	1573.54
534.86	1589.57
535.21	1604.68
535.57	1620.45
535.93	1635.84
536.29	1650.53
536.65	1665.45
537.00	1680.09
537.36	1695.37
537.72	1709.89
538.08	1724.25
538.44	1737.95
538.79	1751.68
539.15	1765.27
539.51	1779.02
539.87	1793.36
540.22	1807.03
540.58	1820.65
540.94	1833.89
541.29	1846.67
541.65	1859.37
542.01	1872.66
542.37	1884.80
542.72	1897.25
543.08	1909.02
543.44	1921.40
543.79	1932.51
544.15	1943.57
544.51	1955.13
544.87	1966.08
545.22	1976.68
545.58	1986.64
545.94	1996.40
546.29	2006.27
546.65	2016.12
547.01	2025.22
547.36	2033.86
547.72	2042.27
548.07	2050.14
548.43	2058.27
548.79	2066.31
549.14	2073.82
549.50	2080.97
549.86	2088.57
550.21	2095.88
550.57	2103.16
550.92	2109.71
551.28	2116.83
551.64	2123.78
551.99	2130.32
552.35	2136.44
552.70	2142.76
553.06	2148.87
553.41	2155.28
553.77	2161.37
554.13	2167.35
554.48	2173.54
554.84	2179.06
555.19	2184.42
555.55	2189.72
555.90	2194.24
556.26	2199.16
556.61	2203.83
556.97	2208.10
557.32	2212.24
557.68	2216.26
558.03	2220.49
558.39	2224.22
558.74	2228.71
559.10	2232.52
559.45	2236.19
559.81	2240.45
560.16	2244.20
560.52	2247.35
560.87	2250.61
561.23	2253.29
561.58	2256.21
561.94	2258.70
562.29	2260.93
562.64	2263.62
563.00	2266.07
563.35	2269.55
563.71	2272.46
564.06	2275.73
564.42	2278.62
564.77	2281.16
565.12	2283.61
565.48	2285.52
565.83	2287.44
566.19	2288.78
566.54	2289.79
566.89	2290.88
567.25	2291.53
567.60	2292.90
567.96	2294.68
568.31	2295.66
568.66	2296.84
569.02	2297.47
569.37	2297.82
569.72	2298.80
570.08	2299.05
570.43	2299.17
570.78	2298.47
571.14	2297.12
571.49	2295.77
571.84	2295.46
572.20	2294.48
572.55	2293.45
572.90	2291.91
573.26	2290.49
573.61	2288.84
573.96	2286.99
574.31	2284.04
574.67	2280.99
575.02	2277.42
575.37	2274.00
575.72	2270.20
576.08	2266.77
576.43	2263.50
576.78	2259.86
577.13	2256.64
577.49	2253.33
577.84	2249.91
578.19	2246.32
578.54	2242.74
578.90	2238.46
579.25	2232.98
579.60	2227.91
579.95	2222.86
580.30	2217.81
580.66	2212.73
581.01	2207.72
581.36	2202.85
581.71	2198.73
582.06	2194.43
582.42	2189.87
582.77	2184.68
583.12	2180.24
583.47	2175.66
583.82	2170.70
584.17	2165.48
584.53	2160.08
584.88	2154.65
585.23	2148.82
585.58	2143.30
585.93	2137.86
586.28	2133.14
586.63	2128.07
586.98	2123.10
587.34	2118.51
587.69	2113.64
588.04	2108.39
588.39	2102.84
588.74	2096.42
589.09	2090.29
589.44	2083.41
589.79	2077.45
590.14	2071.85
590.49	2065.17
590.84	2058.71
591.19	2052.69
591.54	2046.19
591.89	2038.87
592.25	2032.03
592.60	2024.90
592.95	2017.49
593.30	2010.10
593.65	2002.62
594.00	1995.61
594.35	1988.39
594.70	1980.27
595.05	1973.29
595.40	1966.03
595.75	1958.61
596.10	1952.56
596.45	1945.87
596.80	1939.70
597.15	1933.09
597.50	1926.21
597.85	1919.88
598.19	1913.25
598.54	1906.22
598.89	1899.61
599.24	1893.82
599.59	1887.11
599.94	1880.92
600.29	1874.55
600.64	1867.90
600.99	1860.52
601.34	1853.80
601.69	1846.88
602.04	1840.15
602.39	1832.70
602.74	1825.88
603.08	1819.16
603.43	1812.40
603.78	1805.12
604.13	1797.94
604.48	1790.72
604.83	1783.74
605.18	1776.69
605.53	1768.73
605.87	1760.73
606.22	1753.57
606.57	1745.41
606.92	1738.14
607.27	1730.99
607.62	1724.08
607.96	1716.96
608.31	1710.31
608.66	1702.67
609.01	1695.13
609.36	1687.52
609.70	1679.43
610.05	1671.38
610.40	1663.67
610.75	1655.24
611.10	1647.64
611.44	1639.35
611.79	1631.40
612.14	1622.69
612.49	1613.49
612.83	1605.24
613.18	1597.16
613.53	1589.12
613.88	1580.65
614.22	1572.30
614.57	1563.67
614.92	1555.66
615.27	1548.16
615.61	1539.84
615.96	1531.78
616.31	1524.10
616.65	1516.64
617.00	1509.08
617.35	1501.41
617.70	1493.10
618.04	1484.69
618.39	1476.44
618.74	1468.73
619.08	1460.31
619.43	1452.72
619.78	1445.94
620.12	1438.65
620.47	1431.05
620.82	1422.81
621.16	1415.46
621.51	1407.92
621.85	1400.27
622.20	1391.71
622.55	1383.29
622.89	1375.39
623.24	1367.82
623.59	1360.34
623.93	1352.93
624.28	1345.72
624.62	1338.26
624.97	1331.08
625.32	1324.30
625.66	1317.29
626.01	1310.14
626.35	1302.77
626.70	1295.00
627.04	1287.13
627.39	1279.35
627.73	1272.00
628.08	1265.16
628.43	1257.77
628.77	1250.31
629.12	1242.84
629.46	1235.70
629.81	1228.23
630.15	1221.05
630.50	1213.64
630.84	1205.58
631.19	1197.56
631.53	1190.05
631.88	1182.41
632.22	1174.88
632.57	1167.62
632.91	1160.06
633.26	1152.65
633.60	1145.25
633.95	1138.12
634.29	1131.14
634.64	1124.44
634.98	1117.05
635.32	1109.92
635.67	1103.28
636.01	1096.75
636.36	1089.96
636.70	1083.41
637.05	1076.93
637.39	1070.47
637.73	1063.98
638.08	1058.01
638.42	1052.08
638.77	1045.75
639.11	1039.21
639.45	1032.67
639.80	1025.95
640.14	1019.57
640.49	1013.04
640.83	1006.80
641.17	1000.61
641.52	994.32
641.86	987.86
642.20	981.90
642.55	975.49
642.89	969.04
643.23	962.58
643.58	956.81
643.92	950.60
644.26	944.54
644.61	938.48
644.95	932.46
645.29	925.93
645.64	919.18
645.98	912.73
646.32	906.91
646.66	900.91
647.01	895.09
647.35	889.32
647.69	883.49
648.04	877.94
648.38	872.19
648.72	866.19
649.06	860.17
649.41	854.36
649.75	848.47
650.09	842.59
650.43	836.79
650.78	830.54
651.12	824.63
651.46	818.92
651.80	813.18
652.14	807.86
652.49	802.49
652.83	797.34
653.17	791.65
653.51	785.88
653.85	780.47
654.20	774.92
654.54	768.89
654.88	763.18
655.22	757.24
655.56	751.45
655.90	745.99
656.25	740.77
656.59	735.40
656.93	730.26
657.27	725.12
657.61	719.60
657.95	714.51
658.29	709.38
658.64	704.09
658.98	698.78
659.32	693.22
659.66	687.99
660.00	682.68
660.34	677.77
660.68	672.86
661.02	667.82
661.36	663.10
661.70	658.61
662.05	654.24
662.39	649.94
662.73	645.61
663.07	641.24
663.41	636.73
663.75	632.23
664.09	627.66
664.43	623.25
664.77	619.19
665.11	614.91
665.45	610.82
665.79	606.69
666.13	602.60
666.47	598.52
666.81	594.40
667.15	590.27
667.49	586.41
667.83	582.64
668.17	578.77
668.51	574.66
668.85	570.67
669.19	566.79
669.53	562.91
669.87	558.97
670.21	555.25
670.55	551.59
670.89	548.21
671.23	544.77
671.57	541.23
671.91	537.69
672.25	534.20
672.58	530.66
672.92	527.28
673.26	524.10
673.60	520.88
673.94	517.70
674.28	514.77
674.62	511.74
674.96	508.56
675.30	505.65
675.64	502.70
675.97	499.92
676.31	497.07
676.65	494.18
676.99	491.48
677.33	488.60
677.67	485.82
678.01	482.76
678.34	479.81
678.68	476.96
679.02	474.12
679.36	471.37
679.70	468.67
680.04	465.94
680.37	463.08
680.71	460.31
681.05	457.73
681.39	455.03
681.73	452.35
682.06	449.88
682.40	447.32
682.74	444.84
683.08	442.32
683.42	439.72
683.75	437.26
684.09	434.74
684.43	432.30
684.77	429.85
685.10	427.51
685.44	425.24
685.78	422.97
686.12	420.71
686.45	418.41
686.79	416.14
687.13	413.89
687.46	411.76
687.80	409.62
688.14	407.35
688.48	405.27
688.81	403.06
689.15	400.88
689.49	398.72
689.82	396.62
690.16	394.47
690.50	392.53
690.83	390.52
691.17	388.52
691.51	386.56
691.84	384.71
692.18	382.78
692.52	380.79
692.85	378.83
693.19	376.95
693.52	375.15
693.86	373.28
694.20	371.53
694.53	369.63
694.87	367.79
695.21	366.06
695.54	364.23
695.88	362.50
696.21	360.76
696.55	359.10
696.88	357.35
697.22	355.67
697.56	354.02
697.89	352.38
698.23	350.77
698.56	349.17
698.90	347.55
699.23	345.90
699.57	344.34
699.90	342.77
700.24	341.21
700.58	339.66
700.91	338.18
701.25	336.72
701.58	335.39
701.92	334.02
702.25	332.59
702.59	331.25
702.92	329.91
703.26	328.62
703.59	327.29
703.93	326.15
704.26	324.96
704.60	323.60
704.93	322.34
705.26	321.06
705.60	319.90
705.93	318.77
706.27	317.74
706.60	316.67
706.94	315.60
707.27	314.44
707.61	313.37
707.94	312.34
708.27	311.22
708.61	310.11
708.94	309.10
709.28	308.14
709.61	307.15
709.94	306.22
710.28	305.16
710.61	304.20
710.95	303.10
711.28	302.18
711.61	301.26
711.95	300.36
712.28	299.43
712.61	298.44
712.95	297.48
713.28	296.60
713.61	295.70
713.95	294.81
714.28	294.01
714.61	293.15
714.95	292.29
715.28	291.44
715.61	290.63
715.95	289.76
716.28	288.92
716.61	288.10
716.95	287.27
717.28	286.58
717.61	285.80
717.94	285.09
718.28	284.30
718.61	283.60
718.94	282.90
719.27	282.22
719.61	281.58
719.94	280.93
720.27	280.20
720.60	279.50
720.94	278.87
721.27	278.26
721.60	277.72
721.93	277.13
722.27	276.62
722.60	276.03
722.93	275.48
723.26	274.92
723.59	274.34
723.93	273.79
724.26	273.19
724.59	272.66
724.92	272.11
725.25	271.61
725.59	271.12
725.92	270.61
726.25	270.12
726.58	269.65
726.91	269.16
727.24	268.69
727.57	268.23
727.91	267.72
728.24	267.26
728.57	266.77
728.90	266.34
729.23	265.82
729.56	265.41
729.89	264.94
730.22	264.45
730.55	264.01
730.89	263.59
731.22	263.17
731.55	262.73
731.88	262.33
732.21	261.94
732.54	261.50
732.87	261.05
733.20	260.65
733.53	260.25
733.86	259.86
734.19	259.45
734.52	259.11
734.85	258.80
735.18	258.35
735.51	257.95
735.84	257.57
736.17	257.23
736.50	256.79
736.83	256.56
737.16	256.26
737.49	255.90
737.82	255.56
738.15	255.23
738.48	254.87
738.81	254.54
739.14	254.15
739.47	253.82
739.80	253.54
740.13	253.25
740.46	252.91
740.79	252.61
741.12	252.31
741.45	251.97
741.78	251.62
742.11	251.39
742.44	251.08
742.77	250.78
743.10	250.50
743.43	250.26
743.75	249.85
744.08	249.72
744.41	249.47
744.74	249.19
745.07	248.90
745.40	248.64
745.73	248.42
746.06	248.18
746.39	247.91
746.71	247.65
747.04	247.34
747.37	247.08
747.70	246.84
748.03	246.60
748.36	246.37
748.68	246.14
749.01	245.88
749.34	245.68
749.67	245.43
750.00	245.19
750.33	245.03
750.65	244.84
750.98	244.48
751.31	244.23
751.64	244.01
751.97	243.88
752.29	243.67
752.62	243.41
752.95	243.20
753.28	243.01
753.60	242.80
753.93	242.64
754.26	242.46
754.59	242.24
754.91	242.02
755.24	241.81
755.57	241.61
755.90	241.43
756.22	241.23
756.55	241.06
756.88	240.87
757.20	240.60
757.53	240.42
757.86	240.25
758.19	240.12
758.51	239.93
758.84	239.70
759.17	239.54
759.49	239.37
759.82	239.23
760.15	239.06
760.47	238.89
760.80	238.70
761.13	238.57
761.45	238.38
761.78	238.25
762.11	238.14
762.43	237.99
762.76	237.82
763.08	237.67
763.41	237.51
763.74	237.36
764.06	237.21
764.39	237.06
764.71	236.93
765.04	236.77
765.37	236.63
765.69	236.51
766.02	236.38
766.34	236.26
766.67	236.11
767.00	236.03
767.32	235.98
767.65	235.93
767.97	235.78
768.30	235.70
768.62	235.59
768.95	235.45
769.27	235.34
769.60	235.24
769.92	235.12
770.25	235.01
770.57	234.90
770.90	234.83
771.22	234.75
771.55	234.62
771.87	234.54
772.20	234.48
772.52	234.49
772.85	234.51
773.17	234.40
773.50	234.31
773.82	234.20
774.15	234.08
774.47	233.94
774.80	233.84
775.12	233.73
775.45	233.64
775.77	233.57
776.09	233.50
776.42	233.42
776.74	233.40
777.07	233.30
777.39	233.22
777.72	233.14
778.04	233.06
778.36	232.99
778.69	232.95
779.01	232.88
779.33	232.66
779.66	232.54
779.98	232.48
780.31	232.41
780.63	232.43
780.95	232.38
781.28	232.36
781.60	232.32
781.92	232.28
782.25	232.25
782.57	232.20
782.89	232.17
783.22	232.12
783.54	232.03
783.86	232.02
784.19	232.00
784.51	231.96
784.83	231.90
785.16	231.86
785.48	231.83
785.80	231.78
786.12	231.79
786.45	231.69
786.77	231.68
787.09	231.66
