SpectraSuite Data File
++++++++++++++++++++++++++++++++++++
Date: Fri Feb 01 16:47:06 EST 2013
User: group
Dark Spectrum Present: No
Reference Spectrum Present: No
Number of Sampled Component Spectra: 1
Spectrometers: USB2E7196
Integration Time (usec): 35000 (USB2E7196)
Spectra Averaged: 100 (USB2E7196)
Boxcar Smoothing: 10 (USB2E7196)
Correct for Electrical Dark: No (USB2E7196)
Strobe/Lamp Enabled: No (USB2E7196)
Correct for Detector Non-linearity: No (USB2E7196)
Correct for Stray Light: No (USB2E7196)
Number of Pixels in Processed Spectrum: 2048
>>>>>Begin Processed Spectral Data<<<<<
339.09	0.00
339.48	213.51
339.86	214.84
340.24	216.10
340.63	217.13
341.01	220.23
341.39	219.83
341.78	221.64
342.16	222.98
342.54	223.08
342.93	211.68
343.31	222.39
343.69	222.92
344.07	223.38
344.46	223.80
344.84	224.20
345.22	224.45
345.60	224.71
345.99	224.89
346.37	225.01
346.75	225.10
347.13	225.16
347.52	225.21
347.90	225.29
348.28	225.32
348.66	225.34
349.05	225.35
349.43	225.38
349.81	225.47
350.19	225.49
350.57	225.49
350.96	225.56
351.34	225.64
351.72	225.72
352.10	225.82
352.48	225.90
352.87	225.95
353.25	226.02
353.63	226.08
354.01	226.15
354.39	226.23
354.77	226.30
355.15	226.44
355.54	226.52
355.92	226.59
356.30	226.70
356.68	226.83
357.06	226.93
357.44	226.99
357.82	227.05
358.20	227.15
358.58	227.26
358.97	227.33
359.35	227.43
359.73	227.51
360.11	227.56
360.49	227.62
360.87	227.65
361.25	227.72
361.63	227.80
362.01	227.86
362.39	227.93
362.77	228.03
363.15	228.03
363.53	228.08
363.91	228.10
364.29	228.10
364.67	228.08
365.05	228.10
365.43	228.11
365.81	228.13
366.19	228.18
366.57	228.21
366.95	228.21
367.33	228.19
367.71	228.18
368.09	228.22
368.47	228.21
368.85	228.22
369.23	228.22
369.61	228.19
369.99	228.19
370.37	228.13
370.75	228.12
371.13	228.07
371.51	227.99
371.89	227.99
372.27	227.96
372.65	227.90
373.03	227.85
373.41	227.82
373.78	227.77
374.16	227.67
374.54	227.56
374.92	227.49
375.30	227.42
375.68	227.33
376.06	227.25
376.44	227.20
376.82	227.15
377.19	227.08
377.57	227.01
377.95	226.93
378.33	226.87
378.71	226.75
379.09	226.70
379.47	226.68
379.84	226.58
380.22	226.48
380.60	226.40
380.98	226.31
381.36	226.23
381.73	226.12
382.11	226.07
382.49	226.05
382.87	226.00
383.25	225.96
383.62	226.00
384.00	225.89
384.38	225.81
384.76	225.76
385.13	225.72
385.51	225.65
385.89	225.57
386.27	225.53
386.64	225.49
387.02	225.43
387.40	225.36
387.78	225.32
388.15	225.26
388.53	225.24
388.91	225.22
389.29	225.18
389.66	225.18
390.04	225.09
390.42	225.06
390.79	225.03
391.17	224.97
391.55	224.87
391.92	224.89
392.30	224.91
392.68	224.88
393.05	224.85
393.43	224.85
393.81	224.87
394.18	224.85
394.56	224.86
394.94	224.88
395.31	224.90
395.69	224.95
396.06	225.00
396.44	225.02
396.82	225.04
397.19	225.13
397.57	225.12
397.95	225.23
398.32	225.25
398.70	225.28
399.07	225.33
399.45	225.36
399.82	225.44
400.20	225.46
400.58	225.52
400.95	225.56
401.33	225.67
401.70	225.79
402.08	225.86
402.45	225.91
402.83	226.03
403.20	226.12
403.58	226.19
403.95	226.31
404.33	226.40
404.71	226.52
405.08	226.68
405.46	226.83
405.83	226.94
406.21	227.07
406.58	227.27
406.96	227.45
407.33	227.63
407.70	227.78
408.08	228.07
408.45	228.31
408.83	228.54
409.20	228.73
409.58	228.91
409.95	229.20
410.33	229.50
410.70	229.73
411.08	230.06
411.45	230.37
411.82	230.67
412.20	231.03
412.57	231.44
412.95	231.73
413.32	232.13
413.69	232.56
414.07	232.99
414.44	233.43
414.82	233.90
415.19	234.42
415.56	234.98
415.94	235.49
416.31	236.11
416.68	236.76
417.06	237.46
417.43	238.17
417.81	238.92
418.18	239.73
418.55	240.57
418.93	241.43
419.30	242.31
419.67	243.25
420.04	244.21
420.42	245.19
420.79	246.34
421.16	247.50
421.54	248.67
421.91	249.90
422.28	251.15
422.66	252.47
423.03	253.79
423.40	255.12
423.77	256.53
424.15	257.93
424.52	259.39
424.89	261.02
425.26	262.55
425.64	263.98
426.01	265.51
426.38	267.17
426.75	268.81
427.13	270.52
427.50	272.31
427.87	274.16
428.24	275.99
428.61	277.73
428.99	279.63
429.36	281.71
429.73	283.74
430.10	285.74
430.47	287.79
430.85	289.88
431.22	292.05
431.59	294.40
431.96	296.61
432.33	299.05
432.70	301.38
433.08	304.16
433.45	306.76
433.82	309.37
434.19	312.19
434.56	314.96
434.93	317.59
435.30	320.16
435.68	323.01
436.05	325.84
436.42	328.58
436.79	331.04
437.16	333.70
437.53	336.50
437.90	339.22
438.27	341.93
438.64	344.70
439.01	347.28
439.38	349.44
439.75	351.53
440.13	353.98
440.50	356.26
440.87	358.05
441.24	359.94
441.61	362.02
441.98	363.46
442.35	365.26
442.72	367.12
443.09	368.92
443.46	369.86
443.83	370.47
444.20	371.00
444.57	371.88
444.94	372.20
445.31	372.55
445.68	372.96
446.05	373.04
446.42	372.71
446.79	372.31
447.16	371.91
447.53	371.67
447.90	370.58
448.27	369.53
448.64	368.00
449.01	366.93
449.37	365.02
449.74	363.20
450.11	360.98
450.48	358.57
450.85	356.06
451.22	354.01
451.59	352.00
451.96	350.11
452.33	347.53
452.70	345.23
453.07	342.47
453.43	339.61
453.80	336.90
454.17	334.24
454.54	331.73
454.91	329.09
455.28	326.49
455.65	324.01
456.02	321.55
456.38	319.44
456.75	316.79
457.12	314.61
457.49	312.42
457.86	310.29
458.23	308.42
458.59	306.46
458.96	304.39
459.33	302.58
459.70	300.78
460.07	299.27
460.43	297.55
460.80	295.95
461.17	294.55
461.54	293.06
461.91	291.66
462.27	290.24
462.64	289.00
463.01	287.61
463.38	286.32
463.74	284.95
464.11	283.80
464.48	282.81
464.85	281.70
465.21	280.83
465.58	279.94
465.95	278.87
466.32	277.95
466.68	277.06
467.05	276.14
467.42	275.25
467.78	274.37
468.15	273.51
468.52	272.87
468.88	272.01
469.25	271.26
469.62	270.69
469.98	270.02
470.35	269.40
470.72	268.85
471.08	268.25
471.45	267.78
471.82	267.27
472.18	266.67
472.55	266.23
472.92	265.73
473.28	265.25
473.65	264.83
474.02	264.39
474.38	264.01
474.75	263.73
475.11	263.36
475.48	263.12
475.85	262.91
476.21	262.67
476.58	262.50
476.94	262.34
477.31	262.15
477.67	262.01
478.04	261.90
478.41	261.85
478.77	261.87
479.14	261.77
479.50	261.77
479.87	261.86
480.23	261.98
480.60	262.03
480.96	262.15
481.33	262.37
481.69	262.57
482.06	262.81
482.42	263.05
482.79	263.32
483.15	263.60
483.52	263.95
483.88	264.32
484.25	264.73
484.61	265.19
484.98	265.65
485.34	266.25
485.71	266.85
486.07	267.43
486.44	267.97
486.80	268.66
487.17	269.37
487.53	270.20
487.90	271.02
488.26	271.95
488.62	272.90
488.99	273.83
489.35	274.90
489.72	276.00
490.08	277.19
490.44	278.44
490.81	279.76
491.17	281.08
491.54	282.52
491.90	284.03
492.26	285.68
492.63	287.41
492.99	289.13
493.36	291.04
493.72	293.11
494.08	295.27
494.45	297.52
494.81	299.90
495.17	302.28
495.54	304.84
495.90	307.52
496.26	310.32
496.63	313.30
496.99	316.40
497.35	319.69
497.72	323.07
498.08	326.62
498.44	330.28
498.80	334.21
499.17	338.25
499.53	342.41
499.89	346.74
500.26	351.22
500.62	355.90
500.98	360.83
501.34	365.89
501.71	371.11
502.07	376.62
502.43	382.23
502.79	388.06
503.16	394.11
503.52	400.40
503.88	406.81
504.24	413.38
504.60	420.23
504.97	427.30
505.33	434.62
505.69	442.28
506.05	450.05
506.41	457.95
506.78	466.07
507.14	474.55
507.50	483.22
507.86	492.27
508.22	501.46
508.59	510.64
508.95	520.20
509.31	530.04
509.67	540.07
510.03	550.25
510.39	560.76
510.75	571.51
511.12	582.35
511.48	593.61
511.84	605.09
512.20	616.53
512.56	628.41
512.92	640.52
513.28	652.88
513.64	665.28
514.00	677.90
514.37	690.86
514.73	703.82
515.09	716.85
515.45	730.02
515.81	743.53
516.17	757.51
516.53	771.57
516.89	785.62
517.25	799.73
517.61	814.03
517.97	828.44
518.33	842.84
518.69	857.53
519.05	872.39
519.41	887.43
519.77	902.92
520.13	918.27
520.49	933.49
520.85	948.65
521.21	964.28
521.57	980.37
521.93	995.82
522.29	1011.98
522.65	1028.10
523.01	1044.07
523.37	1060.04
523.73	1075.99
524.09	1091.84
524.45	1108.00
524.81	1124.43
525.17	1141.07
525.53	1157.78
525.89	1174.47
526.25	1191.26
526.61	1207.49
526.97	1224.08
527.33	1240.40
527.68	1256.79
528.04	1273.10
528.40	1289.54
528.76	1306.49
529.12	1322.96
529.48	1339.71
529.84	1355.64
530.20	1372.01
530.56	1388.81
530.91	1405.91
531.27	1422.50
531.63	1438.83
531.99	1455.34
532.35	1471.27
532.71	1487.02
533.07	1503.10
533.42	1518.75
533.78	1534.57
534.14	1550.68
534.50	1565.77
534.86	1581.30
535.21	1596.34
535.57	1612.17
535.93	1627.41
536.29	1642.00
536.65	1656.79
537.00	1671.43
537.36	1686.47
537.72	1700.82
538.08	1715.20
538.44	1728.77
538.79	1742.37
539.15	1755.78
539.51	1769.28
539.87	1783.27
540.22	1796.81
540.58	1810.30
540.94	1823.46
541.29	1835.91
541.65	1848.33
542.01	1861.39
542.37	1873.73
542.72	1885.90
543.08	1897.55
543.44	1909.83
543.79	1920.89
544.15	1931.73
544.51	1943.08
544.87	1953.93
545.22	1964.68
545.58	1974.83
545.94	1984.46
546.29	1994.41
546.65	2004.25
547.01	2013.37
547.36	2022.02
547.72	2030.47
548.07	2038.50
548.43	2046.64
548.79	2054.61
549.14	2062.22
549.50	2069.41
549.86	2076.94
550.21	2084.22
550.57	2091.24
550.92	2097.70
551.28	2104.73
551.64	2111.69
551.99	2118.19
552.35	2124.34
552.70	2130.42
553.06	2136.34
553.41	2142.78
553.77	2148.55
554.13	2154.48
554.48	2160.60
554.84	2166.13
555.19	2171.32
555.55	2176.32
555.90	2180.70
556.26	2185.77
556.61	2190.42
556.97	2194.88
557.32	2198.96
557.68	2203.02
558.03	2207.28
558.39	2210.95
558.74	2215.62
559.10	2219.45
559.45	2223.08
559.81	2227.40
560.16	2231.25
560.52	2234.48
560.87	2237.82
561.23	2240.61
561.58	2243.61
561.94	2246.06
562.29	2248.35
562.64	2251.31
563.00	2253.89
563.35	2257.47
563.71	2260.56
564.06	2263.77
564.42	2266.68
564.77	2269.44
565.12	2271.89
565.48	2273.98
565.83	2276.07
566.19	2277.40
566.54	2278.27
566.89	2279.61
567.25	2280.10
567.60	2281.39
567.96	2283.24
568.31	2284.11
568.66	2285.28
569.02	2285.99
569.37	2286.51
569.72	2287.55
570.08	2287.61
570.43	2287.69
570.78	2287.24
571.14	2285.78
571.49	2284.51
571.84	2284.14
572.20	2283.09
572.55	2282.08
572.90	2280.48
573.26	2279.15
573.61	2277.43
573.96	2276.06
574.31	2273.10
574.67	2270.44
575.02	2266.98
575.37	2263.45
575.72	2259.82
576.08	2256.49
576.43	2253.16
576.78	2249.62
577.13	2246.49
577.49	2243.37
577.84	2240.07
578.19	2236.31
578.54	2232.85
578.90	2228.80
579.25	2223.37
579.60	2218.42
579.95	2213.61
580.30	2208.71
580.66	2203.57
581.01	2198.75
581.36	2193.75
581.71	2189.83
582.06	2185.40
582.42	2181.03
582.77	2176.14
583.12	2171.78
583.47	2167.28
583.82	2162.41
584.17	2157.29
584.53	2151.82
584.88	2146.32
585.23	2140.74
585.58	2135.40
585.93	2130.11
586.28	2125.27
586.63	2120.38
586.98	2115.51
587.34	2110.80
587.69	2106.04
588.04	2101.03
588.39	2095.36
588.74	2089.00
589.09	2082.88
589.44	2076.16
589.79	2070.13
590.14	2064.46
590.49	2057.91
590.84	2051.66
591.19	2045.69
591.54	2039.14
591.89	2031.92
592.25	2025.35
592.60	2018.18
592.95	2010.77
593.30	2003.40
593.65	1995.97
594.00	1989.02
594.35	1981.68
594.70	1973.62
595.05	1966.57
595.40	1959.31
595.75	1951.98
596.10	1946.01
596.45	1939.37
596.80	1933.39
597.15	1926.94
597.50	1920.23
597.85	1913.88
598.19	1907.36
598.54	1900.53
598.89	1894.00
599.24	1888.17
599.59	1881.60
599.94	1875.43
600.29	1869.11
600.64	1862.59
600.99	1855.32
601.34	1848.58
601.69	1841.72
602.04	1835.14
602.39	1827.85
602.74	1821.08
603.08	1814.43
603.43	1807.78
603.78	1800.47
604.13	1793.20
604.48	1786.08
604.83	1779.08
605.18	1772.26
605.53	1764.30
605.87	1756.32
606.22	1749.29
606.57	1741.51
606.92	1734.06
607.27	1727.04
607.62	1720.24
607.96	1713.19
608.31	1706.73
608.66	1699.24
609.01	1691.81
609.36	1684.36
609.70	1676.44
610.05	1668.60
610.40	1661.08
610.75	1652.73
611.10	1645.28
611.44	1636.97
611.79	1628.89
612.14	1620.39
612.49	1611.23
612.83	1602.77
613.18	1594.66
613.53	1586.56
613.88	1578.00
614.22	1569.89
614.57	1561.14
614.92	1553.10
615.27	1545.56
615.61	1537.26
615.96	1529.26
616.31	1521.55
616.65	1514.08
617.00	1506.42
617.35	1498.58
617.70	1490.27
618.04	1481.85
618.39	1473.44
618.74	1465.91
619.08	1457.63
619.43	1449.94
619.78	1442.93
620.12	1435.93
620.47	1428.52
620.82	1420.29
621.16	1412.87
621.51	1405.25
621.85	1397.66
622.20	1389.29
622.55	1380.92
622.89	1372.99
623.24	1365.16
623.59	1357.75
623.93	1350.18
624.28	1343.01
624.62	1335.54
624.97	1328.31
625.32	1321.48
625.66	1314.52
626.01	1307.35
626.35	1299.97
626.70	1292.25
627.04	1284.71
627.39	1276.91
627.73	1269.39
628.08	1262.57
628.43	1255.34
628.77	1248.06
629.12	1240.60
629.46	1233.43
629.81	1225.85
630.15	1218.58
630.50	1211.34
630.84	1203.24
631.19	1195.37
631.53	1187.84
631.88	1180.32
632.22	1172.74
632.57	1165.48
632.91	1157.98
633.26	1150.55
633.60	1143.15
633.95	1136.01
634.29	1128.75
634.64	1122.02
634.98	1114.75
635.32	1107.52
635.67	1100.84
636.01	1094.25
636.36	1087.56
636.70	1080.95
637.05	1074.44
637.39	1068.00
637.73	1061.48
638.08	1055.62
638.42	1049.63
638.77	1043.27
639.11	1036.76
639.45	1030.42
639.80	1023.81
640.14	1017.44
640.49	1011.05
640.83	1004.82
641.17	998.65
641.52	992.49
641.86	986.02
642.20	980.17
642.55	973.85
642.89	967.47
643.23	960.81
643.58	954.95
643.92	948.85
644.26	942.91
644.61	936.98
644.95	931.03
645.29	924.52
645.64	917.86
645.98	911.50
646.32	905.59
646.66	899.58
647.01	893.75
647.35	888.04
647.69	882.04
648.04	876.49
648.38	870.64
648.72	864.72
649.06	858.75
649.41	852.83
649.75	846.98
650.09	841.05
650.43	835.39
650.78	829.29
651.12	823.33
651.46	817.66
651.80	811.99
652.14	806.55
652.49	801.16
652.83	796.00
653.17	790.36
653.51	784.74
653.85	779.23
654.20	773.68
654.54	767.68
654.88	762.04
655.22	756.15
655.56	750.50
655.90	744.94
656.25	739.73
656.59	734.34
656.93	729.25
657.27	724.12
657.61	718.61
657.95	713.47
658.29	708.25
658.64	702.94
658.98	697.51
659.32	692.10
659.66	686.89
660.00	681.63
660.34	676.71
660.68	671.76
661.02	666.81
661.36	662.12
661.70	657.58
662.05	653.17
662.39	648.87
662.73	644.40
663.07	640.04
663.41	635.57
663.75	631.11
664.09	626.53
664.43	622.16
664.77	618.02
665.11	613.78
665.45	609.73
665.79	605.66
666.13	601.59
666.47	597.46
666.81	593.31
667.15	589.10
667.49	585.17
667.83	581.30
668.17	577.35
668.51	573.23
668.85	569.17
669.19	565.37
669.53	561.52
669.87	557.67
670.21	553.99
670.55	550.35
670.89	546.91
671.23	543.48
671.57	539.87
671.91	536.42
672.25	532.92
672.58	529.42
672.92	525.95
673.26	522.73
673.60	519.57
673.94	516.47
674.28	513.62
674.62	510.67
674.96	507.57
675.30	504.64
675.64	501.75
675.97	499.00
676.31	496.11
676.65	493.18
676.99	490.48
677.33	487.57
677.67	484.77
678.01	481.81
678.34	478.89
678.68	476.07
679.02	473.18
679.36	470.40
679.70	467.71
680.04	464.94
680.37	462.11
680.71	459.35
681.05	456.65
681.39	453.92
681.73	451.25
682.06	448.76
682.40	446.22
682.74	443.66
683.08	441.15
683.42	438.52
683.75	436.04
684.09	433.45
684.43	430.98
684.77	428.47
685.10	426.04
685.44	423.72
685.78	421.42
686.12	419.21
686.45	416.92
686.79	414.66
687.13	412.46
687.46	410.31
687.80	408.13
688.14	405.92
688.48	403.81
688.81	401.58
689.15	399.37
689.49	397.22
689.82	395.10
690.16	393.04
690.50	391.11
690.83	389.14
691.17	387.19
691.51	385.32
691.84	383.47
692.18	381.59
692.52	379.61
692.85	377.66
693.19	375.73
693.52	373.83
693.86	371.93
694.20	370.18
694.53	368.38
694.87	366.48
695.21	364.70
695.54	362.89
695.88	361.12
696.21	359.42
696.55	357.79
696.88	356.11
697.22	354.39
697.56	352.76
697.89	351.09
698.23	349.46
698.56	347.86
698.90	346.30
699.23	344.65
699.57	343.06
699.90	341.49
700.24	339.97
700.58	338.52
700.91	337.05
701.25	335.60
701.58	334.23
701.92	332.92
702.25	331.59
702.59	330.24
702.92	328.94
703.26	327.65
703.59	326.35
703.93	325.20
704.26	324.01
704.60	322.73
704.93	321.47
705.26	320.27
705.60	319.00
705.93	317.81
706.27	316.75
706.60	315.70
706.94	314.67
707.27	313.53
707.61	312.45
707.94	311.43
708.27	310.34
708.61	309.23
708.94	308.19
709.28	307.20
709.61	306.26
709.94	305.32
710.28	304.31
710.61	303.32
710.95	302.21
711.28	301.29
711.61	300.36
711.95	299.47
712.28	298.53
712.61	297.57
712.95	296.67
713.28	295.80
713.61	294.93
713.95	294.03
714.28	293.22
714.61	292.37
714.95	291.56
715.28	290.70
715.61	289.86
715.95	289.00
716.28	288.12
716.61	287.30
716.95	286.47
717.28	285.76
717.61	284.96
717.94	284.21
718.28	283.41
718.61	282.65
718.94	281.98
719.27	281.33
719.61	280.72
719.94	280.04
720.27	279.34
720.60	278.65
720.94	278.05
721.27	277.44
721.60	276.85
721.93	276.22
722.27	275.66
722.60	275.12
722.93	274.58
723.26	274.07
723.59	273.52
723.93	272.99
724.26	272.37
724.59	271.82
724.92	271.33
725.25	270.81
725.59	270.33
725.92	269.80
726.25	269.28
726.58	268.76
726.91	268.28
727.24	267.81
727.57	267.35
727.91	266.85
728.24	266.37
728.57	265.91
728.90	265.45
729.23	264.96
729.56	264.54
729.89	264.03
730.22	263.52
730.55	263.00
730.89	262.55
731.22	262.14
731.55	261.72
731.88	261.28
732.21	260.88
732.54	260.44
732.87	260.03
733.20	259.64
733.53	259.28
733.86	258.89
734.19	258.49
734.52	258.12
734.85	257.84
735.18	257.46
735.51	257.09
735.84	256.73
736.17	256.40
736.50	255.95
736.83	255.78
737.16	255.49
737.49	255.19
737.82	254.82
738.15	254.48
738.48	254.17
738.81	253.84
739.14	253.50
739.47	253.17
739.80	252.82
740.13	252.51
740.46	252.20
740.79	251.86
741.12	251.56
741.45	251.21
741.78	250.82
742.11	250.52
742.44	250.18
742.77	249.85
743.10	249.56
743.43	249.30
743.75	248.86
744.08	248.74
744.41	248.44
744.74	248.19
745.07	247.90
745.40	247.61
745.73	247.40
746.06	247.13
746.39	246.89
746.71	246.63
747.04	246.34
747.37	246.06
747.70	245.82
748.03	245.59
748.36	245.39
748.68	245.17
749.01	244.91
749.34	244.71
749.67	244.47
750.00	244.23
750.33	244.05
750.65	243.86
750.98	243.46
751.31	243.26
751.64	243.04
751.97	242.87
752.29	242.67
752.62	242.41
752.95	242.21
753.28	241.98
753.60	241.76
753.93	241.55
754.26	241.35
754.59	241.15
754.91	240.91
755.24	240.72
755.57	240.49
755.90	240.29
756.22	240.10
756.55	239.91
756.88	239.70
757.20	239.47
757.53	239.28
757.86	239.12
758.19	238.94
758.51	238.76
758.84	238.54
759.17	238.36
759.49	238.21
759.82	238.06
760.15	237.89
760.47	237.77
760.80	237.61
761.13	237.47
761.45	237.28
761.78	237.16
762.11	236.97
762.43	236.79
762.76	236.67
763.08	236.54
763.41	236.42
763.74	236.25
764.06	236.14
764.39	235.99
764.71	235.86
765.04	235.73
765.37	235.63
765.69	235.52
766.02	235.38
766.34	235.24
766.67	235.10
767.00	235.02
767.32	234.95
767.65	234.90
767.97	234.80
768.30	234.72
768.62	234.58
768.95	234.47
769.27	234.38
769.60	234.26
769.92	234.11
770.25	234.00
770.57	233.92
770.90	233.79
771.22	233.68
771.55	233.58
771.87	233.48
772.20	233.33
772.52	233.29
772.85	233.32
773.17	233.21
773.50	233.12
773.82	233.00
774.15	232.85
774.47	232.67
774.80	232.55
775.12	232.48
775.45	232.40
775.77	232.34
776.09	232.27
776.42	232.21
776.74	232.19
777.07	232.10
777.39	232.01
777.72	231.95
778.04	231.88
778.36	231.83
778.69	231.80
779.01	231.75
779.33	231.65
779.66	231.49
779.98	231.41
780.31	231.36
780.63	231.34
780.95	231.26
781.28	231.21
781.60	231.13
781.92	231.07
782.25	231.01
782.57	230.97
782.89	230.91
783.22	230.84
783.54	230.74
783.86	230.69
784.19	230.62
784.51	230.58
784.83	230.53
785.16	230.44
785.48	230.35
785.80	230.31
786.12	230.24
786.45	230.21
786.77	230.19
787.09	230.12
