SpectraSuite Data File
++++++++++++++++++++++++++++++++++++
Date: Fri Feb 01 15:45:30 EST 2013
User: group
Dark Spectrum Present: No
Reference Spectrum Present: No
Number of Sampled Component Spectra: 1
Spectrometers: USB2E7196
Integration Time (usec): 35000 (USB2E7196)
Spectra Averaged: 100 (USB2E7196)
Boxcar Smoothing: 10 (USB2E7196)
Correct for Electrical Dark: No (USB2E7196)
Strobe/Lamp Enabled: No (USB2E7196)
Correct for Detector Non-linearity: No (USB2E7196)
Correct for Stray Light: No (USB2E7196)
Number of Pixels in Processed Spectrum: 2048
>>>>>Begin Processed Spectral Data<<<<<
339.09	0.00
339.48	214.56
339.86	216.46
340.24	217.83
340.63	219.55
341.01	222.36
341.39	222.15
341.78	223.69
342.16	224.70
342.54	225.34
342.93	213.60
343.31	224.41
343.69	224.97
344.07	225.45
344.46	225.88
344.84	226.28
345.22	226.52
345.60	226.76
345.99	226.91
346.37	227.03
346.75	227.11
347.13	227.16
347.52	227.20
347.90	227.28
348.28	227.29
348.66	227.36
349.05	227.34
349.43	227.34
349.81	227.34
350.19	227.35
350.57	227.39
350.96	227.43
351.34	227.45
351.72	227.52
352.10	227.59
352.48	227.62
352.87	227.61
353.25	227.68
353.63	227.71
354.01	227.79
354.39	227.85
354.77	227.93
355.15	228.01
355.54	228.07
355.92	228.09
356.30	228.17
356.68	228.28
357.06	228.36
357.44	228.43
357.82	228.51
358.20	228.57
358.58	228.59
358.97	228.62
359.35	228.74
359.73	228.79
360.11	228.86
360.49	228.91
360.87	228.99
361.25	229.03
361.63	229.11
362.01	229.15
362.39	229.18
362.77	229.21
363.15	229.23
363.53	229.24
363.91	229.26
364.29	229.27
364.67	229.18
365.05	229.15
365.43	229.17
365.81	229.15
366.19	229.22
366.57	229.27
366.95	229.30
367.33	229.24
367.71	229.25
368.09	229.26
368.47	229.27
368.85	229.23
369.23	229.21
369.61	229.14
369.99	229.14
370.37	229.13
370.75	229.13
371.13	229.06
371.51	229.02
371.89	228.97
372.27	228.93
372.65	228.86
373.03	228.83
373.41	228.75
373.78	228.71
374.16	228.60
374.54	228.51
374.92	228.43
375.30	228.38
375.68	228.28
376.06	228.22
376.44	228.14
376.82	228.09
377.19	228.01
377.57	227.95
377.95	227.85
378.33	227.78
378.71	227.65
379.09	227.64
379.47	227.59
379.84	227.53
380.22	227.44
380.60	227.37
380.98	227.34
381.36	227.29
381.73	227.19
382.11	227.13
382.49	227.01
382.87	226.94
383.25	226.87
383.62	226.92
384.00	226.83
384.38	226.77
384.76	226.72
385.13	226.72
385.51	226.66
385.89	226.61
386.27	226.57
386.64	226.55
387.02	226.47
387.40	226.41
387.78	226.42
388.15	226.37
388.53	226.36
388.91	226.29
389.29	226.26
389.66	226.27
390.04	226.25
390.42	226.32
390.79	226.29
391.17	226.28
391.55	226.21
391.92	226.18
392.30	226.19
392.68	226.19
393.05	226.15
393.43	226.18
393.81	226.18
394.18	226.15
394.56	226.19
394.94	226.25
395.31	226.25
395.69	226.29
396.06	226.35
396.44	226.38
396.82	226.45
397.19	226.54
397.57	226.59
397.95	226.62
398.32	226.66
398.70	226.76
399.07	226.83
399.45	226.87
399.82	226.95
400.20	227.03
400.58	227.11
400.95	227.14
401.33	227.24
401.70	227.44
402.08	227.55
402.45	227.62
402.83	227.72
403.20	227.88
403.58	227.94
403.95	228.11
404.33	228.24
404.71	228.35
405.08	228.54
405.46	228.69
405.83	228.89
406.21	229.03
406.58	229.20
406.96	229.36
407.33	229.56
407.70	229.78
408.08	230.06
408.45	230.29
408.83	230.58
409.20	230.78
409.58	230.92
409.95	231.18
410.33	231.48
410.70	231.72
411.08	232.00
411.45	232.33
411.82	232.61
412.20	232.97
412.57	233.40
412.95	233.69
413.32	234.11
413.69	234.47
414.07	234.93
414.44	235.38
414.82	235.88
415.19	236.43
415.56	236.97
415.94	237.50
416.31	238.15
416.68	238.74
417.06	239.46
417.43	240.17
417.81	240.96
418.18	241.73
418.55	242.57
418.93	243.44
419.30	244.34
419.67	245.26
420.04	246.24
420.42	247.20
420.79	248.37
421.16	249.51
421.54	250.76
421.91	251.95
422.28	253.22
422.66	254.56
423.03	255.86
423.40	257.18
423.77	258.63
424.15	260.00
424.52	261.48
424.89	263.14
425.26	264.69
425.64	266.13
426.01	267.67
426.38	269.36
426.75	271.03
427.13	272.75
427.50	274.55
427.87	276.45
428.24	278.32
428.61	280.04
428.99	281.95
429.36	284.02
429.73	286.08
430.10	288.09
430.47	290.13
430.85	292.24
431.22	294.46
431.59	296.77
431.96	299.04
432.33	301.56
432.70	303.93
433.08	306.74
433.45	309.35
433.82	311.97
434.19	314.86
434.56	317.69
434.93	320.34
435.30	322.98
435.68	325.81
436.05	328.66
436.42	331.45
436.79	333.97
437.16	336.70
437.53	339.56
437.90	342.38
438.27	345.15
438.64	347.98
439.01	350.51
439.38	352.79
439.75	354.95
440.13	357.43
440.50	359.75
440.87	361.57
441.24	363.51
441.61	365.69
441.98	367.15
442.35	368.93
442.72	370.81
443.09	372.64
443.46	373.64
443.83	374.21
444.20	374.79
444.57	375.64
444.94	375.92
445.31	376.20
445.68	376.56
446.05	376.63
446.42	376.23
446.79	375.88
447.16	375.42
447.53	375.11
447.90	373.92
448.27	372.71
448.64	371.16
449.01	370.02
449.37	368.06
449.74	366.15
450.11	363.93
450.48	361.44
450.85	358.87
451.22	356.75
451.59	354.71
451.96	352.72
452.33	350.11
452.70	347.77
453.07	344.98
453.43	342.07
453.80	339.29
454.17	336.64
454.54	334.12
454.91	331.41
455.28	328.73
455.65	326.26
456.02	323.85
456.38	321.68
456.75	319.02
457.12	316.78
457.49	314.58
457.86	312.39
458.23	310.53
458.59	308.49
458.96	306.41
459.33	304.56
459.70	302.69
460.07	301.17
460.43	299.41
460.80	297.81
461.17	296.35
461.54	294.84
461.91	293.41
462.27	291.98
462.64	290.74
463.01	289.39
463.38	288.08
463.74	286.73
464.11	285.58
464.48	284.56
464.85	283.44
465.21	282.55
465.58	281.63
465.95	280.50
466.32	279.59
466.68	278.69
467.05	277.81
467.42	276.96
467.78	276.03
468.15	275.17
468.52	274.46
468.88	273.60
469.25	272.83
469.62	272.19
469.98	271.48
470.35	270.80
470.72	270.20
471.08	269.56
471.45	268.98
471.82	268.42
472.18	267.82
472.55	267.37
472.92	266.84
473.28	266.38
473.65	265.93
474.02	265.47
474.38	265.10
474.75	264.74
475.11	264.33
475.48	264.08
475.85	263.82
476.21	263.55
476.58	263.36
476.94	263.23
477.31	263.04
477.67	262.88
478.04	262.77
478.41	262.72
478.77	262.74
479.14	262.73
479.50	262.77
479.87	262.83
480.23	262.92
480.60	263.01
480.96	263.09
481.33	263.32
481.69	263.54
482.06	263.70
482.42	263.92
482.79	264.21
483.15	264.51
483.52	264.92
483.88	265.31
484.25	265.72
484.61	266.14
484.98	266.61
485.34	267.18
485.71	267.79
486.07	268.38
486.44	268.96
486.80	269.63
487.17	270.30
487.53	271.13
487.90	271.93
488.26	272.88
488.62	273.84
488.99	274.83
489.35	275.89
489.72	277.02
490.08	278.21
490.44	279.39
490.81	280.72
491.17	282.05
491.54	283.55
491.90	285.09
492.26	286.73
492.63	288.45
492.99	290.25
493.36	292.11
493.72	294.17
494.08	296.28
494.45	298.56
494.81	300.93
495.17	303.38
495.54	305.99
495.90	308.63
496.26	311.48
496.63	314.42
496.99	317.45
497.35	320.73
497.72	324.17
498.08	327.73
498.44	331.44
498.80	335.39
499.17	339.43
499.53	343.56
499.89	347.92
500.26	352.46
500.62	357.19
500.98	362.22
501.34	367.30
501.71	372.60
502.07	377.99
502.43	383.59
502.79	389.40
503.16	395.49
503.52	401.81
503.88	408.24
504.24	414.93
504.60	421.91
504.97	429.06
505.33	436.40
505.69	444.10
506.05	451.80
506.41	459.75
506.78	467.91
507.14	476.42
507.50	485.20
507.86	494.21
508.22	503.41
508.59	512.59
508.95	522.19
509.31	532.08
509.67	542.24
510.03	552.60
510.39	563.13
510.75	573.92
511.12	584.83
511.48	596.02
511.84	607.43
512.20	618.94
512.56	630.84
512.92	642.96
513.28	655.32
513.64	667.89
514.00	680.53
514.37	693.46
514.73	706.60
515.09	719.57
515.45	732.84
515.81	746.33
516.17	760.27
516.53	774.36
516.89	788.55
517.25	802.72
517.61	817.16
517.97	831.63
518.33	846.03
518.69	860.91
519.05	875.95
519.41	891.14
519.77	906.69
520.13	922.12
520.49	937.50
520.85	952.96
521.21	968.68
521.57	984.85
521.93	1000.57
522.29	1016.86
522.65	1033.16
523.01	1049.37
523.37	1065.50
523.73	1081.63
524.09	1097.73
524.45	1113.96
524.81	1130.66
525.17	1147.52
525.53	1164.42
525.89	1181.36
526.25	1198.12
526.61	1214.56
526.97	1231.28
527.33	1247.73
527.68	1264.40
528.04	1280.99
528.40	1297.63
528.76	1314.76
529.12	1331.42
529.48	1348.52
529.84	1364.59
530.20	1381.26
530.56	1398.28
530.91	1415.65
531.27	1432.53
531.63	1449.09
531.99	1465.64
532.35	1481.54
532.71	1497.31
533.07	1513.58
533.42	1529.33
533.78	1545.35
534.14	1561.64
534.50	1577.02
534.86	1592.98
535.21	1608.21
535.57	1624.09
535.93	1639.63
536.29	1654.28
536.65	1669.37
537.00	1684.00
537.36	1699.28
537.72	1713.84
538.08	1728.29
538.44	1742.11
538.79	1755.90
539.15	1769.62
539.51	1783.50
539.87	1797.84
540.22	1811.66
540.58	1825.51
540.94	1839.05
541.29	1851.95
541.65	1864.57
542.01	1877.88
542.37	1890.08
542.72	1902.46
543.08	1914.25
543.44	1926.61
543.79	1937.82
544.15	1948.80
544.51	1960.39
544.87	1971.31
545.22	1982.09
545.58	1992.29
545.94	2001.96
546.29	2011.86
546.65	2021.64
547.01	2030.79
547.36	2039.51
547.72	2047.88
548.07	2055.63
548.43	2063.87
548.79	2072.09
549.14	2079.72
549.50	2086.95
549.86	2094.74
550.21	2102.05
550.57	2109.19
550.92	2115.78
551.28	2123.09
551.64	2130.19
551.99	2136.74
552.35	2143.04
552.70	2149.15
553.06	2155.12
553.41	2161.48
553.77	2167.62
554.13	2173.68
554.48	2179.92
554.84	2185.34
555.19	2190.70
555.55	2195.70
555.90	2200.02
556.26	2204.69
556.61	2209.37
556.97	2213.54
557.32	2217.65
557.68	2221.75
558.03	2226.10
558.39	2229.81
558.74	2234.30
559.10	2238.05
559.45	2241.64
559.81	2245.87
560.16	2249.76
560.52	2253.08
560.87	2256.61
561.23	2259.27
561.58	2262.20
561.94	2264.62
562.29	2266.98
562.64	2269.59
563.00	2272.38
563.35	2275.84
563.71	2278.98
564.06	2282.18
564.42	2285.17
564.77	2287.64
565.12	2289.93
565.48	2291.78
565.83	2293.55
566.19	2294.84
566.54	2295.84
566.89	2296.98
567.25	2297.51
567.60	2298.76
567.96	2300.39
568.31	2301.15
568.66	2302.17
569.02	2302.72
569.37	2303.05
569.72	2303.92
570.08	2304.15
570.43	2304.20
570.78	2303.64
571.14	2302.11
571.49	2300.80
571.84	2300.38
572.20	2299.24
572.55	2298.24
572.90	2296.69
573.26	2295.41
573.61	2293.71
573.96	2291.73
574.31	2288.76
574.67	2285.77
575.02	2282.12
575.37	2278.87
575.72	2275.08
576.08	2271.66
576.43	2268.26
576.78	2264.64
577.13	2261.50
577.49	2258.38
577.84	2254.89
578.19	2251.07
578.54	2247.50
578.90	2243.15
579.25	2237.68
579.60	2232.74
579.95	2227.56
580.30	2222.40
580.66	2217.11
581.01	2212.12
581.36	2207.41
581.71	2203.28
582.06	2198.74
582.42	2194.41
582.77	2188.86
583.12	2184.15
583.47	2179.60
583.82	2174.60
584.17	2169.23
584.53	2163.67
584.88	2157.95
585.23	2152.04
585.58	2146.73
585.93	2141.19
586.28	2136.48
586.63	2131.38
586.98	2126.34
587.34	2121.72
587.69	2116.85
588.04	2111.44
588.39	2105.69
588.74	2099.32
589.09	2092.86
589.44	2086.17
589.79	2080.14
590.14	2074.66
590.49	2068.09
590.84	2061.66
591.19	2055.64
591.54	2049.31
591.89	2041.89
592.25	2035.11
592.60	2028.03
592.95	2020.34
593.30	2012.99
593.65	2005.42
594.00	1998.39
594.35	1991.02
594.70	1982.96
595.05	1975.85
595.40	1968.62
595.75	1961.10
596.10	1954.76
596.45	1948.20
596.80	1941.99
597.15	1935.15
597.50	1927.90
597.85	1921.60
598.19	1914.74
598.54	1907.49
598.89	1900.82
599.24	1894.98
599.59	1888.27
599.94	1882.02
600.29	1875.70
600.64	1869.17
600.99	1861.64
601.34	1854.74
601.69	1847.84
602.04	1841.00
602.39	1833.57
602.74	1826.79
603.08	1820.13
603.43	1813.35
603.78	1806.00
604.13	1798.69
604.48	1791.42
604.83	1784.65
605.18	1777.59
605.53	1769.63
605.87	1761.67
606.22	1754.38
606.57	1746.35
606.92	1739.12
607.27	1731.97
607.62	1725.11
607.96	1717.72
608.31	1711.17
608.66	1703.57
609.01	1695.89
609.36	1688.24
609.70	1680.19
610.05	1672.11
610.40	1664.31
610.75	1656.04
611.10	1648.38
611.44	1639.97
611.79	1632.00
612.14	1623.31
612.49	1614.22
612.83	1605.93
613.18	1597.82
613.53	1589.73
613.88	1581.21
614.22	1572.87
614.57	1564.16
614.92	1556.08
615.27	1548.52
615.61	1540.10
615.96	1532.02
616.31	1524.46
616.65	1517.21
617.00	1509.65
617.35	1501.91
617.70	1493.56
618.04	1484.99
618.39	1476.86
618.74	1469.26
619.08	1460.91
619.43	1453.37
619.78	1446.32
620.12	1439.03
620.47	1431.50
620.82	1423.30
621.16	1415.96
621.51	1408.34
621.85	1400.71
622.20	1392.06
622.55	1383.75
622.89	1375.91
623.24	1368.28
623.59	1360.90
623.93	1353.26
624.28	1345.99
624.62	1338.40
624.97	1331.32
625.32	1324.56
625.66	1317.45
626.01	1310.43
626.35	1302.91
626.70	1295.11
627.04	1287.46
627.39	1279.71
627.73	1272.41
628.08	1265.43
628.43	1258.04
628.77	1250.70
629.12	1243.16
629.46	1236.05
629.81	1228.73
630.15	1221.50
630.50	1214.16
630.84	1205.93
631.19	1198.00
631.53	1190.57
631.88	1183.17
632.22	1175.55
632.57	1168.26
632.91	1160.66
633.26	1153.03
633.60	1145.76
633.95	1138.76
634.29	1131.76
634.64	1125.12
634.98	1117.65
635.32	1110.53
635.67	1103.97
636.01	1097.35
636.36	1090.50
636.70	1083.95
637.05	1077.27
637.39	1070.77
637.73	1064.22
638.08	1058.33
638.42	1052.35
638.77	1045.93
639.11	1039.26
639.45	1032.74
639.80	1026.03
640.14	1019.68
640.49	1013.24
640.83	1006.92
641.17	1000.56
641.52	994.11
641.86	987.69
642.20	981.89
642.55	975.76
642.89	969.18
643.23	962.57
643.58	956.85
643.92	950.71
644.26	944.59
644.61	938.62
644.95	932.54
645.29	925.93
645.64	919.23
645.98	912.81
646.32	907.05
646.66	901.07
647.01	895.24
647.35	889.52
647.69	883.71
648.04	878.12
648.38	872.36
648.72	866.38
649.06	860.28
649.41	854.31
649.75	848.15
650.09	842.30
650.43	836.53
650.78	830.32
651.12	824.27
651.46	818.49
651.80	812.67
652.14	807.36
652.49	802.08
652.83	796.79
653.17	791.07
653.51	785.30
653.85	779.96
654.20	774.32
654.54	768.27
654.88	762.47
655.22	756.66
655.56	750.94
655.90	745.56
656.25	740.32
656.59	735.05
656.93	729.91
657.27	724.68
657.61	719.25
657.95	714.15
658.29	709.07
658.64	703.95
658.98	698.71
659.32	693.24
659.66	687.92
660.00	682.67
660.34	677.80
660.68	672.91
661.02	667.84
661.36	663.15
661.70	658.66
662.05	654.35
662.39	649.95
662.73	645.53
663.07	641.14
663.41	636.67
663.75	632.17
664.09	627.72
664.43	623.40
664.77	619.26
665.11	615.03
665.45	610.96
665.79	606.84
666.13	602.65
666.47	598.54
666.81	594.41
667.15	590.23
667.49	586.34
667.83	582.52
668.17	578.66
668.51	574.56
668.85	570.52
669.19	566.60
669.53	562.75
669.87	558.85
670.21	555.12
670.55	551.49
670.89	548.06
671.23	544.59
671.57	541.04
671.91	537.51
672.25	533.99
672.58	530.42
672.92	527.03
673.26	523.89
673.60	520.73
673.94	517.66
674.28	514.81
674.62	511.82
674.96	508.66
675.30	505.63
675.64	502.71
675.97	499.98
676.31	497.19
676.65	494.28
676.99	491.59
677.33	488.73
677.67	485.97
678.01	482.90
678.34	479.88
678.68	477.00
679.02	474.18
679.36	471.44
679.70	468.77
680.04	465.97
680.37	463.06
680.71	460.29
681.05	457.66
681.39	454.94
681.73	452.30
682.06	449.83
682.40	447.34
682.74	444.87
683.08	442.36
683.42	439.73
683.75	437.27
684.09	434.72
684.43	432.21
684.77	429.70
685.10	427.34
685.44	425.11
685.78	422.79
686.12	420.55
686.45	418.27
686.79	415.97
687.13	413.79
687.46	411.67
687.80	409.51
688.14	407.28
688.48	405.24
688.81	403.03
689.15	400.89
689.49	398.75
689.82	396.63
690.16	394.53
690.50	392.57
690.83	390.61
691.17	388.65
691.51	386.78
691.84	384.94
692.18	383.01
692.52	381.04
692.85	379.18
693.19	377.31
693.52	375.48
693.86	373.65
694.20	371.88
694.53	370.09
694.87	368.28
695.21	366.52
695.54	364.67
695.88	362.94
696.21	361.18
696.55	359.53
696.88	357.83
697.22	356.20
697.56	354.60
697.89	352.94
698.23	351.29
698.56	349.70
698.90	348.06
699.23	346.43
699.57	344.85
699.90	343.26
700.24	341.73
700.58	340.18
700.91	338.68
701.25	337.22
701.58	335.81
701.92	334.42
702.25	333.03
702.59	331.67
702.92	330.31
703.26	328.99
703.59	327.71
703.93	326.51
704.26	325.25
704.60	323.93
704.93	322.63
705.26	321.45
705.60	320.26
705.93	319.14
706.27	318.11
706.60	317.03
706.94	315.95
707.27	314.79
707.61	313.75
707.94	312.70
708.27	311.60
708.61	310.55
708.94	309.54
709.28	308.54
709.61	307.58
709.94	306.62
710.28	305.64
710.61	304.66
710.95	303.62
711.28	302.69
711.61	301.75
711.95	300.86
712.28	299.88
712.61	298.92
712.95	297.97
713.28	297.08
713.61	296.23
713.95	295.38
714.28	294.57
714.61	293.70
714.95	292.88
715.28	292.04
715.61	291.15
715.95	290.30
716.28	289.42
716.61	288.56
716.95	287.78
717.28	287.04
717.61	286.25
717.94	285.50
718.28	284.68
718.61	283.96
718.94	283.25
719.27	282.60
719.61	281.96
719.94	281.32
720.27	280.64
720.60	279.92
720.94	279.26
721.27	278.65
721.60	278.08
721.93	277.48
722.27	276.92
722.60	276.36
722.93	275.79
723.26	275.30
723.59	274.79
723.93	274.23
724.26	273.67
724.59	273.13
724.92	272.61
725.25	272.15
725.59	271.61
725.92	271.12
726.25	270.57
726.58	270.06
726.91	269.51
727.24	269.02
727.57	268.57
727.91	268.06
728.24	267.62
728.57	267.09
728.90	266.64
729.23	266.15
729.56	265.76
729.89	265.25
730.22	264.73
730.55	264.21
730.89	263.78
731.22	263.29
731.55	262.87
731.88	262.41
732.21	261.95
732.54	261.52
732.87	261.10
733.20	260.72
733.53	260.32
733.86	259.97
734.19	259.53
734.52	259.15
734.85	258.84
735.18	258.42
735.51	258.08
735.84	257.70
736.17	257.32
736.50	256.91
736.83	256.69
737.16	256.39
737.49	256.07
737.82	255.70
738.15	255.41
738.48	255.06
738.81	254.74
739.14	254.40
739.47	254.11
739.80	253.78
740.13	253.47
740.46	253.18
740.79	252.86
741.12	252.59
741.45	252.29
741.78	251.97
742.11	251.67
742.44	251.35
742.77	251.09
743.10	250.82
743.43	250.54
743.75	250.20
744.08	250.03
744.41	249.77
744.74	249.52
745.07	249.20
745.40	248.96
745.73	248.73
746.06	248.49
746.39	248.21
746.71	247.95
747.04	247.69
747.37	247.40
747.70	247.17
748.03	246.93
748.36	246.69
748.68	246.45
749.01	246.20
749.34	245.96
749.67	245.73
750.00	245.50
750.33	245.31
750.65	245.06
750.98	244.70
751.31	244.50
751.64	244.29
751.97	244.15
752.29	243.91
752.62	243.67
752.95	243.44
753.28	243.22
753.60	243.02
753.93	242.83
754.26	242.65
754.59	242.37
754.91	242.15
755.24	241.93
755.57	241.71
755.90	241.53
756.22	241.38
756.55	241.18
756.88	240.99
757.20	240.77
757.53	240.59
757.86	240.42
758.19	240.24
758.51	240.09
758.84	239.89
759.17	239.72
759.49	239.53
759.82	239.45
760.15	239.34
760.47	239.20
760.80	239.04
761.13	238.87
761.45	238.76
761.78	238.61
762.11	238.45
762.43	238.32
762.76	238.15
763.08	237.97
763.41	237.83
763.74	237.73
764.06	237.56
764.39	237.43
764.71	237.32
765.04	237.21
765.37	237.04
765.69	236.91
766.02	236.81
766.34	236.72
766.67	236.54
767.00	236.43
767.32	236.35
767.65	236.29
767.97	236.22
768.30	236.12
768.62	235.99
768.95	235.88
769.27	235.77
769.60	235.70
769.92	235.59
770.25	235.45
770.57	235.31
770.90	235.26
771.22	235.11
771.55	235.01
771.87	234.88
772.20	234.78
772.52	234.76
772.85	234.73
773.17	234.63
773.50	234.53
773.82	234.43
774.15	234.27
774.47	234.14
774.80	234.02
775.12	233.91
775.45	233.86
775.77	233.81
776.09	233.72
776.42	233.64
776.74	233.60
777.07	233.53
777.39	233.46
777.72	233.33
778.04	233.31
778.36	233.22
778.69	233.17
779.01	233.10
779.33	232.94
779.66	232.79
779.98	232.71
780.31	232.67
780.63	232.64
780.95	232.62
781.28	232.56
781.60	232.48
781.92	232.45
782.25	232.37
782.57	232.29
782.89	232.24
783.22	232.17
783.54	232.11
783.86	232.04
784.19	231.98
784.51	231.99
784.83	231.88
785.16	231.83
785.48	231.79
785.80	231.73
786.12	231.70
786.45	231.66
786.77	231.61
787.09	231.56
