SpectraSuite Data File
++++++++++++++++++++++++++++++++++++
Date: Fri Feb 01 14:57:31 EST 2013
User: group
Dark Spectrum Present: No
Reference Spectrum Present: No
Number of Sampled Component Spectra: 1
Spectrometers: USB2E7196
Integration Time (usec): 35000 (USB2E7196)
Spectra Averaged: 100 (USB2E7196)
Boxcar Smoothing: 10 (USB2E7196)
Correct for Electrical Dark: No (USB2E7196)
Strobe/Lamp Enabled: No (USB2E7196)
Correct for Detector Non-linearity: No (USB2E7196)
Correct for Stray Light: No (USB2E7196)
Number of Pixels in Processed Spectrum: 2048
>>>>>Begin Processed Spectral Data<<<<<
339.09	0.00
339.48	215.19
339.86	216.90
340.24	217.72
340.63	219.78
341.01	222.57
341.39	222.64
341.78	223.10
342.16	224.58
342.54	224.85
342.93	213.46
343.31	224.24
343.69	224.80
344.07	225.24
344.46	225.66
344.84	226.04
345.22	226.26
345.60	226.47
345.99	226.69
346.37	226.81
346.75	226.92
347.13	226.99
347.52	227.09
347.90	227.16
348.28	227.20
348.66	227.27
349.05	227.29
349.43	227.35
349.81	227.41
350.19	227.48
350.57	227.54
350.96	227.60
351.34	227.70
351.72	227.80
352.10	227.92
352.48	228.02
352.87	228.05
353.25	228.13
353.63	228.22
354.01	228.26
354.39	228.38
354.77	228.48
355.15	228.58
355.54	228.62
355.92	228.68
356.30	228.74
356.68	228.86
357.06	228.91
357.44	228.98
357.82	229.04
358.20	229.08
358.58	229.16
358.97	229.26
359.35	229.31
359.73	229.36
360.11	229.41
360.49	229.46
360.87	229.52
361.25	229.57
361.63	229.61
362.01	229.64
362.39	229.65
362.77	229.68
363.15	229.67
363.53	229.73
363.91	229.72
364.29	229.71
364.67	229.62
365.05	229.63
365.43	229.63
365.81	229.61
366.19	229.68
366.57	229.66
366.95	229.61
367.33	229.60
367.71	229.56
368.09	229.57
368.47	229.54
368.85	229.47
369.23	229.46
369.61	229.37
369.99	229.39
370.37	229.33
370.75	229.32
371.13	229.26
371.51	229.17
371.89	229.13
372.27	229.10
372.65	229.03
373.03	228.98
373.41	228.90
373.78	228.84
374.16	228.71
374.54	228.62
374.92	228.56
375.30	228.46
375.68	228.39
376.06	228.27
376.44	228.17
376.82	228.12
377.19	228.02
377.57	227.98
377.95	227.87
378.33	227.81
378.71	227.69
379.09	227.63
379.47	227.54
379.84	227.49
380.22	227.39
380.60	227.32
380.98	227.23
381.36	227.13
381.73	227.07
382.11	227.02
382.49	226.97
382.87	226.89
383.25	226.84
383.62	226.89
384.00	226.83
384.38	226.81
384.76	226.79
385.13	226.77
385.51	226.71
385.89	226.65
386.27	226.62
386.64	226.57
387.02	226.49
387.40	226.47
387.78	226.45
388.15	226.42
388.53	226.35
388.91	226.35
389.29	226.35
389.66	226.32
390.04	226.30
390.42	226.32
390.79	226.33
391.17	226.36
391.55	226.24
391.92	226.25
392.30	226.25
392.68	226.22
393.05	226.23
393.43	226.24
393.81	226.30
394.18	226.29
394.56	226.32
394.94	226.44
395.31	226.47
395.69	226.50
396.06	226.56
396.44	226.65
396.82	226.69
397.19	226.78
397.57	226.87
397.95	226.94
398.32	226.94
398.70	226.99
399.07	227.04
399.45	227.11
399.82	227.21
400.20	227.32
400.58	227.42
400.95	227.46
401.33	227.59
401.70	227.73
402.08	227.85
402.45	227.99
402.83	228.08
403.20	228.23
403.58	228.36
403.95	228.49
404.33	228.64
404.71	228.76
405.08	228.96
405.46	229.08
405.83	229.20
406.21	229.35
406.58	229.57
406.96	229.76
407.33	229.95
407.70	230.15
408.08	230.38
408.45	230.62
408.83	230.87
409.20	231.10
409.58	231.27
409.95	231.55
410.33	231.80
410.70	232.05
411.08	232.35
411.45	232.66
411.82	232.96
412.20	233.31
412.57	233.72
412.95	233.99
413.32	234.42
413.69	234.85
414.07	235.31
414.44	235.75
414.82	236.21
415.19	236.71
415.56	237.25
415.94	237.81
416.31	238.45
416.68	239.08
417.06	239.79
417.43	240.48
417.81	241.20
418.18	241.97
418.55	242.82
418.93	243.64
419.30	244.53
419.67	245.47
420.04	246.41
420.42	247.45
420.79	248.62
421.16	249.74
421.54	250.94
421.91	252.19
422.28	253.44
422.66	254.77
423.03	256.11
423.40	257.45
423.77	258.83
424.15	260.24
424.52	261.67
424.89	263.25
425.26	264.79
425.64	266.25
426.01	267.84
426.38	269.47
426.75	271.18
427.13	272.90
427.50	274.71
427.87	276.59
428.24	278.43
428.61	280.18
428.99	282.14
429.36	284.22
429.73	286.25
430.10	288.23
430.47	290.30
430.85	292.40
431.22	294.66
431.59	297.04
431.96	299.31
432.33	301.83
432.70	304.24
433.08	307.06
433.45	309.73
433.82	312.32
434.19	315.19
434.56	317.98
434.93	320.65
435.30	323.25
435.68	326.14
436.05	328.96
436.42	331.74
436.79	334.25
437.16	336.97
437.53	339.82
437.90	342.65
438.27	345.42
438.64	348.22
439.01	350.81
439.38	353.02
439.75	355.17
440.13	357.70
440.50	359.99
440.87	361.85
441.24	363.79
441.61	366.00
441.98	367.51
442.35	369.37
442.72	371.22
443.09	373.04
443.46	374.03
443.83	374.65
444.20	375.18
444.57	376.03
444.94	376.34
445.31	376.67
445.68	377.08
446.05	377.10
446.42	376.78
446.79	376.38
447.16	375.93
447.53	375.62
447.90	374.42
448.27	373.30
448.64	371.71
449.01	370.54
449.37	368.52
449.74	366.63
450.11	364.36
450.48	361.91
450.85	359.41
451.22	357.29
451.59	355.24
451.96	353.32
452.33	350.74
452.70	348.37
453.07	345.54
453.43	342.60
453.80	339.88
454.17	337.20
454.54	334.65
454.91	331.97
455.28	329.32
455.65	326.82
456.02	324.37
456.38	322.20
456.75	319.50
457.12	317.26
457.49	315.07
457.86	312.90
458.23	311.06
458.59	308.96
458.96	306.88
459.33	305.01
459.70	303.12
460.07	301.58
460.43	299.84
460.80	298.22
461.17	296.77
461.54	295.29
461.91	293.81
462.27	292.34
462.64	291.05
463.01	289.72
463.38	288.46
463.74	287.07
464.11	285.90
464.48	284.91
464.85	283.79
465.21	282.86
465.58	281.89
465.95	280.75
466.32	279.87
466.68	278.96
467.05	278.07
467.42	277.18
467.78	276.23
468.15	275.37
468.52	274.71
468.88	273.83
469.25	273.00
469.62	272.42
469.98	271.72
470.35	271.07
470.72	270.39
471.08	269.69
471.45	269.16
471.82	268.60
472.18	267.97
472.55	267.53
472.92	267.02
473.28	266.56
473.65	266.07
474.02	265.59
474.38	265.19
474.75	264.81
475.11	264.45
475.48	264.20
475.85	263.94
476.21	263.69
476.58	263.48
476.94	263.34
477.31	263.14
477.67	262.99
478.04	262.88
478.41	262.83
478.77	262.85
479.14	262.76
479.50	262.80
479.87	262.88
480.23	262.94
480.60	262.99
480.96	263.05
481.33	263.30
481.69	263.50
482.06	263.68
482.42	263.91
482.79	264.13
483.15	264.43
483.52	264.80
483.88	265.14
484.25	265.55
484.61	266.01
484.98	266.45
485.34	267.01
485.71	267.57
486.07	268.15
486.44	268.72
486.80	269.43
487.17	270.09
487.53	270.89
487.90	271.73
488.26	272.66
488.62	273.67
488.99	274.63
489.35	275.70
489.72	276.81
490.08	278.03
490.44	279.25
490.81	280.54
491.17	281.87
491.54	283.34
491.90	284.86
492.26	286.48
492.63	288.19
492.99	289.91
493.36	291.80
493.72	293.82
494.08	295.94
494.45	298.18
494.81	300.58
495.17	302.99
495.54	305.59
495.90	308.26
496.26	311.05
496.63	313.93
496.99	317.01
497.35	320.23
497.72	323.58
498.08	327.11
498.44	330.75
498.80	334.73
499.17	338.74
499.53	342.92
499.89	347.25
500.26	351.76
500.62	356.42
500.98	361.36
501.34	366.42
501.71	371.75
502.07	377.21
502.43	382.74
502.79	388.59
503.16	394.61
503.52	400.86
503.88	407.22
504.24	413.91
504.60	420.77
504.97	427.91
505.33	435.17
505.69	442.83
506.05	450.60
506.41	458.42
506.78	466.60
507.14	475.04
507.50	483.71
507.86	492.71
508.22	501.91
508.59	511.07
508.95	520.61
509.31	530.31
509.67	540.31
510.03	550.63
510.39	561.11
510.75	571.86
511.12	582.78
511.48	594.11
511.84	605.52
512.20	617.03
512.56	628.95
512.92	641.22
513.28	653.58
513.64	666.11
514.00	678.76
514.37	691.64
514.73	704.68
515.09	717.71
515.45	730.96
515.81	744.65
516.17	758.63
516.53	772.70
516.89	786.94
517.25	801.19
517.61	815.66
517.97	830.08
518.33	844.53
518.69	859.39
519.05	874.34
519.41	889.52
519.77	905.07
520.13	920.57
520.49	935.91
520.85	951.39
521.21	967.14
521.57	983.48
521.93	999.32
522.29	1015.67
522.65	1031.93
523.01	1048.26
523.37	1064.19
523.73	1080.46
524.09	1096.60
524.45	1112.93
524.81	1129.55
525.17	1146.45
525.53	1163.47
525.89	1180.40
526.25	1197.22
526.61	1213.66
526.97	1230.45
527.33	1246.99
527.68	1263.59
528.04	1280.22
528.40	1296.94
528.76	1313.99
529.12	1330.76
529.48	1347.59
529.84	1363.81
530.20	1380.62
530.56	1397.82
530.91	1415.31
531.27	1432.07
531.63	1448.76
531.99	1465.45
532.35	1481.51
532.71	1497.46
533.07	1513.82
533.42	1529.86
533.78	1545.91
534.14	1562.32
534.50	1577.75
534.86	1593.80
535.21	1609.00
535.57	1624.97
535.93	1640.50
536.29	1655.40
536.65	1670.41
537.00	1685.42
537.36	1700.87
537.72	1715.57
538.08	1729.97
538.44	1743.98
538.79	1758.06
539.15	1771.95
539.51	1785.72
539.87	1800.32
540.22	1814.18
540.58	1828.05
540.94	1841.48
541.29	1854.57
541.65	1867.44
542.01	1880.72
542.37	1892.93
542.72	1905.57
543.08	1917.42
543.44	1929.92
543.79	1941.29
544.15	1952.36
544.51	1963.90
544.87	1974.80
545.22	1985.55
545.58	1995.73
545.94	2005.59
546.29	2015.56
546.65	2025.23
547.01	2034.65
547.36	2043.39
547.72	2051.80
548.07	2059.59
548.43	2067.89
548.79	2075.90
549.14	2083.27
549.50	2090.66
549.86	2098.54
550.21	2105.73
550.57	2112.87
550.92	2119.27
551.28	2126.34
551.64	2133.35
551.99	2139.83
552.35	2146.03
552.70	2152.05
553.06	2158.14
553.41	2164.24
553.77	2170.21
554.13	2176.27
554.48	2182.30
554.84	2187.71
555.19	2192.95
555.55	2197.99
555.90	2202.36
556.26	2207.13
556.61	2211.95
556.97	2216.06
557.32	2220.02
557.68	2224.32
558.03	2228.71
558.39	2232.49
558.74	2236.94
559.10	2240.72
559.45	2244.38
559.81	2248.61
560.16	2252.35
560.52	2255.41
560.87	2258.88
561.23	2261.36
561.58	2264.31
561.94	2266.70
562.29	2268.95
562.64	2271.58
563.00	2274.26
563.35	2277.54
563.71	2280.60
564.06	2283.61
564.42	2286.41
564.77	2288.81
565.12	2290.80
565.48	2292.49
565.83	2294.16
566.19	2295.37
566.54	2296.28
566.89	2297.30
567.25	2297.78
567.60	2299.01
567.96	2300.46
568.31	2301.20
568.66	2302.24
569.02	2302.67
569.37	2302.76
569.72	2303.36
570.08	2303.29
570.43	2303.13
570.78	2302.25
571.14	2300.64
571.49	2299.05
571.84	2298.60
572.20	2297.25
572.55	2296.07
572.90	2294.31
573.26	2292.77
573.61	2290.91
573.96	2288.91
574.31	2285.68
574.67	2282.42
575.02	2278.75
575.37	2275.29
575.72	2271.18
576.08	2267.63
576.43	2264.21
576.78	2260.43
577.13	2257.28
577.49	2253.95
577.84	2250.32
578.19	2246.71
578.54	2242.92
578.90	2238.64
579.25	2233.01
579.60	2227.90
579.95	2222.90
580.30	2217.61
580.66	2212.33
581.01	2207.22
581.36	2202.20
581.71	2197.86
582.06	2193.15
582.42	2188.55
582.77	2183.25
583.12	2178.60
583.47	2173.72
583.82	2168.41
584.17	2163.04
584.53	2157.31
584.88	2151.62
585.23	2145.49
585.58	2139.79
585.93	2134.11
586.28	2129.28
586.63	2124.08
586.98	2118.86
587.34	2114.04
587.69	2109.18
588.04	2103.72
588.39	2097.96
588.74	2091.31
589.09	2085.18
589.44	2078.39
589.79	2072.18
590.14	2066.39
590.49	2059.68
590.84	2053.17
591.19	2046.98
591.54	2040.62
591.89	2032.93
592.25	2025.93
592.60	2018.80
592.95	2010.99
593.30	2003.59
593.65	1995.83
594.00	1988.57
594.35	1981.20
594.70	1973.00
595.05	1965.39
595.40	1958.18
595.75	1950.67
596.10	1944.37
596.45	1937.41
596.80	1931.12
597.15	1924.34
597.50	1917.09
597.85	1910.68
598.19	1903.94
598.54	1896.96
598.89	1890.14
599.24	1884.37
599.59	1877.59
599.94	1871.41
600.29	1865.14
600.64	1858.58
600.99	1851.02
601.34	1844.22
601.69	1837.36
602.04	1830.39
602.39	1823.33
602.74	1816.36
603.08	1809.57
603.43	1802.74
603.78	1795.52
604.13	1788.27
604.48	1781.02
604.83	1774.24
605.18	1767.05
605.53	1759.07
605.87	1750.87
606.22	1743.58
606.57	1735.59
606.92	1728.37
607.27	1721.00
607.62	1714.04
607.96	1706.71
608.31	1700.14
608.66	1692.46
609.01	1684.80
609.36	1677.32
609.70	1669.21
610.05	1661.21
610.40	1653.53
610.75	1645.25
611.10	1637.50
611.44	1629.20
611.79	1621.23
612.14	1612.48
612.49	1603.47
612.83	1595.16
613.18	1587.17
613.53	1579.09
613.88	1570.55
614.22	1562.32
614.57	1553.94
614.92	1546.01
615.27	1538.41
615.61	1530.07
615.96	1522.13
616.31	1514.54
616.65	1507.07
617.00	1499.61
617.35	1491.86
617.70	1483.42
618.04	1474.95
618.39	1466.76
618.74	1459.18
619.08	1450.88
619.43	1443.37
619.78	1436.56
620.12	1429.24
620.47	1421.74
620.82	1413.72
621.16	1406.49
621.51	1398.96
621.85	1391.33
622.20	1382.81
622.55	1374.50
622.89	1366.84
623.24	1359.19
623.59	1351.96
623.93	1344.51
624.28	1337.31
624.62	1329.91
624.97	1322.86
625.32	1316.28
625.66	1309.38
626.01	1302.17
626.35	1294.84
626.70	1287.16
627.04	1279.41
627.39	1271.90
627.73	1264.54
628.08	1257.57
628.43	1250.11
628.77	1242.79
629.12	1235.33
629.46	1228.22
629.81	1221.06
630.15	1213.86
630.50	1206.66
630.84	1198.59
631.19	1190.78
631.53	1183.32
631.88	1175.85
632.22	1168.38
632.57	1161.16
632.91	1153.69
633.26	1146.38
633.60	1139.15
633.95	1132.16
634.29	1125.26
634.64	1118.56
634.98	1111.28
635.32	1104.26
635.67	1097.93
636.01	1091.32
636.36	1084.47
636.70	1078.04
637.05	1071.42
637.39	1064.99
637.73	1058.52
638.08	1052.74
638.42	1046.84
638.77	1040.36
639.11	1033.83
639.45	1027.52
639.80	1020.84
640.14	1014.41
640.49	1007.91
640.83	1001.59
641.17	995.34
641.52	989.01
641.86	982.68
642.20	976.86
642.55	970.66
642.89	964.14
643.23	957.68
643.58	952.00
643.92	945.83
644.26	939.71
644.61	933.79
644.95	927.76
645.29	921.00
645.64	914.22
645.98	907.99
646.32	902.16
646.66	896.04
647.01	890.29
647.35	884.65
647.69	878.85
648.04	873.42
648.38	867.61
648.72	861.57
649.06	855.47
649.41	849.64
649.75	843.60
650.09	837.67
650.43	831.82
650.78	825.67
651.12	819.78
651.46	814.09
651.80	808.31
652.14	802.93
652.49	797.61
652.83	792.43
653.17	786.75
653.51	781.03
653.85	775.70
654.20	770.01
654.54	764.03
654.88	758.39
655.22	752.51
655.56	746.87
655.90	741.49
656.25	736.27
656.59	730.87
656.93	725.78
657.27	720.65
657.61	715.34
657.95	710.22
658.29	705.10
658.64	699.91
658.98	694.64
659.32	689.09
659.66	683.95
660.00	678.66
660.34	673.80
660.68	668.90
661.02	663.88
661.36	659.19
661.70	654.77
662.05	650.39
662.39	646.06
662.73	641.67
663.07	637.37
663.41	633.01
663.75	628.58
664.09	624.11
664.43	619.85
664.77	615.77
665.11	611.59
665.45	607.55
665.79	603.47
666.13	599.45
666.47	595.50
666.81	591.35
667.15	587.35
667.49	583.47
667.83	579.78
668.17	575.90
668.51	571.94
668.85	567.95
669.19	564.16
669.53	560.35
669.87	556.54
670.21	552.87
670.55	549.24
670.89	545.87
671.23	542.47
671.57	538.95
671.91	535.46
672.25	531.99
672.58	528.53
672.92	525.20
673.26	522.02
673.60	518.88
673.94	515.79
674.28	512.92
674.62	510.05
674.96	506.94
675.30	504.08
675.64	501.20
675.97	498.51
676.31	495.69
676.65	492.78
676.99	490.06
677.33	487.24
677.67	484.42
678.01	481.41
678.34	478.44
678.68	475.57
679.02	472.76
679.36	470.09
679.70	467.40
680.04	464.70
680.37	461.85
680.71	459.13
681.05	456.58
681.39	453.91
681.73	451.22
682.06	448.72
682.40	446.20
682.74	443.69
683.08	441.12
683.42	438.55
683.75	436.11
684.09	433.66
684.43	431.23
684.77	428.80
685.10	426.51
685.44	424.24
685.78	421.98
686.12	419.78
686.45	417.45
686.79	415.15
687.13	412.93
687.46	410.81
687.80	408.68
688.14	406.50
688.48	404.41
688.81	402.21
689.15	400.08
689.49	397.93
689.82	395.84
690.16	393.74
690.50	391.76
690.83	389.81
691.17	387.81
691.51	385.91
691.84	384.11
692.18	382.15
692.52	380.20
692.85	378.29
693.19	376.43
693.52	374.66
693.86	372.84
694.20	371.06
694.53	369.20
694.87	367.35
695.21	365.56
695.54	363.77
695.88	362.06
696.21	360.34
696.55	358.67
696.88	356.99
697.22	355.39
697.56	353.80
697.89	352.12
698.23	350.48
698.56	348.83
698.90	347.22
699.23	345.58
699.57	344.00
699.90	342.48
700.24	340.84
700.58	339.29
700.91	337.79
701.25	336.34
701.58	334.99
701.92	333.60
702.25	332.22
702.59	330.84
702.92	329.50
703.26	328.21
703.59	326.93
703.93	325.78
704.26	324.54
704.60	323.22
704.93	322.00
705.26	320.78
705.60	319.67
705.93	318.52
706.27	317.51
706.60	316.51
706.94	315.43
707.27	314.35
707.61	313.30
707.94	312.30
708.27	311.23
708.61	310.19
708.94	309.24
709.28	308.30
709.61	307.37
709.94	306.45
710.28	305.44
710.61	304.48
710.95	303.42
711.28	302.51
711.61	301.64
711.95	300.76
712.28	299.81
712.61	298.86
712.95	297.96
713.28	297.08
713.61	296.18
713.95	295.28
714.28	294.45
714.61	293.59
714.95	292.73
715.28	291.90
715.61	291.03
715.95	290.21
716.28	289.35
716.61	288.52
716.95	287.75
717.28	287.03
717.61	286.28
717.94	285.56
718.28	284.80
718.61	284.06
718.94	283.38
719.27	282.74
719.61	282.10
719.94	281.46
720.27	280.80
720.60	280.16
720.94	279.56
721.27	278.99
721.60	278.49
721.93	277.91
722.27	277.39
722.60	276.87
722.93	276.27
723.26	275.76
723.59	275.20
723.93	274.64
724.26	274.12
724.59	273.58
724.92	273.06
725.25	272.54
725.59	272.01
725.92	271.49
726.25	270.97
726.58	270.47
726.91	269.97
727.24	269.48
727.57	269.02
727.91	268.50
728.24	268.02
728.57	267.48
728.90	267.03
729.23	266.52
729.56	266.09
729.89	265.66
730.22	265.15
730.55	264.71
730.89	264.26
731.22	263.79
731.55	263.34
731.88	262.91
732.21	262.44
732.54	262.00
732.87	261.58
733.20	261.16
733.53	260.76
733.86	260.36
734.19	259.91
734.52	259.52
734.85	259.25
735.18	258.82
735.51	258.46
735.84	258.08
736.17	257.73
736.50	257.31
736.83	257.06
737.16	256.75
737.49	256.35
737.82	255.99
738.15	255.65
738.48	255.34
738.81	254.96
739.14	254.66
739.47	254.33
739.80	254.02
740.13	253.72
740.46	253.37
740.79	253.06
741.12	252.79
741.45	252.42
741.78	252.04
742.11	251.77
742.44	251.44
742.77	251.13
743.10	250.82
743.43	250.52
743.75	250.12
744.08	249.97
744.41	249.75
744.74	249.43
745.07	249.17
745.40	248.91
745.73	248.71
746.06	248.47
746.39	248.22
746.71	247.93
747.04	247.64
747.37	247.43
747.70	247.18
748.03	246.95
748.36	246.74
748.68	246.49
749.01	246.25
749.34	246.06
749.67	245.87
750.00	245.65
750.33	245.50
750.65	245.29
750.98	244.96
751.31	244.72
751.64	244.54
751.97	244.39
752.29	244.18
752.62	243.94
752.95	243.74
753.28	243.55
753.60	243.41
753.93	243.29
754.26	243.08
754.59	242.86
754.91	242.66
755.24	242.50
755.57	242.34
755.90	242.15
756.22	241.97
756.55	241.77
756.88	241.59
757.20	241.38
757.53	241.20
757.86	241.03
758.19	240.92
758.51	240.78
758.84	240.56
759.17	240.39
759.49	240.25
759.82	240.13
760.15	239.98
760.47	239.82
760.80	239.64
761.13	239.51
761.45	239.37
761.78	239.23
762.11	239.08
762.43	238.94
762.76	238.83
763.08	238.70
763.41	238.63
763.74	238.52
764.06	238.38
764.39	238.26
764.71	238.14
765.04	237.97
765.37	237.82
765.69	237.71
766.02	237.60
766.34	237.47
766.67	237.31
767.00	237.22
767.32	237.12
767.65	237.08
767.97	236.95
768.30	236.85
768.62	236.74
768.95	236.61
769.27	236.50
769.60	236.41
769.92	236.27
770.25	236.08
770.57	235.94
770.90	235.84
771.22	235.74
771.55	235.61
771.87	235.52
772.20	235.41
772.52	235.38
772.85	235.39
773.17	235.28
773.50	235.16
773.82	235.06
774.15	234.90
774.47	234.72
774.80	234.60
775.12	234.49
775.45	234.36
775.77	234.25
776.09	234.17
776.42	234.08
776.74	234.04
777.07	233.96
777.39	233.89
777.72	233.80
778.04	233.71
778.36	233.68
778.69	233.58
779.01	233.51
779.33	233.36
779.66	233.17
779.98	233.09
780.31	233.04
780.63	232.98
780.95	232.93
781.28	232.85
781.60	232.78
781.92	232.69
782.25	232.64
782.57	232.58
782.89	232.46
783.22	232.39
783.54	232.29
783.86	232.21
784.19	232.10
784.51	232.06
784.83	231.96
785.16	231.84
785.48	231.81
785.80	231.76
786.12	231.71
786.45	231.63
786.77	231.60
787.09	231.51
