SpectraSuite Data File
++++++++++++++++++++++++++++++++++++
Date: Fri Feb 01 17:23:53 EST 2013
User: group
Dark Spectrum Present: No
Reference Spectrum Present: No
Number of Sampled Component Spectra: 1
Spectrometers: USB2E7196
Integration Time (usec): 35000 (USB2E7196)
Spectra Averaged: 100 (USB2E7196)
Boxcar Smoothing: 10 (USB2E7196)
Correct for Electrical Dark: No (USB2E7196)
Strobe/Lamp Enabled: No (USB2E7196)
Correct for Detector Non-linearity: No (USB2E7196)
Correct for Stray Light: No (USB2E7196)
Number of Pixels in Processed Spectrum: 2048
>>>>>Begin Processed Spectral Data<<<<<
339.09	0.00
339.48	213.36
339.86	214.41
340.24	215.82
340.63	217.11
341.01	219.87
341.39	219.62
341.78	221.27
342.16	221.86
342.54	222.70
342.93	211.26
343.31	221.94
343.69	222.46
344.07	222.96
344.46	223.37
344.84	223.77
345.22	224.02
345.60	224.26
345.99	224.43
346.37	224.59
346.75	224.70
347.13	224.78
347.52	224.84
347.90	224.93
348.28	224.93
348.66	224.99
349.05	225.01
349.43	225.07
349.81	225.16
350.19	225.20
350.57	225.28
350.96	225.37
351.34	225.45
351.72	225.54
352.10	225.62
352.48	225.68
352.87	225.75
353.25	225.81
353.63	225.91
354.01	225.99
354.39	226.06
354.77	226.14
355.15	226.25
355.54	226.29
355.92	226.35
356.30	226.42
356.68	226.57
357.06	226.61
357.44	226.65
357.82	226.68
358.20	226.77
358.58	226.77
358.97	226.83
359.35	226.89
359.73	226.97
360.11	226.99
360.49	227.06
360.87	227.08
361.25	227.13
361.63	227.20
362.01	227.29
362.39	227.34
362.77	227.39
363.15	227.44
363.53	227.49
363.91	227.50
364.29	227.55
364.67	227.47
365.05	227.51
365.43	227.54
365.81	227.58
366.19	227.63
366.57	227.68
366.95	227.65
367.33	227.63
367.71	227.60
368.09	227.64
368.47	227.63
368.85	227.59
369.23	227.57
369.61	227.46
369.99	227.42
370.37	227.39
370.75	227.39
371.13	227.33
371.51	227.27
371.89	227.26
372.27	227.21
372.65	227.17
373.03	227.13
373.41	227.10
373.78	227.03
374.16	226.91
374.54	226.85
374.92	226.78
375.30	226.74
375.68	226.67
376.06	226.59
376.44	226.55
376.82	226.54
377.19	226.49
377.57	226.48
377.95	226.39
378.33	226.31
378.71	226.20
379.09	226.17
379.47	226.11
379.84	226.01
380.22	225.94
380.60	225.85
380.98	225.75
381.36	225.68
381.73	225.59
382.11	225.55
382.49	225.50
382.87	225.49
383.25	225.43
383.62	225.50
384.00	225.42
384.38	225.34
384.76	225.27
385.13	225.25
385.51	225.19
385.89	225.12
386.27	225.07
386.64	225.04
387.02	224.96
387.40	224.93
387.78	224.91
388.15	224.91
388.53	224.84
388.91	224.83
389.29	224.79
389.66	224.80
390.04	224.77
390.42	224.76
390.79	224.73
391.17	224.73
391.55	224.62
391.92	224.62
392.30	224.65
392.68	224.63
393.05	224.65
393.43	224.66
393.81	224.70
394.18	224.72
394.56	224.75
394.94	224.80
395.31	224.78
395.69	224.83
396.06	224.84
396.44	224.91
396.82	224.94
397.19	225.03
397.57	225.05
397.95	225.11
398.32	225.12
398.70	225.15
399.07	225.18
399.45	225.20
399.82	225.23
400.20	225.26
400.58	225.36
400.95	225.34
401.33	225.44
401.70	225.59
402.08	225.65
402.45	225.72
402.83	225.82
403.20	225.91
403.58	225.99
403.95	226.11
404.33	226.21
404.71	226.32
405.08	226.49
405.46	226.61
405.83	226.77
406.21	226.92
406.58	227.08
406.96	227.24
407.33	227.45
407.70	227.64
408.08	227.89
408.45	228.07
408.83	228.31
409.20	228.49
409.58	228.64
409.95	228.89
410.33	229.17
410.70	229.42
411.08	229.74
411.45	230.05
411.82	230.34
412.20	230.70
412.57	231.13
412.95	231.43
413.32	231.83
413.69	232.20
414.07	232.63
414.44	233.13
414.82	233.61
415.19	234.13
415.56	234.70
415.94	235.28
416.31	235.95
416.68	236.61
417.06	237.37
417.43	238.09
417.81	238.86
418.18	239.68
418.55	240.52
418.93	241.42
419.30	242.38
419.67	243.35
420.04	244.31
420.42	245.32
420.79	246.53
421.16	247.72
421.54	249.00
421.91	250.27
422.28	251.55
422.66	252.95
423.03	254.31
423.40	255.66
423.77	257.13
424.15	258.59
424.52	260.13
424.89	261.78
425.26	263.42
425.64	264.94
426.01	266.58
426.38	268.31
426.75	270.01
427.13	271.80
427.50	273.69
427.87	275.65
428.24	277.60
428.61	279.43
428.99	281.43
429.36	283.57
429.73	285.71
430.10	287.81
430.47	289.98
430.85	292.20
431.22	294.55
431.59	297.00
431.96	299.36
432.33	301.94
432.70	304.41
433.08	307.32
433.45	310.07
433.82	312.76
434.19	315.77
434.56	318.71
434.93	321.47
435.30	324.18
435.68	327.24
436.05	330.15
436.42	333.04
436.79	335.67
437.16	338.48
437.53	341.39
437.90	344.34
438.27	347.18
438.64	350.13
439.01	352.83
439.38	355.15
439.75	357.36
440.13	359.96
440.50	362.37
440.87	364.26
441.24	366.28
441.61	368.53
441.98	370.02
442.35	371.91
442.72	373.85
443.09	375.74
443.46	376.78
443.83	377.43
444.20	377.98
444.57	378.87
444.94	379.20
445.31	379.59
445.68	379.95
446.05	380.04
446.42	379.64
446.79	379.24
447.16	378.80
447.53	378.54
447.90	377.36
448.27	376.17
448.64	374.56
449.01	373.37
449.37	371.41
449.74	369.49
450.11	367.19
450.48	364.59
450.85	361.97
451.22	359.75
451.59	357.65
451.96	355.65
452.33	353.00
452.70	350.54
453.07	347.61
453.43	344.61
453.80	341.71
454.17	338.94
454.54	336.29
454.91	333.45
455.28	330.62
455.65	328.04
456.02	325.49
456.38	323.27
456.75	320.57
457.12	318.19
457.49	315.90
457.86	313.62
458.23	311.73
458.59	309.58
458.96	307.36
459.33	305.41
459.70	303.44
460.07	301.83
460.43	300.04
460.80	298.35
461.17	296.87
461.54	295.29
461.91	293.83
462.27	292.34
462.64	291.07
463.01	289.64
463.38	288.26
463.74	286.82
464.11	285.57
464.48	284.48
464.85	283.30
465.21	282.35
465.58	281.39
465.95	280.22
466.32	279.29
466.68	278.38
467.05	277.46
467.42	276.54
467.78	275.56
468.15	274.65
468.52	273.95
468.88	273.04
469.25	272.25
469.62	271.57
469.98	270.86
470.35	270.17
470.72	269.62
471.08	268.96
471.45	268.42
471.82	267.86
472.18	267.22
472.55	266.79
472.92	266.26
473.28	265.82
473.65	265.37
474.02	264.93
474.38	264.58
474.75	264.26
475.11	263.93
475.48	263.69
475.85	263.47
476.21	263.26
476.58	263.09
476.94	263.01
477.31	262.85
477.67	262.67
478.04	262.58
478.41	262.46
478.77	262.50
479.14	262.45
479.50	262.46
479.87	262.55
480.23	262.65
480.60	262.72
480.96	262.79
481.33	263.01
481.69	263.20
482.06	263.41
482.42	263.61
482.79	263.87
483.15	264.17
483.52	264.54
483.88	264.89
484.25	265.25
484.61	265.66
484.98	266.15
485.34	266.75
485.71	267.37
486.07	268.02
486.44	268.61
486.80	269.33
487.17	270.08
487.53	270.93
487.90	271.79
488.26	272.69
488.62	273.68
488.99	274.65
489.35	275.72
489.72	276.82
490.08	278.07
490.44	279.29
490.81	280.62
491.17	281.96
491.54	283.41
491.90	284.95
492.26	286.58
492.63	288.26
492.99	290.08
493.36	291.94
493.72	293.95
494.08	296.02
494.45	298.23
494.81	300.59
495.17	302.99
495.54	305.53
495.90	308.24
496.26	311.02
496.63	313.94
496.99	317.03
497.35	320.26
497.72	323.63
498.08	327.12
498.44	330.77
498.80	334.70
499.17	338.75
499.53	342.89
499.89	347.24
500.26	351.70
500.62	356.26
500.98	361.13
501.34	366.18
501.71	371.44
502.07	376.82
502.43	382.37
502.79	388.15
503.16	394.09
503.52	400.27
503.88	406.53
504.24	413.12
504.60	419.91
504.97	426.94
505.33	434.14
505.69	441.74
506.05	449.38
506.41	457.09
506.78	465.06
507.14	473.38
507.50	481.88
507.86	490.78
508.22	499.85
508.59	508.86
508.95	518.20
509.31	527.81
509.67	537.77
510.03	547.85
510.39	558.14
510.75	568.79
511.12	579.49
511.48	590.57
511.84	601.85
512.20	613.15
512.56	624.83
512.92	636.70
513.28	648.80
513.64	660.99
514.00	673.44
514.37	686.13
514.73	698.90
515.09	711.67
515.45	724.66
515.81	738.00
516.17	751.75
516.53	765.66
516.89	779.55
517.25	793.35
517.61	807.42
517.97	821.59
518.33	835.73
518.69	850.06
519.05	864.71
519.41	879.45
519.77	894.54
520.13	909.62
520.49	924.70
520.85	939.68
521.21	954.98
521.57	970.87
521.93	986.21
522.29	1002.15
522.65	1018.05
523.01	1033.80
523.37	1049.36
523.73	1065.07
524.09	1080.77
524.45	1096.62
524.81	1112.80
525.17	1129.16
525.53	1145.60
525.89	1162.02
526.25	1178.62
526.61	1194.55
526.97	1210.95
527.33	1227.04
527.68	1243.20
528.04	1259.21
528.40	1275.36
528.76	1292.03
529.12	1308.14
529.48	1324.71
529.84	1340.33
530.20	1356.55
530.56	1373.13
530.91	1390.15
531.27	1406.58
531.63	1422.55
531.99	1438.80
532.35	1454.49
532.71	1470.11
533.07	1485.99
533.42	1501.54
533.78	1517.23
534.14	1533.20
534.50	1548.09
534.86	1563.56
535.21	1578.42
535.57	1594.06
535.93	1609.21
536.29	1623.77
536.65	1638.52
537.00	1652.93
537.36	1668.18
537.72	1682.35
538.08	1696.67
538.44	1710.20
538.79	1723.85
539.15	1737.24
539.51	1750.77
539.87	1764.85
540.22	1778.35
540.58	1791.88
540.94	1804.91
541.29	1817.43
541.65	1830.00
542.01	1843.20
542.37	1855.49
542.72	1867.83
543.08	1879.63
543.44	1891.96
543.79	1903.21
544.15	1914.31
544.51	1925.89
544.87	1936.63
545.22	1947.62
545.58	1957.71
545.94	1967.60
546.29	1977.59
546.65	1987.64
547.01	1997.12
547.36	2005.99
547.72	2014.57
548.07	2022.54
548.43	2030.84
548.79	2038.91
549.14	2046.71
549.50	2054.10
549.86	2061.88
550.21	2069.31
550.57	2076.67
550.92	2083.55
551.28	2090.76
551.64	2097.92
551.99	2104.61
552.35	2111.09
552.70	2117.41
553.06	2123.61
553.41	2130.15
553.77	2136.31
554.13	2142.61
554.48	2148.74
554.84	2154.58
555.19	2160.05
555.55	2165.56
555.90	2170.35
556.26	2175.79
556.61	2180.71
556.97	2185.45
557.32	2189.96
557.68	2194.45
558.03	2198.98
558.39	2203.05
558.74	2207.82
559.10	2211.97
559.45	2216.03
559.81	2220.52
560.16	2224.55
560.52	2228.21
560.87	2231.79
561.23	2234.78
561.58	2237.88
561.94	2240.81
562.29	2243.19
562.64	2246.35
563.00	2249.20
563.35	2253.15
563.71	2256.60
564.06	2260.08
564.42	2263.37
564.77	2266.25
565.12	2269.12
565.48	2271.49
565.83	2273.66
566.19	2275.49
566.54	2276.61
566.89	2278.22
567.25	2279.18
567.60	2280.87
567.96	2283.03
568.31	2284.39
568.66	2285.94
569.02	2287.02
569.37	2287.70
569.72	2289.10
570.08	2289.61
570.43	2290.15
570.78	2289.91
571.14	2288.79
571.49	2287.65
571.84	2287.41
572.20	2286.69
572.55	2285.87
572.90	2284.35
573.26	2283.44
573.61	2281.95
573.96	2280.90
574.31	2278.24
574.67	2275.81
575.02	2272.68
575.37	2269.54
575.72	2266.14
576.08	2263.20
576.43	2260.09
576.78	2256.98
577.13	2254.06
577.49	2251.09
577.84	2248.06
578.19	2244.73
578.54	2241.51
578.90	2237.89
579.25	2232.71
579.60	2228.18
579.95	2223.56
580.30	2219.08
580.66	2214.13
581.01	2209.62
581.36	2204.76
581.71	2200.90
582.06	2196.89
582.42	2192.78
582.77	2187.83
583.12	2183.69
583.47	2179.29
583.82	2174.89
584.17	2169.89
584.53	2164.86
584.88	2159.67
585.23	2154.14
585.58	2148.68
585.93	2143.37
586.28	2138.61
586.63	2133.87
586.98	2129.03
587.34	2124.40
587.69	2119.55
588.04	2114.51
588.39	2109.05
588.74	2102.88
589.09	2097.05
589.44	2090.50
589.79	2084.45
590.14	2079.08
590.49	2072.56
590.84	2066.26
591.19	2060.32
591.54	2054.12
591.89	2047.08
592.25	2040.77
592.60	2033.61
592.95	2026.42
593.30	2019.30
593.65	2011.86
594.00	2005.00
594.35	1997.82
594.70	1989.84
595.05	1983.17
595.40	1976.00
595.75	1968.74
596.10	1962.75
596.45	1956.10
596.80	1949.89
597.15	1943.52
597.50	1936.79
597.85	1930.44
598.19	1923.87
598.54	1917.15
598.89	1910.53
599.24	1904.64
599.59	1897.93
599.94	1891.90
600.29	1885.69
600.64	1879.13
600.99	1871.99
601.34	1865.30
601.69	1858.37
602.04	1851.84
602.39	1844.44
602.74	1837.90
603.08	1831.30
603.43	1824.61
603.78	1817.43
604.13	1810.22
604.48	1803.12
604.83	1796.20
605.18	1789.47
605.53	1781.68
605.87	1773.45
606.22	1766.18
606.57	1758.23
606.92	1750.71
607.27	1743.65
607.62	1736.81
607.96	1729.65
608.31	1723.31
608.66	1715.79
609.01	1708.39
609.36	1700.80
609.70	1692.69
610.05	1684.64
610.40	1676.77
610.75	1668.47
611.10	1660.70
611.44	1652.23
611.79	1644.02
612.14	1635.33
612.49	1626.05
612.83	1617.52
613.18	1609.34
613.53	1601.18
613.88	1592.52
614.22	1584.22
614.57	1575.42
614.92	1567.22
615.27	1559.68
615.61	1551.18
615.96	1543.08
616.31	1535.24
616.65	1527.72
617.00	1520.14
617.35	1512.23
617.70	1504.08
618.04	1495.49
618.39	1487.14
618.74	1479.51
619.08	1471.07
619.43	1463.34
619.78	1456.21
620.12	1448.94
620.47	1441.41
620.82	1433.20
621.16	1425.71
621.51	1418.06
621.85	1410.34
622.20	1401.83
622.55	1393.35
622.89	1385.38
623.24	1377.51
623.59	1369.91
623.93	1362.27
624.28	1354.89
624.62	1347.28
624.97	1339.92
625.32	1332.98
625.66	1325.86
626.01	1318.62
626.35	1311.36
626.70	1303.42
627.04	1295.77
627.39	1287.99
627.73	1280.46
628.08	1273.44
628.43	1266.17
628.77	1258.72
629.12	1251.18
629.46	1243.94
629.81	1236.21
630.15	1228.81
630.50	1221.36
630.84	1213.10
631.19	1205.15
631.53	1197.55
631.88	1190.01
632.22	1182.26
632.57	1174.86
632.91	1167.28
633.26	1159.83
633.60	1152.19
633.95	1145.00
634.29	1137.66
634.64	1130.74
634.98	1123.31
635.32	1116.07
635.67	1109.30
636.01	1102.56
636.36	1095.77
636.70	1089.12
637.05	1082.54
637.39	1076.03
637.73	1069.49
638.08	1063.53
638.42	1057.55
638.77	1051.09
639.11	1044.50
639.45	1038.11
639.80	1031.40
640.14	1024.92
640.49	1018.36
640.83	1012.10
641.17	1005.91
641.52	999.69
641.86	993.23
642.20	987.32
642.55	980.84
642.89	974.33
643.23	967.68
643.58	961.75
643.92	955.50
644.26	949.53
644.61	943.39
644.95	937.37
645.29	930.85
645.64	924.03
645.98	917.59
646.32	911.42
646.66	905.29
647.01	899.44
647.35	893.64
647.69	887.64
648.04	882.02
648.38	876.24
648.72	870.30
649.06	864.28
649.41	858.30
649.75	852.48
650.09	846.46
650.43	840.75
650.78	834.61
651.12	828.65
651.46	822.88
651.80	817.24
652.14	811.76
652.49	806.44
652.83	801.17
653.17	795.60
653.51	790.07
653.85	784.62
654.20	778.96
654.54	773.00
654.88	767.20
655.22	761.20
655.56	755.38
655.90	749.74
656.25	744.44
656.59	739.02
656.93	733.84
657.27	728.75
657.61	723.20
657.95	718.01
658.29	712.88
658.64	707.51
658.98	702.03
659.32	696.54
659.66	691.23
660.00	686.01
660.34	680.97
660.68	675.97
661.02	670.89
661.36	666.23
661.70	661.77
662.05	657.38
662.39	653.13
662.73	648.65
663.07	644.26
663.41	639.81
663.75	635.35
664.09	630.76
664.43	626.30
664.77	622.17
665.11	617.95
665.45	613.72
665.79	609.64
666.13	605.58
666.47	601.45
666.81	597.28
667.15	593.08
667.49	589.09
667.83	585.20
668.17	581.28
668.51	577.22
668.85	573.05
669.19	569.23
669.53	565.28
669.87	561.46
670.21	557.74
670.55	554.09
670.89	550.64
671.23	547.17
671.57	543.63
671.91	540.12
672.25	536.51
672.58	533.04
672.92	529.60
673.26	526.33
673.60	523.14
673.94	520.02
674.28	517.08
674.62	514.21
674.96	511.13
675.30	508.23
675.64	505.27
675.97	502.52
676.31	499.59
676.65	496.73
676.99	494.02
677.33	491.10
677.67	488.24
678.01	485.26
678.34	482.33
678.68	479.42
679.02	476.61
679.36	473.84
679.70	471.06
680.04	468.28
680.37	465.47
680.71	462.68
681.05	460.01
681.39	457.30
681.73	454.56
682.06	452.06
682.40	449.48
682.74	446.90
683.08	444.31
683.42	441.70
683.75	439.14
684.09	436.50
684.43	434.05
684.77	431.58
685.10	429.13
685.44	426.75
685.78	424.48
686.12	422.16
686.45	419.88
686.79	417.60
687.13	415.39
687.46	413.20
687.80	411.01
688.14	408.74
688.48	406.65
688.81	404.39
689.15	402.19
689.49	399.97
689.82	397.86
690.16	395.69
690.50	393.69
690.83	391.71
691.17	389.67
691.51	387.73
691.84	385.82
692.18	383.92
692.52	381.97
692.85	379.95
693.19	378.08
693.52	376.19
693.86	374.28
694.20	372.46
694.53	370.65
694.87	368.75
695.21	366.97
695.54	365.11
695.88	363.35
696.21	361.59
696.55	359.85
696.88	358.13
697.22	356.46
697.56	354.82
697.89	353.18
698.23	351.57
698.56	349.93
698.90	348.34
699.23	346.67
699.57	345.06
699.90	343.51
700.24	341.88
700.58	340.33
700.91	338.86
701.25	337.43
701.58	336.05
701.92	334.69
702.25	333.28
702.59	331.89
702.92	330.56
703.26	329.17
703.59	327.89
703.93	326.68
704.26	325.46
704.60	324.14
704.93	322.84
705.26	321.55
705.60	320.33
705.93	319.11
706.27	318.02
706.60	316.94
706.94	315.84
707.27	314.73
707.61	313.65
707.94	312.58
708.27	311.43
708.61	310.30
708.94	309.23
709.28	308.23
709.61	307.24
709.94	306.27
710.28	305.32
710.61	304.34
710.95	303.24
711.28	302.27
711.61	301.34
711.95	300.40
712.28	299.46
712.61	298.51
712.95	297.61
713.28	296.74
713.61	295.83
713.95	294.91
714.28	294.04
714.61	293.14
714.95	292.31
715.28	291.44
715.61	290.52
715.95	289.70
716.28	288.83
716.61	287.99
716.95	287.17
717.28	286.38
717.61	285.61
717.94	284.86
718.28	284.08
718.61	283.28
718.94	282.57
719.27	281.91
719.61	281.21
719.94	280.52
720.27	279.77
720.60	279.12
720.94	278.50
721.27	277.92
721.60	277.39
721.93	276.77
722.27	276.24
722.60	275.71
722.93	275.12
723.26	274.56
723.59	274.01
723.93	273.43
724.26	272.90
724.59	272.29
724.92	271.76
725.25	271.21
725.59	270.73
725.92	270.23
726.25	269.72
726.58	269.23
726.91	268.75
727.24	268.25
727.57	267.72
727.91	267.21
728.24	266.71
728.57	266.19
728.90	265.70
729.23	265.18
729.56	264.70
729.89	264.17
730.22	263.68
730.55	263.15
730.89	262.67
731.22	262.20
731.55	261.74
731.88	261.31
732.21	260.90
732.54	260.42
732.87	259.99
733.20	259.59
733.53	259.21
733.86	258.81
734.19	258.44
734.52	258.07
734.85	257.77
735.18	257.34
735.51	256.93
735.84	256.55
736.17	256.18
736.50	255.80
736.83	255.57
737.16	255.23
737.49	254.92
737.82	254.54
738.15	254.17
738.48	253.85
738.81	253.48
739.14	253.14
739.47	252.82
739.80	252.51
740.13	252.17
740.46	251.80
740.79	251.45
741.12	251.12
741.45	250.81
741.78	250.43
742.11	250.14
742.44	249.82
742.77	249.54
743.10	249.20
743.43	248.91
743.75	248.54
744.08	248.39
744.41	248.11
744.74	247.84
745.07	247.58
745.40	247.33
745.73	247.10
746.06	246.81
746.39	246.56
746.71	246.26
747.04	245.99
747.37	245.75
747.70	245.49
748.03	245.22
748.36	244.99
748.68	244.73
749.01	244.48
749.34	244.23
749.67	243.98
750.00	243.82
750.33	243.65
750.65	243.46
750.98	243.11
751.31	242.88
751.64	242.68
751.97	242.54
752.29	242.30
752.62	242.02
752.95	241.79
753.28	241.57
753.60	241.37
753.93	241.17
754.26	240.98
754.59	240.79
754.91	240.57
755.24	240.37
755.57	240.15
755.90	239.97
756.22	239.80
756.55	239.61
756.88	239.41
757.20	239.17
757.53	238.95
757.86	238.78
758.19	238.62
758.51	238.45
758.84	238.19
759.17	238.04
759.49	237.93
759.82	237.84
760.15	237.68
760.47	237.53
760.80	237.36
761.13	237.20
761.45	237.03
761.78	236.89
762.11	236.74
762.43	236.61
762.76	236.48
763.08	236.36
763.41	236.22
763.74	236.06
764.06	235.92
764.39	235.81
764.71	235.67
765.04	235.53
765.37	235.39
765.69	235.27
766.02	235.16
766.34	235.04
766.67	234.86
767.00	234.77
767.32	234.72
767.65	234.66
767.97	234.57
768.30	234.44
768.62	234.33
768.95	234.21
769.27	234.10
769.60	233.99
769.92	233.85
770.25	233.73
770.57	233.63
770.90	233.52
771.22	233.37
771.55	233.25
771.87	233.14
772.20	233.05
772.52	233.05
772.85	233.06
773.17	232.94
773.50	232.87
773.82	232.74
774.15	232.58
774.47	232.44
774.80	232.35
775.12	232.33
775.45	232.20
775.77	232.13
776.09	232.06
776.42	231.96
776.74	231.94
777.07	231.87
777.39	231.77
777.72	231.70
778.04	231.64
778.36	231.58
778.69	231.52
779.01	231.47
779.33	231.33
779.66	231.16
779.98	231.08
780.31	231.00
780.63	230.99
780.95	230.97
781.28	230.87
781.60	230.78
781.92	230.68
782.25	230.65
782.57	230.61
782.89	230.56
783.22	230.51
783.54	230.43
783.86	230.39
784.19	230.34
784.51	230.30
784.83	230.26
785.16	230.21
785.48	230.16
785.80	230.09
786.12	230.03
786.45	229.98
786.77	229.96
787.09	229.92
