SpectraSuite Data File
++++++++++++++++++++++++++++++++++++
Date: Fri Feb 01 16:10:27 EST 2013
User: group
Dark Spectrum Present: No
Reference Spectrum Present: No
Number of Sampled Component Spectra: 1
Spectrometers: USB2E7196
Integration Time (usec): 35000 (USB2E7196)
Spectra Averaged: 100 (USB2E7196)
Boxcar Smoothing: 10 (USB2E7196)
Correct for Electrical Dark: No (USB2E7196)
Strobe/Lamp Enabled: No (USB2E7196)
Correct for Detector Non-linearity: No (USB2E7196)
Correct for Stray Light: No (USB2E7196)
Number of Pixels in Processed Spectrum: 2048
>>>>>Begin Processed Spectral Data<<<<<
339.09	0.00
339.48	214.70
339.86	216.26
340.24	217.23
340.63	218.98
341.01	221.79
341.39	221.66
341.78	222.63
342.16	224.18
342.54	224.30
342.93	212.84
343.31	223.57
343.69	224.09
344.07	224.53
344.46	224.95
344.84	225.29
345.22	225.50
345.60	225.74
345.99	225.90
346.37	226.00
346.75	226.09
347.13	226.15
347.52	226.17
347.90	226.23
348.28	226.25
348.66	226.31
349.05	226.28
349.43	226.32
349.81	226.31
350.19	226.36
350.57	226.41
350.96	226.46
351.34	226.53
351.72	226.62
352.10	226.70
352.48	226.74
352.87	226.81
353.25	226.88
353.63	226.92
354.01	227.00
354.39	227.07
354.77	227.14
355.15	227.24
355.54	227.30
355.92	227.38
356.30	227.47
356.68	227.60
357.06	227.71
357.44	227.77
357.82	227.85
358.20	227.92
358.58	227.98
358.97	228.07
359.35	228.18
359.73	228.23
360.11	228.30
360.49	228.39
360.87	228.44
361.25	228.49
361.63	228.56
362.01	228.61
362.39	228.67
362.77	228.75
363.15	228.77
363.53	228.82
363.91	228.86
364.29	228.86
364.67	228.78
365.05	228.77
365.43	228.80
365.81	228.86
366.19	228.89
366.57	228.93
366.95	228.96
367.33	228.92
367.71	228.96
368.09	228.96
368.47	228.92
368.85	228.92
369.23	228.94
369.61	228.91
369.99	228.90
370.37	228.85
370.75	228.86
371.13	228.83
371.51	228.80
371.89	228.75
372.27	228.72
372.65	228.70
373.03	228.67
373.41	228.62
373.78	228.51
374.16	228.41
374.54	228.35
374.92	228.27
375.30	228.25
375.68	228.15
376.06	228.09
376.44	228.03
376.82	227.99
377.19	227.91
377.57	227.85
377.95	227.77
378.33	227.73
378.71	227.60
379.09	227.53
379.47	227.48
379.84	227.43
380.22	227.35
380.60	227.29
380.98	227.21
381.36	227.16
381.73	227.12
382.11	227.08
382.49	227.02
382.87	226.93
383.25	226.84
383.62	226.89
384.00	226.81
384.38	226.78
384.76	226.76
385.13	226.73
385.51	226.66
385.89	226.62
386.27	226.58
386.64	226.56
387.02	226.50
387.40	226.44
387.78	226.39
388.15	226.37
388.53	226.30
388.91	226.27
389.29	226.20
389.66	226.21
390.04	226.16
390.42	226.16
390.79	226.15
391.17	226.13
391.55	225.99
391.92	225.97
392.30	225.97
392.68	225.88
393.05	225.89
393.43	225.89
393.81	225.87
394.18	225.86
394.56	225.86
394.94	225.89
395.31	225.90
395.69	225.93
396.06	225.95
396.44	225.99
396.82	226.02
397.19	226.13
397.57	226.14
397.95	226.19
398.32	226.20
398.70	226.25
399.07	226.32
399.45	226.38
399.82	226.46
400.20	226.51
400.58	226.60
400.95	226.64
401.33	226.75
401.70	226.89
402.08	227.00
402.45	227.09
402.83	227.19
403.20	227.28
403.58	227.38
403.95	227.50
404.33	227.66
404.71	227.79
405.08	227.95
405.46	228.10
405.83	228.24
406.21	228.37
406.58	228.56
406.96	228.72
407.33	228.91
407.70	229.11
408.08	229.37
408.45	229.62
408.83	229.82
409.20	230.02
409.58	230.18
409.95	230.45
410.33	230.72
410.70	231.01
411.08	231.31
411.45	231.63
411.82	231.94
412.20	232.26
412.57	232.68
412.95	233.00
413.32	233.39
413.69	233.86
414.07	234.30
414.44	234.75
414.82	235.23
415.19	235.79
415.56	236.36
415.94	236.93
416.31	237.55
416.68	238.18
417.06	238.90
417.43	239.60
417.81	240.36
418.18	241.14
418.55	241.98
418.93	242.87
419.30	243.78
419.67	244.71
420.04	245.66
420.42	246.64
420.79	247.80
421.16	248.93
421.54	250.09
421.91	251.33
422.28	252.60
422.66	253.92
423.03	255.22
423.40	256.51
423.77	257.90
424.15	259.33
424.52	260.85
424.89	262.46
425.26	264.04
425.64	265.47
426.01	267.03
426.38	268.65
426.75	270.32
427.13	272.04
427.50	273.85
427.87	275.70
428.24	277.57
428.61	279.31
428.99	281.25
429.36	283.36
429.73	285.40
430.10	287.39
430.47	289.45
430.85	291.57
431.22	293.81
431.59	296.17
431.96	298.39
432.33	300.83
432.70	303.21
433.08	306.03
433.45	308.66
433.82	311.31
434.19	314.16
434.56	316.97
434.93	319.58
435.30	322.20
435.68	325.11
436.05	327.95
436.42	330.74
436.79	333.28
437.16	335.91
437.53	338.72
437.90	341.53
438.27	344.31
438.64	347.13
439.01	349.73
439.38	351.97
439.75	354.14
440.13	356.65
440.50	358.97
440.87	360.78
441.24	362.73
441.61	364.86
441.98	366.37
442.35	368.21
442.72	370.05
443.09	371.81
443.46	372.80
443.83	373.39
444.20	373.88
444.57	374.70
444.94	375.04
445.31	375.35
445.68	375.68
446.05	375.75
446.42	375.32
446.79	374.86
447.16	374.40
447.53	374.07
447.90	372.93
448.27	371.74
448.64	370.17
449.01	369.04
449.37	367.05
449.74	365.16
450.11	362.86
450.48	360.47
450.85	357.95
451.22	355.80
451.59	353.76
451.96	351.84
452.33	349.22
452.70	346.82
453.07	344.01
453.43	341.09
453.80	338.29
454.17	335.62
454.54	333.10
454.91	330.40
455.28	327.74
455.65	325.22
456.02	322.78
456.38	320.62
456.75	317.92
457.12	315.69
457.49	313.50
457.86	311.35
458.23	309.44
458.59	307.42
458.96	305.37
459.33	303.50
459.70	301.62
460.07	300.16
460.43	298.50
460.80	296.89
461.17	295.47
461.54	294.00
461.91	292.60
462.27	291.16
462.64	289.92
463.01	288.55
463.38	287.27
463.74	285.92
464.11	284.75
464.48	283.71
464.85	282.58
465.21	281.68
465.58	280.80
465.95	279.73
466.32	278.83
466.68	277.93
467.05	277.07
467.42	276.14
467.78	275.22
468.15	274.33
468.52	273.69
468.88	272.85
469.25	272.07
469.62	271.45
469.98	270.79
470.35	270.13
470.72	269.55
471.08	268.92
471.45	268.36
471.82	267.85
472.18	267.31
472.55	266.87
472.92	266.38
473.28	265.90
473.65	265.45
474.02	265.02
474.38	264.67
474.75	264.32
475.11	264.05
475.48	263.79
475.85	263.52
476.21	263.33
476.58	263.19
476.94	263.07
477.31	262.90
477.67	262.78
478.04	262.71
478.41	262.66
478.77	262.68
479.14	262.65
479.50	262.67
479.87	262.75
480.23	262.84
480.60	262.89
480.96	262.95
481.33	263.17
481.69	263.34
482.06	263.52
482.42	263.74
482.79	263.99
483.15	264.34
483.52	264.76
483.88	265.07
484.25	265.45
484.61	265.87
484.98	266.38
485.34	266.94
485.71	267.52
486.07	268.12
486.44	268.69
486.80	269.40
487.17	270.13
487.53	270.96
487.90	271.83
488.26	272.81
488.62	273.83
488.99	274.79
489.35	275.88
489.72	277.02
490.08	278.25
490.44	279.49
490.81	280.78
491.17	282.12
491.54	283.60
491.90	285.11
492.26	286.72
492.63	288.41
492.99	290.17
493.36	292.07
493.72	294.17
494.08	296.28
494.45	298.51
494.81	300.85
495.17	303.27
495.54	305.82
495.90	308.53
496.26	311.31
496.63	314.31
496.99	317.42
497.35	320.67
497.72	324.03
498.08	327.54
498.44	331.22
498.80	335.15
499.17	339.17
499.53	343.45
499.89	347.80
500.26	352.35
500.62	357.05
500.98	362.01
501.34	367.03
501.71	372.38
502.07	377.92
502.43	383.53
502.79	389.31
503.16	395.43
503.52	401.70
503.88	408.10
504.24	414.73
504.60	421.62
504.97	428.76
505.33	436.12
505.69	443.85
506.05	451.61
506.41	459.49
506.78	467.72
507.14	476.10
507.50	484.89
507.86	493.89
508.22	503.10
508.59	512.41
508.95	522.03
509.31	531.88
509.67	541.93
510.03	552.29
510.39	562.88
510.75	573.68
511.12	584.57
511.48	595.90
511.84	607.38
512.20	618.90
512.56	630.87
512.92	643.05
513.28	655.45
513.64	667.98
514.00	680.66
514.37	693.57
514.73	706.63
515.09	719.59
515.45	732.88
515.81	746.44
516.17	760.37
516.53	774.46
516.89	788.56
517.25	802.68
517.61	817.05
517.97	831.55
518.33	845.85
518.69	860.68
519.05	875.58
519.41	890.76
519.77	906.26
520.13	921.67
520.49	937.05
520.85	952.32
521.21	967.99
521.57	984.31
521.93	1000.09
522.29	1016.43
522.65	1032.65
523.01	1048.86
523.37	1064.89
523.73	1080.99
524.09	1097.03
524.45	1113.28
524.81	1129.97
525.17	1146.60
525.53	1163.41
525.89	1180.27
526.25	1197.03
526.61	1213.44
526.97	1230.18
527.33	1246.54
527.68	1263.07
528.04	1279.50
528.40	1296.05
528.76	1313.03
529.12	1329.43
529.48	1346.17
529.84	1362.13
530.20	1378.74
530.56	1395.60
530.91	1412.84
531.27	1429.58
531.63	1446.01
531.99	1462.56
532.35	1478.33
532.71	1494.20
533.07	1510.40
533.42	1526.23
533.78	1542.22
534.14	1558.37
534.50	1573.54
534.86	1589.37
535.21	1604.54
535.57	1620.36
535.93	1635.79
536.29	1650.63
536.65	1665.65
537.00	1680.24
537.36	1695.47
537.72	1709.90
538.08	1724.28
538.44	1738.08
538.79	1751.84
539.15	1765.37
539.51	1779.04
539.87	1793.40
540.22	1807.04
540.58	1820.72
540.94	1833.99
541.29	1846.67
541.65	1859.33
542.01	1872.40
542.37	1884.74
542.72	1897.19
543.08	1908.87
543.44	1921.24
543.79	1932.31
544.15	1943.33
544.51	1955.00
544.87	1965.86
545.22	1976.65
545.58	1986.93
545.94	1996.72
546.29	2006.54
546.65	2016.58
547.01	2025.76
547.36	2034.39
547.72	2043.09
548.07	2050.91
548.43	2059.03
548.79	2067.08
549.14	2074.65
549.50	2081.94
549.86	2089.60
550.21	2096.70
550.57	2103.91
550.92	2110.50
551.28	2117.58
551.64	2124.58
551.99	2131.09
552.35	2137.38
552.70	2143.49
553.06	2149.40
553.41	2155.71
553.77	2161.75
554.13	2167.71
554.48	2173.94
554.84	2179.43
555.19	2184.42
555.55	2189.70
555.90	2194.36
556.26	2199.32
556.61	2203.91
556.97	2208.32
557.32	2212.33
557.68	2216.54
558.03	2220.89
558.39	2224.49
558.74	2229.10
559.10	2233.01
559.45	2236.69
559.81	2240.88
560.16	2244.83
560.52	2247.98
560.87	2251.41
561.23	2254.05
561.58	2257.00
561.94	2259.39
562.29	2261.85
562.64	2264.68
563.00	2267.15
563.35	2270.47
563.71	2273.58
564.06	2276.77
564.42	2279.65
564.77	2282.33
565.12	2284.66
565.48	2286.56
565.83	2288.58
566.19	2289.95
566.54	2290.81
566.89	2291.98
567.25	2292.70
567.60	2293.92
567.96	2295.63
568.31	2296.29
568.66	2297.40
569.02	2298.01
569.37	2298.45
569.72	2299.19
570.08	2299.30
570.43	2299.55
570.78	2298.98
571.14	2297.40
571.49	2296.15
571.84	2295.65
572.20	2294.57
572.55	2293.41
572.90	2291.78
573.26	2290.36
573.61	2288.72
573.96	2287.13
574.31	2284.15
574.67	2281.21
575.02	2277.69
575.37	2274.35
575.72	2270.74
576.08	2267.53
576.43	2264.29
576.78	2260.57
577.13	2257.51
577.49	2254.44
577.84	2250.81
578.19	2247.21
578.54	2243.68
578.90	2239.51
579.25	2234.09
579.60	2229.14
579.95	2224.25
580.30	2219.14
580.66	2213.88
581.01	2208.98
581.36	2204.00
581.71	2199.75
582.06	2195.22
582.42	2190.88
582.77	2185.87
583.12	2181.45
583.47	2176.66
583.82	2171.58
584.17	2166.62
584.53	2161.16
584.88	2155.53
585.23	2149.78
585.58	2144.27
585.93	2138.85
586.28	2134.03
586.63	2129.08
586.98	2124.03
587.34	2119.36
587.69	2114.64
588.04	2109.49
588.39	2103.87
588.74	2097.29
589.09	2091.27
589.44	2084.52
589.79	2078.37
590.14	2072.63
590.49	2065.88
590.84	2059.38
591.19	2053.39
591.54	2046.76
591.89	2039.52
592.25	2032.80
592.60	2025.62
592.95	2018.17
593.30	2010.93
593.65	2003.40
594.00	1996.24
594.35	1988.85
594.70	1980.85
595.05	1973.74
595.40	1966.56
595.75	1959.05
596.10	1953.02
596.45	1946.30
596.80	1940.16
597.15	1933.59
597.50	1926.55
597.85	1920.08
598.19	1913.62
598.54	1906.51
598.89	1899.95
599.24	1894.05
599.59	1887.55
599.94	1881.36
600.29	1875.00
600.64	1868.32
600.99	1860.83
601.34	1854.16
601.69	1847.28
602.04	1840.40
602.39	1832.97
602.74	1826.15
603.08	1819.38
603.43	1812.57
603.78	1805.29
604.13	1798.19
604.48	1790.84
604.83	1784.05
605.18	1777.13
605.53	1769.13
605.87	1761.09
606.22	1753.82
606.57	1745.87
606.92	1738.44
607.27	1731.29
607.62	1724.39
607.96	1717.20
608.31	1710.75
608.66	1703.09
609.01	1695.51
609.36	1688.02
609.70	1679.98
610.05	1671.92
610.40	1664.15
610.75	1655.83
611.10	1648.12
611.44	1639.67
611.79	1631.70
612.14	1622.97
612.49	1613.86
612.83	1605.49
613.18	1597.43
613.53	1589.33
613.88	1580.75
614.22	1572.43
614.57	1563.71
614.92	1555.63
615.27	1548.05
615.61	1539.69
615.96	1531.71
616.31	1524.20
616.65	1516.78
617.00	1509.24
617.35	1501.53
617.70	1493.25
618.04	1484.83
618.39	1476.63
618.74	1468.98
619.08	1460.63
619.43	1453.00
619.78	1446.21
620.12	1438.98
620.47	1431.50
620.82	1423.38
621.16	1415.90
621.51	1408.24
621.85	1400.66
622.20	1392.15
622.55	1383.82
622.89	1375.95
623.24	1368.36
623.59	1360.82
623.93	1353.28
624.28	1346.12
624.62	1338.57
624.97	1331.35
625.32	1324.54
625.66	1317.53
626.01	1310.43
626.35	1303.01
626.70	1295.24
627.04	1287.49
627.39	1279.69
627.73	1272.28
628.08	1265.33
628.43	1258.00
628.77	1250.83
629.12	1243.38
629.46	1236.30
629.81	1228.85
630.15	1221.74
630.50	1214.24
630.84	1206.20
631.19	1198.19
631.53	1190.65
631.88	1183.12
632.22	1175.55
632.57	1168.21
632.91	1160.56
633.26	1153.09
633.60	1145.71
633.95	1138.61
634.29	1131.43
634.64	1124.81
634.98	1117.46
635.32	1110.27
635.67	1103.63
636.01	1096.92
636.36	1090.07
636.70	1083.47
637.05	1076.81
637.39	1070.22
637.73	1063.77
638.08	1057.73
638.42	1051.76
638.77	1045.31
639.11	1038.75
639.45	1032.37
639.80	1025.67
640.14	1019.40
640.49	1012.89
640.83	1006.67
641.17	1000.48
641.52	994.21
641.86	987.78
642.20	981.88
642.55	975.52
642.89	969.17
643.23	962.57
643.58	956.83
643.92	950.72
644.26	944.82
644.61	938.86
644.95	932.84
645.29	926.41
645.64	919.66
645.98	913.36
646.32	907.49
646.66	901.47
647.01	895.73
647.35	889.93
647.69	884.02
648.04	878.48
648.38	872.67
648.72	866.67
649.06	860.62
649.41	854.67
649.75	848.76
650.09	842.82
650.43	837.05
650.78	830.91
651.12	824.81
651.46	818.98
651.80	813.17
652.14	807.73
652.49	802.34
652.83	797.25
653.17	791.56
653.51	785.85
653.85	780.35
654.20	774.76
654.54	768.79
654.88	763.08
655.22	757.13
655.56	751.46
655.90	745.98
656.25	740.70
656.59	735.38
656.93	730.31
657.27	725.07
657.61	719.61
657.95	714.48
658.29	709.48
658.64	704.22
658.98	698.89
659.32	693.42
659.66	688.15
660.00	682.84
660.34	677.84
660.68	673.00
661.02	668.03
661.36	663.30
661.70	658.77
662.05	654.41
662.39	650.08
662.73	645.63
663.07	641.33
663.41	636.84
663.75	632.40
664.09	627.74
664.43	623.38
664.77	619.27
665.11	615.03
665.45	610.85
665.79	606.75
666.13	602.62
666.47	598.57
666.81	594.45
667.15	590.32
667.49	586.44
667.83	582.53
668.17	578.59
668.51	574.53
668.85	570.51
669.19	566.69
669.53	562.85
669.87	558.96
670.21	555.25
670.55	551.65
670.89	548.21
671.23	544.87
671.57	541.38
671.91	537.85
672.25	534.36
672.58	530.86
672.92	527.42
673.26	524.28
673.60	521.12
673.94	518.06
674.28	515.13
674.62	512.15
674.96	509.07
675.30	506.18
675.64	503.28
675.97	500.46
676.31	497.60
676.65	494.61
676.99	491.89
677.33	489.01
677.67	486.17
678.01	483.14
678.34	480.15
678.68	477.23
679.02	474.41
679.36	471.63
679.70	468.91
680.04	466.24
680.37	463.38
680.71	460.62
681.05	457.95
681.39	455.24
681.73	452.60
682.06	450.08
682.40	447.47
682.74	444.89
683.08	442.35
683.42	439.74
683.75	437.28
684.09	434.72
684.43	432.25
684.77	429.85
685.10	427.48
685.44	425.18
685.78	422.92
686.12	420.66
686.45	418.33
686.79	416.06
687.13	413.87
687.46	411.71
687.80	409.48
688.14	407.27
688.48	405.23
688.81	402.98
689.15	400.77
689.49	398.68
689.82	396.63
690.16	394.55
690.50	392.60
690.83	390.65
691.17	388.68
691.51	386.80
691.84	384.92
692.18	382.99
692.52	380.97
692.85	379.02
693.19	377.13
693.52	375.32
693.86	373.47
694.20	371.64
694.53	369.81
694.87	367.96
695.21	366.09
695.54	364.23
695.88	362.51
696.21	360.84
696.55	359.12
696.88	357.39
697.22	355.72
697.56	354.12
697.89	352.44
698.23	350.81
698.56	349.14
698.90	347.53
699.23	345.87
699.57	344.32
699.90	342.79
700.24	341.24
700.58	339.71
700.91	338.21
701.25	336.74
701.58	335.39
701.92	334.01
702.25	332.66
702.59	331.30
702.92	329.94
703.26	328.58
703.59	327.31
703.93	326.14
704.26	324.89
704.60	323.52
704.93	322.23
705.26	320.95
705.60	319.77
705.93	318.60
706.27	317.52
706.60	316.47
706.94	315.39
707.27	314.26
707.61	313.15
707.94	312.12
708.27	311.05
708.61	309.95
708.94	308.96
709.28	307.99
709.61	307.00
709.94	306.11
710.28	305.13
710.61	304.14
710.95	303.05
711.28	302.12
711.61	301.21
711.95	300.38
712.28	299.47
712.61	298.48
712.95	297.57
713.28	296.73
713.61	295.84
713.95	294.97
714.28	294.10
714.61	293.24
714.95	292.39
715.28	291.57
715.61	290.70
715.95	289.84
716.28	289.00
716.61	288.21
716.95	287.38
717.28	286.63
717.61	285.86
717.94	285.13
718.28	284.36
718.61	283.63
718.94	282.90
719.27	282.26
719.61	281.63
719.94	280.99
720.27	280.27
720.60	279.61
720.94	278.96
721.27	278.39
721.60	277.82
721.93	277.27
722.27	276.71
722.60	276.18
722.93	275.62
723.26	275.07
723.59	274.49
723.93	273.90
724.26	273.33
724.59	272.83
724.92	272.29
725.25	271.79
725.59	271.27
725.92	270.79
726.25	270.29
726.58	269.78
726.91	269.28
727.24	268.80
727.57	268.35
727.91	267.85
728.24	267.43
728.57	266.94
728.90	266.47
729.23	265.95
729.56	265.54
729.89	265.07
730.22	264.58
730.55	264.12
730.89	263.70
731.22	263.29
731.55	262.82
731.88	262.42
732.21	262.00
732.54	261.59
732.87	261.13
733.20	260.70
733.53	260.37
733.86	259.99
734.19	259.62
734.52	259.24
734.85	258.91
735.18	258.45
735.51	258.11
735.84	257.72
736.17	257.42
736.50	256.97
736.83	256.75
737.16	256.41
737.49	256.07
737.82	255.70
738.15	255.37
738.48	255.04
738.81	254.68
739.14	254.36
739.47	254.03
739.80	253.75
740.13	253.49
740.46	253.12
740.79	252.80
741.12	252.47
741.45	252.13
741.78	251.82
742.11	251.54
742.44	251.21
742.77	250.93
743.10	250.60
743.43	250.35
743.75	249.94
744.08	249.79
744.41	249.54
744.74	249.28
745.07	248.97
745.40	248.73
745.73	248.48
746.06	248.19
746.39	247.94
746.71	247.64
747.04	247.33
747.37	247.08
747.70	246.82
748.03	246.58
748.36	246.38
748.68	246.11
749.01	245.87
749.34	245.64
749.67	245.42
750.00	245.17
750.33	245.01
750.65	244.80
750.98	244.47
751.31	244.24
751.64	244.01
751.97	243.86
752.29	243.62
752.62	243.37
752.95	243.17
753.28	242.96
753.60	242.76
753.93	242.59
754.26	242.41
754.59	242.19
754.91	241.95
755.24	241.74
755.57	241.56
755.90	241.37
756.22	241.18
756.55	240.97
756.88	240.78
757.20	240.53
757.53	240.36
757.86	240.19
758.19	240.07
758.51	239.94
758.84	239.71
759.17	239.52
759.49	239.42
759.82	239.30
760.15	239.21
760.47	239.06
760.80	238.89
761.13	238.79
761.45	238.66
761.78	238.54
762.11	238.41
762.43	238.28
762.76	238.14
763.08	238.01
763.41	237.93
763.74	237.82
764.06	237.69
764.39	237.52
764.71	237.37
765.04	237.24
765.37	237.07
765.69	236.96
766.02	236.90
766.34	236.77
766.67	236.62
767.00	236.44
767.32	236.36
767.65	236.31
767.97	236.16
768.30	236.06
768.62	235.95
768.95	235.85
769.27	235.75
769.60	235.65
769.92	235.53
770.25	235.34
770.57	235.21
770.90	235.14
771.22	235.08
771.55	234.95
771.87	234.86
772.20	234.79
772.52	234.77
772.85	234.72
773.17	234.63
773.50	234.51
773.82	234.41
774.15	234.30
774.47	234.13
774.80	234.01
775.12	233.88
775.45	233.77
775.77	233.65
776.09	233.57
776.42	233.50
776.74	233.46
777.07	233.43
777.39	233.33
777.72	233.23
778.04	233.12
778.36	233.07
778.69	232.98
779.01	232.87
779.33	232.68
779.66	232.52
779.98	232.43
780.31	232.39
780.63	232.33
780.95	232.26
781.28	232.20
781.60	232.14
781.92	232.06
782.25	231.99
782.57	231.92
782.89	231.84
783.22	231.74
783.54	231.64
783.86	231.58
784.19	231.51
784.51	231.47
784.83	231.39
785.16	231.32
785.48	231.27
785.80	231.24
786.12	231.22
786.45	231.19
786.77	231.14
787.09	231.07
