SpectraSuite Data File
++++++++++++++++++++++++++++++++++++
Date: Fri Feb 01 15:16:15 EST 2013
User: group
Dark Spectrum Present: No
Reference Spectrum Present: No
Number of Sampled Component Spectra: 1
Spectrometers: USB2E7196
Integration Time (usec): 35000 (USB2E7196)
Spectra Averaged: 100 (USB2E7196)
Boxcar Smoothing: 10 (USB2E7196)
Correct for Electrical Dark: No (USB2E7196)
Strobe/Lamp Enabled: No (USB2E7196)
Correct for Detector Non-linearity: No (USB2E7196)
Correct for Stray Light: No (USB2E7196)
Number of Pixels in Processed Spectrum: 2048
>>>>>Begin Processed Spectral Data<<<<<
339.09	0.00
339.48	214.87
339.86	216.27
340.24	217.37
340.63	219.35
341.01	222.85
341.39	221.76
341.78	223.71
342.16	224.10
342.54	224.76
342.93	213.42
343.31	224.19
343.69	224.74
344.07	225.21
344.46	225.66
344.84	226.04
345.22	226.24
345.60	226.49
345.99	226.67
346.37	226.80
346.75	226.91
347.13	226.95
347.52	227.01
347.90	227.07
348.28	227.07
348.66	227.14
349.05	227.08
349.43	227.08
349.81	227.12
350.19	227.15
350.57	227.24
350.96	227.32
351.34	227.41
351.72	227.46
352.10	227.57
352.48	227.64
352.87	227.69
353.25	227.76
353.63	227.83
354.01	227.87
354.39	227.97
354.77	228.06
355.15	228.14
355.54	228.19
355.92	228.22
356.30	228.33
356.68	228.44
357.06	228.54
357.44	228.59
357.82	228.67
358.20	228.77
358.58	228.80
358.97	228.84
359.35	228.91
359.73	229.02
360.11	229.06
360.49	229.14
360.87	229.20
361.25	229.25
361.63	229.33
362.01	229.38
362.39	229.42
362.77	229.48
363.15	229.53
363.53	229.53
363.91	229.57
364.29	229.58
364.67	229.45
365.05	229.46
365.43	229.50
365.81	229.52
366.19	229.54
366.57	229.59
366.95	229.60
367.33	229.58
367.71	229.57
368.09	229.55
368.47	229.51
368.85	229.48
369.23	229.46
369.61	229.43
369.99	229.41
370.37	229.40
370.75	229.40
371.13	229.33
371.51	229.29
371.89	229.26
372.27	229.22
372.65	229.21
373.03	229.14
373.41	229.08
373.78	229.04
374.16	228.91
374.54	228.80
374.92	228.71
375.30	228.66
375.68	228.55
376.06	228.51
376.44	228.44
376.82	228.37
377.19	228.30
377.57	228.21
377.95	228.15
378.33	228.03
378.71	227.90
379.09	227.86
379.47	227.79
379.84	227.68
380.22	227.59
380.60	227.53
380.98	227.43
381.36	227.37
381.73	227.25
382.11	227.23
382.49	227.19
382.87	227.12
383.25	227.08
383.62	227.15
384.00	227.05
384.38	226.95
384.76	226.90
385.13	226.88
385.51	226.82
385.89	226.71
386.27	226.67
386.64	226.63
387.02	226.55
387.40	226.53
387.78	226.51
388.15	226.52
388.53	226.45
388.91	226.46
389.29	226.42
389.66	226.42
390.04	226.38
390.42	226.34
390.79	226.33
391.17	226.29
391.55	226.14
391.92	226.15
392.30	226.21
392.68	226.17
393.05	226.17
393.43	226.16
393.81	226.17
394.18	226.18
394.56	226.17
394.94	226.22
395.31	226.23
395.69	226.28
396.06	226.29
396.44	226.36
396.82	226.39
397.19	226.46
397.57	226.53
397.95	226.60
398.32	226.65
398.70	226.73
399.07	226.82
399.45	226.89
399.82	226.95
400.20	227.01
400.58	227.14
400.95	227.17
401.33	227.27
401.70	227.44
402.08	227.56
402.45	227.68
402.83	227.77
403.20	227.88
403.58	228.01
403.95	228.15
404.33	228.28
404.71	228.42
405.08	228.61
405.46	228.74
405.83	228.88
406.21	229.05
406.58	229.22
406.96	229.34
407.33	229.55
407.70	229.76
408.08	230.03
408.45	230.27
408.83	230.51
409.20	230.72
409.58	230.90
409.95	231.16
410.33	231.42
410.70	231.69
411.08	232.01
411.45	232.27
411.82	232.58
412.20	232.94
412.57	233.37
412.95	233.67
413.32	234.12
413.69	234.54
414.07	234.99
414.44	235.46
414.82	235.93
415.19	236.49
415.56	237.04
415.94	237.60
416.31	238.24
416.68	238.88
417.06	239.58
417.43	240.32
417.81	241.06
418.18	241.87
418.55	242.70
418.93	243.53
419.30	244.46
419.67	245.39
420.04	246.34
420.42	247.32
420.79	248.50
421.16	249.64
421.54	250.82
421.91	252.04
422.28	253.29
422.66	254.65
423.03	255.92
423.40	257.23
423.77	258.59
424.15	259.97
424.52	261.48
424.89	263.12
425.26	264.65
425.64	266.11
426.01	267.68
426.38	269.30
426.75	270.98
427.13	272.69
427.50	274.44
427.87	276.32
428.24	278.18
428.61	279.93
428.99	281.87
429.36	283.98
429.73	286.03
430.10	288.02
430.47	290.07
430.85	292.19
431.22	294.48
431.59	296.94
431.96	299.17
432.33	301.67
432.70	304.03
433.08	306.84
433.45	309.50
433.82	312.10
434.19	315.08
434.56	317.94
434.93	320.62
435.30	323.28
435.68	326.17
436.05	329.02
436.42	331.81
436.79	334.35
437.16	337.03
437.53	339.84
437.90	342.70
438.27	345.45
438.64	348.31
439.01	350.88
439.38	353.08
439.75	355.29
440.13	357.75
440.50	360.11
440.87	361.93
441.24	363.86
441.61	366.06
441.98	367.52
442.35	369.28
442.72	371.17
443.09	373.02
443.46	374.02
443.83	374.62
444.20	375.14
444.57	375.95
444.94	376.24
445.31	376.63
445.68	376.96
446.05	377.02
446.42	376.63
446.79	376.22
447.16	375.78
447.53	375.42
447.90	374.27
448.27	373.14
448.64	371.59
449.01	370.43
449.37	368.47
449.74	366.57
450.11	364.33
450.48	361.84
450.85	359.30
451.22	357.16
451.59	355.21
451.96	353.27
452.33	350.67
452.70	348.36
453.07	345.52
453.43	342.65
453.80	339.92
454.17	337.25
454.54	334.70
454.91	331.96
455.28	329.28
455.65	326.75
456.02	324.22
456.38	322.05
456.75	319.42
457.12	317.15
457.49	314.92
457.86	312.75
458.23	310.89
458.59	308.85
458.96	306.76
459.33	304.82
459.70	302.94
460.07	301.40
460.43	299.66
460.80	298.02
461.17	296.57
461.54	295.05
461.91	293.59
462.27	292.12
462.64	290.86
463.01	289.54
463.38	288.30
463.74	286.96
464.11	285.82
464.48	284.79
464.85	283.66
465.21	282.78
465.58	281.85
465.95	280.73
466.32	279.77
466.68	278.86
467.05	277.96
467.42	277.05
467.78	276.12
468.15	275.22
468.52	274.57
468.88	273.70
469.25	272.93
469.62	272.30
469.98	271.64
470.35	270.97
470.72	270.35
471.08	269.67
471.45	269.10
471.82	268.51
472.18	267.91
472.55	267.45
472.92	266.90
473.28	266.41
473.65	265.93
474.02	265.47
474.38	265.08
474.75	264.73
475.11	264.36
475.48	264.07
475.85	263.85
476.21	263.57
476.58	263.36
476.94	263.17
477.31	263.00
477.67	262.84
478.04	262.77
478.41	262.70
478.77	262.72
479.14	262.66
479.50	262.70
479.87	262.78
480.23	262.88
480.60	262.94
480.96	263.02
481.33	263.24
481.69	263.46
482.06	263.64
482.42	263.84
482.79	264.13
483.15	264.43
483.52	264.81
483.88	265.19
484.25	265.58
484.61	266.02
484.98	266.47
485.34	267.03
485.71	267.62
486.07	268.21
486.44	268.80
486.80	269.50
487.17	270.23
487.53	271.04
487.90	271.89
488.26	272.87
488.62	273.88
488.99	274.87
489.35	275.90
489.72	277.06
490.08	278.26
490.44	279.50
490.81	280.84
491.17	282.17
491.54	283.64
491.90	285.18
492.26	286.88
492.63	288.63
492.99	290.44
493.36	292.30
493.72	294.38
494.08	296.47
494.45	298.75
494.81	301.12
495.17	303.53
495.54	306.08
495.90	308.76
496.26	311.58
496.63	314.57
496.99	317.69
497.35	320.93
497.72	324.33
498.08	327.84
498.44	331.52
498.80	335.46
499.17	339.46
499.53	343.66
499.89	348.01
500.26	352.51
500.62	357.16
500.98	362.14
501.34	367.21
501.71	372.56
502.07	378.01
502.43	383.60
502.79	389.41
503.16	395.47
503.52	401.74
503.88	408.07
504.24	414.69
504.60	421.58
504.97	428.69
505.33	435.99
505.69	443.65
506.05	451.43
506.41	459.30
506.78	467.49
507.14	475.91
507.50	484.58
507.86	493.55
508.22	502.73
508.59	511.85
508.95	521.44
509.31	531.22
509.67	541.32
510.03	551.59
510.39	562.15
510.75	572.93
511.12	583.87
511.48	595.25
511.84	606.61
512.20	618.15
512.56	630.12
512.92	642.31
513.28	654.63
513.64	667.16
514.00	679.82
514.37	692.80
514.73	705.83
515.09	718.86
515.45	732.21
515.81	745.79
516.17	759.80
516.53	773.85
516.89	788.07
517.25	802.15
517.61	816.65
517.97	831.15
518.33	845.61
518.69	860.45
519.05	875.41
519.41	890.72
519.77	906.17
520.13	921.64
520.49	937.06
520.85	952.54
521.21	968.25
521.57	984.56
521.93	1000.28
522.29	1016.69
522.65	1032.99
523.01	1049.19
523.37	1065.32
523.73	1081.63
524.09	1097.77
524.45	1114.06
524.81	1130.78
525.17	1147.57
525.53	1164.48
525.89	1181.50
526.25	1198.36
526.61	1214.77
526.97	1231.48
527.33	1247.99
527.68	1264.66
528.04	1281.27
528.40	1297.95
528.76	1315.11
529.12	1331.71
529.48	1348.74
529.84	1364.98
530.20	1381.66
530.56	1398.85
530.91	1416.30
531.27	1433.11
531.63	1449.69
531.99	1466.36
532.35	1482.38
532.71	1498.38
533.07	1514.69
533.42	1530.61
533.78	1546.71
534.14	1563.06
534.50	1578.44
534.86	1594.43
535.21	1609.65
535.57	1625.67
535.93	1641.28
536.29	1656.02
536.65	1671.27
537.00	1686.12
537.36	1701.41
537.72	1716.07
538.08	1730.57
538.44	1744.44
538.79	1758.51
539.15	1772.29
539.51	1786.12
539.87	1800.53
540.22	1814.31
540.58	1828.19
540.94	1841.68
541.29	1854.81
541.65	1867.59
542.01	1881.05
542.37	1893.43
542.72	1906.01
543.08	1917.78
543.44	1930.35
543.79	1941.74
544.15	1952.77
544.51	1964.35
544.87	1975.40
545.22	1986.30
545.58	1996.54
545.94	2006.29
546.29	2016.08
546.65	2025.91
547.01	2035.19
547.36	2044.02
547.72	2052.52
548.07	2060.46
548.43	2068.65
548.79	2076.46
549.14	2084.06
549.50	2091.22
549.86	2099.05
550.21	2106.28
550.57	2113.48
550.92	2119.96
551.28	2127.05
551.64	2134.12
551.99	2140.62
552.35	2146.79
552.70	2153.00
553.06	2158.94
553.41	2165.29
553.77	2171.31
554.13	2177.43
554.48	2183.59
554.84	2188.92
555.19	2194.21
555.55	2199.20
555.90	2203.53
556.26	2208.47
556.61	2213.16
556.97	2217.36
557.32	2221.50
557.68	2225.77
558.03	2230.15
558.39	2233.78
558.74	2238.33
559.10	2242.18
559.45	2245.87
559.81	2250.14
560.16	2253.80
560.52	2257.10
560.87	2260.56
561.23	2263.24
561.58	2266.19
561.94	2268.65
562.29	2271.14
562.64	2273.86
563.00	2276.49
563.35	2280.02
563.71	2283.13
564.06	2286.37
564.42	2289.41
564.77	2291.70
565.12	2293.78
565.48	2295.34
565.83	2297.19
566.19	2298.48
566.54	2299.36
566.89	2300.44
567.25	2300.93
567.60	2302.33
567.96	2303.69
568.31	2304.47
568.66	2305.47
569.02	2306.03
569.37	2306.41
569.72	2307.15
570.08	2307.07
570.43	2307.04
570.78	2306.33
571.14	2304.75
571.49	2303.30
571.84	2302.84
572.20	2301.57
572.55	2300.43
572.90	2299.01
573.26	2297.41
573.61	2295.58
573.96	2293.65
574.31	2290.46
574.67	2287.37
575.02	2283.58
575.37	2280.19
575.72	2276.20
576.08	2272.74
576.43	2269.20
576.78	2265.35
577.13	2262.07
577.49	2259.05
577.84	2255.44
578.19	2251.63
578.54	2247.81
578.90	2243.33
579.25	2237.70
579.60	2232.78
579.95	2227.67
580.30	2222.53
580.66	2217.45
581.01	2212.51
581.36	2207.53
581.71	2203.25
582.06	2198.79
582.42	2194.28
582.77	2188.98
583.12	2184.37
583.47	2179.47
583.82	2174.33
584.17	2169.06
584.53	2163.42
584.88	2157.60
585.23	2151.66
585.58	2146.15
585.93	2140.71
586.28	2135.92
586.63	2130.79
586.98	2125.64
587.34	2121.03
587.69	2116.02
588.04	2110.53
588.39	2104.69
588.74	2098.28
589.09	2092.06
589.44	2085.10
589.79	2078.96
590.14	2073.26
590.49	2066.70
590.84	2060.36
591.19	2054.29
591.54	2047.63
591.89	2040.25
592.25	2033.44
592.60	2026.16
592.95	2018.44
593.30	2010.90
593.65	2003.34
594.00	1996.14
594.35	1988.82
594.70	1980.53
595.05	1973.19
595.40	1965.91
595.75	1958.49
596.10	1951.97
596.45	1945.26
596.80	1939.02
597.15	1932.32
597.50	1925.11
597.85	1918.59
598.19	1911.91
598.54	1904.70
598.89	1898.18
599.24	1892.17
599.59	1885.43
599.94	1879.31
600.29	1872.96
600.64	1866.30
600.99	1858.69
601.34	1851.78
601.69	1844.72
602.04	1837.79
602.39	1830.52
602.74	1823.73
603.08	1816.82
603.43	1810.14
603.78	1802.78
604.13	1795.51
604.48	1787.99
604.83	1781.20
605.18	1774.04
605.53	1765.89
605.87	1757.91
606.22	1750.54
606.57	1742.59
606.92	1735.23
607.27	1728.01
607.62	1720.93
607.96	1713.66
608.31	1707.09
608.66	1699.58
609.01	1692.06
609.36	1684.55
609.70	1676.46
610.05	1668.21
610.40	1660.55
610.75	1652.16
611.10	1644.44
611.44	1636.15
611.79	1628.28
612.14	1619.52
612.49	1610.44
612.83	1602.22
613.18	1594.09
613.53	1585.94
613.88	1577.38
614.22	1569.02
614.57	1560.45
614.92	1552.47
615.27	1544.93
615.61	1536.59
615.96	1528.57
616.31	1520.96
616.65	1513.64
617.00	1506.09
617.35	1498.44
617.70	1490.06
618.04	1481.65
618.39	1473.51
618.74	1465.81
619.08	1457.62
619.43	1450.16
619.78	1443.32
620.12	1436.03
620.47	1428.51
620.82	1420.34
621.16	1413.04
621.51	1405.47
621.85	1397.80
622.20	1389.43
622.55	1381.12
622.89	1373.34
623.24	1365.77
623.59	1358.32
623.93	1350.75
624.28	1343.48
624.62	1335.99
624.97	1328.87
625.32	1322.13
625.66	1315.04
626.01	1307.90
626.35	1300.32
626.70	1292.43
627.04	1284.67
627.39	1276.94
627.73	1269.53
628.08	1262.62
628.43	1255.31
628.77	1247.93
629.12	1240.32
629.46	1233.03
629.81	1225.57
630.15	1218.32
630.50	1210.84
630.84	1202.75
631.19	1194.86
631.53	1187.48
631.88	1179.96
632.22	1172.39
632.57	1165.09
632.91	1157.55
633.26	1150.07
633.60	1142.84
633.95	1135.94
634.29	1128.94
634.64	1122.32
634.98	1115.04
635.32	1108.05
635.67	1101.43
636.01	1094.82
636.36	1088.08
636.70	1081.68
637.05	1075.20
637.39	1068.83
637.73	1062.27
638.08	1056.38
638.42	1050.40
638.77	1043.83
639.11	1037.31
639.45	1030.92
639.80	1024.20
640.14	1017.90
640.49	1011.36
640.83	1005.04
641.17	998.58
641.52	992.29
641.86	985.83
642.20	980.02
642.55	973.66
642.89	967.22
643.23	960.73
643.58	954.97
643.92	948.79
644.26	942.61
644.61	936.53
644.95	930.59
645.29	923.98
645.64	917.26
645.98	911.00
646.32	905.20
646.66	899.12
647.01	893.34
647.35	887.58
647.69	881.87
648.04	876.33
648.38	870.68
648.72	864.66
649.06	858.57
649.41	852.64
649.75	846.69
650.09	840.65
650.43	834.84
650.78	828.66
651.12	822.67
651.46	817.06
651.80	811.22
652.14	805.81
652.49	800.47
652.83	795.31
653.17	789.56
653.51	783.77
653.85	778.39
654.20	772.74
654.54	766.78
654.88	760.98
655.22	755.17
655.56	749.44
655.90	743.92
656.25	738.73
656.59	733.43
656.93	728.34
657.27	723.29
657.61	717.93
657.95	712.85
658.29	707.81
658.64	702.56
658.98	697.36
659.32	691.96
659.66	686.73
660.00	681.39
660.34	676.52
660.68	671.62
661.02	666.62
661.36	661.97
661.70	657.47
662.05	653.09
662.39	648.70
662.73	644.35
663.07	640.04
663.41	635.56
663.75	631.04
664.09	626.45
664.43	622.03
664.77	617.94
665.11	613.70
665.45	609.54
665.79	605.47
666.13	601.33
666.47	597.21
666.81	593.10
667.15	588.96
667.49	585.12
667.83	581.39
668.17	577.49
668.51	573.41
668.85	569.40
669.19	565.62
669.53	561.78
669.87	557.87
670.21	554.16
670.55	550.57
670.89	547.12
671.23	543.78
671.57	540.26
671.91	536.68
672.25	533.26
672.58	529.79
672.92	526.43
673.26	523.30
673.60	520.14
673.94	516.98
674.28	514.16
674.62	511.16
674.96	508.05
675.30	505.14
675.64	502.25
675.97	499.57
676.31	496.73
676.65	493.76
676.99	491.04
677.33	488.25
677.67	485.40
678.01	482.37
678.34	479.40
678.68	476.58
679.02	473.80
679.36	471.05
679.70	468.35
680.04	465.55
680.37	462.65
680.71	459.94
681.05	457.36
681.39	454.66
681.73	452.06
682.06	449.52
682.40	446.95
682.74	444.46
683.08	441.87
683.42	439.27
683.75	436.85
684.09	434.37
684.43	431.90
684.77	429.47
685.10	427.19
685.44	424.86
685.78	422.52
686.12	420.27
686.45	417.99
686.79	415.72
687.13	413.57
687.46	411.40
687.80	409.23
688.14	407.06
688.48	405.01
688.81	402.77
689.15	400.58
689.49	398.44
689.82	396.31
690.16	394.23
690.50	392.30
690.83	390.36
691.17	388.36
691.51	386.48
691.84	384.63
692.18	382.69
692.52	380.69
692.85	378.85
693.19	377.01
693.52	375.16
693.86	373.30
694.20	371.51
694.53	369.75
694.87	367.91
695.21	366.10
695.54	364.23
695.88	362.50
696.21	360.77
696.55	359.13
696.88	357.45
697.22	355.79
697.56	354.16
697.89	352.47
698.23	350.89
698.56	349.22
698.90	347.63
699.23	345.98
699.57	344.50
699.90	342.96
700.24	341.41
700.58	339.90
700.91	338.42
701.25	336.98
701.58	335.59
701.92	334.23
702.25	332.86
702.59	331.51
702.92	330.17
703.26	328.88
703.59	327.62
703.93	326.47
704.26	325.27
704.60	324.02
704.93	322.79
705.26	321.55
705.60	320.46
705.93	319.32
706.27	318.34
706.60	317.26
706.94	316.15
707.27	314.97
707.61	313.87
707.94	312.85
708.27	311.75
708.61	310.66
708.94	309.65
709.28	308.67
709.61	307.75
709.94	306.84
710.28	305.88
710.61	304.88
710.95	303.77
711.28	302.86
711.61	301.86
711.95	300.93
712.28	299.96
712.61	298.93
712.95	297.99
713.28	297.07
713.61	296.17
713.95	295.32
714.28	294.52
714.61	293.69
714.95	292.82
715.28	291.97
715.61	291.10
715.95	290.27
716.28	289.41
716.61	288.57
716.95	287.76
717.28	286.99
717.61	286.21
717.94	285.52
718.28	284.67
718.61	284.01
718.94	283.34
719.27	282.69
719.61	282.06
719.94	281.43
720.27	280.75
720.60	280.07
720.94	279.43
721.27	278.79
721.60	278.24
721.93	277.69
722.27	277.16
722.60	276.61
722.93	276.05
723.26	275.53
723.59	274.98
723.93	274.44
724.26	273.89
724.59	273.37
724.92	272.85
725.25	272.43
725.59	271.87
725.92	271.35
726.25	270.85
726.58	270.36
726.91	269.85
727.24	269.35
727.57	268.92
727.91	268.39
728.24	267.97
728.57	267.45
728.90	266.97
729.23	266.49
729.56	266.09
729.89	265.61
730.22	265.11
730.55	264.63
730.89	264.19
731.22	263.75
731.55	263.33
731.88	262.91
732.21	262.45
732.54	262.02
732.87	261.61
733.20	261.22
733.53	260.84
733.86	260.48
734.19	260.09
734.52	259.69
734.85	259.41
735.18	259.00
735.51	258.64
735.84	258.27
736.17	257.92
736.50	257.50
736.83	257.27
737.16	256.92
737.49	256.60
737.82	256.27
738.15	255.92
738.48	255.56
738.81	255.22
739.14	254.89
739.47	254.56
739.80	254.24
740.13	253.91
740.46	253.54
740.79	253.19
741.12	252.89
741.45	252.57
741.78	252.20
742.11	251.96
742.44	251.63
742.77	251.37
743.10	251.06
743.43	250.77
743.75	250.36
744.08	250.23
744.41	249.97
744.74	249.68
745.07	249.41
745.40	249.16
745.73	248.93
746.06	248.65
746.39	248.40
746.71	248.14
747.04	247.92
747.37	247.68
747.70	247.41
748.03	247.14
748.36	246.89
748.68	246.62
749.01	246.32
749.34	246.08
749.67	245.81
750.00	245.59
750.33	245.43
750.65	245.24
750.98	244.89
751.31	244.69
751.64	244.49
751.97	244.32
752.29	244.09
752.62	243.82
752.95	243.58
753.28	243.33
753.60	243.14
753.93	242.93
754.26	242.71
754.59	242.49
754.91	242.29
755.24	242.12
755.57	241.93
755.90	241.78
756.22	241.58
756.55	241.39
756.88	241.21
757.20	240.97
757.53	240.76
757.86	240.59
758.19	240.42
758.51	240.23
758.84	240.03
759.17	239.87
759.49	239.72
759.82	239.64
760.15	239.54
760.47	239.38
760.80	239.20
761.13	239.08
761.45	238.97
761.78	238.86
762.11	238.74
762.43	238.64
762.76	238.47
763.08	238.42
763.41	238.30
763.74	238.16
764.06	238.04
764.39	237.90
764.71	237.77
765.04	237.62
765.37	237.46
765.69	237.35
766.02	237.25
766.34	237.15
766.67	237.01
767.00	236.90
767.32	236.86
767.65	236.84
767.97	236.73
768.30	236.63
768.62	236.54
768.95	236.38
769.27	236.23
769.60	236.19
769.92	236.02
770.25	235.89
770.57	235.80
770.90	235.67
771.22	235.60
771.55	235.51
771.87	235.43
772.20	235.36
772.52	235.37
772.85	235.37
773.17	235.27
773.50	235.14
773.82	235.03
774.15	234.88
774.47	234.73
774.80	234.65
775.12	234.51
775.45	234.37
775.77	234.34
776.09	234.26
776.42	234.13
776.74	234.09
777.07	234.02
777.39	233.94
777.72	233.88
778.04	233.80
778.36	233.75
778.69	233.66
779.01	233.58
779.33	233.38
779.66	233.17
779.98	233.11
780.31	233.03
780.63	232.96
780.95	232.91
781.28	232.83
781.60	232.74
781.92	232.70
782.25	232.67
782.57	232.58
782.89	232.51
783.22	232.45
783.54	232.37
783.86	232.30
784.19	232.25
784.51	232.21
784.83	232.14
785.16	232.07
785.48	232.00
785.80	231.93
786.12	231.89
786.45	231.87
786.77	231.78
787.09	231.75
