SpectraSuite Data File
++++++++++++++++++++++++++++++++++++
Date: Fri Feb 01 15:05:34 EST 2013
User: group
Dark Spectrum Present: No
Reference Spectrum Present: No
Number of Sampled Component Spectra: 1
Spectrometers: USB2E7196
Integration Time (usec): 35000 (USB2E7196)
Spectra Averaged: 100 (USB2E7196)
Boxcar Smoothing: 10 (USB2E7196)
Correct for Electrical Dark: No (USB2E7196)
Strobe/Lamp Enabled: No (USB2E7196)
Correct for Detector Non-linearity: No (USB2E7196)
Correct for Stray Light: No (USB2E7196)
Number of Pixels in Processed Spectrum: 2048
>>>>>Begin Processed Spectral Data<<<<<
339.09	0.00
339.48	214.92
339.86	216.35
340.24	217.47
340.63	219.25
341.01	222.61
341.39	221.82
341.78	223.26
342.16	224.88
342.54	225.45
342.93	213.35
343.31	224.16
343.69	224.70
344.07	225.18
344.46	225.63
344.84	226.00
345.22	226.22
345.60	226.49
345.99	226.65
346.37	226.78
346.75	226.84
347.13	226.91
347.52	226.95
347.90	227.02
348.28	227.06
348.66	227.13
349.05	227.12
349.43	227.17
349.81	227.22
350.19	227.24
350.57	227.31
350.96	227.38
351.34	227.45
351.72	227.55
352.10	227.64
352.48	227.72
352.87	227.75
353.25	227.83
353.63	227.86
354.01	227.93
354.39	228.01
354.77	228.09
355.15	228.23
355.54	228.28
355.92	228.31
356.30	228.37
356.68	228.49
357.06	228.54
357.44	228.57
357.82	228.66
358.20	228.74
358.58	228.78
358.97	228.82
359.35	228.88
359.73	228.97
360.11	229.03
360.49	229.07
360.87	229.16
361.25	229.21
361.63	229.28
362.01	229.36
362.39	229.39
362.77	229.42
363.15	229.43
363.53	229.49
363.91	229.53
364.29	229.58
364.67	229.49
365.05	229.53
365.43	229.53
365.81	229.54
366.19	229.59
366.57	229.63
366.95	229.66
367.33	229.60
367.71	229.57
368.09	229.55
368.47	229.53
368.85	229.49
369.23	229.47
369.61	229.43
369.99	229.40
370.37	229.36
370.75	229.39
371.13	229.33
371.51	229.29
371.89	229.27
372.27	229.20
372.65	229.20
373.03	229.15
373.41	229.10
373.78	229.00
374.16	228.89
374.54	228.75
374.92	228.64
375.30	228.61
375.68	228.52
376.06	228.47
376.44	228.42
376.82	228.33
377.19	228.27
377.57	228.16
377.95	228.04
378.33	228.00
378.71	227.85
379.09	227.80
379.47	227.73
379.84	227.63
380.22	227.55
380.60	227.42
380.98	227.32
381.36	227.24
381.73	227.16
382.11	227.11
382.49	227.07
382.87	226.98
383.25	226.92
383.62	226.97
384.00	226.88
384.38	226.82
384.76	226.81
385.13	226.75
385.51	226.71
385.89	226.67
386.27	226.58
386.64	226.54
387.02	226.51
387.40	226.47
387.78	226.43
388.15	226.39
388.53	226.36
388.91	226.34
389.29	226.32
389.66	226.33
390.04	226.30
390.42	226.30
390.79	226.29
391.17	226.26
391.55	226.16
391.92	226.16
392.30	226.14
392.68	226.10
393.05	226.13
393.43	226.14
393.81	226.15
394.18	226.17
394.56	226.19
394.94	226.23
395.31	226.21
395.69	226.28
396.06	226.35
396.44	226.40
396.82	226.41
397.19	226.51
397.57	226.53
397.95	226.58
398.32	226.63
398.70	226.71
399.07	226.80
399.45	226.88
399.82	226.93
400.20	227.01
400.58	227.12
400.95	227.21
401.33	227.34
401.70	227.55
402.08	227.62
402.45	227.75
402.83	227.88
403.20	227.99
403.58	228.11
403.95	228.24
404.33	228.38
404.71	228.55
405.08	228.74
405.46	228.90
405.83	229.07
406.21	229.21
406.58	229.42
406.96	229.59
407.33	229.79
407.70	230.01
408.08	230.29
408.45	230.50
408.83	230.72
409.20	230.92
409.58	231.07
409.95	231.37
410.33	231.63
410.70	231.86
411.08	232.20
411.45	232.51
411.82	232.82
412.20	233.21
412.57	233.63
412.95	233.91
413.32	234.35
413.69	234.79
414.07	235.22
414.44	235.68
414.82	236.15
415.19	236.70
415.56	237.24
415.94	237.79
416.31	238.45
416.68	239.04
417.06	239.77
417.43	240.45
417.81	241.25
418.18	242.02
418.55	242.85
418.93	243.72
419.30	244.59
419.67	245.54
420.04	246.44
420.42	247.41
420.79	248.55
421.16	249.65
421.54	250.80
421.91	251.99
422.28	253.24
422.66	254.55
423.03	255.84
423.40	257.20
423.77	258.61
424.15	260.00
424.52	261.47
424.89	263.06
425.26	264.59
425.64	266.01
426.01	267.58
426.38	269.22
426.75	270.91
427.13	272.64
427.50	274.40
427.87	276.29
428.24	278.15
428.61	279.93
428.99	281.91
429.36	284.01
429.73	286.09
430.10	288.11
430.47	290.16
430.85	292.28
431.22	294.49
431.59	296.84
431.96	299.11
432.33	301.60
432.70	304.02
433.08	306.85
433.45	309.49
433.82	312.14
434.19	315.02
434.56	317.81
434.93	320.46
435.30	323.12
435.68	326.03
436.05	328.89
436.42	331.67
436.79	334.17
437.16	336.91
437.53	339.79
437.90	342.63
438.27	345.38
438.64	348.18
439.01	350.77
439.38	353.00
439.75	355.17
440.13	357.67
440.50	359.97
440.87	361.78
441.24	363.76
441.61	365.94
441.98	367.48
442.35	369.35
442.72	371.26
443.09	373.06
443.46	374.10
443.83	374.70
444.20	375.25
444.57	376.10
444.94	376.39
445.31	376.71
445.68	377.04
446.05	377.14
446.42	376.85
446.79	376.44
447.16	376.02
447.53	375.68
447.90	374.56
448.27	373.44
448.64	371.91
449.01	370.76
449.37	368.78
449.74	366.87
450.11	364.56
450.48	362.05
450.85	359.55
451.22	357.40
451.59	355.36
451.96	353.44
452.33	350.81
452.70	348.43
453.07	345.58
453.43	342.73
453.80	340.02
454.17	337.28
454.54	334.76
454.91	332.08
455.28	329.41
455.65	326.87
456.02	324.39
456.38	322.23
456.75	319.53
457.12	317.26
457.49	315.01
457.86	312.84
458.23	310.96
458.59	308.94
458.96	306.78
459.33	304.92
459.70	303.00
460.07	301.52
460.43	299.81
460.80	298.20
461.17	296.69
461.54	295.12
461.91	293.69
462.27	292.22
462.64	290.93
463.01	289.57
463.38	288.30
463.74	286.95
464.11	285.80
464.48	284.80
464.85	283.65
465.21	282.79
465.58	281.87
465.95	280.77
466.32	279.80
466.68	278.91
467.05	278.00
467.42	277.11
467.78	276.18
468.15	275.30
468.52	274.64
468.88	273.79
469.25	273.06
469.62	272.45
469.98	271.78
470.35	271.14
470.72	270.53
471.08	269.85
471.45	269.31
471.82	268.73
472.18	268.08
472.55	267.65
472.92	267.11
473.28	266.65
473.65	266.22
474.02	265.75
474.38	265.34
474.75	265.00
475.11	264.63
475.48	264.34
475.85	264.06
476.21	263.80
476.58	263.63
476.94	263.43
477.31	263.19
477.67	262.98
478.04	262.87
478.41	262.81
478.77	262.82
479.14	262.75
479.50	262.73
479.87	262.83
480.23	262.91
480.60	262.98
480.96	263.04
481.33	263.20
481.69	263.39
482.06	263.62
482.42	263.83
482.79	264.12
483.15	264.42
483.52	264.82
483.88	265.15
484.25	265.51
484.61	265.92
484.98	266.40
485.34	266.96
485.71	267.54
486.07	268.11
486.44	268.68
486.80	269.35
487.17	270.08
487.53	270.86
487.90	271.68
488.26	272.62
488.62	273.59
488.99	274.56
489.35	275.64
489.72	276.78
490.08	277.98
490.44	279.20
490.81	280.57
491.17	281.94
491.54	283.42
491.90	284.96
492.26	286.65
492.63	288.38
492.99	290.17
493.36	292.04
493.72	294.12
494.08	296.19
494.45	298.47
494.81	300.86
495.17	303.31
495.54	305.88
495.90	308.60
496.26	311.44
496.63	314.43
496.99	317.56
497.35	320.77
497.72	324.19
498.08	327.72
498.44	331.33
498.80	335.25
499.17	339.30
499.53	343.47
499.89	347.85
500.26	352.35
500.62	357.01
500.98	362.02
501.34	367.05
501.71	372.42
502.07	377.83
502.43	383.38
502.79	389.20
503.16	395.28
503.52	401.51
503.88	407.88
504.24	414.47
504.60	421.32
504.97	428.46
505.33	435.75
505.69	443.47
506.05	451.19
506.41	459.02
506.78	467.10
507.14	475.58
507.50	484.21
507.86	493.19
508.22	502.40
508.59	511.48
508.95	521.13
509.31	530.84
509.67	540.93
510.03	551.23
510.39	561.77
510.75	572.57
511.12	583.50
511.48	594.76
511.84	606.23
512.20	617.69
512.56	629.66
512.92	641.83
513.28	654.05
513.64	666.58
514.00	679.26
514.37	692.24
514.73	705.16
515.09	718.27
515.45	731.58
515.81	745.09
516.17	759.11
516.53	773.18
516.89	787.43
517.25	801.58
517.61	816.04
517.97	830.48
518.33	844.92
518.69	859.68
519.05	874.74
519.41	889.90
519.77	905.48
520.13	920.88
520.49	936.22
520.85	951.76
521.21	967.49
521.57	983.80
521.93	999.61
522.29	1016.16
522.65	1032.29
523.01	1048.55
523.37	1064.73
523.73	1081.06
524.09	1097.21
524.45	1113.67
524.81	1130.35
525.17	1147.22
525.53	1164.10
525.89	1181.03
526.25	1197.89
526.61	1214.31
526.97	1231.17
527.33	1247.67
527.68	1264.45
528.04	1281.03
528.40	1297.69
528.76	1314.74
529.12	1331.37
529.48	1348.33
529.84	1364.44
530.20	1381.24
530.56	1398.38
530.91	1415.82
531.27	1432.53
531.63	1449.02
531.99	1465.52
532.35	1481.61
532.71	1497.63
533.07	1514.01
533.42	1529.92
533.78	1546.06
534.14	1562.41
534.50	1577.74
534.86	1593.81
535.21	1608.92
535.57	1625.02
535.93	1640.68
536.29	1655.57
536.65	1670.75
537.00	1685.67
537.36	1700.94
537.72	1715.59
538.08	1730.03
538.44	1743.91
538.79	1757.88
539.15	1771.67
539.51	1785.63
539.87	1800.01
540.22	1813.76
540.58	1827.66
540.94	1841.22
541.29	1854.24
541.65	1866.98
542.01	1880.34
542.37	1892.61
542.72	1905.07
543.08	1916.81
543.44	1929.13
543.79	1940.53
544.15	1951.50
544.51	1963.06
544.87	1974.22
545.22	1985.08
545.58	1995.26
545.94	2005.10
546.29	2015.00
546.65	2024.82
547.01	2034.03
547.36	2042.76
547.72	2051.26
548.07	2059.01
548.43	2067.16
548.79	2075.33
549.14	2082.94
549.50	2090.36
549.86	2098.21
550.21	2105.60
550.57	2112.94
550.92	2119.62
551.28	2126.80
551.64	2133.93
551.99	2140.46
552.35	2146.54
552.70	2152.72
553.06	2158.71
553.41	2165.04
553.77	2171.10
554.13	2177.40
554.48	2183.46
554.84	2189.00
555.19	2194.28
555.55	2199.45
555.90	2203.88
556.26	2208.61
556.61	2213.43
556.97	2217.50
557.32	2221.45
557.68	2225.61
558.03	2229.79
558.39	2233.52
558.74	2237.90
559.10	2241.76
559.45	2245.37
559.81	2249.71
560.16	2253.34
560.52	2256.58
560.87	2260.09
561.23	2262.72
561.58	2265.46
561.94	2268.00
562.29	2270.41
562.64	2273.15
563.00	2275.74
563.35	2279.13
563.71	2282.09
564.06	2284.91
564.42	2287.80
564.77	2290.34
565.12	2292.45
565.48	2294.20
565.83	2295.74
566.19	2297.01
566.54	2297.97
566.89	2299.09
567.25	2299.57
567.60	2301.04
567.96	2302.53
568.31	2303.19
568.66	2304.12
569.02	2304.70
569.37	2304.90
569.72	2305.59
570.08	2305.45
570.43	2305.31
570.78	2304.40
571.14	2302.88
571.49	2301.65
571.84	2301.19
572.20	2299.82
572.55	2298.56
572.90	2296.87
573.26	2295.41
573.61	2293.74
573.96	2291.74
574.31	2288.49
574.67	2285.27
575.02	2281.33
575.37	2277.89
575.72	2273.85
576.08	2270.40
576.43	2266.82
576.78	2263.06
577.13	2259.70
577.49	2256.46
577.84	2252.89
578.19	2249.19
578.54	2245.36
578.90	2241.05
579.25	2235.39
579.60	2230.34
579.95	2225.28
580.30	2220.22
580.66	2214.99
581.01	2209.83
581.36	2204.75
581.71	2200.48
582.06	2195.80
582.42	2191.26
582.77	2186.01
583.12	2181.26
583.47	2176.42
583.82	2171.26
584.17	2165.95
584.53	2160.33
584.88	2154.64
585.23	2148.88
585.58	2143.30
585.93	2137.73
586.28	2132.75
586.63	2127.64
586.98	2122.55
587.34	2117.82
587.69	2112.77
588.04	2107.47
588.39	2101.61
588.74	2094.95
589.09	2088.77
589.44	2081.91
589.79	2075.74
590.14	2069.93
590.49	2063.31
590.84	2056.83
591.19	2050.90
591.54	2044.19
591.89	2036.54
592.25	2029.63
592.60	2022.14
592.95	2014.51
593.30	2007.10
593.65	1999.44
594.00	1992.23
594.35	1984.91
594.70	1976.81
595.05	1969.48
595.40	1962.11
595.75	1954.54
596.10	1948.29
596.45	1941.38
596.80	1935.22
597.15	1928.45
597.50	1921.21
597.85	1914.81
598.19	1908.10
598.54	1900.89
598.89	1894.30
599.24	1888.53
599.59	1881.80
599.94	1875.68
600.29	1869.32
600.64	1862.65
600.99	1855.14
601.34	1848.21
601.69	1841.18
602.04	1834.21
602.39	1826.86
602.74	1819.96
603.08	1813.10
603.43	1806.38
603.78	1799.13
604.13	1791.84
604.48	1784.58
604.83	1777.84
605.18	1770.71
605.53	1762.71
605.87	1754.58
606.22	1747.31
606.57	1739.30
606.92	1731.90
607.27	1724.62
607.62	1717.75
607.96	1710.54
608.31	1703.84
608.66	1696.23
609.01	1688.75
609.36	1681.17
609.70	1673.12
610.05	1665.01
610.40	1657.47
610.75	1649.11
611.10	1641.47
611.44	1633.28
611.79	1625.26
612.14	1616.56
612.49	1607.50
612.83	1599.09
613.18	1591.10
613.53	1582.98
613.88	1574.46
614.22	1566.36
614.57	1557.93
614.92	1549.89
615.27	1542.26
615.61	1533.96
615.96	1525.95
616.31	1518.24
616.65	1510.90
617.00	1503.43
617.35	1495.87
617.70	1487.44
618.04	1478.90
618.39	1470.58
618.74	1462.98
619.08	1454.70
619.43	1447.13
619.78	1440.20
620.12	1433.12
620.47	1425.49
620.82	1417.45
621.16	1410.18
621.51	1402.45
621.85	1394.67
622.20	1386.20
622.55	1377.84
622.89	1370.02
623.24	1362.39
623.59	1355.06
623.93	1347.62
624.28	1340.30
624.62	1332.83
624.97	1325.76
625.32	1319.06
625.66	1312.04
626.01	1304.76
626.35	1297.38
626.70	1289.68
627.04	1281.93
627.39	1274.11
627.73	1266.79
628.08	1259.75
628.43	1252.28
628.77	1244.85
629.12	1237.36
629.46	1230.14
629.81	1222.80
630.15	1215.69
630.50	1208.41
630.84	1200.24
631.19	1192.40
631.53	1185.04
631.88	1177.45
632.22	1169.84
632.57	1162.64
632.91	1155.33
633.26	1147.92
633.60	1140.69
633.95	1133.68
634.29	1126.82
634.64	1120.17
634.98	1112.84
635.32	1105.75
635.67	1099.31
636.01	1092.84
636.36	1086.14
636.70	1079.74
637.05	1073.14
637.39	1066.71
637.73	1060.26
638.08	1054.46
638.42	1048.42
638.77	1041.99
639.11	1035.37
639.45	1029.06
639.80	1022.38
640.14	1015.87
640.49	1009.35
640.83	1003.11
641.17	996.86
641.52	990.44
641.86	984.12
642.20	978.27
642.55	972.07
642.89	965.64
643.23	959.16
643.58	953.38
643.92	947.10
644.26	941.17
644.61	935.20
644.95	929.13
645.29	922.45
645.64	915.74
645.98	909.46
646.32	903.78
646.66	897.77
647.01	892.01
647.35	886.36
647.69	880.63
648.04	875.09
648.38	869.34
648.72	863.42
649.06	857.45
649.41	851.60
649.75	845.60
650.09	839.65
650.43	833.86
650.78	827.69
651.12	821.82
651.46	816.04
651.80	810.19
652.14	804.82
652.49	799.51
652.83	794.32
653.17	788.63
653.51	782.85
653.85	777.45
654.20	771.81
654.54	765.85
654.88	760.13
655.22	754.26
655.56	748.60
655.90	743.13
656.25	737.86
656.59	732.53
656.93	727.45
657.27	722.25
657.61	716.80
657.95	711.71
658.29	706.53
658.64	701.33
658.98	696.14
659.32	690.68
659.66	685.58
660.00	680.35
660.34	675.42
660.68	670.54
661.02	665.51
661.36	660.84
661.70	656.32
662.05	652.02
662.39	647.63
662.73	643.15
663.07	638.85
663.41	634.30
663.75	629.82
664.09	625.32
664.43	620.96
664.77	616.90
665.11	612.71
665.45	608.75
665.79	604.72
666.13	600.58
666.47	596.53
666.81	592.27
667.15	588.14
667.49	584.27
667.83	580.50
668.17	576.56
668.51	572.49
668.85	568.48
669.19	564.59
669.53	560.79
669.87	556.90
670.21	553.13
670.55	549.60
670.89	546.21
671.23	542.83
671.57	539.40
671.91	535.88
672.25	532.41
672.58	528.91
672.92	525.54
673.26	522.45
673.60	519.32
673.94	516.24
674.28	513.37
674.62	510.44
674.96	507.33
675.30	504.47
675.64	501.59
675.97	498.82
676.31	495.96
676.65	493.04
676.99	490.38
677.33	487.57
677.67	484.78
678.01	481.73
678.34	478.68
678.68	475.80
679.02	473.01
679.36	470.30
679.70	467.57
680.04	464.76
680.37	461.88
680.71	459.16
681.05	456.61
681.39	453.90
681.73	451.26
682.06	448.78
682.40	446.22
682.74	443.74
683.08	441.29
683.42	438.77
683.75	436.34
684.09	433.85
684.43	431.40
684.77	428.92
685.10	426.61
685.44	424.41
685.78	422.17
686.12	419.93
686.45	417.65
686.79	415.35
687.13	413.20
687.46	411.04
687.80	408.83
688.14	406.65
688.48	404.65
688.81	402.41
689.15	400.28
689.49	398.15
689.82	396.01
690.16	393.90
690.50	391.93
690.83	389.94
691.17	387.97
691.51	386.05
691.84	384.23
692.18	382.30
692.52	380.30
692.85	378.39
693.19	376.50
693.52	374.65
693.86	372.89
694.20	371.10
694.53	369.31
694.87	367.54
695.21	365.73
695.54	363.90
695.88	362.23
696.21	360.52
696.55	358.87
696.88	357.21
697.22	355.55
697.56	353.96
697.89	352.33
698.23	350.73
698.56	349.12
698.90	347.53
699.23	345.92
699.57	344.34
699.90	342.78
700.24	341.27
700.58	339.78
700.91	338.24
701.25	336.84
701.58	335.46
701.92	334.08
702.25	332.70
702.59	331.33
702.92	329.96
703.26	328.63
703.59	327.39
703.93	326.22
704.26	324.99
704.60	323.70
704.93	322.43
705.26	321.17
705.60	320.02
705.93	318.87
706.27	317.82
706.60	316.82
706.94	315.78
707.27	314.66
707.61	313.63
707.94	312.63
708.27	311.54
708.61	310.46
708.94	309.46
709.28	308.52
709.61	307.56
709.94	306.65
710.28	305.65
710.61	304.63
710.95	303.58
711.28	302.70
711.61	301.76
711.95	300.88
712.28	299.93
712.61	298.93
712.95	298.00
713.28	297.15
713.61	296.23
713.95	295.32
714.28	294.46
714.61	293.58
714.95	292.73
715.28	291.87
715.61	291.02
715.95	290.17
716.28	289.31
716.61	288.53
716.95	287.77
717.28	287.04
717.61	286.29
717.94	285.55
718.28	284.76
718.61	284.06
718.94	283.35
719.27	282.71
719.61	282.14
719.94	281.52
720.27	280.81
720.60	280.17
720.94	279.56
721.27	279.01
721.60	278.47
721.93	277.85
722.27	277.35
722.60	276.82
722.93	276.25
723.26	275.75
723.59	275.17
723.93	274.60
724.26	274.03
724.59	273.48
724.92	272.96
725.25	272.51
725.59	271.95
725.92	271.46
726.25	270.99
726.58	270.46
726.91	269.94
727.24	269.46
727.57	268.98
727.91	268.47
728.24	268.01
728.57	267.51
728.90	267.11
729.23	266.59
729.56	266.15
729.89	265.71
730.22	265.22
730.55	264.73
730.89	264.28
731.22	263.85
731.55	263.41
731.88	263.00
732.21	262.53
732.54	262.13
732.87	261.71
733.20	261.29
733.53	260.91
733.86	260.55
734.19	260.18
734.52	259.77
734.85	259.45
735.18	259.02
735.51	258.64
735.84	258.24
736.17	257.90
736.50	257.49
736.83	257.21
737.16	256.84
737.49	256.52
737.82	256.19
738.15	255.84
738.48	255.52
738.81	255.15
739.14	254.81
739.47	254.49
739.80	254.17
740.13	253.87
740.46	253.54
740.79	253.20
741.12	252.89
741.45	252.58
741.78	252.26
742.11	251.98
742.44	251.64
742.77	251.36
743.10	251.06
743.43	250.76
743.75	250.39
744.08	250.24
744.41	249.94
744.74	249.65
745.07	249.37
745.40	249.10
745.73	248.92
746.06	248.64
746.39	248.41
746.71	248.10
747.04	247.81
747.37	247.54
747.70	247.29
748.03	247.03
748.36	246.81
748.68	246.57
749.01	246.31
749.34	246.10
749.67	245.86
750.00	245.64
750.33	245.50
750.65	245.28
750.98	244.94
751.31	244.77
751.64	244.58
751.97	244.41
752.29	244.24
752.62	243.94
752.95	243.75
753.28	243.52
753.60	243.31
753.93	243.17
754.26	242.94
754.59	242.73
754.91	242.55
755.24	242.34
755.57	242.18
755.90	242.04
756.22	241.85
756.55	241.68
756.88	241.50
757.20	241.25
757.53	241.05
757.86	240.92
758.19	240.73
758.51	240.57
758.84	240.38
759.17	240.20
759.49	240.07
759.82	239.94
760.15	239.82
760.47	239.72
760.80	239.55
761.13	239.47
761.45	239.34
761.78	239.21
762.11	239.05
762.43	238.87
762.76	238.69
763.08	238.56
763.41	238.44
763.74	238.34
764.06	238.20
764.39	238.09
764.71	237.93
765.04	237.83
765.37	237.65
765.69	237.52
766.02	237.40
766.34	237.31
766.67	237.15
767.00	237.00
767.32	236.92
767.65	236.86
767.97	236.73
768.30	236.61
768.62	236.47
768.95	236.36
769.27	236.27
769.60	236.19
769.92	236.09
770.25	235.95
770.57	235.80
770.90	235.70
771.22	235.57
771.55	235.46
771.87	235.35
772.20	235.25
772.52	235.21
772.85	235.19
773.17	235.08
773.50	234.98
773.82	234.87
774.15	234.73
774.47	234.57
774.80	234.46
775.12	234.35
775.45	234.26
775.77	234.19
776.09	234.10
776.42	233.98
776.74	233.91
777.07	233.80
777.39	233.76
777.72	233.67
778.04	233.60
778.36	233.55
778.69	233.48
779.01	233.43
779.33	233.32
779.66	233.16
779.98	233.07
780.31	233.03
780.63	233.01
780.95	232.97
781.28	232.87
781.60	232.77
781.92	232.74
782.25	232.66
782.57	232.61
782.89	232.57
783.22	232.53
783.54	232.44
783.86	232.40
784.19	232.26
784.51	232.24
784.83	232.17
785.16	232.10
785.48	232.02
785.80	231.95
786.12	231.87
786.45	231.80
786.77	231.74
787.09	231.63
