SpectraSuite Data File
++++++++++++++++++++++++++++++++++++
Date: Fri Feb 01 17:32:45 EST 2013
User: group
Dark Spectrum Present: No
Reference Spectrum Present: No
Number of Sampled Component Spectra: 1
Spectrometers: USB2E7196
Integration Time (usec): 35000 (USB2E7196)
Spectra Averaged: 100 (USB2E7196)
Boxcar Smoothing: 10 (USB2E7196)
Correct for Electrical Dark: No (USB2E7196)
Strobe/Lamp Enabled: No (USB2E7196)
Correct for Detector Non-linearity: No (USB2E7196)
Correct for Stray Light: No (USB2E7196)
Number of Pixels in Processed Spectrum: 2048
>>>>>Begin Processed Spectral Data<<<<<
339.09	0.00
339.48	213.27
339.86	214.29
340.24	215.94
340.63	217.10
341.01	220.60
341.39	220.28
341.78	221.67
342.16	222.81
342.54	222.99
342.93	211.58
343.31	222.27
343.69	222.81
344.07	223.28
344.46	223.69
344.84	224.08
345.22	224.29
345.60	224.52
345.99	224.69
346.37	224.79
346.75	224.86
347.13	224.92
347.52	224.98
347.90	225.07
348.28	225.10
348.66	225.13
349.05	225.11
349.43	225.18
349.81	225.24
350.19	225.27
350.57	225.34
350.96	225.41
351.34	225.48
351.72	225.52
352.10	225.63
352.48	225.69
352.87	225.73
353.25	225.81
353.63	225.90
354.01	225.94
354.39	226.02
354.77	226.12
355.15	226.20
355.54	226.25
355.92	226.31
356.30	226.39
356.68	226.53
357.06	226.59
357.44	226.60
357.82	226.64
358.20	226.72
358.58	226.78
358.97	226.83
359.35	226.90
359.73	227.02
360.11	227.08
360.49	227.16
360.87	227.23
361.25	227.26
361.63	227.30
362.01	227.39
362.39	227.45
362.77	227.49
363.15	227.52
363.53	227.57
363.91	227.61
364.29	227.60
364.67	227.50
365.05	227.53
365.43	227.58
365.81	227.61
366.19	227.66
366.57	227.68
366.95	227.68
367.33	227.67
367.71	227.63
368.09	227.62
368.47	227.60
368.85	227.55
369.23	227.55
369.61	227.52
369.99	227.51
370.37	227.45
370.75	227.47
371.13	227.45
371.51	227.39
371.89	227.31
372.27	227.30
372.65	227.25
373.03	227.20
373.41	227.14
373.78	227.05
374.16	226.94
374.54	226.85
374.92	226.76
375.30	226.68
375.68	226.61
376.06	226.56
376.44	226.49
376.82	226.43
377.19	226.35
377.57	226.27
377.95	226.17
378.33	226.14
378.71	226.02
379.09	225.99
379.47	225.93
379.84	225.88
380.22	225.78
380.60	225.73
380.98	225.67
381.36	225.63
381.73	225.58
382.11	225.55
382.49	225.51
382.87	225.44
383.25	225.41
383.62	225.48
384.00	225.41
384.38	225.34
384.76	225.32
385.13	225.28
385.51	225.25
385.89	225.16
386.27	225.11
386.64	225.07
387.02	224.98
387.40	224.92
387.78	224.89
388.15	224.84
388.53	224.83
388.91	224.80
389.29	224.71
389.66	224.68
390.04	224.62
390.42	224.63
390.79	224.63
391.17	224.62
391.55	224.45
391.92	224.47
392.30	224.45
392.68	224.42
393.05	224.41
393.43	224.40
393.81	224.42
394.18	224.41
394.56	224.41
394.94	224.45
395.31	224.44
395.69	224.48
396.06	224.51
396.44	224.51
396.82	224.53
397.19	224.63
397.57	224.63
397.95	224.71
398.32	224.66
398.70	224.71
399.07	224.74
399.45	224.81
399.82	224.83
400.20	224.91
400.58	224.95
400.95	225.03
401.33	225.11
401.70	225.27
402.08	225.34
402.45	225.42
402.83	225.54
403.20	225.66
403.58	225.72
403.95	225.85
404.33	225.96
404.71	226.06
405.08	226.24
405.46	226.38
405.83	226.52
406.21	226.70
406.58	226.83
406.96	226.99
407.33	227.17
407.70	227.34
408.08	227.60
408.45	227.82
408.83	228.03
409.20	228.23
409.58	228.41
409.95	228.67
410.33	228.94
410.70	229.20
411.08	229.50
411.45	229.83
411.82	230.13
412.20	230.51
412.57	230.96
412.95	231.24
413.32	231.67
413.69	232.07
414.07	232.50
414.44	233.00
414.82	233.50
415.19	234.04
415.56	234.65
415.94	235.23
416.31	235.90
416.68	236.55
417.06	237.31
417.43	238.00
417.81	238.80
418.18	239.62
418.55	240.50
418.93	241.42
419.30	242.35
419.67	243.35
420.04	244.38
420.42	245.44
420.79	246.65
421.16	247.84
421.54	249.12
421.91	250.45
422.28	251.76
422.66	253.18
423.03	254.57
423.40	255.93
423.77	257.36
424.15	258.89
424.52	260.46
424.89	262.15
425.26	263.80
425.64	265.33
426.01	267.01
426.38	268.69
426.75	270.42
427.13	272.23
427.50	274.12
427.87	276.05
428.24	277.98
428.61	279.83
428.99	281.93
429.36	284.11
429.73	286.23
430.10	288.34
430.47	290.48
430.85	292.70
431.22	295.08
431.59	297.60
431.96	299.98
432.33	302.60
432.70	305.08
433.08	308.00
433.45	310.73
433.82	313.40
434.19	316.46
434.56	319.44
434.93	322.20
435.30	324.95
435.68	327.95
436.05	330.88
436.42	333.77
436.79	336.36
437.16	339.14
437.53	342.11
437.90	345.05
438.27	347.92
438.64	350.88
439.01	353.56
439.38	355.93
439.75	358.12
440.13	360.68
440.50	363.10
440.87	365.05
441.24	367.08
441.61	369.38
441.98	370.95
442.35	372.79
442.72	374.73
443.09	376.60
443.46	377.65
443.83	378.26
444.20	378.80
444.57	379.68
444.94	380.00
445.31	380.38
445.68	380.73
446.05	380.80
446.42	380.41
446.79	379.96
447.16	379.46
447.53	379.16
447.90	378.00
448.27	376.79
448.64	375.14
449.01	373.98
449.37	371.95
449.74	369.98
450.11	367.68
450.48	365.13
450.85	362.52
451.22	360.31
451.59	358.25
451.96	356.24
452.33	353.56
452.70	351.14
453.07	348.15
453.43	345.16
453.80	342.28
454.17	339.48
454.54	336.81
454.91	333.98
455.28	331.19
455.65	328.56
456.02	326.03
456.38	323.83
456.75	321.09
457.12	318.72
457.49	316.39
457.86	314.09
458.23	312.14
458.59	309.96
458.96	307.76
459.33	305.82
459.70	303.85
460.07	302.25
460.43	300.43
460.80	298.75
461.17	297.27
461.54	295.72
461.91	294.26
462.27	292.80
462.64	291.49
463.01	290.05
463.38	288.68
463.74	287.26
464.11	286.00
464.48	284.89
464.85	283.75
465.21	282.85
465.58	281.88
465.95	280.74
466.32	279.84
466.68	278.94
467.05	278.01
467.42	277.10
467.78	276.14
468.15	275.23
468.52	274.55
468.88	273.63
469.25	272.81
469.62	272.14
469.98	271.43
470.35	270.77
470.72	270.20
471.08	269.54
471.45	269.00
471.82	268.49
472.18	267.86
472.55	267.39
472.92	266.84
473.28	266.35
473.65	265.89
474.02	265.42
474.38	265.00
474.75	264.65
475.11	264.33
475.48	264.04
475.85	263.77
476.21	263.50
476.58	263.32
476.94	263.18
477.31	263.00
477.67	262.85
478.04	262.75
478.41	262.66
478.77	262.70
479.14	262.60
479.50	262.54
479.87	262.64
480.23	262.73
480.60	262.82
480.96	262.95
481.33	263.18
481.69	263.37
482.06	263.58
482.42	263.80
482.79	263.98
483.15	264.33
483.52	264.74
483.88	265.07
484.25	265.45
484.61	265.89
484.98	266.34
485.34	266.91
485.71	267.51
486.07	268.08
486.44	268.62
486.80	269.36
487.17	270.11
487.53	270.89
487.90	271.71
488.26	272.64
488.62	273.58
488.99	274.54
489.35	275.59
489.72	276.67
490.08	277.85
490.44	279.15
490.81	280.41
491.17	281.76
491.54	283.28
491.90	284.83
492.26	286.43
492.63	288.14
492.99	289.90
493.36	291.76
493.72	293.82
494.08	295.94
494.45	298.13
494.81	300.44
495.17	302.86
495.54	305.44
495.90	308.05
496.26	310.84
496.63	313.77
496.99	316.83
497.35	320.11
497.72	323.51
498.08	327.02
498.44	330.66
498.80	334.52
499.17	338.55
499.53	342.63
499.89	346.98
500.26	351.45
500.62	356.04
500.98	360.94
501.34	365.92
501.71	371.17
502.07	376.55
502.43	382.09
502.79	387.82
503.16	393.82
503.52	400.04
503.88	406.36
504.24	412.89
504.60	419.75
504.97	426.75
505.33	433.91
505.69	441.44
506.05	449.14
506.41	456.84
506.78	464.83
507.14	473.19
507.50	481.69
507.86	490.55
508.22	499.53
508.59	508.57
508.95	517.95
509.31	527.62
509.67	537.51
510.03	547.68
510.39	558.04
510.75	568.53
511.12	579.18
511.48	590.17
511.84	601.39
512.20	612.55
512.56	624.16
512.92	636.06
513.28	648.14
513.64	660.23
514.00	672.67
514.37	685.28
514.73	697.95
515.09	710.65
515.45	723.54
515.81	736.85
516.17	750.50
516.53	764.34
516.89	778.07
517.25	791.82
517.61	805.72
517.97	819.69
518.33	833.75
518.69	848.15
519.05	862.70
519.41	877.50
519.77	892.49
520.13	907.54
520.49	922.38
520.85	937.24
521.21	952.54
521.57	968.38
521.93	983.68
522.29	999.58
522.65	1015.34
523.01	1031.00
523.37	1046.50
523.73	1062.08
524.09	1077.59
524.45	1093.39
524.81	1109.54
525.17	1125.84
525.53	1142.16
525.89	1158.55
526.25	1174.82
526.61	1190.72
526.97	1206.87
527.33	1222.88
527.68	1239.03
528.04	1255.10
528.40	1271.19
528.76	1287.69
529.12	1303.73
529.48	1320.12
529.84	1335.63
530.20	1351.84
530.56	1368.35
530.91	1385.33
531.27	1401.70
531.63	1417.72
531.99	1433.95
532.35	1449.60
532.71	1465.02
533.07	1481.06
533.42	1496.58
533.78	1512.28
534.14	1528.18
534.50	1543.12
534.86	1558.64
535.21	1573.45
535.57	1588.97
535.93	1604.24
536.29	1618.69
536.65	1633.37
537.00	1647.87
537.36	1662.97
537.72	1677.11
538.08	1691.33
538.44	1704.76
538.79	1718.45
539.15	1731.86
539.51	1745.29
539.87	1759.31
540.22	1772.83
540.58	1786.27
540.94	1799.23
541.29	1811.79
541.65	1824.30
542.01	1837.37
542.37	1849.70
542.72	1861.96
543.08	1873.71
543.44	1885.93
543.79	1897.31
544.15	1908.28
544.51	1919.73
544.87	1930.65
545.22	1941.56
545.58	1951.74
545.94	1961.58
546.29	1971.40
546.65	1981.38
547.01	1990.79
547.36	1999.49
547.72	2008.15
548.07	2016.25
548.43	2024.64
548.79	2032.81
549.14	2040.51
549.50	2048.01
549.86	2055.62
550.21	2063.15
550.57	2070.59
550.92	2077.40
551.28	2084.51
551.64	2091.76
551.99	2098.49
552.35	2104.82
552.70	2111.15
553.06	2117.45
553.41	2124.06
553.77	2130.36
554.13	2136.64
554.48	2143.00
554.84	2149.03
555.19	2154.42
555.55	2159.96
555.90	2164.83
556.26	2170.22
556.61	2175.22
556.97	2179.92
557.32	2184.52
557.68	2188.96
558.03	2193.35
558.39	2197.28
558.74	2202.25
559.10	2206.55
559.45	2210.59
559.81	2215.28
560.16	2219.49
560.52	2223.15
560.87	2226.90
561.23	2229.95
561.58	2233.07
561.94	2236.00
562.29	2238.65
562.64	2242.01
563.00	2244.85
563.35	2248.67
563.71	2252.11
564.06	2255.64
564.42	2258.91
564.77	2261.90
565.12	2264.74
565.48	2267.20
565.83	2269.51
566.19	2271.32
566.54	2272.44
566.89	2274.19
567.25	2275.21
567.60	2276.89
567.96	2279.03
568.31	2280.31
568.66	2281.86
569.02	2283.10
569.37	2283.83
569.72	2285.03
570.08	2285.61
570.43	2286.07
570.78	2286.05
571.14	2284.86
571.49	2284.00
571.84	2283.91
572.20	2283.14
572.55	2282.45
572.90	2281.25
573.26	2280.47
573.61	2279.04
573.96	2277.97
574.31	2275.37
574.67	2272.93
575.02	2269.75
575.37	2266.62
575.72	2263.33
576.08	2260.33
576.43	2257.25
576.78	2254.16
577.13	2251.29
577.49	2248.37
577.84	2245.31
578.19	2241.72
578.54	2238.67
578.90	2235.00
579.25	2229.97
579.60	2225.49
579.95	2220.85
580.30	2216.12
580.66	2211.16
581.01	2206.44
581.36	2201.71
581.71	2198.02
582.06	2193.92
582.42	2189.83
582.77	2185.05
583.12	2180.77
583.47	2176.46
583.82	2171.97
584.17	2166.92
584.53	2161.76
584.88	2156.56
585.23	2151.13
585.58	2146.00
585.93	2140.58
586.28	2135.97
586.63	2131.24
586.98	2126.48
587.34	2122.01
587.69	2117.57
588.04	2112.78
588.39	2107.55
588.74	2101.32
589.09	2095.26
589.44	2088.66
589.79	2082.70
590.14	2077.26
590.49	2070.88
590.84	2064.59
591.19	2058.69
591.54	2052.34
591.89	2045.36
592.25	2038.91
592.60	2032.03
592.95	2024.92
593.30	2017.83
593.65	2010.31
594.00	2003.39
594.35	1996.27
594.70	1988.32
595.05	1981.24
595.40	1974.02
595.75	1966.77
596.10	1960.96
596.45	1954.40
596.80	1948.45
597.15	1942.22
597.50	1935.48
597.85	1929.20
598.19	1922.74
598.54	1916.02
598.89	1909.64
599.24	1903.87
599.59	1897.54
599.94	1891.18
600.29	1884.81
600.64	1878.30
600.99	1871.19
601.34	1864.49
601.69	1857.56
602.04	1850.91
602.39	1843.73
602.74	1837.02
603.08	1830.42
603.43	1823.76
603.78	1816.59
604.13	1809.34
604.48	1802.14
604.83	1795.28
605.18	1788.57
605.53	1780.79
605.87	1772.76
606.22	1765.53
606.57	1757.46
606.92	1749.78
607.27	1742.81
607.62	1736.04
607.96	1729.00
608.31	1722.57
608.66	1715.11
609.01	1707.63
609.36	1700.11
609.70	1692.04
610.05	1684.08
610.40	1676.35
610.75	1667.97
611.10	1660.07
611.44	1651.62
611.79	1643.48
612.14	1634.68
612.49	1625.33
612.83	1616.70
613.18	1608.42
613.53	1600.28
613.88	1591.83
614.22	1583.49
614.57	1574.73
614.92	1566.52
615.27	1559.05
615.61	1550.63
615.96	1542.39
616.31	1534.55
616.65	1527.08
617.00	1519.46
617.35	1511.60
617.70	1503.25
618.04	1494.60
618.39	1486.41
618.74	1478.81
619.08	1470.46
619.43	1462.91
619.78	1455.85
620.12	1448.82
620.47	1441.29
620.82	1432.91
621.16	1425.30
621.51	1417.67
621.85	1409.97
622.20	1401.46
622.55	1392.83
622.89	1384.75
623.24	1377.08
623.59	1369.65
623.93	1362.04
624.28	1354.83
624.62	1347.34
624.97	1340.06
625.32	1333.14
625.66	1326.01
626.01	1318.72
626.35	1311.37
626.70	1303.43
627.04	1295.77
627.39	1287.83
627.73	1280.35
628.08	1273.38
628.43	1266.16
628.77	1258.71
629.12	1251.08
629.46	1243.81
629.81	1236.19
630.15	1228.97
630.50	1221.43
630.84	1213.25
631.19	1205.12
631.53	1197.40
631.88	1189.71
632.22	1181.86
632.57	1174.48
632.91	1166.83
633.26	1159.36
633.60	1151.76
633.95	1144.42
634.29	1137.22
634.64	1130.37
634.98	1122.91
635.32	1115.68
635.67	1108.88
636.01	1102.20
636.36	1095.38
636.70	1088.72
637.05	1082.19
637.39	1075.61
637.73	1069.02
638.08	1062.90
638.42	1056.91
638.77	1050.53
639.11	1043.85
639.45	1037.46
639.80	1030.79
640.14	1024.43
640.49	1017.84
640.83	1011.53
641.17	1005.41
641.52	999.01
641.86	992.53
642.20	986.61
642.55	980.26
642.89	973.88
643.23	967.11
643.58	961.23
643.92	955.01
644.26	948.91
644.61	942.72
644.95	936.67
645.29	930.23
645.64	923.42
645.98	916.91
646.32	911.00
646.66	904.90
647.01	899.08
647.35	893.32
647.69	887.41
648.04	881.79
648.38	875.92
648.72	869.97
649.06	863.90
649.41	857.90
649.75	851.97
650.09	845.93
650.43	840.25
650.78	834.10
651.12	828.15
651.46	822.42
651.80	816.75
652.14	811.39
652.49	805.94
652.83	800.72
653.17	795.09
653.51	789.40
653.85	783.94
654.20	778.32
654.54	772.26
654.88	766.41
655.22	760.43
655.56	754.72
655.90	749.11
656.25	743.85
656.59	738.59
656.93	733.43
657.27	728.28
657.61	722.74
657.95	717.64
658.29	712.46
658.64	707.13
658.98	701.73
659.32	696.25
659.66	691.01
660.00	685.76
660.34	680.77
660.68	675.80
661.02	670.83
661.36	666.08
661.70	661.60
662.05	657.32
662.39	653.11
662.73	648.66
663.07	644.29
663.41	639.92
663.75	635.36
664.09	630.80
664.43	626.39
664.77	622.40
665.11	618.13
665.45	614.05
665.79	609.99
666.13	605.89
666.47	601.72
666.81	597.53
667.15	593.39
667.49	589.48
667.83	585.66
668.17	581.70
668.51	577.62
668.85	573.51
669.19	569.56
669.53	565.71
669.87	561.80
670.21	558.14
670.55	554.39
670.89	550.93
671.23	547.49
671.57	543.94
671.91	540.37
672.25	536.78
672.58	533.22
672.92	529.76
673.26	526.60
673.60	523.49
673.94	520.41
674.28	517.43
674.62	514.47
674.96	511.33
675.30	508.41
675.64	505.48
675.97	502.70
676.31	499.83
676.65	496.87
676.99	494.14
677.33	491.22
677.67	488.38
678.01	485.34
678.34	482.34
678.68	479.39
679.02	476.50
679.36	473.76
679.70	471.00
680.04	468.30
680.37	465.38
680.71	462.54
681.05	459.87
681.39	457.15
681.73	454.46
682.06	451.89
682.40	449.29
682.74	446.73
683.08	444.15
683.42	441.55
683.75	438.97
684.09	436.37
684.43	433.89
684.77	431.46
685.10	429.07
685.44	426.69
685.78	424.41
686.12	422.16
686.45	419.84
686.79	417.50
687.13	415.21
687.46	413.00
687.80	410.77
688.14	408.51
688.48	406.44
688.81	404.20
689.15	402.06
689.49	399.86
689.82	397.71
690.16	395.55
690.50	393.59
690.83	391.67
691.17	389.70
691.51	387.76
691.84	385.87
692.18	383.92
692.52	381.99
692.85	379.98
693.19	378.08
693.52	376.23
693.86	374.40
694.20	372.62
694.53	370.82
694.87	368.98
695.21	367.13
695.54	365.26
695.88	363.52
696.21	361.71
696.55	360.01
696.88	358.30
697.22	356.62
697.56	354.95
697.89	353.27
698.23	351.63
698.56	349.97
698.90	348.34
699.23	346.67
699.57	345.11
699.90	343.54
700.24	341.99
700.58	340.43
700.91	338.91
701.25	337.41
701.58	336.00
701.92	334.66
702.25	333.31
702.59	331.96
702.92	330.58
703.26	329.28
703.59	327.99
703.93	326.77
704.26	325.58
704.60	324.28
704.93	322.99
705.26	321.72
705.60	320.54
705.93	319.38
706.27	318.35
706.60	317.29
706.94	316.24
707.27	315.07
707.61	313.98
707.94	312.96
708.27	311.87
708.61	310.81
708.94	309.76
709.28	308.77
709.61	307.77
709.94	306.78
710.28	305.75
710.61	304.76
710.95	303.69
711.28	302.69
711.61	301.66
711.95	300.74
712.28	299.78
712.61	298.77
712.95	297.82
713.28	296.87
713.61	295.94
713.95	295.05
714.28	294.19
714.61	293.36
714.95	292.43
715.28	291.55
715.61	290.66
715.95	289.79
716.28	288.89
716.61	288.03
716.95	287.22
717.28	286.44
717.61	285.62
717.94	284.83
718.28	284.06
718.61	283.36
718.94	282.63
719.27	281.97
719.61	281.29
719.94	280.64
720.27	279.91
720.60	279.26
720.94	278.57
721.27	277.98
721.60	277.34
721.93	276.76
722.27	276.20
722.60	275.61
722.93	275.02
723.26	274.51
723.59	273.94
723.93	273.32
724.26	272.78
724.59	272.20
724.92	271.68
725.25	271.17
725.59	270.61
725.92	270.07
726.25	269.52
726.58	269.04
726.91	268.52
727.24	268.05
727.57	267.56
727.91	267.05
728.24	266.56
728.57	266.10
728.90	265.62
729.23	265.11
729.56	264.65
729.89	264.16
730.22	263.67
730.55	263.17
730.89	262.77
731.22	262.31
731.55	261.90
731.88	261.46
732.21	261.02
732.54	260.56
732.87	260.12
733.20	259.71
733.53	259.29
733.86	258.88
734.19	258.46
734.52	258.01
734.85	257.68
735.18	257.25
735.51	256.85
735.84	256.49
736.17	256.15
736.50	255.71
736.83	255.48
737.16	255.08
737.49	254.75
737.82	254.35
738.15	253.99
738.48	253.66
738.81	253.34
739.14	252.98
739.47	252.70
739.80	252.39
740.13	252.08
740.46	251.72
740.79	251.42
741.12	251.14
741.45	250.87
741.78	250.51
742.11	250.24
742.44	249.87
742.77	249.58
743.10	249.26
743.43	249.00
743.75	248.61
744.08	248.47
744.41	248.17
744.74	247.95
745.07	247.68
745.40	247.42
745.73	247.17
746.06	246.90
746.39	246.64
746.71	246.38
747.04	246.13
747.37	245.90
747.70	245.63
748.03	245.37
748.36	245.13
748.68	244.90
749.01	244.63
749.34	244.46
749.67	244.22
750.00	243.96
750.33	243.79
750.65	243.58
750.98	243.25
751.31	243.06
751.64	242.85
751.97	242.71
752.29	242.46
752.62	242.23
752.95	242.01
753.28	241.81
753.60	241.63
753.93	241.47
754.26	241.30
754.59	241.13
754.91	240.89
755.24	240.67
755.57	240.52
755.90	240.34
756.22	240.14
756.55	239.94
756.88	239.79
757.20	239.58
757.53	239.41
757.86	239.23
758.19	239.06
758.51	238.87
758.84	238.63
759.17	238.48
759.49	238.29
759.82	238.18
760.15	238.00
760.47	237.82
760.80	237.63
761.13	237.47
761.45	237.31
761.78	237.20
762.11	237.08
762.43	236.89
762.76	236.78
763.08	236.65
763.41	236.52
763.74	236.37
764.06	236.19
764.39	236.03
764.71	235.91
765.04	235.81
765.37	235.68
765.69	235.53
766.02	235.41
766.34	235.29
766.67	235.15
767.00	235.06
767.32	234.99
767.65	234.93
767.97	234.82
768.30	234.69
768.62	234.54
768.95	234.39
769.27	234.29
769.60	234.14
769.92	234.01
770.25	233.89
770.57	233.76
770.90	233.67
771.22	233.56
771.55	233.47
771.87	233.35
772.20	233.25
772.52	233.25
772.85	233.26
773.17	233.17
773.50	233.07
773.82	232.96
774.15	232.82
774.47	232.66
774.80	232.55
775.12	232.42
775.45	232.39
775.77	232.31
776.09	232.22
776.42	232.16
776.74	232.11
777.07	232.02
777.39	232.00
777.72	231.90
778.04	231.87
778.36	231.76
778.69	231.69
779.01	231.60
779.33	231.44
779.66	231.26
779.98	231.17
780.31	231.09
780.63	231.04
780.95	230.99
781.28	230.94
781.60	230.88
781.92	230.86
782.25	230.81
782.57	230.76
782.89	230.67
783.22	230.59
783.54	230.49
783.86	230.45
784.19	230.37
784.51	230.35
784.83	230.23
785.16	230.17
785.48	230.14
785.80	230.09
786.12	230.06
786.45	230.03
786.77	230.03
787.09	229.98
