SpectraSuite Data File
++++++++++++++++++++++++++++++++++++
Date: Fri Feb 01 17:08:56 EST 2013
User: group
Dark Spectrum Present: No
Reference Spectrum Present: No
Number of Sampled Component Spectra: 1
Spectrometers: USB2E7196
Integration Time (usec): 35000 (USB2E7196)
Spectra Averaged: 100 (USB2E7196)
Boxcar Smoothing: 10 (USB2E7196)
Correct for Electrical Dark: No (USB2E7196)
Strobe/Lamp Enabled: No (USB2E7196)
Correct for Detector Non-linearity: No (USB2E7196)
Correct for Stray Light: No (USB2E7196)
Number of Pixels in Processed Spectrum: 2048
>>>>>Begin Processed Spectral Data<<<<<
339.09	0.00
339.48	212.75
339.86	214.17
340.24	215.77
340.63	217.75
341.01	220.00
341.39	220.39
341.78	221.08
342.16	222.70
342.54	223.49
342.93	211.60
343.31	222.31
343.69	222.90
344.07	223.38
344.46	223.82
344.84	224.17
345.22	224.44
345.60	224.68
345.99	224.89
346.37	225.02
346.75	225.10
347.13	225.20
347.52	225.27
347.90	225.31
348.28	225.33
348.66	225.37
349.05	225.38
349.43	225.43
349.81	225.45
350.19	225.49
350.57	225.55
350.96	225.63
351.34	225.72
351.72	225.80
352.10	225.91
352.48	225.96
352.87	226.06
353.25	226.12
353.63	226.17
354.01	226.25
354.39	226.33
354.77	226.41
355.15	226.51
355.54	226.54
355.92	226.61
356.30	226.70
356.68	226.89
357.06	226.95
357.44	227.00
357.82	227.06
358.20	227.16
358.58	227.26
358.97	227.32
359.35	227.36
359.73	227.45
360.11	227.49
360.49	227.58
360.87	227.61
361.25	227.67
361.63	227.78
362.01	227.80
362.39	227.84
362.77	227.90
363.15	227.93
363.53	227.95
363.91	227.99
364.29	228.02
364.67	227.89
365.05	227.93
365.43	227.95
365.81	227.99
366.19	228.01
366.57	228.04
366.95	228.03
367.33	227.99
367.71	227.96
368.09	227.96
368.47	227.92
368.85	227.92
369.23	227.93
369.61	227.85
369.99	227.87
370.37	227.86
370.75	227.85
371.13	227.77
371.51	227.74
371.89	227.67
372.27	227.62
372.65	227.61
373.03	227.56
373.41	227.50
373.78	227.43
374.16	227.33
374.54	227.25
374.92	227.19
375.30	227.16
375.68	227.07
376.06	227.01
376.44	226.97
376.82	226.86
377.19	226.77
377.57	226.70
377.95	226.58
378.33	226.51
378.71	226.42
379.09	226.38
379.47	226.31
379.84	226.28
380.22	226.20
380.60	226.09
380.98	226.00
381.36	225.94
381.73	225.85
382.11	225.81
382.49	225.74
382.87	225.67
383.25	225.60
383.62	225.67
384.00	225.64
384.38	225.57
384.76	225.57
385.13	225.55
385.51	225.54
385.89	225.48
386.27	225.42
386.64	225.36
387.02	225.30
387.40	225.28
387.78	225.24
388.15	225.21
388.53	225.18
388.91	225.19
389.29	225.14
389.66	225.16
390.04	225.11
390.42	225.11
390.79	225.11
391.17	225.08
391.55	224.95
391.92	224.91
392.30	224.92
392.68	224.87
393.05	224.87
393.43	224.85
393.81	224.85
394.18	224.84
394.56	224.83
394.94	224.88
395.31	224.89
395.69	224.92
396.06	224.97
396.44	224.99
396.82	224.98
397.19	225.09
397.57	225.09
397.95	225.15
398.32	225.16
398.70	225.21
399.07	225.32
399.45	225.36
399.82	225.40
400.20	225.43
400.58	225.51
400.95	225.53
401.33	225.60
401.70	225.74
402.08	225.83
402.45	225.91
402.83	225.99
403.20	226.09
403.58	226.14
403.95	226.25
404.33	226.39
404.71	226.52
405.08	226.66
405.46	226.80
405.83	226.92
406.21	227.02
406.58	227.19
406.96	227.29
407.33	227.48
407.70	227.69
408.08	227.98
408.45	228.19
408.83	228.44
409.20	228.63
409.58	228.82
409.95	229.08
410.33	229.37
410.70	229.61
411.08	229.91
411.45	230.25
411.82	230.55
412.20	230.88
412.57	231.33
412.95	231.59
413.32	232.00
413.69	232.41
414.07	232.87
414.44	233.29
414.82	233.77
415.19	234.32
415.56	234.84
415.94	235.32
416.31	235.94
416.68	236.57
417.06	237.30
417.43	237.97
417.81	238.71
418.18	239.49
418.55	240.34
418.93	241.18
419.30	242.05
419.67	243.01
420.04	243.98
420.42	244.95
420.79	246.14
421.16	247.27
421.54	248.47
421.91	249.66
422.28	250.93
422.66	252.27
423.03	253.58
423.40	254.89
423.77	256.35
424.15	257.79
424.52	259.21
424.89	260.79
425.26	262.32
425.64	263.77
426.01	265.32
426.38	266.96
426.75	268.64
427.13	270.37
427.50	272.12
427.87	273.96
428.24	275.79
428.61	277.52
428.99	279.48
429.36	281.55
429.73	283.62
430.10	285.62
430.47	287.66
430.85	289.77
431.22	292.03
431.59	294.34
431.96	296.53
432.33	299.01
432.70	301.38
433.08	304.19
433.45	306.81
433.82	309.39
434.19	312.26
434.56	315.07
434.93	317.71
435.30	320.32
435.68	323.19
436.05	325.99
436.42	328.79
436.79	331.29
437.16	333.96
437.53	336.76
437.90	339.56
438.27	342.28
438.64	345.04
439.01	347.59
439.38	349.84
439.75	352.00
440.13	354.52
440.50	356.84
440.87	358.69
441.24	360.66
441.61	362.83
441.98	364.34
442.35	366.10
442.72	367.91
443.09	369.70
443.46	370.68
443.83	371.29
444.20	371.79
444.57	372.57
444.94	372.87
445.31	373.25
445.68	373.63
446.05	373.69
446.42	373.33
446.79	372.95
447.16	372.48
447.53	372.16
447.90	371.02
448.27	369.88
448.64	368.27
449.01	367.14
449.37	365.19
449.74	363.31
450.11	361.12
450.48	358.68
450.85	356.19
451.22	354.06
451.59	352.04
451.96	350.10
452.33	347.54
452.70	345.21
453.07	342.39
453.43	339.51
453.80	336.79
454.17	334.13
454.54	331.58
454.91	328.92
455.28	326.29
455.65	323.80
456.02	321.35
456.38	319.23
456.75	316.55
457.12	314.31
457.49	312.06
457.86	309.84
458.23	308.01
458.59	305.94
458.96	303.91
459.33	302.09
459.70	300.26
460.07	298.76
460.43	297.06
460.80	295.43
461.17	294.01
461.54	292.47
461.91	291.07
462.27	289.66
462.64	288.40
463.01	287.01
463.38	285.72
463.74	284.37
464.11	283.21
464.48	282.19
464.85	281.08
465.21	280.22
465.58	279.31
465.95	278.23
466.32	277.38
466.68	276.46
467.05	275.56
467.42	274.71
467.78	273.78
468.15	272.94
468.52	272.32
468.88	271.43
469.25	270.71
469.62	270.10
469.98	269.45
470.35	268.84
470.72	268.29
471.08	267.64
471.45	267.11
471.82	266.62
472.18	266.05
472.55	265.65
472.92	265.15
473.28	264.76
473.65	264.31
474.02	263.89
474.38	263.56
474.75	263.27
475.11	262.91
475.48	262.69
475.85	262.47
476.21	262.20
476.58	262.05
476.94	261.92
477.31	261.77
477.67	261.63
478.04	261.55
478.41	261.51
478.77	261.57
479.14	261.55
479.50	261.54
479.87	261.59
480.23	261.67
480.60	261.78
480.96	261.83
481.33	262.05
481.69	262.27
482.06	262.43
482.42	262.60
482.79	262.88
483.15	263.18
483.52	263.53
483.88	263.94
484.25	264.34
484.61	264.76
484.98	265.23
485.34	265.78
485.71	266.37
486.07	266.95
486.44	267.53
486.80	268.22
487.17	268.97
487.53	269.82
487.90	270.66
488.26	271.56
488.62	272.55
488.99	273.52
489.35	274.55
489.72	275.72
490.08	276.96
490.44	278.20
490.81	279.54
491.17	280.88
491.54	282.35
491.90	283.86
492.26	285.53
492.63	287.21
492.99	288.98
493.36	290.84
493.72	292.90
494.08	295.00
494.45	297.27
494.81	299.62
495.17	302.03
495.54	304.60
495.90	307.29
496.26	310.08
496.63	313.01
496.99	316.11
497.35	319.35
497.72	322.71
498.08	326.19
498.44	329.82
498.80	333.74
499.17	337.76
499.53	341.95
499.89	346.30
500.26	350.78
500.62	355.37
500.98	360.33
501.34	365.38
501.71	370.64
502.07	376.06
502.43	381.59
502.79	387.36
503.16	393.35
503.52	399.57
503.88	405.92
504.24	412.49
504.60	419.30
504.97	426.39
505.33	433.61
505.69	441.23
506.05	448.97
506.41	456.75
506.78	464.78
507.14	473.12
507.50	481.72
507.86	490.64
508.22	499.75
508.59	508.87
508.95	518.33
509.31	528.08
509.67	538.01
510.03	548.23
510.39	558.68
510.75	569.25
511.12	580.00
511.48	591.16
511.84	602.50
512.20	613.83
512.56	625.57
512.92	637.59
513.28	649.72
513.64	662.00
514.00	674.50
514.37	687.30
514.73	700.16
515.09	712.94
515.45	726.13
515.81	739.44
516.17	753.16
516.53	767.01
516.89	780.89
517.25	794.80
517.61	808.90
517.97	823.04
518.33	837.25
518.69	851.80
519.05	866.49
519.41	881.27
519.77	896.55
520.13	911.65
520.49	926.77
520.85	941.91
521.21	957.23
521.57	973.15
521.93	988.44
522.29	1004.44
522.65	1020.40
523.01	1036.09
523.37	1051.84
523.73	1067.59
524.09	1083.34
524.45	1099.23
524.81	1115.51
525.17	1131.88
525.53	1148.36
525.89	1164.87
526.25	1181.38
526.61	1197.46
526.97	1213.80
527.33	1229.95
527.68	1246.05
528.04	1262.11
528.40	1278.23
528.76	1294.96
529.12	1311.22
529.48	1327.78
529.84	1343.32
530.20	1359.54
530.56	1376.15
530.91	1393.25
531.27	1409.66
531.63	1425.70
531.99	1441.92
532.35	1457.50
532.71	1473.13
533.07	1489.03
533.42	1504.52
533.78	1520.16
534.14	1535.99
534.50	1550.98
534.86	1566.35
535.21	1581.33
535.57	1596.77
535.93	1611.86
536.29	1626.31
536.65	1640.83
537.00	1655.18
537.36	1670.17
537.72	1684.34
538.08	1698.46
538.44	1711.86
538.79	1725.51
539.15	1738.73
539.51	1752.02
539.87	1766.03
540.22	1779.39
540.58	1792.79
540.94	1805.74
541.29	1818.20
541.65	1830.44
542.01	1843.29
542.37	1855.29
542.72	1867.36
543.08	1878.96
543.44	1891.23
543.79	1902.26
544.15	1913.11
544.51	1924.44
544.87	1935.14
545.22	1945.77
545.58	1955.79
545.94	1965.26
546.29	1974.73
546.65	1984.61
547.01	1993.85
547.36	2002.36
547.72	2010.65
548.07	2018.38
548.43	2026.55
548.79	2034.32
549.14	2042.04
549.50	2049.14
549.86	2056.68
550.21	2063.86
550.57	2070.99
550.92	2077.35
551.28	2084.30
551.64	2091.35
551.99	2097.78
552.35	2103.96
552.70	2109.92
553.06	2115.91
553.41	2122.28
553.77	2128.25
554.13	2134.22
554.48	2140.28
554.84	2145.95
555.19	2151.12
555.55	2156.35
555.90	2160.82
556.26	2165.87
556.61	2170.46
556.97	2175.20
557.32	2179.43
557.68	2183.54
558.03	2187.71
558.39	2191.43
558.74	2196.03
559.10	2199.92
559.45	2203.70
559.81	2207.89
560.16	2211.89
560.52	2215.11
560.87	2218.56
561.23	2221.45
561.58	2224.30
561.94	2227.03
562.29	2229.29
562.64	2232.25
563.00	2234.88
563.35	2238.51
563.71	2241.71
564.06	2244.94
564.42	2247.68
564.77	2250.34
565.12	2252.88
565.48	2254.92
565.83	2257.07
566.19	2258.67
566.54	2259.53
566.89	2260.91
567.25	2261.91
567.60	2263.31
567.96	2265.29
568.31	2266.24
568.66	2267.34
569.02	2268.33
569.37	2268.64
569.72	2269.74
570.08	2270.12
570.43	2270.41
570.78	2269.98
571.14	2268.76
571.49	2267.61
571.84	2267.52
572.20	2266.73
572.55	2265.87
572.90	2264.49
573.26	2263.38
573.61	2261.68
573.96	2260.45
574.31	2257.80
574.67	2254.95
575.02	2251.50
575.37	2248.21
575.72	2244.72
576.08	2241.72
576.43	2238.45
576.78	2235.19
577.13	2232.18
577.49	2229.18
577.84	2225.85
578.19	2222.36
578.54	2218.99
578.90	2215.16
579.25	2209.84
579.60	2205.20
579.95	2200.34
580.30	2195.70
580.66	2190.62
581.01	2185.95
581.36	2181.17
581.71	2177.16
582.06	2172.97
582.42	2168.82
582.77	2163.84
583.12	2159.62
583.47	2155.30
583.82	2150.68
584.17	2145.69
584.53	2140.58
584.88	2135.28
585.23	2129.93
585.58	2124.65
585.93	2119.24
586.28	2114.56
586.63	2109.87
586.98	2104.88
587.34	2100.49
587.69	2095.78
588.04	2090.80
588.39	2085.28
588.74	2078.96
589.09	2073.04
589.44	2066.62
589.79	2060.58
590.14	2055.23
590.49	2048.81
590.84	2042.47
591.19	2036.58
591.54	2030.26
591.89	2023.03
592.25	2016.43
592.60	2009.34
592.95	2002.07
593.30	1995.13
593.65	1987.68
594.00	1980.72
594.35	1973.66
594.70	1965.77
595.05	1958.95
595.40	1951.88
595.75	1944.68
596.10	1938.75
596.45	1932.19
596.80	1926.19
597.15	1919.86
597.50	1913.14
597.85	1906.68
598.19	1900.26
598.54	1893.48
598.89	1887.09
599.24	1881.39
599.59	1874.87
599.94	1868.81
600.29	1862.55
600.64	1855.98
600.99	1848.86
601.34	1842.24
601.69	1835.29
602.04	1828.65
602.39	1821.29
602.74	1814.61
603.08	1807.99
603.43	1801.31
603.78	1794.17
604.13	1786.97
604.48	1780.03
604.83	1773.13
605.18	1766.52
605.53	1758.65
605.87	1750.66
606.22	1743.43
606.57	1735.55
606.92	1728.30
607.27	1721.18
607.62	1714.48
607.96	1707.42
608.31	1700.99
608.66	1693.46
609.01	1686.21
609.36	1678.68
609.70	1670.82
610.05	1662.94
610.40	1655.42
610.75	1647.27
611.10	1639.63
611.44	1631.29
611.79	1623.25
612.14	1614.61
612.49	1605.50
612.83	1597.09
613.18	1589.09
613.53	1581.07
613.88	1572.61
614.22	1564.36
614.57	1555.78
614.92	1547.66
615.27	1540.22
615.61	1531.95
615.96	1523.91
616.31	1516.30
616.65	1509.01
617.00	1501.43
617.35	1493.81
617.70	1485.57
618.04	1477.15
618.39	1468.99
618.74	1461.57
619.08	1453.25
619.43	1445.84
619.78	1438.94
620.12	1431.95
620.47	1424.56
620.82	1416.39
621.16	1408.91
621.51	1401.40
621.85	1393.91
622.20	1385.54
622.55	1377.13
622.89	1369.34
623.24	1361.73
623.59	1354.23
623.93	1346.72
624.28	1339.51
624.62	1331.97
624.97	1324.79
625.32	1317.95
625.66	1310.92
626.01	1303.72
626.35	1296.52
626.70	1288.62
627.04	1280.96
627.39	1273.15
627.73	1265.66
628.08	1258.71
628.43	1251.62
628.77	1244.32
629.12	1236.84
629.46	1229.76
629.81	1222.22
630.15	1214.95
630.50	1207.76
630.84	1199.75
631.19	1191.86
631.53	1184.49
631.88	1176.92
632.22	1169.32
632.57	1162.05
632.91	1154.54
633.26	1147.19
633.60	1139.65
633.95	1132.64
634.29	1125.61
634.64	1119.01
634.98	1111.76
635.32	1104.83
635.67	1098.28
636.01	1091.64
636.36	1084.86
636.70	1078.26
637.05	1071.84
637.39	1065.41
637.73	1058.92
638.08	1053.01
638.42	1047.04
638.77	1040.63
639.11	1034.19
639.45	1027.83
639.80	1021.22
640.14	1014.94
640.49	1008.46
640.83	1002.33
641.17	996.19
641.52	989.94
641.86	983.42
642.20	977.62
642.55	971.20
642.89	964.71
643.23	958.14
643.58	952.47
643.92	946.39
644.26	940.50
644.61	934.45
644.95	928.40
645.29	921.85
645.64	915.25
645.98	908.92
646.32	903.06
646.66	897.14
647.01	891.40
647.35	885.75
647.69	879.88
648.04	874.29
648.38	868.53
648.72	862.56
649.06	856.58
649.41	850.60
649.75	844.72
650.09	838.79
650.43	833.15
650.78	826.97
651.12	821.05
651.46	815.31
651.80	809.67
652.14	804.35
652.49	799.09
652.83	793.92
653.17	788.38
653.51	782.65
653.85	777.18
654.20	771.56
654.54	765.48
654.88	759.74
655.22	753.87
655.56	748.16
655.90	742.71
656.25	737.55
656.59	732.23
656.93	727.16
657.27	722.05
657.61	716.58
657.95	711.52
658.29	706.42
658.64	701.11
658.98	695.77
659.32	690.30
659.66	685.03
660.00	679.76
660.34	674.80
660.68	669.93
661.02	664.94
661.36	660.27
661.70	655.84
662.05	651.55
662.39	647.26
662.73	642.84
663.07	638.49
663.41	634.08
663.75	629.70
664.09	625.18
664.43	620.78
664.77	616.74
665.11	612.55
665.45	608.40
665.79	604.41
666.13	600.29
666.47	596.16
666.81	592.03
667.15	587.90
667.49	583.96
667.83	580.15
668.17	576.30
668.51	572.27
668.85	568.26
669.19	564.35
669.53	560.63
669.87	556.86
670.21	553.16
670.55	549.51
670.89	546.07
671.23	542.69
671.57	539.22
671.91	535.68
672.25	532.12
672.58	528.64
672.92	525.19
673.26	522.08
673.60	519.02
673.94	515.99
674.28	513.05
674.62	510.11
674.96	507.02
675.30	504.19
675.64	501.27
675.97	498.51
676.31	495.76
676.65	492.76
676.99	489.99
677.33	487.17
677.67	484.39
678.01	481.39
678.34	478.37
678.68	475.53
679.02	472.76
679.36	469.97
679.70	467.30
680.04	464.56
680.37	461.74
680.71	458.85
681.05	456.24
681.39	453.58
681.73	450.91
682.06	448.44
682.40	445.84
682.74	443.32
683.08	440.76
683.42	438.12
683.75	435.65
684.09	433.14
684.43	430.63
684.77	428.16
685.10	425.84
685.44	423.52
685.78	421.18
686.12	418.88
686.45	416.64
686.79	414.31
687.13	412.14
687.46	409.89
687.80	407.78
688.14	405.57
688.48	403.54
688.81	401.35
689.15	399.18
689.49	396.99
689.82	394.90
690.16	392.81
690.50	390.87
690.83	388.92
691.17	386.90
691.51	384.99
691.84	383.16
692.18	381.23
692.52	379.32
692.85	377.37
693.19	375.49
693.52	373.62
693.86	371.82
694.20	370.03
694.53	368.32
694.87	366.46
695.21	364.65
695.54	362.81
695.88	361.05
696.21	359.33
696.55	357.65
696.88	355.98
697.22	354.27
697.56	352.64
697.89	350.99
698.23	349.40
698.56	347.83
698.90	346.24
699.23	344.61
699.57	343.06
699.90	341.53
700.24	340.01
700.58	338.57
700.91	337.08
701.25	335.57
701.58	334.17
701.92	332.84
702.25	331.47
702.59	330.11
702.92	328.83
703.26	327.49
703.59	326.21
703.93	325.04
704.26	323.83
704.60	322.53
704.93	321.23
705.26	320.01
705.60	318.78
705.93	317.60
706.27	316.55
706.60	315.44
706.94	314.38
707.27	313.25
707.61	312.12
707.94	311.10
708.27	310.01
708.61	308.92
708.94	307.92
709.28	306.93
709.61	305.95
709.94	304.95
710.28	303.96
710.61	302.99
710.95	301.89
711.28	300.97
711.61	300.04
711.95	299.16
712.28	298.19
712.61	297.26
712.95	296.33
713.28	295.44
713.61	294.57
713.95	293.67
714.28	292.86
714.61	292.03
714.95	291.16
715.28	290.37
715.61	289.54
715.95	288.66
716.28	287.80
716.61	286.98
716.95	286.19
717.28	285.43
717.61	284.70
717.94	283.97
718.28	283.18
718.61	282.41
718.94	281.73
719.27	281.12
719.61	280.45
719.94	279.83
720.27	279.14
720.60	278.51
720.94	277.89
721.27	277.28
721.60	276.67
721.93	276.11
722.27	275.55
722.60	275.03
722.93	274.48
723.26	273.95
723.59	273.41
723.93	272.84
724.26	272.31
724.59	271.73
724.92	271.18
725.25	270.71
725.59	270.21
725.92	269.68
726.25	269.17
726.58	268.69
726.91	268.19
727.24	267.70
727.57	267.21
727.91	266.69
728.24	266.23
728.57	265.77
728.90	265.29
729.23	264.83
729.56	264.34
729.89	263.85
730.22	263.36
730.55	262.87
730.89	262.46
731.22	262.02
731.55	261.58
731.88	261.18
732.21	260.74
732.54	260.32
732.87	259.91
733.20	259.50
733.53	259.11
733.86	258.72
734.19	258.31
734.52	257.90
734.85	257.59
735.18	257.15
735.51	256.80
735.84	256.41
736.17	256.07
736.50	255.72
736.83	255.52
737.16	255.19
737.49	254.89
737.82	254.53
738.15	254.20
738.48	253.87
738.81	253.54
739.14	253.19
739.47	252.92
739.80	252.60
740.13	252.29
740.46	251.96
740.79	251.63
741.12	251.33
741.45	251.05
741.78	250.70
742.11	250.46
742.44	250.10
742.77	249.83
743.10	249.49
743.43	249.15
743.75	248.78
744.08	248.63
744.41	248.32
744.74	248.03
745.07	247.75
745.40	247.50
745.73	247.26
746.06	246.99
746.39	246.70
746.71	246.44
747.04	246.15
747.37	245.90
747.70	245.65
748.03	245.40
748.36	245.17
748.68	244.93
749.01	244.65
749.34	244.48
749.67	244.23
750.00	244.02
750.33	243.88
750.65	243.64
750.98	243.27
751.31	243.05
751.64	242.86
751.97	242.69
752.29	242.46
752.62	242.20
752.95	241.99
753.28	241.76
753.60	241.53
753.93	241.40
754.26	241.17
754.59	240.93
754.91	240.75
755.24	240.55
755.57	240.34
755.90	240.15
756.22	239.91
756.55	239.72
756.88	239.49
757.20	239.25
757.53	239.04
757.86	238.85
758.19	238.71
758.51	238.52
758.84	238.28
759.17	238.10
759.49	237.96
759.82	237.82
760.15	237.67
760.47	237.54
760.80	237.31
761.13	237.19
761.45	237.02
761.78	236.84
762.11	236.72
762.43	236.58
762.76	236.44
763.08	236.29
763.41	236.14
763.74	236.02
764.06	235.86
764.39	235.72
764.71	235.59
765.04	235.42
765.37	235.28
765.69	235.17
766.02	235.03
766.34	234.89
766.67	234.74
767.00	234.62
767.32	234.53
767.65	234.50
767.97	234.36
768.30	234.29
768.62	234.19
768.95	234.04
769.27	233.92
769.60	233.85
769.92	233.77
770.25	233.68
770.57	233.55
770.90	233.49
771.22	233.39
771.55	233.32
771.87	233.25
772.20	233.16
772.52	233.14
772.85	233.20
773.17	233.11
773.50	233.00
773.82	232.89
774.15	232.77
774.47	232.62
774.80	232.53
775.12	232.43
775.45	232.35
775.77	232.28
776.09	232.21
776.42	232.11
776.74	232.03
777.07	231.97
777.39	231.90
777.72	231.79
778.04	231.73
778.36	231.65
778.69	231.56
779.01	231.50
779.33	231.38
779.66	231.18
779.98	231.12
780.31	231.12
780.63	231.13
780.95	231.10
781.28	231.06
781.60	231.02
781.92	230.97
782.25	230.91
782.57	230.83
782.89	230.75
783.22	230.69
783.54	230.63
783.86	230.56
784.19	230.50
784.51	230.50
784.83	230.41
785.16	230.34
785.48	230.31
785.80	230.26
786.12	230.21
786.45	230.16
786.77	230.12
787.09	230.05
