SpectraSuite Data File
++++++++++++++++++++++++++++++++++++
Date: Fri Feb 01 16:25:18 EST 2013
User: group
Dark Spectrum Present: No
Reference Spectrum Present: No
Number of Sampled Component Spectra: 1
Spectrometers: USB2E7196
Integration Time (usec): 35000 (USB2E7196)
Spectra Averaged: 100 (USB2E7196)
Boxcar Smoothing: 10 (USB2E7196)
Correct for Electrical Dark: No (USB2E7196)
Strobe/Lamp Enabled: No (USB2E7196)
Correct for Detector Non-linearity: No (USB2E7196)
Correct for Stray Light: No (USB2E7196)
Number of Pixels in Processed Spectrum: 2048
>>>>>Begin Processed Spectral Data<<<<<
339.09	0.00
339.48	213.91
339.86	215.78
340.24	216.99
340.63	218.66
341.01	221.04
341.39	221.17
341.78	222.27
342.16	223.77
342.54	224.29
342.93	212.61
343.31	223.34
343.69	223.92
344.07	224.37
344.46	224.80
344.84	225.16
345.22	225.42
345.60	225.65
345.99	225.85
346.37	225.96
346.75	226.05
347.13	226.09
347.52	226.16
347.90	226.23
348.28	226.23
348.66	226.26
349.05	226.29
349.43	226.32
349.81	226.35
350.19	226.38
350.57	226.41
350.96	226.44
351.34	226.53
351.72	226.58
352.10	226.66
352.48	226.73
352.87	226.82
353.25	226.87
353.63	226.96
354.01	226.98
354.39	227.09
354.77	227.18
355.15	227.30
355.54	227.33
355.92	227.36
356.30	227.45
356.68	227.59
357.06	227.61
357.44	227.66
357.82	227.72
358.20	227.77
358.58	227.82
358.97	227.88
359.35	227.96
359.73	228.03
360.11	228.07
360.49	228.10
360.87	228.13
361.25	228.19
361.63	228.23
362.01	228.32
362.39	228.34
362.77	228.39
363.15	228.42
363.53	228.41
363.91	228.45
364.29	228.48
364.67	228.41
365.05	228.46
365.43	228.48
365.81	228.47
366.19	228.51
366.57	228.56
366.95	228.57
367.33	228.53
367.71	228.52
368.09	228.56
368.47	228.55
368.85	228.52
369.23	228.48
369.61	228.42
369.99	228.40
370.37	228.36
370.75	228.33
371.13	228.24
371.51	228.23
371.89	228.17
372.27	228.14
372.65	228.08
373.03	228.03
373.41	227.97
373.78	227.98
374.16	227.89
374.54	227.79
374.92	227.72
375.30	227.67
375.68	227.59
376.06	227.49
376.44	227.45
376.82	227.36
377.19	227.28
377.57	227.22
377.95	227.15
378.33	227.10
378.71	226.99
379.09	226.96
379.47	226.88
379.84	226.83
380.22	226.71
380.60	226.66
380.98	226.58
381.36	226.54
381.73	226.42
382.11	226.37
382.49	226.30
382.87	226.22
383.25	226.15
383.62	226.19
384.00	226.14
384.38	226.09
384.76	226.10
385.13	226.11
385.51	226.06
385.89	226.00
386.27	225.91
386.64	225.89
387.02	225.84
387.40	225.81
387.78	225.79
388.15	225.79
388.53	225.75
388.91	225.72
389.29	225.69
389.66	225.69
390.04	225.64
390.42	225.66
390.79	225.67
391.17	225.67
391.55	225.57
391.92	225.54
392.30	225.54
392.68	225.54
393.05	225.53
393.43	225.57
393.81	225.57
394.18	225.58
394.56	225.59
394.94	225.64
395.31	225.65
395.69	225.67
396.06	225.71
396.44	225.76
396.82	225.78
397.19	225.87
397.57	225.89
397.95	225.94
398.32	225.99
398.70	226.04
399.07	226.09
399.45	226.15
399.82	226.22
400.20	226.24
400.58	226.28
400.95	226.31
401.33	226.36
401.70	226.53
402.08	226.63
402.45	226.67
402.83	226.79
403.20	226.90
403.58	226.98
403.95	227.08
404.33	227.20
404.71	227.35
405.08	227.49
405.46	227.61
405.83	227.76
406.21	227.87
406.58	228.05
406.96	228.23
407.33	228.43
407.70	228.62
408.08	228.91
408.45	229.13
408.83	229.36
409.20	229.55
409.58	229.69
409.95	229.96
410.33	230.25
410.70	230.47
411.08	230.78
411.45	231.07
411.82	231.37
412.20	231.68
412.57	232.11
412.95	232.41
413.32	232.82
413.69	233.21
414.07	233.68
414.44	234.14
414.82	234.57
415.19	235.08
415.56	235.61
415.94	236.15
416.31	236.79
416.68	237.42
417.06	238.13
417.43	238.84
417.81	239.58
418.18	240.38
418.55	241.23
418.93	242.08
419.30	242.98
419.67	243.91
420.04	244.89
420.42	245.82
420.79	247.00
421.16	248.15
421.54	249.37
421.91	250.55
422.28	251.79
422.66	253.13
423.03	254.44
423.40	255.79
423.77	257.16
424.15	258.57
424.52	260.03
424.89	261.65
425.26	263.19
425.64	264.64
426.01	266.21
426.38	267.81
426.75	269.49
427.13	271.23
427.50	273.05
427.87	274.93
428.24	276.79
428.61	278.52
428.99	280.45
429.36	282.55
429.73	284.62
430.10	286.63
430.47	288.70
430.85	290.83
431.22	293.08
431.59	295.43
431.96	297.63
432.33	300.10
432.70	302.47
433.08	305.31
433.45	307.95
433.82	310.57
434.19	313.42
434.56	316.22
434.93	318.83
435.30	321.42
435.68	324.26
436.05	327.08
436.42	329.85
436.79	332.40
437.16	335.05
437.53	337.87
437.90	340.64
438.27	343.34
438.64	346.12
439.01	348.68
439.38	350.92
439.75	353.11
440.13	355.61
440.50	357.91
440.87	359.75
441.24	361.68
441.61	363.84
441.98	365.39
442.35	367.16
442.72	369.02
443.09	370.83
443.46	371.82
443.83	372.41
444.20	372.90
444.57	373.70
444.94	373.96
445.31	374.27
445.68	374.62
446.05	374.71
446.42	374.35
446.79	373.94
447.16	373.48
447.53	373.16
447.90	372.04
448.27	370.90
448.64	369.28
449.01	368.16
449.37	366.19
449.74	364.27
450.11	362.06
450.48	359.60
450.85	357.09
451.22	354.98
451.59	352.94
451.96	351.03
452.33	348.44
452.70	346.12
453.07	343.30
453.43	340.43
453.80	337.70
454.17	335.00
454.54	332.43
454.91	329.76
455.28	327.06
455.65	324.54
456.02	322.10
456.38	319.97
456.75	317.28
457.12	315.06
457.49	312.87
457.86	310.71
458.23	308.90
458.59	306.86
458.96	304.76
459.33	302.97
459.70	301.11
460.07	299.62
460.43	297.93
460.80	296.32
461.17	294.87
461.54	293.40
461.91	292.02
462.27	290.62
462.64	289.36
463.01	288.04
463.38	286.74
463.74	285.40
464.11	284.29
464.48	283.27
464.85	282.16
465.21	281.29
465.58	280.37
465.95	279.24
466.32	278.34
466.68	277.47
467.05	276.57
467.42	275.67
467.78	274.76
468.15	273.93
468.52	273.28
468.88	272.46
469.25	271.68
469.62	271.04
469.98	270.38
470.35	269.76
470.72	269.15
471.08	268.53
471.45	268.01
471.82	267.45
472.18	266.88
472.55	266.48
472.92	265.93
473.28	265.48
473.65	265.07
474.02	264.61
474.38	264.25
474.75	263.96
475.11	263.65
475.48	263.38
475.85	263.14
476.21	262.92
476.58	262.77
476.94	262.61
477.31	262.46
477.67	262.32
478.04	262.26
478.41	262.25
478.77	262.28
479.14	262.22
479.50	262.21
479.87	262.32
480.23	262.36
480.60	262.48
480.96	262.58
481.33	262.80
481.69	263.07
482.06	263.28
482.42	263.49
482.79	263.78
483.15	264.09
483.52	264.44
483.88	264.82
484.25	265.20
484.61	265.62
484.98	266.09
485.34	266.66
485.71	267.24
486.07	267.84
486.44	268.42
486.80	269.12
487.17	269.82
487.53	270.63
487.90	271.50
488.26	272.45
488.62	273.45
488.99	274.43
489.35	275.43
489.72	276.56
490.08	277.74
490.44	278.92
490.81	280.26
491.17	281.62
491.54	283.10
491.90	284.63
492.26	286.29
492.63	288.04
492.99	289.81
493.36	291.68
493.72	293.74
494.08	295.89
494.45	298.16
494.81	300.58
495.17	302.99
495.54	305.54
495.90	308.25
496.26	311.08
496.63	314.06
496.99	317.20
497.35	320.49
497.72	323.94
498.08	327.49
498.44	331.24
498.80	335.15
499.17	339.16
499.53	343.36
499.89	347.74
500.26	352.20
500.62	356.92
500.98	361.90
501.34	366.96
501.71	372.27
502.07	377.71
502.43	383.36
502.79	389.18
503.16	395.30
503.52	401.51
503.88	407.90
504.24	414.51
504.60	421.37
504.97	428.45
505.33	435.79
505.69	443.47
506.05	451.17
506.41	459.06
506.78	467.24
507.14	475.66
507.50	484.39
507.86	493.47
508.22	502.63
508.59	511.83
508.95	521.38
509.31	531.18
509.67	541.26
510.03	551.55
510.39	562.13
510.75	572.97
511.12	583.97
511.48	595.27
511.84	606.74
512.20	618.32
512.56	630.25
512.92	642.41
513.28	654.78
513.64	667.28
514.00	679.97
514.37	692.93
514.73	705.96
515.09	718.92
515.45	732.18
515.81	745.80
516.17	759.75
516.53	773.87
516.89	788.02
517.25	802.17
517.61	816.55
517.97	830.97
518.33	845.28
518.69	859.93
519.05	874.91
519.41	890.05
519.77	905.52
520.13	921.01
520.49	936.40
520.85	951.77
521.21	967.47
521.57	983.77
521.93	999.40
522.29	1015.83
522.65	1032.06
523.01	1048.22
523.37	1064.05
523.73	1080.16
524.09	1096.12
524.45	1112.36
524.81	1128.87
525.17	1145.54
525.53	1162.39
525.89	1179.18
526.25	1195.98
526.61	1212.30
526.97	1228.91
527.33	1245.33
527.68	1261.84
528.04	1278.13
528.40	1294.61
528.76	1311.63
529.12	1328.10
529.48	1344.99
529.84	1360.80
530.20	1377.34
530.56	1394.25
530.91	1411.68
531.27	1428.37
531.63	1444.81
531.99	1461.30
532.35	1477.30
532.71	1493.21
533.07	1509.46
533.42	1525.31
533.78	1541.23
534.14	1557.48
534.50	1572.73
534.86	1588.48
535.21	1603.55
535.57	1619.40
535.93	1634.88
536.29	1649.52
536.65	1664.33
537.00	1679.09
537.36	1694.31
537.72	1708.79
538.08	1723.22
538.44	1736.93
538.79	1750.76
539.15	1764.31
539.51	1777.97
539.87	1792.16
540.22	1805.77
540.58	1819.45
540.94	1832.67
541.29	1845.55
541.65	1858.12
542.01	1871.21
542.37	1883.45
542.72	1895.74
543.08	1907.46
543.44	1919.64
543.79	1930.77
544.15	1941.74
544.51	1953.12
544.87	1964.05
545.22	1974.57
545.58	1984.68
545.94	1994.34
546.29	2004.02
546.65	2013.81
547.01	2023.05
547.36	2031.81
547.72	2040.22
548.07	2047.85
548.43	2055.92
548.79	2063.97
549.14	2071.36
549.50	2078.53
549.86	2086.14
550.21	2093.37
550.57	2100.38
550.92	2106.88
551.28	2113.86
551.64	2120.95
551.99	2127.32
552.35	2133.44
552.70	2139.79
553.06	2145.44
553.41	2151.84
553.77	2157.81
554.13	2163.91
554.48	2170.14
554.84	2175.60
555.19	2180.74
555.55	2185.94
555.90	2190.49
556.26	2195.20
556.61	2199.97
556.97	2204.43
557.32	2208.50
557.68	2212.79
558.03	2217.20
558.39	2221.02
558.74	2225.63
559.10	2229.45
559.45	2233.26
559.81	2237.52
560.16	2241.39
560.52	2244.81
560.87	2248.16
561.23	2251.02
561.58	2254.02
561.94	2256.14
562.29	2258.25
562.64	2260.99
563.00	2263.60
563.35	2267.18
563.71	2270.32
564.06	2273.45
564.42	2276.35
564.77	2278.96
565.12	2281.15
565.48	2283.03
565.83	2284.87
566.19	2286.36
566.54	2287.22
566.89	2288.40
567.25	2288.99
567.60	2290.31
567.96	2292.12
568.31	2293.02
568.66	2294.12
569.02	2294.58
569.37	2295.22
569.72	2296.37
570.08	2296.65
570.43	2296.83
570.78	2296.16
571.14	2294.68
571.49	2293.42
571.84	2293.16
572.20	2292.07
572.55	2291.02
572.90	2289.68
573.26	2288.40
573.61	2286.73
573.96	2285.11
574.31	2282.17
574.67	2279.32
575.02	2275.70
575.37	2272.39
575.72	2268.68
576.08	2265.35
576.43	2262.20
576.78	2258.55
577.13	2255.45
577.49	2252.24
577.84	2248.72
578.19	2245.05
578.54	2241.59
578.90	2237.36
579.25	2231.93
579.60	2227.00
579.95	2222.11
580.30	2216.99
580.66	2211.97
581.01	2207.05
581.36	2202.20
581.71	2198.09
582.06	2193.58
582.42	2189.26
582.77	2184.16
583.12	2179.58
583.47	2175.00
583.82	2169.97
584.17	2164.76
584.53	2159.28
584.88	2153.82
585.23	2148.11
585.58	2142.69
585.93	2137.25
586.28	2132.64
586.63	2127.52
586.98	2122.60
587.34	2117.88
587.69	2113.16
588.04	2107.92
588.39	2102.35
588.74	2095.92
589.09	2089.80
589.44	2083.19
589.79	2077.20
590.14	2071.52
590.49	2065.08
590.84	2058.72
591.19	2052.85
591.54	2046.46
591.89	2039.07
592.25	2032.22
592.60	2024.98
592.95	2017.57
593.30	2010.24
593.65	2002.77
594.00	1995.87
594.35	1988.82
594.70	1980.82
595.05	1973.50
595.40	1966.20
595.75	1958.68
596.10	1952.56
596.45	1946.06
596.80	1939.95
597.15	1933.28
597.50	1926.24
597.85	1919.79
598.19	1913.02
598.54	1905.91
598.89	1899.31
599.24	1893.52
599.59	1886.93
599.94	1880.93
600.29	1874.61
600.64	1868.01
600.99	1860.58
601.34	1853.73
601.69	1846.63
602.04	1839.90
602.39	1832.72
602.74	1825.99
603.08	1819.32
603.43	1812.54
603.78	1805.09
604.13	1797.84
604.48	1790.52
604.83	1783.62
605.18	1776.61
605.53	1768.69
605.87	1760.76
606.22	1753.62
606.57	1745.70
606.92	1738.50
607.27	1731.35
607.62	1724.40
607.96	1717.23
608.31	1710.56
608.66	1703.04
609.01	1695.52
609.36	1687.91
609.70	1679.82
610.05	1671.70
610.40	1663.97
610.75	1655.69
611.10	1648.08
611.44	1639.68
611.79	1631.78
612.14	1623.05
612.49	1613.83
612.83	1605.59
613.18	1597.47
613.53	1589.37
613.88	1580.75
614.22	1572.45
614.57	1563.74
614.92	1555.67
615.27	1548.11
615.61	1539.77
615.96	1531.62
616.31	1523.99
616.65	1516.60
617.00	1509.15
617.35	1501.55
617.70	1493.12
618.04	1484.62
618.39	1476.34
618.74	1468.68
619.08	1460.33
619.43	1452.88
619.78	1446.13
620.12	1438.99
620.47	1431.46
620.82	1423.22
621.16	1415.89
621.51	1408.20
621.85	1400.64
622.20	1392.14
622.55	1383.74
622.89	1375.94
623.24	1368.32
623.59	1360.88
623.93	1353.34
624.28	1346.03
624.62	1338.58
624.97	1331.48
625.32	1324.70
625.66	1317.71
626.01	1310.65
626.35	1303.32
626.70	1295.54
627.04	1287.79
627.39	1279.95
627.73	1272.57
628.08	1265.68
628.43	1258.39
628.77	1251.01
629.12	1243.40
629.46	1236.25
629.81	1228.83
630.15	1221.58
630.50	1214.28
630.84	1206.20
631.19	1198.33
631.53	1190.81
631.88	1183.16
632.22	1175.56
632.57	1168.22
632.91	1160.65
633.26	1153.29
633.60	1145.88
633.95	1138.72
634.29	1131.67
634.64	1125.02
634.98	1117.57
635.32	1110.43
635.67	1103.78
636.01	1097.21
636.36	1090.43
636.70	1083.86
637.05	1077.34
637.39	1070.81
637.73	1064.24
638.08	1058.19
638.42	1052.12
638.77	1045.70
639.11	1039.12
639.45	1032.73
639.80	1026.20
640.14	1019.78
640.49	1013.12
640.83	1006.80
641.17	1000.52
641.52	994.10
641.86	987.62
642.20	981.92
642.55	975.59
642.89	969.13
643.23	962.50
643.58	956.71
643.92	950.57
644.26	944.45
644.61	938.42
644.95	932.41
645.29	925.87
645.64	919.16
645.98	912.81
646.32	906.92
646.66	900.85
647.01	894.90
647.35	889.18
647.69	883.39
648.04	877.80
648.38	872.05
648.72	866.07
649.06	859.96
649.41	853.95
649.75	847.90
650.09	841.94
650.43	836.23
650.78	830.06
651.12	824.13
651.46	818.37
651.80	812.59
652.14	807.14
652.49	801.79
652.83	796.63
653.17	790.92
653.51	785.16
653.85	779.77
654.20	774.19
654.54	768.25
654.88	762.54
655.22	756.68
655.56	750.99
655.90	745.54
656.25	740.26
656.59	734.93
656.93	729.95
657.27	724.80
657.61	719.31
657.95	714.18
658.29	709.07
658.64	703.84
658.98	698.61
659.32	693.15
659.66	687.99
660.00	682.63
660.34	677.68
660.68	672.87
661.02	667.86
661.36	663.17
661.70	658.62
662.05	654.20
662.39	649.87
662.73	645.42
663.07	641.11
663.41	636.64
663.75	632.12
664.09	627.46
664.43	623.04
664.77	618.93
665.11	614.70
665.45	610.58
665.79	606.60
666.13	602.42
666.47	598.29
666.81	594.09
667.15	590.03
667.49	586.19
667.83	582.30
668.17	578.34
668.51	574.19
668.85	570.17
669.19	566.34
669.53	562.50
669.87	558.66
670.21	554.94
670.55	551.39
670.89	548.01
671.23	544.63
671.57	541.17
671.91	537.63
672.25	534.16
672.58	530.56
672.92	527.04
673.26	523.89
673.60	520.74
673.94	517.59
674.28	514.65
674.62	511.66
674.96	508.54
675.30	505.65
675.64	502.76
675.97	499.95
676.31	497.10
676.65	494.12
676.99	491.41
677.33	488.57
677.67	485.75
678.01	482.61
678.34	479.63
678.68	476.72
679.02	473.94
679.36	471.15
679.70	468.43
680.04	465.71
680.37	462.86
680.71	460.08
681.05	457.48
681.39	454.74
681.73	452.12
682.06	449.65
682.40	447.11
682.74	444.63
683.08	442.11
683.42	439.48
683.75	437.02
684.09	434.48
684.43	431.94
684.77	429.47
685.10	427.19
685.44	424.89
685.78	422.64
686.12	420.40
686.45	418.11
686.79	415.86
687.13	413.69
687.46	411.53
687.80	409.36
688.14	407.15
688.48	405.09
688.81	402.80
689.15	400.58
689.49	398.39
689.82	396.32
690.16	394.23
690.50	392.29
690.83	390.33
691.17	388.27
691.51	386.40
691.84	384.51
692.18	382.60
692.52	380.55
692.85	378.54
693.19	376.60
693.52	374.75
693.86	372.96
694.20	371.14
694.53	369.35
694.87	367.50
695.21	365.69
695.54	363.87
695.88	362.19
696.21	360.47
696.55	358.80
696.88	357.08
697.22	355.39
697.56	353.72
697.89	352.05
698.23	350.43
698.56	348.80
698.90	347.23
699.23	345.54
699.57	344.04
699.90	342.54
700.24	341.01
700.58	339.48
700.91	337.90
701.25	336.46
701.58	335.05
701.92	333.70
702.25	332.35
702.59	330.95
702.92	329.60
703.26	328.27
703.59	326.97
703.93	325.80
704.26	324.59
704.60	323.29
704.93	322.01
705.26	320.78
705.60	319.59
705.93	318.42
706.27	317.39
706.60	316.34
706.94	315.22
707.27	314.07
707.61	313.03
707.94	312.01
708.27	310.87
708.61	309.78
708.94	308.79
709.28	307.78
709.61	306.81
709.94	305.86
710.28	304.86
710.61	303.93
710.95	302.84
711.28	301.89
711.61	300.93
711.95	300.03
712.28	299.07
712.61	298.09
712.95	297.17
713.28	296.30
713.61	295.37
713.95	294.53
714.28	293.70
714.61	292.78
714.95	291.97
715.28	291.19
715.61	290.33
715.95	289.44
716.28	288.61
716.61	287.81
716.95	286.96
717.28	286.24
717.61	285.47
717.94	284.71
718.28	283.89
718.61	283.23
718.94	282.55
719.27	281.94
719.61	281.32
719.94	280.65
720.27	279.91
720.60	279.23
720.94	278.59
721.27	277.99
721.60	277.45
721.93	276.82
722.27	276.23
722.60	275.70
722.93	275.15
723.26	274.61
723.59	274.03
723.93	273.52
724.26	272.95
724.59	272.37
724.92	271.86
725.25	271.39
725.59	270.82
725.92	270.32
726.25	269.80
726.58	269.27
726.91	268.79
727.24	268.34
727.57	267.89
727.91	267.43
728.24	266.98
728.57	266.50
728.90	266.05
729.23	265.57
729.56	265.13
729.89	264.63
730.22	264.17
730.55	263.69
730.89	263.22
731.22	262.79
731.55	262.36
731.88	261.93
732.21	261.52
732.54	261.14
732.87	260.69
733.20	260.29
733.53	259.92
733.86	259.55
734.19	259.11
734.52	258.73
734.85	258.38
735.18	257.93
735.51	257.57
735.84	257.15
736.17	256.82
736.50	256.40
736.83	256.20
737.16	255.86
737.49	255.55
737.82	255.21
738.15	254.89
738.48	254.57
738.81	254.23
739.14	253.85
739.47	253.51
739.80	253.22
740.13	252.93
740.46	252.60
740.79	252.24
741.12	251.97
741.45	251.66
741.78	251.29
742.11	251.02
742.44	250.67
742.77	250.43
743.10	250.11
743.43	249.84
743.75	249.43
744.08	249.24
744.41	248.97
744.74	248.70
745.07	248.41
745.40	248.13
745.73	247.90
746.06	247.65
746.39	247.38
746.71	247.12
747.04	246.82
747.37	246.57
747.70	246.34
748.03	246.10
748.36	245.88
748.68	245.66
749.01	245.45
749.34	245.24
749.67	245.02
750.00	244.81
750.33	244.64
750.65	244.43
750.98	244.10
751.31	243.85
751.64	243.62
751.97	243.44
752.29	243.25
752.62	242.99
752.95	242.75
753.28	242.55
753.60	242.32
753.93	242.14
754.26	241.96
754.59	241.71
754.91	241.49
755.24	241.28
755.57	241.10
755.90	240.87
756.22	240.69
756.55	240.49
756.88	240.27
757.20	240.04
757.53	239.84
757.86	239.69
758.19	239.58
758.51	239.45
758.84	239.26
759.17	239.08
759.49	238.96
759.82	238.88
760.15	238.76
760.47	238.60
760.80	238.38
761.13	238.25
761.45	238.11
761.78	237.97
762.11	237.83
762.43	237.69
762.76	237.55
763.08	237.41
763.41	237.28
763.74	237.18
764.06	237.02
764.39	236.91
764.71	236.77
765.04	236.62
765.37	236.43
765.69	236.29
766.02	236.13
766.34	236.01
766.67	235.82
767.00	235.70
767.32	235.63
767.65	235.62
767.97	235.45
768.30	235.33
768.62	235.21
768.95	235.09
769.27	234.92
769.60	234.84
769.92	234.70
770.25	234.54
770.57	234.42
770.90	234.31
771.22	234.22
771.55	234.08
771.87	233.98
772.20	233.94
772.52	233.91
772.85	233.98
773.17	233.87
773.50	233.79
773.82	233.66
774.15	233.51
774.47	233.38
774.80	233.31
775.12	233.22
775.45	233.12
775.77	233.06
776.09	233.03
776.42	232.94
776.74	232.92
777.07	232.86
777.39	232.80
777.72	232.72
778.04	232.63
778.36	232.59
778.69	232.52
779.01	232.41
779.33	232.25
779.66	232.05
779.98	231.97
780.31	231.89
780.63	231.87
780.95	231.84
781.28	231.78
781.60	231.71
781.92	231.66
782.25	231.59
782.57	231.49
782.89	231.39
783.22	231.33
783.54	231.23
783.86	231.17
784.19	231.08
784.51	231.07
784.83	231.00
785.16	230.93
785.48	230.88
785.80	230.84
786.12	230.79
786.45	230.72
786.77	230.69
787.09	230.68
