SpectraSuite Data File
++++++++++++++++++++++++++++++++++++
Date: Fri Feb 01 17:54:11 EST 2013
User: group
Dark Spectrum Present: No
Reference Spectrum Present: No
Number of Sampled Component Spectra: 1
Spectrometers: USB2E7196
Integration Time (usec): 35000 (USB2E7196)
Spectra Averaged: 100 (USB2E7196)
Boxcar Smoothing: 10 (USB2E7196)
Correct for Electrical Dark: No (USB2E7196)
Strobe/Lamp Enabled: No (USB2E7196)
Correct for Detector Non-linearity: No (USB2E7196)
Correct for Stray Light: No (USB2E7196)
Number of Pixels in Processed Spectrum: 2048
>>>>>Begin Processed Spectral Data<<<<<
339.09	0.00
339.48	212.47
339.86	213.48
340.24	215.22
340.63	216.54
341.01	219.54
341.39	218.65
341.78	220.65
342.16	221.53
342.54	222.52
342.93	210.93
343.31	221.60
343.69	222.15
344.07	222.65
344.46	223.06
344.84	223.49
345.22	223.75
345.60	224.03
345.99	224.24
346.37	224.41
346.75	224.53
347.13	224.61
347.52	224.68
347.90	224.77
348.28	224.81
348.66	224.87
349.05	224.88
349.43	224.95
349.81	225.02
350.19	225.10
350.57	225.18
350.96	225.23
351.34	225.32
351.72	225.43
352.10	225.52
352.48	225.66
352.87	225.71
353.25	225.80
353.63	225.87
354.01	225.94
354.39	226.03
354.77	226.14
355.15	226.25
355.54	226.32
355.92	226.39
356.30	226.46
356.68	226.60
357.06	226.69
357.44	226.75
357.82	226.81
358.20	226.90
358.58	226.95
358.97	227.02
359.35	227.12
359.73	227.20
360.11	227.30
360.49	227.35
360.87	227.38
361.25	227.44
361.63	227.55
362.01	227.63
362.39	227.66
362.77	227.66
363.15	227.67
363.53	227.70
363.91	227.70
364.29	227.72
364.67	227.65
365.05	227.65
365.43	227.65
365.81	227.67
366.19	227.72
366.57	227.73
366.95	227.73
367.33	227.69
367.71	227.67
368.09	227.64
368.47	227.60
368.85	227.59
369.23	227.57
369.61	227.46
369.99	227.44
370.37	227.41
370.75	227.40
371.13	227.36
371.51	227.31
371.89	227.25
372.27	227.22
372.65	227.17
373.03	227.17
373.41	227.12
373.78	227.07
374.16	226.92
374.54	226.87
374.92	226.80
375.30	226.73
375.68	226.67
376.06	226.62
376.44	226.56
376.82	226.50
377.19	226.43
377.57	226.40
377.95	226.35
378.33	226.30
378.71	226.20
379.09	226.15
379.47	226.09
379.84	226.03
380.22	226.00
380.60	225.92
380.98	225.84
381.36	225.74
381.73	225.66
382.11	225.65
382.49	225.59
382.87	225.54
383.25	225.50
383.62	225.54
384.00	225.46
384.38	225.41
384.76	225.36
385.13	225.32
385.51	225.28
385.89	225.20
386.27	225.15
386.64	225.09
387.02	225.01
387.40	224.99
387.78	224.95
388.15	224.88
388.53	224.83
388.91	224.79
389.29	224.78
389.66	224.77
390.04	224.72
390.42	224.73
390.79	224.71
391.17	224.68
391.55	224.53
391.92	224.52
392.30	224.53
392.68	224.54
393.05	224.54
393.43	224.51
393.81	224.51
394.18	224.49
394.56	224.53
394.94	224.57
395.31	224.58
395.69	224.64
396.06	224.69
396.44	224.76
396.82	224.76
397.19	224.85
397.57	224.88
397.95	224.96
398.32	224.95
398.70	224.99
399.07	225.09
399.45	225.17
399.82	225.23
400.20	225.27
400.58	225.34
400.95	225.36
401.33	225.46
401.70	225.60
402.08	225.70
402.45	225.79
402.83	225.88
403.20	225.98
403.58	226.09
403.95	226.21
404.33	226.36
404.71	226.50
405.08	226.70
405.46	226.83
405.83	226.96
406.21	227.14
406.58	227.34
406.96	227.48
407.33	227.66
407.70	227.90
408.08	228.21
408.45	228.47
408.83	228.77
409.20	229.02
409.58	229.21
409.95	229.51
410.33	229.84
410.70	230.17
411.08	230.55
411.45	230.91
411.82	231.28
412.20	231.70
412.57	232.23
412.95	232.56
413.32	233.11
413.69	233.63
414.07	234.19
414.44	234.79
414.82	235.43
415.19	236.16
415.56	236.86
415.94	237.60
416.31	238.43
416.68	239.20
417.06	240.15
417.43	241.09
417.81	242.09
418.18	243.09
418.55	244.19
418.93	245.32
419.30	246.50
419.67	247.72
420.04	248.98
420.42	250.25
420.79	251.81
421.16	253.36
421.54	254.95
421.91	256.56
422.28	258.21
422.66	259.97
423.03	261.68
423.40	263.45
423.77	265.28
424.15	267.20
424.52	269.16
424.89	271.28
425.26	273.38
425.64	275.31
426.01	277.45
426.38	279.63
426.75	281.91
427.13	284.22
427.50	286.63
427.87	289.12
428.24	291.64
428.61	294.00
428.99	296.53
429.36	299.33
429.73	302.10
430.10	304.84
430.47	307.58
430.85	310.41
431.22	313.40
431.59	316.58
431.96	319.54
432.33	322.90
432.70	326.06
433.08	329.78
433.45	333.30
433.82	336.77
434.19	340.67
434.56	344.33
434.93	347.84
435.30	351.38
435.68	355.23
436.05	359.01
436.42	362.76
436.79	366.11
437.16	369.70
437.53	373.46
437.90	377.20
438.27	380.85
438.64	384.66
439.01	388.07
439.38	391.02
439.75	393.91
440.13	397.22
440.50	400.35
440.87	402.84
441.24	405.46
441.61	408.38
441.98	410.40
442.35	412.89
442.72	415.37
443.09	417.79
443.46	419.13
443.83	419.96
444.20	420.61
444.57	421.79
444.94	422.21
445.31	422.70
445.68	423.09
446.05	423.22
446.42	422.73
446.79	422.20
447.16	421.64
447.53	421.22
447.90	419.71
448.27	418.17
448.64	416.11
449.01	414.61
449.37	411.94
449.74	409.40
450.11	406.38
450.48	403.12
450.85	399.75
451.22	396.88
451.59	394.14
451.96	391.54
452.33	388.07
452.70	384.96
453.07	381.19
453.43	377.41
453.80	373.73
454.17	370.17
454.54	366.78
454.91	363.17
455.28	359.62
455.65	356.33
456.02	353.01
456.38	350.09
456.75	346.51
457.12	343.50
457.49	340.49
457.86	337.61
458.23	335.13
458.59	332.39
458.96	329.62
459.33	327.14
459.70	324.65
460.07	322.63
460.43	320.25
460.80	318.09
461.17	316.12
461.54	314.11
461.91	312.14
462.27	310.21
462.64	308.57
463.01	306.77
463.38	305.00
463.74	303.21
464.11	301.63
464.48	300.29
464.85	298.81
465.21	297.68
465.58	296.42
465.95	294.92
466.32	293.71
466.68	292.52
467.05	291.32
467.42	290.15
467.78	288.88
468.15	287.78
468.52	286.81
468.88	285.67
469.25	284.62
469.62	283.80
469.98	282.90
470.35	282.04
470.72	281.21
471.08	280.33
471.45	279.56
471.82	278.85
472.18	278.04
472.55	277.44
472.92	276.71
473.28	276.12
473.65	275.53
474.02	274.92
474.38	274.39
474.75	273.91
475.11	273.37
475.48	272.97
475.85	272.60
476.21	272.28
476.58	272.02
476.94	271.78
477.31	271.50
477.67	271.23
478.04	270.99
478.41	270.85
478.77	270.80
479.14	270.74
479.50	270.67
479.87	270.69
480.23	270.73
480.60	270.71
480.96	270.68
481.33	270.83
481.69	270.95
482.06	271.10
482.42	271.26
482.79	271.48
483.15	271.78
483.52	272.13
483.88	272.44
484.25	272.75
484.61	273.16
484.98	273.55
485.34	274.10
485.71	274.68
486.07	275.28
486.44	275.83
486.80	276.50
487.17	277.25
487.53	278.07
487.90	278.95
488.26	279.91
488.62	280.90
488.99	281.90
489.35	283.03
489.72	284.16
490.08	285.42
490.44	286.79
490.81	288.14
491.17	289.53
491.54	291.07
491.90	292.69
492.26	294.42
492.63	296.24
492.99	298.16
493.36	300.12
493.72	302.30
494.08	304.49
494.45	306.85
494.81	309.30
495.17	311.84
495.54	314.52
495.90	317.37
496.26	320.37
496.63	323.46
496.99	326.76
497.35	330.24
497.72	333.84
498.08	337.49
498.44	341.39
498.80	345.59
499.17	349.84
499.53	354.27
499.89	358.91
500.26	363.67
500.62	368.58
500.98	373.83
501.34	379.17
501.71	384.85
502.07	390.60
502.43	396.54
502.79	402.68
503.16	409.09
503.52	415.71
503.88	422.45
504.24	429.50
504.60	436.68
504.97	444.26
505.33	451.96
505.69	460.18
506.05	468.46
506.41	476.77
506.78	485.44
507.14	494.40
507.50	503.60
507.86	513.11
508.22	522.88
508.59	532.70
508.95	542.82
509.31	553.17
509.67	563.89
510.03	574.85
510.39	586.12
510.75	597.57
511.12	609.24
511.48	621.33
511.84	633.57
512.20	645.92
512.56	658.62
512.92	671.63
513.28	684.82
513.64	698.11
514.00	711.74
514.37	725.56
514.73	739.55
515.09	753.54
515.45	767.93
515.81	782.51
516.17	797.50
516.53	812.70
516.89	828.06
517.25	843.38
517.61	858.89
517.97	874.42
518.33	890.09
518.69	906.05
519.05	922.16
519.41	938.51
519.77	955.24
520.13	971.90
520.49	988.68
520.85	1005.37
521.21	1022.32
521.57	1039.87
521.93	1057.05
522.29	1074.87
522.65	1092.55
523.01	1110.08
523.37	1127.58
523.73	1145.30
524.09	1162.85
524.45	1180.57
524.81	1198.66
525.17	1217.05
525.53	1235.52
525.89	1253.87
526.25	1272.33
526.61	1290.29
526.97	1308.69
527.33	1326.99
527.68	1345.36
528.04	1363.57
528.40	1381.76
528.76	1400.78
529.12	1419.16
529.48	1437.87
529.84	1455.51
530.20	1474.03
530.56	1492.85
530.91	1512.06
531.27	1530.74
531.63	1549.08
531.99	1567.56
532.35	1585.47
532.71	1603.26
533.07	1621.43
533.42	1639.39
533.78	1657.50
534.14	1675.83
534.50	1693.12
534.86	1710.84
535.21	1727.91
535.57	1745.70
535.93	1763.27
536.29	1779.94
536.65	1797.03
537.00	1813.71
537.36	1831.30
537.72	1847.76
538.08	1864.34
538.44	1880.18
538.79	1895.93
539.15	1911.60
539.51	1927.36
539.87	1943.91
540.22	1959.79
540.58	1975.71
540.94	1990.99
541.29	2005.69
541.65	2020.38
542.01	2035.77
542.37	2050.25
542.72	2064.69
543.08	2078.65
543.44	2093.24
543.79	2106.67
544.15	2119.68
544.51	2133.45
544.87	2146.33
545.22	2159.33
545.58	2171.63
545.94	2183.54
546.29	2195.58
546.65	2207.64
547.01	2219.07
547.36	2229.72
547.72	2240.24
548.07	2250.11
548.43	2260.27
548.79	2270.11
549.14	2279.81
549.50	2288.87
549.86	2298.28
550.21	2307.53
550.57	2316.58
550.92	2325.14
551.28	2334.06
551.64	2343.08
551.99	2351.41
552.35	2359.62
552.70	2367.55
553.06	2375.44
553.41	2383.53
553.77	2391.14
554.13	2398.96
554.48	2406.87
554.84	2414.30
555.19	2420.98
555.55	2427.84
555.90	2434.13
556.26	2441.12
556.61	2447.34
556.97	2453.55
557.32	2459.45
557.68	2465.25
558.03	2471.07
558.39	2476.14
558.74	2482.16
559.10	2487.57
559.45	2492.65
559.81	2498.27
560.16	2503.56
560.52	2508.11
560.87	2512.90
561.23	2516.94
561.58	2521.05
561.94	2524.81
562.29	2528.07
562.64	2532.42
563.00	2536.24
563.35	2540.90
563.71	2545.06
564.06	2549.35
564.42	2553.38
564.77	2557.25
565.12	2560.82
565.48	2563.92
565.83	2567.06
566.19	2569.74
566.54	2571.47
566.89	2573.80
567.25	2575.53
567.60	2577.64
567.96	2580.42
568.31	2582.27
568.66	2584.38
569.02	2585.85
569.37	2587.02
569.72	2588.80
570.08	2589.77
570.43	2590.43
570.78	2590.59
571.14	2589.75
571.49	2588.90
571.84	2589.11
572.20	2588.50
572.55	2587.94
572.90	2586.75
573.26	2585.70
573.61	2584.17
573.96	2583.06
574.31	2580.27
574.67	2577.43
575.02	2574.01
575.37	2570.64
575.72	2567.04
576.08	2563.70
576.43	2560.36
576.78	2557.03
577.13	2553.88
577.49	2550.50
577.84	2547.31
578.19	2543.46
578.54	2539.84
578.90	2535.82
579.25	2530.03
579.60	2524.82
579.95	2519.62
580.30	2514.48
580.66	2509.11
581.01	2503.81
581.36	2498.52
581.71	2494.24
582.06	2489.50
582.42	2485.07
582.77	2479.51
583.12	2474.64
583.47	2469.89
583.82	2464.77
584.17	2458.93
584.53	2453.11
584.88	2447.25
585.23	2441.02
585.58	2435.04
585.93	2429.15
586.28	2423.73
586.63	2418.38
586.98	2412.87
587.34	2407.61
587.69	2401.99
588.04	2396.27
588.39	2390.24
588.74	2383.09
589.09	2376.24
589.44	2368.88
589.79	2361.80
590.14	2355.57
590.49	2348.19
590.84	2341.01
591.19	2334.36
591.54	2327.18
591.89	2319.15
592.25	2311.50
592.60	2303.39
592.95	2295.12
593.30	2286.72
593.65	2278.28
594.00	2270.26
594.35	2262.04
594.70	2252.85
595.05	2245.04
595.40	2236.67
595.75	2228.16
596.10	2221.22
596.45	2213.76
596.80	2206.75
597.15	2199.54
597.50	2191.71
597.85	2184.35
598.19	2176.63
598.54	2168.68
598.89	2161.00
599.24	2154.18
599.59	2146.82
599.94	2139.63
600.29	2132.28
600.64	2124.72
600.99	2116.29
601.34	2108.42
601.69	2100.29
602.04	2092.69
602.39	2084.20
602.74	2076.45
603.08	2068.71
603.43	2060.85
603.78	2052.24
604.13	2043.82
604.48	2035.41
604.83	2027.48
605.18	2019.70
605.53	2010.69
605.87	2001.32
606.22	1993.00
606.57	1983.83
606.92	1975.01
607.27	1966.80
607.62	1958.96
607.96	1950.77
608.31	1943.35
608.66	1934.65
609.01	1926.03
609.36	1917.24
609.70	1908.00
610.05	1898.70
610.40	1889.72
610.75	1880.09
611.10	1871.29
611.44	1861.44
611.79	1851.99
612.14	1841.84
612.49	1830.95
612.83	1821.10
613.18	1811.50
613.53	1802.00
613.88	1791.97
614.22	1782.39
614.57	1772.15
614.92	1762.60
615.27	1753.75
615.61	1743.93
615.96	1734.41
616.31	1725.38
616.65	1716.65
617.00	1707.80
617.35	1698.71
617.70	1689.12
618.04	1679.24
618.39	1669.54
618.74	1660.85
619.08	1651.24
619.43	1642.33
619.78	1634.22
620.12	1625.90
620.47	1617.21
620.82	1607.67
621.16	1598.95
621.51	1589.98
621.85	1581.05
622.20	1571.12
622.55	1561.27
622.89	1552.11
623.24	1543.09
623.59	1534.56
623.93	1525.76
624.28	1517.21
624.62	1508.58
624.97	1500.03
625.32	1491.95
625.66	1483.67
626.01	1475.28
626.35	1466.75
626.70	1457.64
627.04	1448.64
627.39	1439.43
627.73	1430.84
628.08	1422.84
628.43	1414.52
628.77	1406.11
629.12	1397.39
629.46	1389.08
629.81	1380.22
630.15	1371.68
630.50	1363.22
630.84	1353.61
631.19	1344.38
631.53	1335.62
631.88	1326.76
632.22	1318.06
632.57	1309.55
632.91	1300.76
633.26	1292.02
633.60	1283.33
633.95	1274.92
634.29	1266.61
634.64	1258.85
634.98	1250.29
635.32	1241.96
635.67	1234.03
636.01	1226.19
636.36	1218.37
636.70	1210.74
637.05	1203.35
637.39	1195.84
637.73	1188.33
638.08	1181.41
638.42	1174.32
638.77	1166.92
639.11	1159.40
639.45	1151.98
639.80	1144.32
640.14	1136.91
640.49	1129.44
640.83	1122.10
641.17	1114.97
641.52	1107.86
641.86	1100.41
642.20	1093.55
642.55	1086.14
642.89	1078.75
643.23	1071.02
643.58	1064.35
643.92	1057.20
644.26	1050.23
644.61	1043.22
644.95	1036.27
645.29	1028.91
645.64	1021.29
645.98	1013.92
646.32	1006.87
646.66	999.92
647.01	993.21
647.35	986.65
647.69	979.80
648.04	973.39
648.38	966.77
648.72	959.82
649.06	952.96
649.41	946.24
649.75	939.49
650.09	932.75
650.43	926.22
650.78	919.09
651.12	912.26
651.46	905.63
651.80	899.16
652.14	892.85
652.49	886.54
652.83	880.57
653.17	874.09
653.51	867.70
653.85	861.38
654.20	854.97
654.54	848.13
654.88	841.58
655.22	834.76
655.56	828.17
655.90	821.86
656.25	815.75
656.59	809.52
656.93	803.63
657.27	797.70
657.61	791.46
657.95	785.65
658.29	779.82
658.64	773.68
658.98	767.49
659.32	761.32
659.66	755.35
660.00	749.31
660.34	743.59
660.68	737.91
661.02	732.04
661.36	726.68
661.70	721.45
662.05	716.42
662.39	711.56
662.73	706.45
663.07	701.38
663.41	696.22
663.75	691.07
664.09	685.76
664.43	680.62
664.77	675.83
665.11	671.02
665.45	666.27
665.79	661.67
666.13	656.95
666.47	652.16
666.81	647.50
667.15	642.75
667.49	638.29
667.83	633.84
668.17	629.44
668.51	624.70
668.85	620.11
669.19	615.66
669.53	611.26
669.87	606.87
670.21	602.69
670.55	598.51
670.89	594.62
671.23	590.77
671.57	586.71
671.91	582.72
672.25	578.58
672.58	574.52
672.92	570.55
673.26	566.91
673.60	563.31
673.94	559.72
674.28	556.26
674.62	552.86
674.96	549.39
675.30	546.06
675.64	542.79
675.97	539.63
676.31	536.36
676.65	532.94
676.99	529.79
677.33	526.43
677.67	523.24
678.01	519.81
678.34	516.44
678.68	513.20
679.02	509.96
679.36	506.78
679.70	503.66
680.04	500.51
680.37	497.27
680.71	494.01
681.05	490.97
681.39	487.93
681.73	484.89
682.06	481.97
682.40	479.05
682.74	476.11
683.08	473.10
683.42	470.09
683.75	467.30
684.09	464.43
684.43	461.65
684.77	458.79
685.10	456.09
685.44	453.43
685.78	450.81
686.12	448.20
686.45	445.57
686.79	442.92
687.13	440.41
687.46	437.91
687.80	435.46
688.14	432.86
688.48	430.54
688.81	427.95
689.15	425.48
689.49	423.00
689.82	420.62
690.16	418.24
690.50	415.99
690.83	413.72
691.17	411.32
691.51	409.12
691.84	406.96
692.18	404.76
692.52	402.50
692.85	400.26
693.19	398.14
693.52	396.05
693.86	393.95
694.20	391.86
694.53	389.80
694.87	387.66
695.21	385.60
695.54	383.46
695.88	381.44
696.21	379.45
696.55	377.51
696.88	375.54
697.22	373.57
697.56	371.70
697.89	369.82
698.23	368.08
698.56	366.21
698.90	364.46
699.23	362.60
699.57	360.79
699.90	359.01
700.24	357.18
700.58	355.43
700.91	353.76
701.25	352.12
701.58	350.53
701.92	349.00
702.25	347.43
702.59	345.93
702.92	344.43
703.26	342.90
703.59	341.44
703.93	340.10
704.26	338.75
704.60	337.27
704.93	335.80
705.26	334.36
705.60	332.99
705.93	331.60
706.27	330.37
706.60	329.14
706.94	327.90
707.27	326.63
707.61	325.36
707.94	324.17
708.27	322.90
708.61	321.60
708.94	320.39
709.28	319.24
709.61	318.09
709.94	316.98
710.28	315.80
710.61	314.64
710.95	313.31
711.28	312.24
711.61	311.15
711.95	310.09
712.28	308.98
712.61	307.86
712.95	306.80
713.28	305.77
713.61	304.71
713.95	303.70
714.28	302.70
714.61	301.73
714.95	300.71
715.28	299.77
715.61	298.80
715.95	297.82
716.28	296.85
716.61	295.86
716.95	294.91
717.28	294.07
717.61	293.18
717.94	292.38
718.28	291.45
718.61	290.60
718.94	289.81
719.27	289.03
719.61	288.31
719.94	287.53
720.27	286.70
720.60	285.96
720.94	285.24
721.27	284.53
721.60	283.83
721.93	283.19
722.27	282.52
722.60	281.89
722.93	281.27
723.26	280.67
723.59	280.05
723.93	279.42
724.26	278.78
724.59	278.12
724.92	277.49
725.25	276.90
725.59	276.33
725.92	275.74
726.25	275.17
726.58	274.54
726.91	273.98
727.24	273.47
727.57	272.90
727.91	272.30
728.24	271.75
728.57	271.18
728.90	270.65
729.23	270.10
729.56	269.59
729.89	269.01
730.22	268.44
730.55	267.86
730.89	267.36
731.22	266.85
731.55	266.39
731.88	265.93
732.21	265.48
732.54	264.97
732.87	264.44
733.20	263.98
733.53	263.55
733.86	263.13
734.19	262.67
734.52	262.23
734.85	261.87
735.18	261.45
735.51	261.07
735.84	260.63
736.17	260.24
736.50	259.77
736.83	259.49
737.16	259.13
737.49	258.74
737.82	258.31
738.15	257.93
738.48	257.52
738.81	257.10
739.14	256.69
739.47	256.36
739.80	256.01
740.13	255.62
740.46	255.22
740.79	254.80
741.12	254.43
741.45	254.09
741.78	253.66
742.11	253.33
742.44	252.95
742.77	252.59
743.10	252.24
743.43	251.90
743.75	251.48
744.08	251.25
744.41	250.92
744.74	250.61
745.07	250.25
745.40	249.98
745.73	249.72
746.06	249.42
746.39	249.09
746.71	248.77
747.04	248.46
747.37	248.19
747.70	247.92
748.03	247.64
748.36	247.35
748.68	247.09
749.01	246.77
749.34	246.51
749.67	246.26
750.00	246.01
750.33	245.83
750.65	245.57
750.98	245.20
751.31	245.01
751.64	244.76
751.97	244.60
752.29	244.31
752.62	244.03
752.95	243.77
753.28	243.54
753.60	243.33
753.93	243.13
754.26	242.91
754.59	242.69
754.91	242.45
755.24	242.22
755.57	242.00
755.90	241.81
756.22	241.58
756.55	241.36
756.88	241.13
757.20	240.87
757.53	240.64
757.86	240.49
758.19	240.27
758.51	240.09
758.84	239.83
759.17	239.67
759.49	239.51
759.82	239.38
760.15	239.19
760.47	239.01
760.80	238.81
761.13	238.63
761.45	238.43
761.78	238.27
762.11	238.10
762.43	237.92
762.76	237.76
763.08	237.61
763.41	237.45
763.74	237.28
764.06	237.10
764.39	236.97
764.71	236.78
765.04	236.67
765.37	236.50
765.69	236.38
766.02	236.22
766.34	236.06
766.67	235.90
767.00	235.76
767.32	235.69
767.65	235.64
767.97	235.51
768.30	235.39
768.62	235.27
768.95	235.13
769.27	235.00
769.60	234.90
769.92	234.77
770.25	234.67
770.57	234.54
770.90	234.41
771.22	234.25
771.55	234.14
771.87	234.01
772.20	233.91
772.52	233.85
772.85	233.89
773.17	233.77
773.50	233.63
773.82	233.54
774.15	233.38
774.47	233.21
774.80	233.13
775.12	233.04
775.45	232.94
775.77	232.85
776.09	232.77
776.42	232.69
776.74	232.59
777.07	232.50
777.39	232.42
777.72	232.37
778.04	232.31
778.36	232.22
778.69	232.16
779.01	232.06
779.33	231.91
779.66	231.68
779.98	231.60
780.31	231.53
780.63	231.49
780.95	231.43
781.28	231.33
781.60	231.24
781.92	231.13
782.25	231.07
782.57	231.02
782.89	230.93
783.22	230.80
783.54	230.75
783.86	230.67
784.19	230.58
784.51	230.54
784.83	230.49
785.16	230.42
785.48	230.33
785.80	230.26
786.12	230.22
786.45	230.19
