SpectraSuite Data File
++++++++++++++++++++++++++++++++++++
Date: Fri Feb 01 15:38:14 EST 2013
User: group
Dark Spectrum Present: No
Reference Spectrum Present: No
Number of Sampled Component Spectra: 1
Spectrometers: USB2E7196
Integration Time (usec): 35000 (USB2E7196)
Spectra Averaged: 100 (USB2E7196)
Boxcar Smoothing: 10 (USB2E7196)
Correct for Electrical Dark: No (USB2E7196)
Strobe/Lamp Enabled: No (USB2E7196)
Correct for Detector Non-linearity: No (USB2E7196)
Correct for Stray Light: No (USB2E7196)
Number of Pixels in Processed Spectrum: 2048
>>>>>Begin Processed Spectral Data<<<<<
339.09	0.00
339.48	215.08
339.86	216.54
340.24	218.04
340.63	218.85
341.01	221.46
341.39	222.03
341.78	223.49
342.16	223.76
342.54	224.94
342.93	213.23
343.31	224.02
343.69	224.56
344.07	224.98
344.46	225.40
344.84	225.77
345.22	226.02
345.60	226.26
345.99	226.42
346.37	226.59
346.75	226.65
347.13	226.72
347.52	226.77
347.90	226.80
348.28	226.85
348.66	226.91
349.05	226.90
349.43	226.92
349.81	226.97
350.19	227.00
350.57	227.07
350.96	227.13
351.34	227.22
351.72	227.29
352.10	227.41
352.48	227.48
352.87	227.52
353.25	227.60
353.63	227.64
354.01	227.71
354.39	227.76
354.77	227.88
355.15	227.98
355.54	228.08
355.92	228.11
356.30	228.18
356.68	228.31
357.06	228.41
357.44	228.46
357.82	228.52
358.20	228.59
358.58	228.66
358.97	228.72
359.35	228.77
359.73	228.88
360.11	228.93
360.49	229.01
360.87	229.10
361.25	229.17
361.63	229.28
362.01	229.32
362.39	229.38
362.77	229.43
363.15	229.45
363.53	229.45
363.91	229.53
364.29	229.58
364.67	229.50
365.05	229.53
365.43	229.56
365.81	229.58
366.19	229.62
366.57	229.66
366.95	229.66
367.33	229.66
367.71	229.62
368.09	229.63
368.47	229.59
368.85	229.58
369.23	229.59
369.61	229.49
369.99	229.50
370.37	229.47
370.75	229.46
371.13	229.43
371.51	229.41
371.89	229.36
372.27	229.28
372.65	229.24
373.03	229.19
373.41	229.08
373.78	229.01
374.16	228.90
374.54	228.83
374.92	228.78
375.30	228.70
375.68	228.61
376.06	228.55
376.44	228.48
376.82	228.39
377.19	228.28
377.57	228.22
377.95	228.12
378.33	228.00
378.71	227.89
379.09	227.82
379.47	227.76
379.84	227.69
380.22	227.62
380.60	227.55
380.98	227.45
381.36	227.43
381.73	227.34
382.11	227.32
382.49	227.25
382.87	227.12
383.25	227.07
383.62	227.13
384.00	227.04
384.38	226.95
384.76	226.91
385.13	226.91
385.51	226.87
385.89	226.85
386.27	226.81
386.64	226.78
387.02	226.70
387.40	226.60
387.78	226.51
388.15	226.46
388.53	226.40
388.91	226.38
389.29	226.32
389.66	226.31
390.04	226.21
390.42	226.18
390.79	226.16
391.17	226.13
391.55	225.98
391.92	225.98
392.30	226.02
392.68	226.02
393.05	226.00
393.43	225.99
393.81	225.98
394.18	225.96
394.56	225.96
394.94	226.02
395.31	226.04
395.69	226.09
396.06	226.15
396.44	226.19
396.82	226.19
397.19	226.31
397.57	226.37
397.95	226.47
398.32	226.47
398.70	226.56
399.07	226.63
399.45	226.70
399.82	226.80
400.20	226.86
400.58	226.90
400.95	226.94
401.33	227.05
401.70	227.20
402.08	227.30
402.45	227.40
402.83	227.53
403.20	227.67
403.58	227.77
403.95	227.90
404.33	228.04
404.71	228.17
405.08	228.33
405.46	228.41
405.83	228.57
406.21	228.72
406.58	228.90
406.96	229.07
407.33	229.26
407.70	229.42
408.08	229.67
408.45	229.91
408.83	230.13
409.20	230.32
409.58	230.51
409.95	230.77
410.33	231.04
410.70	231.27
411.08	231.57
411.45	231.89
411.82	232.20
412.20	232.53
412.57	232.97
412.95	233.26
413.32	233.71
413.69	234.10
414.07	234.55
414.44	235.01
414.82	235.49
415.19	236.04
415.56	236.60
415.94	237.17
416.31	237.82
416.68	238.46
417.06	239.20
417.43	239.86
417.81	240.60
418.18	241.38
418.55	242.23
418.93	243.07
419.30	243.98
419.67	244.90
420.04	245.89
420.42	246.87
420.79	248.06
421.16	249.22
421.54	250.44
421.91	251.67
422.28	252.95
422.66	254.29
423.03	255.62
423.40	256.96
423.77	258.37
424.15	259.77
424.52	261.28
424.89	262.91
425.26	264.47
425.64	266.04
426.01	267.63
426.38	269.29
426.75	270.99
427.13	272.70
427.50	274.53
427.87	276.41
428.24	278.30
428.61	280.03
428.99	281.97
429.36	284.07
429.73	286.14
430.10	288.13
430.47	290.20
430.85	292.32
431.22	294.54
431.59	296.92
431.96	299.19
432.33	301.66
432.70	304.04
433.08	306.88
433.45	309.44
433.82	312.05
434.19	314.94
434.56	317.74
434.93	320.42
435.30	323.07
435.68	325.94
436.05	328.81
436.42	331.63
436.79	334.16
437.16	336.86
437.53	339.72
437.90	342.60
438.27	345.32
438.64	348.18
439.01	350.81
439.38	353.02
439.75	355.18
440.13	357.65
440.50	359.98
440.87	361.80
441.24	363.76
441.61	365.91
441.98	367.38
442.35	369.20
442.72	371.04
443.09	372.81
443.46	373.78
443.83	374.33
444.20	374.81
444.57	375.62
444.94	375.88
445.31	376.20
445.68	376.49
446.05	376.52
446.42	376.12
446.79	375.65
447.16	375.20
447.53	374.90
447.90	373.73
448.27	372.58
448.64	370.99
449.01	369.85
449.37	367.89
449.74	365.99
450.11	363.74
450.48	361.27
450.85	358.72
451.22	356.59
451.59	354.51
451.96	352.59
452.33	349.99
452.70	347.63
453.07	344.78
453.43	341.85
453.80	339.14
454.17	336.42
454.54	333.88
454.91	331.15
455.28	328.47
455.65	326.00
456.02	323.52
456.38	321.34
456.75	318.67
457.12	316.41
457.49	314.18
457.86	312.03
458.23	310.18
458.59	308.11
458.96	306.07
459.33	304.23
459.70	302.35
460.07	300.87
460.43	299.15
460.80	297.51
461.17	296.10
461.54	294.60
461.91	293.20
462.27	291.75
462.64	290.51
463.01	289.17
463.38	287.86
463.74	286.52
464.11	285.39
464.48	284.35
464.85	283.24
465.21	282.38
465.58	281.45
465.95	280.35
466.32	279.46
466.68	278.58
467.05	277.72
467.42	276.84
467.78	275.88
468.15	275.03
468.52	274.40
468.88	273.54
469.25	272.77
469.62	272.17
469.98	271.53
470.35	270.93
470.72	270.34
471.08	269.73
471.45	269.20
471.82	268.66
472.18	268.09
472.55	267.66
472.92	267.16
473.28	266.69
473.65	266.24
474.02	265.85
474.38	265.44
474.75	265.08
475.11	264.75
475.48	264.52
475.85	264.30
476.21	264.07
476.58	263.91
476.94	263.80
477.31	263.63
477.67	263.46
478.04	263.35
478.41	263.28
478.77	263.27
479.14	263.18
479.50	263.19
479.87	263.29
480.23	263.34
480.60	263.42
480.96	263.52
481.33	263.73
481.69	263.90
482.06	264.13
482.42	264.32
482.79	264.58
483.15	264.92
483.52	265.27
483.88	265.61
484.25	265.98
484.61	266.36
484.98	266.76
485.34	267.29
485.71	267.84
486.07	268.40
486.44	268.99
486.80	269.71
487.17	270.38
487.53	271.17
487.90	272.04
488.26	272.92
488.62	273.88
488.99	274.87
489.35	275.89
489.72	277.01
490.08	278.23
490.44	279.43
490.81	280.72
491.17	282.06
491.54	283.53
491.90	285.05
492.26	286.70
492.63	288.46
492.99	290.25
493.36	292.18
493.72	294.21
494.08	296.31
494.45	298.55
494.81	300.94
495.17	303.40
495.54	305.94
495.90	308.66
496.26	311.45
496.63	314.38
496.99	317.51
497.35	320.74
497.72	324.14
498.08	327.69
498.44	331.36
498.80	335.29
499.17	339.32
499.53	343.47
499.89	347.87
500.26	352.40
500.62	357.11
500.98	362.05
501.34	367.15
501.71	372.43
502.07	377.86
502.43	383.50
502.79	389.31
503.16	395.40
503.52	401.63
503.88	408.04
504.24	414.69
504.60	421.56
504.97	428.73
505.33	436.11
505.69	443.80
506.05	451.56
506.41	459.48
506.78	467.63
507.14	476.12
507.50	484.85
507.86	493.84
508.22	502.98
508.59	512.23
508.95	521.86
509.31	531.75
509.67	541.89
510.03	552.16
510.39	562.70
510.75	573.57
511.12	584.58
511.48	595.90
511.84	607.28
512.20	618.86
512.56	630.70
512.92	642.85
513.28	655.17
513.64	667.63
514.00	680.32
514.37	693.32
514.73	706.38
515.09	719.41
515.45	732.74
515.81	746.41
516.17	760.39
516.53	774.46
516.89	788.57
517.25	802.76
517.61	817.24
517.97	831.78
518.33	846.16
518.69	860.89
519.05	875.96
519.41	891.16
519.77	906.68
520.13	922.17
520.49	937.55
520.85	953.13
521.21	968.91
521.57	985.15
521.93	1000.93
522.29	1017.40
522.65	1033.71
523.01	1049.98
523.37	1066.00
523.73	1082.18
524.09	1098.22
524.45	1114.62
524.81	1131.29
525.17	1148.08
525.53	1164.94
525.89	1181.86
526.25	1198.73
526.61	1215.08
526.97	1231.85
527.33	1248.48
527.68	1265.22
528.04	1281.79
528.40	1298.27
528.76	1315.37
529.12	1331.88
529.48	1348.76
529.84	1364.83
530.20	1381.39
530.56	1398.43
530.91	1415.96
531.27	1432.73
531.63	1449.35
531.99	1465.90
532.35	1481.77
532.71	1497.69
533.07	1513.93
533.42	1529.85
533.78	1545.94
534.14	1562.26
534.50	1577.74
534.86	1593.53
535.21	1608.68
535.57	1624.56
535.93	1640.09
536.29	1654.86
536.65	1670.07
537.00	1684.85
537.36	1699.97
537.72	1714.58
538.08	1729.01
538.44	1742.74
538.79	1756.66
539.15	1770.29
539.51	1784.11
539.87	1798.59
540.22	1812.34
540.58	1826.14
540.94	1839.43
541.29	1852.38
541.65	1865.08
542.01	1878.23
542.37	1890.48
542.72	1902.86
543.08	1914.69
543.44	1927.12
543.79	1938.29
544.15	1949.25
544.51	1960.91
544.87	1971.99
545.22	1982.72
545.58	1992.94
545.94	2002.70
546.29	2012.48
546.65	2022.36
547.01	2031.43
547.36	2040.16
547.72	2048.68
548.07	2056.47
548.43	2064.70
548.79	2072.82
549.14	2080.24
549.50	2087.68
549.86	2095.44
550.21	2102.71
550.57	2109.85
550.92	2116.48
551.28	2123.66
551.64	2130.76
551.99	2137.32
552.35	2143.46
552.70	2149.71
553.06	2155.57
553.41	2161.97
553.77	2167.99
554.13	2173.99
554.48	2180.28
554.84	2185.64
555.19	2190.87
555.55	2196.00
555.90	2200.43
556.26	2205.19
556.61	2210.00
556.97	2214.11
557.32	2218.23
557.68	2222.54
558.03	2226.79
558.39	2230.48
558.74	2235.24
559.10	2239.08
559.45	2242.65
559.81	2247.12
560.16	2250.95
560.52	2254.36
560.87	2257.74
561.23	2260.57
561.58	2263.55
561.94	2266.06
562.29	2268.50
562.64	2271.22
563.00	2273.89
563.35	2277.37
563.71	2280.50
564.06	2283.63
564.42	2286.54
564.77	2289.12
565.12	2291.32
565.48	2293.17
565.83	2294.99
566.19	2296.24
566.54	2297.20
566.89	2298.37
567.25	2298.78
567.60	2299.97
567.96	2301.47
568.31	2302.27
568.66	2303.24
569.02	2303.93
569.37	2304.24
569.72	2305.08
570.08	2305.18
570.43	2305.33
570.78	2304.63
571.14	2302.97
571.49	2301.63
571.84	2301.24
572.20	2299.90
572.55	2298.78
572.90	2297.42
573.26	2296.11
573.61	2294.35
573.96	2292.45
574.31	2289.26
574.67	2286.30
575.02	2282.65
575.37	2279.20
575.72	2275.34
576.08	2271.99
576.43	2268.53
576.78	2264.72
577.13	2261.53
577.49	2258.48
577.84	2254.74
578.19	2251.11
578.54	2247.43
578.90	2243.19
579.25	2237.72
579.60	2232.78
579.95	2227.68
580.30	2222.44
580.66	2217.09
581.01	2212.09
581.36	2207.21
581.71	2203.09
582.06	2198.56
582.42	2194.03
582.77	2188.79
583.12	2184.26
583.47	2179.46
583.82	2174.48
584.17	2169.23
584.53	2163.71
584.88	2157.95
585.23	2152.24
585.58	2146.72
585.93	2141.33
586.28	2136.52
586.63	2131.35
586.98	2126.32
587.34	2121.64
587.69	2116.84
588.04	2111.47
588.39	2105.72
588.74	2099.15
589.09	2092.98
589.44	2085.98
589.79	2079.96
590.14	2074.47
590.49	2067.80
590.84	2061.60
591.19	2055.47
591.54	2049.02
591.89	2041.67
592.25	2034.86
592.60	2027.72
592.95	2020.05
593.30	2012.70
593.65	2005.11
594.00	1998.07
594.35	1990.78
594.70	1982.70
595.05	1975.34
595.40	1968.19
595.75	1960.57
596.10	1954.39
596.45	1947.72
596.80	1941.79
597.15	1935.10
597.50	1927.87
597.85	1921.43
598.19	1914.56
598.54	1907.40
598.89	1900.76
599.24	1894.68
599.59	1887.90
599.94	1881.51
600.29	1875.24
600.64	1868.68
600.99	1861.22
601.34	1854.34
601.69	1847.28
602.04	1840.42
602.39	1833.08
602.74	1826.19
603.08	1819.55
603.43	1812.79
603.78	1805.42
604.13	1798.06
604.48	1790.86
604.83	1784.01
605.18	1776.91
605.53	1768.96
605.87	1761.04
606.22	1753.80
606.57	1745.91
606.92	1738.60
607.27	1731.37
607.62	1724.38
607.96	1716.99
608.31	1710.35
608.66	1702.64
609.01	1695.13
609.36	1687.44
609.70	1679.43
610.05	1671.22
610.40	1663.50
610.75	1655.12
611.10	1647.43
611.44	1639.11
611.79	1631.14
612.14	1622.46
612.49	1613.42
612.83	1604.94
613.18	1596.80
613.53	1588.56
613.88	1580.03
614.22	1571.81
614.57	1563.38
614.92	1555.37
615.27	1547.72
615.61	1539.30
615.96	1531.39
616.31	1523.68
616.65	1516.42
617.00	1508.80
617.35	1501.24
617.70	1492.87
618.04	1484.48
618.39	1476.21
618.74	1468.56
619.08	1460.20
619.43	1452.62
619.78	1445.70
620.12	1438.54
620.47	1430.94
620.82	1422.86
621.16	1415.44
621.51	1407.80
621.85	1400.11
622.20	1391.51
622.55	1383.20
622.89	1375.42
623.24	1367.78
623.59	1360.45
623.93	1352.83
624.28	1345.61
624.62	1338.09
624.97	1330.94
625.32	1324.13
625.66	1317.15
626.01	1309.92
626.35	1302.42
626.70	1294.67
627.04	1286.82
627.39	1279.14
627.73	1271.69
628.08	1264.87
628.43	1257.57
628.77	1250.09
629.12	1242.44
629.46	1235.31
629.81	1228.01
630.15	1220.80
630.50	1213.33
630.84	1205.06
631.19	1197.21
631.53	1189.75
631.88	1182.18
632.22	1174.54
632.57	1167.21
632.91	1159.65
633.26	1152.25
633.60	1145.01
633.95	1137.96
634.29	1131.06
634.64	1124.31
634.98	1117.00
635.32	1109.67
635.67	1103.04
636.01	1096.48
636.36	1089.66
636.70	1083.20
637.05	1076.61
637.39	1070.16
637.73	1063.65
638.08	1057.84
638.42	1051.84
638.77	1045.35
639.11	1038.71
639.45	1032.30
639.80	1025.55
640.14	1019.12
640.49	1012.62
640.83	1006.25
641.17	999.96
641.52	993.44
641.86	987.03
642.20	981.17
642.55	975.05
642.89	968.57
643.23	962.01
643.58	956.30
643.92	950.04
644.26	943.94
644.61	937.88
644.95	931.83
645.29	925.25
645.64	918.48
645.98	912.08
646.32	906.28
646.66	900.28
647.01	894.57
647.35	888.85
647.69	882.93
648.04	877.30
648.38	871.48
648.72	865.51
649.06	859.47
649.41	853.60
649.75	847.53
650.09	841.59
650.43	835.70
650.78	829.56
651.12	823.66
651.46	817.84
651.80	812.10
652.14	806.71
652.49	801.30
652.83	796.19
653.17	790.53
653.51	784.84
653.85	779.44
654.20	773.74
654.54	767.67
654.88	761.96
655.22	756.11
655.56	750.46
655.90	745.07
656.25	739.72
656.59	734.34
656.93	729.29
657.27	724.13
657.61	718.79
657.95	713.71
658.29	708.58
658.64	703.40
658.98	698.11
659.32	692.64
659.66	687.44
660.00	682.11
660.34	677.17
660.68	672.31
661.02	667.29
661.36	662.54
661.70	658.10
662.05	653.84
662.39	649.54
662.73	645.12
663.07	640.77
663.41	636.35
663.75	631.88
664.09	627.29
664.43	622.92
664.77	618.82
665.11	614.52
665.45	610.40
665.79	606.30
666.13	602.19
666.47	598.17
666.81	593.99
667.15	589.89
667.49	586.04
667.83	582.18
668.17	578.23
668.51	574.20
668.85	570.21
669.19	566.32
669.53	562.49
669.87	558.56
670.21	554.80
670.55	551.17
670.89	547.78
671.23	544.34
671.57	540.84
671.91	537.26
672.25	533.87
672.58	530.39
672.92	527.03
673.26	523.94
673.60	520.74
673.94	517.67
674.28	514.77
674.62	511.80
674.96	508.69
675.30	505.79
675.64	502.91
675.97	500.18
676.31	497.30
676.65	494.34
676.99	491.64
677.33	488.82
677.67	485.99
678.01	482.93
678.34	479.97
678.68	477.08
679.02	474.35
679.36	471.58
679.70	468.90
680.04	466.14
680.37	463.25
680.71	460.49
681.05	457.86
681.39	455.16
681.73	452.51
682.06	449.99
682.40	447.42
682.74	444.87
683.08	442.29
683.42	439.70
683.75	437.22
684.09	434.67
684.43	432.27
684.77	429.88
685.10	427.52
685.44	425.21
685.78	422.94
686.12	420.62
686.45	418.26
686.79	415.92
687.13	413.71
687.46	411.52
687.80	409.33
688.14	407.16
688.48	405.09
688.81	402.85
689.15	400.71
689.49	398.66
689.82	396.57
690.16	394.49
690.50	392.54
690.83	390.58
691.17	388.65
691.51	386.66
691.84	384.76
692.18	382.83
692.52	380.87
692.85	378.96
693.19	377.12
693.52	375.32
693.86	373.53
694.20	371.70
694.53	369.89
694.87	368.09
695.21	366.29
695.54	364.47
695.88	362.78
696.21	361.02
696.55	359.30
696.88	357.63
697.22	355.93
697.56	354.29
697.89	352.66
698.23	351.00
698.56	349.39
698.90	347.84
699.23	346.19
699.57	344.62
699.90	343.03
700.24	341.52
700.58	339.98
700.91	338.45
701.25	337.00
701.58	335.63
701.92	334.25
702.25	332.87
702.59	331.46
702.92	330.07
703.26	328.75
703.59	327.46
703.93	326.28
704.26	325.04
704.60	323.77
704.93	322.47
705.26	321.26
705.60	320.10
705.93	318.91
706.27	317.88
706.60	316.84
706.94	315.79
707.27	314.62
707.61	313.56
707.94	312.58
708.27	311.52
708.61	310.43
708.94	309.43
709.28	308.45
709.61	307.52
709.94	306.59
710.28	305.60
710.61	304.60
710.95	303.58
711.28	302.70
711.61	301.76
711.95	300.85
712.28	299.88
712.61	298.89
712.95	297.98
713.28	297.13
713.61	296.24
713.95	295.36
714.28	294.53
714.61	293.69
714.95	292.80
715.28	291.94
715.61	291.09
715.95	290.24
716.28	289.38
716.61	288.53
716.95	287.74
717.28	287.01
717.61	286.25
717.94	285.46
718.28	284.64
718.61	283.92
718.94	283.25
719.27	282.61
719.61	282.02
719.94	281.35
720.27	280.59
720.60	279.94
720.94	279.34
721.27	278.74
721.60	278.17
721.93	277.61
722.27	277.10
722.60	276.55
722.93	275.96
723.26	275.44
723.59	274.90
723.93	274.36
724.26	273.81
724.59	273.24
724.92	272.77
725.25	272.29
725.59	271.78
725.92	271.31
726.25	270.80
726.58	270.28
726.91	269.78
727.24	269.35
727.57	268.89
727.91	268.36
728.24	267.88
728.57	267.36
728.90	266.91
729.23	266.38
729.56	265.94
729.89	265.46
730.22	264.96
730.55	264.52
730.89	264.04
731.22	263.59
731.55	263.16
731.88	262.70
732.21	262.25
732.54	261.80
732.87	261.33
733.20	260.93
733.53	260.56
733.86	260.17
734.19	259.75
734.52	259.37
734.85	259.09
735.18	258.69
735.51	258.34
735.84	257.95
736.17	257.61
736.50	257.20
736.83	256.97
737.16	256.64
737.49	256.32
737.82	255.97
738.15	255.60
738.48	255.29
738.81	254.93
739.14	254.59
739.47	254.29
739.80	253.99
740.13	253.71
740.46	253.33
740.79	252.98
741.12	252.65
741.45	252.31
741.78	251.93
742.11	251.67
742.44	251.28
742.77	250.96
743.10	250.64
743.43	250.34
743.75	249.96
744.08	249.84
744.41	249.54
744.74	249.26
745.07	249.02
745.40	248.75
745.73	248.51
746.06	248.27
746.39	247.96
746.71	247.69
747.04	247.41
747.37	247.15
747.70	246.95
748.03	246.69
748.36	246.50
748.68	246.22
749.01	245.96
749.34	245.79
749.67	245.57
750.00	245.34
750.33	245.21
750.65	245.05
750.98	244.64
751.31	244.44
751.64	244.22
751.97	244.02
752.29	243.82
752.62	243.61
752.95	243.40
753.28	243.22
753.60	243.02
753.93	242.86
754.26	242.67
754.59	242.42
754.91	242.23
755.24	242.01
755.57	241.86
755.90	241.67
756.22	241.47
756.55	241.30
756.88	241.10
757.20	240.82
757.53	240.60
757.86	240.45
758.19	240.29
758.51	240.16
758.84	239.97
759.17	239.81
759.49	239.65
759.82	239.52
760.15	239.38
760.47	239.22
760.80	239.02
761.13	238.89
761.45	238.75
761.78	238.59
762.11	238.47
762.43	238.31
762.76	238.18
763.08	238.04
763.41	237.91
763.74	237.78
764.06	237.66
764.39	237.53
764.71	237.38
765.04	237.22
765.37	237.08
765.69	236.96
766.02	236.81
766.34	236.71
766.67	236.57
767.00	236.45
767.32	236.39
767.65	236.36
767.97	236.25
768.30	236.17
768.62	236.07
768.95	235.95
769.27	235.84
769.60	235.73
769.92	235.64
770.25	235.52
770.57	235.42
770.90	235.33
771.22	235.22
771.55	235.15
771.87	235.09
772.20	235.00
772.52	235.00
772.85	235.03
773.17	234.91
773.50	234.81
773.82	234.71
774.15	234.59
774.47	234.45
774.80	234.36
775.12	234.26
775.45	234.20
775.77	234.09
776.09	234.03
776.42	233.94
776.74	233.89
777.07	233.80
777.39	233.75
777.72	233.66
778.04	233.60
778.36	233.53
778.69	233.47
779.01	233.41
779.33	233.24
779.66	233.06
779.98	232.98
780.31	232.92
780.63	232.93
780.95	232.89
781.28	232.78
781.60	232.74
781.92	232.68
782.25	232.64
782.57	232.63
782.89	232.55
783.22	232.54
783.54	232.47
783.86	232.44
784.19	232.38
784.51	232.38
784.83	232.33
785.16	232.24
785.48	232.15
785.80	232.10
786.12	232.05
786.45	232.00
786.77	231.96
787.09	231.90
