SpectraSuite Data File
++++++++++++++++++++++++++++++++++++
Date: Fri Feb 01 17:53:18 EST 2013
User: group
Dark Spectrum Present: No
Reference Spectrum Present: No
Number of Sampled Component Spectra: 1
Spectrometers: USB2E7196
Integration Time (usec): 35000 (USB2E7196)
Spectra Averaged: 100 (USB2E7196)
Boxcar Smoothing: 10 (USB2E7196)
Correct for Electrical Dark: No (USB2E7196)
Strobe/Lamp Enabled: No (USB2E7196)
Correct for Detector Non-linearity: No (USB2E7196)
Correct for Stray Light: No (USB2E7196)
Number of Pixels in Processed Spectrum: 2048
>>>>>Begin Processed Spectral Data<<<<<
339.09	0.00
339.48	212.34
339.86	214.18
340.24	216.05
340.63	217.40
341.01	219.54
341.39	220.19
341.78	221.23
342.16	222.93
342.54	223.10
342.93	211.35
343.31	222.03
343.69	222.60
344.07	223.09
344.46	223.50
344.84	223.86
345.22	224.14
345.60	224.37
345.99	224.59
346.37	224.69
346.75	224.80
347.13	224.84
347.52	224.89
347.90	224.98
348.28	225.00
348.66	225.05
349.05	225.05
349.43	225.11
349.81	225.14
350.19	225.18
350.57	225.25
350.96	225.31
351.34	225.37
351.72	225.46
352.10	225.52
352.48	225.57
352.87	225.62
353.25	225.64
353.63	225.69
354.01	225.69
354.39	225.74
354.77	225.79
355.15	225.91
355.54	225.94
355.92	225.93
356.30	226.01
356.68	226.10
357.06	226.16
357.44	226.18
357.82	226.25
358.20	226.31
358.58	226.35
358.97	226.43
359.35	226.50
359.73	226.56
360.11	226.60
360.49	226.69
360.87	226.74
361.25	226.80
361.63	226.86
362.01	226.93
362.39	226.99
362.77	226.98
363.15	226.98
363.53	227.05
363.91	227.10
364.29	227.12
364.67	227.06
365.05	227.07
365.43	227.10
365.81	227.12
366.19	227.17
366.57	227.20
366.95	227.16
367.33	227.15
367.71	227.12
368.09	227.14
368.47	227.11
368.85	227.09
369.23	227.09
369.61	227.04
369.99	227.04
370.37	227.01
370.75	227.04
371.13	227.01
371.51	226.96
371.89	226.94
372.27	226.87
372.65	226.81
373.03	226.77
373.41	226.73
373.78	226.65
374.16	226.53
374.54	226.47
374.92	226.43
375.30	226.36
375.68	226.28
376.06	226.22
376.44	226.15
376.82	226.11
377.19	226.07
377.57	226.00
377.95	225.91
378.33	225.82
378.71	225.74
379.09	225.68
379.47	225.63
379.84	225.55
380.22	225.50
380.60	225.47
380.98	225.43
381.36	225.35
381.73	225.32
382.11	225.32
382.49	225.28
382.87	225.22
383.25	225.16
383.62	225.25
384.00	225.19
384.38	225.12
384.76	225.11
385.13	225.09
385.51	225.05
385.89	225.02
386.27	225.02
386.64	224.96
387.02	224.93
387.40	224.88
387.78	224.85
388.15	224.85
388.53	224.79
388.91	224.79
389.29	224.75
389.66	224.74
390.04	224.71
390.42	224.71
390.79	224.72
391.17	224.70
391.55	224.57
391.92	224.57
392.30	224.59
392.68	224.56
393.05	224.57
393.43	224.57
393.81	224.56
394.18	224.55
394.56	224.60
394.94	224.63
395.31	224.63
395.69	224.68
396.06	224.70
396.44	224.77
396.82	224.76
397.19	224.86
397.57	224.86
397.95	224.95
398.32	224.96
398.70	225.00
399.07	225.12
399.45	225.18
399.82	225.25
400.20	225.30
400.58	225.33
400.95	225.37
401.33	225.47
401.70	225.64
402.08	225.70
402.45	225.75
402.83	225.88
403.20	226.00
403.58	226.09
403.95	226.22
404.33	226.32
404.71	226.46
405.08	226.60
405.46	226.75
405.83	226.86
406.21	227.01
406.58	227.20
406.96	227.37
407.33	227.52
407.70	227.76
408.08	228.08
408.45	228.38
408.83	228.64
409.20	228.87
409.58	229.11
409.95	229.42
410.33	229.79
410.70	230.08
411.08	230.45
411.45	230.85
411.82	231.24
412.20	231.68
412.57	232.19
412.95	232.61
413.32	233.13
413.69	233.67
414.07	234.27
414.44	234.87
414.82	235.47
415.19	236.24
415.56	236.90
415.94	237.62
416.31	238.42
416.68	239.25
417.06	240.18
417.43	241.06
417.81	242.11
418.18	243.12
418.55	244.24
418.93	245.38
419.30	246.55
419.67	247.81
420.04	249.05
420.42	250.39
420.79	251.94
421.16	253.48
421.54	255.03
421.91	256.60
422.28	258.27
422.66	260.02
423.03	261.73
423.40	263.51
423.77	265.38
424.15	267.28
424.52	269.25
424.89	271.42
425.26	273.53
425.64	275.42
426.01	277.53
426.38	279.75
426.75	281.98
427.13	284.26
427.50	286.61
427.87	289.12
428.24	291.60
428.61	293.94
428.99	296.50
429.36	299.33
429.73	302.09
430.10	304.74
430.47	307.48
430.85	310.31
431.22	313.29
431.59	316.43
431.96	319.42
432.33	322.70
432.70	325.83
433.08	329.52
433.45	333.02
433.82	336.48
434.19	340.29
434.56	343.97
434.93	347.50
435.30	351.02
435.68	354.89
436.05	358.63
436.42	362.33
436.79	365.69
437.16	369.24
437.53	372.96
437.90	376.70
438.27	380.36
438.64	384.11
439.01	387.55
439.38	390.53
439.75	393.39
440.13	396.74
440.50	399.87
440.87	402.30
441.24	404.86
441.61	407.74
441.98	409.77
442.35	412.19
442.72	414.67
443.09	417.03
443.46	418.34
443.83	419.15
444.20	419.81
444.57	420.99
444.94	421.39
445.31	421.91
445.68	422.36
446.05	422.49
446.42	421.99
446.79	421.46
447.16	420.93
447.53	420.54
447.90	419.01
448.27	417.45
448.64	415.41
449.01	413.94
449.37	411.33
449.74	408.79
450.11	405.85
450.48	402.55
450.85	399.25
451.22	396.43
451.59	393.74
451.96	391.24
452.33	387.72
452.70	384.61
453.07	380.84
453.43	377.10
453.80	373.44
454.17	369.90
454.54	366.53
454.91	362.89
455.28	359.34
455.65	356.02
456.02	352.73
456.38	349.86
456.75	346.29
457.12	343.27
457.49	340.28
457.86	337.31
458.23	334.87
458.59	332.13
458.96	329.35
459.33	326.88
459.70	324.33
460.07	322.34
460.43	320.05
460.80	317.88
461.17	315.91
461.54	313.87
461.91	311.92
462.27	309.95
462.64	308.25
463.01	306.43
463.38	304.68
463.74	302.91
464.11	301.34
464.48	299.98
464.85	298.54
465.21	297.41
465.58	296.20
465.95	294.74
466.32	293.50
466.68	292.28
467.05	291.07
467.42	289.89
467.78	288.65
468.15	287.47
468.52	286.55
468.88	285.39
469.25	284.38
469.62	283.54
469.98	282.67
470.35	281.82
470.72	281.03
471.08	280.15
471.45	279.41
471.82	278.65
472.18	277.83
472.55	277.21
472.92	276.50
473.28	275.88
473.65	275.24
474.02	274.67
474.38	274.13
474.75	273.65
475.11	273.16
475.48	272.79
475.85	272.42
476.21	272.06
476.58	271.78
476.94	271.55
477.31	271.29
477.67	271.07
478.04	270.90
478.41	270.77
478.77	270.75
479.14	270.60
479.50	270.59
479.87	270.62
480.23	270.67
480.60	270.68
480.96	270.72
481.33	270.90
481.69	271.03
482.06	271.22
482.42	271.42
482.79	271.62
483.15	271.91
483.52	272.32
483.88	272.63
484.25	272.97
484.61	273.33
484.98	273.74
485.34	274.26
485.71	274.85
486.07	275.43
486.44	275.97
486.80	276.70
487.17	277.39
487.53	278.22
487.90	279.09
488.26	280.04
488.62	281.03
488.99	282.03
489.35	283.11
489.72	284.25
490.08	285.51
490.44	286.80
490.81	288.14
491.17	289.52
491.54	291.10
491.90	292.69
492.26	294.42
492.63	296.25
492.99	298.14
493.36	300.11
493.72	302.28
494.08	304.51
494.45	306.88
494.81	309.39
495.17	311.93
495.54	314.60
495.90	317.42
496.26	320.36
496.63	323.44
496.99	326.73
497.35	330.16
497.72	333.71
498.08	337.41
498.44	341.25
498.80	345.35
499.17	349.61
499.53	354.01
499.89	358.63
500.26	363.37
500.62	368.24
500.98	373.45
501.34	378.79
501.71	384.33
502.07	390.10
502.43	396.00
502.79	402.15
503.16	408.57
503.52	415.16
503.88	421.95
504.24	428.93
504.60	436.23
504.97	443.76
505.33	451.47
505.69	459.65
506.05	467.92
506.41	476.26
506.78	484.88
507.14	493.84
507.50	503.06
507.86	512.52
508.22	522.27
508.59	532.03
508.95	542.10
509.31	552.62
509.67	563.27
510.03	574.25
510.39	585.47
510.75	596.96
511.12	608.59
511.48	620.58
511.84	632.85
512.20	645.08
512.56	657.85
512.92	670.87
513.28	684.07
513.64	697.40
514.00	711.02
514.37	724.88
514.73	738.85
515.09	752.75
515.45	767.11
515.81	781.69
516.17	796.67
516.53	811.92
516.89	827.13
517.25	842.41
517.61	857.90
517.97	873.45
518.33	889.03
518.69	905.06
519.05	921.13
519.41	937.50
519.77	954.28
520.13	970.98
520.49	987.68
520.85	1004.31
521.21	1021.28
521.57	1038.82
521.93	1055.97
522.29	1073.77
522.65	1091.62
523.01	1109.19
523.37	1126.70
523.73	1144.30
524.09	1161.80
524.45	1179.58
524.81	1197.72
525.17	1216.08
525.53	1234.63
525.89	1253.10
526.25	1271.55
526.61	1289.71
526.97	1308.03
527.33	1326.23
527.68	1344.44
528.04	1362.49
528.40	1380.77
528.76	1399.65
529.12	1418.09
529.48	1436.77
529.84	1454.50
530.20	1472.78
530.56	1491.49
530.91	1510.77
531.27	1529.48
531.63	1547.87
531.99	1566.23
532.35	1584.23
532.71	1602.05
533.07	1620.13
533.42	1638.03
533.78	1655.96
534.14	1674.06
534.50	1691.47
534.86	1709.32
535.21	1726.61
535.57	1744.59
535.93	1762.14
536.29	1778.87
536.65	1795.87
537.00	1812.54
537.36	1830.00
537.72	1846.52
538.08	1863.22
538.44	1878.92
538.79	1894.80
539.15	1910.48
539.51	1926.36
539.87	1942.76
540.22	1958.44
540.58	1974.26
540.94	1989.42
541.29	2004.42
541.65	2019.26
542.01	2034.45
542.37	2048.81
542.72	2063.21
543.08	2077.18
543.44	2091.75
543.79	2105.12
544.15	2118.11
544.51	2131.92
544.87	2144.87
545.22	2157.94
545.58	2170.12
545.94	2182.04
546.29	2193.98
546.65	2205.98
547.01	2217.25
547.36	2227.85
547.72	2238.31
548.07	2248.25
548.43	2258.33
548.79	2267.81
549.14	2277.33
549.50	2286.49
549.86	2295.92
550.21	2305.19
550.57	2314.19
550.92	2322.49
551.28	2331.46
551.64	2340.61
551.99	2348.88
552.35	2356.99
552.70	2364.78
553.06	2372.65
553.41	2380.73
553.77	2388.45
554.13	2396.10
554.48	2404.01
554.84	2411.40
555.19	2418.25
555.55	2425.14
555.90	2431.31
556.26	2438.37
556.61	2444.66
556.97	2450.97
557.32	2456.78
557.68	2462.44
558.03	2468.17
558.39	2473.34
558.74	2479.41
559.10	2484.61
559.45	2489.67
559.81	2495.07
560.16	2500.26
560.52	2504.85
560.87	2509.61
561.23	2513.46
561.58	2517.56
561.94	2521.35
562.29	2524.68
562.64	2529.03
563.00	2532.68
563.35	2537.58
563.71	2541.83
564.06	2546.16
564.42	2550.16
564.77	2554.06
565.12	2557.59
565.48	2560.85
565.83	2563.94
566.19	2566.41
566.54	2568.11
566.89	2570.31
567.25	2572.18
567.60	2574.41
567.96	2577.20
568.31	2578.98
568.66	2581.19
569.02	2582.85
569.37	2584.00
569.72	2585.81
570.08	2586.68
570.43	2587.55
570.78	2587.73
571.14	2586.82
571.49	2586.10
571.84	2586.09
572.20	2585.27
572.55	2584.68
572.90	2583.30
573.26	2582.38
573.61	2580.92
573.96	2579.83
574.31	2577.08
574.67	2574.28
575.02	2571.03
575.37	2567.55
575.72	2564.01
576.08	2560.56
576.43	2557.19
576.78	2553.79
577.13	2550.57
577.49	2547.18
577.84	2543.77
578.19	2539.96
578.54	2536.43
578.90	2532.25
579.25	2526.52
579.60	2521.65
579.95	2516.28
580.30	2511.11
580.66	2505.55
581.01	2500.39
581.36	2495.12
581.71	2490.84
582.06	2486.31
582.42	2481.52
582.77	2476.06
583.12	2471.00
583.47	2466.30
583.82	2461.21
584.17	2455.48
584.53	2449.60
584.88	2443.70
585.23	2437.62
585.58	2431.65
585.93	2425.64
586.28	2420.24
586.63	2414.94
586.98	2409.26
587.34	2404.27
587.69	2398.99
588.04	2393.49
588.39	2387.29
588.74	2380.19
589.09	2373.33
589.44	2365.66
589.79	2358.77
590.14	2352.43
590.49	2345.24
590.84	2337.83
591.19	2331.11
591.54	2323.84
591.89	2315.94
592.25	2308.56
592.60	2300.34
592.95	2291.91
593.30	2283.58
593.65	2275.09
594.00	2267.02
594.35	2258.77
594.70	2249.52
595.05	2241.56
595.40	2233.18
595.75	2224.62
596.10	2217.63
596.45	2210.05
596.80	2203.11
597.15	2195.84
597.50	2188.07
597.85	2180.76
598.19	2173.42
598.54	2165.43
598.89	2157.87
599.24	2151.01
599.59	2143.48
599.94	2136.41
600.29	2129.07
600.64	2121.47
600.99	2113.07
601.34	2105.28
601.69	2097.21
602.04	2089.56
602.39	2080.96
602.74	2073.16
603.08	2065.50
603.43	2057.62
603.78	2049.11
604.13	2040.74
604.48	2032.41
604.83	2024.44
605.18	2016.52
605.53	2007.44
605.87	1998.21
606.22	1989.82
606.57	1980.56
606.92	1971.72
607.27	1963.37
607.62	1955.53
607.96	1947.25
608.31	1939.78
608.66	1931.07
609.01	1922.55
609.36	1913.76
609.70	1904.61
610.05	1895.43
610.40	1886.52
610.75	1877.07
611.10	1868.35
611.44	1858.54
611.79	1849.26
612.14	1839.13
612.49	1828.34
612.83	1818.50
613.18	1808.85
613.53	1799.49
613.88	1789.61
614.22	1780.01
614.57	1769.98
614.92	1760.49
615.27	1751.67
615.61	1741.96
615.96	1732.52
616.31	1723.42
616.65	1714.76
617.00	1705.95
617.35	1696.84
617.70	1687.28
618.04	1677.34
618.39	1667.65
618.74	1658.98
619.08	1649.22
619.43	1640.33
619.78	1632.22
620.12	1623.99
620.47	1615.31
620.82	1605.67
621.16	1596.87
621.51	1588.03
621.85	1579.04
622.20	1569.19
622.55	1559.47
622.89	1550.28
623.24	1541.29
623.59	1532.68
623.93	1523.96
624.28	1515.24
624.62	1506.47
624.97	1498.04
625.32	1489.97
625.66	1481.70
626.01	1473.22
626.35	1464.68
626.70	1455.63
627.04	1446.80
627.39	1437.59
627.73	1428.97
628.08	1420.95
628.43	1412.65
628.77	1404.16
629.12	1395.45
629.46	1387.12
629.81	1378.38
630.15	1369.79
630.50	1361.29
630.84	1351.83
631.19	1342.45
631.53	1333.83
631.88	1325.01
632.22	1316.11
632.57	1307.68
632.91	1299.06
633.26	1290.51
633.60	1281.77
633.95	1273.39
634.29	1265.11
634.64	1257.20
634.98	1248.63
635.32	1240.34
635.67	1232.54
636.01	1224.72
636.36	1216.87
636.70	1209.22
637.05	1201.57
637.39	1194.10
637.73	1186.60
638.08	1179.79
638.42	1172.98
638.77	1165.58
639.11	1158.00
639.45	1150.63
639.80	1142.88
640.14	1135.45
640.49	1127.87
640.83	1120.65
641.17	1113.52
641.52	1106.27
641.86	1098.86
642.20	1092.23
642.55	1084.79
642.89	1077.37
643.23	1069.74
643.58	1063.02
643.92	1055.97
644.26	1049.21
644.61	1042.20
644.95	1035.25
645.29	1027.67
645.64	1019.91
645.98	1012.50
646.32	1005.62
646.66	998.64
647.01	992.01
647.35	985.37
647.69	978.57
648.04	972.18
648.38	965.62
648.72	958.78
649.06	951.95
649.41	944.98
649.75	938.25
650.09	931.41
650.43	924.76
650.78	917.71
651.12	910.74
651.46	904.05
651.80	897.63
652.14	891.34
652.49	885.21
652.83	879.23
653.17	872.81
653.51	866.42
653.85	860.16
654.20	853.66
654.54	846.81
654.88	840.19
655.22	833.42
655.56	826.79
655.90	820.45
656.25	814.38
656.59	808.24
656.93	802.53
657.27	796.71
657.61	790.53
657.95	784.64
658.29	778.90
658.64	772.86
658.98	766.66
659.32	760.35
659.66	754.34
660.00	748.32
660.34	742.59
660.68	736.92
661.02	731.21
661.36	725.88
661.70	720.71
662.05	715.80
662.39	710.85
662.73	705.73
663.07	700.69
663.41	695.55
663.75	690.47
664.09	685.12
664.43	680.07
664.77	675.40
665.11	670.62
665.45	665.82
665.79	661.11
666.13	656.45
666.47	651.83
666.81	647.17
667.15	642.41
667.49	637.87
667.83	633.44
668.17	628.93
668.51	624.28
668.85	619.71
669.19	615.25
669.53	610.95
669.87	606.57
670.21	602.33
670.55	598.15
670.89	594.22
671.23	590.36
671.57	586.31
671.91	582.24
672.25	578.24
672.58	574.22
672.92	570.36
673.26	566.69
673.60	563.03
673.94	559.39
674.28	555.99
674.62	552.68
674.96	549.17
675.30	545.85
675.64	542.51
675.97	539.29
676.31	536.04
676.65	532.65
676.99	529.52
677.33	526.27
677.67	523.10
678.01	519.64
678.34	516.24
678.68	512.95
679.02	509.77
679.36	506.52
679.70	503.40
680.04	500.26
680.37	497.02
680.71	493.80
681.05	490.76
681.39	487.73
681.73	484.70
682.06	481.82
682.40	478.90
682.74	475.98
683.08	473.02
683.42	470.06
683.75	467.22
684.09	464.28
684.43	461.47
684.77	458.61
685.10	455.92
685.44	453.23
685.78	450.56
686.12	448.00
686.45	445.43
686.79	442.83
687.13	440.27
687.46	437.76
687.80	435.25
688.14	432.73
688.48	430.41
688.81	427.86
689.15	425.37
689.49	422.88
689.82	420.49
690.16	418.09
690.50	415.76
690.83	413.55
691.17	411.24
691.51	409.03
691.84	406.90
692.18	404.70
692.52	402.47
692.85	400.25
693.19	398.07
693.52	395.92
693.86	393.81
694.20	391.77
694.53	389.70
694.87	387.61
695.21	385.59
695.54	383.40
695.88	381.40
696.21	379.40
696.55	377.50
696.88	375.53
697.22	373.61
697.56	371.73
697.89	369.84
698.23	368.05
698.56	366.16
698.90	364.34
699.23	362.46
699.57	360.67
699.90	358.89
700.24	357.11
700.58	355.38
700.91	353.67
701.25	352.01
701.58	350.46
701.92	348.91
702.25	347.34
702.59	345.79
702.92	344.29
703.26	342.81
703.59	341.34
703.93	340.03
704.26	338.64
704.60	337.18
704.93	335.70
705.26	334.26
705.60	332.90
705.93	331.54
706.27	330.34
706.60	329.11
706.94	327.87
707.27	326.58
707.61	325.36
707.94	324.16
708.27	322.90
708.61	321.58
708.94	320.38
709.28	319.21
709.61	318.07
709.94	316.95
710.28	315.75
710.61	314.59
710.95	313.34
711.28	312.23
711.61	311.12
711.95	310.05
712.28	308.96
712.61	307.88
712.95	306.82
713.28	305.77
713.61	304.70
713.95	303.67
714.28	302.72
714.61	301.74
714.95	300.77
715.28	299.80
715.61	298.81
715.95	297.81
716.28	296.85
716.61	295.90
716.95	294.94
717.28	294.05
717.61	293.18
717.94	292.32
718.28	291.41
718.61	290.60
718.94	289.81
719.27	289.05
719.61	288.30
719.94	287.53
720.27	286.69
720.60	285.94
720.94	285.24
721.27	284.54
721.60	283.84
721.93	283.12
722.27	282.48
722.60	281.88
722.93	281.25
723.26	280.61
723.59	279.97
723.93	279.35
724.26	278.71
724.59	278.03
724.92	277.40
725.25	276.83
725.59	276.18
725.92	275.58
726.25	275.01
726.58	274.42
726.91	273.84
727.24	273.32
727.57	272.79
727.91	272.19
728.24	271.62
728.57	271.05
728.90	270.53
729.23	269.99
729.56	269.45
729.89	268.91
730.22	268.36
730.55	267.82
730.89	267.28
731.22	266.74
731.55	266.23
731.88	265.75
732.21	265.24
732.54	264.78
732.87	264.29
733.20	263.80
733.53	263.31
733.86	262.85
734.19	262.35
734.52	261.90
734.85	261.52
735.18	261.03
735.51	260.61
735.84	260.17
736.17	259.75
736.50	259.31
736.83	259.05
737.16	258.66
737.49	258.28
737.82	257.90
738.15	257.53
738.48	257.14
738.81	256.75
739.14	256.34
739.47	255.98
739.80	255.63
740.13	255.29
740.46	254.98
740.79	254.60
741.12	254.25
741.45	253.88
741.78	253.47
742.11	253.14
742.44	252.81
742.77	252.46
743.10	252.08
743.43	251.75
743.75	251.29
744.08	251.12
744.41	250.82
744.74	250.50
745.07	250.17
745.40	249.91
745.73	249.64
746.06	249.32
746.39	248.97
746.71	248.63
747.04	248.29
747.37	247.93
747.70	247.64
748.03	247.37
748.36	247.12
748.68	246.85
749.01	246.55
749.34	246.27
749.67	246.04
750.00	245.77
750.33	245.61
750.65	245.36
750.98	244.95
751.31	244.68
751.64	244.44
751.97	244.28
752.29	244.04
752.62	243.78
752.95	243.56
753.28	243.36
753.60	243.12
753.93	242.90
754.26	242.71
754.59	242.49
754.91	242.26
755.24	242.03
755.57	241.78
755.90	241.63
756.22	241.41
756.55	241.15
756.88	240.93
757.20	240.62
757.53	240.37
757.86	240.20
758.19	240.02
758.51	239.81
758.84	239.58
759.17	239.37
759.49	239.19
759.82	239.06
760.15	238.89
760.47	238.74
760.80	238.56
761.13	238.42
761.45	238.23
761.78	238.05
762.11	237.89
762.43	237.76
762.76	237.56
763.08	237.41
763.41	237.28
763.74	237.13
764.06	237.00
764.39	236.86
764.71	236.68
765.04	236.51
765.37	236.36
765.69	236.23
766.02	236.10
766.34	235.95
766.67	235.78
767.00	235.68
767.32	235.62
767.65	235.56
767.97	235.41
768.30	235.29
768.62	235.20
768.95	235.07
769.27	234.93
769.60	234.81
769.92	234.67
770.25	234.55
770.57	234.42
770.90	234.31
771.22	234.19
771.55	234.07
771.87	233.97
772.20	233.85
772.52	233.81
772.85	233.83
773.17	233.72
773.50	233.61
773.82	233.47
774.15	233.30
774.47	233.13
774.80	233.01
775.12	232.91
775.45	232.81
775.77	232.72
776.09	232.64
776.42	232.56
776.74	232.51
777.07	232.41
777.39	232.33
777.72	232.27
778.04	232.20
778.36	232.13
778.69	232.10
779.01	232.03
779.33	231.86
779.66	231.65
779.98	231.55
780.31	231.49
780.63	231.48
780.95	231.43
781.28	231.35
781.60	231.28
781.92	231.21
782.25	231.14
782.57	231.07
782.89	230.99
783.22	230.90
783.54	230.79
783.86	230.75
784.19	230.69
784.51	230.62
784.83	230.55
785.16	230.50
785.48	230.41
785.80	230.37
786.12	230.31
786.45	230.27
