SpectraSuite Data File
++++++++++++++++++++++++++++++++++++
Date: Fri Feb 01 17:58:46 EST 2013
User: group
Dark Spectrum Present: No
Reference Spectrum Present: No
Number of Sampled Component Spectra: 1
Spectrometers: USB2E7196
Integration Time (usec): 35000 (USB2E7196)
Spectra Averaged: 100 (USB2E7196)
Boxcar Smoothing: 10 (USB2E7196)
Correct for Electrical Dark: No (USB2E7196)
Strobe/Lamp Enabled: No (USB2E7196)
Correct for Detector Non-linearity: No (USB2E7196)
Correct for Stray Light: No (USB2E7196)
Number of Pixels in Processed Spectrum: 2048
>>>>>Begin Processed Spectral Data<<<<<
339.09	0.00
339.48	212.86
339.86	214.14
340.24	215.86
340.63	217.63
341.01	219.59
341.39	219.48
341.78	220.80
342.16	222.23
342.54	222.94
342.93	211.29
343.31	221.99
343.69	222.54
344.07	223.02
344.46	223.44
344.84	223.80
345.22	224.07
345.60	224.35
345.99	224.55
346.37	224.73
346.75	224.85
347.13	224.95
347.52	225.01
347.90	225.08
348.28	225.11
348.66	225.18
349.05	225.18
349.43	225.21
349.81	225.27
350.19	225.32
350.57	225.38
350.96	225.45
351.34	225.53
351.72	225.63
352.10	225.71
352.48	225.80
352.87	225.84
353.25	225.91
353.63	225.98
354.01	226.08
354.39	226.12
354.77	226.19
355.15	226.26
355.54	226.32
355.92	226.35
356.30	226.44
356.68	226.60
357.06	226.65
357.44	226.74
357.82	226.78
358.20	226.87
358.58	226.92
358.97	227.00
359.35	227.03
359.73	227.09
360.11	227.17
360.49	227.23
360.87	227.28
361.25	227.32
361.63	227.38
362.01	227.39
362.39	227.45
362.77	227.48
363.15	227.51
363.53	227.52
363.91	227.54
364.29	227.56
364.67	227.46
365.05	227.48
365.43	227.49
365.81	227.49
366.19	227.56
366.57	227.61
366.95	227.57
367.33	227.53
367.71	227.53
368.09	227.53
368.47	227.50
368.85	227.48
369.23	227.46
369.61	227.41
369.99	227.41
370.37	227.39
370.75	227.41
371.13	227.34
371.51	227.27
371.89	227.24
372.27	227.20
372.65	227.19
373.03	227.15
373.41	227.12
373.78	227.05
374.16	226.92
374.54	226.81
374.92	226.77
375.30	226.74
375.68	226.63
376.06	226.57
376.44	226.51
376.82	226.44
377.19	226.41
377.57	226.37
377.95	226.29
378.33	226.19
378.71	226.05
379.09	226.05
379.47	226.03
379.84	225.97
380.22	225.90
380.60	225.78
380.98	225.71
381.36	225.65
381.73	225.59
382.11	225.58
382.49	225.56
382.87	225.48
383.25	225.41
383.62	225.51
384.00	225.45
384.38	225.39
384.76	225.37
385.13	225.35
385.51	225.25
385.89	225.19
386.27	225.16
386.64	225.12
387.02	225.06
387.40	224.99
387.78	224.96
388.15	224.92
388.53	224.91
388.91	224.89
389.29	224.84
389.66	224.85
390.04	224.80
390.42	224.79
390.79	224.75
391.17	224.76
391.55	224.62
391.92	224.60
392.30	224.59
392.68	224.59
393.05	224.56
393.43	224.59
393.81	224.61
394.18	224.62
394.56	224.64
394.94	224.68
395.31	224.74
395.69	224.78
396.06	224.83
396.44	224.85
396.82	224.84
397.19	224.95
397.57	224.95
397.95	224.99
398.32	225.01
398.70	225.10
399.07	225.18
399.45	225.26
399.82	225.33
400.20	225.39
400.58	225.44
400.95	225.48
401.33	225.59
401.70	225.75
402.08	225.82
402.45	225.91
402.83	226.02
403.20	226.11
403.58	226.21
403.95	226.31
404.33	226.46
404.71	226.61
405.08	226.77
405.46	226.93
405.83	227.12
406.21	227.26
406.58	227.47
406.96	227.66
407.33	227.84
407.70	228.05
408.08	228.40
408.45	228.66
408.83	228.94
409.20	229.19
409.58	229.39
409.95	229.72
410.33	230.06
410.70	230.35
411.08	230.71
411.45	231.07
411.82	231.48
412.20	231.94
412.57	232.45
412.95	232.84
413.32	233.37
413.69	233.88
414.07	234.45
414.44	235.05
414.82	235.65
415.19	236.36
415.56	237.08
415.94	237.78
416.31	238.61
416.68	239.44
417.06	240.39
417.43	241.29
417.81	242.29
418.18	243.35
418.55	244.45
418.93	245.63
419.30	246.85
419.67	248.10
420.04	249.37
420.42	250.71
420.79	252.24
421.16	253.78
421.54	255.38
421.91	257.02
422.28	258.71
422.66	260.53
423.03	262.26
423.40	264.04
423.77	265.93
424.15	267.86
424.52	269.91
424.89	272.06
425.26	274.17
425.64	276.13
426.01	278.29
426.38	280.57
426.75	282.84
427.13	285.22
427.50	287.67
427.87	290.20
428.24	292.67
428.61	295.09
428.99	297.70
429.36	300.54
429.73	303.35
430.10	306.05
430.47	308.82
430.85	311.69
431.22	314.76
431.59	317.97
431.96	321.00
432.33	324.31
432.70	327.54
433.08	331.31
433.45	334.87
433.82	338.40
434.19	342.25
434.56	346.01
434.93	349.60
435.30	353.15
435.68	357.06
436.05	360.95
436.42	364.74
436.79	368.19
437.16	371.83
437.53	375.64
437.90	379.42
438.27	383.16
438.64	386.99
439.01	390.48
439.38	393.50
439.75	396.42
440.13	399.82
440.50	402.98
440.87	405.50
441.24	408.16
441.61	411.07
441.98	413.11
442.35	415.56
442.72	418.04
443.09	420.47
443.46	421.81
443.83	422.58
444.20	423.26
444.57	424.42
444.94	424.85
445.31	425.32
445.68	425.77
446.05	425.88
446.42	425.38
446.79	424.80
447.16	424.27
447.53	423.92
447.90	422.36
448.27	420.79
448.64	418.64
449.01	417.10
449.37	414.45
449.74	411.89
450.11	408.83
450.48	405.48
450.85	402.09
451.22	399.25
451.59	396.54
451.96	393.94
452.33	390.37
452.70	387.18
453.07	383.38
453.43	379.49
453.80	375.73
454.17	372.11
454.54	368.68
454.91	364.98
455.28	361.29
455.65	357.88
456.02	354.49
456.38	351.55
456.75	347.94
457.12	344.86
457.49	341.86
457.86	338.93
458.23	336.38
458.59	333.54
458.96	330.69
459.33	328.18
459.70	325.64
460.07	323.59
460.43	321.22
460.80	319.00
461.17	317.02
461.54	314.99
461.91	313.03
462.27	311.05
462.64	309.33
463.01	307.50
463.38	305.76
463.74	303.99
464.11	302.45
464.48	301.01
464.85	299.52
465.21	298.34
465.58	297.07
465.95	295.61
466.32	294.37
466.68	293.12
467.05	291.87
467.42	290.62
467.78	289.37
468.15	288.16
468.52	287.24
468.88	286.07
469.25	284.96
469.62	284.13
469.98	283.21
470.35	282.32
470.72	281.47
471.08	280.58
471.45	279.81
471.82	279.03
472.18	278.22
472.55	277.63
472.92	276.92
473.28	276.29
473.65	275.68
474.02	275.06
474.38	274.54
474.75	274.05
475.11	273.59
475.48	273.21
475.85	272.91
476.21	272.57
476.58	272.30
476.94	272.11
477.31	271.83
477.67	271.56
478.04	271.38
478.41	271.25
478.77	271.21
479.14	271.10
479.50	271.05
479.87	271.08
480.23	271.11
480.60	271.08
480.96	271.10
481.33	271.27
481.69	271.48
482.06	271.66
482.42	271.84
482.79	272.05
483.15	272.32
483.52	272.68
483.88	272.98
484.25	273.37
484.61	273.78
484.98	274.18
485.34	274.75
485.71	275.34
486.07	275.93
486.44	276.51
486.80	277.20
487.17	277.98
487.53	278.84
487.90	279.68
488.26	280.66
488.62	281.69
488.99	282.70
489.35	283.77
489.72	284.92
490.08	286.19
490.44	287.48
490.81	288.88
491.17	290.30
491.54	291.86
491.90	293.42
492.26	295.15
492.63	297.00
492.99	298.87
493.36	300.85
493.72	303.02
494.08	305.25
494.45	307.61
494.81	310.07
495.17	312.62
495.54	315.32
495.90	318.13
496.26	321.09
496.63	324.23
496.99	327.48
497.35	330.93
497.72	334.52
498.08	338.25
498.44	342.07
498.80	346.16
499.17	350.41
499.53	354.87
499.89	359.49
500.26	364.31
500.62	369.20
500.98	374.49
501.34	379.84
501.71	385.44
502.07	391.18
502.43	397.13
502.79	403.25
503.16	409.69
503.52	416.32
503.88	423.11
504.24	430.09
504.60	437.41
504.97	444.98
505.33	452.73
505.69	460.92
506.05	469.19
506.41	477.65
506.78	486.30
507.14	495.25
507.50	504.56
507.86	514.09
508.22	523.92
508.59	533.71
508.95	543.90
509.31	554.36
509.67	565.19
510.03	576.10
510.39	587.44
510.75	598.90
511.12	610.69
511.48	622.76
511.84	635.07
512.20	647.44
512.56	660.28
512.92	673.41
513.28	686.71
513.64	700.15
514.00	713.77
514.37	727.78
514.73	741.89
515.09	755.89
515.45	770.21
515.81	784.84
516.17	799.90
516.53	815.26
516.89	830.63
517.25	845.92
517.61	861.52
517.97	877.16
518.33	892.84
518.69	908.77
519.05	925.08
519.41	941.55
519.77	958.30
520.13	975.12
520.49	991.84
520.85	1008.57
521.21	1025.57
521.57	1043.22
521.93	1060.35
522.29	1078.15
522.65	1095.95
523.01	1113.67
523.37	1131.33
523.73	1149.06
524.09	1166.65
524.45	1184.47
524.81	1202.71
525.17	1221.19
525.53	1239.80
525.89	1258.42
526.25	1277.09
526.61	1295.12
526.97	1313.58
527.33	1331.91
527.68	1350.18
528.04	1368.50
528.40	1386.83
528.76	1405.87
529.12	1424.35
529.48	1443.27
529.84	1461.09
530.20	1479.59
530.56	1498.42
530.91	1517.73
531.27	1536.49
531.63	1555.02
531.99	1573.68
532.35	1591.73
532.71	1609.76
533.07	1628.03
533.42	1646.16
533.78	1664.21
534.14	1682.59
534.50	1699.95
534.86	1718.01
535.21	1735.40
535.57	1753.34
535.93	1770.91
536.29	1787.84
536.65	1805.04
537.00	1821.71
537.36	1839.33
537.72	1856.08
538.08	1872.80
538.44	1888.67
538.79	1904.63
539.15	1920.25
539.51	1936.07
539.87	1952.58
540.22	1968.43
540.58	1984.49
540.94	1999.86
541.29	2014.95
541.65	2029.95
542.01	2045.49
542.37	2060.08
542.72	2074.69
543.08	2088.81
543.44	2103.62
543.79	2117.20
544.15	2130.43
544.51	2144.51
544.87	2157.62
545.22	2170.64
545.58	2183.01
545.94	2195.00
546.29	2207.00
546.65	2219.16
547.01	2230.71
547.36	2241.52
547.72	2252.06
548.07	2261.81
548.43	2271.85
548.79	2281.72
549.14	2291.18
549.50	2300.28
549.86	2309.73
550.21	2319.01
550.57	2328.19
550.92	2336.68
551.28	2345.50
551.64	2354.44
551.99	2362.81
552.35	2370.85
552.70	2378.84
553.06	2386.80
553.41	2395.17
553.77	2403.09
554.13	2410.96
554.48	2418.92
554.84	2426.38
555.19	2433.37
555.55	2440.45
555.90	2446.80
556.26	2453.70
556.61	2460.03
556.97	2466.40
557.32	2472.31
557.68	2477.95
558.03	2483.74
558.39	2488.93
558.74	2495.22
559.10	2500.65
559.45	2505.68
559.81	2511.44
560.16	2516.86
560.52	2521.65
560.87	2526.48
561.23	2530.48
561.58	2534.71
561.94	2538.55
562.29	2541.97
562.64	2546.07
563.00	2549.75
563.35	2554.63
563.71	2558.96
564.06	2563.56
564.42	2567.64
564.77	2571.38
565.12	2575.02
565.48	2578.18
565.83	2581.33
566.19	2583.89
566.54	2585.72
566.89	2588.11
567.25	2589.76
567.60	2592.13
567.96	2594.77
568.31	2596.41
568.66	2598.74
569.02	2600.38
569.37	2601.53
569.72	2603.50
570.08	2604.58
570.43	2605.44
570.78	2605.57
571.14	2604.53
571.49	2603.76
571.84	2604.05
572.20	2603.44
572.55	2602.94
572.90	2601.74
573.26	2600.77
573.61	2599.29
573.96	2598.21
574.31	2595.40
574.67	2592.72
575.02	2589.15
575.37	2585.93
575.72	2582.44
576.08	2578.93
576.43	2575.67
576.78	2572.06
577.13	2568.84
577.49	2565.79
577.84	2562.54
578.19	2558.73
578.54	2555.26
578.90	2551.04
579.25	2545.07
579.60	2540.00
579.95	2534.75
580.30	2529.45
580.66	2524.05
581.01	2518.82
581.36	2513.43
581.71	2509.04
582.06	2504.45
582.42	2499.68
582.77	2494.13
583.12	2489.32
583.47	2484.54
583.82	2479.26
584.17	2473.63
584.53	2467.73
584.88	2461.47
585.23	2455.20
585.58	2449.22
585.93	2443.18
586.28	2437.90
586.63	2432.39
586.98	2426.74
587.34	2421.60
587.69	2416.39
588.04	2410.71
588.39	2404.44
588.74	2397.33
589.09	2390.50
589.44	2383.05
589.79	2376.29
590.14	2369.91
590.49	2362.42
590.84	2355.08
591.19	2348.25
591.54	2341.16
591.89	2333.05
592.25	2325.50
592.60	2317.26
592.95	2308.83
593.30	2300.65
593.65	2292.07
594.00	2284.13
594.35	2276.00
594.70	2266.74
595.05	2258.70
595.40	2250.21
595.75	2241.71
596.10	2234.67
596.45	2227.00
596.80	2219.79
597.15	2212.38
597.50	2204.58
597.85	2197.01
598.19	2189.46
598.54	2181.64
598.89	2173.99
599.24	2167.12
599.59	2159.49
599.94	2152.53
600.29	2145.16
600.64	2137.37
600.99	2128.85
601.34	2121.04
601.69	2112.93
602.04	2105.09
602.39	2096.44
602.74	2088.62
603.08	2080.82
603.43	2072.91
603.78	2064.29
604.13	2055.95
604.48	2047.49
604.83	2039.27
605.18	2031.48
605.53	2022.22
605.87	2012.73
606.22	2004.16
606.57	1994.79
606.92	1986.06
607.27	1977.66
607.62	1969.64
607.96	1961.27
608.31	1953.56
608.66	1944.69
609.01	1935.88
609.36	1927.09
609.70	1917.68
610.05	1908.29
610.40	1899.41
610.75	1889.64
611.10	1880.80
611.44	1870.81
611.79	1861.31
612.14	1851.26
612.49	1840.45
612.83	1830.61
613.18	1821.07
613.53	1811.56
613.88	1801.64
614.22	1792.01
614.57	1781.67
614.92	1772.18
615.27	1763.29
615.61	1753.56
615.96	1744.16
616.31	1735.19
616.65	1726.47
617.00	1717.54
617.35	1708.46
617.70	1698.75
618.04	1688.89
618.39	1679.17
618.74	1670.45
619.08	1660.81
619.43	1651.74
619.78	1643.54
620.12	1635.12
620.47	1626.15
620.82	1616.56
621.16	1607.74
621.51	1598.84
621.85	1590.01
622.20	1580.16
622.55	1570.32
622.89	1561.08
623.24	1551.97
623.59	1543.19
623.93	1534.45
624.28	1526.02
624.62	1517.27
624.97	1508.84
625.32	1500.81
625.66	1492.60
626.01	1484.10
626.35	1475.42
626.70	1466.36
627.04	1457.36
627.39	1448.17
627.73	1439.52
628.08	1431.48
628.43	1422.97
628.77	1414.35
629.12	1405.45
629.46	1396.92
629.81	1388.18
630.15	1379.62
630.50	1370.97
630.84	1361.44
631.19	1352.06
631.53	1343.26
631.88	1334.29
632.22	1325.32
632.57	1316.83
632.91	1308.04
633.26	1299.36
633.60	1290.67
633.95	1282.21
634.29	1273.89
634.64	1266.09
634.98	1257.58
635.32	1249.10
635.67	1241.30
636.01	1233.54
636.36	1225.57
636.70	1217.87
637.05	1210.24
637.39	1202.75
637.73	1195.16
638.08	1188.16
638.42	1181.15
638.77	1173.55
639.11	1165.99
639.45	1158.40
639.80	1150.57
640.14	1143.09
640.49	1135.46
640.83	1128.04
641.17	1120.90
641.52	1113.45
641.86	1105.85
642.20	1098.96
642.55	1091.64
642.89	1084.15
643.23	1076.43
643.58	1069.77
643.92	1062.65
644.26	1055.62
644.61	1048.51
644.95	1041.54
645.29	1033.93
645.64	1026.12
645.98	1018.77
646.32	1011.84
646.66	1004.95
647.01	998.30
647.35	991.64
647.69	984.81
648.04	978.31
648.38	971.58
648.72	964.73
649.06	957.77
649.41	950.91
649.75	944.04
650.09	937.23
650.43	930.58
650.78	923.51
651.12	916.56
651.46	909.91
651.80	903.30
652.14	897.03
652.49	890.84
652.83	884.82
653.17	878.28
653.51	871.74
653.85	865.37
654.20	858.81
654.54	851.85
654.88	845.26
655.22	838.42
655.56	831.83
655.90	825.50
656.25	819.47
656.59	813.30
656.93	807.37
657.27	801.33
657.61	794.98
657.95	789.03
658.29	783.19
658.64	777.11
658.98	770.98
659.32	764.67
659.66	758.70
660.00	752.55
660.34	746.83
660.68	741.09
661.02	735.28
661.36	729.79
661.70	724.60
662.05	719.50
662.39	714.61
662.73	709.46
663.07	704.41
663.41	699.31
663.75	694.14
664.09	688.84
664.43	683.74
664.77	679.03
665.11	674.20
665.45	669.42
665.79	664.72
666.13	659.95
666.47	655.26
666.81	650.45
667.15	645.73
667.49	641.20
667.83	636.81
668.17	632.27
668.51	627.58
668.85	622.97
669.19	618.54
669.53	614.18
669.87	609.79
670.21	605.46
670.55	601.20
670.89	597.22
671.23	593.28
671.57	589.28
671.91	585.26
672.25	581.09
672.58	577.07
672.92	573.09
673.26	569.39
673.60	565.77
673.94	562.18
674.28	558.84
674.62	555.46
674.96	551.87
675.30	548.58
675.64	545.24
675.97	541.99
676.31	538.66
676.65	535.21
676.99	532.04
677.33	528.75
677.67	525.52
678.01	522.05
678.34	518.62
678.68	515.24
679.02	511.90
679.36	508.76
679.70	505.56
680.04	502.46
680.37	499.20
680.71	495.86
681.05	492.85
681.39	489.68
681.73	486.57
682.06	483.74
682.40	480.80
682.74	477.87
683.08	474.94
683.42	472.02
683.75	469.13
684.09	466.12
684.43	463.34
684.77	460.51
685.10	457.75
685.44	455.12
685.78	452.47
686.12	449.88
686.45	447.20
686.79	444.55
687.13	442.00
687.46	439.45
687.80	437.02
688.14	434.43
688.48	432.04
688.81	429.51
689.15	426.92
689.49	424.40
689.82	422.00
690.16	419.51
690.50	417.19
690.83	414.91
691.17	412.67
691.51	410.38
691.84	408.21
692.18	406.01
692.52	403.71
692.85	401.47
693.19	399.34
693.52	397.21
693.86	395.11
694.20	393.01
694.53	390.97
694.87	388.79
695.21	386.70
695.54	384.54
695.88	382.52
696.21	380.56
696.55	378.59
696.88	376.59
697.22	374.69
697.56	372.79
697.89	370.87
698.23	368.98
698.56	367.15
698.90	365.33
699.23	363.44
699.57	361.65
699.90	359.86
700.24	358.08
700.58	356.31
700.91	354.57
701.25	352.88
701.58	351.28
701.92	349.69
702.25	348.14
702.59	346.59
702.92	345.01
703.26	343.51
703.59	342.03
703.93	340.69
704.26	339.28
704.60	337.82
704.93	336.35
705.26	334.90
705.60	333.55
705.93	332.20
706.27	330.99
706.60	329.75
706.94	328.49
707.27	327.16
707.61	325.94
707.94	324.74
708.27	323.47
708.61	322.24
708.94	321.09
709.28	319.92
709.61	318.83
709.94	317.76
710.28	316.55
710.61	315.39
710.95	314.13
711.28	313.04
711.61	311.92
711.95	310.86
712.28	309.80
712.61	308.66
712.95	307.50
713.28	306.43
713.61	305.38
713.95	304.38
714.28	303.39
714.61	302.44
714.95	301.44
715.28	300.48
715.61	299.45
715.95	298.43
716.28	297.46
716.61	296.49
716.95	295.52
717.28	294.67
717.61	293.82
717.94	292.94
718.28	292.03
718.61	291.20
718.94	290.41
719.27	289.63
719.61	288.89
719.94	288.17
720.27	287.35
720.60	286.54
720.94	285.83
721.27	285.18
721.60	284.46
721.93	283.75
722.27	283.06
722.60	282.37
722.93	281.73
723.26	281.11
723.59	280.46
723.93	279.84
724.26	279.18
724.59	278.51
724.92	277.91
725.25	277.35
725.59	276.72
725.92	276.12
726.25	275.52
726.58	274.91
726.91	274.35
727.24	273.81
727.57	273.26
727.91	272.65
728.24	272.06
728.57	271.48
728.90	270.98
729.23	270.45
729.56	269.99
729.89	269.42
730.22	268.82
730.55	268.27
730.89	267.76
731.22	267.23
731.55	266.74
731.88	266.23
732.21	265.71
732.54	265.19
732.87	264.71
733.20	264.24
733.53	263.76
733.86	263.31
734.19	262.84
734.52	262.43
734.85	262.07
735.18	261.59
735.51	261.17
735.84	260.71
736.17	260.24
736.50	259.78
736.83	259.45
737.16	259.08
737.49	258.68
737.82	258.24
738.15	257.87
738.48	257.49
738.81	257.09
739.14	256.71
739.47	256.36
739.80	255.95
740.13	255.61
740.46	255.21
740.79	254.84
741.12	254.47
741.45	254.05
741.78	253.63
742.11	253.35
742.44	252.97
742.77	252.69
743.10	252.36
743.43	252.01
743.75	251.61
744.08	251.44
744.41	251.10
744.74	250.79
745.07	250.48
745.40	250.21
745.73	249.94
746.06	249.62
746.39	249.33
746.71	249.06
747.04	248.75
747.37	248.52
747.70	248.28
748.03	247.99
748.36	247.78
748.68	247.53
749.01	247.26
749.34	246.99
749.67	246.69
750.00	246.45
750.33	246.27
750.65	246.06
750.98	245.68
751.31	245.46
751.64	245.24
751.97	245.06
752.29	244.77
752.62	244.52
752.95	244.31
753.28	244.08
753.60	243.82
753.93	243.59
754.26	243.33
754.59	243.03
754.91	242.84
755.24	242.57
755.57	242.35
755.90	242.11
756.22	241.92
756.55	241.73
756.88	241.51
757.20	241.25
757.53	241.02
757.86	240.83
758.19	240.66
758.51	240.46
758.84	240.21
759.17	240.00
759.49	239.83
759.82	239.68
760.15	239.52
760.47	239.37
760.80	239.15
761.13	239.03
761.45	238.87
761.78	238.65
762.11	238.50
762.43	238.32
762.76	238.16
763.08	237.97
763.41	237.81
763.74	237.68
764.06	237.51
764.39	237.36
764.71	237.23
765.04	237.03
765.37	236.89
765.69	236.75
766.02	236.61
766.34	236.45
766.67	236.25
767.00	236.09
767.32	235.98
767.65	235.93
767.97	235.76
768.30	235.63
768.62	235.52
768.95	235.39
769.27	235.23
769.60	235.13
769.92	235.02
770.25	234.85
770.57	234.71
770.90	234.58
771.22	234.46
771.55	234.31
771.87	234.21
772.20	234.06
772.52	234.03
772.85	234.03
773.17	233.92
773.50	233.83
773.82	233.71
774.15	233.56
774.47	233.40
774.80	233.31
775.12	233.19
775.45	233.12
775.77	233.01
776.09	232.93
776.42	232.81
776.74	232.74
777.07	232.63
777.39	232.51
777.72	232.41
778.04	232.31
778.36	232.23
778.69	232.16
779.01	232.08
779.33	231.93
779.66	231.76
779.98	231.67
780.31	231.58
780.63	231.56
780.95	231.50
781.28	231.42
781.60	231.35
781.92	231.27
782.25	231.18
782.57	231.13
782.89	231.05
783.22	231.01
783.54	230.92
783.86	230.87
784.19	230.79
784.51	230.78
784.83	230.70
785.16	230.64
785.48	230.57
785.80	230.52
786.12	230.46
786.45	230.40
