SpectraSuite Data File
++++++++++++++++++++++++++++++++++++
Date: Fri Feb 01 16:46:28 EST 2013
User: group
Dark Spectrum Present: No
Reference Spectrum Present: No
Number of Sampled Component Spectra: 1
Spectrometers: USB2E7196
Integration Time (usec): 35000 (USB2E7196)
Spectra Averaged: 100 (USB2E7196)
Boxcar Smoothing: 10 (USB2E7196)
Correct for Electrical Dark: No (USB2E7196)
Strobe/Lamp Enabled: No (USB2E7196)
Correct for Detector Non-linearity: No (USB2E7196)
Correct for Stray Light: No (USB2E7196)
Number of Pixels in Processed Spectrum: 2048
>>>>>Begin Processed Spectral Data<<<<<
339.09	0.00
339.48	212.79
339.86	214.97
340.24	216.57
340.63	217.66
341.01	220.41
341.39	220.48
341.78	221.01
342.16	222.82
342.54	223.25
342.93	211.67
343.31	222.37
343.69	222.92
344.07	223.38
344.46	223.79
344.84	224.16
345.22	224.38
345.60	224.60
345.99	224.80
346.37	224.90
346.75	225.00
347.13	225.05
347.52	225.11
347.90	225.19
348.28	225.23
348.66	225.27
349.05	225.27
349.43	225.28
349.81	225.34
350.19	225.36
350.57	225.42
350.96	225.48
351.34	225.54
351.72	225.63
352.10	225.71
352.48	225.74
352.87	225.80
353.25	225.88
353.63	225.95
354.01	226.00
354.39	226.07
354.77	226.16
355.15	226.27
355.54	226.33
355.92	226.39
356.30	226.44
356.68	226.57
357.06	226.64
357.44	226.73
357.82	226.77
358.20	226.85
358.58	226.92
358.97	226.96
359.35	227.09
359.73	227.16
360.11	227.23
360.49	227.32
360.87	227.35
361.25	227.41
361.63	227.50
362.01	227.58
362.39	227.64
362.77	227.68
363.15	227.72
363.53	227.74
363.91	227.77
364.29	227.81
364.67	227.78
365.05	227.81
365.43	227.84
365.81	227.88
366.19	227.91
366.57	227.95
366.95	227.97
367.33	227.91
367.71	227.93
368.09	227.95
368.47	227.95
368.85	227.93
369.23	227.93
369.61	227.88
369.99	227.91
370.37	227.90
370.75	227.94
371.13	227.86
371.51	227.82
371.89	227.79
372.27	227.73
372.65	227.66
373.03	227.62
373.41	227.55
373.78	227.51
374.16	227.44
374.54	227.36
374.92	227.28
375.30	227.23
375.68	227.13
376.06	227.08
376.44	227.01
376.82	226.96
377.19	226.91
377.57	226.80
377.95	226.68
378.33	226.58
378.71	226.47
379.09	226.46
379.47	226.44
379.84	226.35
380.22	226.27
380.60	226.19
380.98	226.12
381.36	226.07
381.73	225.97
382.11	225.90
382.49	225.83
382.87	225.77
383.25	225.74
383.62	225.80
384.00	225.73
384.38	225.65
384.76	225.63
385.13	225.58
385.51	225.57
385.89	225.49
386.27	225.51
386.64	225.45
387.02	225.35
387.40	225.26
387.78	225.22
388.15	225.19
388.53	225.16
388.91	225.13
389.29	225.10
389.66	225.08
390.04	225.06
390.42	225.08
390.79	225.04
391.17	225.00
391.55	224.88
391.92	224.85
392.30	224.88
392.68	224.85
393.05	224.85
393.43	224.83
393.81	224.86
394.18	224.81
394.56	224.80
394.94	224.83
395.31	224.87
395.69	224.93
396.06	225.02
396.44	225.05
396.82	225.08
397.19	225.14
397.57	225.15
397.95	225.20
398.32	225.23
398.70	225.30
399.07	225.35
399.45	225.37
399.82	225.43
400.20	225.44
400.58	225.54
400.95	225.54
401.33	225.64
401.70	225.79
402.08	225.86
402.45	225.96
402.83	226.09
403.20	226.19
403.58	226.26
403.95	226.31
404.33	226.44
404.71	226.57
405.08	226.76
405.46	226.90
405.83	227.04
406.21	227.18
406.58	227.32
406.96	227.47
407.33	227.66
407.70	227.86
408.08	228.14
408.45	228.31
408.83	228.56
409.20	228.75
409.58	228.90
409.95	229.18
410.33	229.43
410.70	229.65
411.08	229.94
411.45	230.24
411.82	230.57
412.20	230.90
412.57	231.32
412.95	231.59
413.32	232.03
413.69	232.40
414.07	232.83
414.44	233.31
414.82	233.79
415.19	234.33
415.56	234.88
415.94	235.42
416.31	236.07
416.68	236.67
417.06	237.37
417.43	238.04
417.81	238.79
418.18	239.60
418.55	240.44
418.93	241.33
419.30	242.21
419.67	243.15
420.04	244.06
420.42	245.02
420.79	246.21
421.16	247.32
421.54	248.52
421.91	249.71
422.28	250.97
422.66	252.30
423.03	253.63
423.40	254.95
423.77	256.38
424.15	257.80
424.52	259.30
424.89	260.92
425.26	262.48
425.64	263.89
426.01	265.48
426.38	267.15
426.75	268.79
427.13	270.52
427.50	272.31
427.87	274.20
428.24	276.04
428.61	277.71
428.99	279.64
429.36	281.74
429.73	283.79
430.10	285.79
430.47	287.84
430.85	289.89
431.22	292.09
431.59	294.42
431.96	296.67
432.33	299.10
432.70	301.43
433.08	304.20
433.45	306.83
433.82	309.38
434.19	312.19
434.56	314.96
434.93	317.56
435.30	320.15
435.68	322.98
436.05	325.78
436.42	328.59
436.79	331.07
437.16	333.67
437.53	336.45
437.90	339.23
438.27	341.97
438.64	344.75
439.01	347.32
439.38	349.52
439.75	351.62
440.13	354.10
440.50	356.46
440.87	358.31
441.24	360.21
441.61	362.36
441.98	363.84
442.35	365.66
442.72	367.49
443.09	369.31
443.46	370.28
443.83	370.89
444.20	371.41
444.57	372.23
444.94	372.53
445.31	372.85
445.68	373.20
446.05	373.24
446.42	372.91
446.79	372.48
447.16	372.06
447.53	371.78
447.90	370.65
448.27	369.47
448.64	367.91
449.01	366.83
449.37	364.91
449.74	363.07
450.11	360.81
450.48	358.38
450.85	355.81
451.22	353.72
451.59	351.70
451.96	349.75
452.33	347.19
452.70	344.93
453.07	342.20
453.43	339.35
453.80	336.63
454.17	333.96
454.54	331.51
454.91	328.83
455.28	326.16
455.65	323.70
456.02	321.28
456.38	319.14
456.75	316.47
457.12	314.25
457.49	312.04
457.86	309.91
458.23	308.07
458.59	306.08
458.96	304.05
459.33	302.25
459.70	300.41
460.07	298.91
460.43	297.19
460.80	295.51
461.17	294.06
461.54	292.60
461.91	291.21
462.27	289.75
462.64	288.53
463.01	287.22
463.38	285.92
463.74	284.56
464.11	283.44
464.48	282.41
464.85	281.28
465.21	280.44
465.58	279.54
465.95	278.44
466.32	277.58
466.68	276.70
467.05	275.78
467.42	274.95
467.78	274.04
468.15	273.22
468.52	272.58
468.88	271.75
469.25	271.01
469.62	270.37
469.98	269.68
470.35	269.02
470.72	268.42
471.08	267.82
471.45	267.28
471.82	266.74
472.18	266.18
472.55	265.76
472.92	265.24
473.28	264.77
473.65	264.36
474.02	263.95
474.38	263.56
474.75	263.29
475.11	262.95
475.48	262.68
475.85	262.44
476.21	262.24
476.58	262.06
476.94	261.91
477.31	261.76
477.67	261.67
478.04	261.57
478.41	261.51
478.77	261.58
479.14	261.56
479.50	261.59
479.87	261.71
480.23	261.83
480.60	261.89
480.96	262.01
481.33	262.22
481.69	262.44
482.06	262.64
482.42	262.85
482.79	263.13
483.15	263.46
483.52	263.85
483.88	264.21
484.25	264.62
484.61	265.06
484.98	265.49
485.34	266.04
485.71	266.66
486.07	267.29
486.44	267.83
486.80	268.51
487.17	269.21
487.53	270.01
487.90	270.84
488.26	271.81
488.62	272.80
488.99	273.82
489.35	274.83
489.72	275.96
490.08	277.15
490.44	278.41
490.81	279.78
491.17	281.14
491.54	282.65
491.90	284.18
492.26	285.81
492.63	287.53
492.99	289.32
493.36	291.20
493.72	293.28
494.08	295.39
494.45	297.66
494.81	300.07
495.17	302.46
495.54	305.03
495.90	307.67
496.26	310.51
496.63	313.47
496.99	316.61
497.35	319.85
497.72	323.17
498.08	326.67
498.44	330.27
498.80	334.20
499.17	338.21
499.53	342.36
499.89	346.71
500.26	351.24
500.62	355.91
500.98	360.88
501.34	365.94
501.71	371.25
502.07	376.65
502.43	382.27
502.79	388.11
503.16	394.19
503.52	400.49
503.88	406.80
504.24	413.43
504.60	420.28
504.97	427.45
505.33	434.88
505.69	442.58
506.05	450.41
506.41	458.25
506.78	466.35
507.14	474.79
507.50	483.53
507.86	492.54
508.22	501.73
508.59	510.92
508.95	520.48
509.31	530.31
509.67	540.40
510.03	550.64
510.39	561.11
510.75	571.86
511.12	582.74
511.48	594.03
511.84	605.51
512.20	616.97
512.56	628.88
512.92	640.98
513.28	653.28
513.64	665.68
514.00	678.36
514.37	691.26
514.73	704.27
515.09	717.19
515.45	730.51
515.81	743.97
516.17	757.84
516.53	771.81
516.89	785.90
517.25	799.96
517.61	814.25
517.97	828.75
518.33	843.07
518.69	857.73
519.05	872.72
519.41	887.72
519.77	903.14
520.13	918.40
520.49	933.65
520.85	948.93
521.21	964.45
521.57	980.59
521.93	996.27
522.29	1012.52
522.65	1028.64
523.01	1044.61
523.37	1060.46
523.73	1076.41
524.09	1092.35
524.45	1108.47
524.81	1124.99
525.17	1141.61
525.53	1158.26
525.89	1174.92
526.25	1191.63
526.61	1207.73
526.97	1224.28
527.33	1240.51
527.68	1256.93
528.04	1273.17
528.40	1289.49
528.76	1306.45
529.12	1322.86
529.48	1339.59
529.84	1355.41
530.20	1371.87
530.56	1388.65
530.91	1406.07
531.27	1422.76
531.63	1438.98
531.99	1455.32
532.35	1471.22
532.71	1487.01
533.07	1503.07
533.42	1518.80
533.78	1534.59
534.14	1550.71
534.50	1565.79
534.86	1581.47
535.21	1596.55
535.57	1612.31
535.93	1627.68
536.29	1642.27
536.65	1657.10
537.00	1671.62
537.36	1686.73
537.72	1701.06
538.08	1715.48
538.44	1728.89
538.79	1742.65
539.15	1756.11
539.51	1769.79
539.87	1783.79
540.22	1797.27
540.58	1810.88
540.94	1824.08
541.29	1836.75
541.65	1849.22
542.01	1862.34
542.37	1874.64
542.72	1886.85
543.08	1898.49
543.44	1910.80
543.79	1921.98
544.15	1932.80
544.51	1944.22
544.87	1954.96
545.22	1965.75
545.58	1975.87
545.94	1985.63
546.29	1995.22
546.65	2005.20
547.01	2014.40
547.36	2023.14
547.72	2031.53
548.07	2039.22
548.43	2047.19
548.79	2055.17
549.14	2062.71
549.50	2069.94
549.86	2077.46
550.21	2084.81
550.57	2091.94
550.92	2098.28
551.28	2105.21
551.64	2112.20
551.99	2118.71
552.35	2124.96
552.70	2130.99
553.06	2136.82
553.41	2143.04
553.77	2149.06
554.13	2154.92
554.48	2160.85
554.84	2166.26
555.19	2171.61
555.55	2176.78
555.90	2181.39
556.26	2186.22
556.61	2190.92
556.97	2195.39
557.32	2199.45
557.68	2203.51
558.03	2207.84
558.39	2211.68
558.74	2216.46
559.10	2220.40
559.45	2224.03
559.81	2228.20
560.16	2232.10
560.52	2235.40
560.87	2238.85
561.23	2241.45
561.58	2244.47
561.94	2247.08
562.29	2249.35
562.64	2252.04
563.00	2254.63
563.35	2258.20
563.71	2261.44
564.06	2264.59
564.42	2267.36
564.77	2270.15
565.12	2272.58
565.48	2274.55
565.83	2276.61
566.19	2277.83
566.54	2278.73
566.89	2279.99
567.25	2280.88
567.60	2282.04
567.96	2283.78
568.31	2284.66
568.66	2286.02
569.02	2286.59
569.37	2286.97
569.72	2288.05
570.08	2288.32
570.43	2288.45
570.78	2287.96
571.14	2286.63
571.49	2285.39
571.84	2285.17
572.20	2284.03
572.55	2283.06
572.90	2281.50
573.26	2280.15
573.61	2278.50
573.96	2277.01
574.31	2274.14
574.67	2271.16
575.02	2267.84
575.37	2264.50
575.72	2260.91
576.08	2257.62
576.43	2254.41
576.78	2250.93
577.13	2247.72
577.49	2244.74
577.84	2241.38
578.19	2237.62
578.54	2234.12
578.90	2230.12
579.25	2224.61
579.60	2219.85
579.95	2214.87
580.30	2210.08
580.66	2204.98
581.01	2200.17
581.36	2195.24
581.71	2191.23
582.06	2186.91
582.42	2182.56
582.77	2177.43
583.12	2173.03
583.47	2168.38
583.82	2163.60
584.17	2158.52
584.53	2153.21
584.88	2147.62
585.23	2141.99
585.58	2136.66
585.93	2131.15
586.28	2126.33
586.63	2121.47
586.98	2116.58
587.34	2112.07
587.69	2107.15
588.04	2101.95
588.39	2096.40
588.74	2090.00
589.09	2083.92
589.44	2077.17
589.79	2071.15
590.14	2065.75
590.49	2059.11
590.84	2052.71
591.19	2046.69
591.54	2040.32
591.89	2033.07
592.25	2026.38
592.60	2019.26
592.95	2011.80
593.30	2004.52
593.65	1997.08
594.00	1990.05
594.35	1982.71
594.70	1974.59
595.05	1967.52
595.40	1960.24
595.75	1952.79
596.10	1946.73
596.45	1940.12
596.80	1933.97
597.15	1927.48
597.50	1920.50
597.85	1914.12
598.19	1907.67
598.54	1900.78
598.89	1894.03
599.24	1888.16
599.59	1881.67
599.94	1875.56
600.29	1869.37
600.64	1862.89
600.99	1855.60
601.34	1849.00
601.69	1842.08
602.04	1835.29
602.39	1827.95
602.74	1821.26
603.08	1814.66
603.43	1807.82
603.78	1800.42
604.13	1793.43
604.48	1786.13
604.83	1779.26
605.18	1772.48
605.53	1764.70
605.87	1756.70
606.22	1749.68
606.57	1741.80
606.92	1734.31
607.27	1727.33
607.62	1720.45
607.96	1713.31
608.31	1706.77
608.66	1699.20
609.01	1691.78
609.36	1684.38
609.70	1676.53
610.05	1668.67
610.40	1661.04
610.75	1652.97
611.10	1645.41
611.44	1636.98
611.79	1629.12
612.14	1620.36
612.49	1611.21
612.83	1602.74
613.18	1594.68
613.53	1586.55
613.88	1578.16
614.22	1570.00
614.57	1561.30
614.92	1553.20
615.27	1545.65
615.61	1537.35
615.96	1529.22
616.31	1521.44
616.65	1514.11
617.00	1506.53
617.35	1498.81
617.70	1490.46
618.04	1481.89
618.39	1473.69
618.74	1466.23
619.08	1457.98
619.43	1450.48
619.78	1443.59
620.12	1436.51
620.47	1428.97
620.82	1420.85
621.16	1413.29
621.51	1405.70
621.85	1398.10
622.20	1389.61
622.55	1381.27
622.89	1373.40
623.24	1365.74
623.59	1358.40
623.93	1350.84
624.28	1343.69
624.62	1336.21
624.97	1329.08
625.32	1322.28
625.66	1315.37
626.01	1308.13
626.35	1300.70
626.70	1292.96
627.04	1285.29
627.39	1277.46
627.73	1270.05
628.08	1263.10
628.43	1255.99
628.77	1248.73
629.12	1241.20
629.46	1234.10
629.81	1226.65
630.15	1219.46
630.50	1212.08
630.84	1203.98
631.19	1195.99
631.53	1188.40
631.88	1180.90
632.22	1173.29
632.57	1166.08
632.91	1158.47
633.26	1151.14
633.60	1143.79
633.95	1136.66
634.29	1129.55
634.64	1122.85
634.98	1115.56
635.32	1108.49
635.67	1101.80
636.01	1095.14
636.36	1088.34
636.70	1081.79
637.05	1075.18
637.39	1068.71
637.73	1062.26
638.08	1056.39
638.42	1050.40
638.77	1043.97
639.11	1037.34
639.45	1030.92
639.80	1024.22
640.14	1017.83
640.49	1011.25
640.83	1004.81
641.17	998.59
641.52	992.27
641.86	985.79
642.20	979.88
642.55	973.56
642.89	967.10
643.23	960.45
643.58	954.73
643.92	948.54
644.26	942.58
644.61	936.49
644.95	930.46
645.29	923.90
645.64	917.25
645.98	910.91
646.32	905.05
646.66	898.98
647.01	893.26
647.35	887.50
647.69	881.60
648.04	876.11
648.38	870.31
648.72	864.43
649.06	858.48
649.41	852.56
649.75	846.57
650.09	840.62
650.43	834.90
650.78	828.73
651.12	822.85
651.46	817.12
651.80	811.42
652.14	806.06
652.49	800.73
652.83	795.48
653.17	789.91
653.51	784.17
653.85	778.78
654.20	773.17
654.54	767.22
654.88	761.50
655.22	755.63
655.56	750.00
655.90	744.44
656.25	739.17
656.59	733.86
656.93	728.81
657.27	723.66
657.61	718.20
657.95	713.07
658.29	707.95
658.64	702.66
658.98	697.39
659.32	691.95
659.66	686.73
660.00	681.57
660.34	676.65
660.68	671.72
661.02	666.69
661.36	661.91
661.70	657.43
662.05	653.11
662.39	648.85
662.73	644.32
663.07	639.99
663.41	635.57
663.75	631.11
664.09	626.51
664.43	622.19
664.77	618.11
665.11	613.90
665.45	609.73
665.79	605.70
666.13	601.52
666.47	597.42
666.81	593.29
667.15	589.13
667.49	585.21
667.83	581.43
668.17	577.50
668.51	573.43
668.85	569.38
669.19	565.48
669.53	561.66
669.87	557.89
670.21	554.18
670.55	550.56
670.89	547.11
671.23	543.70
671.57	540.09
671.91	536.58
672.25	533.05
672.58	529.60
672.92	526.11
673.26	522.94
673.60	519.78
673.94	516.63
674.28	513.69
674.62	510.64
674.96	507.52
675.30	504.62
675.64	501.74
675.97	498.99
676.31	496.11
676.65	493.14
676.99	490.40
677.33	487.51
677.67	484.68
678.01	481.73
678.34	478.77
678.68	475.97
679.02	473.12
679.36	470.39
679.70	467.65
680.04	464.93
680.37	462.08
680.71	459.24
681.05	456.61
681.39	453.87
681.73	451.23
682.06	448.73
682.40	446.18
682.74	443.64
683.08	441.04
683.42	438.45
683.75	435.96
684.09	433.37
684.43	430.93
684.77	428.45
685.10	426.03
685.44	423.68
685.78	421.36
686.12	419.09
686.45	416.75
686.79	414.44
687.13	412.21
687.46	410.08
687.80	407.95
688.14	405.71
688.48	403.71
688.81	401.50
689.15	399.36
689.49	397.23
689.82	395.18
690.16	393.10
690.50	391.18
690.83	389.21
691.17	387.24
691.51	385.30
691.84	383.47
692.18	381.55
692.52	379.62
692.85	377.67
693.19	375.82
693.52	373.99
693.86	372.14
694.20	370.38
694.53	368.63
694.87	366.79
695.21	365.07
695.54	363.22
695.88	361.51
696.21	359.76
696.55	358.10
696.88	356.36
697.22	354.69
697.56	353.05
697.89	351.43
698.23	349.81
698.56	348.21
698.90	346.62
699.23	345.03
699.57	343.47
699.90	341.99
700.24	340.46
700.58	338.96
700.91	337.51
701.25	336.03
701.58	334.63
701.92	333.26
702.25	331.85
702.59	330.52
702.92	329.11
703.26	327.79
703.59	326.48
703.93	325.28
704.26	324.09
704.60	322.78
704.93	321.50
705.26	320.28
705.60	319.11
705.93	317.93
706.27	316.86
706.60	315.80
706.94	314.66
707.27	313.53
707.61	312.45
707.94	311.41
708.27	310.37
708.61	309.27
708.94	308.25
709.28	307.28
709.61	306.23
709.94	305.34
710.28	304.37
710.61	303.37
710.95	302.32
711.28	301.38
711.61	300.45
711.95	299.53
712.28	298.57
712.61	297.57
712.95	296.61
713.28	295.69
713.61	294.84
713.95	293.96
714.28	293.12
714.61	292.25
714.95	291.40
715.28	290.57
715.61	289.72
715.95	288.88
716.28	288.01
716.61	287.21
716.95	286.36
717.28	285.58
717.61	284.83
717.94	284.09
718.28	283.28
718.61	282.55
718.94	281.88
719.27	281.22
719.61	280.58
719.94	279.95
720.27	279.27
720.60	278.60
720.94	277.95
721.27	277.34
721.60	276.79
721.93	276.17
722.27	275.61
722.60	275.05
722.93	274.46
723.26	273.94
723.59	273.44
723.93	272.92
724.26	272.37
724.59	271.80
724.92	271.24
725.25	270.75
725.59	270.24
725.92	269.73
726.25	269.21
726.58	268.74
726.91	268.21
727.24	267.69
727.57	267.19
727.91	266.74
728.24	266.26
728.57	265.77
728.90	265.38
729.23	264.85
729.56	264.40
729.89	263.94
730.22	263.46
730.55	262.96
730.89	262.51
731.22	262.04
731.55	261.61
731.88	261.23
732.21	260.78
732.54	260.35
732.87	259.91
733.20	259.51
733.53	259.09
733.86	258.74
734.19	258.37
734.52	257.98
734.85	257.69
735.18	257.29
735.51	256.93
735.84	256.55
736.17	256.24
736.50	255.85
736.83	255.63
737.16	255.29
737.49	254.94
737.82	254.56
738.15	254.25
738.48	253.92
738.81	253.55
739.14	253.27
739.47	252.95
739.80	252.66
740.13	252.37
740.46	252.06
740.79	251.75
741.12	251.47
741.45	251.15
741.78	250.78
742.11	250.48
742.44	250.13
742.77	249.80
743.10	249.49
743.43	249.20
743.75	248.82
744.08	248.69
744.41	248.43
744.74	248.16
745.07	247.88
745.40	247.64
745.73	247.48
746.06	247.14
746.39	246.84
746.71	246.57
747.04	246.29
747.37	246.03
747.70	245.79
748.03	245.52
748.36	245.32
748.68	245.07
749.01	244.83
749.34	244.59
749.67	244.38
750.00	244.14
750.33	243.97
750.65	243.74
750.98	243.39
751.31	243.15
751.64	242.97
751.97	242.81
752.29	242.59
752.62	242.30
752.95	242.14
753.28	241.95
753.60	241.75
753.93	241.56
754.26	241.36
754.59	241.14
754.91	240.93
755.24	240.71
755.57	240.49
755.90	240.29
756.22	240.15
756.55	239.93
756.88	239.76
757.20	239.50
757.53	239.29
757.86	239.14
758.19	238.99
758.51	238.82
758.84	238.60
759.17	238.44
759.49	238.29
759.82	238.16
760.15	238.02
760.47	237.85
760.80	237.70
761.13	237.56
761.45	237.38
761.78	237.23
762.11	237.07
762.43	236.94
762.76	236.81
763.08	236.66
763.41	236.56
763.74	236.40
764.06	236.28
764.39	236.15
764.71	235.98
765.04	235.81
765.37	235.67
765.69	235.50
766.02	235.38
766.34	235.23
766.67	235.05
767.00	234.92
767.32	234.85
767.65	234.78
767.97	234.64
768.30	234.55
768.62	234.42
768.95	234.31
769.27	234.22
769.60	234.09
769.92	233.93
770.25	233.78
770.57	233.69
770.90	233.57
771.22	233.46
771.55	233.37
771.87	233.28
772.20	233.19
772.52	233.22
772.85	233.22
773.17	233.11
773.50	233.04
773.82	232.94
774.15	232.78
774.47	232.63
774.80	232.55
775.12	232.45
775.45	232.37
775.77	232.30
776.09	232.21
776.42	232.15
776.74	232.11
777.07	232.03
777.39	231.95
777.72	231.84
778.04	231.75
778.36	231.68
778.69	231.61
779.01	231.54
779.33	231.38
779.66	231.18
779.98	231.15
780.31	231.08
780.63	231.05
780.95	231.04
781.28	231.00
781.60	230.90
781.92	230.81
782.25	230.75
782.57	230.67
782.89	230.62
783.22	230.57
783.54	230.52
783.86	230.44
784.19	230.37
784.51	230.40
784.83	230.37
785.16	230.30
785.48	230.27
785.80	230.24
786.12	230.20
786.45	230.14
786.77	230.07
787.09	230.01
