SpectraSuite Data File
++++++++++++++++++++++++++++++++++++
Date: Fri Feb 01 15:33:56 EST 2013
User: group
Dark Spectrum Present: No
Reference Spectrum Present: No
Number of Sampled Component Spectra: 1
Spectrometers: USB2E7196
Integration Time (usec): 35000 (USB2E7196)
Spectra Averaged: 100 (USB2E7196)
Boxcar Smoothing: 10 (USB2E7196)
Correct for Electrical Dark: No (USB2E7196)
Strobe/Lamp Enabled: No (USB2E7196)
Correct for Detector Non-linearity: No (USB2E7196)
Correct for Stray Light: No (USB2E7196)
Number of Pixels in Processed Spectrum: 2048
>>>>>Begin Processed Spectral Data<<<<<
339.09	0.00
339.48	214.79
339.86	216.41
340.24	218.13
340.63	219.42
341.01	221.70
341.39	222.40
341.78	223.25
342.16	224.71
342.54	225.32
342.93	213.39
343.31	224.16
343.69	224.71
344.07	225.16
344.46	225.57
344.84	225.92
345.22	226.14
345.60	226.39
345.99	226.57
346.37	226.68
346.75	226.76
347.13	226.82
347.52	226.87
347.90	226.95
348.28	226.96
348.66	227.01
349.05	227.01
349.43	227.06
349.81	227.10
350.19	227.13
350.57	227.17
350.96	227.23
351.34	227.33
351.72	227.43
352.10	227.55
352.48	227.63
352.87	227.69
353.25	227.78
353.63	227.81
354.01	227.85
354.39	227.93
354.77	228.02
355.15	228.12
355.54	228.19
355.92	228.23
356.30	228.33
356.68	228.46
357.06	228.54
357.44	228.59
357.82	228.63
358.20	228.69
358.58	228.77
358.97	228.81
359.35	228.90
359.73	228.93
360.11	228.98
360.49	229.03
360.87	229.09
361.25	229.12
361.63	229.19
362.01	229.26
362.39	229.27
362.77	229.31
363.15	229.31
363.53	229.33
363.91	229.36
364.29	229.36
364.67	229.26
365.05	229.26
365.43	229.29
365.81	229.29
366.19	229.34
366.57	229.38
366.95	229.39
367.33	229.33
367.71	229.34
368.09	229.32
368.47	229.27
368.85	229.23
369.23	229.23
369.61	229.16
369.99	229.16
370.37	229.15
370.75	229.15
371.13	229.08
371.51	229.04
371.89	228.97
372.27	228.88
372.65	228.87
373.03	228.78
373.41	228.71
373.78	228.62
374.16	228.49
374.54	228.37
374.92	228.29
375.30	228.21
375.68	228.11
376.06	228.06
376.44	228.01
376.82	227.95
377.19	227.87
377.57	227.82
377.95	227.69
378.33	227.60
378.71	227.47
379.09	227.42
379.47	227.32
379.84	227.27
380.22	227.22
380.60	227.14
380.98	227.09
381.36	227.01
381.73	226.96
382.11	226.96
382.49	226.90
382.87	226.87
383.25	226.82
383.62	226.87
384.00	226.79
384.38	226.72
384.76	226.69
385.13	226.69
385.51	226.64
385.89	226.58
386.27	226.56
386.64	226.55
387.02	226.50
387.40	226.45
387.78	226.44
388.15	226.44
388.53	226.41
388.91	226.38
389.29	226.35
389.66	226.32
390.04	226.28
390.42	226.30
390.79	226.28
391.17	226.26
391.55	226.17
391.92	226.18
392.30	226.20
392.68	226.19
393.05	226.19
393.43	226.19
393.81	226.24
394.18	226.22
394.56	226.22
394.94	226.28
395.31	226.31
395.69	226.36
396.06	226.36
396.44	226.40
396.82	226.45
397.19	226.58
397.57	226.65
397.95	226.72
398.32	226.76
398.70	226.83
399.07	226.90
399.45	226.94
399.82	227.01
400.20	227.08
400.58	227.17
400.95	227.22
401.33	227.35
401.70	227.49
402.08	227.58
402.45	227.69
402.83	227.80
403.20	227.92
403.58	228.00
403.95	228.16
404.33	228.28
404.71	228.43
405.08	228.59
405.46	228.75
405.83	228.93
406.21	229.05
406.58	229.23
406.96	229.42
407.33	229.59
407.70	229.77
408.08	230.06
408.45	230.27
408.83	230.49
409.20	230.66
409.58	230.84
409.95	231.12
410.33	231.38
410.70	231.62
411.08	231.91
411.45	232.24
411.82	232.53
412.20	232.90
412.57	233.30
412.95	233.58
413.32	233.94
413.69	234.32
414.07	234.76
414.44	235.17
414.82	235.66
415.19	236.21
415.56	236.77
415.94	237.26
416.31	237.93
416.68	238.55
417.06	239.29
417.43	240.00
417.81	240.74
418.18	241.54
418.55	242.42
418.93	243.31
419.30	244.20
419.67	245.15
420.04	246.08
420.42	247.08
420.79	248.28
421.16	249.46
421.54	250.67
421.91	251.87
422.28	253.18
422.66	254.51
423.03	255.82
423.40	257.16
423.77	258.58
424.15	260.00
424.52	261.50
424.89	263.09
425.26	264.60
425.64	266.06
426.01	267.63
426.38	269.26
426.75	270.93
427.13	272.65
427.50	274.47
427.87	276.34
428.24	278.20
428.61	279.93
428.99	281.87
429.36	283.94
429.73	286.05
430.10	288.07
430.47	290.10
430.85	292.25
431.22	294.47
431.59	296.87
431.96	299.11
432.33	301.61
432.70	304.03
433.08	306.92
433.45	309.59
433.82	312.22
434.19	315.14
434.56	317.98
434.93	320.66
435.30	323.25
435.68	326.18
436.05	329.01
436.42	331.87
436.79	334.34
437.16	337.03
437.53	339.87
437.90	342.68
438.27	345.43
438.64	348.24
439.01	350.87
439.38	353.13
439.75	355.30
440.13	357.81
440.50	360.11
440.87	361.89
441.24	363.83
441.61	365.95
441.98	367.43
442.35	369.16
442.72	371.02
443.09	372.88
443.46	373.85
443.83	374.43
444.20	374.87
444.57	375.76
444.94	376.07
445.31	376.38
445.68	376.71
446.05	376.81
446.42	376.42
446.79	376.00
447.16	375.52
447.53	375.19
447.90	374.00
448.27	372.85
448.64	371.25
449.01	370.09
449.37	368.13
449.74	366.22
450.11	364.02
450.48	361.52
450.85	358.93
451.22	356.78
451.59	354.76
451.96	352.83
452.33	350.19
452.70	347.77
453.07	344.94
453.43	342.08
453.80	339.26
454.17	336.60
454.54	334.03
454.91	331.31
455.28	328.65
455.65	326.15
456.02	323.70
456.38	321.56
456.75	318.89
457.12	316.63
457.49	314.46
457.86	312.24
458.23	310.36
458.59	308.28
458.96	306.17
459.33	304.32
459.70	302.41
460.07	300.94
460.43	299.26
460.80	297.67
461.17	296.21
461.54	294.70
461.91	293.28
462.27	291.78
462.64	290.54
463.01	289.17
463.38	287.85
463.74	286.49
464.11	285.34
464.48	284.32
464.85	283.22
465.21	282.27
465.58	281.36
465.95	280.28
466.32	279.42
466.68	278.54
467.05	277.64
467.42	276.76
467.78	275.80
468.15	274.91
468.52	274.24
468.88	273.38
469.25	272.63
469.62	272.00
469.98	271.39
470.35	270.72
470.72	270.12
471.08	269.48
471.45	268.91
471.82	268.34
472.18	267.73
472.55	267.25
472.92	266.73
473.28	266.30
473.65	265.81
474.02	265.38
474.38	265.02
474.75	264.68
475.11	264.35
475.48	264.05
475.85	263.80
476.21	263.55
476.58	263.36
476.94	263.21
477.31	263.02
477.67	262.83
478.04	262.75
478.41	262.70
478.77	262.74
479.14	262.71
479.50	262.75
479.87	262.87
480.23	262.97
480.60	263.07
480.96	263.14
481.33	263.37
481.69	263.57
482.06	263.79
482.42	264.01
482.79	264.27
483.15	264.62
483.52	265.05
483.88	265.38
484.25	265.82
484.61	266.23
484.98	266.70
485.34	267.28
485.71	267.87
486.07	268.47
486.44	269.06
486.80	269.78
487.17	270.48
487.53	271.27
487.90	272.16
488.26	273.10
488.62	274.13
488.99	275.08
489.35	276.14
489.72	277.24
490.08	278.45
490.44	279.70
490.81	281.02
491.17	282.34
491.54	283.85
491.90	285.35
492.26	287.03
492.63	288.76
492.99	290.54
493.36	292.45
493.72	294.51
494.08	296.61
494.45	298.86
494.81	301.23
495.17	303.69
495.54	306.22
495.90	308.90
496.26	311.65
496.63	314.61
496.99	317.70
497.35	320.96
497.72	324.37
498.08	327.88
498.44	331.58
498.80	335.52
499.17	339.54
499.53	343.72
499.89	348.12
500.26	352.62
500.62	357.28
500.98	362.23
501.34	367.28
501.71	372.61
502.07	378.03
502.43	383.63
502.79	389.42
503.16	395.48
503.52	401.76
503.88	408.16
504.24	414.83
504.60	421.71
504.97	428.83
505.33	436.11
505.69	443.81
506.05	451.59
506.41	459.47
506.78	467.65
507.14	476.12
507.50	484.79
507.86	493.81
508.22	502.98
508.59	512.17
508.95	521.81
509.31	531.55
509.67	541.64
510.03	552.03
510.39	562.61
510.75	573.47
511.12	584.43
511.48	595.75
511.84	607.21
512.20	618.74
512.56	630.67
512.92	642.89
513.28	655.21
513.64	667.69
514.00	680.33
514.37	693.25
514.73	706.37
515.09	719.41
515.45	732.70
515.81	746.33
516.17	760.32
516.53	774.41
516.89	788.62
517.25	802.77
517.61	817.11
517.97	831.61
518.33	845.97
518.69	860.67
519.05	875.70
519.41	890.88
519.77	906.48
520.13	921.94
520.49	937.37
520.85	952.86
521.21	968.69
521.57	984.93
521.93	1000.74
522.29	1017.12
522.65	1033.45
523.01	1049.67
523.37	1065.75
523.73	1081.92
524.09	1097.97
524.45	1114.32
524.81	1131.06
525.17	1148.00
525.53	1164.93
525.89	1181.90
526.25	1198.90
526.61	1215.37
526.97	1232.10
527.33	1248.66
527.68	1265.44
528.04	1281.85
528.40	1298.49
528.76	1315.53
529.12	1332.15
529.48	1349.12
529.84	1365.09
530.20	1381.81
530.56	1398.96
530.91	1416.50
531.27	1433.29
531.63	1449.87
531.99	1466.61
532.35	1482.64
532.71	1498.50
533.07	1514.82
533.42	1530.74
533.78	1546.80
534.14	1563.07
534.50	1578.59
534.86	1594.54
535.21	1609.72
535.57	1625.75
535.93	1641.36
536.29	1656.15
536.65	1671.24
537.00	1686.08
537.36	1701.37
537.72	1715.91
538.08	1730.38
538.44	1744.19
538.79	1758.11
539.15	1771.94
539.51	1785.50
539.87	1799.91
540.22	1813.72
540.58	1827.43
540.94	1840.82
541.29	1853.71
541.65	1866.44
542.01	1879.63
542.37	1891.83
542.72	1904.25
543.08	1916.06
543.44	1928.43
543.79	1939.85
544.15	1951.01
544.51	1962.46
544.87	1973.54
545.22	1984.41
545.58	1994.61
545.94	2004.42
546.29	2014.35
546.65	2024.10
547.01	2033.54
547.36	2042.28
547.72	2050.79
548.07	2058.74
548.43	2066.86
548.79	2075.02
549.14	2082.62
549.50	2089.90
549.86	2097.64
550.21	2104.96
550.57	2112.24
550.92	2118.82
551.28	2125.83
551.64	2132.88
551.99	2139.56
552.35	2145.88
552.70	2151.88
553.06	2157.76
553.41	2164.05
553.77	2170.20
554.13	2176.37
554.48	2182.44
554.84	2187.80
555.19	2193.05
555.55	2198.02
555.90	2202.51
556.26	2207.31
556.61	2211.97
556.97	2216.22
557.32	2220.39
557.68	2224.52
558.03	2228.64
558.39	2232.41
558.74	2237.07
559.10	2241.09
559.45	2244.76
559.81	2249.01
560.16	2252.87
560.52	2256.11
560.87	2259.58
561.23	2262.07
561.58	2264.97
561.94	2267.58
562.29	2270.05
562.64	2272.77
563.00	2275.53
563.35	2279.26
563.71	2282.38
564.06	2285.65
564.42	2288.63
564.77	2291.10
565.12	2293.47
565.48	2295.45
565.83	2297.27
566.19	2298.46
566.54	2299.33
566.89	2300.43
567.25	2300.88
567.60	2302.24
567.96	2303.98
568.31	2304.73
568.66	2305.91
569.02	2306.53
569.37	2306.83
569.72	2307.56
570.08	2307.55
570.43	2307.54
570.78	2306.81
571.14	2305.18
571.49	2303.78
571.84	2303.31
572.20	2301.98
572.55	2300.86
572.90	2299.36
573.26	2297.82
573.61	2296.18
573.96	2294.31
574.31	2291.33
574.67	2288.31
575.02	2284.72
575.37	2281.34
575.72	2277.54
576.08	2274.22
576.43	2270.89
576.78	2267.07
577.13	2263.93
577.49	2260.93
577.84	2257.35
578.19	2253.57
578.54	2249.96
578.90	2245.63
579.25	2240.10
579.60	2235.24
579.95	2230.03
580.30	2224.94
580.66	2219.82
581.01	2214.81
581.36	2209.75
581.71	2205.39
582.06	2200.81
582.42	2196.21
582.77	2190.83
583.12	2186.11
583.47	2181.03
583.82	2175.83
584.17	2170.48
584.53	2164.93
584.88	2159.13
585.23	2153.35
585.58	2147.81
585.93	2142.28
586.28	2137.51
586.63	2132.28
586.98	2127.14
587.34	2122.46
587.69	2117.52
588.04	2112.17
588.39	2106.31
588.74	2099.80
589.09	2093.64
589.44	2086.90
589.79	2080.79
590.14	2075.15
590.49	2068.61
590.84	2062.44
591.19	2056.51
591.54	2050.10
591.89	2042.59
592.25	2035.91
592.60	2028.66
592.95	2021.00
593.30	2013.48
593.65	2005.82
594.00	1998.89
594.35	1991.69
594.70	1983.62
595.05	1976.17
595.40	1968.81
595.75	1961.28
596.10	1954.99
596.45	1948.27
596.80	1942.11
597.15	1935.49
597.50	1928.22
597.85	1921.85
598.19	1915.06
598.54	1907.87
598.89	1901.24
599.24	1895.34
599.59	1888.44
599.94	1882.21
600.29	1875.97
600.64	1869.37
600.99	1861.83
601.34	1854.91
601.69	1847.82
602.04	1840.89
602.39	1833.50
602.74	1826.73
603.08	1820.01
603.43	1813.30
603.78	1805.96
604.13	1798.75
604.48	1791.29
604.83	1784.56
605.18	1777.36
605.53	1769.31
605.87	1761.16
606.22	1753.89
606.57	1745.86
606.92	1738.52
607.27	1731.21
607.62	1724.18
607.96	1716.92
608.31	1710.30
608.66	1702.58
609.01	1694.91
609.36	1687.39
609.70	1679.52
610.05	1671.31
610.40	1663.58
610.75	1655.15
611.10	1647.43
611.44	1638.91
611.79	1630.97
612.14	1622.22
612.49	1613.21
612.83	1604.93
613.18	1596.77
613.53	1588.57
613.88	1580.11
614.22	1571.75
614.57	1563.14
614.92	1554.98
615.27	1547.35
615.61	1539.05
615.96	1531.16
616.31	1523.74
616.65	1516.26
617.00	1508.62
617.35	1500.93
617.70	1492.49
618.04	1484.08
618.39	1475.76
618.74	1468.22
619.08	1459.89
619.43	1452.37
619.78	1445.42
620.12	1438.13
620.47	1430.72
620.82	1422.69
621.16	1415.25
621.51	1407.75
621.85	1400.14
622.20	1391.59
622.55	1383.20
622.89	1375.39
623.24	1367.77
623.59	1360.25
623.93	1352.78
624.28	1345.49
624.62	1338.09
624.97	1331.03
625.32	1324.27
625.66	1317.28
626.01	1309.91
626.35	1302.48
626.70	1294.65
627.04	1286.76
627.39	1279.09
627.73	1271.65
628.08	1264.63
628.43	1257.31
628.77	1249.98
629.12	1242.42
629.46	1235.31
629.81	1228.03
630.15	1220.70
630.50	1213.24
630.84	1205.02
631.19	1197.07
631.53	1189.68
631.88	1182.11
632.22	1174.39
632.57	1167.10
632.91	1159.53
633.26	1152.19
633.60	1144.86
633.95	1137.85
634.29	1130.82
634.64	1124.03
634.98	1116.63
635.32	1109.44
635.67	1102.90
636.01	1096.19
636.36	1089.41
636.70	1082.94
637.05	1076.34
637.39	1069.87
637.73	1063.32
638.08	1057.46
638.42	1051.51
638.77	1045.04
639.11	1038.39
639.45	1032.03
639.80	1025.28
640.14	1018.88
640.49	1012.45
640.83	1006.20
641.17	999.87
641.52	993.58
641.86	987.24
642.20	981.45
642.55	975.19
642.89	968.68
643.23	962.19
643.58	956.43
643.92	950.19
644.26	944.09
644.61	938.17
644.95	932.17
645.29	925.51
645.64	918.81
645.98	912.56
646.32	906.70
646.66	900.70
647.01	894.90
647.35	889.24
647.69	883.34
648.04	877.84
648.38	872.07
648.72	866.07
649.06	859.96
649.41	854.05
649.75	848.02
650.09	842.07
650.43	836.28
650.78	830.20
651.12	824.31
651.46	818.62
651.80	812.75
652.14	807.36
652.49	802.02
652.83	796.81
653.17	790.98
653.51	785.31
653.85	780.01
654.20	774.43
654.54	768.32
654.88	762.62
655.22	756.68
655.56	751.00
655.90	745.57
656.25	740.32
656.59	734.94
656.93	729.94
657.27	724.77
657.61	719.26
657.95	714.05
658.29	708.86
658.64	703.63
658.98	698.36
659.32	692.87
659.66	687.74
660.00	682.41
660.34	677.49
660.68	672.56
661.02	667.44
661.36	662.75
661.70	658.31
662.05	653.89
662.39	649.53
662.73	645.03
663.07	640.60
663.41	636.16
663.75	631.67
664.09	627.08
664.43	622.68
664.77	618.60
665.11	614.38
665.45	610.35
665.79	606.24
666.13	602.12
666.47	598.04
666.81	593.88
667.15	589.74
667.49	585.86
667.83	582.10
668.17	578.18
668.51	574.04
668.85	570.06
669.19	566.26
669.53	562.46
669.87	558.61
670.21	554.97
670.55	551.32
670.89	547.91
671.23	544.50
671.57	540.98
671.91	537.51
672.25	533.99
672.58	530.42
672.92	527.03
673.26	523.84
673.60	520.69
673.94	517.52
674.28	514.63
674.62	511.66
674.96	508.51
675.30	505.60
675.64	502.71
675.97	499.96
676.31	497.08
676.65	494.14
676.99	491.46
677.33	488.59
677.67	485.81
678.01	482.77
678.34	479.77
678.68	476.90
679.02	474.01
679.36	471.32
679.70	468.66
680.04	465.92
680.37	463.06
680.71	460.32
681.05	457.71
681.39	455.00
681.73	452.37
682.06	449.83
682.40	447.29
682.74	444.78
683.08	442.19
683.42	439.58
683.75	437.07
684.09	434.50
684.43	432.00
684.77	429.52
685.10	427.21
685.44	424.89
685.78	422.65
686.12	420.44
686.45	418.14
686.79	415.81
687.13	413.62
687.46	411.45
687.80	409.29
688.14	407.11
688.48	405.03
688.81	402.81
689.15	400.65
689.49	398.47
689.82	396.40
690.16	394.35
690.50	392.42
690.83	390.49
691.17	388.48
691.51	386.63
691.84	384.85
692.18	382.89
692.52	380.98
692.85	379.07
693.19	377.18
693.52	375.33
693.86	373.57
694.20	371.78
694.53	370.02
694.87	368.16
695.21	366.40
695.54	364.63
695.88	362.89
696.21	361.21
696.55	359.56
696.88	357.84
697.22	356.20
697.56	354.59
697.89	352.95
698.23	351.39
698.56	349.81
698.90	348.18
699.23	346.50
699.57	344.94
699.90	343.40
700.24	341.85
700.58	340.34
700.91	338.78
701.25	337.30
701.58	335.91
701.92	334.53
702.25	333.14
702.59	331.78
702.92	330.47
703.26	329.14
703.59	327.84
703.93	326.66
704.26	325.41
704.60	324.06
704.93	322.82
705.26	321.59
705.60	320.38
705.93	319.25
706.27	318.24
706.60	317.15
706.94	316.05
707.27	314.92
707.61	313.87
707.94	312.88
708.27	311.86
708.61	310.77
708.94	309.78
709.28	308.83
709.61	307.85
709.94	306.86
710.28	305.87
710.61	304.92
710.95	303.84
711.28	302.88
711.61	301.97
711.95	301.01
712.28	300.06
712.61	299.06
712.95	298.11
713.28	297.21
713.61	296.29
713.95	295.39
714.28	294.57
714.61	293.66
714.95	292.81
715.28	291.94
715.61	291.06
715.95	290.21
716.28	289.29
716.61	288.48
716.95	287.69
717.28	286.93
717.61	286.16
717.94	285.49
718.28	284.70
718.61	284.00
718.94	283.28
719.27	282.62
719.61	281.97
719.94	281.31
720.27	280.59
720.60	279.95
720.94	279.34
721.27	278.72
721.60	278.13
721.93	277.53
722.27	276.97
722.60	276.48
722.93	275.89
723.26	275.38
723.59	274.80
723.93	274.22
724.26	273.64
724.59	273.08
724.92	272.52
725.25	272.03
725.59	271.46
725.92	270.96
726.25	270.43
726.58	269.97
726.91	269.44
727.24	269.00
727.57	268.55
727.91	268.03
728.24	267.57
728.57	267.11
728.90	266.67
729.23	266.14
729.56	265.68
729.89	265.23
730.22	264.76
730.55	264.28
730.89	263.85
731.22	263.46
731.55	263.05
731.88	262.61
732.21	262.18
732.54	261.78
732.87	261.38
733.20	261.00
733.53	260.61
733.86	260.25
734.19	259.82
734.52	259.45
734.85	259.21
735.18	258.79
735.51	258.45
735.84	258.08
736.17	257.78
736.50	257.37
736.83	257.15
737.16	256.82
737.49	256.50
737.82	256.16
738.15	255.82
738.48	255.49
738.81	255.21
739.14	254.90
739.47	254.57
739.80	254.22
740.13	253.94
740.46	253.62
740.79	253.28
741.12	252.99
741.45	252.68
741.78	252.25
742.11	251.98
742.44	251.64
742.77	251.34
743.10	251.01
743.43	250.70
743.75	250.30
744.08	250.13
744.41	249.89
744.74	249.61
745.07	249.33
745.40	249.10
745.73	248.86
746.06	248.57
746.39	248.33
746.71	248.07
747.04	247.76
747.37	247.48
747.70	247.24
748.03	247.00
748.36	246.78
748.68	246.58
749.01	246.30
749.34	246.08
749.67	245.85
750.00	245.64
750.33	245.52
750.65	245.32
750.98	244.99
751.31	244.74
751.64	244.51
751.97	244.36
752.29	244.11
752.62	243.85
752.95	243.64
753.28	243.45
753.60	243.26
753.93	243.11
754.26	242.93
754.59	242.71
754.91	242.48
755.24	242.27
755.57	242.08
755.90	241.92
756.22	241.70
756.55	241.50
756.88	241.25
757.20	241.00
757.53	240.78
757.86	240.61
758.19	240.46
758.51	240.31
758.84	240.09
759.17	239.91
759.49	239.76
759.82	239.65
760.15	239.46
760.47	239.30
760.80	239.08
761.13	238.95
761.45	238.76
761.78	238.61
762.11	238.48
762.43	238.31
762.76	238.18
763.08	238.09
763.41	237.98
763.74	237.87
764.06	237.75
764.39	237.61
764.71	237.46
765.04	237.30
765.37	237.14
765.69	237.00
766.02	236.85
766.34	236.69
766.67	236.50
767.00	236.41
767.32	236.37
767.65	236.36
767.97	236.24
768.30	236.17
768.62	236.09
768.95	235.94
769.27	235.82
769.60	235.71
769.92	235.61
770.25	235.46
770.57	235.38
770.90	235.29
771.22	235.20
771.55	235.11
771.87	235.06
772.20	234.96
772.52	234.93
772.85	235.00
773.17	234.92
773.50	234.84
773.82	234.75
774.15	234.58
774.47	234.38
774.80	234.30
775.12	234.17
775.45	234.08
775.77	234.02
776.09	233.94
776.42	233.88
776.74	233.81
777.07	233.76
777.39	233.69
777.72	233.58
778.04	233.49
778.36	233.44
778.69	233.39
779.01	233.34
779.33	233.20
779.66	233.02
779.98	232.97
780.31	232.92
780.63	232.88
780.95	232.85
781.28	232.83
781.60	232.76
781.92	232.73
782.25	232.68
782.57	232.66
782.89	232.61
783.22	232.53
783.54	232.48
783.86	232.43
784.19	232.36
784.51	232.36
784.83	232.32
785.16	232.25
785.48	232.15
785.80	232.09
786.12	232.05
786.45	231.99
786.77	231.95
787.09	231.91
