SpectraSuite Data File
++++++++++++++++++++++++++++++++++++
Date: Fri Feb 01 17:09:19 EST 2013
User: group
Dark Spectrum Present: No
Reference Spectrum Present: No
Number of Sampled Component Spectra: 1
Spectrometers: USB2E7196
Integration Time (usec): 35000 (USB2E7196)
Spectra Averaged: 100 (USB2E7196)
Boxcar Smoothing: 10 (USB2E7196)
Correct for Electrical Dark: No (USB2E7196)
Strobe/Lamp Enabled: No (USB2E7196)
Correct for Detector Non-linearity: No (USB2E7196)
Correct for Stray Light: No (USB2E7196)
Number of Pixels in Processed Spectrum: 2048
>>>>>Begin Processed Spectral Data<<<<<
339.09	0.00
339.48	213.21
339.86	214.47
340.24	216.12
340.63	217.39
341.01	220.68
341.39	220.07
341.78	221.70
342.16	222.74
342.54	223.74
342.93	211.56
343.31	222.23
343.69	222.79
344.07	223.28
344.46	223.70
344.84	224.08
345.22	224.27
345.60	224.54
345.99	224.72
346.37	224.86
346.75	224.92
347.13	224.97
347.52	225.00
347.90	225.06
348.28	225.09
348.66	225.16
349.05	225.16
349.43	225.22
349.81	225.27
350.19	225.32
350.57	225.40
350.96	225.51
351.34	225.64
351.72	225.68
352.10	225.76
352.48	225.82
352.87	225.88
353.25	225.98
353.63	225.99
354.01	226.07
354.39	226.15
354.77	226.28
355.15	226.40
355.54	226.53
355.92	226.60
356.30	226.70
356.68	226.81
357.06	226.88
357.44	226.95
357.82	227.04
358.20	227.13
358.58	227.18
358.97	227.26
359.35	227.30
359.73	227.43
360.11	227.47
360.49	227.55
360.87	227.60
361.25	227.68
361.63	227.77
362.01	227.81
362.39	227.81
362.77	227.81
363.15	227.86
363.53	227.87
363.91	227.88
364.29	227.89
364.67	227.84
365.05	227.86
365.43	227.87
365.81	227.88
366.19	227.91
366.57	227.95
366.95	227.95
367.33	227.96
367.71	227.95
368.09	227.92
368.47	227.93
368.85	227.93
369.23	227.89
369.61	227.87
369.99	227.88
370.37	227.89
370.75	227.92
371.13	227.86
371.51	227.80
371.89	227.76
372.27	227.70
372.65	227.67
373.03	227.62
373.41	227.57
373.78	227.50
374.16	227.41
374.54	227.35
374.92	227.28
375.30	227.19
375.68	227.10
376.06	227.07
376.44	226.99
376.82	226.91
377.19	226.86
377.57	226.79
377.95	226.66
378.33	226.56
378.71	226.41
379.09	226.36
379.47	226.30
379.84	226.24
380.22	226.21
380.60	226.12
380.98	226.07
381.36	226.01
381.73	225.94
382.11	225.88
382.49	225.79
382.87	225.71
383.25	225.67
383.62	225.73
384.00	225.66
384.38	225.62
384.76	225.61
385.13	225.54
385.51	225.48
385.89	225.48
386.27	225.44
386.64	225.43
387.02	225.34
387.40	225.29
387.78	225.24
388.15	225.17
388.53	225.13
388.91	225.06
389.29	225.04
389.66	225.05
390.04	225.02
390.42	225.08
390.79	225.08
391.17	225.06
391.55	224.92
391.92	224.91
392.30	224.88
392.68	224.83
393.05	224.82
393.43	224.84
393.81	224.82
394.18	224.82
394.56	224.80
394.94	224.88
395.31	224.88
395.69	224.94
396.06	224.96
396.44	224.97
396.82	224.99
397.19	225.05
397.57	225.05
397.95	225.09
398.32	225.06
398.70	225.13
399.07	225.17
399.45	225.22
399.82	225.27
400.20	225.30
400.58	225.37
400.95	225.40
401.33	225.46
401.70	225.59
402.08	225.67
402.45	225.76
402.83	225.83
403.20	225.91
403.58	225.98
403.95	226.09
404.33	226.19
404.71	226.29
405.08	226.43
405.46	226.57
405.83	226.73
406.21	226.85
406.58	227.00
406.96	227.14
407.33	227.30
407.70	227.45
408.08	227.74
408.45	227.94
408.83	228.21
409.20	228.42
409.58	228.59
409.95	228.85
410.33	229.12
410.70	229.34
411.08	229.64
411.45	229.91
411.82	230.23
412.20	230.60
412.57	231.06
412.95	231.34
413.32	231.75
413.69	232.13
414.07	232.60
414.44	233.05
414.82	233.53
415.19	234.08
415.56	234.67
415.94	235.18
416.31	235.84
416.68	236.44
417.06	237.15
417.43	237.82
417.81	238.58
418.18	239.30
418.55	240.15
418.93	241.08
419.30	241.98
419.67	242.90
420.04	243.90
420.42	244.84
420.79	246.04
421.16	247.18
421.54	248.36
421.91	249.55
422.28	250.80
422.66	252.12
423.03	253.44
423.40	254.78
423.77	256.18
424.15	257.58
424.52	259.09
424.89	260.70
425.26	262.28
425.64	263.74
426.01	265.38
426.38	267.00
426.75	268.65
427.13	270.38
427.50	272.23
427.87	274.06
428.24	275.93
428.61	277.64
428.99	279.57
429.36	281.66
429.73	283.69
430.10	285.74
430.47	287.82
430.85	289.89
431.22	292.12
431.59	294.50
431.96	296.74
432.33	299.16
432.70	301.53
433.08	304.31
433.45	306.93
433.82	309.51
434.19	312.44
434.56	315.21
434.93	317.86
435.30	320.51
435.68	323.39
436.05	326.24
436.42	329.03
436.79	331.52
437.16	334.19
437.53	337.09
437.90	339.83
438.27	342.54
438.64	345.41
439.01	347.99
439.38	350.24
439.75	352.37
440.13	354.89
440.50	357.20
440.87	359.02
441.24	360.94
441.61	363.07
441.98	364.55
442.35	366.33
442.72	368.17
443.09	369.87
443.46	370.85
443.83	371.45
444.20	371.93
444.57	372.82
444.94	373.15
445.31	373.43
445.68	373.79
446.05	373.89
446.42	373.48
446.79	373.09
447.16	372.62
447.53	372.35
447.90	371.20
448.27	370.08
448.64	368.54
449.01	367.40
449.37	365.45
449.74	363.55
450.11	361.34
450.48	358.91
450.85	356.44
451.22	354.32
451.59	352.26
451.96	350.37
452.33	347.80
452.70	345.45
453.07	342.65
453.43	339.78
453.80	337.01
454.17	334.33
454.54	331.80
454.91	329.11
455.28	326.43
455.65	323.92
456.02	321.46
456.38	319.28
456.75	316.64
457.12	314.44
457.49	312.21
457.86	310.05
458.23	308.21
458.59	306.15
458.96	304.08
459.33	302.28
459.70	300.43
460.07	298.90
460.43	297.21
460.80	295.58
461.17	294.18
461.54	292.71
461.91	291.29
462.27	289.82
462.64	288.58
463.01	287.23
463.38	285.99
463.74	284.61
464.11	283.48
464.48	282.45
464.85	281.34
465.21	280.53
465.58	279.63
465.95	278.56
466.32	277.69
466.68	276.81
467.05	275.91
467.42	275.03
467.78	274.10
468.15	273.21
468.52	272.56
468.88	271.67
469.25	270.94
469.62	270.33
469.98	269.70
470.35	269.07
470.72	268.48
471.08	267.84
471.45	267.32
471.82	266.83
472.18	266.25
472.55	265.82
472.92	265.29
473.28	264.81
473.65	264.39
474.02	263.91
474.38	263.53
474.75	263.20
475.11	262.84
475.48	262.59
475.85	262.40
476.21	262.23
476.58	262.09
476.94	261.96
477.31	261.81
477.67	261.65
478.04	261.57
478.41	261.53
478.77	261.58
479.14	261.53
479.50	261.54
479.87	261.66
480.23	261.77
480.60	261.85
480.96	261.98
481.33	262.21
481.69	262.46
482.06	262.65
482.42	262.87
482.79	263.18
483.15	263.50
483.52	263.88
483.88	264.20
484.25	264.62
484.61	265.04
484.98	265.53
485.34	266.11
485.71	266.71
486.07	267.34
486.44	267.94
486.80	268.66
487.17	269.37
487.53	270.18
487.90	271.02
488.26	271.98
488.62	272.98
488.99	273.94
489.35	274.97
489.72	276.14
490.08	277.36
490.44	278.57
490.81	279.88
491.17	281.20
491.54	282.69
491.90	284.20
492.26	285.85
492.63	287.54
492.99	289.33
493.36	291.22
493.72	293.21
494.08	295.25
494.45	297.50
494.81	299.88
495.17	302.27
495.54	304.84
495.90	307.48
496.26	310.22
496.63	313.19
496.99	316.28
497.35	319.52
497.72	322.86
498.08	326.37
498.44	330.08
498.80	334.01
499.17	337.96
499.53	342.07
499.89	346.35
500.26	350.86
500.62	355.48
500.98	360.43
501.34	365.45
501.71	370.82
502.07	376.22
502.43	381.77
502.79	387.56
503.16	393.54
503.52	399.76
503.88	406.14
504.24	412.64
504.60	419.44
504.97	426.49
505.33	433.73
505.69	441.37
506.05	449.03
506.41	456.85
506.78	464.91
507.14	473.29
507.50	481.90
507.86	490.83
508.22	499.88
508.59	508.95
508.95	518.45
509.31	528.09
509.67	538.06
510.03	548.18
510.39	558.65
510.75	569.30
511.12	580.06
511.48	591.11
511.84	602.44
512.20	613.78
512.56	625.59
512.92	637.66
513.28	649.94
513.64	662.20
514.00	674.68
514.37	687.49
514.73	700.34
515.09	713.22
515.45	726.31
515.81	739.68
516.17	753.43
516.53	767.33
516.89	781.22
517.25	795.18
517.61	809.35
517.97	823.57
518.33	837.77
518.69	852.26
519.05	867.04
519.41	881.96
519.77	897.24
520.13	912.36
520.49	927.40
520.85	942.36
521.21	957.71
521.57	973.68
521.93	989.10
522.29	1005.13
522.65	1021.02
523.01	1036.87
523.37	1052.62
523.73	1068.54
524.09	1084.31
524.45	1100.28
524.81	1116.60
525.17	1133.04
525.53	1149.39
525.89	1165.89
526.25	1182.47
526.61	1198.56
526.97	1214.91
527.33	1231.04
527.68	1247.22
528.04	1263.36
528.40	1279.53
528.76	1296.20
529.12	1312.31
529.48	1328.81
529.84	1344.46
530.20	1360.70
530.56	1377.17
530.91	1394.20
531.27	1410.54
531.63	1426.44
531.99	1442.50
532.35	1457.94
532.71	1473.50
533.07	1489.47
533.42	1505.00
533.78	1520.64
534.14	1536.51
534.50	1551.34
534.86	1566.82
535.21	1581.63
535.57	1597.09
535.93	1612.20
536.29	1626.77
536.65	1641.39
537.00	1655.69
537.36	1670.62
537.72	1684.69
538.08	1698.78
538.44	1712.12
538.79	1725.59
539.15	1738.97
539.51	1752.46
539.87	1766.34
540.22	1779.60
540.58	1793.00
540.94	1805.90
541.29	1818.34
541.65	1830.68
542.01	1843.66
542.37	1855.65
542.72	1867.76
543.08	1879.32
543.44	1891.42
543.79	1902.27
544.15	1913.05
544.51	1924.44
544.87	1935.04
545.22	1945.77
545.58	1955.87
545.94	1965.50
546.29	1975.14
546.65	1984.95
547.01	1994.10
547.36	2002.78
547.72	2011.30
548.07	2018.95
548.43	2026.99
548.79	2034.86
549.14	2042.19
549.50	2049.45
549.86	2056.79
550.21	2064.05
550.57	2071.01
550.92	2077.56
551.28	2084.64
551.64	2091.69
551.99	2098.15
552.35	2104.38
552.70	2110.37
553.06	2116.31
553.41	2122.62
553.77	2128.63
554.13	2134.50
554.48	2140.51
554.84	2146.21
555.19	2151.25
555.55	2156.61
555.90	2161.21
556.26	2166.26
556.61	2171.07
556.97	2175.46
557.32	2179.73
557.68	2183.93
558.03	2188.30
558.39	2191.92
558.74	2196.53
559.10	2200.45
559.45	2204.16
559.81	2208.38
560.16	2212.26
560.52	2215.61
560.87	2219.11
561.23	2221.87
561.58	2224.88
561.94	2227.61
562.29	2229.84
562.64	2232.91
563.00	2235.50
563.35	2239.17
563.71	2242.30
564.06	2245.54
564.42	2248.50
564.77	2251.30
565.12	2253.73
565.48	2255.90
565.83	2258.11
566.19	2259.58
566.54	2260.56
566.89	2261.90
567.25	2262.82
567.60	2264.26
567.96	2266.07
568.31	2267.05
568.66	2268.32
569.02	2269.21
569.37	2269.69
569.72	2270.84
570.08	2271.15
570.43	2271.35
570.78	2270.84
571.14	2269.51
571.49	2268.26
571.84	2267.94
572.20	2267.14
572.55	2266.31
572.90	2264.63
573.26	2263.60
573.61	2262.00
573.96	2260.59
574.31	2257.86
574.67	2255.09
575.02	2251.68
575.37	2248.49
575.72	2244.90
576.08	2241.64
576.43	2238.59
576.78	2235.20
577.13	2232.15
577.49	2228.98
577.84	2225.79
578.19	2222.21
578.54	2218.93
578.90	2215.17
579.25	2210.02
579.60	2205.16
579.95	2200.37
580.30	2195.82
580.66	2190.73
581.01	2185.91
581.36	2181.21
581.71	2177.31
582.06	2173.13
582.42	2169.02
582.77	2164.12
583.12	2159.97
583.47	2155.70
583.82	2150.87
584.17	2145.78
584.53	2140.57
584.88	2135.33
585.23	2129.75
585.58	2124.45
585.93	2119.15
586.28	2114.51
586.63	2109.63
586.98	2104.80
587.34	2100.34
587.69	2095.55
588.04	2090.55
588.39	2085.35
588.74	2079.02
589.09	2073.08
589.44	2066.44
589.79	2060.47
590.14	2054.93
590.49	2048.33
590.84	2042.17
591.19	2036.32
591.54	2030.08
591.89	2022.98
592.25	2016.46
592.60	2009.41
592.95	2002.17
593.30	1995.07
593.65	1987.76
594.00	1981.05
594.35	1973.98
594.70	1965.98
595.05	1959.19
595.40	1952.13
595.75	1944.65
596.10	1938.76
596.45	1932.16
596.80	1926.23
597.15	1919.93
597.50	1913.20
597.85	1906.98
598.19	1900.38
598.54	1893.55
598.89	1887.19
599.24	1881.38
599.59	1874.92
599.94	1868.90
600.29	1862.69
600.64	1856.08
600.99	1848.78
601.34	1842.00
601.69	1835.09
602.04	1828.48
602.39	1821.31
602.74	1814.57
603.08	1808.08
603.43	1801.37
603.78	1794.20
604.13	1787.07
604.48	1780.02
604.83	1773.17
605.18	1766.47
605.53	1758.74
605.87	1750.73
606.22	1743.53
606.57	1735.64
606.92	1728.16
607.27	1721.20
607.62	1714.50
607.96	1707.45
608.31	1700.95
608.66	1693.62
609.01	1686.35
609.36	1678.88
609.70	1670.93
610.05	1662.98
610.40	1655.46
610.75	1647.23
611.10	1639.74
611.44	1631.36
611.79	1623.28
612.14	1614.76
612.49	1605.50
612.83	1597.16
613.18	1589.25
613.53	1581.27
613.88	1572.92
614.22	1564.84
614.57	1556.22
614.92	1548.26
615.27	1540.89
615.61	1532.65
615.96	1524.51
616.31	1516.87
616.65	1509.56
617.00	1501.96
617.35	1494.27
617.70	1486.11
618.04	1477.75
618.39	1469.53
618.74	1462.11
619.08	1453.97
619.43	1446.31
619.78	1439.52
620.12	1432.42
620.47	1424.88
620.82	1416.77
621.16	1409.42
621.51	1401.86
621.85	1394.31
622.20	1385.91
622.55	1377.59
622.89	1369.84
623.24	1362.18
623.59	1354.75
623.93	1347.33
624.28	1340.17
624.62	1332.83
624.97	1325.57
625.32	1318.76
625.66	1311.71
626.01	1304.59
626.35	1297.21
626.70	1289.58
627.04	1281.90
627.39	1274.11
627.73	1266.69
628.08	1259.74
628.43	1252.62
628.77	1245.32
629.12	1237.81
629.46	1230.57
629.81	1223.09
630.15	1215.83
630.50	1208.64
630.84	1200.56
631.19	1192.55
631.53	1185.09
631.88	1177.39
632.22	1169.72
632.57	1162.48
632.91	1154.99
633.26	1147.58
633.60	1140.09
633.95	1132.91
634.29	1125.82
634.64	1119.08
634.98	1111.77
635.32	1104.72
635.67	1097.96
636.01	1091.25
636.36	1084.49
636.70	1077.93
637.05	1071.41
637.39	1064.91
637.73	1058.36
638.08	1052.44
638.42	1046.56
638.77	1040.15
639.11	1033.75
639.45	1027.46
639.80	1020.81
640.14	1014.43
640.49	1007.97
640.83	1001.70
641.17	995.58
641.52	989.32
641.86	982.94
642.20	977.14
642.55	970.74
642.89	964.41
643.23	957.92
643.58	952.20
643.92	946.07
644.26	940.13
644.61	934.07
644.95	928.14
645.29	921.62
645.64	914.84
645.98	908.53
646.32	902.63
646.66	896.66
647.01	890.93
647.35	885.30
647.69	879.53
648.04	874.05
648.38	868.31
648.72	862.37
649.06	856.31
649.41	850.39
649.75	844.59
650.09	838.53
650.43	832.89
650.78	826.67
651.12	820.78
651.46	815.01
651.80	809.42
652.14	803.97
652.49	798.68
652.83	793.67
653.17	788.01
653.51	782.33
653.85	776.91
654.20	771.26
654.54	765.36
654.88	759.52
655.22	753.70
655.56	748.08
655.90	742.60
656.25	737.50
656.59	732.22
656.93	727.08
657.27	722.04
657.61	716.60
657.95	711.61
658.29	706.57
658.64	701.37
658.98	696.06
659.32	690.63
659.66	685.47
660.00	680.19
660.34	675.37
660.68	670.52
661.02	665.52
661.36	660.85
661.70	656.27
662.05	652.03
662.39	647.72
662.73	643.25
663.07	638.94
663.41	634.50
663.75	630.08
664.09	625.57
664.43	621.11
664.77	617.03
665.11	612.74
665.45	608.56
665.79	604.46
666.13	600.37
666.47	596.31
666.81	592.12
667.15	588.00
667.49	583.96
667.83	580.07
668.17	576.21
668.51	572.21
668.85	568.30
669.19	564.42
669.53	560.64
669.87	556.75
670.21	553.11
670.55	549.45
670.89	545.96
671.23	542.48
671.57	539.00
671.91	535.48
672.25	532.00
672.58	528.57
672.92	525.16
673.26	521.93
673.60	518.77
673.94	515.74
674.28	512.80
674.62	509.89
674.96	506.89
675.30	503.97
675.64	501.02
675.97	498.18
676.31	495.28
676.65	492.35
676.99	489.71
677.33	486.79
677.67	484.03
678.01	481.06
678.34	478.11
678.68	475.29
679.02	472.48
679.36	469.73
679.70	466.99
680.04	464.29
680.37	461.50
680.71	458.74
681.05	456.10
681.39	453.38
681.73	450.78
682.06	448.23
682.40	445.71
682.74	443.14
683.08	440.61
683.42	438.06
683.75	435.56
684.09	432.97
684.43	430.58
684.77	428.11
685.10	425.77
685.44	423.50
685.78	421.22
686.12	418.97
686.45	416.65
686.79	414.34
687.13	412.11
687.46	409.97
687.80	407.84
688.14	405.58
688.48	403.55
688.81	401.32
689.15	399.11
689.49	396.94
689.82	394.90
690.16	392.83
690.50	390.92
690.83	389.00
691.17	387.00
691.51	385.07
691.84	383.20
692.18	381.28
692.52	379.35
692.85	377.39
693.19	375.53
693.52	373.76
693.86	371.97
694.20	370.21
694.53	368.39
694.87	366.51
695.21	364.74
695.54	362.87
695.88	361.12
696.21	359.44
696.55	357.78
696.88	356.08
697.22	354.38
697.56	352.74
697.89	351.07
698.23	349.51
698.56	347.90
698.90	346.34
699.23	344.72
699.57	343.12
699.90	341.58
700.24	340.07
700.58	338.53
700.91	337.07
701.25	335.62
701.58	334.26
701.92	332.94
702.25	331.56
702.59	330.21
702.92	328.89
703.26	327.60
703.59	326.33
703.93	325.13
704.26	323.94
704.60	322.62
704.93	321.35
705.26	320.13
705.60	318.93
705.93	317.77
706.27	316.73
706.60	315.69
706.94	314.62
707.27	313.47
707.61	312.40
707.94	311.36
708.27	310.27
708.61	309.17
708.94	308.14
709.28	307.18
709.61	306.21
709.94	305.26
710.28	304.21
710.61	303.23
710.95	302.18
711.28	301.24
711.61	300.33
711.95	299.42
712.28	298.43
712.61	297.46
712.95	296.49
713.28	295.59
713.61	294.70
713.95	293.82
714.28	292.98
714.61	292.13
714.95	291.29
715.28	290.46
715.61	289.62
715.95	288.76
716.28	287.87
716.61	287.03
716.95	286.20
717.28	285.43
717.61	284.67
717.94	283.92
718.28	283.11
718.61	282.38
718.94	281.65
719.27	281.03
719.61	280.39
719.94	279.75
720.27	279.04
720.60	278.39
720.94	277.76
721.27	277.14
721.60	276.55
721.93	275.95
722.27	275.35
722.60	274.79
722.93	274.22
723.26	273.66
723.59	273.09
723.93	272.56
724.26	272.07
724.59	271.45
724.92	270.94
725.25	270.46
725.59	269.91
725.92	269.44
726.25	268.90
726.58	268.40
726.91	267.91
727.24	267.47
727.57	266.98
727.91	266.47
728.24	266.02
728.57	265.52
728.90	265.04
729.23	264.57
729.56	264.12
729.89	263.65
730.22	263.22
730.55	262.75
730.89	262.31
731.22	261.85
731.55	261.46
731.88	261.01
732.21	260.57
732.54	260.16
732.87	259.74
733.20	259.32
733.53	258.92
733.86	258.53
734.19	258.11
734.52	257.72
734.85	257.41
735.18	257.01
735.51	256.67
735.84	256.30
736.17	255.92
736.50	255.55
736.83	255.34
737.16	254.97
737.49	254.64
737.82	254.24
738.15	253.91
738.48	253.58
738.81	253.28
739.14	252.95
739.47	252.64
739.80	252.28
740.13	252.00
740.46	251.68
740.79	251.35
741.12	251.04
741.45	250.71
741.78	250.37
742.11	250.10
742.44	249.72
742.77	249.45
743.10	249.18
743.43	248.83
743.75	248.42
744.08	248.34
744.41	248.07
744.74	247.84
745.07	247.57
745.40	247.33
745.73	247.08
746.06	246.81
746.39	246.55
746.71	246.29
747.04	246.00
747.37	245.74
747.70	245.52
748.03	245.29
748.36	245.07
748.68	244.82
749.01	244.53
749.34	244.34
749.67	244.13
750.00	243.92
750.33	243.81
750.65	243.61
750.98	243.26
751.31	243.04
751.64	242.84
751.97	242.68
752.29	242.48
752.62	242.21
752.95	242.04
753.28	241.85
753.60	241.67
753.93	241.51
754.26	241.34
754.59	241.11
754.91	240.90
755.24	240.71
755.57	240.52
755.90	240.36
756.22	240.15
756.55	239.93
756.88	239.72
757.20	239.47
757.53	239.29
757.86	239.08
758.19	238.92
758.51	238.76
758.84	238.56
759.17	238.37
759.49	238.23
759.82	238.10
760.15	237.96
760.47	237.77
760.80	237.57
761.13	237.47
761.45	237.31
761.78	237.17
762.11	237.00
762.43	236.83
762.76	236.69
763.08	236.60
763.41	236.48
763.74	236.35
764.06	236.21
764.39	236.08
764.71	235.95
765.04	235.83
765.37	235.68
765.69	235.51
766.02	235.37
766.34	235.25
766.67	235.08
767.00	234.95
767.32	234.88
767.65	234.83
767.97	234.68
768.30	234.54
768.62	234.42
768.95	234.30
769.27	234.21
769.60	234.08
769.92	233.93
770.25	233.78
770.57	233.64
770.90	233.52
771.22	233.41
771.55	233.30
771.87	233.18
772.20	233.09
772.52	233.09
772.85	233.10
773.17	233.01
773.50	232.89
773.82	232.77
774.15	232.65
774.47	232.48
774.80	232.38
775.12	232.33
775.45	232.23
775.77	232.16
776.09	232.07
776.42	232.01
776.74	231.95
777.07	231.87
777.39	231.82
777.72	231.76
778.04	231.68
778.36	231.60
778.69	231.53
779.01	231.47
779.33	231.36
779.66	231.19
779.98	231.11
780.31	231.04
780.63	230.99
780.95	230.93
781.28	230.92
781.60	230.85
781.92	230.78
782.25	230.76
782.57	230.72
782.89	230.67
783.22	230.60
783.54	230.54
783.86	230.49
784.19	230.44
784.51	230.41
784.83	230.35
785.16	230.30
785.48	230.24
785.80	230.18
786.12	230.13
786.45	230.06
786.77	230.03
787.09	230.00
