SpectraSuite Data File
++++++++++++++++++++++++++++++++++++
Date: Fri Feb 01 17:13:59 EST 2013
User: group
Dark Spectrum Present: No
Reference Spectrum Present: No
Number of Sampled Component Spectra: 1
Spectrometers: USB2E7196
Integration Time (usec): 35000 (USB2E7196)
Spectra Averaged: 100 (USB2E7196)
Boxcar Smoothing: 10 (USB2E7196)
Correct for Electrical Dark: No (USB2E7196)
Strobe/Lamp Enabled: No (USB2E7196)
Correct for Detector Non-linearity: No (USB2E7196)
Correct for Stray Light: No (USB2E7196)
Number of Pixels in Processed Spectrum: 2048
>>>>>Begin Processed Spectral Data<<<<<
339.09	0.00
339.48	213.28
339.86	214.86
340.24	215.50
340.63	217.82
341.01	220.03
341.39	219.69
341.78	220.91
342.16	222.36
342.54	223.26
342.93	211.54
343.31	222.21
343.69	222.73
344.07	223.17
344.46	223.61
344.84	223.98
345.22	224.22
345.60	224.47
345.99	224.65
346.37	224.80
346.75	224.87
347.13	224.94
347.52	225.02
347.90	225.11
348.28	225.14
348.66	225.14
349.05	225.13
349.43	225.17
349.81	225.20
350.19	225.22
350.57	225.29
350.96	225.32
351.34	225.45
351.72	225.54
352.10	225.68
352.48	225.76
352.87	225.79
353.25	225.86
353.63	225.96
354.01	226.02
354.39	226.07
354.77	226.14
355.15	226.28
355.54	226.31
355.92	226.30
356.30	226.36
356.68	226.55
357.06	226.66
357.44	226.68
357.82	226.77
358.20	226.86
358.58	226.93
358.97	227.02
359.35	227.07
359.73	227.17
360.11	227.19
360.49	227.24
360.87	227.29
361.25	227.32
361.63	227.38
362.01	227.48
362.39	227.54
362.77	227.62
363.15	227.65
363.53	227.73
363.91	227.80
364.29	227.81
364.67	227.72
365.05	227.74
365.43	227.79
365.81	227.82
366.19	227.87
366.57	227.87
366.95	227.88
367.33	227.86
367.71	227.84
368.09	227.87
368.47	227.84
368.85	227.82
369.23	227.86
369.61	227.82
369.99	227.80
370.37	227.81
370.75	227.81
371.13	227.77
371.51	227.71
371.89	227.69
372.27	227.67
372.65	227.60
373.03	227.57
373.41	227.56
373.78	227.49
374.16	227.40
374.54	227.34
374.92	227.25
375.30	227.22
375.68	227.15
376.06	227.08
376.44	227.02
376.82	227.00
377.19	226.91
377.57	226.84
377.95	226.75
378.33	226.64
378.71	226.51
379.09	226.46
379.47	226.39
379.84	226.32
380.22	226.25
380.60	226.21
380.98	226.14
381.36	226.04
381.73	225.96
382.11	225.92
382.49	225.86
382.87	225.83
383.25	225.76
383.62	225.81
384.00	225.74
384.38	225.70
384.76	225.67
385.13	225.66
385.51	225.62
385.89	225.57
386.27	225.55
386.64	225.54
387.02	225.48
387.40	225.46
387.78	225.39
388.15	225.35
388.53	225.29
388.91	225.21
389.29	225.18
389.66	225.20
390.04	225.15
390.42	225.15
390.79	225.13
391.17	225.11
391.55	224.97
391.92	224.97
392.30	224.99
392.68	224.95
393.05	224.92
393.43	224.90
393.81	224.93
394.18	224.91
394.56	224.91
394.94	224.95
395.31	224.91
395.69	225.01
396.06	225.03
396.44	225.08
396.82	225.15
397.19	225.26
397.57	225.28
397.95	225.33
398.32	225.32
398.70	225.36
399.07	225.42
399.45	225.47
399.82	225.52
400.20	225.56
400.58	225.63
400.95	225.66
401.33	225.76
401.70	225.90
402.08	225.98
402.45	226.05
402.83	226.17
403.20	226.30
403.58	226.37
403.95	226.51
404.33	226.62
404.71	226.73
405.08	226.86
405.46	226.98
405.83	227.11
406.21	227.26
406.58	227.44
406.96	227.58
407.33	227.76
407.70	227.94
408.08	228.19
408.45	228.38
408.83	228.63
409.20	228.83
409.58	229.01
409.95	229.24
410.33	229.54
410.70	229.76
411.08	230.05
411.45	230.32
411.82	230.60
412.20	230.94
412.57	231.37
412.95	231.65
413.32	232.06
413.69	232.46
414.07	232.91
414.44	233.36
414.82	233.83
415.19	234.39
415.56	234.96
415.94	235.52
416.31	236.17
416.68	236.79
417.06	237.51
417.43	238.19
417.81	238.97
418.18	239.74
418.55	240.58
418.93	241.44
419.30	242.38
419.67	243.32
420.04	244.30
420.42	245.26
420.79	246.46
421.16	247.64
421.54	248.85
421.91	250.10
422.28	251.38
422.66	252.73
423.03	254.07
423.40	255.41
423.77	256.84
424.15	258.27
424.52	259.79
424.89	261.44
425.26	263.05
425.64	264.53
426.01	266.14
426.38	267.84
426.75	269.55
427.13	271.29
427.50	273.11
427.87	275.03
428.24	276.95
428.61	278.72
428.99	280.66
429.36	282.83
429.73	284.87
430.10	286.92
430.47	289.04
430.85	291.19
431.22	293.49
431.59	295.87
431.96	298.16
432.33	300.68
432.70	303.08
433.08	305.95
433.45	308.63
433.82	311.28
434.19	314.19
434.56	317.04
434.93	319.74
435.30	322.43
435.68	325.35
436.05	328.20
436.42	331.02
436.79	333.63
437.16	336.36
437.53	339.28
437.90	342.13
438.27	344.94
438.64	347.81
439.01	350.43
439.38	352.72
439.75	354.99
440.13	357.50
440.50	359.90
440.87	361.76
441.24	363.75
441.61	365.98
441.98	367.50
442.35	369.35
442.72	371.27
443.09	373.11
443.46	374.08
443.83	374.69
444.20	375.27
444.57	376.13
444.94	376.45
445.31	376.78
445.68	377.17
446.05	377.29
446.42	376.88
446.79	376.48
447.16	376.05
447.53	375.70
447.90	374.52
448.27	373.30
448.64	371.67
449.01	370.54
449.37	368.55
449.74	366.67
450.11	364.41
450.48	361.89
450.85	359.34
451.22	357.24
451.59	355.23
451.96	353.25
452.33	350.56
452.70	348.18
453.07	345.31
453.43	342.34
453.80	339.51
454.17	336.79
454.54	334.22
454.91	331.46
455.28	328.76
455.65	326.28
456.02	323.86
456.38	321.73
456.75	318.96
457.12	316.66
457.49	314.35
457.86	312.14
458.23	310.23
458.59	308.14
458.96	306.05
459.33	304.17
459.70	302.21
460.07	300.70
460.43	298.94
460.80	297.32
461.17	295.90
461.54	294.31
461.91	292.91
462.27	291.43
462.64	290.17
463.01	288.79
463.38	287.44
463.74	286.01
464.11	284.80
464.48	283.80
464.85	282.65
465.21	281.77
465.58	280.86
465.95	279.74
466.32	278.77
466.68	277.82
467.05	276.86
467.42	275.99
467.78	275.06
468.15	274.14
468.52	273.43
468.88	272.54
469.25	271.79
469.62	271.14
469.98	270.45
470.35	269.79
470.72	269.16
471.08	268.51
471.45	267.97
471.82	267.43
472.18	266.82
472.55	266.38
472.92	265.90
473.28	265.44
473.65	265.00
474.02	264.60
474.38	264.22
474.75	263.93
475.11	263.60
475.48	263.36
475.85	263.15
476.21	262.92
476.58	262.77
476.94	262.61
477.31	262.45
477.67	262.26
478.04	262.19
478.41	262.16
478.77	262.21
479.14	262.16
479.50	262.14
479.87	262.20
480.23	262.32
480.60	262.35
480.96	262.45
481.33	262.65
481.69	262.84
482.06	263.05
482.42	263.25
482.79	263.49
483.15	263.78
483.52	264.14
483.88	264.48
484.25	264.82
484.61	265.25
484.98	265.68
485.34	266.28
485.71	266.86
486.07	267.46
486.44	267.97
486.80	268.68
487.17	269.42
487.53	270.22
487.90	271.06
488.26	272.00
488.62	272.98
488.99	273.94
489.35	274.97
489.72	276.10
490.08	277.29
490.44	278.54
490.81	279.88
491.17	281.24
491.54	282.75
491.90	284.29
492.26	285.96
492.63	287.68
492.99	289.46
493.36	291.35
493.72	293.40
494.08	295.51
494.45	297.78
494.81	300.17
495.17	302.59
495.54	305.17
495.90	307.88
496.26	310.71
496.63	313.68
496.99	316.85
497.35	320.09
497.72	323.48
498.08	327.02
498.44	330.71
498.80	334.66
499.17	338.69
499.53	342.84
499.89	347.21
500.26	351.70
500.62	356.35
500.98	361.29
501.34	366.35
501.71	371.67
502.07	377.08
502.43	382.60
502.79	388.40
503.16	394.45
503.52	400.66
503.88	407.00
504.24	413.59
504.60	420.38
504.97	427.53
505.33	434.82
505.69	442.44
506.05	450.12
506.41	457.92
506.78	466.03
507.14	474.41
507.50	482.98
507.86	491.90
508.22	500.94
508.59	509.97
508.95	519.42
509.31	529.13
509.67	539.11
510.03	549.36
510.39	559.79
510.75	570.37
511.12	581.15
511.48	592.24
511.84	603.56
512.20	614.94
512.56	626.62
512.92	638.60
513.28	650.72
513.64	662.97
514.00	675.59
514.37	688.25
514.73	701.14
515.09	714.03
515.45	727.17
515.81	740.59
516.17	754.33
516.53	768.28
516.89	782.25
517.25	796.16
517.61	810.37
517.97	824.63
518.33	838.77
518.69	853.33
519.05	868.09
519.41	882.90
519.77	898.09
520.13	913.28
520.49	928.40
520.85	943.57
521.21	958.95
521.57	974.78
521.93	990.30
522.29	1006.32
522.65	1022.28
523.01	1038.19
523.37	1053.96
523.73	1069.83
524.09	1085.58
524.45	1101.51
524.81	1117.87
525.17	1134.34
525.53	1150.71
525.89	1167.40
526.25	1183.90
526.61	1200.00
526.97	1216.48
527.33	1232.79
527.68	1249.07
528.04	1265.22
528.40	1281.41
528.76	1298.22
529.12	1314.52
529.48	1331.04
529.84	1346.78
530.20	1363.20
530.56	1379.69
530.91	1396.74
531.27	1413.34
531.63	1429.45
531.99	1445.69
532.35	1461.30
532.71	1476.79
533.07	1492.89
533.42	1508.49
533.78	1524.28
534.14	1540.25
534.50	1555.32
534.86	1570.75
535.21	1585.59
535.57	1601.27
535.93	1616.46
536.29	1630.79
536.65	1645.56
537.00	1659.95
537.36	1674.94
537.72	1689.03
538.08	1703.31
538.44	1716.82
538.79	1730.33
539.15	1743.60
539.51	1757.09
539.87	1771.23
540.22	1784.61
540.58	1797.95
540.94	1810.89
541.29	1823.31
541.65	1835.84
542.01	1848.73
542.37	1860.92
542.72	1873.17
543.08	1884.82
543.44	1897.04
543.79	1908.43
544.15	1919.21
544.51	1930.87
544.87	1941.67
545.22	1952.55
545.58	1962.64
545.94	1972.47
546.29	1982.38
546.65	1992.49
547.01	2001.91
547.36	2010.59
547.72	2019.22
548.07	2027.44
548.43	2035.85
548.79	2043.86
549.14	2051.67
549.50	2059.03
549.86	2066.65
550.21	2074.04
550.57	2081.27
550.92	2087.94
551.28	2095.04
551.64	2102.35
551.99	2108.95
552.35	2115.42
552.70	2121.68
553.06	2128.00
553.41	2134.53
553.77	2140.68
554.13	2146.78
554.48	2152.82
554.84	2158.67
555.19	2163.99
555.55	2169.27
555.90	2173.85
556.26	2179.37
556.61	2184.09
556.97	2188.89
557.32	2193.47
557.68	2197.97
558.03	2202.39
558.39	2206.34
558.74	2211.24
559.10	2215.39
559.45	2219.17
559.81	2223.60
560.16	2227.56
560.52	2231.15
560.87	2234.66
561.23	2237.58
561.58	2240.63
561.94	2243.57
562.29	2246.00
562.64	2249.14
563.00	2251.94
563.35	2255.67
563.71	2258.95
564.06	2262.32
564.42	2265.42
564.77	2268.23
565.12	2270.96
565.48	2273.27
565.83	2275.61
566.19	2277.26
566.54	2278.25
566.89	2279.85
567.25	2280.80
567.60	2282.32
567.96	2284.11
568.31	2285.19
568.66	2286.49
569.02	2287.35
569.37	2287.99
569.72	2289.21
570.08	2289.81
570.43	2290.06
570.78	2289.77
571.14	2288.44
571.49	2287.30
571.84	2287.04
572.20	2286.10
572.55	2285.18
572.90	2283.72
573.26	2282.74
573.61	2281.06
573.96	2279.78
574.31	2277.08
574.67	2274.34
575.02	2271.03
575.37	2267.94
575.72	2264.46
576.08	2261.37
576.43	2258.26
576.78	2254.91
577.13	2251.81
577.49	2248.62
577.84	2245.37
578.19	2241.78
578.54	2238.50
578.90	2234.83
579.25	2229.56
579.60	2225.04
579.95	2220.28
580.30	2215.46
580.66	2210.31
581.01	2205.73
581.36	2200.86
581.71	2196.99
582.06	2193.03
582.42	2188.94
582.77	2183.91
583.12	2179.69
583.47	2175.33
583.82	2170.79
584.17	2165.78
584.53	2160.53
584.88	2155.23
585.23	2149.83
585.58	2144.60
585.93	2139.27
586.28	2134.39
586.63	2129.67
586.98	2124.48
587.34	2119.81
587.69	2115.06
588.04	2110.18
588.39	2104.55
588.74	2098.33
589.09	2092.26
589.44	2085.58
589.79	2079.48
590.14	2073.86
590.49	2067.35
590.84	2061.07
591.19	2055.11
591.54	2048.87
591.89	2041.96
592.25	2035.57
592.60	2028.49
592.95	2021.28
593.30	2014.07
593.65	2006.52
594.00	1999.52
594.35	1992.48
594.70	1984.61
595.05	1977.91
595.40	1970.64
595.75	1963.52
596.10	1957.47
596.45	1951.02
596.80	1944.86
597.15	1938.56
597.50	1931.95
597.85	1925.56
598.19	1919.11
598.54	1912.44
598.89	1905.92
599.24	1899.94
599.59	1893.35
599.94	1887.17
600.29	1880.76
600.64	1874.22
600.99	1867.01
601.34	1860.44
601.69	1853.53
602.04	1846.88
602.39	1839.45
602.74	1832.78
603.08	1826.10
603.43	1819.42
603.78	1812.11
604.13	1804.88
604.48	1797.61
604.83	1790.69
605.18	1784.10
605.53	1776.12
605.87	1767.93
606.22	1760.46
606.57	1752.53
606.92	1744.91
607.27	1737.85
607.62	1731.02
607.96	1723.83
608.31	1717.50
608.66	1709.94
609.01	1702.55
609.36	1694.89
609.70	1686.90
610.05	1678.93
610.40	1671.12
610.75	1662.83
611.10	1655.13
611.44	1646.75
611.79	1638.69
612.14	1630.01
612.49	1620.63
612.83	1612.11
613.18	1603.93
613.53	1595.86
613.88	1587.41
614.22	1579.24
614.57	1570.47
614.92	1562.41
615.27	1555.05
615.61	1546.68
615.96	1538.48
616.31	1530.69
616.65	1523.18
617.00	1515.67
617.35	1507.83
617.70	1499.58
618.04	1491.19
618.39	1482.76
618.74	1475.24
619.08	1466.86
619.43	1459.21
619.78	1452.22
620.12	1445.21
620.47	1437.68
620.82	1429.48
621.16	1421.80
621.51	1414.14
621.85	1406.39
622.20	1397.86
622.55	1389.28
622.89	1381.29
623.24	1373.66
623.59	1366.15
623.93	1358.65
624.28	1351.32
624.62	1343.80
624.97	1336.49
625.32	1329.52
625.66	1322.48
626.01	1315.23
626.35	1308.01
626.70	1300.19
627.04	1292.46
627.39	1284.51
627.73	1277.11
628.08	1270.21
628.43	1262.96
628.77	1255.61
629.12	1248.13
629.46	1240.96
629.81	1233.40
630.15	1226.03
630.50	1218.59
630.84	1210.51
631.19	1202.47
631.53	1194.83
631.88	1187.15
632.22	1179.52
632.57	1172.07
632.91	1164.50
633.26	1156.99
633.60	1149.45
633.95	1142.09
634.29	1134.86
634.64	1128.13
634.98	1120.65
635.32	1113.37
635.67	1106.70
636.01	1100.07
636.36	1093.36
636.70	1086.71
637.05	1080.17
637.39	1073.65
637.73	1067.12
638.08	1061.09
638.42	1055.24
638.77	1048.75
639.11	1042.25
639.45	1035.81
639.80	1029.20
640.14	1022.82
640.49	1016.38
640.83	1010.00
641.17	1003.97
641.52	997.81
641.86	991.27
642.20	985.39
642.55	979.00
642.89	972.65
643.23	965.94
643.58	960.06
643.92	953.88
644.26	947.96
644.61	941.96
644.95	935.93
645.29	929.42
645.64	922.63
645.98	916.31
646.32	910.25
646.66	904.29
647.01	898.49
647.35	892.79
647.69	886.81
648.04	881.21
648.38	875.34
648.72	869.37
649.06	863.42
649.41	857.44
649.75	851.53
650.09	845.49
650.43	839.77
650.78	833.54
651.12	827.50
651.46	821.57
651.80	815.89
652.14	810.39
652.49	805.04
652.83	799.78
653.17	794.14
653.51	788.52
653.85	782.94
654.20	777.25
654.54	771.24
654.88	765.38
655.22	759.50
655.56	753.72
655.90	748.15
656.25	742.87
656.59	737.59
656.93	732.46
657.27	727.29
657.61	721.74
657.95	716.65
658.29	711.63
658.64	706.27
658.98	700.81
659.32	695.31
659.66	690.02
660.00	684.75
660.34	679.76
660.68	674.81
661.02	669.80
661.36	665.06
661.70	660.51
662.05	656.27
662.39	651.98
662.73	647.50
663.07	643.08
663.41	638.61
663.75	634.13
664.09	629.58
664.43	625.21
664.77	621.19
665.11	616.96
665.45	612.76
665.79	608.78
666.13	604.73
666.47	600.62
666.81	596.48
667.15	592.33
667.49	588.38
667.83	584.45
668.17	580.49
668.51	576.42
668.85	572.38
669.19	568.48
669.53	564.56
669.87	560.72
670.21	557.04
670.55	553.34
670.89	549.82
671.23	546.45
671.57	542.83
671.91	539.26
672.25	535.71
672.58	532.23
672.92	528.78
673.26	525.52
673.60	522.37
673.94	519.32
674.28	516.32
674.62	513.38
674.96	510.29
675.30	507.39
675.64	504.54
675.97	501.75
676.31	498.85
676.65	495.96
676.99	493.28
677.33	490.38
677.67	487.55
678.01	484.55
678.34	481.54
678.68	478.71
679.02	475.86
679.36	473.08
679.70	470.26
680.04	467.51
680.37	464.73
680.71	461.92
681.05	459.26
681.39	456.59
681.73	453.86
682.06	451.34
682.40	448.80
682.74	446.20
683.08	443.56
683.42	440.97
683.75	438.39
684.09	435.76
684.43	433.21
684.77	430.72
685.10	428.35
685.44	426.00
685.78	423.67
686.12	421.40
686.45	419.09
686.79	416.82
687.13	414.57
687.46	412.33
687.80	410.16
688.14	407.87
688.48	405.80
688.81	403.58
689.15	401.39
689.49	399.19
689.82	397.02
690.16	394.93
690.50	392.95
690.83	391.01
691.17	388.96
691.51	387.06
691.84	385.21
692.18	383.27
692.52	381.30
692.85	379.29
693.19	377.43
693.52	375.53
693.86	373.64
694.20	371.80
694.53	369.97
694.87	368.08
695.21	366.26
695.54	364.37
695.88	362.58
696.21	360.89
696.55	359.14
696.88	357.48
697.22	355.80
697.56	354.07
697.89	352.44
698.23	350.87
698.56	349.22
698.90	347.63
699.23	345.95
699.57	344.38
699.90	342.81
700.24	341.19
700.58	339.67
700.91	338.23
701.25	336.82
701.58	335.42
701.92	334.02
702.25	332.66
702.59	331.26
702.92	329.93
703.26	328.57
703.59	327.32
703.93	326.09
704.26	324.84
704.60	323.59
704.93	322.28
705.26	320.98
705.60	319.79
705.93	318.61
706.27	317.56
706.60	316.48
706.94	315.41
707.27	314.32
707.61	313.24
707.94	312.15
708.27	311.05
708.61	309.99
708.94	308.99
709.28	308.00
709.61	307.02
709.94	306.06
710.28	305.02
710.61	304.00
710.95	302.95
711.28	302.03
711.61	301.05
711.95	300.14
712.28	299.23
712.61	298.28
712.95	297.34
713.28	296.45
713.61	295.53
713.95	294.66
714.28	293.79
714.61	292.95
714.95	292.12
715.28	291.27
715.61	290.37
715.95	289.52
716.28	288.67
716.61	287.88
716.95	287.02
717.28	286.28
717.61	285.53
717.94	284.82
718.28	284.02
718.61	283.31
718.94	282.61
719.27	281.94
719.61	281.27
719.94	280.59
720.27	279.90
720.60	279.24
720.94	278.61
721.27	278.00
721.60	277.41
721.93	276.81
722.27	276.24
722.60	275.68
722.93	275.08
723.26	274.54
723.59	273.94
723.93	273.42
724.26	272.90
724.59	272.34
724.92	271.76
725.25	271.22
725.59	270.67
725.92	270.16
726.25	269.62
726.58	269.10
726.91	268.59
727.24	268.10
727.57	267.58
727.91	267.05
728.24	266.56
728.57	266.06
728.90	265.57
729.23	265.09
729.56	264.68
729.89	264.18
730.22	263.68
730.55	263.19
730.89	262.72
731.22	262.24
731.55	261.77
731.88	261.31
732.21	260.87
732.54	260.43
732.87	259.98
733.20	259.52
733.53	259.12
733.86	258.73
734.19	258.32
734.52	257.97
734.85	257.60
735.18	257.20
735.51	256.83
735.84	256.46
736.17	256.11
736.50	255.66
736.83	255.44
737.16	255.05
737.49	254.72
737.82	254.33
738.15	253.95
738.48	253.61
738.81	253.26
739.14	252.93
739.47	252.63
739.80	252.30
740.13	252.00
740.46	251.67
740.79	251.38
741.12	251.05
741.45	250.72
741.78	250.41
742.11	250.14
742.44	249.81
742.77	249.51
743.10	249.19
743.43	248.92
743.75	248.52
744.08	248.42
744.41	248.14
744.74	247.92
745.07	247.69
745.40	247.46
745.73	247.26
746.06	247.01
746.39	246.73
746.71	246.46
747.04	246.20
747.37	245.99
747.70	245.74
748.03	245.50
748.36	245.31
748.68	245.08
749.01	244.79
749.34	244.54
749.67	244.30
750.00	244.05
750.33	243.87
750.65	243.70
750.98	243.37
751.31	243.14
751.64	242.94
751.97	242.77
752.29	242.55
752.62	242.30
752.95	242.07
753.28	241.89
753.60	241.71
753.93	241.56
754.26	241.31
754.59	241.06
754.91	240.84
755.24	240.61
755.57	240.41
755.90	240.23
756.22	240.07
756.55	239.87
756.88	239.69
757.20	239.46
757.53	239.23
757.86	239.08
758.19	238.91
758.51	238.75
758.84	238.51
759.17	238.36
759.49	238.20
759.82	238.10
760.15	237.93
760.47	237.77
760.80	237.60
761.13	237.47
761.45	237.32
761.78	237.18
762.11	237.04
762.43	236.90
762.76	236.78
763.08	236.67
763.41	236.55
763.74	236.41
764.06	236.28
764.39	236.16
764.71	236.00
765.04	235.89
765.37	235.73
765.69	235.64
766.02	235.51
766.34	235.38
766.67	235.25
767.00	235.15
767.32	235.09
767.65	235.03
767.97	234.92
768.30	234.82
768.62	234.71
768.95	234.59
769.27	234.44
769.60	234.37
769.92	234.22
770.25	234.12
770.57	234.01
770.90	233.89
771.22	233.77
771.55	233.68
771.87	233.54
772.20	233.44
772.52	233.41
772.85	233.41
773.17	233.30
773.50	233.18
773.82	233.04
774.15	232.89
774.47	232.71
774.80	232.58
775.12	232.51
775.45	232.40
775.77	232.32
776.09	232.26
776.42	232.17
776.74	232.14
777.07	232.03
777.39	231.97
777.72	231.87
778.04	231.81
778.36	231.74
778.69	231.71
779.01	231.67
779.33	231.52
779.66	231.37
779.98	231.30
780.31	231.22
780.63	231.24
780.95	231.21
781.28	231.15
781.60	231.09
781.92	231.02
782.25	230.97
782.57	230.89
782.89	230.81
783.22	230.71
783.54	230.59
783.86	230.55
784.19	230.48
784.51	230.46
784.83	230.41
785.16	230.37
785.48	230.30
785.80	230.22
786.12	230.18
786.45	230.15
786.77	230.15
787.09	230.12
