SpectraSuite Data File
++++++++++++++++++++++++++++++++++++
Date: Fri Feb 01 16:06:38 EST 2013
User: group
Dark Spectrum Present: No
Reference Spectrum Present: No
Number of Sampled Component Spectra: 1
Spectrometers: USB2E7196
Integration Time (usec): 35000 (USB2E7196)
Spectra Averaged: 100 (USB2E7196)
Boxcar Smoothing: 10 (USB2E7196)
Correct for Electrical Dark: No (USB2E7196)
Strobe/Lamp Enabled: No (USB2E7196)
Correct for Detector Non-linearity: No (USB2E7196)
Correct for Stray Light: No (USB2E7196)
Number of Pixels in Processed Spectrum: 2048
>>>>>Begin Processed Spectral Data<<<<<
339.09	0.00
339.48	215.05
339.86	216.29
340.24	217.60
340.63	218.78
341.01	221.82
341.39	222.09
341.78	223.34
342.16	224.52
342.54	224.89
342.93	213.23
343.31	224.02
343.69	224.55
344.07	225.02
344.46	225.48
344.84	225.86
345.22	226.10
345.60	226.35
345.99	226.52
346.37	226.65
346.75	226.74
347.13	226.81
347.52	226.90
347.90	226.96
348.28	226.97
348.66	227.01
349.05	227.06
349.43	227.10
349.81	227.14
350.19	227.17
350.57	227.22
350.96	227.29
351.34	227.35
351.72	227.44
352.10	227.55
352.48	227.58
352.87	227.64
353.25	227.69
353.63	227.74
354.01	227.81
354.39	227.86
354.77	227.94
355.15	228.08
355.54	228.15
355.92	228.19
356.30	228.29
356.68	228.45
357.06	228.49
357.44	228.54
357.82	228.60
358.20	228.65
358.58	228.70
358.97	228.74
359.35	228.82
359.73	228.88
360.11	228.90
360.49	228.94
360.87	228.98
361.25	229.07
361.63	229.10
362.01	229.14
362.39	229.16
362.77	229.19
363.15	229.16
363.53	229.14
363.91	229.15
364.29	229.15
364.67	229.04
365.05	229.06
365.43	229.05
365.81	229.03
366.19	229.09
366.57	229.13
366.95	229.11
367.33	229.13
367.71	229.11
368.09	229.10
368.47	229.07
368.85	229.04
369.23	229.00
369.61	228.97
369.99	228.98
370.37	228.94
370.75	228.96
371.13	228.93
371.51	228.88
371.89	228.82
372.27	228.75
372.65	228.71
373.03	228.63
373.41	228.56
373.78	228.52
374.16	228.40
374.54	228.34
374.92	228.24
375.30	228.11
375.68	227.98
376.06	227.94
376.44	227.89
376.82	227.83
377.19	227.77
377.57	227.71
377.95	227.58
378.33	227.51
378.71	227.38
379.09	227.28
379.47	227.21
379.84	227.14
380.22	227.11
380.60	227.02
380.98	226.99
381.36	226.94
381.73	226.85
382.11	226.80
382.49	226.72
382.87	226.67
383.25	226.60
383.62	226.68
384.00	226.62
384.38	226.57
384.76	226.53
385.13	226.50
385.51	226.42
385.89	226.38
386.27	226.34
386.64	226.29
387.02	226.23
387.40	226.18
387.78	226.17
388.15	226.12
388.53	226.08
388.91	226.00
389.29	225.97
389.66	225.98
390.04	225.94
390.42	225.94
390.79	225.90
391.17	225.91
391.55	225.80
391.92	225.79
392.30	225.82
392.68	225.79
393.05	225.79
393.43	225.81
393.81	225.84
394.18	225.82
394.56	225.85
394.94	225.92
395.31	225.93
395.69	225.97
396.06	226.02
396.44	226.06
396.82	226.09
397.19	226.14
397.57	226.18
397.95	226.25
398.32	226.28
398.70	226.38
399.07	226.48
399.45	226.52
399.82	226.58
400.20	226.60
400.58	226.65
400.95	226.71
401.33	226.80
401.70	226.96
402.08	227.05
402.45	227.14
402.83	227.27
403.20	227.39
403.58	227.50
403.95	227.62
404.33	227.76
404.71	227.91
405.08	228.12
405.46	228.27
405.83	228.44
406.21	228.58
406.58	228.73
406.96	228.86
407.33	229.06
407.70	229.26
408.08	229.54
408.45	229.80
408.83	230.00
409.20	230.22
409.58	230.39
409.95	230.68
410.33	230.93
410.70	231.16
411.08	231.47
411.45	231.77
411.82	232.07
412.20	232.44
412.57	232.88
412.95	233.16
413.32	233.57
413.69	233.95
414.07	234.40
414.44	234.85
414.82	235.37
415.19	235.92
415.56	236.49
415.94	237.06
416.31	237.66
416.68	238.31
417.06	239.03
417.43	239.72
417.81	240.51
418.18	241.34
418.55	242.17
418.93	243.05
419.30	243.95
419.67	244.89
420.04	245.82
420.42	246.78
420.79	247.98
421.16	249.13
421.54	250.32
421.91	251.54
422.28	252.80
422.66	254.11
423.03	255.41
423.40	256.75
423.77	258.13
424.15	259.58
424.52	261.05
424.89	262.64
425.26	264.16
425.64	265.59
426.01	267.14
426.38	268.79
426.75	270.46
427.13	272.20
427.50	274.00
427.87	275.89
428.24	277.73
428.61	279.48
428.99	281.45
429.36	283.54
429.73	285.58
430.10	287.60
430.47	289.66
430.85	291.75
431.22	293.99
431.59	296.37
431.96	298.59
432.33	301.11
432.70	303.48
433.08	306.28
433.45	308.93
433.82	311.59
434.19	314.48
434.56	317.28
434.93	319.90
435.30	322.52
435.68	325.40
436.05	328.26
436.42	331.02
436.79	333.49
437.16	336.18
437.53	338.99
437.90	341.79
438.27	344.51
438.64	347.34
439.01	349.91
439.38	352.14
439.75	354.30
440.13	356.74
440.50	359.05
440.87	360.86
441.24	362.82
441.61	364.92
441.98	366.37
442.35	368.17
442.72	370.02
443.09	371.77
443.46	372.75
443.83	373.27
444.20	373.79
444.57	374.62
444.94	374.92
445.31	375.24
445.68	375.61
446.05	375.72
446.42	375.36
446.79	374.94
447.16	374.49
447.53	374.15
447.90	373.03
448.27	371.91
448.64	370.34
449.01	369.18
449.37	367.16
449.74	365.30
450.11	363.06
450.48	360.63
450.85	358.13
451.22	355.96
451.59	353.99
451.96	352.04
452.33	349.47
452.70	347.14
453.07	344.34
453.43	341.45
453.80	338.66
454.17	335.96
454.54	333.40
454.91	330.68
455.28	328.06
455.65	325.57
456.02	323.12
456.38	320.99
456.75	318.30
457.12	316.13
457.49	313.92
457.86	311.77
458.23	309.92
458.59	307.90
458.96	305.85
459.33	303.99
459.70	302.14
460.07	300.62
460.43	298.84
460.80	297.26
461.17	295.83
461.54	294.38
461.91	292.96
462.27	291.55
462.64	290.31
463.01	288.96
463.38	287.68
463.74	286.32
464.11	285.19
464.48	284.20
464.85	283.09
465.21	282.21
465.58	281.27
465.95	280.17
466.32	279.27
466.68	278.37
467.05	277.54
467.42	276.64
467.78	275.72
468.15	274.89
468.52	274.22
468.88	273.33
469.25	272.54
469.62	271.94
469.98	271.26
470.35	270.65
470.72	270.02
471.08	269.33
471.45	268.81
471.82	268.25
472.18	267.67
472.55	267.23
472.92	266.76
473.28	266.30
473.65	265.86
474.02	265.44
474.38	265.09
474.75	264.74
475.11	264.38
475.48	264.14
475.85	263.93
476.21	263.76
476.58	263.57
476.94	263.44
477.31	263.26
477.67	263.11
478.04	263.00
478.41	262.97
478.77	263.01
479.14	262.96
479.50	263.00
479.87	263.07
480.23	263.12
480.60	263.15
480.96	263.26
481.33	263.48
481.69	263.69
482.06	263.88
482.42	264.07
482.79	264.39
483.15	264.69
483.52	265.07
483.88	265.31
484.25	265.72
484.61	266.14
484.98	266.56
485.34	267.15
485.71	267.75
486.07	268.36
486.44	268.95
486.80	269.59
487.17	270.35
487.53	271.17
487.90	272.06
488.26	272.99
488.62	273.96
488.99	274.96
489.35	275.99
489.72	277.10
490.08	278.32
490.44	279.52
490.81	280.89
491.17	282.23
491.54	283.78
491.90	285.32
492.26	286.99
492.63	288.77
492.99	290.54
493.36	292.42
493.72	294.50
494.08	296.58
494.45	298.86
494.81	301.22
495.17	303.63
495.54	306.17
495.90	308.87
496.26	311.69
496.63	314.63
496.99	317.76
497.35	321.01
497.72	324.44
498.08	327.96
498.44	331.58
498.80	335.52
499.17	339.56
499.53	343.76
499.89	348.14
500.26	352.57
500.62	357.23
500.98	362.18
501.34	367.20
501.71	372.56
502.07	378.03
502.43	383.64
502.79	389.46
503.16	395.56
503.52	401.84
503.88	408.24
504.24	414.84
504.60	421.75
504.97	428.92
505.33	436.23
505.69	443.93
506.05	451.71
506.41	459.61
506.78	467.76
507.14	476.20
507.50	484.94
507.86	494.02
508.22	503.19
508.59	512.41
508.95	522.02
509.31	531.77
509.67	541.84
510.03	552.06
510.39	562.64
510.75	573.47
511.12	584.33
511.48	595.58
511.84	607.03
512.20	618.52
512.56	630.46
512.92	642.62
513.28	655.00
513.64	667.50
514.00	680.19
514.37	693.16
514.73	706.20
515.09	719.23
515.45	732.54
515.81	746.15
516.17	760.13
516.53	774.29
516.89	788.49
517.25	802.68
517.61	817.22
517.97	831.70
518.33	846.08
518.69	860.82
519.05	875.89
519.41	891.09
519.77	906.69
520.13	922.12
520.49	937.43
520.85	952.73
521.21	968.36
521.57	984.62
521.93	1000.33
522.29	1016.73
522.65	1032.81
523.01	1048.95
523.37	1064.95
523.73	1081.07
524.09	1097.14
524.45	1113.41
524.81	1130.03
525.17	1146.78
525.53	1163.47
525.89	1180.33
526.25	1197.22
526.61	1213.62
526.97	1230.27
527.33	1246.62
527.68	1263.18
528.04	1279.61
528.40	1296.22
528.76	1313.18
529.12	1329.68
529.48	1346.47
529.84	1362.35
530.20	1379.10
530.56	1396.10
530.91	1413.47
531.27	1430.21
531.63	1446.61
531.99	1463.22
532.35	1479.14
532.71	1494.94
533.07	1511.29
533.42	1527.19
533.78	1543.16
534.14	1559.38
534.50	1574.75
534.86	1590.55
535.21	1605.66
535.57	1621.61
535.93	1637.10
536.29	1651.92
536.65	1666.85
537.00	1681.53
537.36	1696.85
537.72	1711.25
538.08	1725.60
538.44	1739.38
538.79	1753.25
539.15	1766.82
539.51	1780.37
539.87	1794.70
540.22	1808.38
540.58	1821.99
540.94	1835.25
541.29	1848.15
541.65	1860.82
542.01	1874.01
542.37	1886.30
542.72	1898.74
543.08	1910.55
543.44	1922.85
543.79	1934.10
544.15	1945.24
544.51	1956.91
544.87	1967.84
545.22	1978.65
545.58	1988.85
545.94	1998.52
546.29	2008.30
546.65	2018.29
547.01	2027.58
547.36	2036.26
547.72	2044.67
548.07	2052.53
548.43	2060.66
548.79	2068.59
549.14	2075.99
549.50	2083.23
549.86	2090.83
550.21	2098.04
550.57	2105.04
550.92	2111.63
551.28	2118.74
551.64	2125.70
551.99	2132.20
552.35	2138.36
552.70	2144.36
553.06	2150.42
553.41	2156.77
553.77	2163.01
554.13	2169.05
554.48	2175.22
554.84	2180.64
555.19	2185.93
555.55	2191.09
555.90	2195.61
556.26	2200.61
556.61	2205.37
556.97	2209.74
557.32	2214.09
557.68	2218.29
558.03	2222.69
558.39	2226.36
558.74	2230.84
559.10	2234.65
559.45	2238.34
559.81	2242.64
560.16	2246.58
560.52	2249.65
560.87	2253.08
561.23	2255.55
561.58	2258.48
561.94	2261.17
562.29	2263.51
562.64	2266.19
563.00	2268.83
563.35	2272.23
563.71	2275.27
564.06	2278.50
564.42	2281.36
564.77	2283.73
565.12	2286.07
565.48	2288.00
565.83	2289.78
566.19	2291.14
566.54	2292.08
566.89	2293.21
567.25	2293.76
567.60	2295.06
567.96	2296.93
568.31	2297.78
568.66	2298.87
569.02	2299.36
569.37	2299.59
569.72	2300.54
570.08	2300.74
570.43	2300.81
570.78	2300.34
571.14	2298.76
571.49	2297.30
571.84	2296.90
572.20	2295.71
572.55	2294.69
572.90	2292.96
573.26	2291.72
573.61	2290.02
573.96	2288.31
574.31	2285.42
574.67	2282.48
575.02	2278.93
575.37	2275.41
575.72	2271.64
576.08	2268.36
576.43	2265.12
576.78	2261.37
577.13	2258.24
577.49	2255.11
577.84	2251.67
578.19	2247.83
578.54	2244.27
578.90	2240.27
579.25	2234.84
579.60	2229.99
579.95	2224.98
580.30	2220.10
580.66	2214.82
581.01	2209.92
581.36	2205.07
581.71	2200.86
582.06	2196.46
582.42	2192.06
582.77	2186.97
583.12	2182.43
583.47	2177.70
583.82	2172.71
584.17	2167.60
584.53	2162.13
584.88	2156.52
585.23	2150.85
585.58	2145.48
585.93	2140.12
586.28	2135.21
586.63	2130.18
586.98	2125.07
587.34	2120.40
587.69	2115.58
588.04	2110.40
588.39	2104.79
588.74	2098.16
589.09	2092.01
589.44	2085.14
589.79	2079.12
590.14	2073.44
590.49	2066.84
590.84	2060.39
591.19	2054.45
591.54	2047.98
591.89	2040.61
592.25	2033.81
592.60	2026.55
592.95	2018.95
593.30	2011.50
593.65	2003.96
594.00	1996.89
594.35	1989.75
594.70	1981.58
595.05	1974.48
595.40	1967.42
595.75	1959.91
596.10	1953.82
596.45	1946.98
596.80	1940.91
597.15	1934.31
597.50	1927.16
597.85	1920.77
598.19	1914.18
598.54	1907.01
598.89	1900.41
599.24	1894.53
599.59	1887.97
599.94	1881.73
600.29	1875.51
600.64	1869.03
600.99	1861.65
601.34	1854.94
601.69	1848.01
602.04	1841.31
602.39	1833.89
602.74	1826.96
603.08	1820.29
603.43	1813.58
603.78	1806.38
604.13	1799.19
604.48	1791.92
604.83	1785.21
605.18	1778.38
605.53	1770.48
605.87	1762.44
606.22	1755.18
606.57	1747.18
606.92	1739.97
607.27	1732.78
607.62	1725.75
607.96	1718.46
608.31	1711.89
608.66	1704.15
609.01	1696.51
609.36	1688.89
609.70	1680.87
610.05	1672.91
610.40	1665.20
610.75	1656.85
611.10	1649.13
611.44	1640.62
611.79	1632.64
612.14	1623.82
612.49	1614.52
612.83	1606.10
613.18	1598.00
613.53	1589.90
613.88	1581.33
614.22	1572.93
614.57	1564.35
614.92	1556.32
615.27	1548.76
615.61	1540.36
615.96	1532.25
616.31	1524.64
616.65	1517.23
617.00	1509.63
617.35	1501.73
617.70	1493.29
618.04	1484.83
618.39	1476.66
618.74	1469.13
619.08	1460.71
619.43	1453.21
619.78	1446.29
620.12	1439.12
620.47	1431.64
620.82	1423.52
621.16	1416.11
621.51	1408.48
621.85	1400.89
622.20	1392.39
622.55	1384.01
622.89	1376.12
623.24	1368.58
623.59	1361.07
623.93	1353.52
624.28	1346.33
624.62	1338.90
624.97	1331.76
625.32	1324.95
625.66	1317.92
626.01	1310.73
626.35	1303.26
626.70	1295.46
627.04	1287.77
627.39	1280.08
627.73	1272.58
628.08	1265.62
628.43	1258.28
628.77	1250.89
629.12	1243.24
629.46	1236.07
629.81	1228.58
630.15	1221.44
630.50	1214.04
630.84	1205.92
631.19	1197.99
631.53	1190.42
631.88	1182.95
632.22	1175.42
632.57	1168.15
632.91	1160.64
633.26	1153.27
633.60	1145.85
633.95	1138.75
634.29	1131.72
634.64	1124.95
634.98	1117.64
635.32	1110.40
635.67	1103.79
636.01	1097.18
636.36	1090.37
636.70	1083.77
637.05	1077.24
637.39	1070.69
637.73	1064.10
638.08	1058.26
638.42	1052.32
638.77	1045.86
639.11	1039.28
639.45	1032.78
639.80	1026.06
640.14	1019.61
640.49	1013.06
640.83	1006.84
641.17	1000.66
641.52	994.28
641.86	987.81
642.20	982.01
642.55	975.69
642.89	969.26
643.23	962.63
643.58	956.93
643.92	950.81
644.26	944.83
644.61	938.80
644.95	932.92
645.29	926.24
645.64	919.45
645.98	913.22
646.32	907.31
646.66	901.31
647.01	895.51
647.35	889.79
647.69	883.99
648.04	878.45
648.38	872.59
648.72	866.58
649.06	860.49
649.41	854.53
649.75	848.64
650.09	842.69
650.43	836.99
650.78	830.79
651.12	824.89
651.46	819.05
651.80	813.28
652.14	807.79
652.49	802.53
652.83	797.39
653.17	791.69
653.51	785.97
653.85	780.51
654.20	774.93
654.54	768.94
654.88	763.15
655.22	757.20
655.56	751.57
655.90	746.17
656.25	740.96
656.59	735.51
656.93	730.46
657.27	725.32
657.61	719.82
657.95	714.75
658.29	709.59
658.64	704.37
658.98	699.09
659.32	693.61
659.66	688.40
660.00	683.11
660.34	678.15
660.68	673.17
661.02	668.19
661.36	663.44
661.70	658.89
662.05	654.50
662.39	650.21
662.73	645.67
663.07	641.34
663.41	636.95
663.75	632.49
664.09	627.89
664.43	623.47
664.77	619.39
665.11	615.13
665.45	610.98
665.79	606.96
666.13	602.84
666.47	598.76
666.81	594.54
667.15	590.33
667.49	586.40
667.83	582.62
668.17	578.66
668.51	574.59
668.85	570.59
669.19	566.79
669.53	562.95
669.87	559.19
670.21	555.44
670.55	551.70
670.89	548.27
671.23	544.81
671.57	541.32
671.91	537.78
672.25	534.26
672.58	530.74
672.92	527.30
673.26	524.08
673.60	520.88
673.94	517.80
674.28	514.96
674.62	512.01
674.96	508.85
675.30	505.99
675.64	503.09
675.97	500.31
676.31	497.41
676.65	494.48
676.99	491.71
677.33	488.80
677.67	486.05
678.01	483.07
678.34	480.07
678.68	477.18
679.02	474.37
679.36	471.61
679.70	468.89
680.04	466.12
680.37	463.27
680.71	460.50
681.05	457.95
681.39	455.16
681.73	452.53
682.06	450.03
682.40	447.50
682.74	444.92
683.08	442.41
683.42	439.87
683.75	437.40
684.09	434.84
684.43	432.35
684.77	429.82
685.10	427.45
685.44	425.15
685.78	422.92
686.12	420.65
686.45	418.39
686.79	416.11
687.13	413.93
687.46	411.80
687.80	409.63
688.14	407.38
688.48	405.36
688.81	403.12
689.15	400.99
689.49	398.81
689.82	396.78
690.16	394.62
690.50	392.64
690.83	390.71
691.17	388.72
691.51	386.83
691.84	385.00
692.18	383.07
692.52	381.08
692.85	379.11
693.19	377.21
693.52	375.37
693.86	373.59
694.20	371.85
694.53	370.02
694.87	368.19
695.21	366.41
695.54	364.56
695.88	362.83
696.21	361.12
696.55	359.46
696.88	357.73
697.22	356.10
697.56	354.48
697.89	352.82
698.23	351.22
698.56	349.61
698.90	348.05
699.23	346.39
699.57	344.84
699.90	343.29
700.24	341.79
700.58	340.24
700.91	338.73
701.25	337.26
701.58	335.90
701.92	334.55
702.25	333.15
702.59	331.78
702.92	330.46
703.26	329.16
703.59	327.82
703.93	326.66
704.26	325.45
704.60	324.13
704.93	322.85
705.26	321.57
705.60	320.39
705.93	319.17
706.27	318.15
706.60	317.09
706.94	315.99
707.27	314.88
707.61	313.86
707.94	312.82
708.27	311.70
708.61	310.62
708.94	309.62
709.28	308.66
709.61	307.72
709.94	306.75
710.28	305.69
710.61	304.72
710.95	303.61
711.28	302.69
711.61	301.74
711.95	300.83
712.28	299.89
712.61	298.92
712.95	298.01
713.28	297.11
713.61	296.24
713.95	295.36
714.28	294.51
714.61	293.63
714.95	292.76
715.28	291.90
715.61	291.00
715.95	290.10
716.28	289.21
716.61	288.38
716.95	287.56
717.28	286.82
717.61	286.08
717.94	285.34
718.28	284.50
718.61	283.78
718.94	283.05
719.27	282.40
719.61	281.74
719.94	281.08
720.27	280.36
720.60	279.69
720.94	279.06
721.27	278.43
721.60	277.86
721.93	277.28
722.27	276.78
722.60	276.27
722.93	275.70
723.26	275.17
723.59	274.63
723.93	274.11
724.26	273.55
724.59	272.96
724.92	272.44
725.25	271.94
725.59	271.44
725.92	270.94
726.25	270.43
726.58	269.96
726.91	269.47
727.24	269.02
727.57	268.57
727.91	268.08
728.24	267.61
728.57	267.11
728.90	266.64
729.23	266.09
729.56	265.63
729.89	265.17
730.22	264.68
730.55	264.17
730.89	263.69
731.22	263.27
731.55	262.82
731.88	262.40
732.21	262.00
732.54	261.54
732.87	261.14
733.20	260.73
733.53	260.33
733.86	259.96
734.19	259.55
734.52	259.13
734.85	258.79
735.18	258.38
735.51	258.04
735.84	257.67
736.17	257.32
736.50	256.89
736.83	256.66
737.16	256.33
737.49	256.01
737.82	255.63
738.15	255.32
738.48	255.02
738.81	254.68
739.14	254.36
739.47	254.00
739.80	253.66
740.13	253.35
740.46	253.01
740.79	252.69
741.12	252.38
741.45	252.06
741.78	251.72
742.11	251.43
742.44	251.08
742.77	250.83
743.10	250.52
743.43	250.24
743.75	249.86
744.08	249.70
744.41	249.43
744.74	249.21
745.07	248.89
745.40	248.66
745.73	248.44
746.06	248.17
746.39	247.95
746.71	247.73
747.04	247.45
747.37	247.20
747.70	246.95
748.03	246.70
748.36	246.51
748.68	246.26
749.01	246.01
749.34	245.77
749.67	245.49
750.00	245.31
750.33	245.15
750.65	244.93
750.98	244.57
751.31	244.36
751.64	244.13
751.97	243.92
752.29	243.68
752.62	243.42
752.95	243.21
753.28	242.98
753.60	242.74
753.93	242.57
754.26	242.31
754.59	242.11
754.91	241.89
755.24	241.66
755.57	241.46
755.90	241.27
756.22	241.08
756.55	240.91
756.88	240.69
757.20	240.44
757.53	240.27
757.86	240.11
758.19	239.94
758.51	239.77
758.84	239.61
759.17	239.40
759.49	239.26
759.82	239.13
760.15	238.99
760.47	238.85
760.80	238.66
761.13	238.60
761.45	238.40
761.78	238.28
762.11	238.11
762.43	237.98
762.76	237.84
763.08	237.72
763.41	237.61
763.74	237.45
764.06	237.33
764.39	237.18
764.71	237.04
765.04	236.94
765.37	236.81
765.69	236.70
766.02	236.62
766.34	236.52
766.67	236.36
767.00	236.25
767.32	236.20
767.65	236.17
767.97	236.05
768.30	235.96
768.62	235.85
768.95	235.73
769.27	235.63
769.60	235.55
769.92	235.44
770.25	235.31
770.57	235.22
770.90	235.16
771.22	235.05
771.55	234.97
771.87	234.86
772.20	234.76
772.52	234.76
772.85	234.82
773.17	234.68
773.50	234.60
773.82	234.56
774.15	234.42
774.47	234.25
774.80	234.16
775.12	234.10
775.45	234.04
775.77	233.99
776.09	233.93
776.42	233.86
776.74	233.82
777.07	233.74
777.39	233.70
777.72	233.59
778.04	233.53
778.36	233.45
778.69	233.38
779.01	233.35
779.33	233.19
779.66	232.99
779.98	232.94
780.31	232.89
780.63	232.81
780.95	232.79
781.28	232.71
781.60	232.65
781.92	232.56
782.25	232.48
782.57	232.44
782.89	232.38
783.22	232.33
783.54	232.27
783.86	232.21
784.19	232.12
784.51	232.09
784.83	232.04
785.16	232.02
785.48	231.97
785.80	231.87
786.12	231.82
786.45	231.78
786.77	231.73
787.09	231.66
