SpectraSuite Data File
++++++++++++++++++++++++++++++++++++
Date: Fri Feb 01 14:51:01 EST 2013
User: group
Dark Spectrum Present: No
Reference Spectrum Present: No
Number of Sampled Component Spectra: 1
Spectrometers: USB2E7196
Integration Time (usec): 35000 (USB2E7196)
Spectra Averaged: 100 (USB2E7196)
Boxcar Smoothing: 10 (USB2E7196)
Correct for Electrical Dark: No (USB2E7196)
Strobe/Lamp Enabled: No (USB2E7196)
Correct for Detector Non-linearity: No (USB2E7196)
Correct for Stray Light: No (USB2E7196)
Number of Pixels in Processed Spectrum: 2048
>>>>>Begin Processed Spectral Data<<<<<
339.09	0.00
339.48	215.46
339.86	217.23
340.24	218.76
340.63	220.21
341.01	223.05
341.39	222.95
341.78	223.74
342.16	225.41
342.54	226.18
342.93	214.10
343.31	224.91
343.69	225.45
344.07	225.91
344.46	226.33
344.84	226.69
345.22	226.92
345.60	227.16
345.99	227.36
346.37	227.46
346.75	227.53
347.13	227.58
347.52	227.65
347.90	227.73
348.28	227.76
348.66	227.83
349.05	227.82
349.43	227.87
349.81	227.91
350.19	227.93
350.57	227.99
350.96	228.04
351.34	228.13
351.72	228.23
352.10	228.34
352.48	228.39
352.87	228.44
353.25	228.51
353.63	228.59
354.01	228.63
354.39	228.71
354.77	228.82
355.15	228.93
355.54	228.96
355.92	228.99
356.30	229.05
356.68	229.15
357.06	229.22
357.44	229.26
357.82	229.33
358.20	229.38
358.58	229.39
358.97	229.45
359.35	229.50
359.73	229.57
360.11	229.60
360.49	229.63
360.87	229.67
361.25	229.68
361.63	229.70
362.01	229.75
362.39	229.76
362.77	229.76
363.15	229.77
363.53	229.77
363.91	229.80
364.29	229.82
364.67	229.75
365.05	229.76
365.43	229.74
365.81	229.73
366.19	229.75
366.57	229.81
366.95	229.73
367.33	229.68
367.71	229.63
368.09	229.63
368.47	229.62
368.85	229.56
369.23	229.56
369.61	229.49
369.99	229.49
370.37	229.46
370.75	229.47
371.13	229.39
371.51	229.31
371.89	229.27
372.27	229.18
372.65	229.14
373.03	229.04
373.41	228.99
373.78	228.91
374.16	228.81
374.54	228.71
374.92	228.69
375.30	228.60
375.68	228.52
376.06	228.41
376.44	228.32
376.82	228.27
377.19	228.19
377.57	228.15
377.95	228.02
378.33	227.93
378.71	227.77
379.09	227.72
379.47	227.68
379.84	227.60
380.22	227.54
380.60	227.46
380.98	227.40
381.36	227.33
381.73	227.26
382.11	227.20
382.49	227.14
382.87	227.06
383.25	227.03
383.62	227.09
384.00	227.06
384.38	227.02
384.76	226.99
385.13	226.99
385.51	226.94
385.89	226.91
386.27	226.90
386.64	226.88
387.02	226.83
387.40	226.78
387.78	226.76
388.15	226.73
388.53	226.68
388.91	226.66
389.29	226.62
389.66	226.66
390.04	226.64
390.42	226.63
390.79	226.66
391.17	226.68
391.55	226.59
391.92	226.57
392.30	226.60
392.68	226.60
393.05	226.59
393.43	226.61
393.81	226.63
394.18	226.66
394.56	226.70
394.94	226.77
395.31	226.82
395.69	226.89
396.06	226.96
396.44	227.04
396.82	227.09
397.19	227.21
397.57	227.24
397.95	227.31
398.32	227.38
398.70	227.43
399.07	227.52
399.45	227.61
399.82	227.70
400.20	227.77
400.58	227.88
400.95	227.95
401.33	228.06
401.70	228.21
402.08	228.33
402.45	228.47
402.83	228.61
403.20	228.71
403.58	228.85
403.95	228.97
404.33	229.13
404.71	229.30
405.08	229.48
405.46	229.64
405.83	229.80
406.21	229.99
406.58	230.15
406.96	230.29
407.33	230.45
407.70	230.62
408.08	230.95
408.45	231.16
408.83	231.40
409.20	231.61
409.58	231.76
409.95	232.02
410.33	232.23
410.70	232.47
411.08	232.78
411.45	233.08
411.82	233.36
412.20	233.70
412.57	234.11
412.95	234.37
413.32	234.75
413.69	235.18
414.07	235.57
414.44	236.02
414.82	236.51
415.19	237.08
415.56	237.61
415.94	238.11
416.31	238.71
416.68	239.31
417.06	240.01
417.43	240.69
417.81	241.43
418.18	242.23
418.55	243.07
418.93	243.91
419.30	244.76
419.67	245.71
420.04	246.67
420.42	247.60
420.79	248.81
421.16	249.96
421.54	251.10
421.91	252.32
422.28	253.62
422.66	254.94
423.03	256.16
423.40	257.49
423.77	258.87
424.15	260.28
424.52	261.77
424.89	263.38
425.26	264.93
425.64	266.36
426.01	267.94
426.38	269.53
426.75	271.19
427.13	272.93
427.50	274.71
427.87	276.56
428.24	278.46
428.61	280.16
428.99	282.10
429.36	284.21
429.73	286.24
430.10	288.23
430.47	290.29
430.85	292.41
431.22	294.67
431.59	297.06
431.96	299.33
432.33	301.81
432.70	304.17
433.08	306.97
433.45	309.62
433.82	312.23
434.19	315.12
434.56	317.93
434.93	320.60
435.30	323.20
435.68	326.12
436.05	328.92
436.42	331.73
436.79	334.26
437.16	336.99
437.53	339.86
437.90	342.69
438.27	345.44
438.64	348.34
439.01	350.95
439.38	353.18
439.75	355.36
440.13	357.86
440.50	360.20
440.87	362.05
441.24	363.98
441.61	366.17
441.98	367.73
442.35	369.55
442.72	371.43
443.09	373.29
443.46	374.29
443.83	374.89
444.20	375.37
444.57	376.19
444.94	376.49
445.31	376.82
445.68	377.14
446.05	377.24
446.42	376.84
446.79	376.42
447.16	375.98
447.53	375.72
447.90	374.60
448.27	373.46
448.64	371.89
449.01	370.83
449.37	368.87
449.74	366.95
450.11	364.73
450.48	362.25
450.85	359.72
451.22	357.60
451.59	355.60
451.96	353.68
452.33	351.12
452.70	348.77
453.07	345.92
453.43	343.05
453.80	340.27
454.17	337.57
454.54	335.04
454.91	332.30
455.28	329.61
455.65	327.07
456.02	324.63
456.38	322.49
456.75	319.79
457.12	317.57
457.49	315.36
457.86	313.19
458.23	311.31
458.59	309.25
458.96	307.16
459.33	305.33
459.70	303.46
460.07	301.94
460.43	300.17
460.80	298.57
461.17	297.14
461.54	295.65
461.91	294.21
462.27	292.74
462.64	291.49
463.01	290.09
463.38	288.80
463.74	287.37
464.11	286.17
464.48	285.13
464.85	283.94
465.21	283.05
465.58	282.13
465.95	281.03
466.32	280.13
466.68	279.19
467.05	278.25
467.42	277.38
467.78	276.41
468.15	275.54
468.52	274.82
468.88	273.94
469.25	273.12
469.62	272.48
469.98	271.77
470.35	271.10
470.72	270.47
471.08	269.78
471.45	269.26
471.82	268.70
472.18	268.06
472.55	267.65
472.92	267.12
473.28	266.57
473.65	266.09
474.02	265.61
474.38	265.19
474.75	264.86
475.11	264.49
475.48	264.20
475.85	263.96
476.21	263.75
476.58	263.57
476.94	263.40
477.31	263.24
477.67	263.08
478.04	262.99
478.41	262.89
478.77	262.91
479.14	262.82
479.50	262.80
479.87	262.88
480.23	262.91
480.60	262.94
480.96	263.05
481.33	263.27
481.69	263.46
482.06	263.68
482.42	263.84
482.79	264.10
483.15	264.43
483.52	264.75
483.88	265.10
484.25	265.45
484.61	265.88
484.98	266.32
485.34	266.89
485.71	267.50
486.07	268.16
486.44	268.75
486.80	269.45
487.17	270.17
487.53	271.03
487.90	271.91
488.26	272.82
488.62	273.81
488.99	274.76
489.35	275.79
489.72	276.95
490.08	278.17
490.44	279.39
490.81	280.71
491.17	282.06
491.54	283.52
491.90	285.05
492.26	286.70
492.63	288.43
492.99	290.23
493.36	292.06
493.72	294.07
494.08	296.14
494.45	298.39
494.81	300.76
495.17	303.16
495.54	305.72
495.90	308.41
496.26	311.19
496.63	314.18
496.99	317.26
497.35	320.47
497.72	323.85
498.08	327.36
498.44	331.01
498.80	334.91
499.17	338.94
499.53	343.06
499.89	347.43
500.26	351.95
500.62	356.57
500.98	361.53
501.34	366.57
501.71	371.88
502.07	377.28
502.43	382.85
502.79	388.61
503.16	394.59
503.52	400.79
503.88	407.14
504.24	413.66
504.60	420.54
504.97	427.56
505.33	434.82
505.69	442.43
506.05	450.11
506.41	457.98
506.78	466.07
507.14	474.49
507.50	483.08
507.86	491.94
508.22	501.06
508.59	510.17
508.95	519.65
509.31	529.41
509.67	539.43
510.03	549.64
510.39	560.12
510.75	570.86
511.12	581.79
511.48	593.04
511.84	604.42
512.20	615.84
512.56	627.93
512.92	640.06
513.28	652.34
513.64	664.82
514.00	677.43
514.37	690.35
514.73	703.37
515.09	716.46
515.45	729.73
515.81	743.27
516.17	757.26
516.53	771.45
516.89	785.62
517.25	799.81
517.61	814.23
517.97	828.70
518.33	843.05
518.69	857.79
519.05	872.75
519.41	887.93
519.77	903.51
520.13	918.86
520.49	934.27
520.85	949.70
521.21	965.41
521.57	981.72
521.93	997.63
522.29	1014.17
522.65	1030.43
523.01	1046.73
523.37	1062.89
523.73	1079.12
524.09	1095.22
524.45	1111.56
524.81	1128.32
525.17	1145.24
525.53	1162.31
525.89	1179.30
526.25	1196.19
526.61	1212.69
526.97	1229.56
527.33	1246.06
527.68	1262.75
528.04	1279.31
528.40	1296.00
528.76	1313.12
529.12	1329.79
529.48	1346.52
529.84	1362.52
530.20	1379.15
530.56	1396.26
530.91	1413.57
531.27	1430.43
531.63	1447.01
531.99	1463.71
532.35	1479.70
532.71	1495.56
533.07	1511.85
533.42	1527.82
533.78	1543.90
534.14	1560.18
534.50	1575.59
534.86	1591.52
535.21	1606.70
535.57	1622.69
535.93	1638.25
536.29	1653.23
536.65	1668.50
537.00	1683.52
537.36	1698.98
537.72	1713.56
538.08	1728.06
538.44	1742.02
538.79	1755.89
539.15	1769.65
539.51	1783.47
539.87	1797.93
540.22	1811.74
540.58	1825.53
540.94	1838.97
541.29	1851.86
541.65	1864.78
542.01	1878.03
542.37	1890.38
542.72	1902.99
543.08	1914.94
543.44	1927.38
543.79	1938.59
544.15	1949.49
544.51	1961.06
544.87	1971.92
545.22	1982.93
545.58	1993.18
545.94	2002.94
546.29	2012.86
546.65	2022.63
547.01	2031.73
547.36	2040.43
547.72	2049.00
548.07	2056.88
548.43	2064.99
548.79	2073.12
549.14	2080.62
549.50	2088.02
549.86	2095.83
550.21	2102.92
550.57	2109.95
550.92	2116.40
551.28	2123.34
551.64	2130.40
551.99	2136.86
552.35	2142.82
552.70	2148.89
553.06	2154.74
553.41	2160.99
553.77	2166.90
554.13	2172.88
554.48	2179.08
554.84	2184.36
555.19	2189.47
555.55	2194.39
555.90	2198.72
556.26	2203.45
556.61	2207.98
556.97	2211.92
557.32	2215.87
557.68	2220.04
558.03	2224.17
558.39	2227.82
558.74	2232.36
559.10	2236.05
559.45	2239.53
559.81	2243.86
560.16	2247.42
560.52	2250.42
560.87	2253.71
561.23	2256.15
561.58	2259.01
561.94	2261.36
562.29	2263.69
562.64	2266.28
563.00	2268.82
563.35	2272.31
563.71	2275.34
564.06	2278.35
564.42	2281.13
564.77	2283.50
565.12	2285.44
565.48	2287.27
565.83	2289.07
566.19	2290.25
566.54	2290.95
566.89	2291.85
567.25	2292.15
567.60	2293.37
567.96	2294.86
568.31	2295.43
568.66	2296.34
569.02	2296.63
569.37	2296.68
569.72	2297.19
570.08	2296.97
570.43	2296.65
570.78	2295.66
571.14	2293.86
571.49	2292.35
571.84	2291.91
572.20	2290.36
572.55	2289.12
572.90	2287.18
573.26	2285.46
573.61	2283.52
573.96	2281.57
574.31	2278.47
574.67	2275.28
575.02	2271.41
575.37	2267.94
575.72	2264.11
576.08	2260.69
576.43	2257.24
576.78	2253.48
577.13	2250.14
577.49	2246.94
577.84	2243.33
578.19	2239.53
578.54	2235.58
578.90	2230.90
579.25	2225.01
579.60	2219.95
579.95	2214.72
580.30	2209.52
580.66	2204.13
581.01	2198.97
581.36	2193.97
581.71	2189.43
582.06	2184.97
582.42	2180.26
582.77	2174.81
583.12	2169.93
583.47	2165.05
583.82	2159.96
584.17	2154.44
584.53	2148.85
584.88	2143.10
585.23	2137.15
585.58	2131.59
585.93	2126.12
586.28	2121.47
586.63	2116.34
586.98	2111.14
587.34	2106.49
587.69	2101.60
588.04	2096.28
588.39	2090.42
588.74	2083.75
589.09	2077.47
589.44	2070.38
589.79	2064.22
590.14	2058.37
590.49	2051.66
590.84	2045.14
591.19	2038.79
591.54	2032.30
591.89	2024.80
592.25	2017.78
592.60	2010.56
592.95	2002.73
593.30	1995.21
593.65	1987.47
594.00	1980.14
594.35	1972.81
594.70	1964.62
595.05	1957.26
595.40	1949.92
595.75	1942.49
596.10	1936.08
596.45	1929.20
596.80	1922.97
597.15	1916.28
597.50	1909.14
597.85	1902.68
598.19	1895.96
598.54	1889.00
598.89	1882.22
599.24	1876.21
599.59	1869.56
599.94	1863.14
600.29	1856.86
600.64	1850.13
600.99	1842.44
601.34	1835.71
601.69	1828.60
602.04	1821.56
602.39	1814.14
602.74	1807.24
603.08	1800.39
603.43	1793.63
603.78	1786.46
604.13	1779.19
604.48	1771.81
604.83	1765.00
605.18	1758.07
605.53	1750.00
605.87	1741.77
606.22	1734.58
606.57	1726.69
606.92	1719.39
607.27	1712.23
607.62	1705.31
607.96	1698.18
608.31	1691.72
608.66	1684.28
609.01	1677.00
609.36	1669.55
609.70	1661.66
610.05	1653.85
610.40	1646.22
610.75	1637.94
611.10	1630.23
611.44	1622.08
611.79	1614.18
612.14	1605.62
612.49	1596.68
612.83	1588.42
613.18	1580.49
613.53	1572.47
613.88	1563.93
614.22	1555.86
614.57	1547.42
614.92	1539.42
615.27	1531.98
615.61	1523.73
615.96	1515.70
616.31	1508.00
616.65	1500.74
617.00	1493.16
617.35	1485.34
617.70	1477.14
618.04	1468.81
618.39	1460.81
618.74	1453.25
619.08	1445.06
619.43	1437.55
619.78	1430.69
620.12	1423.52
620.47	1416.07
620.82	1407.97
621.16	1400.76
621.51	1393.16
621.85	1385.68
622.20	1377.30
622.55	1369.12
622.89	1361.44
623.24	1354.04
623.59	1346.77
623.93	1339.31
624.28	1332.23
624.62	1324.85
624.97	1317.72
625.32	1311.02
625.66	1304.04
626.01	1296.88
626.35	1289.61
626.70	1281.87
627.04	1274.02
627.39	1266.38
627.73	1259.08
628.08	1252.33
628.43	1245.03
628.77	1237.65
629.12	1230.17
629.46	1223.15
629.81	1215.80
630.15	1208.68
630.50	1201.30
630.84	1193.24
631.19	1185.43
631.53	1177.91
631.88	1170.45
632.22	1162.96
632.57	1155.74
632.91	1148.25
633.26	1141.05
633.60	1133.80
633.95	1126.92
634.29	1120.06
634.64	1113.49
634.98	1106.27
635.32	1099.29
635.67	1092.82
636.01	1086.31
636.36	1079.63
636.70	1073.26
637.05	1066.82
637.39	1060.52
637.73	1054.10
638.08	1048.38
638.42	1042.55
638.77	1036.30
639.11	1029.87
639.45	1023.55
639.80	1016.96
640.14	1010.66
640.49	1004.16
640.83	997.87
641.17	991.69
641.52	985.49
641.86	979.23
642.20	973.45
642.55	967.13
642.89	960.78
643.23	954.32
643.58	948.64
643.92	942.44
644.26	936.36
644.61	930.38
644.95	924.42
645.29	917.85
645.64	911.07
645.98	904.79
646.32	898.98
646.66	893.00
647.01	887.30
647.35	881.64
647.69	875.84
648.04	870.40
648.38	864.60
648.72	858.67
649.06	852.60
649.41	846.80
649.75	840.87
650.09	834.88
650.43	829.16
650.78	823.00
651.12	817.07
651.46	811.42
651.80	805.70
652.14	800.33
652.49	795.02
652.83	789.89
653.17	784.27
653.51	778.61
653.85	773.32
654.20	767.70
654.54	761.77
654.88	756.17
655.22	750.37
655.56	744.79
655.90	739.43
656.25	734.29
656.59	728.97
656.93	724.00
657.27	718.96
657.61	713.59
657.95	708.62
658.29	703.62
658.64	698.41
658.98	693.12
659.32	687.76
659.66	682.61
660.00	677.38
660.34	672.52
660.68	667.66
661.02	662.67
661.36	658.07
661.70	653.75
662.05	649.38
662.39	645.12
662.73	640.73
663.07	636.38
663.41	631.94
663.75	627.53
664.09	623.01
664.43	618.73
664.77	614.68
665.11	610.42
665.45	606.40
665.79	602.43
666.13	598.38
666.47	594.32
666.81	590.16
667.15	586.14
667.49	582.30
667.83	578.57
668.17	574.69
668.51	570.69
668.85	566.63
669.19	562.81
669.53	558.99
669.87	555.18
670.21	551.54
670.55	547.97
670.89	544.56
671.23	541.14
671.57	537.64
671.91	534.13
672.25	530.78
672.58	527.29
672.92	523.95
673.26	520.87
673.60	517.81
673.94	514.83
674.28	511.96
674.62	509.04
674.96	505.96
675.30	503.10
675.64	500.23
675.97	497.57
676.31	494.80
676.65	491.91
676.99	489.23
677.33	486.40
677.67	483.62
678.01	480.60
678.34	477.67
678.68	474.83
679.02	472.09
679.36	469.27
679.70	466.57
680.04	463.85
680.37	460.99
680.71	458.25
681.05	455.70
681.39	452.99
681.73	450.37
682.06	447.88
682.40	445.30
682.74	442.82
683.08	440.28
683.42	437.73
683.75	435.27
684.09	432.81
684.43	430.34
684.77	427.92
685.10	425.66
685.44	423.40
685.78	421.15
686.12	418.95
686.45	416.68
686.79	414.41
687.13	412.27
687.46	410.16
687.80	407.96
688.14	405.76
688.48	403.77
688.81	401.54
689.15	399.41
689.49	397.37
689.82	395.29
690.16	393.23
690.50	391.27
690.83	389.36
691.17	387.35
691.51	385.50
691.84	383.68
692.18	381.75
692.52	379.80
692.85	377.91
693.19	376.05
693.52	374.29
693.86	372.45
694.20	370.66
694.53	368.87
694.87	367.06
695.21	365.29
695.54	363.46
695.88	361.80
696.21	360.09
696.55	358.40
696.88	356.70
697.22	355.09
697.56	353.50
697.89	351.83
698.23	350.24
698.56	348.66
698.90	347.06
699.23	345.42
699.57	343.88
699.90	342.31
700.24	340.74
700.58	339.20
700.91	337.74
701.25	336.29
701.58	334.95
701.92	333.60
702.25	332.21
702.59	330.86
702.92	329.54
703.26	328.27
703.59	327.01
703.93	325.89
704.26	324.67
704.60	323.42
704.93	322.21
705.26	320.98
705.60	319.81
705.93	318.65
706.27	317.69
706.60	316.67
706.94	315.63
707.27	314.51
707.61	313.48
707.94	312.48
708.27	311.39
708.61	310.28
708.94	309.30
709.28	308.37
709.61	307.43
709.94	306.48
710.28	305.48
710.61	304.50
710.95	303.43
711.28	302.53
711.61	301.58
711.95	300.70
712.28	299.77
712.61	298.79
712.95	297.88
713.28	296.94
713.61	296.08
713.95	295.21
714.28	294.38
714.61	293.54
714.95	292.72
715.28	291.92
715.61	291.07
715.95	290.25
716.28	289.38
716.61	288.58
716.95	287.78
717.28	287.04
717.61	286.31
717.94	285.57
718.28	284.78
718.61	284.07
718.94	283.38
719.27	282.75
719.61	282.13
719.94	281.51
720.27	280.84
720.60	280.16
720.94	279.57
721.27	279.04
721.60	278.48
721.93	277.90
722.27	277.38
722.60	276.86
722.93	276.32
723.26	275.81
723.59	275.25
723.93	274.74
724.26	274.23
724.59	273.67
724.92	273.12
725.25	272.64
725.59	272.11
725.92	271.60
726.25	271.09
726.58	270.58
726.91	270.07
727.24	269.60
727.57	269.12
727.91	268.61
728.24	268.13
728.57	267.65
728.90	267.18
729.23	266.67
729.56	266.22
729.89	265.75
730.22	265.27
730.55	264.78
730.89	264.30
731.22	263.81
731.55	263.35
731.88	262.94
732.21	262.51
732.54	262.11
732.87	261.64
733.20	261.23
733.53	260.86
733.86	260.48
734.19	260.09
734.52	259.74
734.85	259.46
735.18	259.06
735.51	258.65
735.84	258.30
736.17	257.94
736.50	257.52
736.83	257.27
737.16	256.92
737.49	256.63
737.82	256.29
738.15	256.01
738.48	255.71
738.81	255.39
739.14	255.07
739.47	254.74
739.80	254.47
740.13	254.15
740.46	253.82
740.79	253.48
741.12	253.17
741.45	252.84
741.78	252.46
742.11	252.16
742.44	251.81
742.77	251.52
743.10	251.22
743.43	250.95
743.75	250.57
744.08	250.42
744.41	250.14
744.74	249.82
745.07	249.52
745.40	249.28
745.73	249.06
746.06	248.79
746.39	248.50
746.71	248.22
747.04	247.97
747.37	247.70
747.70	247.45
748.03	247.22
748.36	247.02
748.68	246.77
749.01	246.52
749.34	246.36
749.67	246.15
750.00	245.92
750.33	245.79
750.65	245.56
750.98	245.24
751.31	245.02
751.64	244.85
751.97	244.67
752.29	244.44
752.62	244.18
752.95	243.93
753.28	243.74
753.60	243.57
753.93	243.43
754.26	243.26
754.59	243.05
754.91	242.84
755.24	242.62
755.57	242.48
755.90	242.30
756.22	242.10
756.55	241.89
756.88	241.73
757.20	241.45
757.53	241.29
757.86	241.12
758.19	240.96
758.51	240.82
758.84	240.68
759.17	240.54
759.49	240.41
759.82	240.33
760.15	240.20
760.47	240.03
760.80	239.86
761.13	239.73
761.45	239.57
761.78	239.42
762.11	239.29
762.43	239.11
762.76	238.97
763.08	238.86
763.41	238.75
763.74	238.61
764.06	238.46
764.39	238.26
764.71	238.11
765.04	237.96
765.37	237.81
765.69	237.65
766.02	237.47
766.34	237.30
766.67	237.11
767.00	237.00
767.32	236.96
767.65	236.90
767.97	236.77
768.30	236.68
768.62	236.57
768.95	236.46
769.27	236.34
769.60	236.24
769.92	236.15
770.25	236.01
770.57	235.87
770.90	235.81
771.22	235.71
771.55	235.65
771.87	235.58
772.20	235.47
772.52	235.46
772.85	235.47
773.17	235.42
773.50	235.36
773.82	235.26
774.15	235.13
774.47	234.97
774.80	234.90
775.12	234.82
775.45	234.73
775.77	234.67
776.09	234.61
776.42	234.55
776.74	234.47
777.07	234.38
777.39	234.32
777.72	234.24
778.04	234.20
778.36	234.10
778.69	234.05
779.01	234.00
779.33	233.86
779.66	233.74
779.98	233.66
780.31	233.59
780.63	233.58
780.95	233.53
781.28	233.46
781.60	233.39
781.92	233.35
782.25	233.31
782.57	233.25
782.89	233.16
783.22	233.09
783.54	233.01
783.86	232.97
784.19	232.92
784.51	232.91
784.83	232.87
785.16	232.83
785.48	232.77
785.80	232.74
786.12	232.70
786.45	232.62
786.77	232.59
787.09	232.55
