SpectraSuite Data File
++++++++++++++++++++++++++++++++++++
Date: Fri Feb 01 18:12:41 EST 2013
User: group
Dark Spectrum Present: No
Reference Spectrum Present: No
Number of Sampled Component Spectra: 1
Spectrometers: USB2E7196
Integration Time (usec): 35000 (USB2E7196)
Spectra Averaged: 100 (USB2E7196)
Boxcar Smoothing: 10 (USB2E7196)
Correct for Electrical Dark: No (USB2E7196)
Strobe/Lamp Enabled: No (USB2E7196)
Correct for Detector Non-linearity: No (USB2E7196)
Correct for Stray Light: No (USB2E7196)
Number of Pixels in Processed Spectrum: 2048
>>>>>Begin Processed Spectral Data<<<<<
339.09	0.00
339.48	213.47
339.86	215.39
340.24	215.48
340.63	217.39
341.01	220.66
341.39	220.10
341.78	221.11
342.16	222.74
342.54	222.94
342.93	211.53
343.31	222.24
343.69	222.78
344.07	223.20
344.46	223.65
344.84	224.02
345.22	224.25
345.60	224.49
345.99	224.68
346.37	224.82
346.75	224.91
347.13	224.98
347.52	225.06
347.90	225.17
348.28	225.20
348.66	225.26
349.05	225.25
349.43	225.29
349.81	225.32
350.19	225.37
350.57	225.46
350.96	225.53
351.34	225.60
351.72	225.66
352.10	225.74
352.48	225.82
352.87	225.89
353.25	225.95
353.63	226.03
354.01	226.12
354.39	226.19
354.77	226.28
355.15	226.39
355.54	226.47
355.92	226.47
356.30	226.57
356.68	226.73
357.06	226.81
357.44	226.85
357.82	226.91
358.20	226.97
358.58	227.04
358.97	227.12
359.35	227.19
359.73	227.27
360.11	227.33
360.49	227.39
360.87	227.43
361.25	227.48
361.63	227.56
362.01	227.58
362.39	227.61
362.77	227.65
363.15	227.66
363.53	227.67
363.91	227.70
364.29	227.71
364.67	227.65
365.05	227.68
365.43	227.73
365.81	227.78
366.19	227.87
366.57	227.94
366.95	227.92
367.33	227.90
367.71	227.91
368.09	227.91
368.47	227.90
368.85	227.88
369.23	227.91
369.61	227.86
369.99	227.89
370.37	227.85
370.75	227.89
371.13	227.85
371.51	227.84
371.89	227.80
372.27	227.76
372.65	227.72
373.03	227.67
373.41	227.61
373.78	227.55
374.16	227.44
374.54	227.32
374.92	227.26
375.30	227.21
375.68	227.14
376.06	227.13
376.44	227.07
376.82	227.01
377.19	226.92
377.57	226.89
377.95	226.77
378.33	226.76
378.71	226.62
379.09	226.57
379.47	226.47
379.84	226.44
380.22	226.37
380.60	226.30
380.98	226.24
381.36	226.19
381.73	226.11
382.11	226.02
382.49	225.99
382.87	225.94
383.25	225.91
383.62	225.95
384.00	225.84
384.38	225.79
384.76	225.80
385.13	225.80
385.51	225.72
385.89	225.71
386.27	225.63
386.64	225.60
387.02	225.54
387.40	225.51
387.78	225.46
388.15	225.43
388.53	225.40
388.91	225.35
389.29	225.29
389.66	225.27
390.04	225.24
390.42	225.21
390.79	225.18
391.17	225.11
391.55	225.01
391.92	225.02
392.30	225.01
392.68	224.96
393.05	224.94
393.43	224.95
393.81	224.92
394.18	224.90
394.56	224.90
394.94	224.94
395.31	224.93
395.69	225.00
396.06	225.02
396.44	225.03
396.82	225.06
397.19	225.17
397.57	225.21
397.95	225.28
398.32	225.29
398.70	225.34
399.07	225.45
399.45	225.47
399.82	225.53
400.20	225.58
400.58	225.68
400.95	225.70
401.33	225.80
401.70	225.94
402.08	226.07
402.45	226.17
402.83	226.30
403.20	226.43
403.58	226.51
403.95	226.68
404.33	226.82
404.71	226.97
405.08	227.16
405.46	227.32
405.83	227.49
406.21	227.70
406.58	227.92
406.96	228.12
407.33	228.38
407.70	228.63
408.08	228.95
408.45	229.23
408.83	229.52
409.20	229.78
409.58	230.06
409.95	230.40
410.33	230.77
410.70	231.09
411.08	231.51
411.45	231.91
411.82	232.32
412.20	232.79
412.57	233.35
412.95	233.76
413.32	234.33
413.69	234.89
414.07	235.46
414.44	236.10
414.82	236.75
415.19	237.49
415.56	238.23
415.94	239.01
416.31	239.87
416.68	240.77
417.06	241.76
417.43	242.68
417.81	243.73
418.18	244.82
418.55	245.98
418.93	247.18
419.30	248.45
419.67	249.77
420.04	251.13
420.42	252.48
420.79	254.09
421.16	255.70
421.54	257.35
421.91	259.08
422.28	260.87
422.66	262.78
423.03	264.57
423.40	266.44
423.77	268.44
424.15	270.42
424.52	272.50
424.89	274.79
425.26	277.00
425.64	279.03
426.01	281.27
426.38	283.63
426.75	285.95
427.13	288.35
427.50	290.90
427.87	293.52
428.24	296.15
428.61	298.65
428.99	301.38
429.36	304.38
429.73	307.29
430.10	310.14
430.47	313.01
430.85	316.05
431.22	319.18
431.59	322.48
431.96	325.67
432.33	329.17
432.70	332.49
433.08	336.42
433.45	340.14
433.82	343.74
434.19	347.77
434.56	351.76
434.93	355.49
435.30	359.16
435.68	363.22
436.05	367.21
436.42	371.14
436.79	374.70
437.16	378.47
437.53	382.45
437.90	386.36
438.27	390.23
438.64	394.20
439.01	397.86
439.38	401.03
439.75	404.09
440.13	407.56
440.50	410.91
440.87	413.51
441.24	416.27
441.61	419.38
441.98	421.53
442.35	424.05
442.72	426.67
443.09	429.25
443.46	430.68
443.83	431.48
444.20	432.23
444.57	433.41
444.94	433.83
445.31	434.33
445.68	434.78
446.05	434.89
446.42	434.36
446.79	433.78
447.16	433.17
447.53	432.71
447.90	431.11
448.27	429.45
448.64	427.24
449.01	425.63
449.37	422.83
449.74	420.15
450.11	416.96
450.48	413.51
450.85	409.95
451.22	406.92
451.59	404.11
451.96	401.38
452.33	397.72
452.70	394.41
453.07	390.38
453.43	386.41
453.80	382.50
454.17	378.69
454.54	375.13
454.91	371.30
455.28	367.54
455.65	364.06
456.02	360.48
456.38	357.49
456.75	353.70
457.12	350.53
457.49	347.35
457.86	344.30
458.23	341.66
458.59	338.76
458.96	335.78
459.33	333.12
459.70	330.48
460.07	328.32
460.43	325.88
460.80	323.59
461.17	321.50
461.54	319.34
461.91	317.31
462.27	315.21
462.64	313.42
463.01	311.46
463.38	309.57
463.74	307.72
464.11	306.03
464.48	304.58
464.85	303.06
465.21	301.82
465.58	300.53
465.95	299.01
466.32	297.67
466.68	296.42
467.05	295.16
467.42	293.88
467.78	292.55
468.15	291.28
468.52	290.29
468.88	289.08
469.25	287.96
469.62	287.04
469.98	286.10
470.35	285.20
470.72	284.35
471.08	283.42
471.45	282.67
471.82	281.85
472.18	280.99
472.55	280.32
472.92	279.53
473.28	278.85
473.65	278.19
474.02	277.54
474.38	276.98
474.75	276.49
475.11	275.92
475.48	275.51
475.85	275.16
476.21	274.83
476.58	274.53
476.94	274.28
477.31	274.03
477.67	273.73
478.04	273.49
478.41	273.30
478.77	273.25
479.14	273.06
479.50	273.00
479.87	273.00
480.23	273.03
480.60	273.03
480.96	273.03
481.33	273.16
481.69	273.29
482.06	273.44
482.42	273.58
482.79	273.81
483.15	274.11
483.52	274.47
483.88	274.75
484.25	275.09
484.61	275.51
484.98	275.92
485.34	276.48
485.71	277.09
486.07	277.73
486.44	278.30
486.80	279.01
487.17	279.75
487.53	280.59
487.90	281.44
488.26	282.42
488.62	283.45
488.99	284.51
489.35	285.58
489.72	286.76
490.08	288.04
490.44	289.32
490.81	290.72
491.17	292.13
491.54	293.72
491.90	295.31
492.26	297.07
492.63	298.91
492.99	300.84
493.36	302.82
493.72	305.02
494.08	307.24
494.45	309.71
494.81	312.27
495.17	314.88
495.54	317.59
495.90	320.49
496.26	323.48
496.63	326.59
496.99	329.99
497.35	333.47
497.72	337.09
498.08	340.89
498.44	344.82
498.80	349.04
499.17	353.35
499.53	357.88
499.89	362.56
500.26	367.41
500.62	372.42
500.98	377.78
501.34	383.22
501.71	388.95
502.07	394.78
502.43	400.79
502.79	407.08
503.16	413.61
503.52	420.38
503.88	427.30
504.24	434.46
504.60	441.89
504.97	449.52
505.33	457.39
505.69	465.74
506.05	474.20
506.41	482.63
506.78	491.49
507.14	500.60
507.50	510.12
507.86	519.90
508.22	529.88
508.59	539.91
508.95	550.29
509.31	560.89
509.67	571.82
510.03	583.05
510.39	594.48
510.75	606.28
511.12	618.19
511.48	630.46
511.84	642.89
512.20	655.43
512.56	668.41
512.92	681.66
513.28	695.11
513.64	708.70
514.00	722.68
514.37	736.74
514.73	751.08
515.09	765.24
515.45	779.74
515.81	794.62
516.17	809.88
516.53	825.43
516.89	841.06
517.25	856.64
517.61	872.47
517.97	888.45
518.33	904.30
518.69	920.56
519.05	937.10
519.41	953.86
519.77	970.98
520.13	988.12
520.49	1005.22
520.85	1022.31
521.21	1039.76
521.57	1057.76
521.93	1075.24
522.29	1093.35
522.65	1111.51
523.01	1129.63
523.37	1147.55
523.73	1165.69
524.09	1183.60
524.45	1201.82
524.81	1220.41
525.17	1239.05
525.53	1257.95
525.89	1276.88
526.25	1295.75
526.61	1314.22
526.97	1333.20
527.33	1351.87
527.68	1370.66
528.04	1389.30
528.40	1408.02
528.76	1427.21
529.12	1446.08
529.48	1465.35
529.84	1483.58
530.20	1502.44
530.56	1521.64
530.91	1541.45
531.27	1560.63
531.63	1579.40
531.99	1598.39
532.35	1616.75
532.71	1635.27
533.07	1653.97
533.42	1672.32
533.78	1690.90
534.14	1709.65
534.50	1727.32
534.86	1745.64
535.21	1763.26
535.57	1781.69
535.93	1799.73
536.29	1817.17
536.65	1834.59
537.00	1851.77
537.36	1869.74
537.72	1886.83
538.08	1904.06
538.44	1920.37
538.79	1936.65
539.15	1952.88
539.51	1969.07
539.87	1986.15
540.22	2002.37
540.58	2018.74
540.94	2034.73
541.29	2050.22
541.65	2065.48
542.01	2081.44
542.37	2096.39
542.72	2111.43
543.08	2125.91
543.44	2141.03
543.79	2154.79
544.15	2168.44
544.51	2182.76
544.87	2196.25
545.22	2209.73
545.58	2222.37
545.94	2234.52
546.29	2246.92
546.65	2259.39
547.01	2271.27
547.36	2282.44
547.72	2293.40
548.07	2303.45
548.43	2313.96
548.79	2324.22
549.14	2334.13
549.50	2343.62
549.86	2353.70
550.21	2363.28
550.57	2372.57
550.92	2381.41
551.28	2390.65
551.64	2400.01
551.99	2408.73
552.35	2417.20
552.70	2425.49
553.06	2433.62
553.41	2442.24
553.77	2450.37
554.13	2458.48
554.48	2466.86
554.84	2474.55
555.19	2481.83
555.55	2489.10
555.90	2495.58
556.26	2502.65
556.61	2509.27
556.97	2515.64
557.32	2521.45
557.68	2527.42
558.03	2533.55
558.39	2538.96
558.74	2545.56
559.10	2551.15
559.45	2556.53
559.81	2562.60
560.16	2568.14
560.52	2573.03
560.87	2577.99
561.23	2582.13
561.58	2586.70
561.94	2590.61
562.29	2594.20
562.64	2598.52
563.00	2602.55
563.35	2607.56
563.71	2612.11
564.06	2616.78
564.42	2621.04
564.77	2625.26
565.12	2629.04
565.48	2632.40
565.83	2635.67
566.19	2638.31
566.54	2640.21
566.89	2642.61
567.25	2644.28
567.60	2646.68
567.96	2649.69
568.31	2651.59
568.66	2654.00
569.02	2655.52
569.37	2656.93
569.72	2659.00
570.08	2659.80
570.43	2660.67
570.78	2660.94
571.14	2660.03
571.49	2659.22
571.84	2659.59
572.20	2658.96
572.55	2658.45
572.90	2657.34
573.26	2656.40
573.61	2655.04
573.96	2653.88
574.31	2651.12
574.67	2648.25
575.02	2644.65
575.37	2641.15
575.72	2637.43
576.08	2633.91
576.43	2630.58
576.78	2626.86
577.13	2623.49
577.49	2620.40
577.84	2617.10
578.19	2613.11
578.54	2609.39
578.90	2605.11
579.25	2599.07
579.60	2593.74
579.95	2588.46
580.30	2583.20
580.66	2577.63
581.01	2572.06
581.36	2566.87
581.71	2562.42
582.06	2557.73
582.42	2553.14
582.77	2547.58
583.12	2542.77
583.47	2537.81
583.82	2532.51
584.17	2526.74
584.53	2520.60
584.88	2514.60
585.23	2508.27
585.58	2502.32
585.93	2496.28
586.28	2490.89
586.63	2485.38
586.98	2479.93
587.34	2474.71
587.69	2469.08
588.04	2463.14
588.39	2456.88
588.74	2449.34
589.09	2442.30
589.44	2434.44
589.79	2427.31
590.14	2420.76
590.49	2413.06
590.84	2405.79
591.19	2398.87
591.54	2391.44
591.89	2383.17
592.25	2375.35
592.60	2366.83
592.95	2358.04
593.30	2349.39
593.65	2340.63
594.00	2332.44
594.35	2323.76
594.70	2314.37
595.05	2306.09
595.40	2297.55
595.75	2288.79
596.10	2281.80
596.45	2273.99
596.80	2267.00
597.15	2259.46
597.50	2251.29
597.85	2243.76
598.19	2235.97
598.54	2227.81
598.89	2219.99
599.24	2212.88
599.59	2205.02
599.94	2197.76
600.29	2190.30
600.64	2182.51
600.99	2173.90
601.34	2165.80
601.69	2157.61
602.04	2149.53
602.39	2140.81
602.74	2132.78
603.08	2124.72
603.43	2116.54
603.78	2107.79
604.13	2099.07
604.48	2090.32
604.83	2082.20
605.18	2074.12
605.53	2064.61
605.87	2054.92
606.22	2046.09
606.57	2036.52
606.92	2027.60
607.27	2018.99
607.62	2010.61
607.96	2002.09
608.31	1994.18
608.66	1985.16
609.01	1976.14
609.36	1967.01
609.70	1957.33
610.05	1947.59
610.40	1938.39
610.75	1928.50
611.10	1919.34
611.44	1909.19
611.79	1899.63
612.14	1889.20
612.49	1878.02
612.83	1867.81
613.18	1857.98
613.53	1848.35
613.88	1838.26
614.22	1828.32
614.57	1817.87
614.92	1808.34
615.27	1799.29
615.61	1789.27
615.96	1779.65
616.31	1770.41
616.65	1761.46
617.00	1752.38
617.35	1743.25
617.70	1733.46
618.04	1723.20
618.39	1713.25
618.74	1704.13
619.08	1694.10
619.43	1684.83
619.78	1676.41
620.12	1667.89
620.47	1658.87
620.82	1648.95
621.16	1640.04
621.51	1630.76
621.85	1621.65
622.20	1611.33
622.55	1601.20
622.89	1591.71
623.24	1582.33
623.59	1573.25
623.93	1564.27
624.28	1555.62
624.62	1546.54
624.97	1537.73
625.32	1529.43
625.66	1521.01
626.01	1512.48
626.35	1503.58
626.70	1494.35
627.04	1485.14
627.39	1475.60
627.73	1466.62
628.08	1458.37
628.43	1449.59
628.77	1440.84
629.12	1431.81
629.46	1423.16
629.81	1414.11
630.15	1405.36
630.50	1396.47
630.84	1386.76
631.19	1377.14
631.53	1368.09
631.88	1358.93
632.22	1349.91
632.57	1341.21
632.91	1332.06
633.26	1323.00
633.60	1314.10
633.95	1305.54
634.29	1297.14
634.64	1289.29
634.98	1280.54
635.32	1271.85
635.67	1263.88
636.01	1255.89
636.36	1247.79
636.70	1239.95
637.05	1232.12
637.39	1224.42
637.73	1216.58
638.08	1209.50
638.42	1202.27
638.77	1194.51
639.11	1186.74
639.45	1178.99
639.80	1170.95
640.14	1163.37
640.49	1155.64
640.83	1148.15
641.17	1140.70
641.52	1133.09
641.86	1125.19
642.20	1118.12
642.55	1110.71
642.89	1103.00
643.23	1095.15
643.58	1088.28
643.92	1080.95
644.26	1073.81
644.61	1066.55
644.95	1059.52
645.29	1051.79
645.64	1043.83
645.98	1036.35
646.32	1029.27
646.66	1022.11
647.01	1015.33
647.35	1008.39
647.69	1001.38
648.04	994.74
648.38	987.81
648.72	980.77
649.06	973.77
649.41	966.85
649.75	959.82
650.09	952.75
650.43	946.02
650.78	938.69
651.12	931.60
651.46	924.79
651.80	918.08
652.14	911.68
652.49	905.29
652.83	899.23
653.17	892.43
653.51	885.80
653.85	879.33
654.20	872.67
654.54	865.72
654.88	858.96
655.22	851.99
655.56	845.24
655.90	838.70
656.25	832.40
656.59	826.01
656.93	819.92
657.27	813.91
657.61	807.46
657.95	801.39
658.29	795.42
658.64	789.14
658.98	782.79
659.32	776.26
659.66	770.09
660.00	763.80
660.34	757.94
660.68	752.09
661.02	746.16
661.36	740.55
661.70	735.20
662.05	730.11
662.39	724.99
662.73	719.73
663.07	714.56
663.41	709.33
663.75	704.10
664.09	698.70
664.43	693.40
664.77	688.53
665.11	683.56
665.45	678.68
665.79	673.97
666.13	669.11
666.47	664.30
666.81	659.35
667.15	654.52
667.49	649.91
667.83	645.34
668.17	640.75
668.51	635.99
668.85	631.28
669.19	626.71
669.53	622.23
669.87	617.72
670.21	613.37
670.55	609.08
670.89	604.99
671.23	601.00
671.57	596.87
671.91	592.62
672.25	588.47
672.58	584.31
672.92	580.22
673.26	576.39
673.60	572.69
673.94	569.12
674.28	565.66
674.62	562.27
674.96	558.70
675.30	555.29
675.64	551.83
675.97	548.52
676.31	545.14
676.65	541.69
676.99	538.46
677.33	535.07
677.67	531.76
678.01	528.30
678.34	524.82
678.68	521.48
679.02	518.25
679.36	514.99
679.70	511.80
680.04	508.65
680.37	505.39
680.71	502.11
681.05	498.98
681.39	495.82
681.73	492.67
682.06	489.64
682.40	486.64
682.74	483.69
683.08	480.72
683.42	477.64
683.75	474.71
684.09	471.74
684.43	468.87
684.77	465.97
685.10	463.11
685.44	460.37
685.78	457.64
686.12	454.93
686.45	452.19
686.79	449.49
687.13	446.83
687.46	444.20
687.80	441.63
688.14	439.01
688.48	436.58
688.81	433.93
689.15	431.41
689.49	428.89
689.82	426.35
690.16	423.82
690.50	421.52
690.83	419.19
691.17	416.79
691.51	414.50
691.84	412.31
692.18	410.03
692.52	407.70
692.85	405.40
693.19	403.18
693.52	400.98
693.86	398.79
694.20	396.66
694.53	394.53
694.87	392.33
695.21	390.22
695.54	388.03
695.88	385.95
696.21	383.93
696.55	381.90
696.88	379.94
697.22	377.96
697.56	376.02
697.89	374.06
698.23	372.19
698.56	370.27
698.90	368.36
699.23	366.44
699.57	364.61
699.90	362.79
700.24	361.00
700.58	359.25
700.91	357.52
701.25	355.79
701.58	354.21
701.92	352.64
702.25	350.93
702.59	349.29
702.92	347.73
703.26	346.18
703.59	344.69
703.93	343.28
704.26	341.86
704.60	340.31
704.93	338.86
705.26	337.38
705.60	336.02
705.93	334.69
706.27	333.47
706.60	332.24
706.94	331.00
707.27	329.61
707.61	328.31
707.94	327.06
708.27	325.75
708.61	324.48
708.94	323.28
709.28	322.16
709.61	321.04
709.94	319.93
710.28	318.71
710.61	317.51
710.95	316.24
711.28	315.16
711.61	314.07
711.95	312.94
712.28	311.82
712.61	310.65
712.95	309.48
713.28	308.43
713.61	307.34
713.95	306.24
714.28	305.29
714.61	304.30
714.95	303.29
715.28	302.32
715.61	301.26
715.95	300.23
716.28	299.23
716.61	298.22
716.95	297.24
717.28	296.34
717.61	295.40
717.94	294.51
718.28	293.56
718.61	292.68
718.94	291.88
719.27	291.11
719.61	290.38
719.94	289.62
720.27	288.73
720.60	287.96
720.94	287.23
721.27	286.50
721.60	285.83
721.93	285.14
722.27	284.52
722.60	283.85
722.93	283.19
723.26	282.53
723.59	281.89
723.93	281.25
724.26	280.64
724.59	280.00
724.92	279.42
725.25	278.80
725.59	278.16
725.92	277.57
726.25	276.94
726.58	276.33
726.91	275.74
727.24	275.21
727.57	274.65
727.91	274.01
728.24	273.46
728.57	272.88
728.90	272.34
729.23	271.69
729.56	271.18
729.89	270.63
730.22	270.06
730.55	269.51
730.89	268.97
731.22	268.39
731.55	267.88
731.88	267.35
732.21	266.85
732.54	266.35
732.87	265.84
733.20	265.38
733.53	264.93
733.86	264.46
734.19	263.99
734.52	263.50
734.85	263.13
735.18	262.66
735.51	262.19
735.84	261.77
736.17	261.40
736.50	260.93
736.83	260.64
737.16	260.25
737.49	259.85
737.82	259.48
738.15	259.13
738.48	258.72
738.81	258.36
739.14	257.96
739.47	257.63
739.80	257.27
740.13	256.93
740.46	256.56
740.79	256.22
741.12	255.82
741.45	255.49
741.78	255.11
742.11	254.77
742.44	254.39
742.77	254.01
743.10	253.64
743.43	253.31
743.75	252.85
744.08	252.63
744.41	252.28
744.74	251.94
745.07	251.56
745.40	251.33
745.73	251.02
746.06	250.72
746.39	250.38
746.71	250.07
747.04	249.74
747.37	249.43
747.70	249.13
748.03	248.85
748.36	248.56
748.68	248.28
749.01	247.95
749.34	247.72
749.67	247.45
750.00	247.19
750.33	246.99
750.65	246.73
750.98	246.38
751.31	246.12
751.64	245.88
751.97	245.68
752.29	245.40
752.62	245.11
752.95	244.87
753.28	244.64
753.60	244.39
753.93	244.18
754.26	243.94
754.59	243.67
754.91	243.41
755.24	243.17
755.57	242.94
755.90	242.75
756.22	242.49
756.55	242.25
756.88	242.02
757.20	241.77
757.53	241.57
757.86	241.37
758.19	241.17
758.51	240.92
758.84	240.68
759.17	240.44
759.49	240.25
759.82	240.07
760.15	239.86
760.47	239.70
760.80	239.48
761.13	239.30
761.45	239.14
761.78	238.99
762.11	238.83
762.43	238.64
762.76	238.45
763.08	238.31
763.41	238.17
763.74	237.99
764.06	237.80
764.39	237.62
764.71	237.46
765.04	237.28
765.37	237.15
765.69	236.98
766.02	236.82
766.34	236.68
766.67	236.48
767.00	236.38
767.32	236.27
767.65	236.22
767.97	236.05
768.30	235.91
768.62	235.77
768.95	235.62
769.27	235.47
769.60	235.37
769.92	235.22
770.25	235.05
770.57	234.96
770.90	234.86
771.22	234.72
771.55	234.58
771.87	234.48
772.20	234.38
772.52	234.36
772.85	234.40
773.17	234.27
773.50	234.17
773.82	234.06
774.15	233.90
774.47	233.71
774.80	233.59
775.12	233.48
775.45	233.40
775.77	233.31
776.09	233.24
776.42	233.15
776.74	233.11
777.07	233.04
777.39	232.90
777.72	232.77
778.04	232.69
778.36	232.60
778.69	232.53
779.01	232.46
779.33	232.29
779.66	232.08
779.98	232.03
780.31	231.94
780.63	231.86
780.95	231.80
781.28	231.78
781.60	231.70
781.92	231.64
782.25	231.54
782.57	231.45
782.89	231.39
783.22	231.30
783.54	231.21
783.86	231.14
784.19	231.12
784.51	231.07
784.83	231.00
785.16	230.91
785.48	230.81
785.80	230.74
786.12	230.71
786.45	230.66
