SpectraSuite Data File
++++++++++++++++++++++++++++++++++++
Date: Fri Feb 01 15:57:21 EST 2013
User: group
Dark Spectrum Present: No
Reference Spectrum Present: No
Number of Sampled Component Spectra: 1
Spectrometers: USB2E7196
Integration Time (usec): 35000 (USB2E7196)
Spectra Averaged: 100 (USB2E7196)
Boxcar Smoothing: 10 (USB2E7196)
Correct for Electrical Dark: No (USB2E7196)
Strobe/Lamp Enabled: No (USB2E7196)
Correct for Detector Non-linearity: No (USB2E7196)
Correct for Stray Light: No (USB2E7196)
Number of Pixels in Processed Spectrum: 2048
>>>>>Begin Processed Spectral Data<<<<<
339.09	0.00
339.48	214.53
339.86	216.21
340.24	218.05
340.63	219.51
341.01	221.56
341.39	221.72
341.78	223.75
342.16	224.53
342.54	225.13
342.93	213.27
343.31	224.02
343.69	224.55
344.07	225.03
344.46	225.43
344.84	225.80
345.22	226.05
345.60	226.31
345.99	226.48
346.37	226.59
346.75	226.67
347.13	226.71
347.52	226.77
347.90	226.81
348.28	226.84
348.66	226.87
349.05	226.87
349.43	226.89
349.81	226.91
350.19	226.93
350.57	226.94
350.96	226.98
351.34	227.11
351.72	227.21
352.10	227.27
352.48	227.33
352.87	227.34
353.25	227.40
353.63	227.44
354.01	227.47
354.39	227.56
354.77	227.65
355.15	227.80
355.54	227.86
355.92	227.89
356.30	227.95
356.68	228.07
357.06	228.12
357.44	228.17
357.82	228.25
358.20	228.33
358.58	228.40
358.97	228.46
359.35	228.52
359.73	228.59
360.11	228.64
360.49	228.73
360.87	228.81
361.25	228.90
361.63	228.99
362.01	229.05
362.39	229.05
362.77	229.09
363.15	229.09
363.53	229.10
363.91	229.14
364.29	229.16
364.67	229.11
365.05	229.13
365.43	229.19
365.81	229.21
366.19	229.26
366.57	229.31
366.95	229.29
367.33	229.22
367.71	229.24
368.09	229.29
368.47	229.28
368.85	229.26
369.23	229.24
369.61	229.19
369.99	229.19
370.37	229.21
370.75	229.22
371.13	229.17
371.51	229.17
371.89	229.14
372.27	229.11
372.65	229.05
373.03	229.03
373.41	228.97
373.78	228.92
374.16	228.85
374.54	228.78
374.92	228.75
375.30	228.74
375.68	228.67
376.06	228.59
376.44	228.48
376.82	228.39
377.19	228.31
377.57	228.23
377.95	228.15
378.33	228.04
378.71	227.93
379.09	227.90
379.47	227.82
379.84	227.75
380.22	227.68
380.60	227.58
380.98	227.50
381.36	227.43
381.73	227.33
382.11	227.27
382.49	227.18
382.87	227.11
383.25	227.03
383.62	227.04
384.00	226.98
384.38	226.97
384.76	226.94
385.13	226.93
385.51	226.88
385.89	226.81
386.27	226.79
386.64	226.74
387.02	226.71
387.40	226.67
387.78	226.64
388.15	226.59
388.53	226.55
388.91	226.52
389.29	226.47
389.66	226.44
390.04	226.38
390.42	226.38
390.79	226.36
391.17	226.33
391.55	226.21
391.92	226.18
392.30	226.16
392.68	226.14
393.05	226.13
393.43	226.12
393.81	226.12
394.18	226.11
394.56	226.12
394.94	226.09
395.31	226.10
395.69	226.15
396.06	226.21
396.44	226.26
396.82	226.29
397.19	226.38
397.57	226.42
397.95	226.51
398.32	226.52
398.70	226.54
399.07	226.65
399.45	226.70
399.82	226.78
400.20	226.83
400.58	226.93
400.95	226.94
401.33	227.02
401.70	227.16
402.08	227.25
402.45	227.34
402.83	227.48
403.20	227.57
403.58	227.64
403.95	227.77
404.33	227.92
404.71	228.05
405.08	228.24
405.46	228.35
405.83	228.47
406.21	228.65
406.58	228.81
406.96	228.97
407.33	229.16
407.70	229.36
408.08	229.63
408.45	229.81
408.83	230.09
409.20	230.35
409.58	230.54
409.95	230.79
410.33	231.05
410.70	231.31
411.08	231.61
411.45	231.92
411.82	232.23
412.20	232.58
412.57	232.99
412.95	233.27
413.32	233.72
413.69	234.15
414.07	234.59
414.44	235.08
414.82	235.54
415.19	236.08
415.56	236.62
415.94	237.18
416.31	237.84
416.68	238.44
417.06	239.14
417.43	239.81
417.81	240.60
418.18	241.39
418.55	242.25
418.93	243.09
419.30	243.97
419.67	244.89
420.04	245.83
420.42	246.84
420.79	248.03
421.16	249.17
421.54	250.37
421.91	251.57
422.28	252.85
422.66	254.20
423.03	255.51
423.40	256.83
423.77	258.24
424.15	259.65
424.52	261.14
424.89	262.72
425.26	264.25
425.64	265.70
426.01	267.28
426.38	268.91
426.75	270.61
427.13	272.37
427.50	274.19
427.87	276.07
428.24	277.91
428.61	279.66
428.99	281.62
429.36	283.70
429.73	285.78
430.10	287.76
430.47	289.79
430.85	291.91
431.22	294.14
431.59	296.54
431.96	298.83
432.33	301.32
432.70	303.76
433.08	306.60
433.45	309.23
433.82	311.83
434.19	314.72
434.56	317.54
434.93	320.19
435.30	322.79
435.68	325.69
436.05	328.54
436.42	331.33
436.79	333.82
437.16	336.48
437.53	339.25
437.90	342.05
438.27	344.82
438.64	347.65
439.01	350.27
439.38	352.47
439.75	354.60
440.13	357.06
440.50	359.37
440.87	361.19
441.24	363.12
441.61	365.30
441.98	366.79
442.35	368.59
442.72	370.44
443.09	372.26
443.46	373.25
443.83	373.81
444.20	374.32
444.57	375.11
444.94	375.46
445.31	375.85
445.68	376.24
446.05	376.30
446.42	375.92
446.79	375.48
447.16	375.03
447.53	374.69
447.90	373.53
448.27	372.38
448.64	370.78
449.01	369.67
449.37	367.70
449.74	365.77
450.11	363.51
450.48	361.08
450.85	358.54
451.22	356.38
451.59	354.37
451.96	352.42
452.33	349.84
452.70	347.43
453.07	344.61
453.43	341.66
453.80	338.88
454.17	336.19
454.54	333.65
454.91	330.94
455.28	328.25
455.65	325.77
456.02	323.31
456.38	321.18
456.75	318.53
457.12	316.26
457.49	314.03
457.86	311.85
458.23	309.95
458.59	307.90
458.96	305.83
459.33	303.98
459.70	302.13
460.07	300.65
460.43	298.95
460.80	297.31
461.17	295.93
461.54	294.46
461.91	293.00
462.27	291.57
462.64	290.30
463.01	289.00
463.38	287.71
463.74	286.31
464.11	285.19
464.48	284.17
464.85	283.08
465.21	282.24
465.58	281.33
465.95	280.26
466.32	279.36
466.68	278.47
467.05	277.56
467.42	276.65
467.78	275.70
468.15	274.85
468.52	274.19
468.88	273.31
469.25	272.54
469.62	271.95
469.98	271.30
470.35	270.70
470.72	270.10
471.08	269.45
471.45	268.94
471.82	268.43
472.18	267.83
472.55	267.42
472.92	266.89
473.28	266.44
473.65	266.02
474.02	265.58
474.38	265.22
474.75	264.94
475.11	264.62
475.48	264.39
475.85	264.16
476.21	263.92
476.58	263.74
476.94	263.59
477.31	263.44
477.67	263.27
478.04	263.15
478.41	263.08
478.77	263.15
479.14	263.11
479.50	263.06
479.87	263.16
480.23	263.25
480.60	263.36
480.96	263.43
481.33	263.62
481.69	263.81
482.06	264.01
482.42	264.23
482.79	264.47
483.15	264.76
483.52	265.13
483.88	265.51
484.25	265.89
484.61	266.33
484.98	266.79
485.34	267.35
485.71	267.95
486.07	268.57
486.44	269.08
486.80	269.78
487.17	270.55
487.53	271.32
487.90	272.18
488.26	273.08
488.62	274.07
488.99	275.05
489.35	276.09
489.72	277.25
490.08	278.42
490.44	279.65
490.81	280.97
491.17	282.29
491.54	283.78
491.90	285.31
492.26	286.93
492.63	288.63
492.99	290.43
493.36	292.31
493.72	294.34
494.08	296.47
494.45	298.66
494.81	301.01
495.17	303.43
495.54	305.98
495.90	308.68
496.26	311.49
496.63	314.46
496.99	317.60
497.35	320.82
497.72	324.24
498.08	327.77
498.44	331.45
498.80	335.44
499.17	339.50
499.53	343.71
499.89	348.12
500.26	352.64
500.62	357.29
500.98	362.30
501.34	367.37
501.71	372.70
502.07	378.23
502.43	383.83
502.79	389.71
503.16	395.80
503.52	402.11
503.88	408.59
504.24	415.25
504.60	422.14
504.97	429.27
505.33	436.57
505.69	444.30
506.05	452.11
506.41	459.94
506.78	468.05
507.14	476.47
507.50	485.16
507.86	494.14
508.22	503.32
508.59	512.50
508.95	522.09
509.31	531.87
509.67	541.96
510.03	552.27
510.39	562.79
510.75	573.56
511.12	584.46
511.48	595.79
511.84	607.14
512.20	618.66
512.56	630.61
512.92	642.82
513.28	655.18
513.64	667.61
514.00	680.30
514.37	693.19
514.73	706.30
515.09	719.38
515.45	732.69
515.81	746.26
516.17	760.31
516.53	774.48
516.89	788.74
517.25	802.84
517.61	817.31
517.97	831.76
518.33	846.14
518.69	860.84
519.05	875.71
519.41	890.94
519.77	906.43
520.13	921.89
520.49	937.22
520.85	952.61
521.21	968.37
521.57	984.64
521.93	1000.51
522.29	1016.89
522.65	1033.09
523.01	1049.30
523.37	1065.35
523.73	1081.45
524.09	1097.42
524.45	1113.65
524.81	1130.28
525.17	1147.07
525.53	1163.89
525.89	1180.85
526.25	1197.75
526.61	1214.08
526.97	1230.73
527.33	1247.19
527.68	1263.77
528.04	1280.20
528.40	1296.74
528.76	1313.74
529.12	1330.25
529.48	1347.02
529.84	1362.93
530.20	1379.59
530.56	1396.55
530.91	1413.94
531.27	1430.60
531.63	1447.06
531.99	1463.59
532.35	1479.57
532.71	1495.39
533.07	1511.63
533.42	1527.52
533.78	1543.45
534.14	1559.68
534.50	1575.07
534.86	1590.84
535.21	1606.04
535.57	1621.91
535.93	1637.33
536.29	1652.06
536.65	1667.09
537.00	1681.78
537.36	1697.10
537.72	1711.53
538.08	1725.89
538.44	1739.71
538.79	1753.67
539.15	1767.31
539.51	1781.07
539.87	1795.37
540.22	1808.99
540.58	1822.79
540.94	1836.06
541.29	1848.87
541.65	1861.57
542.01	1874.76
542.37	1887.08
542.72	1899.33
543.08	1911.12
543.44	1923.59
543.79	1934.82
544.15	1945.85
544.51	1957.48
544.87	1968.37
545.22	1979.18
545.58	1989.50
545.94	1999.15
546.29	2008.97
546.65	2018.82
547.01	2028.03
547.36	2036.80
547.72	2045.27
548.07	2053.01
548.43	2061.12
548.79	2069.26
549.14	2076.74
549.50	2084.01
549.86	2091.62
550.21	2099.05
550.57	2106.14
550.92	2112.67
551.28	2119.77
551.64	2126.72
551.99	2133.19
552.35	2139.40
552.70	2145.50
553.06	2151.44
553.41	2157.78
553.77	2163.75
554.13	2169.84
554.48	2176.09
554.84	2181.40
555.19	2186.73
555.55	2191.96
555.90	2196.34
556.26	2201.01
556.61	2205.84
556.97	2210.04
557.32	2214.28
557.68	2218.36
558.03	2222.78
558.39	2226.46
558.74	2231.06
559.10	2235.00
559.45	2238.73
559.81	2243.05
560.16	2246.94
560.52	2250.14
560.87	2253.68
561.23	2256.46
561.58	2259.40
561.94	2261.87
562.29	2264.25
562.64	2266.79
563.00	2269.29
563.35	2272.89
563.71	2276.28
564.06	2279.47
564.42	2282.36
564.77	2284.85
565.12	2287.13
565.48	2288.98
565.83	2290.91
566.19	2292.23
566.54	2293.11
566.89	2294.19
567.25	2294.76
567.60	2296.00
567.96	2297.70
568.31	2298.47
568.66	2299.46
569.02	2299.97
569.37	2300.24
569.72	2300.99
570.08	2301.32
570.43	2301.40
570.78	2300.75
571.14	2299.15
571.49	2297.87
571.84	2297.65
572.20	2296.54
572.55	2295.57
572.90	2294.09
573.26	2292.70
573.61	2291.02
573.96	2289.21
574.31	2286.27
574.67	2283.24
575.02	2279.72
575.37	2276.30
575.72	2272.43
576.08	2269.15
576.43	2265.93
576.78	2262.18
577.13	2259.26
577.49	2256.19
577.84	2252.73
578.19	2249.06
578.54	2245.35
578.90	2240.90
579.25	2235.39
579.60	2230.35
579.95	2225.15
580.30	2220.06
580.66	2214.71
581.01	2209.81
581.36	2204.96
581.71	2200.75
582.06	2196.31
582.42	2191.80
582.77	2186.55
583.12	2182.05
583.47	2177.32
583.82	2172.30
584.17	2167.12
584.53	2161.55
584.88	2155.94
585.23	2150.14
585.58	2144.69
585.93	2139.34
586.28	2134.75
586.63	2129.73
586.98	2124.77
587.34	2120.21
587.69	2115.33
588.04	2110.21
588.39	2104.38
588.74	2097.85
589.09	2091.86
589.44	2085.06
589.79	2079.06
590.14	2073.61
590.49	2067.05
590.84	2060.69
591.19	2054.72
591.54	2048.25
591.89	2040.88
592.25	2033.88
592.60	2026.77
592.95	2019.21
593.30	2011.68
593.65	2004.05
594.00	1997.00
594.35	1989.78
594.70	1981.76
595.05	1974.54
595.40	1967.42
595.75	1960.06
596.10	1953.97
596.45	1947.25
596.80	1941.01
597.15	1934.35
597.50	1927.11
597.85	1920.57
598.19	1913.88
598.54	1906.65
598.89	1900.01
599.24	1894.10
599.59	1887.56
599.94	1881.43
600.29	1875.16
600.64	1868.87
600.99	1861.45
601.34	1854.56
601.69	1847.55
602.04	1840.63
602.39	1833.37
602.74	1826.41
603.08	1819.68
603.43	1812.89
603.78	1805.49
604.13	1798.35
604.48	1791.16
604.83	1784.32
605.18	1777.36
605.53	1769.37
605.87	1761.46
606.22	1754.24
606.57	1746.38
606.92	1739.02
607.27	1731.72
607.62	1724.70
607.96	1717.19
608.31	1710.56
608.66	1702.92
609.01	1695.43
609.36	1687.90
609.70	1679.80
610.05	1671.64
610.40	1663.98
610.75	1655.66
611.10	1647.90
611.44	1639.44
611.79	1631.38
612.14	1622.67
612.49	1613.53
612.83	1605.10
613.18	1596.95
613.53	1588.77
613.88	1580.08
614.22	1571.79
614.57	1563.15
614.92	1555.10
615.27	1547.52
615.61	1539.19
615.96	1531.08
616.31	1523.36
616.65	1515.97
617.00	1508.34
617.35	1500.77
617.70	1492.35
618.04	1483.80
618.39	1475.70
618.74	1468.12
619.08	1459.71
619.43	1452.13
619.78	1445.24
620.12	1438.11
620.47	1430.52
620.82	1422.41
621.16	1415.07
621.51	1407.52
621.85	1399.87
622.20	1391.33
622.55	1383.01
622.89	1375.20
623.24	1367.62
623.59	1360.26
623.93	1352.62
624.28	1345.52
624.62	1337.93
624.97	1330.70
625.32	1324.09
625.66	1317.05
626.01	1309.90
626.35	1302.59
626.70	1294.92
627.04	1287.07
627.39	1279.29
627.73	1272.00
628.08	1265.12
628.43	1257.85
628.77	1250.48
629.12	1243.00
629.46	1235.91
629.81	1228.53
630.15	1221.26
630.50	1213.86
630.84	1205.67
631.19	1197.81
631.53	1190.34
631.88	1182.77
632.22	1175.25
632.57	1167.77
632.91	1160.18
633.26	1152.69
633.60	1145.28
633.95	1138.14
634.29	1131.36
634.64	1124.71
634.98	1117.28
635.32	1110.08
635.67	1103.43
636.01	1096.74
636.36	1089.94
636.70	1083.38
637.05	1076.81
637.39	1070.41
637.73	1063.86
638.08	1058.06
638.42	1052.06
638.77	1045.63
639.11	1039.03
639.45	1032.58
639.80	1025.94
640.14	1019.54
640.49	1013.03
640.83	1006.70
641.17	1000.46
641.52	993.96
641.86	987.44
642.20	981.67
642.55	975.42
642.89	968.96
643.23	962.47
643.58	956.70
643.92	950.56
644.26	944.49
644.61	938.41
644.95	932.38
645.29	925.71
645.64	918.95
645.98	912.52
646.32	906.74
646.66	900.72
647.01	894.98
647.35	889.21
647.69	883.40
648.04	877.92
648.38	872.15
648.72	866.21
649.06	860.13
649.41	854.16
649.75	848.15
650.09	842.25
650.43	836.43
650.78	830.21
651.12	824.21
651.46	818.45
651.80	812.74
652.14	807.41
652.49	802.08
652.83	796.96
653.17	791.26
653.51	785.46
653.85	780.08
654.20	774.50
654.54	768.56
654.88	762.80
655.22	756.86
655.56	751.09
655.90	745.61
656.25	740.41
656.59	735.03
656.93	729.98
657.27	724.74
657.61	719.27
657.95	714.22
658.29	709.10
658.64	703.85
658.98	698.53
659.32	693.00
659.66	687.72
660.00	682.37
660.34	677.46
660.68	672.55
661.02	667.57
661.36	662.73
661.70	658.19
662.05	653.80
662.39	649.50
662.73	645.05
663.07	640.67
663.41	636.20
663.75	631.73
664.09	627.10
664.43	622.76
664.77	618.68
665.11	614.47
665.45	610.36
665.79	606.30
666.13	602.13
666.47	598.08
666.81	593.95
667.15	589.87
667.49	585.95
667.83	582.18
668.17	578.21
668.51	574.15
668.85	570.16
669.19	566.42
669.53	562.55
669.87	558.64
670.21	554.97
670.55	551.39
670.89	547.97
671.23	544.61
671.57	541.06
671.91	537.48
672.25	533.96
672.58	530.42
672.92	527.05
673.26	523.92
673.60	520.76
673.94	517.66
674.28	514.76
674.62	511.83
674.96	508.71
675.30	505.77
675.64	502.90
675.97	500.13
676.31	497.20
676.65	494.28
676.99	491.61
677.33	488.73
677.67	485.85
678.01	482.82
678.34	479.82
678.68	476.98
679.02	474.21
679.36	471.46
679.70	468.80
680.04	466.05
680.37	463.16
680.71	460.40
681.05	457.78
681.39	455.08
681.73	452.44
682.06	449.94
682.40	447.38
682.74	444.84
683.08	442.28
683.42	439.70
683.75	437.22
684.09	434.69
684.43	432.22
684.77	429.81
685.10	427.51
685.44	425.21
685.78	422.93
686.12	420.71
686.45	418.40
686.79	416.09
687.13	413.86
687.46	411.74
687.80	409.58
688.14	407.38
688.48	405.33
688.81	403.05
689.15	400.91
689.49	398.82
689.82	396.71
690.16	394.65
690.50	392.74
690.83	390.80
691.17	388.84
691.51	386.97
691.84	385.13
692.18	383.15
692.52	381.18
692.85	379.21
693.19	377.28
693.52	375.47
693.86	373.66
694.20	371.89
694.53	370.03
694.87	368.16
695.21	366.38
695.54	364.54
695.88	362.84
696.21	361.07
696.55	359.38
696.88	357.76
697.22	356.07
697.56	354.42
697.89	352.76
698.23	351.12
698.56	349.48
698.90	347.85
699.23	346.20
699.57	344.63
699.90	343.05
700.24	341.52
700.58	339.94
700.91	338.48
701.25	337.03
701.58	335.68
701.92	334.31
702.25	332.94
702.59	331.56
702.92	330.20
703.26	328.88
703.59	327.56
703.93	326.32
704.26	325.11
704.60	323.77
704.93	322.51
705.26	321.29
705.60	320.13
705.93	318.94
706.27	317.91
706.60	316.87
706.94	315.81
707.27	314.65
707.61	313.64
707.94	312.58
708.27	311.46
708.61	310.41
708.94	309.40
709.28	308.37
709.61	307.40
709.94	306.44
710.28	305.44
710.61	304.47
710.95	303.39
711.28	302.44
711.61	301.51
711.95	300.58
712.28	299.62
712.61	298.65
712.95	297.78
713.28	296.90
713.61	296.03
713.95	295.17
714.28	294.38
714.61	293.53
714.95	292.71
715.28	291.86
715.61	290.99
715.95	290.12
716.28	289.30
716.61	288.47
716.95	287.67
717.28	286.96
717.61	286.22
717.94	285.52
718.28	284.73
718.61	284.00
718.94	283.34
719.27	282.68
719.61	282.03
719.94	281.35
720.27	280.65
720.60	279.96
720.94	279.30
721.27	278.67
721.60	278.06
721.93	277.41
722.27	276.88
722.60	276.34
722.93	275.81
723.26	275.29
723.59	274.76
723.93	274.23
724.26	273.66
724.59	273.11
724.92	272.57
725.25	272.12
725.59	271.60
725.92	271.05
726.25	270.56
726.58	270.07
726.91	269.57
727.24	269.13
727.57	268.65
727.91	268.16
728.24	267.70
728.57	267.20
728.90	266.80
729.23	266.32
729.56	265.87
729.89	265.42
730.22	264.89
730.55	264.41
730.89	263.97
731.22	263.51
731.55	263.07
731.88	262.65
732.21	262.20
732.54	261.79
732.87	261.38
733.20	260.94
733.53	260.58
733.86	260.20
734.19	259.71
734.52	259.36
734.85	259.02
735.18	258.60
735.51	258.24
735.84	257.84
736.17	257.46
736.50	257.07
736.83	256.81
737.16	256.52
737.49	256.18
737.82	255.83
738.15	255.53
738.48	255.19
738.81	254.87
739.14	254.53
739.47	254.19
739.80	253.90
740.13	253.57
740.46	253.19
740.79	252.85
741.12	252.57
741.45	252.26
741.78	251.91
742.11	251.64
742.44	251.32
742.77	251.06
743.10	250.76
743.43	250.46
743.75	250.04
744.08	249.88
744.41	249.62
744.74	249.36
745.07	249.08
745.40	248.82
745.73	248.56
746.06	248.28
746.39	248.04
746.71	247.77
747.04	247.52
747.37	247.28
747.70	247.02
748.03	246.75
748.36	246.52
748.68	246.29
749.01	246.04
749.34	245.80
749.67	245.56
750.00	245.35
750.33	245.20
750.65	245.00
750.98	244.63
751.31	244.41
751.64	244.22
751.97	244.04
752.29	243.82
752.62	243.62
752.95	243.43
753.28	243.22
753.60	243.01
753.93	242.86
754.26	242.65
754.59	242.46
754.91	242.32
755.24	242.14
755.57	241.97
755.90	241.82
756.22	241.64
756.55	241.41
756.88	241.20
757.20	240.97
757.53	240.79
757.86	240.61
758.19	240.46
758.51	240.30
758.84	240.08
759.17	239.89
759.49	239.72
759.82	239.62
760.15	239.49
760.47	239.33
760.80	239.14
761.13	239.04
761.45	238.87
761.78	238.69
762.11	238.53
762.43	238.37
762.76	238.21
763.08	238.09
763.41	238.01
763.74	237.91
764.06	237.76
764.39	237.61
764.71	237.52
765.04	237.35
765.37	237.17
765.69	237.05
766.02	236.94
766.34	236.80
766.67	236.66
767.00	236.51
767.32	236.45
767.65	236.42
767.97	236.29
768.30	236.18
768.62	236.08
768.95	235.95
769.27	235.87
769.60	235.80
769.92	235.67
770.25	235.50
770.57	235.38
770.90	235.31
771.22	235.23
771.55	235.12
771.87	235.05
772.20	234.98
772.52	234.98
772.85	234.96
773.17	234.88
773.50	234.77
773.82	234.69
774.15	234.52
774.47	234.36
774.80	234.26
775.12	234.18
775.45	234.09
775.77	233.99
776.09	233.92
776.42	233.82
776.74	233.76
777.07	233.70
777.39	233.61
777.72	233.51
778.04	233.43
778.36	233.35
778.69	233.25
779.01	233.19
779.33	233.01
779.66	232.81
779.98	232.73
780.31	232.62
780.63	232.59
780.95	232.49
781.28	232.40
781.60	232.33
781.92	232.26
782.25	232.22
782.57	232.17
782.89	232.05
783.22	231.94
783.54	231.86
783.86	231.82
784.19	231.77
784.51	231.73
784.83	231.66
785.16	231.58
785.48	231.53
785.80	231.46
786.12	231.42
786.45	231.38
786.77	231.34
787.09	231.31
