SpectraSuite Data File
++++++++++++++++++++++++++++++++++++
Date: Fri Feb 01 15:00:32 EST 2013
User: group
Dark Spectrum Present: No
Reference Spectrum Present: No
Number of Sampled Component Spectra: 1
Spectrometers: USB2E7196
Integration Time (usec): 35000 (USB2E7196)
Spectra Averaged: 100 (USB2E7196)
Boxcar Smoothing: 10 (USB2E7196)
Correct for Electrical Dark: No (USB2E7196)
Strobe/Lamp Enabled: No (USB2E7196)
Correct for Detector Non-linearity: No (USB2E7196)
Correct for Stray Light: No (USB2E7196)
Number of Pixels in Processed Spectrum: 2048
>>>>>Begin Processed Spectral Data<<<<<
339.09	0.00
339.48	215.24
339.86	216.59
340.24	218.15
340.63	219.66
341.01	222.59
341.39	222.16
341.78	223.29
342.16	225.24
342.54	224.71
342.93	213.59
343.31	224.36
343.69	224.93
344.07	225.41
344.46	225.83
344.84	226.19
345.22	226.42
345.60	226.67
345.99	226.89
346.37	227.01
346.75	227.13
347.13	227.21
347.52	227.26
347.90	227.32
348.28	227.37
348.66	227.40
349.05	227.39
349.43	227.41
349.81	227.43
350.19	227.49
350.57	227.54
350.96	227.58
351.34	227.69
351.72	227.76
352.10	227.84
352.48	227.91
352.87	227.97
353.25	228.03
353.63	228.07
354.01	228.11
354.39	228.16
354.77	228.24
355.15	228.32
355.54	228.41
355.92	228.45
356.30	228.50
356.68	228.60
357.06	228.68
357.44	228.71
357.82	228.80
358.20	228.87
358.58	228.93
358.97	229.00
359.35	229.06
359.73	229.12
360.11	229.13
360.49	229.17
360.87	229.23
361.25	229.27
361.63	229.39
362.01	229.43
362.39	229.45
362.77	229.50
363.15	229.52
363.53	229.54
363.91	229.57
364.29	229.58
364.67	229.55
365.05	229.56
365.43	229.56
365.81	229.56
366.19	229.57
366.57	229.60
366.95	229.58
367.33	229.56
367.71	229.54
368.09	229.57
368.47	229.53
368.85	229.49
369.23	229.47
369.61	229.39
369.99	229.38
370.37	229.36
370.75	229.36
371.13	229.31
371.51	229.23
371.89	229.20
372.27	229.16
372.65	229.12
373.03	229.06
373.41	229.03
373.78	228.94
374.16	228.86
374.54	228.76
374.92	228.69
375.30	228.65
375.68	228.55
376.06	228.47
376.44	228.40
376.82	228.34
377.19	228.27
377.57	228.17
377.95	228.06
378.33	227.98
378.71	227.83
379.09	227.76
379.47	227.70
379.84	227.62
380.22	227.52
380.60	227.42
380.98	227.32
381.36	227.25
381.73	227.18
382.11	227.11
382.49	227.05
382.87	226.96
383.25	226.88
383.62	226.91
384.00	226.85
384.38	226.78
384.76	226.74
385.13	226.71
385.51	226.64
385.89	226.58
386.27	226.52
386.64	226.48
387.02	226.44
387.40	226.40
387.78	226.34
388.15	226.32
388.53	226.26
388.91	226.23
389.29	226.22
389.66	226.22
390.04	226.20
390.42	226.18
390.79	226.17
391.17	226.16
391.55	226.10
391.92	226.12
392.30	226.15
392.68	226.15
393.05	226.16
393.43	226.21
393.81	226.22
394.18	226.26
394.56	226.26
394.94	226.31
395.31	226.31
395.69	226.40
396.06	226.45
396.44	226.57
396.82	226.65
397.19	226.75
397.57	226.79
397.95	226.86
398.32	226.93
398.70	227.03
399.07	227.11
399.45	227.13
399.82	227.18
400.20	227.23
400.58	227.29
400.95	227.36
401.33	227.48
401.70	227.64
402.08	227.76
402.45	227.91
402.83	227.99
403.20	228.14
403.58	228.24
403.95	228.39
404.33	228.50
404.71	228.61
405.08	228.76
405.46	228.89
405.83	229.06
406.21	229.19
406.58	229.35
406.96	229.51
407.33	229.75
407.70	229.95
408.08	230.27
408.45	230.52
408.83	230.74
409.20	230.95
409.58	231.14
409.95	231.41
410.33	231.66
410.70	231.94
411.08	232.24
411.45	232.57
411.82	232.86
412.20	233.17
412.57	233.58
412.95	233.91
413.32	234.33
413.69	234.74
414.07	235.17
414.44	235.64
414.82	236.11
415.19	236.65
415.56	237.20
415.94	237.71
416.31	238.35
416.68	238.98
417.06	239.69
417.43	240.38
417.81	241.14
418.18	241.94
418.55	242.81
418.93	243.66
419.30	244.53
419.67	245.48
420.04	246.48
420.42	247.44
420.79	248.60
421.16	249.73
421.54	250.92
421.91	252.14
422.28	253.39
422.66	254.76
423.03	256.04
423.40	257.36
423.77	258.75
424.15	260.19
424.52	261.67
424.89	263.28
425.26	264.83
425.64	266.28
426.01	267.86
426.38	269.48
426.75	271.15
427.13	272.92
427.50	274.72
427.87	276.60
428.24	278.47
428.61	280.19
428.99	282.19
429.36	284.27
429.73	286.39
430.10	288.40
430.47	290.40
430.85	292.53
431.22	294.80
431.59	297.21
431.96	299.43
432.33	301.91
432.70	304.28
433.08	307.09
433.45	309.73
433.82	312.35
434.19	315.21
434.56	318.07
434.93	320.70
435.30	323.31
435.68	326.16
436.05	328.98
436.42	331.79
436.79	334.24
437.16	336.95
437.53	339.73
437.90	342.59
438.27	345.36
438.64	348.18
439.01	350.77
439.38	353.03
439.75	355.18
440.13	357.72
440.50	360.05
440.87	361.90
441.24	363.83
441.61	366.00
441.98	367.50
442.35	369.28
442.72	371.17
443.09	373.02
443.46	374.05
443.83	374.69
444.20	375.24
444.57	376.14
444.94	376.43
445.31	376.79
445.68	377.15
446.05	377.24
446.42	376.88
446.79	376.45
447.16	375.95
447.53	375.68
447.90	374.51
448.27	373.35
448.64	371.77
449.01	370.60
449.37	368.58
449.74	366.71
450.11	364.44
450.48	361.96
450.85	359.42
451.22	357.29
451.59	355.27
451.96	353.34
452.33	350.72
452.70	348.39
453.07	345.56
453.43	342.65
453.80	339.92
454.17	337.23
454.54	334.67
454.91	331.96
455.28	329.23
455.65	326.70
456.02	324.26
456.38	322.10
456.75	319.48
457.12	317.28
457.49	315.08
457.86	312.91
458.23	311.06
458.59	309.01
458.96	306.89
459.33	305.02
459.70	303.09
460.07	301.56
460.43	299.79
460.80	298.15
461.17	296.71
461.54	295.18
461.91	293.75
462.27	292.32
462.64	291.08
463.01	289.74
463.38	288.49
463.74	287.09
464.11	285.94
464.48	284.92
464.85	283.79
465.21	282.87
465.58	281.97
465.95	280.83
466.32	279.94
466.68	279.00
467.05	278.09
467.42	277.22
467.78	276.28
468.15	275.41
468.52	274.73
468.88	273.87
469.25	273.06
469.62	272.43
469.98	271.72
470.35	271.08
470.72	270.47
471.08	269.79
471.45	269.25
471.82	268.69
472.18	268.05
472.55	267.61
472.92	267.06
473.28	266.57
473.65	266.10
474.02	265.63
474.38	265.30
474.75	264.98
475.11	264.61
475.48	264.29
475.85	264.07
476.21	263.84
476.58	263.63
476.94	263.49
477.31	263.30
477.67	263.16
478.04	263.02
478.41	262.90
478.77	262.95
479.14	262.84
479.50	262.84
479.87	262.90
480.23	262.98
480.60	263.05
480.96	263.10
481.33	263.33
481.69	263.50
482.06	263.64
482.42	263.82
482.79	264.08
483.15	264.40
483.52	264.76
483.88	265.10
484.25	265.50
484.61	265.93
484.98	266.35
485.34	266.90
485.71	267.46
486.07	268.10
486.44	268.62
486.80	269.32
487.17	270.05
487.53	270.85
487.90	271.66
488.26	272.61
488.62	273.61
488.99	274.57
489.35	275.61
489.72	276.72
490.08	277.93
490.44	279.15
490.81	280.49
491.17	281.81
491.54	283.26
491.90	284.78
492.26	286.41
492.63	288.13
492.99	289.88
493.36	291.81
493.72	293.81
494.08	295.91
494.45	298.17
494.81	300.50
495.17	302.88
495.54	305.45
495.90	308.12
496.26	310.88
496.63	313.81
496.99	316.88
497.35	320.12
497.72	323.50
498.08	326.98
498.44	330.63
498.80	334.56
499.17	338.54
499.53	342.67
499.89	347.01
500.26	351.52
500.62	356.16
500.98	361.12
501.34	366.17
501.71	371.49
502.07	376.89
502.43	382.51
502.79	388.33
503.16	394.38
503.52	400.61
503.88	406.99
504.24	413.62
504.60	420.49
504.97	427.58
505.33	434.88
505.69	442.59
506.05	450.33
506.41	458.15
506.78	466.30
507.14	474.77
507.50	483.50
507.86	492.53
508.22	501.71
508.59	510.82
508.95	520.38
509.31	530.13
509.67	540.20
510.03	550.48
510.39	561.04
510.75	571.89
511.12	582.80
511.48	594.07
511.84	605.48
512.20	617.05
512.56	629.00
512.92	641.22
513.28	653.51
513.64	666.02
514.00	678.82
514.37	691.73
514.73	704.76
515.09	717.79
515.45	731.00
515.81	744.58
516.17	758.66
516.53	772.92
516.89	787.12
517.25	801.30
517.61	815.75
517.97	830.25
518.33	844.72
518.69	859.56
519.05	874.68
519.41	889.85
519.77	905.37
520.13	920.84
520.49	936.26
520.85	951.76
521.21	967.53
521.57	983.75
521.93	999.69
522.29	1016.12
522.65	1032.42
523.01	1048.75
523.37	1064.93
523.73	1081.19
524.09	1097.27
524.45	1113.74
524.81	1130.49
525.17	1147.42
525.53	1164.30
525.89	1181.26
526.25	1198.17
526.61	1214.58
526.97	1231.39
527.33	1247.94
527.68	1264.72
528.04	1281.25
528.40	1298.07
528.76	1315.21
529.12	1331.92
529.48	1348.82
529.84	1364.97
530.20	1381.62
530.56	1398.76
530.91	1416.24
531.27	1433.08
531.63	1449.63
531.99	1466.24
532.35	1482.18
532.71	1498.08
533.07	1514.53
533.42	1530.27
533.78	1546.33
534.14	1562.62
534.50	1578.22
534.86	1594.18
535.21	1609.30
535.57	1625.33
535.93	1640.80
536.29	1655.63
536.65	1670.80
537.00	1685.77
537.36	1701.18
537.72	1715.79
538.08	1730.26
538.44	1744.10
538.79	1758.14
539.15	1772.07
539.51	1785.88
539.87	1800.44
540.22	1814.40
540.58	1828.19
540.94	1841.78
541.29	1854.86
541.65	1867.70
542.01	1880.97
542.37	1893.33
542.72	1906.01
543.08	1917.76
543.44	1930.15
543.79	1941.59
544.15	1952.64
544.51	1964.15
544.87	1975.16
545.22	1986.22
545.58	1996.49
545.94	2006.24
546.29	2016.01
546.65	2025.75
547.01	2035.02
547.36	2043.80
547.72	2052.14
548.07	2060.16
548.43	2068.30
548.79	2076.43
549.14	2083.89
549.50	2091.28
549.86	2099.08
550.21	2106.24
550.57	2113.45
550.92	2120.15
551.28	2127.25
551.64	2134.39
551.99	2140.89
552.35	2146.98
552.70	2152.86
553.06	2158.73
553.41	2165.05
553.77	2171.13
554.13	2177.23
554.48	2183.32
554.84	2188.69
555.19	2194.04
555.55	2199.08
555.90	2203.68
556.26	2208.31
556.61	2213.18
556.97	2217.25
557.32	2221.39
557.68	2225.66
558.03	2230.03
558.39	2233.80
558.74	2238.33
559.10	2241.97
559.45	2245.75
559.81	2250.07
560.16	2253.96
560.52	2257.19
560.87	2260.53
561.23	2263.11
561.58	2266.06
561.94	2268.45
562.29	2270.78
562.64	2273.32
563.00	2275.87
563.35	2279.35
563.71	2282.45
564.06	2285.43
564.42	2288.18
564.77	2290.53
565.12	2292.72
565.48	2294.39
565.83	2295.93
566.19	2297.03
566.54	2297.95
566.89	2298.77
567.25	2299.11
567.60	2300.39
567.96	2301.94
568.31	2302.67
568.66	2303.55
569.02	2303.82
569.37	2304.15
569.72	2304.82
570.08	2304.85
570.43	2304.48
570.78	2303.60
571.14	2302.03
571.49	2300.53
571.84	2300.16
572.20	2298.73
572.55	2297.38
572.90	2295.82
573.26	2294.20
573.61	2292.27
573.96	2290.29
574.31	2287.22
574.67	2283.93
575.02	2280.12
575.37	2276.68
575.72	2272.76
576.08	2269.60
576.43	2266.18
576.78	2262.33
577.13	2258.99
577.49	2255.70
577.84	2252.36
578.19	2248.43
578.54	2244.50
578.90	2240.18
579.25	2234.62
579.60	2229.74
579.95	2224.59
580.30	2219.35
580.66	2214.11
581.01	2209.15
581.36	2203.96
581.71	2199.58
582.06	2195.26
582.42	2190.73
582.77	2185.21
583.12	2180.46
583.47	2175.27
583.82	2170.15
584.17	2164.87
584.53	2159.38
584.88	2153.63
585.23	2147.58
585.58	2142.11
585.93	2136.60
586.28	2131.75
586.63	2126.30
586.98	2121.09
587.34	2116.40
587.69	2111.44
588.04	2106.06
588.39	2100.25
588.74	2093.87
589.09	2087.68
589.44	2080.71
589.79	2074.45
590.14	2068.84
590.49	2062.27
590.84	2055.83
591.19	2049.74
591.54	2043.04
591.89	2035.29
592.25	2028.33
592.60	2020.94
592.95	2013.15
593.30	2005.71
593.65	1998.03
594.00	1991.07
594.35	1983.67
594.70	1975.40
595.05	1967.89
595.40	1960.65
595.75	1953.01
596.10	1946.52
596.45	1939.65
596.80	1933.29
597.15	1926.50
597.50	1919.13
597.85	1912.59
598.19	1905.76
598.54	1898.50
598.89	1891.92
599.24	1886.14
599.59	1879.35
599.94	1873.19
600.29	1866.78
600.64	1860.29
600.99	1852.84
601.34	1845.87
601.69	1838.88
602.04	1831.96
602.39	1824.72
602.74	1817.66
603.08	1810.99
603.43	1804.38
603.78	1797.13
604.13	1789.89
604.48	1782.63
604.83	1775.92
605.18	1768.85
605.53	1760.91
605.87	1752.86
606.22	1745.43
606.57	1737.50
606.92	1730.30
607.27	1723.08
607.62	1716.11
607.96	1708.68
608.31	1701.96
608.66	1694.30
609.01	1686.66
609.36	1679.13
609.70	1671.16
610.05	1663.19
610.40	1655.37
610.75	1647.09
611.10	1639.38
611.44	1631.19
611.79	1623.23
612.14	1614.59
612.49	1605.52
612.83	1597.17
613.18	1589.13
613.53	1581.10
613.88	1572.58
614.22	1564.33
614.57	1555.91
614.92	1548.02
615.27	1540.41
615.61	1532.04
615.96	1524.06
616.31	1516.52
616.65	1509.17
617.00	1501.66
617.35	1494.01
617.70	1485.74
618.04	1477.25
618.39	1469.04
618.74	1461.34
619.08	1453.16
619.43	1445.63
619.78	1438.82
620.12	1431.68
620.47	1424.12
620.82	1416.09
621.16	1408.70
621.51	1401.06
621.85	1393.37
622.20	1384.79
622.55	1376.55
622.89	1368.83
623.24	1361.29
623.59	1354.02
623.93	1346.64
624.28	1339.40
624.62	1332.02
624.97	1324.80
625.32	1318.07
625.66	1311.09
626.01	1304.02
626.35	1296.50
626.70	1288.81
627.04	1281.07
627.39	1273.32
627.73	1266.00
628.08	1259.14
628.43	1251.84
628.77	1244.47
629.12	1236.87
629.46	1229.75
629.81	1222.47
630.15	1215.30
630.50	1207.94
630.84	1199.76
631.19	1191.78
631.53	1184.45
631.88	1176.91
632.22	1169.49
632.57	1162.25
632.91	1154.77
633.26	1147.37
633.60	1140.09
633.95	1133.11
634.29	1126.06
634.64	1119.52
634.98	1112.14
635.32	1104.98
635.67	1098.52
636.01	1092.06
636.36	1085.41
636.70	1079.03
637.05	1072.44
637.39	1065.98
637.73	1059.43
638.08	1053.61
638.42	1047.70
638.77	1041.13
639.11	1034.49
639.45	1028.11
639.80	1021.50
640.14	1015.12
640.49	1008.61
640.83	1002.37
641.17	996.05
641.52	989.82
641.86	983.43
642.20	977.70
642.55	971.47
642.89	964.91
643.23	958.37
643.58	952.62
643.92	946.39
644.26	940.36
644.61	934.45
644.95	928.50
645.29	921.85
645.64	915.10
645.98	908.82
646.32	903.03
646.66	897.03
647.01	891.22
647.35	885.59
647.69	879.79
648.04	874.24
648.38	868.48
648.72	862.44
649.06	856.35
649.41	850.42
649.75	844.39
650.09	838.56
650.43	832.74
650.78	826.60
651.12	820.73
651.46	814.91
651.80	809.08
652.14	803.72
652.49	798.34
652.83	793.20
653.17	787.49
653.51	781.76
653.85	776.37
654.20	770.71
654.54	764.64
654.88	758.99
655.22	753.20
655.56	747.48
655.90	742.05
656.25	736.79
656.59	731.53
656.93	726.53
657.27	721.34
657.61	715.97
657.95	710.87
658.29	705.75
658.64	700.62
658.98	695.35
659.32	689.93
659.66	684.80
660.00	679.50
660.34	674.67
660.68	669.82
661.02	664.88
661.36	660.19
661.70	655.74
662.05	651.40
662.39	647.04
662.73	642.72
663.07	638.42
663.41	634.05
663.75	629.56
664.09	624.99
664.43	620.66
664.77	616.56
665.11	612.39
665.45	608.32
665.79	604.25
666.13	600.21
666.47	596.12
666.81	591.96
667.15	587.89
667.49	584.01
667.83	580.27
668.17	576.28
668.51	572.30
668.85	568.37
669.19	564.54
669.53	560.75
669.87	556.87
670.21	553.20
670.55	549.57
670.89	546.17
671.23	542.83
671.57	539.33
671.91	535.79
672.25	532.28
672.58	528.80
672.92	525.47
673.26	522.38
673.60	519.25
673.94	516.19
674.28	513.31
674.62	510.39
674.96	507.33
675.30	504.47
675.64	501.50
675.97	498.80
676.31	495.90
676.65	493.02
676.99	490.32
677.33	487.49
677.67	484.70
678.01	481.65
678.34	478.59
678.68	475.82
679.02	473.05
679.36	470.31
679.70	467.63
680.04	464.83
680.37	461.85
680.71	459.10
681.05	456.55
681.39	453.86
681.73	451.22
682.06	448.67
682.40	446.13
682.74	443.65
683.08	441.04
683.42	438.54
683.75	436.00
684.09	433.45
684.43	431.00
684.77	428.54
685.10	426.25
685.44	424.02
685.78	421.72
686.12	419.52
686.45	417.26
686.79	414.99
687.13	412.88
687.46	410.86
687.80	408.65
688.14	406.43
688.48	404.39
688.81	402.14
689.15	400.01
689.49	397.91
689.82	395.89
690.16	393.83
690.50	391.87
690.83	390.00
691.17	388.06
691.51	386.14
691.84	384.36
692.18	382.48
692.52	380.50
692.85	378.60
693.19	376.74
693.52	374.93
693.86	373.08
694.20	371.31
694.53	369.46
694.87	367.67
695.21	365.94
695.54	364.11
695.88	362.37
696.21	360.63
696.55	358.97
696.88	357.25
697.22	355.60
697.56	354.00
697.89	352.28
698.23	350.69
698.56	349.11
698.90	347.51
699.23	345.84
699.57	344.31
699.90	342.78
700.24	341.24
700.58	339.70
700.91	338.20
701.25	336.72
701.58	335.39
701.92	334.10
702.25	332.70
702.59	331.35
702.92	330.04
703.26	328.81
703.59	327.54
703.93	326.37
704.26	325.12
704.60	323.83
704.93	322.59
705.26	321.34
705.60	320.14
705.93	318.92
706.27	317.92
706.60	316.81
706.94	315.71
707.27	314.58
707.61	313.53
707.94	312.52
708.27	311.42
708.61	310.34
708.94	309.28
709.28	308.36
709.61	307.39
709.94	306.44
710.28	305.43
710.61	304.48
710.95	303.42
711.28	302.56
711.61	301.56
711.95	300.65
712.28	299.75
712.61	298.80
712.95	297.90
713.28	297.01
713.61	296.19
713.95	295.34
714.28	294.50
714.61	293.64
714.95	292.81
715.28	291.99
715.61	291.14
715.95	290.30
716.28	289.40
716.61	288.58
716.95	287.83
717.28	287.09
717.61	286.30
717.94	285.58
718.28	284.75
718.61	284.06
718.94	283.40
719.27	282.71
719.61	282.07
719.94	281.44
720.27	280.74
720.60	280.05
720.94	279.42
721.27	278.82
721.60	278.26
721.93	277.67
722.27	277.13
722.60	276.53
722.93	275.98
723.26	275.46
723.59	274.94
723.93	274.33
724.26	273.77
724.59	273.19
724.92	272.70
725.25	272.24
725.59	271.77
725.92	271.24
726.25	270.76
726.58	270.29
726.91	269.79
727.24	269.35
727.57	268.89
727.91	268.37
728.24	267.93
728.57	267.42
728.90	266.97
729.23	266.46
729.56	266.10
729.89	265.61
730.22	265.13
730.55	264.63
730.89	264.20
731.22	263.72
731.55	263.32
731.88	262.86
732.21	262.39
732.54	261.95
732.87	261.54
733.20	261.10
733.53	260.70
733.86	260.31
734.19	259.90
734.52	259.52
734.85	259.25
735.18	258.82
735.51	258.47
735.84	258.11
736.17	257.80
736.50	257.35
736.83	257.12
737.16	256.78
737.49	256.46
737.82	256.11
738.15	255.79
738.48	255.45
738.81	255.11
739.14	254.81
739.47	254.46
739.80	254.12
740.13	253.84
740.46	253.52
740.79	253.21
741.12	252.88
741.45	252.55
741.78	252.16
742.11	251.89
742.44	251.58
742.77	251.28
743.10	250.95
743.43	250.68
743.75	250.27
744.08	250.13
744.41	249.85
744.74	249.58
745.07	249.32
745.40	249.07
745.73	248.88
746.06	248.62
746.39	248.35
746.71	248.09
747.04	247.80
747.37	247.56
747.70	247.32
748.03	247.07
748.36	246.86
748.68	246.65
749.01	246.44
749.34	246.22
749.67	246.02
750.00	245.81
750.33	245.66
750.65	245.45
750.98	245.11
751.31	244.93
751.64	244.74
751.97	244.55
752.29	244.35
752.62	244.08
752.95	243.85
753.28	243.63
753.60	243.44
753.93	243.29
754.26	243.10
754.59	242.88
754.91	242.67
755.24	242.49
755.57	242.31
755.90	242.07
756.22	241.85
756.55	241.67
756.88	241.47
757.20	241.23
757.53	241.07
757.86	240.91
758.19	240.73
758.51	240.57
758.84	240.36
759.17	240.19
759.49	240.05
759.82	239.92
760.15	239.81
760.47	239.66
760.80	239.46
761.13	239.33
761.45	239.18
761.78	239.06
762.11	238.88
762.43	238.74
762.76	238.62
763.08	238.52
763.41	238.37
763.74	238.24
764.06	238.13
764.39	238.00
764.71	237.87
765.04	237.71
765.37	237.59
765.69	237.46
766.02	237.35
766.34	237.24
766.67	237.10
767.00	236.95
767.32	236.89
767.65	236.86
767.97	236.71
768.30	236.60
768.62	236.48
768.95	236.38
769.27	236.25
769.60	236.18
769.92	236.04
770.25	235.95
770.57	235.84
770.90	235.72
771.22	235.60
771.55	235.49
771.87	235.44
772.20	235.32
772.52	235.31
772.85	235.32
773.17	235.20
773.50	235.14
773.82	235.08
774.15	234.93
774.47	234.77
774.80	234.68
775.12	234.61
775.45	234.53
775.77	234.43
776.09	234.35
776.42	234.22
776.74	234.16
777.07	234.05
777.39	233.99
777.72	233.90
778.04	233.84
778.36	233.76
778.69	233.68
779.01	233.65
779.33	233.45
779.66	233.27
779.98	233.23
780.31	233.12
780.63	233.09
780.95	233.06
781.28	233.01
781.60	232.95
781.92	232.89
782.25	232.82
782.57	232.78
782.89	232.73
783.22	232.68
783.54	232.60
783.86	232.55
784.19	232.50
784.51	232.49
784.83	232.39
785.16	232.31
785.48	232.28
785.80	232.16
786.12	232.17
786.45	232.11
786.77	232.06
787.09	232.03
