SpectraSuite Data File
++++++++++++++++++++++++++++++++++++
Date: Fri Feb 01 15:11:24 EST 2013
User: group
Dark Spectrum Present: No
Reference Spectrum Present: No
Number of Sampled Component Spectra: 1
Spectrometers: USB2E7196
Integration Time (usec): 35000 (USB2E7196)
Spectra Averaged: 100 (USB2E7196)
Boxcar Smoothing: 10 (USB2E7196)
Correct for Electrical Dark: No (USB2E7196)
Strobe/Lamp Enabled: No (USB2E7196)
Correct for Detector Non-linearity: No (USB2E7196)
Correct for Stray Light: No (USB2E7196)
Number of Pixels in Processed Spectrum: 2048
>>>>>Begin Processed Spectral Data<<<<<
339.09	0.00
339.48	215.21
339.86	216.50
340.24	218.15
340.63	219.20
341.01	222.26
341.39	221.69
341.78	223.59
342.16	224.41
342.54	224.84
342.93	213.39
343.31	224.18
343.69	224.68
344.07	225.15
344.46	225.56
344.84	225.95
345.22	226.16
345.60	226.43
345.99	226.58
346.37	226.75
346.75	226.85
347.13	226.89
347.52	226.93
347.90	227.01
348.28	227.09
348.66	227.15
349.05	227.14
349.43	227.18
349.81	227.23
350.19	227.28
350.57	227.31
350.96	227.38
351.34	227.46
351.72	227.56
352.10	227.65
352.48	227.73
352.87	227.74
353.25	227.81
353.63	227.85
354.01	227.92
354.39	227.97
354.77	228.05
355.15	228.15
355.54	228.21
355.92	228.25
356.30	228.30
356.68	228.42
357.06	228.49
357.44	228.56
357.82	228.59
358.20	228.67
358.58	228.72
358.97	228.79
359.35	228.84
359.73	228.92
360.11	228.96
360.49	229.02
360.87	229.08
361.25	229.15
361.63	229.24
362.01	229.30
362.39	229.30
362.77	229.34
363.15	229.38
363.53	229.39
363.91	229.41
364.29	229.45
364.67	229.36
365.05	229.36
365.43	229.36
365.81	229.40
366.19	229.44
366.57	229.49
366.95	229.50
367.33	229.46
367.71	229.45
368.09	229.46
368.47	229.44
368.85	229.44
369.23	229.40
369.61	229.32
369.99	229.31
370.37	229.32
370.75	229.32
371.13	229.22
371.51	229.16
371.89	229.08
372.27	229.03
372.65	228.99
373.03	228.94
373.41	228.94
373.78	228.85
374.16	228.76
374.54	228.68
374.92	228.59
375.30	228.54
375.68	228.49
376.06	228.41
376.44	228.33
376.82	228.24
377.19	228.19
377.57	228.12
377.95	228.03
378.33	227.92
378.71	227.79
379.09	227.75
379.47	227.71
379.84	227.66
380.22	227.55
380.60	227.44
380.98	227.35
381.36	227.24
381.73	227.16
382.11	227.09
382.49	227.04
382.87	226.98
383.25	226.92
383.62	226.94
384.00	226.84
384.38	226.79
384.76	226.78
385.13	226.74
385.51	226.72
385.89	226.64
386.27	226.59
386.64	226.57
387.02	226.52
387.40	226.43
387.78	226.41
388.15	226.39
388.53	226.35
388.91	226.33
389.29	226.28
389.66	226.29
390.04	226.26
390.42	226.25
390.79	226.23
391.17	226.20
391.55	226.10
391.92	226.11
392.30	226.09
392.68	226.06
393.05	226.07
393.43	226.08
393.81	226.09
394.18	226.12
394.56	226.13
394.94	226.18
395.31	226.21
395.69	226.28
396.06	226.32
396.44	226.41
396.82	226.46
397.19	226.58
397.57	226.60
397.95	226.68
398.32	226.72
398.70	226.81
399.07	226.91
399.45	226.99
399.82	227.07
400.20	227.18
400.58	227.26
400.95	227.33
401.33	227.47
401.70	227.67
402.08	227.77
402.45	227.88
402.83	228.02
403.20	228.15
403.58	228.25
403.95	228.38
404.33	228.52
404.71	228.65
405.08	228.84
405.46	229.01
405.83	229.14
406.21	229.27
406.58	229.43
406.96	229.58
407.33	229.78
407.70	229.97
408.08	230.22
408.45	230.47
408.83	230.72
409.20	230.91
409.58	231.10
409.95	231.38
410.33	231.65
410.70	231.89
411.08	232.22
411.45	232.51
411.82	232.86
412.20	233.19
412.57	233.61
412.95	233.91
413.32	234.35
413.69	234.75
414.07	235.21
414.44	235.68
414.82	236.19
415.19	236.72
415.56	237.30
415.94	237.86
416.31	238.47
416.68	239.06
417.06	239.78
417.43	240.43
417.81	241.20
418.18	241.96
418.55	242.78
418.93	243.67
419.30	244.56
419.67	245.48
420.04	246.44
420.42	247.43
420.79	248.60
421.16	249.76
421.54	250.96
421.91	252.21
422.28	253.47
422.66	254.78
423.03	256.12
423.40	257.42
423.77	258.82
424.15	260.25
424.52	261.76
424.89	263.34
425.26	264.90
425.64	266.29
426.01	267.89
426.38	269.58
426.75	271.24
427.13	272.97
427.50	274.74
427.87	276.61
428.24	278.42
428.61	280.13
428.99	282.04
429.36	284.19
429.73	286.24
430.10	288.26
430.47	290.30
430.85	292.34
431.22	294.58
431.59	296.94
431.96	299.19
432.33	301.68
432.70	304.08
433.08	306.89
433.45	309.60
433.82	312.20
434.19	315.09
434.56	317.87
434.93	320.54
435.30	323.19
435.68	326.10
436.05	328.96
436.42	331.78
436.79	334.32
437.16	336.99
437.53	339.80
437.90	342.66
438.27	345.41
438.64	348.32
439.01	350.92
439.38	353.22
439.75	355.41
440.13	357.91
440.50	360.23
440.87	362.06
441.24	363.96
441.61	366.20
441.98	367.73
442.35	369.52
442.72	371.36
443.09	373.18
443.46	374.17
443.83	374.80
444.20	375.30
444.57	376.13
444.94	376.40
445.31	376.75
445.68	377.09
446.05	377.12
446.42	376.68
446.79	376.25
447.16	375.78
447.53	375.46
447.90	374.28
448.27	373.17
448.64	371.62
449.01	370.50
449.37	368.48
449.74	366.52
450.11	364.31
450.48	361.90
450.85	359.36
451.22	357.25
451.59	355.21
451.96	353.29
452.33	350.63
452.70	348.28
453.07	345.49
453.43	342.58
453.80	339.83
454.17	337.19
454.54	334.65
454.91	331.91
455.28	329.19
455.65	326.72
456.02	324.27
456.38	322.11
456.75	319.42
457.12	317.15
457.49	314.95
457.86	312.73
458.23	310.88
458.59	308.83
458.96	306.73
459.33	304.87
459.70	303.01
460.07	301.51
460.43	299.79
460.80	298.13
461.17	296.66
461.54	295.20
461.91	293.78
462.27	292.33
462.64	291.11
463.01	289.77
463.38	288.42
463.74	287.04
464.11	285.86
464.48	284.83
464.85	283.73
465.21	282.85
465.58	281.93
465.95	280.80
466.32	279.88
466.68	278.95
467.05	278.04
467.42	277.10
467.78	276.19
468.15	275.28
468.52	274.59
468.88	273.74
469.25	272.97
469.62	272.31
469.98	271.64
470.35	270.96
470.72	270.36
471.08	269.75
471.45	269.17
471.82	268.59
472.18	267.99
472.55	267.56
472.92	267.04
473.28	266.58
473.65	266.12
474.02	265.68
474.38	265.29
474.75	264.94
475.11	264.65
475.48	264.36
475.85	264.12
476.21	263.87
476.58	263.68
476.94	263.49
477.31	263.33
477.67	263.17
478.04	263.05
478.41	263.02
478.77	263.05
479.14	263.00
479.50	263.07
479.87	263.13
480.23	263.18
480.60	263.20
480.96	263.26
481.33	263.43
481.69	263.62
482.06	263.85
482.42	264.02
482.79	264.24
483.15	264.58
483.52	264.95
483.88	265.30
484.25	265.65
484.61	266.07
484.98	266.50
485.34	267.05
485.71	267.67
486.07	268.26
486.44	268.83
486.80	269.52
487.17	270.19
487.53	271.00
487.90	271.82
488.26	272.78
488.62	273.78
488.99	274.78
489.35	275.82
489.72	276.96
490.08	278.19
490.44	279.41
490.81	280.73
491.17	282.13
491.54	283.62
491.90	285.21
492.26	286.87
492.63	288.61
492.99	290.35
493.36	292.23
493.72	294.26
494.08	296.32
494.45	298.57
494.81	300.97
495.17	303.39
495.54	305.97
495.90	308.66
496.26	311.43
496.63	314.40
496.99	317.49
497.35	320.70
497.72	324.11
498.08	327.68
498.44	331.34
498.80	335.24
499.17	339.28
499.53	343.45
499.89	347.78
500.26	352.24
500.62	356.98
500.98	361.91
501.34	366.95
501.71	372.27
502.07	377.72
502.43	383.31
502.79	389.14
503.16	395.18
503.52	401.41
503.88	407.83
504.24	414.46
504.60	421.35
504.97	428.50
505.33	435.76
505.69	443.40
506.05	451.13
506.41	459.03
506.78	467.12
507.14	475.51
507.50	484.28
507.86	493.33
508.22	502.48
508.59	511.67
508.95	521.29
509.31	531.05
509.67	541.21
510.03	551.44
510.39	562.05
510.75	572.85
511.12	583.80
511.48	595.17
511.84	606.64
512.20	618.19
512.56	630.11
512.92	642.24
513.28	654.55
513.64	667.10
514.00	679.85
514.37	692.84
514.73	705.92
515.09	718.96
515.45	732.23
515.81	745.79
516.17	759.80
516.53	773.91
516.89	788.17
517.25	802.21
517.61	816.68
517.97	831.15
518.33	845.63
518.69	860.37
519.05	875.33
519.41	890.46
519.77	905.97
520.13	921.48
520.49	936.95
520.85	952.57
521.21	968.27
521.57	984.49
521.93	1000.26
522.29	1016.75
522.65	1033.02
523.01	1049.31
523.37	1065.43
523.73	1081.73
524.09	1097.90
524.45	1114.22
524.81	1130.91
525.17	1147.81
525.53	1164.73
525.89	1181.68
526.25	1198.59
526.61	1214.98
526.97	1231.77
527.33	1248.31
527.68	1264.94
528.04	1281.49
528.40	1298.12
528.76	1315.29
529.12	1331.97
529.48	1348.97
529.84	1365.11
530.20	1381.86
530.56	1398.96
530.91	1416.43
531.27	1433.15
531.63	1449.73
531.99	1466.42
532.35	1482.56
532.71	1498.54
533.07	1514.82
533.42	1530.76
533.78	1546.92
534.14	1563.27
534.50	1578.65
534.86	1594.66
535.21	1609.96
535.57	1625.97
535.93	1641.42
536.29	1656.31
536.65	1671.44
537.00	1686.36
537.36	1701.56
537.72	1716.15
538.08	1730.62
538.44	1744.45
538.79	1758.49
539.15	1772.18
539.51	1786.03
539.87	1800.44
540.22	1814.29
540.58	1828.33
540.94	1841.73
541.29	1854.77
541.65	1867.63
542.01	1881.14
542.37	1893.48
542.72	1905.85
543.08	1917.69
543.44	1930.30
543.79	1941.55
544.15	1952.70
544.51	1964.28
544.87	1975.40
545.22	1986.29
545.58	1996.57
545.94	2006.43
546.29	2016.29
546.65	2026.15
547.01	2035.41
547.36	2044.18
547.72	2052.64
548.07	2060.37
548.43	2068.67
548.79	2076.75
549.14	2084.32
549.50	2091.54
549.86	2099.41
550.21	2106.86
550.57	2114.11
550.92	2120.60
551.28	2127.64
551.64	2134.61
551.99	2141.12
552.35	2147.19
552.70	2153.33
553.06	2159.43
553.41	2165.77
553.77	2171.80
554.13	2177.84
554.48	2183.98
554.84	2189.38
555.19	2194.79
555.55	2199.76
555.90	2204.03
556.26	2208.75
556.61	2213.36
556.97	2217.48
557.32	2221.46
557.68	2225.63
558.03	2229.90
558.39	2233.77
558.74	2238.29
559.10	2242.18
559.45	2245.81
559.81	2250.21
560.16	2253.94
560.52	2257.08
560.87	2260.50
561.23	2263.18
561.58	2266.14
561.94	2268.59
562.29	2271.00
562.64	2273.60
563.00	2276.26
563.35	2279.84
563.71	2283.00
564.06	2286.16
564.42	2289.10
564.77	2291.55
565.12	2293.48
565.48	2295.28
565.83	2296.99
566.19	2298.18
566.54	2299.06
566.89	2300.00
567.25	2300.32
567.60	2301.66
567.96	2303.22
568.31	2304.06
568.66	2305.00
569.02	2305.54
569.37	2305.79
569.72	2306.52
570.08	2306.40
570.43	2306.41
570.78	2305.55
571.14	2303.93
571.49	2302.70
571.84	2302.36
572.20	2301.06
572.55	2300.24
572.90	2298.60
573.26	2297.13
573.61	2295.50
573.96	2293.63
574.31	2290.62
574.67	2287.61
575.02	2283.80
575.37	2280.21
575.72	2276.09
576.08	2272.69
576.43	2269.36
576.78	2265.73
577.13	2262.51
577.49	2259.48
577.84	2255.96
578.19	2252.35
578.54	2248.54
578.90	2243.92
579.25	2238.19
579.60	2233.16
579.95	2228.00
580.30	2222.84
580.66	2217.53
581.01	2212.52
581.36	2207.38
581.71	2203.16
582.06	2198.62
582.42	2194.01
582.77	2188.77
583.12	2184.27
583.47	2179.37
583.82	2174.10
584.17	2168.65
584.53	2162.96
584.88	2157.20
585.23	2151.09
585.58	2145.43
585.93	2139.87
586.28	2135.19
586.63	2130.02
586.98	2124.85
587.34	2120.06
587.69	2115.20
588.04	2109.65
588.39	2103.83
588.74	2097.37
589.09	2091.14
589.44	2084.33
589.79	2078.29
590.14	2072.63
590.49	2065.97
590.84	2059.59
591.19	2053.44
591.54	2046.86
591.89	2039.32
592.25	2032.31
592.60	2025.24
592.95	2017.59
593.30	2010.24
593.65	2002.40
594.00	1995.26
594.35	1987.90
594.70	1979.75
595.05	1972.28
595.40	1965.01
595.75	1957.47
596.10	1951.07
596.45	1944.17
596.80	1938.01
597.15	1931.19
597.50	1923.95
597.85	1917.38
598.19	1910.66
598.54	1903.52
598.89	1896.87
599.24	1891.00
599.59	1884.29
599.94	1877.99
600.29	1871.74
600.64	1865.09
600.99	1857.76
601.34	1850.94
601.69	1844.04
602.04	1837.06
602.39	1829.67
602.74	1822.78
603.08	1816.10
603.43	1809.35
603.78	1802.12
604.13	1794.68
604.48	1787.47
604.83	1780.67
605.18	1773.55
605.53	1765.44
605.87	1757.52
606.22	1750.16
606.57	1742.31
606.92	1735.13
607.27	1727.87
607.62	1720.80
607.96	1713.46
608.31	1706.76
608.66	1699.01
609.01	1691.32
609.36	1683.78
609.70	1675.88
610.05	1667.79
610.40	1659.92
610.75	1651.65
611.10	1643.95
611.44	1635.75
611.79	1627.76
612.14	1618.96
612.49	1610.00
612.83	1601.71
613.18	1593.64
613.53	1585.57
613.88	1577.04
614.22	1568.55
614.57	1560.01
614.92	1551.90
615.27	1544.39
615.61	1536.05
615.96	1528.17
616.31	1520.61
616.65	1513.22
617.00	1505.72
617.35	1498.11
617.70	1489.82
618.04	1481.24
618.39	1472.95
618.74	1465.30
619.08	1456.90
619.43	1449.29
619.78	1442.34
620.12	1435.12
620.47	1427.52
620.82	1419.43
621.16	1412.07
621.51	1404.57
621.85	1396.93
622.20	1388.51
622.55	1380.15
622.89	1372.34
623.24	1364.71
623.59	1357.32
623.93	1349.75
624.28	1342.48
624.62	1334.97
624.97	1327.79
625.32	1321.13
625.66	1314.18
626.01	1306.85
626.35	1299.46
626.70	1291.85
627.04	1284.15
627.39	1276.42
627.73	1269.05
628.08	1262.11
628.43	1254.61
628.77	1247.20
629.12	1239.71
629.46	1232.52
629.81	1225.21
630.15	1217.93
630.50	1210.52
630.84	1202.38
631.19	1194.57
631.53	1187.08
631.88	1179.58
632.22	1171.96
632.57	1164.65
632.91	1157.12
633.26	1149.74
633.60	1142.39
633.95	1135.33
634.29	1128.21
634.64	1121.61
634.98	1114.25
635.32	1107.16
635.67	1100.69
636.01	1094.07
636.36	1087.24
636.70	1080.84
637.05	1074.24
637.39	1067.87
637.73	1061.39
638.08	1055.63
638.42	1049.66
638.77	1043.18
639.11	1036.52
639.45	1030.26
639.80	1023.61
640.14	1017.19
640.49	1010.81
640.83	1004.55
641.17	998.23
641.52	992.06
641.86	985.64
642.20	979.81
642.55	973.59
642.89	967.09
643.23	960.65
643.58	954.86
643.92	948.58
644.26	942.49
644.61	936.51
644.95	930.42
645.29	923.74
645.64	917.02
645.98	910.70
646.32	904.97
646.66	898.88
647.01	893.09
647.35	887.35
647.69	881.48
648.04	875.97
648.38	870.23
648.72	864.19
649.06	858.17
649.41	852.30
649.75	846.27
650.09	840.32
650.43	834.55
650.78	828.44
651.12	822.52
651.46	816.83
651.80	811.03
652.14	805.65
652.49	800.28
652.83	795.11
653.17	789.38
653.51	783.68
653.85	778.37
654.20	772.76
654.54	766.87
654.88	761.24
655.22	755.42
655.56	749.75
655.90	744.20
656.25	738.89
656.59	733.56
656.93	728.48
657.27	723.36
657.61	717.85
657.95	712.80
658.29	707.75
658.64	702.51
658.98	697.18
659.32	691.72
659.66	686.54
660.00	681.20
660.34	676.30
660.68	671.38
661.02	666.34
661.36	661.65
661.70	657.12
662.05	652.75
662.39	648.41
662.73	644.02
663.07	639.68
663.41	635.27
663.75	630.76
664.09	626.15
664.43	621.77
664.77	617.73
665.11	613.47
665.45	609.35
665.79	605.22
666.13	601.14
666.47	597.12
666.81	592.94
667.15	588.83
667.49	584.98
667.83	581.21
668.17	577.30
668.51	573.15
668.85	569.16
669.19	565.28
669.53	561.41
669.87	557.50
670.21	553.81
670.55	550.15
670.89	546.70
671.23	543.28
671.57	539.79
671.91	536.23
672.25	532.72
672.58	529.20
672.92	525.87
673.26	522.77
673.60	519.60
673.94	516.51
674.28	513.68
674.62	510.74
674.96	507.60
675.30	504.65
675.64	501.80
675.97	499.07
676.31	496.19
676.65	493.35
676.99	490.65
677.33	487.83
677.67	485.00
678.01	482.00
678.34	479.04
678.68	476.21
679.02	473.39
679.36	470.70
679.70	468.04
680.04	465.28
680.37	462.39
680.71	459.65
681.05	457.07
681.39	454.33
681.73	451.69
682.06	449.16
682.40	446.62
682.74	444.15
683.08	441.58
683.42	439.01
683.75	436.48
684.09	433.95
684.43	431.50
684.77	429.11
685.10	426.81
685.44	424.54
685.78	422.23
686.12	420.05
686.45	417.77
686.79	415.48
687.13	413.31
687.46	411.20
687.80	409.10
688.14	406.89
688.48	404.86
688.81	402.63
689.15	400.57
689.49	398.48
689.82	396.40
690.16	394.34
690.50	392.39
690.83	390.49
691.17	388.49
691.51	386.66
691.84	384.82
692.18	382.84
692.52	380.92
692.85	378.99
693.19	377.05
693.52	375.20
693.86	373.38
694.20	371.61
694.53	369.77
694.87	367.93
695.21	366.18
695.54	364.34
695.88	362.62
696.21	360.89
696.55	359.16
696.88	357.46
697.22	355.79
697.56	354.19
697.89	352.50
698.23	350.92
698.56	349.23
698.90	347.61
699.23	345.96
699.57	344.42
699.90	342.91
700.24	341.43
700.58	339.92
700.91	338.46
701.25	336.98
701.58	335.66
701.92	334.25
702.25	332.87
702.59	331.53
702.92	330.22
703.26	328.89
703.59	327.61
703.93	326.39
704.26	325.20
704.60	323.89
704.93	322.62
705.26	321.40
705.60	320.25
705.93	319.10
706.27	318.09
706.60	317.04
706.94	315.94
707.27	314.81
707.61	313.75
707.94	312.72
708.27	311.64
708.61	310.51
708.94	309.47
709.28	308.48
709.61	307.51
709.94	306.57
710.28	305.57
710.61	304.59
710.95	303.55
711.28	302.62
711.61	301.70
711.95	300.83
712.28	299.86
712.61	298.91
712.95	297.99
713.28	297.13
713.61	296.22
713.95	295.34
714.28	294.52
714.61	293.68
714.95	292.84
715.28	292.00
715.61	291.14
715.95	290.34
716.28	289.46
716.61	288.64
716.95	287.83
717.28	287.06
717.61	286.33
717.94	285.62
718.28	284.83
718.61	284.09
718.94	283.35
719.27	282.69
719.61	282.00
719.94	281.36
720.27	280.64
720.60	279.96
720.94	279.34
721.27	278.73
721.60	278.15
721.93	277.55
722.27	277.01
722.60	276.48
722.93	275.93
723.26	275.43
723.59	274.88
723.93	274.33
724.26	273.78
724.59	273.25
724.92	272.69
725.25	272.19
725.59	271.66
725.92	271.16
726.25	270.68
726.58	270.19
726.91	269.67
727.24	269.23
727.57	268.78
727.91	268.29
728.24	267.82
728.57	267.35
728.90	266.88
729.23	266.39
729.56	265.93
729.89	265.47
730.22	264.97
730.55	264.48
730.89	264.06
731.22	263.62
731.55	263.20
731.88	262.80
732.21	262.37
732.54	261.94
732.87	261.54
733.20	261.12
733.53	260.75
733.86	260.42
734.19	260.05
734.52	259.70
734.85	259.37
735.18	258.94
735.51	258.58
735.84	258.22
736.17	257.89
736.50	257.52
736.83	257.30
737.16	256.99
737.49	256.70
737.82	256.34
738.15	256.03
738.48	255.68
738.81	255.35
739.14	255.02
739.47	254.74
739.80	254.44
740.13	254.15
740.46	253.84
740.79	253.48
741.12	253.13
741.45	252.78
741.78	252.42
742.11	252.14
742.44	251.83
742.77	251.57
743.10	251.25
743.43	250.95
743.75	250.57
744.08	250.41
744.41	250.12
744.74	249.83
745.07	249.56
745.40	249.33
745.73	249.12
746.06	248.85
746.39	248.57
746.71	248.31
747.04	248.03
747.37	247.76
747.70	247.51
748.03	247.27
748.36	247.06
748.68	246.86
749.01	246.60
749.34	246.39
749.67	246.13
750.00	245.92
750.33	245.75
750.65	245.51
750.98	245.18
751.31	244.98
751.64	244.75
751.97	244.60
752.29	244.38
752.62	244.09
752.95	243.88
753.28	243.68
753.60	243.45
753.93	243.30
754.26	243.11
754.59	242.92
754.91	242.74
755.24	242.56
755.57	242.37
755.90	242.19
756.22	241.95
756.55	241.69
756.88	241.52
757.20	241.30
757.53	241.12
757.86	240.94
758.19	240.78
758.51	240.65
758.84	240.42
759.17	240.23
759.49	240.11
759.82	240.00
760.15	239.88
760.47	239.70
760.80	239.51
761.13	239.38
761.45	239.22
761.78	239.03
762.11	238.85
762.43	238.71
762.76	238.57
763.08	238.47
763.41	238.39
763.74	238.24
764.06	238.09
764.39	237.94
764.71	237.81
765.04	237.64
765.37	237.49
765.69	237.37
766.02	237.25
766.34	237.10
766.67	236.90
767.00	236.75
767.32	236.70
767.65	236.66
767.97	236.51
768.30	236.38
768.62	236.31
768.95	236.21
769.27	236.08
769.60	235.99
769.92	235.86
770.25	235.73
770.57	235.65
770.90	235.53
771.22	235.44
771.55	235.35
771.87	235.26
772.20	235.18
772.52	235.15
772.85	235.19
773.17	235.09
773.50	235.04
773.82	234.99
774.15	234.87
774.47	234.70
774.80	234.63
775.12	234.58
775.45	234.46
775.77	234.39
776.09	234.30
776.42	234.24
776.74	234.18
777.07	234.11
777.39	234.00
777.72	233.94
778.04	233.86
778.36	233.79
778.69	233.75
779.01	233.67
779.33	233.53
779.66	233.33
779.98	233.27
780.31	233.19
780.63	233.12
780.95	233.07
781.28	233.03
781.60	232.96
781.92	232.88
782.25	232.82
782.57	232.73
782.89	232.67
783.22	232.58
783.54	232.51
783.86	232.48
784.19	232.40
784.51	232.36
784.83	232.30
785.16	232.24
785.48	232.20
785.80	232.13
786.12	232.10
786.45	232.06
786.77	232.00
787.09	231.97
