SpectraSuite Data File
++++++++++++++++++++++++++++++++++++
Date: Fri Feb 01 15:12:07 EST 2013
User: group
Dark Spectrum Present: No
Reference Spectrum Present: No
Number of Sampled Component Spectra: 1
Spectrometers: USB2E7196
Integration Time (usec): 35000 (USB2E7196)
Spectra Averaged: 100 (USB2E7196)
Boxcar Smoothing: 10 (USB2E7196)
Correct for Electrical Dark: No (USB2E7196)
Strobe/Lamp Enabled: No (USB2E7196)
Correct for Detector Non-linearity: No (USB2E7196)
Correct for Stray Light: No (USB2E7196)
Number of Pixels in Processed Spectrum: 2048
>>>>>Begin Processed Spectral Data<<<<<
339.09	0.00
339.48	215.07
339.86	216.85
340.24	218.07
340.63	219.28
341.01	222.50
341.39	222.10
341.78	223.02
342.16	225.21
342.54	225.42
342.93	213.44
343.31	224.22
343.69	224.76
344.07	225.22
344.46	225.67
344.84	226.06
345.22	226.27
345.60	226.50
345.99	226.70
346.37	226.79
346.75	226.87
347.13	226.95
347.52	226.98
347.90	227.07
348.28	227.12
348.66	227.15
349.05	227.14
349.43	227.17
349.81	227.21
350.19	227.25
350.57	227.29
350.96	227.36
351.34	227.47
351.72	227.55
352.10	227.63
352.48	227.68
352.87	227.72
353.25	227.82
353.63	227.90
354.01	227.93
354.39	228.02
354.77	228.10
355.15	228.19
355.54	228.25
355.92	228.30
356.30	228.39
356.68	228.53
357.06	228.63
357.44	228.68
357.82	228.75
358.20	228.82
358.58	228.89
358.97	228.97
359.35	229.03
359.73	229.11
360.11	229.14
360.49	229.20
360.87	229.27
361.25	229.30
361.63	229.36
362.01	229.45
362.39	229.48
362.77	229.53
363.15	229.55
363.53	229.61
363.91	229.63
364.29	229.62
364.67	229.56
365.05	229.58
365.43	229.59
365.81	229.59
366.19	229.67
366.57	229.74
366.95	229.71
367.33	229.64
367.71	229.61
368.09	229.65
368.47	229.63
368.85	229.59
369.23	229.57
369.61	229.51
369.99	229.50
370.37	229.50
370.75	229.50
371.13	229.46
371.51	229.39
371.89	229.34
372.27	229.31
372.65	229.27
373.03	229.20
373.41	229.12
373.78	229.07
374.16	228.92
374.54	228.79
374.92	228.75
375.30	228.72
375.68	228.64
376.06	228.56
376.44	228.47
376.82	228.40
377.19	228.33
377.57	228.28
377.95	228.16
378.33	228.06
378.71	227.92
379.09	227.88
379.47	227.82
379.84	227.73
380.22	227.64
380.60	227.55
380.98	227.48
381.36	227.43
381.73	227.35
382.11	227.32
382.49	227.30
382.87	227.22
383.25	227.15
383.62	227.21
384.00	227.14
384.38	227.11
384.76	227.08
385.13	227.06
385.51	226.99
385.89	226.93
386.27	226.88
386.64	226.87
387.02	226.79
387.40	226.72
387.78	226.70
388.15	226.67
388.53	226.62
388.91	226.57
389.29	226.53
389.66	226.53
390.04	226.48
390.42	226.48
390.79	226.48
391.17	226.45
391.55	226.31
391.92	226.30
392.30	226.30
392.68	226.26
393.05	226.24
393.43	226.26
393.81	226.30
394.18	226.30
394.56	226.30
394.94	226.37
395.31	226.42
395.69	226.48
396.06	226.53
396.44	226.56
396.82	226.63
397.19	226.75
397.57	226.76
397.95	226.83
398.32	226.87
398.70	226.89
399.07	227.00
399.45	227.08
399.82	227.17
400.20	227.23
400.58	227.34
400.95	227.41
401.33	227.51
401.70	227.68
402.08	227.81
402.45	227.92
402.83	228.02
403.20	228.14
403.58	228.23
403.95	228.35
404.33	228.52
404.71	228.66
405.08	228.85
405.46	229.01
405.83	229.17
406.21	229.34
406.58	229.54
406.96	229.68
407.33	229.89
407.70	230.09
408.08	230.37
408.45	230.60
408.83	230.82
409.20	231.03
409.58	231.20
409.95	231.44
410.33	231.72
410.70	231.99
411.08	232.28
411.45	232.61
411.82	232.94
412.20	233.30
412.57	233.73
412.95	234.02
413.32	234.42
413.69	234.82
414.07	235.23
414.44	235.71
414.82	236.19
415.19	236.73
415.56	237.26
415.94	237.81
416.31	238.47
416.68	239.12
417.06	239.85
417.43	240.55
417.81	241.35
418.18	242.15
418.55	242.98
418.93	243.85
419.30	244.74
419.67	245.67
420.04	246.63
420.42	247.60
420.79	248.81
421.16	249.98
421.54	251.19
421.91	252.42
422.28	253.67
422.66	255.03
423.03	256.33
423.40	257.68
423.77	259.08
424.15	260.48
424.52	261.95
424.89	263.56
425.26	265.09
425.64	266.55
426.01	268.13
426.38	269.79
426.75	271.43
427.13	273.18
427.50	275.00
427.87	276.89
428.24	278.74
428.61	280.46
428.99	282.41
429.36	284.48
429.73	286.55
430.10	288.55
430.47	290.59
430.85	292.71
431.22	294.96
431.59	297.29
431.96	299.54
432.33	302.04
432.70	304.41
433.08	307.25
433.45	309.90
433.82	312.50
434.19	315.37
434.56	318.25
434.93	320.89
435.30	323.55
435.68	326.45
436.05	329.30
436.42	332.13
436.79	334.66
437.16	337.35
437.53	340.20
437.90	343.04
438.27	345.81
438.64	348.63
439.01	351.17
439.38	353.45
439.75	355.61
440.13	358.14
440.50	360.52
440.87	362.37
441.24	364.29
441.61	366.49
441.98	368.00
442.35	369.80
442.72	371.67
443.09	373.48
443.46	374.45
443.83	375.01
444.20	375.51
444.57	376.35
444.94	376.67
445.31	376.98
445.68	377.31
446.05	377.41
446.42	377.04
446.79	376.66
447.16	376.22
447.53	375.92
447.90	374.77
448.27	373.57
448.64	371.97
449.01	370.80
449.37	368.77
449.74	366.86
450.11	364.63
450.48	362.14
450.85	359.57
451.22	357.43
451.59	355.48
451.96	353.53
452.33	350.87
452.70	348.48
453.07	345.64
453.43	342.73
453.80	339.92
454.17	337.26
454.54	334.71
454.91	331.93
455.28	329.27
455.65	326.75
456.02	324.30
456.38	322.16
456.75	319.52
457.12	317.30
457.49	315.11
457.86	312.92
458.23	311.05
458.59	308.99
458.96	306.90
459.33	304.99
459.70	303.10
460.07	301.60
460.43	299.89
460.80	298.29
461.17	296.84
461.54	295.40
461.91	293.94
462.27	292.47
462.64	291.23
463.01	289.84
463.38	288.51
463.74	287.15
464.11	285.96
464.48	284.95
464.85	283.82
465.21	282.91
465.58	281.96
465.95	280.86
466.32	279.95
466.68	279.04
467.05	278.13
467.42	277.24
467.78	276.31
468.15	275.41
468.52	274.75
468.88	273.92
469.25	273.10
469.62	272.45
469.98	271.77
470.35	271.13
470.72	270.53
471.08	269.88
471.45	269.34
471.82	268.81
472.18	268.19
472.55	267.73
472.92	267.22
473.28	266.73
473.65	266.23
474.02	265.77
474.38	265.38
474.75	265.07
475.11	264.70
475.48	264.44
475.85	264.21
476.21	263.95
476.58	263.74
476.94	263.59
477.31	263.43
477.67	263.28
478.04	263.19
478.41	263.13
478.77	263.14
479.14	263.04
479.50	263.03
479.87	263.11
480.23	263.17
480.60	263.18
480.96	263.32
481.33	263.57
481.69	263.80
482.06	263.98
482.42	264.15
482.79	264.43
483.15	264.73
483.52	265.10
483.88	265.46
484.25	265.83
484.61	266.30
484.98	266.79
485.34	267.37
485.71	267.96
486.07	268.55
486.44	269.12
486.80	269.82
487.17	270.56
487.53	271.36
487.90	272.20
488.26	273.15
488.62	274.12
488.99	275.13
489.35	276.13
489.72	277.27
490.08	278.48
490.44	279.73
490.81	281.08
491.17	282.41
491.54	283.91
491.90	285.45
492.26	287.03
492.63	288.72
492.99	290.46
493.36	292.33
493.72	294.39
494.08	296.53
494.45	298.78
494.81	301.15
495.17	303.56
495.54	306.13
495.90	308.82
496.26	311.60
496.63	314.54
496.99	317.64
497.35	320.86
497.72	324.23
498.08	327.71
498.44	331.38
498.80	335.33
499.17	339.31
499.53	343.51
499.89	347.91
500.26	352.48
500.62	357.17
500.98	362.15
501.34	367.18
501.71	372.44
502.07	377.87
502.43	383.51
502.79	389.34
503.16	395.38
503.52	401.57
503.88	407.96
504.24	414.55
504.60	421.46
504.97	428.60
505.33	435.91
505.69	443.67
506.05	451.39
506.41	459.19
506.78	467.40
507.14	475.82
507.50	484.54
507.86	493.47
508.22	502.63
508.59	511.74
508.95	521.35
509.31	531.17
509.67	541.26
510.03	551.48
510.39	562.02
510.75	572.86
511.12	583.82
511.48	595.15
511.84	606.60
512.20	618.15
512.56	630.07
512.92	642.18
513.28	654.44
513.64	666.98
514.00	679.74
514.37	692.58
514.73	705.62
515.09	718.69
515.45	732.02
515.81	745.65
516.17	759.68
516.53	773.81
516.89	787.99
517.25	802.22
517.61	816.70
517.97	831.27
518.33	845.68
518.69	860.44
519.05	875.50
519.41	890.71
519.77	906.24
520.13	921.75
520.49	937.22
520.85	952.65
521.21	968.42
521.57	984.63
521.93	1000.53
522.29	1016.97
522.65	1033.17
523.01	1049.50
523.37	1065.47
523.73	1081.74
524.09	1097.86
524.45	1114.28
524.81	1130.98
525.17	1147.91
525.53	1164.84
525.89	1181.80
526.25	1198.71
526.61	1215.13
526.97	1231.78
527.33	1248.32
527.68	1264.98
528.04	1281.51
528.40	1298.27
528.76	1315.36
529.12	1332.20
529.48	1349.06
529.84	1365.22
530.20	1382.09
530.56	1399.10
530.91	1416.63
531.27	1433.57
531.63	1450.16
531.99	1466.82
532.35	1482.84
532.71	1498.64
533.07	1514.97
533.42	1530.99
533.78	1547.00
534.14	1563.33
534.50	1578.90
534.86	1594.94
535.21	1610.16
535.57	1626.25
535.93	1641.88
536.29	1656.77
536.65	1671.83
537.00	1686.82
537.36	1702.19
537.72	1716.75
538.08	1731.38
538.44	1745.27
538.79	1759.26
539.15	1773.07
539.51	1786.85
539.87	1801.35
540.22	1815.29
540.58	1829.07
540.94	1842.52
541.29	1855.74
541.65	1868.59
542.01	1882.00
542.37	1894.33
542.72	1906.85
543.08	1918.74
543.44	1931.30
543.79	1942.61
544.15	1953.59
544.51	1965.16
544.87	1976.12
545.22	1986.95
545.58	1997.04
545.94	2006.82
546.29	2016.60
546.65	2026.39
547.01	2035.68
547.36	2044.46
547.72	2052.93
548.07	2060.85
548.43	2068.99
548.79	2077.00
549.14	2084.56
549.50	2091.97
549.86	2099.79
550.21	2107.13
550.57	2114.19
550.92	2120.66
551.28	2127.69
551.64	2134.95
551.99	2141.40
552.35	2147.56
552.70	2153.65
553.06	2159.67
553.41	2166.05
553.77	2172.11
554.13	2178.18
554.48	2184.32
554.84	2189.62
555.19	2194.85
555.55	2199.94
555.90	2204.52
556.26	2209.30
556.61	2213.94
556.97	2217.93
557.32	2222.04
557.68	2226.16
558.03	2230.43
558.39	2234.14
558.74	2238.66
559.10	2242.35
559.45	2246.00
559.81	2250.38
560.16	2254.22
560.52	2257.46
560.87	2260.92
561.23	2263.55
561.58	2266.51
561.94	2268.80
562.29	2271.19
562.64	2273.81
563.00	2276.48
563.35	2279.87
563.71	2283.00
564.06	2286.16
564.42	2289.06
564.77	2291.29
565.12	2293.47
565.48	2295.28
565.83	2296.92
566.19	2298.25
566.54	2299.17
566.89	2300.21
567.25	2300.78
567.60	2302.02
567.96	2303.52
568.31	2304.18
568.66	2305.24
569.02	2305.75
569.37	2306.09
569.72	2306.87
570.08	2307.05
570.43	2306.97
570.78	2306.20
571.14	2304.52
571.49	2303.04
571.84	2302.72
572.20	2301.45
572.55	2300.34
572.90	2298.79
573.26	2297.37
573.61	2295.48
573.96	2293.56
574.31	2290.61
574.67	2287.25
575.02	2283.41
575.37	2280.00
575.72	2276.04
576.08	2272.56
576.43	2269.12
576.78	2265.40
577.13	2262.12
577.49	2258.93
577.84	2255.33
578.19	2251.55
578.54	2247.85
578.90	2243.50
579.25	2237.80
579.60	2232.82
579.95	2227.68
580.30	2222.49
580.66	2217.27
581.01	2212.31
581.36	2207.32
581.71	2202.98
582.06	2198.59
582.42	2194.02
582.77	2188.66
583.12	2184.04
583.47	2179.20
583.82	2174.04
584.17	2168.68
584.53	2163.11
584.88	2157.36
585.23	2151.41
585.58	2145.86
585.93	2140.27
586.28	2135.51
586.63	2130.26
586.98	2125.00
587.34	2120.37
587.69	2115.52
588.04	2110.15
588.39	2104.44
588.74	2097.86
589.09	2091.60
589.44	2084.67
589.79	2078.69
590.14	2073.12
590.49	2066.54
590.84	2060.01
591.19	2053.96
591.54	2047.46
591.89	2039.81
592.25	2032.80
592.60	2025.61
592.95	2017.87
593.30	2010.49
593.65	2002.78
594.00	1995.75
594.35	1988.50
594.70	1980.39
595.05	1972.95
595.40	1965.56
595.75	1958.02
596.10	1951.63
596.45	1944.72
596.80	1938.50
597.15	1931.64
597.50	1924.25
597.85	1917.78
598.19	1911.09
598.54	1904.02
598.89	1897.37
599.24	1891.63
599.59	1884.90
599.94	1878.61
600.29	1872.40
600.64	1865.72
600.99	1858.12
601.34	1851.26
601.69	1844.35
602.04	1837.32
602.39	1829.98
602.74	1823.08
603.08	1816.22
603.43	1809.59
603.78	1802.31
604.13	1795.03
604.48	1787.77
604.83	1780.98
605.18	1773.88
605.53	1765.81
605.87	1757.62
606.22	1750.42
606.57	1742.43
606.92	1735.17
607.27	1727.87
607.62	1720.81
607.96	1713.51
608.31	1706.88
608.66	1699.14
609.01	1691.51
609.36	1683.90
609.70	1675.88
610.05	1667.83
610.40	1660.14
610.75	1651.74
611.10	1644.16
611.44	1635.77
611.79	1627.78
612.14	1619.06
612.49	1609.91
612.83	1601.60
613.18	1593.41
613.53	1585.25
613.88	1576.62
614.22	1568.30
614.57	1559.75
614.92	1551.68
615.27	1544.10
615.61	1535.90
615.96	1527.90
616.31	1520.21
616.65	1512.94
617.00	1505.33
617.35	1497.59
617.70	1489.24
618.04	1480.63
618.39	1472.35
618.74	1464.80
619.08	1456.40
619.43	1448.86
619.78	1441.90
620.12	1434.73
620.47	1427.41
620.82	1419.26
621.16	1412.03
621.51	1404.40
621.85	1396.89
622.20	1388.34
622.55	1379.98
622.89	1372.04
623.24	1364.51
623.59	1357.20
623.93	1349.63
624.28	1342.40
624.62	1335.07
624.97	1327.96
625.32	1321.38
625.66	1314.36
626.01	1307.07
626.35	1299.72
626.70	1291.98
627.04	1284.29
627.39	1276.51
627.73	1269.04
628.08	1262.14
628.43	1254.73
628.77	1247.35
629.12	1239.70
629.46	1232.62
629.81	1225.28
630.15	1218.13
630.50	1210.68
630.84	1202.45
631.19	1194.59
631.53	1187.17
631.88	1179.60
632.22	1171.98
632.57	1164.65
632.91	1157.22
633.26	1149.85
633.60	1142.59
633.95	1135.61
634.29	1128.59
634.64	1121.91
634.98	1114.53
635.32	1107.42
635.67	1100.87
636.01	1094.33
636.36	1087.63
636.70	1081.16
637.05	1074.64
637.39	1068.28
637.73	1061.78
638.08	1056.06
638.42	1050.10
638.77	1043.72
639.11	1037.02
639.45	1030.65
639.80	1023.96
640.14	1017.43
640.49	1010.96
640.83	1004.65
641.17	998.41
641.52	992.20
641.86	985.86
642.20	980.08
642.55	973.79
642.89	967.29
643.23	960.75
643.58	954.94
643.92	948.72
644.26	942.58
644.61	936.58
644.95	930.52
645.29	923.94
645.64	917.18
645.98	910.77
646.32	905.05
646.66	899.02
647.01	893.31
647.35	887.68
647.69	881.87
648.04	876.43
648.38	870.59
648.72	864.47
649.06	858.34
649.41	852.48
649.75	846.42
650.09	840.50
650.43	834.62
650.78	828.45
651.12	822.54
651.46	816.79
651.80	810.90
652.14	805.55
652.49	800.14
652.83	794.91
653.17	789.28
653.51	783.53
653.85	778.13
654.20	772.40
654.54	766.46
654.88	760.75
655.22	754.82
655.56	749.16
655.90	743.74
656.25	738.48
656.59	733.08
656.93	728.03
657.27	722.85
657.61	717.46
657.95	712.35
658.29	707.25
658.64	702.14
658.98	696.89
659.32	691.44
659.66	686.25
660.00	680.99
660.34	676.07
660.68	671.27
661.02	666.27
661.36	661.64
661.70	657.11
662.05	652.74
662.39	648.45
662.73	644.02
663.07	639.73
663.41	635.34
663.75	630.85
664.09	626.30
664.43	621.94
664.77	617.91
665.11	613.72
665.45	609.65
665.79	605.57
666.13	601.51
666.47	597.40
666.81	593.28
667.15	589.18
667.49	585.28
667.83	581.43
668.17	577.53
668.51	573.53
668.85	569.52
669.19	565.68
669.53	561.86
669.87	557.93
670.21	554.22
670.55	550.57
670.89	547.15
671.23	543.74
671.57	540.27
671.91	536.73
672.25	533.25
672.58	529.72
672.92	526.37
673.26	523.25
673.60	520.14
673.94	517.02
674.28	514.12
674.62	511.18
674.96	508.05
675.30	505.09
675.64	502.15
675.97	499.44
676.31	496.61
676.65	493.63
676.99	490.96
677.33	488.13
677.67	485.36
678.01	482.32
678.34	479.35
678.68	476.41
679.02	473.62
679.36	470.89
679.70	468.19
680.04	465.39
680.37	462.45
680.71	459.66
681.05	457.06
681.39	454.36
681.73	451.70
682.06	449.21
682.40	446.73
682.74	444.22
683.08	441.64
683.42	439.06
683.75	436.62
684.09	434.10
684.43	431.65
684.77	429.17
685.10	426.84
685.44	424.59
685.78	422.33
686.12	420.08
686.45	417.78
686.79	415.50
687.13	413.33
687.46	411.21
687.80	409.12
688.14	406.95
688.48	404.85
688.81	402.63
689.15	400.44
689.49	398.31
689.82	396.22
690.16	394.14
690.50	392.17
690.83	390.16
691.17	388.21
691.51	386.29
691.84	384.48
692.18	382.55
692.52	380.59
692.85	378.75
693.19	376.86
693.52	375.05
693.86	373.22
694.20	371.47
694.53	369.68
694.87	367.83
695.21	366.02
695.54	364.24
695.88	362.49
696.21	360.78
696.55	359.08
696.88	357.45
697.22	355.82
697.56	354.21
697.89	352.59
698.23	350.98
698.56	349.38
698.90	347.77
699.23	346.17
699.57	344.62
699.90	343.04
700.24	341.56
700.58	340.01
700.91	338.50
701.25	337.07
701.58	335.70
701.92	334.33
702.25	332.97
702.59	331.58
702.92	330.24
703.26	328.96
703.59	327.69
703.93	326.50
704.26	325.25
704.60	323.98
704.93	322.71
705.26	321.48
705.60	320.34
705.93	319.19
706.27	318.17
706.60	317.11
706.94	316.06
707.27	314.90
707.61	313.92
707.94	312.89
708.27	311.75
708.61	310.68
708.94	309.67
709.28	308.70
709.61	307.78
709.94	306.86
710.28	305.87
710.61	304.90
710.95	303.82
711.28	302.96
711.61	302.02
711.95	301.08
712.28	300.13
712.61	299.14
712.95	298.22
713.28	297.31
713.61	296.40
713.95	295.50
714.28	294.66
714.61	293.75
714.95	292.95
715.28	292.11
715.61	291.22
715.95	290.36
716.28	289.48
716.61	288.66
716.95	287.85
717.28	287.11
717.61	286.34
717.94	285.57
718.28	284.74
718.61	283.97
718.94	283.33
719.27	282.67
719.61	282.01
719.94	281.35
720.27	280.63
720.60	279.97
720.94	279.36
721.27	278.75
721.60	278.15
721.93	277.53
722.27	276.99
722.60	276.45
722.93	275.90
723.26	275.37
723.59	274.79
723.93	274.24
724.26	273.71
724.59	273.13
724.92	272.64
725.25	272.16
725.59	271.67
725.92	271.17
726.25	270.63
726.58	270.16
726.91	269.66
727.24	269.19
727.57	268.72
727.91	268.24
728.24	267.79
728.57	267.33
728.90	266.85
729.23	266.39
729.56	265.97
729.89	265.51
730.22	265.05
730.55	264.57
730.89	264.13
731.22	263.67
731.55	263.30
731.88	262.88
732.21	262.46
732.54	262.03
732.87	261.61
733.20	261.22
733.53	260.83
733.86	260.48
734.19	260.11
734.52	259.73
734.85	259.41
735.18	258.98
735.51	258.63
735.84	258.29
736.17	257.91
736.50	257.55
736.83	257.29
737.16	256.94
737.49	256.63
737.82	256.29
738.15	255.96
738.48	255.60
738.81	255.29
739.14	254.94
739.47	254.61
739.80	254.30
740.13	254.00
740.46	253.69
740.79	253.40
741.12	253.12
741.45	252.84
741.78	252.48
742.11	252.21
742.44	251.89
742.77	251.59
743.10	251.31
743.43	250.98
743.75	250.63
744.08	250.47
744.41	250.22
744.74	249.97
745.07	249.74
745.40	249.46
745.73	249.23
746.06	248.95
746.39	248.70
746.71	248.46
747.04	248.21
747.37	247.93
747.70	247.66
748.03	247.38
748.36	247.15
748.68	246.94
749.01	246.71
749.34	246.50
749.67	246.26
750.00	246.05
750.33	245.88
750.65	245.69
750.98	245.36
751.31	245.11
751.64	244.86
751.97	244.65
752.29	244.48
752.62	244.20
752.95	244.00
753.28	243.79
753.60	243.55
753.93	243.36
754.26	243.17
754.59	242.94
754.91	242.72
755.24	242.52
755.57	242.31
755.90	242.11
756.22	241.93
756.55	241.74
756.88	241.55
757.20	241.33
757.53	241.12
757.86	240.94
758.19	240.78
758.51	240.64
758.84	240.44
759.17	240.22
759.49	240.06
759.82	239.95
760.15	239.78
760.47	239.64
760.80	239.46
761.13	239.32
761.45	239.17
761.78	239.04
762.11	238.83
762.43	238.68
762.76	238.53
763.08	238.38
763.41	238.23
763.74	238.10
764.06	237.96
764.39	237.80
764.71	237.69
765.04	237.54
765.37	237.40
765.69	237.32
766.02	237.21
766.34	237.06
766.67	236.91
767.00	236.83
767.32	236.78
767.65	236.73
767.97	236.61
768.30	236.47
768.62	236.37
768.95	236.30
769.27	236.19
769.60	236.12
769.92	236.01
770.25	235.90
770.57	235.76
770.90	235.70
771.22	235.60
771.55	235.46
771.87	235.40
772.20	235.31
772.52	235.24
772.85	235.28
773.17	235.21
773.50	235.11
773.82	234.98
774.15	234.84
774.47	234.69
774.80	234.60
775.12	234.57
775.45	234.47
775.77	234.39
776.09	234.32
776.42	234.20
776.74	234.13
777.07	234.06
777.39	234.00
777.72	233.88
778.04	233.83
778.36	233.79
778.69	233.71
779.01	233.63
779.33	233.50
779.66	233.33
779.98	233.25
780.31	233.22
780.63	233.24
780.95	233.22
781.28	233.16
781.60	233.11
781.92	233.05
782.25	232.99
782.57	232.94
782.89	232.88
783.22	232.83
783.54	232.76
783.86	232.73
784.19	232.65
784.51	232.64
784.83	232.56
785.16	232.49
785.48	232.45
785.80	232.44
786.12	232.38
786.45	232.33
786.77	232.29
787.09	232.21
