SpectraSuite Data File
++++++++++++++++++++++++++++++++++++
Date: Fri Feb 01 16:01:42 EST 2013
User: group
Dark Spectrum Present: No
Reference Spectrum Present: No
Number of Sampled Component Spectra: 1
Spectrometers: USB2E7196
Integration Time (usec): 35000 (USB2E7196)
Spectra Averaged: 100 (USB2E7196)
Boxcar Smoothing: 10 (USB2E7196)
Correct for Electrical Dark: No (USB2E7196)
Strobe/Lamp Enabled: No (USB2E7196)
Correct for Detector Non-linearity: No (USB2E7196)
Correct for Stray Light: No (USB2E7196)
Number of Pixels in Processed Spectrum: 2048
>>>>>Begin Processed Spectral Data<<<<<
339.09	0.00
339.48	214.99
339.86	216.71
340.24	217.33
340.63	219.36
341.01	221.50
341.39	221.90
341.78	223.06
342.16	223.92
342.54	225.31
342.93	213.09
343.31	223.86
343.69	224.40
344.07	224.86
344.46	225.30
344.84	225.71
345.22	225.95
345.60	226.18
345.99	226.35
346.37	226.50
346.75	226.59
347.13	226.69
347.52	226.76
347.90	226.85
348.28	226.86
348.66	226.95
349.05	226.99
349.43	227.03
349.81	227.11
350.19	227.15
350.57	227.21
350.96	227.27
351.34	227.39
351.72	227.47
352.10	227.56
352.48	227.62
352.87	227.64
353.25	227.69
353.63	227.76
354.01	227.88
354.39	227.94
354.77	228.00
355.15	228.11
355.54	228.18
355.92	228.22
356.30	228.26
356.68	228.35
357.06	228.38
357.44	228.45
357.82	228.49
358.20	228.59
358.58	228.64
358.97	228.71
359.35	228.76
359.73	228.82
360.11	228.86
360.49	228.93
360.87	228.97
361.25	229.04
361.63	229.10
362.01	229.14
362.39	229.18
362.77	229.22
363.15	229.23
363.53	229.26
363.91	229.28
364.29	229.31
364.67	229.24
365.05	229.29
365.43	229.29
365.81	229.29
366.19	229.32
366.57	229.33
366.95	229.30
367.33	229.26
367.71	229.23
368.09	229.21
368.47	229.19
368.85	229.18
369.23	229.17
369.61	229.10
369.99	229.09
370.37	229.05
370.75	229.07
371.13	229.00
371.51	228.92
371.89	228.93
372.27	228.88
372.65	228.84
373.03	228.75
373.41	228.69
373.78	228.62
374.16	228.53
374.54	228.46
374.92	228.40
375.30	228.33
375.68	228.26
376.06	228.23
376.44	228.13
376.82	228.07
377.19	228.01
377.57	227.95
377.95	227.84
378.33	227.75
378.71	227.62
379.09	227.55
379.47	227.54
379.84	227.43
380.22	227.36
380.60	227.29
380.98	227.26
381.36	227.19
381.73	227.11
382.11	227.04
382.49	226.99
382.87	226.91
383.25	226.88
383.62	226.92
384.00	226.84
384.38	226.80
384.76	226.74
385.13	226.68
385.51	226.63
385.89	226.57
386.27	226.54
386.64	226.48
387.02	226.44
387.40	226.35
387.78	226.33
388.15	226.30
388.53	226.28
388.91	226.24
389.29	226.19
389.66	226.19
390.04	226.16
390.42	226.15
390.79	226.12
391.17	226.06
391.55	225.98
391.92	225.95
392.30	225.98
392.68	225.95
393.05	225.97
393.43	226.00
393.81	226.02
394.18	226.02
394.56	226.07
394.94	226.11
395.31	226.14
395.69	226.17
396.06	226.23
396.44	226.27
396.82	226.31
397.19	226.40
397.57	226.40
397.95	226.46
398.32	226.51
398.70	226.58
399.07	226.69
399.45	226.75
399.82	226.83
400.20	226.89
400.58	226.99
400.95	227.06
401.33	227.17
401.70	227.35
402.08	227.45
402.45	227.54
402.83	227.67
403.20	227.77
403.58	227.86
403.95	227.97
404.33	228.13
404.71	228.26
405.08	228.46
405.46	228.64
405.83	228.82
406.21	228.96
406.58	229.12
406.96	229.30
407.33	229.47
407.70	229.68
408.08	229.93
408.45	230.15
408.83	230.36
409.20	230.53
409.58	230.68
409.95	230.95
410.33	231.23
410.70	231.47
411.08	231.76
411.45	232.08
411.82	232.40
412.20	232.73
412.57	233.13
412.95	233.43
413.32	233.83
413.69	234.23
414.07	234.66
414.44	235.15
414.82	235.62
415.19	236.16
415.56	236.69
415.94	237.22
416.31	237.84
416.68	238.45
417.06	239.19
417.43	239.87
417.81	240.63
418.18	241.43
418.55	242.25
418.93	243.14
419.30	244.04
419.67	244.95
420.04	245.88
420.42	246.87
420.79	248.04
421.16	249.19
421.54	250.35
421.91	251.58
422.28	252.84
422.66	254.18
423.03	255.53
423.40	256.87
423.77	258.29
424.15	259.74
424.52	261.25
424.89	262.82
425.26	264.36
425.64	265.78
426.01	267.33
426.38	269.00
426.75	270.66
427.13	272.34
427.50	274.14
427.87	276.00
428.24	277.86
428.61	279.60
428.99	281.53
429.36	283.63
429.73	285.66
430.10	287.65
430.47	289.65
430.85	291.73
431.22	293.96
431.59	296.37
431.96	298.61
432.33	301.10
432.70	303.53
433.08	306.36
433.45	308.97
433.82	311.61
434.19	314.48
434.56	317.30
434.93	319.95
435.30	322.56
435.68	325.42
436.05	328.25
436.42	331.05
436.79	333.57
437.16	336.23
437.53	339.05
437.90	341.86
438.27	344.64
438.64	347.44
439.01	349.99
439.38	352.19
439.75	354.33
440.13	356.81
440.50	359.10
440.87	360.91
441.24	362.86
441.61	364.99
441.98	366.49
442.35	368.28
442.72	370.17
443.09	372.01
443.46	373.06
443.83	373.68
444.20	374.24
444.57	375.04
444.94	375.40
445.31	375.72
445.68	376.04
446.05	376.09
446.42	375.70
446.79	375.30
447.16	374.86
447.53	374.52
447.90	373.34
448.27	372.19
448.64	370.66
449.01	369.53
449.37	367.55
449.74	365.64
450.11	363.41
450.48	360.91
450.85	358.38
451.22	356.22
451.59	354.18
451.96	352.15
452.33	349.58
452.70	347.19
453.07	344.41
453.43	341.54
453.80	338.76
454.17	336.13
454.54	333.62
454.91	330.86
455.28	328.22
455.65	325.76
456.02	323.31
456.38	321.11
456.75	318.46
457.12	316.22
457.49	314.01
457.86	311.82
458.23	309.96
458.59	307.93
458.96	305.85
459.33	303.99
459.70	302.18
460.07	300.68
460.43	298.98
460.80	297.36
461.17	295.97
461.54	294.49
461.91	293.02
462.27	291.58
462.64	290.39
463.01	289.06
463.38	287.74
463.74	286.39
464.11	285.25
464.48	284.23
464.85	283.13
465.21	282.27
465.58	281.36
465.95	280.25
466.32	279.31
466.68	278.42
467.05	277.54
467.42	276.62
467.78	275.68
468.15	274.80
468.52	274.15
468.88	273.23
469.25	272.46
469.62	271.88
469.98	271.16
470.35	270.51
470.72	269.91
471.08	269.23
471.45	268.67
471.82	268.18
472.18	267.60
472.55	267.19
472.92	266.69
473.28	266.24
473.65	265.85
474.02	265.44
474.38	265.03
474.75	264.71
475.11	264.38
475.48	264.15
475.85	263.91
476.21	263.65
476.58	263.50
476.94	263.40
477.31	263.17
477.67	263.06
478.04	262.93
478.41	262.82
478.77	262.89
479.14	262.83
479.50	262.82
479.87	262.87
480.23	262.93
480.60	262.96
480.96	263.06
481.33	263.25
481.69	263.45
482.06	263.68
482.42	263.88
482.79	264.11
483.15	264.40
483.52	264.83
483.88	265.19
484.25	265.55
484.61	265.92
484.98	266.41
485.34	266.96
485.71	267.56
486.07	268.18
486.44	268.74
486.80	269.49
487.17	270.22
487.53	271.00
487.90	271.87
488.26	272.81
488.62	273.74
488.99	274.73
489.35	275.81
489.72	276.94
490.08	278.12
490.44	279.41
490.81	280.76
491.17	282.11
491.54	283.59
491.90	285.16
492.26	286.89
492.63	288.60
492.99	290.40
493.36	292.30
493.72	294.37
494.08	296.50
494.45	298.72
494.81	301.07
495.17	303.54
495.54	306.10
495.90	308.81
496.26	311.67
496.63	314.63
496.99	317.70
497.35	320.96
497.72	324.40
498.08	327.87
498.44	331.52
498.80	335.42
499.17	339.45
499.53	343.62
499.89	347.96
500.26	352.49
500.62	357.17
500.98	362.15
501.34	367.21
501.71	372.57
502.07	378.07
502.43	383.69
502.79	389.51
503.16	395.57
503.52	401.83
503.88	408.21
504.24	414.87
504.60	421.75
504.97	428.95
505.33	436.26
505.69	443.97
506.05	451.75
506.41	459.60
506.78	467.80
507.14	476.24
507.50	484.96
507.86	493.98
508.22	503.13
508.59	512.34
508.95	521.91
509.31	531.77
509.67	541.82
510.03	552.14
510.39	562.72
510.75	573.53
511.12	584.45
511.48	595.79
511.84	607.21
512.20	618.78
512.56	630.65
512.92	642.93
513.28	655.28
513.64	667.79
514.00	680.55
514.37	693.47
514.73	706.56
515.09	719.63
515.45	732.99
515.81	746.58
516.17	760.58
516.53	774.68
516.89	788.74
517.25	802.94
517.61	817.34
517.97	831.78
518.33	846.17
518.69	860.91
519.05	875.85
519.41	890.99
519.77	906.51
520.13	922.03
520.49	937.27
520.85	952.73
521.21	968.41
521.57	984.59
521.93	1000.32
522.29	1016.69
522.65	1032.89
523.01	1048.95
523.37	1065.07
523.73	1081.27
524.09	1097.35
524.45	1113.67
524.81	1130.28
525.17	1147.05
525.53	1163.96
525.89	1180.88
526.25	1197.66
526.61	1214.11
526.97	1230.85
527.33	1247.24
527.68	1263.69
528.04	1280.24
528.40	1296.72
528.76	1313.81
529.12	1330.36
529.48	1347.19
529.84	1363.15
530.20	1379.80
530.56	1396.89
530.91	1414.25
531.27	1430.95
531.63	1447.46
531.99	1464.03
532.35	1479.97
532.71	1495.78
533.07	1511.94
533.42	1527.70
533.78	1543.83
534.14	1560.00
534.50	1575.29
534.86	1591.16
535.21	1606.42
535.57	1622.15
535.93	1637.62
536.29	1652.37
536.65	1667.37
537.00	1682.11
537.36	1697.30
537.72	1711.77
538.08	1726.21
538.44	1739.79
538.79	1753.51
539.15	1767.14
539.51	1780.88
539.87	1795.18
540.22	1808.95
540.58	1822.74
540.94	1836.07
541.29	1848.90
541.65	1861.52
542.01	1874.73
542.37	1887.11
542.72	1899.42
543.08	1911.32
543.44	1923.73
543.79	1934.87
544.15	1945.92
544.51	1957.47
544.87	1968.46
545.22	1979.19
545.58	1989.31
545.94	1999.27
546.29	2009.17
546.65	2019.02
547.01	2028.27
547.36	2037.02
547.72	2045.47
548.07	2053.14
548.43	2061.27
548.79	2069.32
549.14	2076.91
549.50	2084.04
549.86	2091.58
550.21	2098.85
550.57	2105.89
550.92	2112.33
551.28	2119.38
551.64	2126.41
551.99	2133.01
552.35	2139.19
552.70	2145.36
553.06	2151.31
553.41	2157.56
553.77	2163.69
554.13	2169.73
554.48	2175.68
554.84	2181.07
555.19	2186.21
555.55	2191.41
555.90	2195.92
556.26	2200.76
556.61	2205.40
556.97	2209.80
557.32	2213.95
557.68	2218.11
558.03	2222.42
558.39	2226.28
558.74	2230.88
559.10	2234.73
559.45	2238.46
559.81	2242.82
560.16	2246.67
560.52	2249.83
560.87	2253.27
561.23	2255.82
561.58	2258.87
561.94	2261.58
562.29	2264.00
562.64	2266.77
563.00	2269.46
563.35	2273.01
563.71	2276.20
564.06	2279.52
564.42	2282.36
564.77	2284.82
565.12	2287.17
565.48	2289.23
565.83	2291.08
566.19	2292.36
566.54	2293.36
566.89	2294.23
567.25	2294.72
567.60	2296.03
567.96	2297.78
568.31	2298.66
568.66	2299.78
569.02	2300.24
569.37	2300.50
569.72	2301.31
570.08	2301.49
570.43	2301.67
570.78	2301.08
571.14	2299.47
571.49	2298.06
571.84	2297.88
572.20	2296.76
572.55	2295.67
572.90	2293.90
573.26	2292.54
573.61	2290.89
573.96	2289.08
574.31	2286.30
574.67	2283.32
575.02	2279.64
575.37	2276.33
575.72	2272.50
576.08	2269.27
576.43	2266.06
576.78	2262.27
577.13	2259.20
577.49	2256.20
577.84	2252.59
578.19	2248.92
578.54	2245.26
578.90	2241.03
579.25	2235.48
579.60	2230.60
579.95	2225.59
580.30	2220.71
580.66	2215.52
581.01	2210.58
581.36	2205.72
581.71	2201.54
582.06	2196.98
582.42	2192.67
582.77	2187.42
583.12	2182.85
583.47	2178.08
583.82	2173.02
584.17	2168.00
584.53	2162.42
584.88	2156.81
585.23	2150.94
585.58	2145.50
585.93	2140.06
586.28	2135.33
586.63	2130.30
586.98	2125.27
587.34	2120.71
587.69	2115.81
588.04	2110.54
588.39	2104.90
588.74	2098.40
589.09	2092.21
589.44	2085.54
589.79	2079.56
590.14	2074.23
590.49	2067.81
590.84	2061.45
591.19	2055.37
591.54	2048.80
591.89	2041.46
592.25	2034.61
592.60	2027.47
592.95	2019.92
593.30	2012.57
593.65	2005.04
594.00	1997.94
594.35	1990.70
594.70	1982.66
595.05	1975.49
595.40	1968.41
595.75	1960.97
596.10	1954.77
596.45	1947.95
596.80	1941.90
597.15	1935.15
597.50	1927.86
597.85	1921.27
598.19	1914.57
598.54	1907.37
598.89	1900.90
599.24	1894.99
599.59	1888.30
599.94	1882.15
600.29	1875.75
600.64	1869.20
600.99	1861.72
601.34	1854.89
601.69	1847.97
602.04	1840.94
602.39	1833.63
602.74	1826.65
603.08	1819.89
603.43	1813.17
603.78	1805.94
604.13	1798.65
604.48	1791.35
604.83	1784.38
605.18	1777.37
605.53	1769.36
605.87	1761.44
606.22	1754.28
606.57	1746.24
606.92	1738.85
607.27	1731.58
607.62	1724.68
607.96	1717.45
608.31	1710.85
608.66	1703.42
609.01	1695.87
609.36	1688.35
609.70	1680.29
610.05	1672.27
610.40	1664.59
610.75	1656.22
611.10	1648.69
611.44	1640.22
611.79	1632.37
612.14	1623.66
612.49	1614.36
612.83	1606.07
613.18	1597.93
613.53	1589.60
613.88	1581.28
614.22	1573.04
614.57	1564.53
614.92	1556.43
615.27	1548.82
615.61	1540.42
615.96	1532.19
616.31	1524.58
616.65	1517.38
617.00	1509.82
617.35	1502.09
617.70	1493.78
618.04	1485.35
618.39	1477.07
618.74	1469.52
619.08	1461.08
619.43	1453.45
619.78	1446.80
620.12	1439.46
620.47	1431.97
620.82	1423.84
621.16	1416.28
621.51	1408.69
621.85	1400.95
622.20	1392.42
622.55	1384.10
622.89	1376.38
623.24	1368.79
623.59	1361.33
623.93	1353.65
624.28	1346.41
624.62	1338.97
624.97	1331.69
625.32	1324.92
625.66	1317.90
626.01	1310.77
626.35	1303.26
626.70	1295.66
627.04	1287.82
627.39	1280.15
627.73	1272.78
628.08	1266.00
628.43	1258.72
628.77	1251.37
629.12	1243.83
629.46	1236.65
629.81	1229.19
630.15	1221.90
630.50	1214.50
630.84	1206.29
631.19	1198.27
631.53	1190.70
631.88	1182.99
632.22	1175.39
632.57	1168.00
632.91	1160.34
633.26	1152.87
633.60	1145.60
633.95	1138.52
634.29	1131.51
634.64	1124.86
634.98	1117.47
635.32	1110.17
635.67	1103.61
636.01	1097.00
636.36	1090.27
636.70	1083.73
637.05	1077.16
637.39	1070.69
637.73	1064.09
638.08	1058.28
638.42	1052.43
638.77	1046.04
639.11	1039.54
639.45	1033.19
639.80	1026.64
640.14	1020.31
640.49	1013.81
640.83	1007.50
641.17	1001.18
641.52	994.81
641.86	988.35
642.20	982.48
642.55	976.11
642.89	969.59
643.23	963.03
643.58	957.26
643.92	951.12
644.26	945.00
644.61	938.98
644.95	932.95
645.29	926.29
645.64	919.56
645.98	913.26
646.32	907.39
646.66	901.35
647.01	895.52
647.35	889.73
647.69	883.85
648.04	878.31
648.38	872.56
648.72	866.51
649.06	860.46
649.41	854.63
649.75	848.72
650.09	842.77
650.43	836.94
650.78	830.70
651.12	824.80
651.46	819.19
651.80	813.43
652.14	808.12
652.49	802.79
652.83	797.51
653.17	791.72
653.51	786.02
653.85	780.65
654.20	774.90
654.54	768.93
654.88	763.21
655.22	757.33
655.56	751.64
655.90	746.27
656.25	740.97
656.59	735.50
656.93	730.46
657.27	725.33
657.61	719.88
657.95	714.82
658.29	709.67
658.64	704.38
658.98	699.04
659.32	693.56
659.66	688.29
660.00	682.98
660.34	678.09
660.68	673.13
661.02	668.08
661.36	663.42
661.70	658.95
662.05	654.59
662.39	650.23
662.73	645.75
663.07	641.35
663.41	636.90
663.75	632.47
664.09	627.88
664.43	623.45
664.77	619.38
665.11	615.17
665.45	611.07
665.79	606.92
666.13	602.78
666.47	598.69
666.81	594.53
667.15	590.44
667.49	586.54
667.83	582.77
668.17	578.83
668.51	574.77
668.85	570.67
669.19	566.83
669.53	562.98
669.87	559.09
670.21	555.34
670.55	551.76
670.89	548.29
671.23	544.85
671.57	541.32
671.91	537.72
672.25	534.17
672.58	530.65
672.92	527.28
673.26	524.14
673.60	520.99
673.94	517.90
674.28	514.98
674.62	512.03
674.96	508.89
675.30	505.92
675.64	503.01
675.97	500.30
676.31	497.43
676.65	494.49
676.99	491.74
677.33	488.90
677.67	486.06
678.01	483.03
678.34	480.06
678.68	477.24
679.02	474.41
679.36	471.64
679.70	468.96
680.04	466.16
680.37	463.25
680.71	460.50
681.05	457.85
681.39	455.12
681.73	452.46
682.06	449.91
682.40	447.39
682.74	444.86
683.08	442.29
683.42	439.67
683.75	437.20
684.09	434.72
684.43	432.24
684.77	429.79
685.10	427.47
685.44	425.13
685.78	422.87
686.12	420.66
686.45	418.37
686.79	416.03
687.13	413.85
687.46	411.71
687.80	409.50
688.14	407.29
688.48	405.24
688.81	403.01
689.15	400.89
689.49	398.72
689.82	396.62
690.16	394.55
690.50	392.61
690.83	390.63
691.17	388.62
691.51	386.71
691.84	384.82
692.18	382.86
692.52	380.91
692.85	378.94
693.19	377.04
693.52	375.24
693.86	373.42
694.20	371.66
694.53	369.89
694.87	368.11
695.21	366.32
695.54	364.49
695.88	362.79
696.21	361.07
696.55	359.44
696.88	357.74
697.22	356.11
697.56	354.45
697.89	352.82
698.23	351.23
698.56	349.62
698.90	348.03
699.23	346.41
699.57	344.86
699.90	343.31
700.24	341.80
700.58	340.26
700.91	338.80
701.25	337.33
701.58	335.95
701.92	334.56
702.25	333.17
702.59	331.83
702.92	330.42
703.26	329.11
703.59	327.79
703.93	326.58
704.26	325.35
704.60	324.05
704.93	322.80
705.26	321.55
705.60	320.39
705.93	319.26
706.27	318.17
706.60	317.11
706.94	316.02
707.27	314.85
707.61	313.79
707.94	312.74
708.27	311.64
708.61	310.53
708.94	309.50
709.28	308.51
709.61	307.54
709.94	306.61
710.28	305.63
710.61	304.67
710.95	303.64
711.28	302.70
711.61	301.76
711.95	300.84
712.28	299.89
712.61	298.87
712.95	297.90
713.28	297.07
713.61	296.18
713.95	295.32
714.28	294.49
714.61	293.61
714.95	292.77
715.28	291.90
715.61	291.02
715.95	290.20
716.28	289.33
716.61	288.48
716.95	287.67
717.28	286.88
717.61	286.09
717.94	285.35
718.28	284.49
718.61	283.78
718.94	283.06
719.27	282.38
719.61	281.78
719.94	281.13
720.27	280.39
720.60	279.70
720.94	279.02
721.27	278.44
721.60	277.86
721.93	277.26
722.27	276.74
722.60	276.19
722.93	275.57
723.26	275.08
723.59	274.52
723.93	273.99
724.26	273.48
724.59	272.92
724.92	272.37
725.25	271.94
725.59	271.42
725.92	270.92
726.25	270.41
726.58	269.91
726.91	269.40
727.24	268.97
727.57	268.49
727.91	267.99
728.24	267.52
728.57	267.01
728.90	266.54
729.23	266.01
729.56	265.58
729.89	265.10
730.22	264.55
730.55	264.10
730.89	263.65
731.22	263.18
731.55	262.76
731.88	262.34
732.21	261.91
732.54	261.45
732.87	261.00
733.20	260.61
733.53	260.22
733.86	259.85
734.19	259.42
734.52	259.06
734.85	258.78
735.18	258.37
735.51	258.04
735.84	257.66
736.17	257.36
736.50	256.96
736.83	256.75
737.16	256.45
737.49	256.16
737.82	255.81
738.15	255.47
738.48	255.16
738.81	254.86
739.14	254.51
739.47	254.22
739.80	253.94
740.13	253.65
740.46	253.32
740.79	252.99
741.12	252.71
741.45	252.39
741.78	252.04
742.11	251.77
742.44	251.44
742.77	251.15
743.10	250.83
743.43	250.53
743.75	250.17
744.08	250.04
744.41	249.72
744.74	249.45
745.07	249.15
745.40	248.90
745.73	248.66
746.06	248.40
746.39	248.16
746.71	247.88
747.04	247.58
747.37	247.31
747.70	247.08
748.03	246.83
748.36	246.57
748.68	246.31
749.01	246.03
749.34	245.83
749.67	245.64
750.00	245.43
750.33	245.27
750.65	245.04
750.98	244.67
751.31	244.47
751.64	244.22
751.97	244.09
752.29	243.85
752.62	243.58
752.95	243.37
753.28	243.13
753.60	242.96
753.93	242.83
754.26	242.62
754.59	242.40
754.91	242.17
755.24	242.00
755.57	241.85
755.90	241.67
756.22	241.43
756.55	241.18
756.88	240.98
757.20	240.77
757.53	240.59
757.86	240.44
758.19	240.27
758.51	240.12
758.84	239.90
759.17	239.71
759.49	239.55
759.82	239.42
760.15	239.24
760.47	239.08
760.80	238.90
761.13	238.81
761.45	238.63
761.78	238.48
762.11	238.33
762.43	238.13
762.76	238.00
763.08	237.89
763.41	237.77
763.74	237.63
764.06	237.48
764.39	237.32
764.71	237.17
765.04	237.06
765.37	236.94
765.69	236.83
766.02	236.72
766.34	236.64
766.67	236.50
767.00	236.45
767.32	236.38
767.65	236.29
767.97	236.22
768.30	236.14
768.62	236.02
768.95	235.94
769.27	235.86
769.60	235.79
769.92	235.69
770.25	235.61
770.57	235.52
770.90	235.42
771.22	235.31
771.55	235.22
771.87	235.12
772.20	235.01
772.52	235.01
772.85	235.05
773.17	234.93
773.50	234.85
773.82	234.73
774.15	234.56
774.47	234.45
774.80	234.34
775.12	234.23
775.45	234.18
775.77	234.08
776.09	234.02
776.42	233.91
776.74	233.84
777.07	233.77
777.39	233.68
777.72	233.61
778.04	233.57
778.36	233.50
778.69	233.46
779.01	233.41
779.33	233.25
779.66	233.08
779.98	233.00
780.31	232.93
780.63	232.92
780.95	232.90
781.28	232.81
781.60	232.71
781.92	232.65
782.25	232.59
782.57	232.52
782.89	232.43
783.22	232.36
783.54	232.30
783.86	232.21
784.19	232.16
784.51	232.12
784.83	232.03
785.16	232.01
785.48	231.94
785.80	231.88
786.12	231.80
786.45	231.70
786.77	231.68
787.09	231.60
