SpectraSuite Data File
++++++++++++++++++++++++++++++++++++
Date: Fri Feb 01 14:53:35 EST 2013
User: group
Dark Spectrum Present: No
Reference Spectrum Present: No
Number of Sampled Component Spectra: 1
Spectrometers: USB2E7196
Integration Time (usec): 35000 (USB2E7196)
Spectra Averaged: 100 (USB2E7196)
Boxcar Smoothing: 10 (USB2E7196)
Correct for Electrical Dark: No (USB2E7196)
Strobe/Lamp Enabled: No (USB2E7196)
Correct for Detector Non-linearity: No (USB2E7196)
Correct for Stray Light: No (USB2E7196)
Number of Pixels in Processed Spectrum: 2048
>>>>>Begin Processed Spectral Data<<<<<
339.09	0.00
339.48	215.53
339.86	216.93
340.24	218.59
340.63	220.03
341.01	222.50
341.39	222.17
341.78	223.31
342.16	225.02
342.54	225.57
342.93	213.83
343.31	224.65
343.69	225.19
344.07	225.66
344.46	226.07
344.84	226.45
345.22	226.69
345.60	226.98
345.99	227.17
346.37	227.30
346.75	227.42
347.13	227.47
347.52	227.51
347.90	227.58
348.28	227.57
348.66	227.68
349.05	227.70
349.43	227.74
349.81	227.77
350.19	227.84
350.57	227.90
350.96	227.95
351.34	228.01
351.72	228.09
352.10	228.18
352.48	228.23
352.87	228.23
353.25	228.28
353.63	228.29
354.01	228.39
354.39	228.46
354.77	228.48
355.15	228.63
355.54	228.69
355.92	228.70
356.30	228.77
356.68	228.86
357.06	228.89
357.44	228.93
357.82	228.96
358.20	228.98
358.58	229.03
358.97	229.11
359.35	229.20
359.73	229.26
360.11	229.32
360.49	229.39
360.87	229.47
361.25	229.53
361.63	229.60
362.01	229.59
362.39	229.62
362.77	229.68
363.15	229.67
363.53	229.72
363.91	229.76
364.29	229.77
364.67	229.66
365.05	229.68
365.43	229.70
365.81	229.71
366.19	229.74
366.57	229.77
366.95	229.71
367.33	229.63
367.71	229.61
368.09	229.61
368.47	229.56
368.85	229.53
369.23	229.50
369.61	229.45
369.99	229.46
370.37	229.43
370.75	229.42
371.13	229.32
371.51	229.24
371.89	229.17
372.27	229.15
372.65	229.11
373.03	229.02
373.41	228.98
373.78	228.92
374.16	228.83
374.54	228.72
374.92	228.67
375.30	228.62
375.68	228.50
376.06	228.42
376.44	228.36
376.82	228.28
377.19	228.19
377.57	228.11
377.95	228.00
378.33	227.92
378.71	227.81
379.09	227.78
379.47	227.73
379.84	227.66
380.22	227.54
380.60	227.44
380.98	227.40
381.36	227.30
381.73	227.21
382.11	227.17
382.49	227.14
382.87	227.09
383.25	227.04
383.62	227.10
384.00	227.03
384.38	226.94
384.76	226.91
385.13	226.93
385.51	226.89
385.89	226.82
386.27	226.78
386.64	226.73
387.02	226.69
387.40	226.62
387.78	226.58
388.15	226.58
388.53	226.54
388.91	226.50
389.29	226.44
389.66	226.44
390.04	226.40
390.42	226.39
390.79	226.34
391.17	226.29
391.55	226.17
391.92	226.17
392.30	226.21
392.68	226.18
393.05	226.16
393.43	226.14
393.81	226.18
394.18	226.18
394.56	226.21
394.94	226.25
395.31	226.30
395.69	226.36
396.06	226.42
396.44	226.49
396.82	226.52
397.19	226.65
397.57	226.72
397.95	226.76
398.32	226.79
398.70	226.86
399.07	226.96
399.45	227.07
399.82	227.16
400.20	227.23
400.58	227.32
400.95	227.37
401.33	227.49
401.70	227.64
402.08	227.77
402.45	227.85
402.83	227.96
403.20	228.09
403.58	228.20
403.95	228.35
404.33	228.48
404.71	228.63
405.08	228.80
405.46	228.95
405.83	229.15
406.21	229.32
406.58	229.52
406.96	229.67
407.33	229.83
407.70	230.03
408.08	230.31
408.45	230.56
408.83	230.84
409.20	231.05
409.58	231.27
409.95	231.52
410.33	231.83
410.70	232.09
411.08	232.38
411.45	232.70
411.82	232.98
412.20	233.34
412.57	233.76
412.95	234.06
413.32	234.47
413.69	234.87
414.07	235.32
414.44	235.78
414.82	236.27
415.19	236.82
415.56	237.37
415.94	237.91
416.31	238.50
416.68	239.11
417.06	239.85
417.43	240.53
417.81	241.33
418.18	242.11
418.55	242.94
418.93	243.83
419.30	244.72
419.67	245.65
420.04	246.63
420.42	247.60
420.79	248.79
421.16	249.92
421.54	251.09
421.91	252.28
422.28	253.51
422.66	254.85
423.03	256.19
423.40	257.49
423.77	258.90
424.15	260.33
424.52	261.79
424.89	263.37
425.26	264.91
425.64	266.30
426.01	267.87
426.38	269.53
426.75	271.19
427.13	272.96
427.50	274.77
427.87	276.62
428.24	278.45
428.61	280.17
428.99	282.13
429.36	284.24
429.73	286.29
430.10	288.30
430.47	290.38
430.85	292.48
431.22	294.78
431.59	297.17
431.96	299.45
432.33	301.95
432.70	304.33
433.08	307.14
433.45	309.83
433.82	312.45
434.19	315.38
434.56	318.20
434.93	320.83
435.30	323.50
435.68	326.44
436.05	329.30
436.42	332.11
436.79	334.64
437.16	337.32
437.53	340.20
437.90	343.03
438.27	345.75
438.64	348.57
439.01	351.08
439.38	353.29
439.75	355.45
440.13	357.95
440.50	360.30
440.87	362.15
441.24	364.06
441.61	366.21
441.98	367.66
442.35	369.48
442.72	371.33
443.09	373.09
443.46	374.08
443.83	374.65
444.20	375.14
444.57	375.96
444.94	376.29
445.31	376.60
445.68	376.95
446.05	377.06
446.42	376.71
446.79	376.33
447.16	375.89
447.53	375.54
447.90	374.37
448.27	373.19
448.64	371.61
449.01	370.48
449.37	368.55
449.74	366.64
450.11	364.37
450.48	361.89
450.85	359.36
451.22	357.19
451.59	355.17
451.96	353.22
452.33	350.66
452.70	348.25
453.07	345.41
453.43	342.52
453.80	339.73
454.17	337.02
454.54	334.44
454.91	331.74
455.28	329.05
455.65	326.60
456.02	324.12
456.38	321.91
456.75	319.26
457.12	317.01
457.49	314.79
457.86	312.62
458.23	310.72
458.59	308.68
458.96	306.60
459.33	304.72
459.70	302.84
460.07	301.29
460.43	299.59
460.80	297.99
461.17	296.57
461.54	295.05
461.91	293.63
462.27	292.22
462.64	290.94
463.01	289.62
463.38	288.31
463.74	286.97
464.11	285.87
464.48	284.82
464.85	283.67
465.21	282.80
465.58	281.88
465.95	280.81
466.32	279.90
466.68	279.01
467.05	278.12
467.42	277.25
467.78	276.36
468.15	275.48
468.52	274.79
468.88	273.91
469.25	273.13
469.62	272.54
469.98	271.87
470.35	271.24
470.72	270.64
471.08	269.97
471.45	269.41
471.82	268.84
472.18	268.25
472.55	267.80
472.92	267.28
473.28	266.81
473.65	266.35
474.02	265.90
474.38	265.53
474.75	265.23
475.11	264.88
475.48	264.58
475.85	264.33
476.21	264.11
476.58	263.91
476.94	263.77
477.31	263.54
477.67	263.36
478.04	263.21
478.41	263.09
478.77	263.11
479.14	263.05
479.50	263.03
479.87	263.09
480.23	263.14
480.60	263.18
480.96	263.30
481.33	263.49
481.69	263.67
482.06	263.83
482.42	263.99
482.79	264.25
483.15	264.54
483.52	264.92
483.88	265.24
484.25	265.62
484.61	266.02
484.98	266.48
485.34	267.04
485.71	267.64
486.07	268.27
486.44	268.80
486.80	269.51
487.17	270.25
487.53	271.03
487.90	271.86
488.26	272.80
488.62	273.73
488.99	274.69
489.35	275.73
489.72	276.82
490.08	278.05
490.44	279.26
490.81	280.57
491.17	281.90
491.54	283.35
491.90	284.86
492.26	286.49
492.63	288.19
492.99	289.93
493.36	291.77
493.72	293.79
494.08	295.89
494.45	298.13
494.81	300.45
495.17	302.87
495.54	305.40
495.90	308.06
496.26	310.85
496.63	313.80
496.99	316.90
497.35	320.17
497.72	323.53
498.08	327.06
498.44	330.74
498.80	334.57
499.17	338.61
499.53	342.72
499.89	347.09
500.26	351.53
500.62	356.20
500.98	361.14
501.34	366.13
501.71	371.41
502.07	376.80
502.43	382.37
502.79	388.16
503.16	394.23
503.52	400.40
503.88	406.77
504.24	413.34
504.60	420.15
504.97	427.21
505.33	434.49
505.69	442.12
506.05	449.80
506.41	457.74
506.78	465.89
507.14	474.36
507.50	483.07
507.86	492.14
508.22	501.29
508.59	510.52
508.95	520.14
509.31	529.93
509.67	539.98
510.03	550.25
510.39	560.77
510.75	571.54
511.12	582.50
511.48	593.82
511.84	605.26
512.20	616.72
512.56	628.64
512.92	640.75
513.28	653.07
513.64	665.64
514.00	678.29
514.37	691.17
514.73	704.18
515.09	717.20
515.45	730.46
515.81	744.00
516.17	757.94
516.53	772.15
516.89	786.26
517.25	800.45
517.61	814.88
517.97	829.33
518.33	843.83
518.69	858.59
519.05	873.58
519.41	888.76
519.77	904.39
520.13	919.96
520.49	935.43
520.85	950.87
521.21	966.50
521.57	982.77
521.93	998.70
522.29	1015.12
522.65	1031.53
523.01	1047.79
523.37	1063.94
523.73	1080.15
524.09	1096.21
524.45	1112.64
524.81	1129.45
525.17	1146.35
525.53	1163.26
525.89	1180.13
526.25	1197.05
526.61	1213.47
526.97	1230.29
527.33	1246.83
527.68	1263.52
528.04	1280.06
528.40	1296.79
528.76	1314.00
529.12	1330.57
529.48	1347.36
529.84	1363.46
530.20	1380.01
530.56	1397.05
530.91	1414.47
531.27	1431.35
531.63	1447.79
531.99	1464.50
532.35	1480.51
532.71	1496.44
533.07	1512.93
533.42	1528.96
533.78	1545.13
534.14	1561.44
534.50	1576.87
534.86	1592.81
535.21	1608.04
535.57	1624.07
535.93	1639.65
536.29	1654.44
536.65	1669.72
537.00	1684.67
537.36	1699.98
537.72	1714.70
538.08	1729.29
538.44	1743.20
538.79	1757.17
539.15	1770.96
539.51	1784.74
539.87	1799.11
540.22	1812.91
540.58	1826.71
540.94	1840.13
541.29	1853.11
541.65	1865.82
542.01	1879.27
542.37	1891.68
542.72	1904.10
543.08	1915.85
543.44	1928.20
543.79	1939.55
544.15	1950.52
544.51	1962.17
544.87	1973.25
545.22	1984.05
545.58	1994.29
545.94	2004.06
546.29	2013.95
546.65	2023.84
547.01	2033.02
547.36	2041.64
547.72	2050.12
548.07	2058.10
548.43	2066.20
548.79	2074.23
549.14	2081.85
549.50	2089.18
549.86	2096.89
550.21	2104.11
550.57	2111.40
550.92	2118.03
551.28	2125.06
551.64	2132.08
551.99	2138.60
552.35	2144.69
552.70	2150.69
553.06	2156.56
553.41	2162.82
553.77	2168.87
554.13	2174.88
554.48	2181.02
554.84	2186.56
555.19	2191.73
555.55	2196.59
555.90	2201.07
556.26	2205.83
556.61	2210.40
556.97	2214.48
557.32	2218.44
557.68	2222.74
558.03	2226.84
558.39	2230.49
558.74	2235.02
559.10	2238.81
559.45	2242.28
559.81	2246.58
560.16	2250.30
560.52	2253.48
560.87	2256.91
561.23	2259.31
561.58	2262.17
561.94	2264.54
562.29	2266.81
562.64	2269.44
563.00	2271.99
563.35	2275.38
563.71	2278.39
564.06	2281.58
564.42	2284.27
564.77	2286.74
565.12	2288.63
565.48	2290.33
565.83	2291.98
566.19	2293.05
566.54	2293.90
566.89	2294.88
567.25	2295.21
567.60	2296.45
567.96	2297.93
568.31	2298.50
568.66	2299.35
569.02	2299.71
569.37	2299.85
569.72	2300.43
570.08	2300.34
570.43	2300.01
570.78	2298.98
571.14	2297.28
571.49	2295.56
571.84	2294.92
572.20	2293.44
572.55	2292.09
572.90	2290.29
573.26	2288.51
573.61	2286.65
573.96	2284.65
574.31	2281.41
574.67	2278.21
575.02	2274.27
575.37	2270.68
575.72	2266.70
576.08	2263.18
576.43	2259.75
576.78	2255.99
577.13	2252.62
577.49	2249.36
577.84	2245.83
578.19	2242.07
578.54	2238.20
578.90	2233.82
579.25	2228.29
579.60	2223.34
579.95	2218.22
580.30	2213.07
580.66	2207.85
581.01	2202.72
581.36	2197.66
581.71	2193.35
582.06	2188.73
582.42	2184.17
582.77	2178.70
583.12	2173.91
583.47	2169.06
583.82	2163.87
584.17	2158.43
584.53	2152.92
584.88	2147.23
585.23	2141.40
585.58	2135.69
585.93	2129.94
586.28	2125.19
586.63	2119.91
586.98	2114.63
587.34	2109.95
587.69	2104.99
588.04	2099.68
588.39	2093.95
588.74	2087.31
589.09	2081.04
589.44	2074.07
589.79	2067.87
590.14	2062.16
590.49	2055.56
590.84	2048.97
591.19	2042.74
591.54	2036.19
591.89	2028.66
592.25	2021.69
592.60	2014.36
592.95	2006.70
593.30	1999.37
593.65	1991.64
594.00	1984.54
594.35	1977.15
594.70	1968.91
595.05	1961.58
595.40	1954.27
595.75	1946.69
596.10	1940.38
596.45	1933.43
596.80	1927.20
597.15	1920.57
597.50	1913.36
597.85	1906.81
598.19	1900.19
598.54	1893.18
598.89	1886.53
599.24	1880.58
599.59	1873.92
599.94	1867.56
600.29	1861.25
600.64	1854.53
600.99	1847.01
601.34	1840.05
601.69	1833.01
602.04	1825.94
602.39	1818.52
602.74	1811.60
603.08	1804.80
603.43	1798.13
603.78	1790.93
604.13	1783.73
604.48	1776.41
604.83	1769.59
605.18	1762.59
605.53	1754.54
605.87	1746.49
606.22	1739.08
606.57	1731.08
606.92	1723.65
607.27	1716.39
607.62	1709.50
607.96	1702.30
608.31	1695.78
608.66	1688.27
609.01	1680.80
609.36	1673.48
609.70	1665.66
610.05	1657.65
610.40	1650.03
610.75	1641.64
611.10	1634.15
611.44	1625.89
611.79	1617.95
612.14	1609.31
612.49	1600.31
612.83	1592.18
613.18	1584.02
613.53	1576.11
613.88	1567.67
614.22	1559.52
614.57	1551.09
614.92	1543.10
615.27	1535.70
615.61	1527.38
615.96	1519.41
616.31	1511.86
616.65	1504.50
617.00	1496.91
617.35	1489.33
617.70	1481.10
618.04	1472.61
618.39	1464.37
618.74	1456.70
619.08	1448.47
619.43	1441.11
619.78	1434.23
620.12	1426.92
620.47	1419.51
620.82	1411.52
621.16	1404.17
621.51	1396.60
621.85	1389.12
622.20	1380.82
622.55	1372.49
622.89	1364.70
623.24	1357.07
623.59	1349.62
623.93	1342.24
624.28	1335.15
624.62	1327.73
624.97	1320.51
625.32	1313.96
625.66	1307.02
626.01	1300.03
626.35	1292.68
626.70	1284.90
627.04	1277.24
627.39	1269.64
627.73	1262.27
628.08	1255.26
628.43	1248.02
628.77	1240.75
629.12	1233.18
629.46	1225.89
629.81	1218.59
630.15	1211.54
630.50	1204.29
630.84	1196.30
631.19	1188.32
631.53	1180.81
631.88	1173.24
632.22	1165.81
632.57	1158.55
632.91	1151.13
633.26	1143.76
633.60	1136.52
633.95	1129.49
634.29	1122.50
634.64	1115.87
634.98	1108.65
635.32	1101.68
635.67	1095.17
636.01	1088.44
636.36	1081.79
636.70	1075.32
637.05	1068.83
637.39	1062.43
637.73	1056.06
638.08	1050.29
638.42	1044.48
638.77	1038.19
639.11	1031.69
639.45	1025.34
639.80	1018.70
640.14	1012.28
640.49	1005.82
640.83	999.59
641.17	993.46
641.52	987.23
641.86	980.95
642.20	975.18
642.55	968.81
642.89	962.41
643.23	956.10
643.58	950.41
643.92	944.36
644.26	938.36
644.61	932.43
644.95	926.37
645.29	919.74
645.64	913.07
645.98	906.71
646.32	900.91
646.66	894.82
647.01	889.10
647.35	883.43
647.69	877.60
648.04	872.08
648.38	866.29
648.72	860.36
649.06	854.25
649.41	848.33
649.75	842.43
650.09	836.45
650.43	830.62
650.78	824.47
651.12	818.53
651.46	812.71
651.80	806.88
652.14	801.57
652.49	796.26
652.83	791.09
653.17	785.50
653.51	779.81
653.85	774.51
654.20	768.87
654.54	762.95
654.88	757.32
655.22	751.44
655.56	745.77
655.90	740.24
656.25	735.06
656.59	729.81
656.93	724.77
657.27	719.66
657.61	714.29
657.95	709.22
658.29	704.20
658.64	699.09
658.98	693.85
659.32	688.37
659.66	683.18
660.00	677.94
660.34	673.07
660.68	668.19
661.02	663.20
661.36	658.58
661.70	654.06
662.05	649.68
662.39	645.43
662.73	641.04
663.07	636.80
663.41	632.45
663.75	627.96
664.09	623.44
664.43	619.16
664.77	615.11
665.11	610.89
665.45	606.77
665.79	602.70
666.13	598.64
666.47	594.62
666.81	590.52
667.15	586.44
667.49	582.53
667.83	578.81
668.17	574.97
668.51	570.95
668.85	567.00
669.19	563.25
669.53	559.39
669.87	555.56
670.21	551.95
670.55	548.37
670.89	545.02
671.23	541.68
671.57	538.19
671.91	534.69
672.25	531.27
672.58	527.90
672.92	524.58
673.26	521.45
673.60	518.39
673.94	515.37
674.28	512.52
674.62	509.66
674.96	506.58
675.30	503.74
675.64	500.87
675.97	498.18
676.31	495.33
676.65	492.51
676.99	489.92
677.33	487.05
677.67	484.26
678.01	481.27
678.34	478.29
678.68	475.46
679.02	472.71
679.36	469.97
679.70	467.29
680.04	464.54
680.37	461.67
680.71	458.87
681.05	456.25
681.39	453.60
681.73	450.98
682.06	448.50
682.40	445.94
682.74	443.42
683.08	440.84
683.42	438.29
683.75	435.83
684.09	433.25
684.43	430.82
684.77	428.37
685.10	426.02
685.44	423.78
685.78	421.47
686.12	419.25
686.45	416.96
686.79	414.62
687.13	412.48
687.46	410.38
687.80	408.25
688.14	406.06
688.48	404.01
688.81	401.78
689.15	399.64
689.49	397.51
689.82	395.44
690.16	393.40
690.50	391.43
690.83	389.46
691.17	387.53
691.51	385.62
691.84	383.77
692.18	381.87
692.52	379.86
692.85	377.98
693.19	376.07
693.52	374.30
693.86	372.49
694.20	370.68
694.53	368.88
694.87	367.05
695.21	365.28
695.54	363.45
695.88	361.71
696.21	360.00
696.55	358.39
696.88	356.72
697.22	355.09
697.56	353.46
697.89	351.77
698.23	350.15
698.56	348.53
698.90	346.92
699.23	345.23
699.57	343.76
699.90	342.23
700.24	340.69
700.58	339.13
700.91	337.66
701.25	336.20
701.58	334.85
701.92	333.48
702.25	332.10
702.59	330.72
702.92	329.43
703.26	328.13
703.59	326.84
703.93	325.65
704.26	324.44
704.60	323.18
704.93	321.99
705.26	320.76
705.60	319.63
705.93	318.52
706.27	317.56
706.60	316.54
706.94	315.47
707.27	314.39
707.61	313.38
707.94	312.38
708.27	311.32
708.61	310.28
708.94	309.28
709.28	308.32
709.61	307.40
709.94	306.45
710.28	305.43
710.61	304.45
710.95	303.38
711.28	302.47
711.61	301.59
711.95	300.69
712.28	299.78
712.61	298.83
712.95	297.92
713.28	297.08
713.61	296.19
713.95	295.33
714.28	294.51
714.61	293.67
714.95	292.84
715.28	292.01
715.61	291.13
715.95	290.34
716.28	289.53
716.61	288.71
716.95	287.95
717.28	287.24
717.61	286.50
717.94	285.81
718.28	285.04
718.61	284.33
718.94	283.65
719.27	283.05
719.61	282.42
719.94	281.78
720.27	281.07
720.60	280.38
720.94	279.75
721.27	279.15
721.60	278.60
721.93	278.02
722.27	277.51
722.60	276.96
722.93	276.40
723.26	275.83
723.59	275.31
723.93	274.77
724.26	274.24
724.59	273.71
724.92	273.23
725.25	272.71
725.59	272.19
725.92	271.71
726.25	271.17
726.58	270.64
726.91	270.13
727.24	269.66
727.57	269.22
727.91	268.74
728.24	268.32
728.57	267.81
728.90	267.37
729.23	266.86
729.56	266.45
729.89	265.96
730.22	265.50
730.55	265.06
730.89	264.59
731.22	264.11
731.55	263.68
731.88	263.21
732.21	262.82
732.54	262.38
732.87	261.95
733.20	261.55
733.53	261.15
733.86	260.78
734.19	260.37
734.52	259.99
734.85	259.68
735.18	259.25
735.51	258.92
735.84	258.53
736.17	258.20
736.50	257.74
736.83	257.50
737.16	257.16
737.49	256.76
737.82	256.42
738.15	256.05
738.48	255.71
738.81	255.37
739.14	255.02
739.47	254.71
739.80	254.38
740.13	254.07
740.46	253.76
740.79	253.42
741.12	253.07
741.45	252.76
741.78	252.40
742.11	252.10
742.44	251.75
742.77	251.47
743.10	251.16
743.43	250.85
743.75	250.47
744.08	250.32
744.41	250.06
744.74	249.80
745.07	249.52
745.40	249.28
745.73	249.03
746.06	248.74
746.39	248.44
746.71	248.16
747.04	247.88
747.37	247.64
747.70	247.41
748.03	247.20
748.36	246.95
748.68	246.67
749.01	246.41
749.34	246.18
749.67	245.92
750.00	245.68
750.33	245.55
750.65	245.37
750.98	245.00
751.31	244.80
751.64	244.57
751.97	244.43
752.29	244.21
752.62	243.95
752.95	243.74
753.28	243.56
753.60	243.36
753.93	243.19
754.26	243.01
754.59	242.78
754.91	242.59
755.24	242.40
755.57	242.23
755.90	242.06
756.22	241.88
756.55	241.74
756.88	241.56
757.20	241.39
757.53	241.15
757.86	241.02
758.19	240.88
758.51	240.72
758.84	240.54
759.17	240.36
759.49	240.23
759.82	240.14
760.15	240.03
760.47	239.89
760.80	239.75
761.13	239.61
761.45	239.45
761.78	239.32
762.11	239.18
762.43	239.05
762.76	238.93
763.08	238.81
763.41	238.66
763.74	238.55
764.06	238.39
764.39	238.29
764.71	238.16
765.04	238.03
765.37	237.90
765.69	237.79
766.02	237.69
766.34	237.57
766.67	237.40
767.00	237.29
767.32	237.22
767.65	237.18
767.97	237.09
768.30	237.03
768.62	236.91
768.95	236.82
769.27	236.75
769.60	236.63
769.92	236.51
770.25	236.40
770.57	236.29
770.90	236.18
771.22	236.08
771.55	235.94
771.87	235.83
772.20	235.73
772.52	235.70
772.85	235.71
773.17	235.61
773.50	235.52
773.82	235.40
774.15	235.29
774.47	235.08
774.80	234.95
775.12	234.81
775.45	234.71
775.77	234.61
776.09	234.51
776.42	234.47
776.74	234.41
777.07	234.34
777.39	234.23
777.72	234.14
778.04	234.05
778.36	233.99
778.69	233.92
779.01	233.86
779.33	233.71
779.66	233.53
779.98	233.42
780.31	233.30
780.63	233.26
780.95	233.15
781.28	233.11
781.60	233.03
781.92	232.99
782.25	232.90
782.57	232.82
782.89	232.72
783.22	232.62
783.54	232.56
783.86	232.49
784.19	232.43
784.51	232.40
784.83	232.33
785.16	232.25
785.48	232.20
785.80	232.13
786.12	232.05
786.45	231.99
786.77	231.96
787.09	231.95
