SpectraSuite Data File
++++++++++++++++++++++++++++++++++++
Date: Fri Feb 01 17:22:21 EST 2013
User: group
Dark Spectrum Present: No
Reference Spectrum Present: No
Number of Sampled Component Spectra: 1
Spectrometers: USB2E7196
Integration Time (usec): 35000 (USB2E7196)
Spectra Averaged: 100 (USB2E7196)
Boxcar Smoothing: 10 (USB2E7196)
Correct for Electrical Dark: No (USB2E7196)
Strobe/Lamp Enabled: No (USB2E7196)
Correct for Detector Non-linearity: No (USB2E7196)
Correct for Stray Light: No (USB2E7196)
Number of Pixels in Processed Spectrum: 2048
>>>>>Begin Processed Spectral Data<<<<<
339.09	0.00
339.48	212.38
339.86	214.57
340.24	215.88
340.63	216.93
341.01	219.68
341.39	220.05
341.78	220.92
342.16	221.96
342.54	222.57
342.93	211.13
343.31	221.77
343.69	222.33
344.07	222.78
344.46	223.22
344.84	223.57
345.22	223.82
345.60	224.05
345.99	224.24
346.37	224.41
346.75	224.51
347.13	224.61
347.52	224.70
347.90	224.80
348.28	224.84
348.66	224.88
349.05	224.89
349.43	224.91
349.81	224.95
350.19	225.01
350.57	225.04
350.96	225.07
351.34	225.16
351.72	225.25
352.10	225.31
352.48	225.36
352.87	225.43
353.25	225.51
353.63	225.56
354.01	225.63
354.39	225.68
354.77	225.78
355.15	225.87
355.54	225.90
355.92	225.92
356.30	225.95
356.68	226.09
357.06	226.15
357.44	226.21
357.82	226.27
358.20	226.33
358.58	226.40
358.97	226.46
359.35	226.57
359.73	226.64
360.11	226.71
360.49	226.75
360.87	226.80
361.25	226.82
361.63	226.92
362.01	226.95
362.39	226.97
362.77	226.99
363.15	226.99
363.53	227.03
363.91	227.11
364.29	227.16
364.67	227.10
365.05	227.13
365.43	227.18
365.81	227.20
366.19	227.27
366.57	227.33
366.95	227.36
367.33	227.32
367.71	227.31
368.09	227.33
368.47	227.35
368.85	227.35
369.23	227.36
369.61	227.30
369.99	227.31
370.37	227.32
370.75	227.34
371.13	227.30
371.51	227.25
371.89	227.20
372.27	227.16
372.65	227.11
373.03	227.05
373.41	227.00
373.78	226.96
374.16	226.85
374.54	226.73
374.92	226.67
375.30	226.60
375.68	226.53
376.06	226.49
376.44	226.42
376.82	226.36
377.19	226.28
377.57	226.23
377.95	226.17
378.33	226.06
378.71	225.95
379.09	225.92
379.47	225.88
379.84	225.81
380.22	225.74
380.60	225.67
380.98	225.60
381.36	225.53
381.73	225.46
382.11	225.43
382.49	225.40
382.87	225.33
383.25	225.25
383.62	225.33
384.00	225.21
384.38	225.14
384.76	225.12
385.13	225.08
385.51	225.01
385.89	224.96
386.27	224.95
386.64	224.93
387.02	224.89
387.40	224.82
387.78	224.79
388.15	224.77
388.53	224.74
388.91	224.70
389.29	224.66
389.66	224.63
390.04	224.58
390.42	224.56
390.79	224.57
391.17	224.60
391.55	224.46
391.92	224.48
392.30	224.47
392.68	224.43
393.05	224.42
393.43	224.45
393.81	224.44
394.18	224.41
394.56	224.40
394.94	224.45
395.31	224.48
395.69	224.50
396.06	224.54
396.44	224.59
396.82	224.65
397.19	224.74
397.57	224.75
397.95	224.77
398.32	224.79
398.70	224.84
399.07	224.88
399.45	224.93
399.82	224.97
400.20	225.02
400.58	225.10
400.95	225.14
401.33	225.21
401.70	225.35
402.08	225.45
402.45	225.54
402.83	225.65
403.20	225.75
403.58	225.83
403.95	225.94
404.33	226.06
404.71	226.15
405.08	226.34
405.46	226.48
405.83	226.65
406.21	226.81
406.58	226.97
406.96	227.12
407.33	227.30
407.70	227.49
408.08	227.79
408.45	228.00
408.83	228.24
409.20	228.46
409.58	228.67
409.95	228.92
410.33	229.20
410.70	229.43
411.08	229.67
411.45	230.02
411.82	230.33
412.20	230.66
412.57	231.14
412.95	231.43
413.32	231.82
413.69	232.26
414.07	232.69
414.44	233.16
414.82	233.65
415.19	234.25
415.56	234.83
415.94	235.37
416.31	236.03
416.68	236.68
417.06	237.40
417.43	238.09
417.81	238.91
418.18	239.71
418.55	240.60
418.93	241.54
419.30	242.45
419.67	243.43
420.04	244.43
420.42	245.41
420.79	246.65
421.16	247.86
421.54	249.08
421.91	250.36
422.28	251.69
422.66	253.07
423.03	254.38
423.40	255.74
423.77	257.21
424.15	258.71
424.52	260.28
424.89	261.99
425.26	263.63
425.64	265.13
426.01	266.79
426.38	268.50
426.75	270.23
427.13	272.05
427.50	273.92
427.87	275.91
428.24	277.84
428.61	279.66
428.99	281.67
429.36	283.87
429.73	286.02
430.10	288.07
430.47	290.18
430.85	292.40
431.22	294.75
431.59	297.21
431.96	299.55
432.33	302.08
432.70	304.53
433.08	307.43
433.45	310.11
433.82	312.83
434.19	315.82
434.56	318.72
434.93	321.41
435.30	324.10
435.68	327.08
436.05	330.01
436.42	332.86
436.79	335.47
437.16	338.24
437.53	341.18
437.90	344.13
438.27	346.99
438.64	349.95
439.01	352.62
439.38	354.93
439.75	357.17
440.13	359.75
440.50	362.16
440.87	364.09
441.24	366.12
441.61	368.32
441.98	369.92
442.35	371.79
442.72	373.71
443.09	375.65
443.46	376.68
443.83	377.36
444.20	377.96
444.57	378.85
444.94	379.17
445.31	379.53
445.68	379.89
446.05	379.98
446.42	379.58
446.79	379.16
447.16	378.72
447.53	378.39
447.90	377.20
448.27	376.05
448.64	374.40
449.01	373.27
449.37	371.26
449.74	369.26
450.11	366.98
450.48	364.48
450.85	361.86
451.22	359.62
451.59	357.50
451.96	355.48
452.33	352.79
452.70	350.38
453.07	347.44
453.43	344.42
453.80	341.55
454.17	338.76
454.54	336.15
454.91	333.32
455.28	330.55
455.65	327.99
456.02	325.39
456.38	323.15
456.75	320.39
457.12	318.06
457.49	315.74
457.86	313.46
458.23	311.53
458.59	309.41
458.96	307.29
459.33	305.33
459.70	303.41
460.07	301.82
460.43	300.04
460.80	298.34
461.17	296.90
461.54	295.38
461.91	293.91
462.27	292.40
462.64	291.16
463.01	289.77
463.38	288.43
463.74	287.06
464.11	285.89
464.48	284.80
464.85	283.64
465.21	282.75
465.58	281.79
465.95	280.70
466.32	279.73
466.68	278.75
467.05	277.83
467.42	276.87
467.78	275.90
468.15	275.00
468.52	274.30
468.88	273.41
469.25	272.60
469.62	271.98
469.98	271.27
470.35	270.60
470.72	269.99
471.08	269.34
471.45	268.77
471.82	268.21
472.18	267.60
472.55	267.15
472.92	266.64
473.28	266.17
473.65	265.68
474.02	265.25
474.38	264.91
474.75	264.59
475.11	264.23
475.48	263.96
475.85	263.74
476.21	263.51
476.58	263.32
476.94	263.19
477.31	262.99
477.67	262.86
478.04	262.74
478.41	262.66
478.77	262.67
479.14	262.64
479.50	262.64
479.87	262.75
480.23	262.86
480.60	262.96
480.96	263.07
481.33	263.26
481.69	263.47
482.06	263.67
482.42	263.88
482.79	264.17
483.15	264.48
483.52	264.84
483.88	265.22
484.25	265.59
484.61	265.99
484.98	266.45
485.34	266.99
485.71	267.54
486.07	268.16
486.44	268.72
486.80	269.39
487.17	270.08
487.53	270.82
487.90	271.62
488.26	272.53
488.62	273.45
488.99	274.45
489.35	275.47
489.72	276.56
490.08	277.74
490.44	278.95
490.81	280.28
491.17	281.62
491.54	283.02
491.90	284.55
492.26	286.23
492.63	287.94
492.99	289.73
493.36	291.64
493.72	293.68
494.08	295.75
494.45	297.95
494.81	300.32
495.17	302.76
495.54	305.30
495.90	307.96
496.26	310.77
496.63	313.67
496.99	316.75
497.35	320.03
497.72	323.41
498.08	326.91
498.44	330.59
498.80	334.46
499.17	338.52
499.53	342.68
499.89	346.99
500.26	351.48
500.62	356.04
500.98	360.91
501.34	365.88
501.71	371.13
502.07	376.55
502.43	382.11
502.79	387.91
503.16	393.91
503.52	400.10
503.88	406.46
504.24	413.04
504.60	419.81
504.97	426.82
505.33	434.04
505.69	441.76
506.05	449.44
506.41	457.23
506.78	465.26
507.14	473.53
507.50	482.11
507.86	490.99
508.22	500.12
508.59	509.23
508.95	518.67
509.31	528.38
509.67	538.30
510.03	548.41
510.39	558.74
510.75	569.34
511.12	580.10
511.48	591.21
511.84	602.42
512.20	613.73
512.56	625.45
512.92	637.43
513.28	649.49
513.64	661.68
514.00	674.12
514.37	686.85
514.73	699.64
515.09	712.34
515.45	725.38
515.81	738.60
516.17	752.24
516.53	766.10
516.89	779.94
517.25	793.90
517.61	807.99
517.97	822.13
518.33	836.30
518.69	850.78
519.05	865.40
519.41	880.23
519.77	895.43
520.13	910.53
520.49	925.49
520.85	940.43
521.21	955.79
521.57	971.72
521.93	987.03
522.29	1002.97
522.65	1018.95
523.01	1034.76
523.37	1050.43
523.73	1066.17
524.09	1081.87
524.45	1097.79
524.81	1113.99
525.17	1130.32
525.53	1146.84
525.89	1163.35
526.25	1179.75
526.61	1195.75
526.97	1212.12
527.33	1228.24
527.68	1244.37
528.04	1260.53
528.40	1276.72
528.76	1293.29
529.12	1309.48
529.48	1326.03
529.84	1341.67
530.20	1357.84
530.56	1374.37
530.91	1391.40
531.27	1407.89
531.63	1424.01
531.99	1440.21
532.35	1455.86
532.71	1471.54
533.07	1487.36
533.42	1502.81
533.78	1518.55
534.14	1534.51
534.50	1549.46
534.86	1564.92
535.21	1579.80
535.57	1595.38
535.93	1610.58
536.29	1625.08
536.65	1639.79
537.00	1654.15
537.36	1669.26
537.72	1683.51
538.08	1697.86
538.44	1711.51
538.79	1725.21
539.15	1738.54
539.51	1752.12
539.87	1766.11
540.22	1779.59
540.58	1793.14
540.94	1806.30
541.29	1818.89
541.65	1831.36
542.01	1844.44
542.37	1856.72
542.72	1869.14
543.08	1880.80
543.44	1893.09
543.79	1904.49
544.15	1915.49
544.51	1927.16
544.87	1938.13
545.22	1949.02
545.58	1959.14
545.94	1968.88
546.29	1978.71
546.65	1988.85
547.01	1998.29
547.36	2007.23
547.72	2015.85
548.07	2024.01
548.43	2032.27
548.79	2040.43
549.14	2048.20
549.50	2055.74
549.86	2063.43
550.21	2070.88
550.57	2078.27
550.92	2085.04
551.28	2092.30
551.64	2099.56
551.99	2106.30
552.35	2112.61
552.70	2118.86
553.06	2125.02
553.41	2131.60
553.77	2137.80
554.13	2144.01
554.48	2150.17
554.84	2156.03
555.19	2161.50
555.55	2166.86
555.90	2171.67
556.26	2176.99
556.61	2181.93
556.97	2186.74
557.32	2191.32
557.68	2195.77
558.03	2200.31
558.39	2204.25
558.74	2209.07
559.10	2213.28
559.45	2217.20
559.81	2221.79
560.16	2226.03
560.52	2229.80
560.87	2233.46
561.23	2236.42
561.58	2239.62
561.94	2242.58
562.29	2245.15
562.64	2248.29
563.00	2251.10
563.35	2254.95
563.71	2258.25
564.06	2261.77
564.42	2264.96
564.77	2267.80
565.12	2270.59
565.48	2272.98
565.83	2275.37
566.19	2277.24
566.54	2278.39
566.89	2280.07
567.25	2281.27
567.60	2282.81
567.96	2284.97
568.31	2286.30
568.66	2288.03
569.02	2289.04
569.37	2289.78
569.72	2291.06
570.08	2291.60
570.43	2292.08
570.78	2291.91
571.14	2290.87
571.49	2289.90
571.84	2289.69
572.20	2289.06
572.55	2288.19
572.90	2286.68
573.26	2285.70
573.61	2283.98
573.96	2282.77
574.31	2279.99
574.67	2277.34
575.02	2274.17
575.37	2270.88
575.72	2267.53
576.08	2264.19
576.43	2261.09
576.78	2257.94
577.13	2254.89
577.49	2251.95
577.84	2248.90
578.19	2245.36
578.54	2242.14
578.90	2238.38
579.25	2233.22
579.60	2228.50
579.95	2223.89
580.30	2219.45
580.66	2214.48
581.01	2209.98
581.36	2205.21
581.71	2201.45
582.06	2197.35
582.42	2193.21
582.77	2188.28
583.12	2183.99
583.47	2179.89
583.82	2175.31
584.17	2170.14
584.53	2164.91
584.88	2159.69
585.23	2154.23
585.58	2149.09
585.93	2143.86
586.28	2139.11
586.63	2134.43
586.98	2129.60
587.34	2125.04
587.69	2120.19
588.04	2115.29
588.39	2109.82
588.74	2103.66
589.09	2097.70
589.44	2090.95
589.79	2084.99
590.14	2079.51
590.49	2073.03
590.84	2066.59
591.19	2060.78
591.54	2054.45
591.89	2047.49
592.25	2040.86
592.60	2033.79
592.95	2026.58
593.30	2019.36
593.65	2011.94
594.00	2004.97
594.35	1997.89
594.70	1990.01
595.05	1983.27
595.40	1976.04
595.75	1968.78
596.10	1962.76
596.45	1956.26
596.80	1950.36
597.15	1943.99
597.50	1937.23
597.85	1930.94
598.19	1924.44
598.54	1917.66
598.89	1911.28
599.24	1905.37
599.59	1898.97
599.94	1892.79
600.29	1886.40
600.64	1879.78
600.99	1872.65
601.34	1865.92
601.69	1858.96
602.04	1852.32
602.39	1844.94
602.74	1838.24
603.08	1831.44
603.43	1824.60
603.78	1817.20
604.13	1809.87
604.48	1802.66
604.83	1795.87
605.18	1789.12
605.53	1781.36
605.87	1773.14
606.22	1765.85
606.57	1757.89
606.92	1750.31
607.27	1743.24
607.62	1736.33
607.96	1729.26
608.31	1722.67
608.66	1715.10
609.01	1707.72
609.36	1700.08
609.70	1692.15
610.05	1684.16
610.40	1676.62
610.75	1668.41
611.10	1660.77
611.44	1652.32
611.79	1644.15
612.14	1635.49
612.49	1626.06
612.83	1617.46
613.18	1609.29
613.53	1601.14
613.88	1592.60
614.22	1584.28
614.57	1575.53
614.92	1567.56
615.27	1560.01
615.61	1551.68
615.96	1543.47
616.31	1535.58
616.65	1528.14
617.00	1520.43
617.35	1512.53
617.70	1504.06
618.04	1495.44
618.39	1487.05
618.74	1479.53
619.08	1471.25
619.43	1463.46
619.78	1456.32
620.12	1449.21
620.47	1441.61
620.82	1433.31
621.16	1425.78
621.51	1418.07
621.85	1410.33
622.20	1401.63
622.55	1393.05
622.89	1385.03
623.24	1377.33
623.59	1369.80
623.93	1362.20
624.28	1354.85
624.62	1347.42
624.97	1340.11
625.32	1333.21
625.66	1326.18
626.01	1318.93
626.35	1311.56
626.70	1303.58
627.04	1296.03
627.39	1287.99
627.73	1280.44
628.08	1273.47
628.43	1266.32
628.77	1258.99
629.12	1251.33
629.46	1244.03
629.81	1236.35
630.15	1228.97
630.50	1221.52
630.84	1213.29
631.19	1205.18
631.53	1197.56
631.88	1189.75
632.22	1182.17
632.57	1174.77
632.91	1167.11
633.26	1159.57
633.60	1151.89
633.95	1144.64
634.29	1137.38
634.64	1130.62
634.98	1123.27
635.32	1116.04
635.67	1109.15
636.01	1102.36
636.36	1095.55
636.70	1089.01
637.05	1082.42
637.39	1075.85
637.73	1069.23
638.08	1063.20
638.42	1057.21
638.77	1050.79
639.11	1044.35
639.45	1037.82
639.80	1031.16
640.14	1024.76
640.49	1018.19
640.83	1011.94
641.17	1005.80
641.52	999.47
641.86	992.96
642.20	987.06
642.55	980.70
642.89	974.14
643.23	967.59
643.58	961.73
643.92	955.48
644.26	949.60
644.61	943.51
644.95	937.54
645.29	931.05
645.64	924.34
645.98	917.79
646.32	911.69
646.66	905.62
647.01	899.84
647.35	894.08
647.69	888.17
648.04	882.54
648.38	876.66
648.72	870.69
649.06	864.63
649.41	858.68
649.75	852.72
650.09	846.85
650.43	841.08
650.78	834.94
651.12	828.92
651.46	823.16
651.80	817.47
652.14	812.04
652.49	806.66
652.83	801.41
653.17	795.87
653.51	790.29
653.85	784.80
654.20	779.10
654.54	773.01
654.88	767.23
655.22	761.36
655.56	755.65
655.90	750.10
656.25	744.84
656.59	739.43
656.93	734.23
657.27	729.05
657.61	723.55
657.95	718.45
658.29	713.36
658.64	707.96
658.98	702.55
659.32	696.98
659.66	691.67
660.00	686.36
660.34	681.29
660.68	676.28
661.02	671.32
661.36	666.62
661.70	662.15
662.05	657.74
662.39	653.41
662.73	648.98
663.07	644.65
663.41	640.26
663.75	635.84
664.09	631.29
664.43	626.78
664.77	622.68
665.11	618.39
665.45	614.22
665.79	610.20
666.13	606.09
666.47	601.97
666.81	597.79
667.15	593.63
667.49	589.72
667.83	585.85
668.17	581.81
668.51	577.67
668.85	573.55
669.19	569.63
669.53	565.75
669.87	561.83
670.21	558.02
670.55	554.18
670.89	550.69
671.23	547.23
671.57	543.73
671.91	540.12
672.25	536.58
672.58	533.09
672.92	529.57
673.26	526.34
673.60	523.17
673.94	520.06
674.28	517.08
674.62	514.15
674.96	511.00
675.30	508.13
675.64	505.19
675.97	502.42
676.31	499.56
676.65	496.61
676.99	493.85
677.33	490.97
677.67	488.21
678.01	485.17
678.34	482.19
678.68	479.26
679.02	476.45
679.36	473.62
679.70	470.83
680.04	468.02
680.37	465.18
680.71	462.39
681.05	459.74
681.39	457.01
681.73	454.30
682.06	451.75
682.40	449.17
682.74	446.59
683.08	443.96
683.42	441.37
683.75	438.84
684.09	436.24
684.43	433.81
684.77	431.31
685.10	428.93
685.44	426.61
685.78	424.28
686.12	421.99
686.45	419.70
686.79	417.39
687.13	415.16
687.46	412.99
687.80	410.73
688.14	408.49
688.48	406.42
688.81	404.22
689.15	402.07
689.49	399.87
689.82	397.81
690.16	395.72
690.50	393.73
690.83	391.76
691.17	389.78
691.51	387.81
691.84	386.00
692.18	384.04
692.52	382.03
692.85	380.09
693.19	378.17
693.52	376.34
693.86	374.51
694.20	372.72
694.53	370.87
694.87	369.02
695.21	367.20
695.54	365.30
695.88	363.48
696.21	361.74
696.55	360.02
696.88	358.32
697.22	356.64
697.56	354.94
697.89	353.28
698.23	351.66
698.56	350.02
698.90	348.43
699.23	346.80
699.57	345.25
699.90	343.68
700.24	342.11
700.58	340.58
700.91	339.09
701.25	337.64
701.58	336.24
701.92	334.88
702.25	333.51
702.59	332.19
702.92	330.90
703.26	329.57
703.59	328.26
703.93	327.05
704.26	325.83
704.60	324.56
704.93	323.26
705.26	321.98
705.60	320.78
705.93	319.57
706.27	318.50
706.60	317.44
706.94	316.34
707.27	315.19
707.61	314.05
707.94	312.94
708.27	311.84
708.61	310.72
708.94	309.67
709.28	308.64
709.61	307.61
709.94	306.58
710.28	305.53
710.61	304.55
710.95	303.41
711.28	302.46
711.61	301.51
711.95	300.59
712.28	299.64
712.61	298.63
712.95	297.67
713.28	296.76
713.61	295.82
713.95	294.90
714.28	294.05
714.61	293.15
714.95	292.30
715.28	291.42
715.61	290.51
715.95	289.62
716.28	288.72
716.61	287.84
716.95	287.01
717.28	286.20
717.61	285.41
717.94	284.69
718.28	283.82
718.61	283.02
718.94	282.29
719.27	281.63
719.61	280.97
719.94	280.24
720.27	279.49
720.60	278.79
720.94	278.13
721.27	277.51
721.60	276.98
721.93	276.37
722.27	275.83
722.60	275.31
722.93	274.73
723.26	274.22
723.59	273.64
723.93	273.10
724.26	272.57
724.59	271.98
724.92	271.41
725.25	270.92
725.59	270.41
725.92	269.89
726.25	269.33
726.58	268.79
726.91	268.32
727.24	267.83
727.57	267.35
727.91	266.83
728.24	266.33
728.57	265.77
728.90	265.33
729.23	264.79
729.56	264.36
729.89	263.93
730.22	263.43
730.55	262.98
730.89	262.54
731.22	262.11
731.55	261.68
731.88	261.24
732.21	260.81
732.54	260.35
732.87	259.95
733.20	259.57
733.53	259.19
733.86	258.80
734.19	258.41
734.52	258.03
734.85	257.74
735.18	257.34
735.51	257.05
735.84	256.64
736.17	256.30
736.50	255.89
736.83	255.64
737.16	255.31
737.49	254.99
737.82	254.64
738.15	254.32
738.48	254.00
738.81	253.71
739.14	253.41
739.47	253.11
739.80	252.79
740.13	252.48
740.46	252.18
740.79	251.86
741.12	251.55
741.45	251.23
741.78	250.86
742.11	250.57
742.44	250.18
742.77	249.91
743.10	249.60
743.43	249.30
743.75	248.87
744.08	248.72
744.41	248.42
744.74	248.14
745.07	247.87
745.40	247.63
745.73	247.39
746.06	247.06
746.39	246.80
746.71	246.50
747.04	246.22
747.37	245.95
747.70	245.72
748.03	245.46
748.36	245.23
748.68	245.00
749.01	244.73
749.34	244.51
749.67	244.29
750.00	244.07
750.33	243.92
750.65	243.72
750.98	243.35
751.31	243.10
751.64	242.89
751.97	242.68
752.29	242.39
752.62	242.10
752.95	241.90
753.28	241.65
753.60	241.46
753.93	241.29
754.26	241.07
754.59	240.84
754.91	240.64
755.24	240.41
755.57	240.20
755.90	240.03
756.22	239.85
756.55	239.60
756.88	239.39
757.20	239.13
757.53	238.97
757.86	238.82
758.19	238.66
758.51	238.47
758.84	238.25
759.17	238.12
759.49	237.96
759.82	237.82
760.15	237.69
760.47	237.51
760.80	237.32
761.13	237.21
761.45	237.03
761.78	236.86
762.11	236.75
762.43	236.61
762.76	236.46
763.08	236.34
763.41	236.25
763.74	236.12
764.06	235.99
764.39	235.82
764.71	235.66
765.04	235.50
765.37	235.36
765.69	235.20
766.02	235.03
766.34	234.88
766.67	234.71
767.00	234.60
767.32	234.50
767.65	234.46
767.97	234.33
768.30	234.24
768.62	234.17
768.95	234.00
769.27	233.90
769.60	233.79
769.92	233.64
770.25	233.52
770.57	233.39
770.90	233.30
771.22	233.15
771.55	233.06
771.87	232.96
772.20	232.87
772.52	232.90
772.85	232.98
773.17	232.92
773.50	232.84
773.82	232.75
774.15	232.64
774.47	232.46
774.80	232.38
775.12	232.31
775.45	232.22
775.77	232.17
776.09	232.08
776.42	232.01
776.74	231.97
777.07	231.90
777.39	231.81
777.72	231.69
778.04	231.67
778.36	231.60
778.69	231.58
779.01	231.52
779.33	231.35
779.66	231.14
779.98	231.08
780.31	231.03
780.63	230.98
780.95	230.95
781.28	230.88
781.60	230.77
781.92	230.68
782.25	230.60
782.57	230.57
782.89	230.53
783.22	230.46
783.54	230.36
783.86	230.26
784.19	230.24
784.51	230.22
784.83	230.14
785.16	230.09
785.48	230.03
785.80	229.99
786.12	229.97
786.45	229.96
786.77	229.91
787.09	229.85
