SpectraSuite Data File
++++++++++++++++++++++++++++++++++++
Date: Fri Feb 01 17:21:27 EST 2013
User: group
Dark Spectrum Present: No
Reference Spectrum Present: No
Number of Sampled Component Spectra: 1
Spectrometers: USB2E7196
Integration Time (usec): 35000 (USB2E7196)
Spectra Averaged: 100 (USB2E7196)
Boxcar Smoothing: 10 (USB2E7196)
Correct for Electrical Dark: No (USB2E7196)
Strobe/Lamp Enabled: No (USB2E7196)
Correct for Detector Non-linearity: No (USB2E7196)
Correct for Stray Light: No (USB2E7196)
Number of Pixels in Processed Spectrum: 2048
>>>>>Begin Processed Spectral Data<<<<<
339.09	0.00
339.48	212.93
339.86	214.44
340.24	215.98
340.63	216.56
341.01	220.50
341.39	219.71
341.78	221.38
342.16	222.06
342.54	223.26
342.93	211.31
343.31	221.95
343.69	222.49
344.07	222.93
344.46	223.35
344.84	223.75
345.22	223.96
345.60	224.22
345.99	224.39
346.37	224.50
346.75	224.58
347.13	224.64
347.52	224.66
347.90	224.75
348.28	224.81
348.66	224.81
349.05	224.81
349.43	224.84
349.81	224.87
350.19	224.91
350.57	224.95
350.96	225.06
351.34	225.14
351.72	225.21
352.10	225.32
352.48	225.36
352.87	225.37
353.25	225.43
353.63	225.44
354.01	225.51
354.39	225.64
354.77	225.67
355.15	225.76
355.54	225.83
355.92	225.86
356.30	225.89
356.68	226.05
357.06	226.12
357.44	226.17
357.82	226.22
358.20	226.29
358.58	226.34
358.97	226.39
359.35	226.50
359.73	226.56
360.11	226.59
360.49	226.68
360.87	226.80
361.25	226.88
361.63	227.00
362.01	227.04
362.39	227.06
362.77	227.15
363.15	227.17
363.53	227.21
363.91	227.26
364.29	227.35
364.67	227.29
365.05	227.32
365.43	227.35
365.81	227.42
366.19	227.47
366.57	227.57
366.95	227.58
367.33	227.57
367.71	227.60
368.09	227.62
368.47	227.60
368.85	227.56
369.23	227.56
369.61	227.49
369.99	227.51
370.37	227.52
370.75	227.51
371.13	227.50
371.51	227.48
371.89	227.44
372.27	227.38
372.65	227.32
373.03	227.30
373.41	227.26
373.78	227.22
374.16	227.12
374.54	226.98
374.92	226.93
375.30	226.88
375.68	226.81
376.06	226.76
376.44	226.72
376.82	226.66
377.19	226.58
377.57	226.53
377.95	226.43
378.33	226.35
378.71	226.23
379.09	226.17
379.47	226.11
379.84	226.04
380.22	225.97
380.60	225.91
380.98	225.85
381.36	225.78
381.73	225.68
382.11	225.67
382.49	225.63
382.87	225.55
383.25	225.51
383.62	225.59
384.00	225.54
384.38	225.49
384.76	225.47
385.13	225.46
385.51	225.43
385.89	225.36
386.27	225.32
386.64	225.29
387.02	225.27
387.40	225.19
387.78	225.15
388.15	225.13
388.53	225.09
388.91	225.05
389.29	225.02
389.66	225.04
390.04	224.98
390.42	224.99
390.79	224.97
391.17	224.93
391.55	224.77
391.92	224.77
392.30	224.73
392.68	224.71
393.05	224.68
393.43	224.66
393.81	224.68
394.18	224.69
394.56	224.70
394.94	224.73
395.31	224.73
395.69	224.79
396.06	224.84
396.44	224.85
396.82	224.86
397.19	224.94
397.57	224.92
397.95	224.96
398.32	224.94
398.70	225.01
399.07	225.08
399.45	225.14
399.82	225.15
400.20	225.23
400.58	225.28
400.95	225.31
401.33	225.40
401.70	225.56
402.08	225.64
402.45	225.70
402.83	225.77
403.20	225.92
403.58	226.01
403.95	226.07
404.33	226.21
404.71	226.36
405.08	226.51
405.46	226.67
405.83	226.80
406.21	226.96
406.58	227.12
406.96	227.26
407.33	227.42
407.70	227.63
408.08	227.88
408.45	228.10
408.83	228.33
409.20	228.54
409.58	228.73
409.95	229.02
410.33	229.30
410.70	229.56
411.08	229.83
411.45	230.11
411.82	230.44
412.20	230.79
412.57	231.19
412.95	231.49
413.32	231.90
413.69	232.34
414.07	232.81
414.44	233.27
414.82	233.77
415.19	234.35
415.56	234.90
415.94	235.43
416.31	236.08
416.68	236.73
417.06	237.47
417.43	238.14
417.81	238.89
418.18	239.67
418.55	240.57
418.93	241.47
419.30	242.39
419.67	243.36
420.04	244.36
420.42	245.39
420.79	246.60
421.16	247.77
421.54	249.00
421.91	250.24
422.28	251.54
422.66	252.89
423.03	254.25
423.40	255.64
423.77	257.12
424.15	258.58
424.52	260.10
424.89	261.79
425.26	263.41
425.64	264.88
426.01	266.57
426.38	268.26
426.75	270.01
427.13	271.80
427.50	273.68
427.87	275.64
428.24	277.55
428.61	279.37
428.99	281.42
429.36	283.57
429.73	285.70
430.10	287.79
430.47	289.94
430.85	292.13
431.22	294.41
431.59	296.90
431.96	299.26
432.33	301.82
432.70	304.29
433.08	307.15
433.45	309.89
433.82	312.56
434.19	315.56
434.56	318.43
434.93	321.22
435.30	323.93
435.68	326.89
436.05	329.80
436.42	332.67
436.79	335.26
437.16	338.07
437.53	341.04
437.90	343.95
438.27	346.77
438.64	349.71
439.01	352.41
439.38	354.71
439.75	356.96
440.13	359.61
440.50	362.02
440.87	363.96
441.24	365.99
441.61	368.22
441.98	369.73
442.35	371.61
442.72	373.50
443.09	375.38
443.46	376.40
443.83	377.01
444.20	377.57
444.57	378.41
444.94	378.70
445.31	379.07
445.68	379.46
446.05	379.55
446.42	379.16
446.79	378.78
447.16	378.28
447.53	377.92
447.90	376.69
448.27	375.50
448.64	373.90
449.01	372.75
449.37	370.72
449.74	368.80
450.11	366.51
450.48	363.94
450.85	361.33
451.22	359.16
451.59	357.07
451.96	355.09
452.33	352.45
452.70	350.07
453.07	347.10
453.43	344.10
453.80	341.22
454.17	338.48
454.54	335.82
454.91	333.04
455.28	330.31
455.65	327.74
456.02	325.20
456.38	322.94
456.75	320.18
457.12	317.86
457.49	315.56
457.86	313.34
458.23	311.43
458.59	309.31
458.96	307.12
459.33	305.22
459.70	303.25
460.07	301.68
460.43	299.90
460.80	298.25
461.17	296.73
461.54	295.19
461.91	293.68
462.27	292.17
462.64	290.85
463.01	289.41
463.38	288.05
463.74	286.65
464.11	285.43
464.48	284.37
464.85	283.26
465.21	282.34
465.58	281.35
465.95	280.25
466.32	279.33
466.68	278.39
467.05	277.49
467.42	276.58
467.78	275.64
468.15	274.71
468.52	274.02
468.88	273.18
469.25	272.37
469.62	271.76
469.98	271.11
470.35	270.50
470.72	269.89
471.08	269.21
471.45	268.62
471.82	268.10
472.18	267.47
472.55	267.03
472.92	266.49
473.28	265.99
473.65	265.52
474.02	265.06
474.38	264.73
474.75	264.39
475.11	264.03
475.48	263.74
475.85	263.54
476.21	263.30
476.58	263.07
476.94	262.91
477.31	262.70
477.67	262.48
478.04	262.39
478.41	262.35
478.77	262.38
479.14	262.35
479.50	262.34
479.87	262.40
480.23	262.46
480.60	262.53
480.96	262.67
481.33	262.88
481.69	263.06
482.06	263.21
482.42	263.41
482.79	263.70
483.15	264.01
483.52	264.37
483.88	264.75
484.25	265.14
484.61	265.63
484.98	266.08
485.34	266.70
485.71	267.25
486.07	267.87
486.44	268.44
486.80	269.13
487.17	269.93
487.53	270.72
487.90	271.55
488.26	272.50
488.62	273.45
488.99	274.39
489.35	275.45
489.72	276.63
490.08	277.82
490.44	279.03
490.81	280.34
491.17	281.71
491.54	283.14
491.90	284.68
492.26	286.30
492.63	288.02
492.99	289.76
493.36	291.64
493.72	293.67
494.08	295.81
494.45	298.04
494.81	300.35
495.17	302.79
495.54	305.37
495.90	308.03
496.26	310.84
496.63	313.79
496.99	316.85
497.35	320.02
497.72	323.41
498.08	326.89
498.44	330.57
498.80	334.48
499.17	338.51
499.53	342.65
499.89	346.96
500.26	351.44
500.62	356.06
500.98	360.97
501.34	365.98
501.71	371.27
502.07	376.65
502.43	382.16
502.79	387.89
503.16	393.88
503.52	400.08
503.88	406.41
504.24	412.99
504.60	419.82
504.97	426.91
505.33	434.12
505.69	441.75
506.05	449.47
506.41	457.21
506.78	465.20
507.14	473.54
507.50	482.12
507.86	491.00
508.22	500.07
508.59	509.18
508.95	518.63
509.31	528.31
509.67	538.23
510.03	548.37
510.39	558.79
510.75	569.31
511.12	580.01
511.48	591.10
511.84	602.42
512.20	613.76
512.56	625.49
512.92	637.43
513.28	649.54
513.64	661.68
514.00	674.12
514.37	686.86
514.73	699.65
515.09	712.42
515.45	725.41
515.81	738.69
516.17	752.34
516.53	766.21
516.89	780.03
517.25	793.92
517.61	807.98
517.97	822.10
518.33	836.23
518.69	850.75
519.05	865.39
519.41	880.06
519.77	895.14
520.13	910.19
520.49	925.28
520.85	940.28
521.21	955.57
521.57	971.41
521.93	986.75
522.29	1002.72
522.65	1018.59
523.01	1034.44
523.37	1050.16
523.73	1065.92
524.09	1081.59
524.45	1097.49
524.81	1113.79
525.17	1130.25
525.53	1146.78
525.89	1163.35
526.25	1179.84
526.61	1195.80
526.97	1212.29
527.33	1228.42
527.68	1244.67
528.04	1260.74
528.40	1276.89
528.76	1293.68
529.12	1309.89
529.48	1326.46
529.84	1342.11
530.20	1358.37
530.56	1374.98
530.91	1391.98
531.27	1408.50
531.63	1424.58
531.99	1440.82
532.35	1456.40
532.71	1471.99
533.07	1487.91
533.42	1503.61
533.78	1519.28
534.14	1535.15
534.50	1550.09
534.86	1565.66
535.21	1580.54
535.57	1596.23
535.93	1611.42
536.29	1625.99
536.65	1640.83
537.00	1655.22
537.36	1670.29
537.72	1684.59
538.08	1698.84
538.44	1712.41
538.79	1726.11
539.15	1739.58
539.51	1753.09
539.87	1767.39
540.22	1780.99
540.58	1794.55
540.94	1807.54
541.29	1820.04
541.65	1832.70
542.01	1845.86
542.37	1858.13
542.72	1870.40
543.08	1882.03
543.44	1894.45
543.79	1905.65
544.15	1916.61
544.51	1928.31
544.87	1939.24
545.22	1950.28
545.58	1960.41
545.94	1970.32
546.29	1980.16
546.65	1990.15
547.01	1999.64
547.36	2008.36
547.72	2016.93
548.07	2025.11
548.43	2033.42
548.79	2041.48
549.14	2049.22
549.50	2056.60
549.86	2064.37
550.21	2071.97
550.57	2079.27
550.92	2086.13
551.28	2093.27
551.64	2100.62
551.99	2107.17
552.35	2113.59
552.70	2119.80
553.06	2126.10
553.41	2132.49
553.77	2138.72
554.13	2144.95
554.48	2151.13
554.84	2156.89
555.19	2162.37
555.55	2167.58
555.90	2172.29
556.26	2177.80
556.61	2182.83
556.97	2187.60
557.32	2191.95
557.68	2196.44
558.03	2201.14
558.39	2204.93
558.74	2209.92
559.10	2213.93
559.45	2217.96
559.81	2222.37
560.16	2226.44
560.52	2230.02
560.87	2233.73
561.23	2236.72
561.58	2239.76
561.94	2242.66
562.29	2245.12
562.64	2248.22
563.00	2251.10
563.35	2255.00
563.71	2258.47
564.06	2261.82
564.42	2265.00
564.77	2268.12
565.12	2270.76
565.48	2272.98
565.83	2275.39
566.19	2277.15
566.54	2278.41
566.89	2280.03
567.25	2281.20
567.60	2282.90
567.96	2284.88
568.31	2286.16
568.66	2287.64
569.02	2288.73
569.37	2289.53
569.72	2290.99
570.08	2291.53
570.43	2291.98
570.78	2291.81
571.14	2290.50
571.49	2289.59
571.84	2289.51
572.20	2288.70
572.55	2287.95
572.90	2286.62
573.26	2285.60
573.61	2283.96
573.96	2282.79
574.31	2280.15
574.67	2277.43
575.02	2274.16
575.37	2271.01
575.72	2267.65
576.08	2264.45
576.43	2261.23
576.78	2257.95
577.13	2254.88
577.49	2251.81
577.84	2248.61
578.19	2245.02
578.54	2241.84
578.90	2238.04
579.25	2232.83
579.60	2228.09
579.95	2223.44
580.30	2218.69
580.66	2213.78
581.01	2209.14
581.36	2204.25
581.71	2200.43
582.06	2196.27
582.42	2192.14
582.77	2187.37
583.12	2183.07
583.47	2178.90
583.82	2174.51
584.17	2169.39
584.53	2164.21
584.88	2159.05
585.23	2153.74
585.58	2148.60
585.93	2143.37
586.28	2138.55
586.63	2133.86
586.98	2128.99
587.34	2124.43
587.69	2119.86
588.04	2114.86
588.39	2109.50
588.74	2103.40
589.09	2097.42
589.44	2090.90
589.79	2084.81
590.14	2079.36
590.49	2072.98
590.84	2066.60
591.19	2060.80
591.54	2054.65
591.89	2047.89
592.25	2041.44
592.60	2034.35
592.95	2027.07
593.30	2019.90
593.65	2012.55
594.00	2005.45
594.35	1998.39
594.70	1990.30
595.05	1983.43
595.40	1976.17
595.75	1968.80
596.10	1962.79
596.45	1956.27
596.80	1950.37
597.15	1944.04
597.50	1937.23
597.85	1930.78
598.19	1924.33
598.54	1917.42
598.89	1910.84
599.24	1904.74
599.59	1898.27
599.94	1892.12
600.29	1885.72
600.64	1879.00
600.99	1871.66
601.34	1865.04
601.69	1858.10
602.04	1851.59
602.39	1844.17
602.74	1837.61
603.08	1831.01
603.43	1824.33
603.78	1817.07
604.13	1809.81
604.48	1802.75
604.83	1795.89
605.18	1789.24
605.53	1781.40
605.87	1773.31
606.22	1766.03
606.57	1757.90
606.92	1750.28
607.27	1743.24
607.62	1736.47
607.96	1729.54
608.31	1723.25
608.66	1715.70
609.01	1708.30
609.36	1700.80
609.70	1692.78
610.05	1684.66
610.40	1676.98
610.75	1668.56
611.10	1660.85
611.44	1652.27
611.79	1644.04
612.14	1635.25
612.49	1625.88
612.83	1617.39
613.18	1609.16
613.53	1601.05
613.88	1592.62
614.22	1584.35
614.57	1575.47
614.92	1567.29
615.27	1559.67
615.61	1551.24
615.96	1543.12
616.31	1535.18
616.65	1527.52
617.00	1519.88
617.35	1512.01
617.70	1503.67
618.04	1495.10
618.39	1486.67
618.74	1479.15
619.08	1470.68
619.43	1463.03
619.78	1455.94
620.12	1448.66
620.47	1441.09
620.82	1432.75
621.16	1425.22
621.51	1417.41
621.85	1409.69
622.20	1401.10
622.55	1392.51
622.89	1384.45
623.24	1376.60
623.59	1369.19
623.93	1361.63
624.28	1354.29
624.62	1346.92
624.97	1339.55
625.32	1332.63
625.66	1325.51
626.01	1318.22
626.35	1310.81
626.70	1302.83
627.04	1295.15
627.39	1287.31
627.73	1279.78
628.08	1272.82
628.43	1265.53
628.77	1258.29
629.12	1250.81
629.46	1243.64
629.81	1236.02
630.15	1228.78
630.50	1221.37
630.84	1213.23
631.19	1205.18
631.53	1197.56
631.88	1189.76
632.22	1182.12
632.57	1174.77
632.91	1167.15
633.26	1159.67
633.60	1152.24
633.95	1145.10
634.29	1137.85
634.64	1131.03
634.98	1123.66
635.32	1116.42
635.67	1109.56
636.01	1102.77
636.36	1095.95
636.70	1089.31
637.05	1082.76
637.39	1076.19
637.73	1069.69
638.08	1063.59
638.42	1057.56
638.77	1051.14
639.11	1044.52
639.45	1038.08
639.80	1031.34
640.14	1025.02
640.49	1018.55
640.83	1012.21
641.17	1006.04
641.52	999.78
641.86	993.23
642.20	987.33
642.55	980.82
642.89	974.55
643.23	967.97
643.58	962.06
643.92	955.87
644.26	949.92
644.61	943.80
644.95	937.71
645.29	931.15
645.64	924.44
645.98	918.04
646.32	911.98
646.66	905.90
647.01	900.05
647.35	894.28
647.69	888.23
648.04	882.62
648.38	876.83
648.72	870.83
649.06	864.87
649.41	858.82
649.75	852.94
650.09	846.98
650.43	841.05
650.78	834.95
651.12	828.94
651.46	823.12
651.80	817.50
652.14	812.02
652.49	806.69
652.83	801.49
653.17	795.85
653.51	790.23
653.85	784.77
654.20	779.17
654.54	773.12
654.88	767.38
655.22	761.43
655.56	755.58
655.90	750.03
656.25	744.77
656.59	739.46
656.93	734.48
657.27	729.22
657.61	723.81
657.95	718.61
658.29	713.44
658.64	708.07
658.98	702.53
659.32	697.09
659.66	691.83
660.00	686.52
660.34	681.46
660.68	676.49
661.02	671.42
661.36	666.64
661.70	662.06
662.05	657.67
662.39	653.33
662.73	648.88
663.07	644.51
663.41	639.95
663.75	635.42
664.09	630.77
664.43	626.31
664.77	622.17
665.11	617.92
665.45	613.76
665.79	609.71
666.13	605.67
666.47	601.46
666.81	597.26
667.15	593.06
667.49	589.15
667.83	585.28
668.17	581.37
668.51	577.30
668.85	573.27
669.19	569.34
669.53	565.48
669.87	561.64
670.21	557.82
670.55	554.13
670.89	550.64
671.23	547.19
671.57	543.65
671.91	540.11
672.25	536.50
672.58	533.05
672.92	529.55
673.26	526.30
673.60	523.17
673.94	520.06
674.28	517.11
674.62	514.19
674.96	511.13
675.30	508.20
675.64	505.33
675.97	502.52
676.31	499.66
676.65	496.75
676.99	494.00
677.33	491.19
677.67	488.39
678.01	485.44
678.34	482.45
678.68	479.60
679.02	476.73
679.36	473.95
679.70	471.12
680.04	468.36
680.37	465.52
680.71	462.66
681.05	459.96
681.39	457.19
681.73	454.48
682.06	451.89
682.40	449.31
682.74	446.72
683.08	444.16
683.42	441.57
683.75	439.03
684.09	436.44
684.43	434.00
684.77	431.52
685.10	429.14
685.44	426.77
685.78	424.43
686.12	422.13
686.45	419.83
686.79	417.57
687.13	415.39
687.46	413.19
687.80	411.02
688.14	408.82
688.48	406.79
688.81	404.58
689.15	402.39
689.49	400.20
689.82	398.06
690.16	395.92
690.50	393.90
690.83	391.95
691.17	389.94
691.51	387.94
691.84	386.06
692.18	384.11
692.52	382.21
692.85	380.25
693.19	378.40
693.52	376.56
693.86	374.66
694.20	372.81
694.53	370.99
694.87	369.13
695.21	367.32
695.54	365.42
695.88	363.59
696.21	361.86
696.55	360.16
696.88	358.40
697.22	356.67
697.56	354.97
697.89	353.24
698.23	351.61
698.56	349.96
698.90	348.38
699.23	346.72
699.57	345.09
699.90	343.50
700.24	341.89
700.58	340.29
700.91	338.81
701.25	337.34
701.58	335.98
701.92	334.60
702.25	333.18
702.59	331.79
702.92	330.50
703.26	329.12
703.59	327.77
703.93	326.61
704.26	325.40
704.60	324.13
704.93	322.89
705.26	321.61
705.60	320.36
705.93	319.11
706.27	318.01
706.60	316.92
706.94	315.81
707.27	314.65
707.61	313.54
707.94	312.48
708.27	311.38
708.61	310.24
708.94	309.20
709.28	308.13
709.61	307.20
709.94	306.20
710.28	305.17
710.61	304.21
710.95	303.07
711.28	302.13
711.61	301.16
711.95	300.23
712.28	299.29
712.61	298.35
712.95	297.45
713.28	296.52
713.61	295.60
713.95	294.68
714.28	293.85
714.61	293.01
714.95	292.14
715.28	291.27
715.61	290.34
715.95	289.47
716.28	288.65
716.61	287.74
716.95	286.90
717.28	286.14
717.61	285.34
717.94	284.62
718.28	283.76
718.61	283.02
718.94	282.28
719.27	281.62
719.61	280.91
719.94	280.21
720.27	279.49
720.60	278.82
720.94	278.23
721.27	277.65
721.60	277.03
721.93	276.42
722.27	275.88
722.60	275.35
722.93	274.78
723.26	274.24
723.59	273.69
723.93	273.14
724.26	272.58
724.59	272.03
724.92	271.49
725.25	271.00
725.59	270.42
725.92	269.92
726.25	269.40
726.58	268.90
726.91	268.39
727.24	267.94
727.57	267.49
727.91	266.97
728.24	266.48
728.57	265.97
728.90	265.54
729.23	265.06
729.56	264.64
729.89	264.16
730.22	263.65
730.55	263.19
730.89	262.75
731.22	262.31
731.55	261.88
731.88	261.51
732.21	261.05
732.54	260.66
732.87	260.29
733.20	259.86
733.53	259.47
733.86	259.11
734.19	258.71
734.52	258.31
734.85	257.96
735.18	257.53
735.51	257.19
735.84	256.83
736.17	256.44
736.50	256.03
736.83	255.80
737.16	255.49
737.49	255.18
737.82	254.81
738.15	254.45
738.48	254.09
738.81	253.72
739.14	253.39
739.47	253.07
739.80	252.71
740.13	252.40
740.46	252.08
740.79	251.72
741.12	251.40
741.45	251.07
741.78	250.72
742.11	250.44
742.44	250.12
742.77	249.76
743.10	249.44
743.43	249.14
743.75	248.73
744.08	248.52
744.41	248.18
744.74	247.91
745.07	247.64
745.40	247.36
745.73	247.08
746.06	246.81
746.39	246.56
746.71	246.21
747.04	245.92
747.37	245.67
747.70	245.45
748.03	245.18
748.36	244.92
748.68	244.68
749.01	244.42
749.34	244.20
749.67	243.96
750.00	243.72
750.33	243.57
750.65	243.34
750.98	243.02
751.31	242.83
751.64	242.58
751.97	242.41
752.29	242.18
752.62	241.95
752.95	241.74
753.28	241.50
753.60	241.31
753.93	241.12
754.26	240.88
754.59	240.66
754.91	240.45
755.24	240.24
755.57	240.03
755.90	239.82
756.22	239.58
756.55	239.37
756.88	239.17
757.20	238.91
757.53	238.69
757.86	238.51
758.19	238.35
758.51	238.20
758.84	237.98
759.17	237.84
759.49	237.69
759.82	237.56
760.15	237.42
760.47	237.29
760.80	237.13
761.13	237.04
761.45	236.88
761.78	236.72
762.11	236.62
762.43	236.50
762.76	236.37
763.08	236.26
763.41	236.16
763.74	236.03
764.06	235.91
764.39	235.79
764.71	235.64
765.04	235.45
765.37	235.33
765.69	235.19
766.02	235.05
766.34	234.91
766.67	234.79
767.00	234.70
767.32	234.64
767.65	234.62
767.97	234.50
768.30	234.42
768.62	234.30
768.95	234.18
769.27	234.07
769.60	234.00
769.92	233.87
770.25	233.76
770.57	233.64
770.90	233.54
771.22	233.45
771.55	233.37
771.87	233.31
772.20	233.21
772.52	233.25
772.85	233.27
773.17	233.16
773.50	233.05
773.82	232.97
774.15	232.85
774.47	232.70
774.80	232.59
775.12	232.49
775.45	232.41
775.77	232.34
776.09	232.28
776.42	232.20
776.74	232.16
777.07	232.07
777.39	232.02
777.72	231.92
778.04	231.87
778.36	231.80
778.69	231.73
779.01	231.66
779.33	231.49
779.66	231.29
779.98	231.26
780.31	231.20
780.63	231.18
780.95	231.11
781.28	231.01
781.60	230.92
781.92	230.84
782.25	230.80
782.57	230.70
782.89	230.61
783.22	230.52
783.54	230.42
783.86	230.38
784.19	230.32
784.51	230.29
784.83	230.23
785.16	230.18
785.48	230.09
785.80	230.03
786.12	229.97
786.45	229.95
786.77	229.87
787.09	229.78
