SpectraSuite Data File
++++++++++++++++++++++++++++++++++++
Date: Fri Feb 01 15:07:27 EST 2013
User: group
Dark Spectrum Present: No
Reference Spectrum Present: No
Number of Sampled Component Spectra: 1
Spectrometers: USB2E7196
Integration Time (usec): 35000 (USB2E7196)
Spectra Averaged: 100 (USB2E7196)
Boxcar Smoothing: 10 (USB2E7196)
Correct for Electrical Dark: No (USB2E7196)
Strobe/Lamp Enabled: No (USB2E7196)
Correct for Detector Non-linearity: No (USB2E7196)
Correct for Stray Light: No (USB2E7196)
Number of Pixels in Processed Spectrum: 2048
>>>>>Begin Processed Spectral Data<<<<<
339.09	0.00
339.48	215.19
339.86	216.62
340.24	218.47
340.63	219.74
341.01	222.22
341.39	221.80
341.78	223.54
342.16	224.26
342.54	225.15
342.93	213.52
343.31	224.34
343.69	224.89
344.07	225.37
344.46	225.78
344.84	226.13
345.22	226.38
345.60	226.63
345.99	226.82
346.37	226.96
346.75	227.07
347.13	227.14
347.52	227.23
347.90	227.32
348.28	227.34
348.66	227.37
349.05	227.37
349.43	227.38
349.81	227.43
350.19	227.47
350.57	227.53
350.96	227.59
351.34	227.65
351.72	227.71
352.10	227.78
352.48	227.85
352.87	227.93
353.25	227.98
353.63	228.04
354.01	228.12
354.39	228.19
354.77	228.27
355.15	228.36
355.54	228.40
355.92	228.44
356.30	228.52
356.68	228.72
357.06	228.79
357.44	228.84
357.82	228.91
358.20	229.01
358.58	229.06
358.97	229.13
359.35	229.20
359.73	229.30
360.11	229.35
360.49	229.41
360.87	229.44
361.25	229.48
361.63	229.60
362.01	229.61
362.39	229.66
362.77	229.66
363.15	229.68
363.53	229.70
363.91	229.71
364.29	229.73
364.67	229.60
365.05	229.61
365.43	229.64
365.81	229.63
366.19	229.65
366.57	229.72
366.95	229.74
367.33	229.71
367.71	229.70
368.09	229.70
368.47	229.66
368.85	229.62
369.23	229.60
369.61	229.55
369.99	229.55
370.37	229.51
370.75	229.55
371.13	229.51
371.51	229.46
371.89	229.45
372.27	229.40
372.65	229.36
373.03	229.30
373.41	229.24
373.78	229.19
374.16	229.11
374.54	229.02
374.92	228.90
375.30	228.84
375.68	228.72
376.06	228.65
376.44	228.61
376.82	228.54
377.19	228.47
377.57	228.35
377.95	228.25
378.33	228.18
378.71	228.05
379.09	227.97
379.47	227.91
379.84	227.78
380.22	227.70
380.60	227.60
380.98	227.53
381.36	227.48
381.73	227.36
382.11	227.28
382.49	227.20
382.87	227.14
383.25	227.08
383.62	227.15
384.00	227.06
384.38	226.97
384.76	226.96
385.13	226.94
385.51	226.86
385.89	226.79
386.27	226.73
386.64	226.67
387.02	226.62
387.40	226.56
387.78	226.51
388.15	226.46
388.53	226.43
388.91	226.39
389.29	226.33
389.66	226.34
390.04	226.30
390.42	226.30
390.79	226.31
391.17	226.32
391.55	226.20
391.92	226.18
392.30	226.19
392.68	226.18
393.05	226.19
393.43	226.22
393.81	226.23
394.18	226.24
394.56	226.28
394.94	226.34
395.31	226.35
395.69	226.44
396.06	226.52
396.44	226.56
396.82	226.59
397.19	226.68
397.57	226.75
397.95	226.79
398.32	226.83
398.70	226.91
399.07	226.98
399.45	227.06
399.82	227.20
400.20	227.27
400.58	227.36
400.95	227.41
401.33	227.54
401.70	227.75
402.08	227.86
402.45	228.02
402.83	228.12
403.20	228.25
403.58	228.38
403.95	228.50
404.33	228.68
404.71	228.81
405.08	229.01
405.46	229.10
405.83	229.26
406.21	229.43
406.58	229.53
406.96	229.71
407.33	229.90
407.70	230.08
408.08	230.37
408.45	230.60
408.83	230.86
409.20	231.06
409.58	231.21
409.95	231.45
410.33	231.68
410.70	231.95
411.08	232.27
411.45	232.56
411.82	232.85
412.20	233.21
412.57	233.64
412.95	233.91
413.32	234.37
413.69	234.80
414.07	235.22
414.44	235.76
414.82	236.21
415.19	236.78
415.56	237.33
415.94	237.85
416.31	238.48
416.68	239.06
417.06	239.79
417.43	240.51
417.81	241.33
418.18	242.13
418.55	242.94
418.93	243.80
419.30	244.68
419.67	245.65
420.04	246.60
420.42	247.57
420.79	248.78
421.16	249.91
421.54	251.13
421.91	252.36
422.28	253.60
422.66	254.92
423.03	256.20
423.40	257.52
423.77	258.93
424.15	260.32
424.52	261.83
424.89	263.41
425.26	264.96
425.64	266.36
426.01	267.93
426.38	269.59
426.75	271.25
427.13	272.99
427.50	274.79
427.87	276.66
428.24	278.55
428.61	280.25
428.99	282.18
429.36	284.28
429.73	286.34
430.10	288.36
430.47	290.42
430.85	292.53
431.22	294.80
431.59	297.18
431.96	299.47
432.33	301.93
432.70	304.36
433.08	307.16
433.45	309.79
433.82	312.40
434.19	315.29
434.56	318.11
434.93	320.77
435.30	323.42
435.68	326.34
436.05	329.19
436.42	332.05
436.79	334.59
437.16	337.24
437.53	340.10
437.90	342.91
438.27	345.66
438.64	348.50
439.01	351.09
439.38	353.33
439.75	355.47
440.13	358.02
440.50	360.33
440.87	362.14
441.24	364.12
441.61	366.27
441.98	367.80
442.35	369.60
442.72	371.50
443.09	373.25
443.46	374.23
443.83	374.79
444.20	375.25
444.57	376.11
444.94	376.41
445.31	376.75
445.68	377.10
446.05	377.20
446.42	376.85
446.79	376.46
447.16	376.00
447.53	375.69
447.90	374.49
448.27	373.33
448.64	371.77
449.01	370.65
449.37	368.70
449.74	366.76
450.11	364.52
450.48	361.98
450.85	359.50
451.22	357.35
451.59	355.34
451.96	353.41
452.33	350.77
452.70	348.42
453.07	345.60
453.43	342.71
453.80	339.93
454.17	337.23
454.54	334.66
454.91	331.92
455.28	329.27
455.65	326.80
456.02	324.35
456.38	322.21
456.75	319.56
457.12	317.30
457.49	315.13
457.86	312.96
458.23	311.14
458.59	309.07
458.96	306.98
459.33	305.10
459.70	303.23
460.07	301.74
460.43	300.01
460.80	298.36
461.17	296.92
461.54	295.43
461.91	293.99
462.27	292.53
462.64	291.29
463.01	289.94
463.38	288.63
463.74	287.24
464.11	286.08
464.48	285.01
464.85	283.89
465.21	282.99
465.58	282.05
465.95	280.94
466.32	280.00
466.68	279.06
467.05	278.18
467.42	277.27
467.78	276.31
468.15	275.41
468.52	274.72
468.88	273.83
469.25	273.05
469.62	272.39
469.98	271.71
470.35	271.05
470.72	270.42
471.08	269.76
471.45	269.19
471.82	268.63
472.18	268.04
472.55	267.61
472.92	267.06
473.28	266.57
473.65	266.09
474.02	265.63
474.38	265.27
474.75	264.93
475.11	264.58
475.48	264.32
475.85	264.10
476.21	263.83
476.58	263.62
476.94	263.46
477.31	263.26
477.67	263.10
478.04	262.92
478.41	262.83
478.77	262.85
479.14	262.79
479.50	262.76
479.87	262.80
480.23	262.86
480.60	262.88
480.96	262.95
481.33	263.15
481.69	263.34
482.06	263.53
482.42	263.71
482.79	263.98
483.15	264.33
483.52	264.67
483.88	265.02
484.25	265.44
484.61	265.85
484.98	266.33
485.34	266.91
485.71	267.55
486.07	268.16
486.44	268.72
486.80	269.42
487.17	270.17
487.53	270.97
487.90	271.79
488.26	272.76
488.62	273.78
488.99	274.75
489.35	275.78
489.72	276.88
490.08	278.03
490.44	279.25
490.81	280.55
491.17	281.86
491.54	283.38
491.90	284.88
492.26	286.54
492.63	288.27
492.99	290.01
493.36	291.92
493.72	293.97
494.08	296.09
494.45	298.34
494.81	300.67
495.17	303.09
495.54	305.66
495.90	308.34
496.26	311.12
496.63	314.11
496.99	317.23
497.35	320.50
497.72	323.91
498.08	327.41
498.44	331.09
498.80	335.03
499.17	339.08
499.53	343.27
499.89	347.66
500.26	352.19
500.62	356.89
500.98	361.81
501.34	366.86
501.71	372.18
502.07	377.64
502.43	383.28
502.79	389.09
503.16	395.15
503.52	401.45
503.88	407.87
504.24	414.43
504.60	421.31
504.97	428.39
505.33	435.71
505.69	443.36
506.05	451.11
506.41	458.98
506.78	467.08
507.14	475.48
507.50	484.24
507.86	493.20
508.22	502.31
508.59	511.48
508.95	521.06
509.31	530.83
509.67	540.91
510.03	551.09
510.39	561.68
510.75	572.51
511.12	583.44
511.48	594.70
511.84	606.19
512.20	617.73
512.56	629.73
512.92	641.86
513.28	654.15
513.64	666.56
514.00	679.27
514.37	692.24
514.73	705.34
515.09	718.34
515.45	731.73
515.81	745.32
516.17	759.33
516.53	773.48
516.89	787.75
517.25	801.90
517.61	816.40
517.97	830.84
518.33	845.31
518.69	860.06
519.05	875.13
519.41	890.34
519.77	905.89
520.13	921.33
520.49	936.77
520.85	952.27
521.21	968.13
521.57	984.31
521.93	1000.17
522.29	1016.57
522.65	1032.74
523.01	1049.02
523.37	1065.15
523.73	1081.35
524.09	1097.51
524.45	1113.92
524.81	1130.63
525.17	1147.54
525.53	1164.58
525.89	1181.44
526.25	1198.27
526.61	1214.77
526.97	1231.61
527.33	1248.09
527.68	1264.77
528.04	1281.33
528.40	1298.11
528.76	1315.20
529.12	1332.02
529.48	1348.89
529.84	1364.99
530.20	1381.77
530.56	1398.80
530.91	1416.34
531.27	1433.22
531.63	1449.69
531.99	1466.20
532.35	1482.29
532.71	1498.20
533.07	1514.55
533.42	1530.55
533.78	1546.68
534.14	1562.98
534.50	1578.25
534.86	1594.23
535.21	1609.60
535.57	1625.72
535.93	1641.29
536.29	1656.14
536.65	1671.20
537.00	1686.08
537.36	1701.45
537.72	1716.13
538.08	1730.60
538.44	1744.40
538.79	1758.43
539.15	1772.29
539.51	1786.20
539.87	1800.56
540.22	1814.44
540.58	1828.31
540.94	1841.83
541.29	1854.90
541.65	1867.55
542.01	1881.06
542.37	1893.40
542.72	1905.90
543.08	1917.63
543.44	1930.12
543.79	1941.46
544.15	1952.50
544.51	1964.14
544.87	1975.25
545.22	1986.03
545.58	1996.40
545.94	2006.27
546.29	2016.15
546.65	2025.85
547.01	2034.97
547.36	2043.84
547.72	2052.36
548.07	2060.21
548.43	2068.42
548.79	2076.56
549.14	2084.20
549.50	2091.58
549.86	2099.46
550.21	2106.67
550.57	2113.89
550.92	2120.37
551.28	2127.57
551.64	2134.80
551.99	2141.34
552.35	2147.50
552.70	2153.71
553.06	2159.63
553.41	2166.04
553.77	2172.08
554.13	2178.34
554.48	2184.52
554.84	2189.81
555.19	2195.17
555.55	2200.19
555.90	2204.57
556.26	2209.32
556.61	2214.13
556.97	2218.19
557.32	2222.29
557.68	2226.39
558.03	2230.71
558.39	2234.46
558.74	2238.91
559.10	2242.64
559.45	2246.28
559.81	2250.59
560.16	2254.39
560.52	2257.58
560.87	2260.95
561.23	2263.43
561.58	2266.36
561.94	2268.92
562.29	2271.31
562.64	2273.95
563.00	2276.62
563.35	2280.12
563.71	2283.18
564.06	2286.28
564.42	2289.02
564.77	2291.23
565.12	2293.30
565.48	2295.00
565.83	2296.75
566.19	2298.00
566.54	2298.96
566.89	2299.95
567.25	2300.29
567.60	2301.49
567.96	2302.98
568.31	2303.65
568.66	2304.72
569.02	2305.03
569.37	2305.23
569.72	2306.01
570.08	2305.84
570.43	2305.61
570.78	2304.77
571.14	2303.09
571.49	2301.63
571.84	2301.28
572.20	2300.01
572.55	2299.00
572.90	2297.37
573.26	2295.76
573.61	2293.95
573.96	2291.78
574.31	2288.63
574.67	2285.43
575.02	2281.65
575.37	2278.20
575.72	2274.09
576.08	2270.65
576.43	2267.28
576.78	2263.42
577.13	2260.01
577.49	2256.91
577.84	2253.30
578.19	2249.48
578.54	2245.68
578.90	2241.23
579.25	2235.47
579.60	2230.46
579.95	2225.28
580.30	2220.17
580.66	2215.01
581.01	2209.82
581.36	2204.83
581.71	2200.58
582.06	2196.05
582.42	2191.47
582.77	2185.99
583.12	2181.37
583.47	2176.46
583.82	2171.27
584.17	2165.95
584.53	2160.42
584.88	2154.59
585.23	2148.73
585.58	2143.21
585.93	2137.72
586.28	2133.00
586.63	2127.90
586.98	2122.84
587.34	2118.07
587.69	2113.08
588.04	2107.61
588.39	2101.88
588.74	2095.39
589.09	2089.25
589.44	2082.32
589.79	2076.29
590.14	2070.78
590.49	2064.25
590.84	2057.78
591.19	2051.79
591.54	2045.25
591.89	2037.68
592.25	2030.80
592.60	2023.53
592.95	2015.83
593.30	2008.33
593.65	2000.54
594.00	1993.51
594.35	1986.15
594.70	1978.12
595.05	1970.75
595.40	1963.54
595.75	1955.99
596.10	1949.72
596.45	1942.91
596.80	1936.72
597.15	1930.00
597.50	1922.61
597.85	1916.20
598.19	1909.47
598.54	1902.33
598.89	1895.65
599.24	1889.69
599.59	1882.83
599.94	1876.63
600.29	1870.17
600.64	1863.59
600.99	1855.96
601.34	1849.00
601.69	1841.99
602.04	1834.88
602.39	1827.46
602.74	1820.68
603.08	1813.98
603.43	1807.19
603.78	1799.86
604.13	1792.58
604.48	1785.27
604.83	1778.55
605.18	1771.30
605.53	1763.30
605.87	1755.07
606.22	1747.72
606.57	1739.79
606.92	1732.66
607.27	1725.41
607.62	1718.53
607.96	1711.19
608.31	1704.63
608.66	1696.92
609.01	1689.33
609.36	1681.92
609.70	1674.02
610.05	1665.81
610.40	1658.09
610.75	1649.76
611.10	1641.97
611.44	1633.68
611.79	1625.63
612.14	1616.75
612.49	1607.79
612.83	1599.52
613.18	1591.48
613.53	1583.39
613.88	1574.95
614.22	1566.67
614.57	1558.07
614.92	1550.15
615.27	1542.50
615.61	1534.19
615.96	1526.33
616.31	1518.70
616.65	1511.36
617.00	1503.84
617.35	1496.12
617.70	1487.67
618.04	1479.21
618.39	1471.03
618.74	1463.54
619.08	1455.20
619.43	1447.94
619.78	1441.00
620.12	1433.73
620.47	1426.28
620.82	1418.30
621.16	1410.97
621.51	1403.41
621.85	1395.86
622.20	1387.26
622.55	1379.17
622.89	1371.44
623.24	1363.86
623.59	1356.57
623.93	1349.05
624.28	1341.76
624.62	1334.22
624.97	1327.23
625.32	1320.61
625.66	1313.59
626.01	1306.36
626.35	1298.88
626.70	1290.96
627.04	1283.26
627.39	1275.58
627.73	1268.17
628.08	1261.17
628.43	1253.82
628.77	1246.39
629.12	1238.82
629.46	1231.70
629.81	1224.26
630.15	1217.00
630.50	1209.59
630.84	1201.40
631.19	1193.44
631.53	1186.06
631.88	1178.60
632.22	1170.93
632.57	1163.58
632.91	1156.10
633.26	1148.70
633.60	1141.54
633.95	1134.70
634.29	1127.70
634.64	1121.08
634.98	1113.69
635.32	1106.59
635.67	1100.11
636.01	1093.46
636.36	1086.65
636.70	1080.20
637.05	1073.63
637.39	1067.34
637.73	1060.82
638.08	1055.05
638.42	1049.17
638.77	1042.72
639.11	1036.15
639.45	1029.83
639.80	1023.18
640.14	1016.75
640.49	1010.21
640.83	1003.81
641.17	997.49
641.52	991.24
641.86	984.88
642.20	979.15
642.55	973.06
642.89	966.53
643.23	960.03
643.58	954.35
643.92	948.14
644.26	941.99
644.61	935.94
644.95	929.92
645.29	923.25
645.64	916.50
645.98	910.22
646.32	904.47
646.66	898.42
647.01	892.67
647.35	887.03
647.69	881.26
648.04	875.81
648.38	869.98
648.72	863.92
649.06	857.82
649.41	851.97
649.75	845.88
650.09	839.92
650.43	834.17
650.78	828.00
651.12	822.02
651.46	816.32
651.80	810.48
652.14	805.09
652.49	799.75
652.83	794.57
653.17	788.86
653.51	783.10
653.85	777.73
654.20	772.06
654.54	766.03
654.88	760.29
655.22	754.41
655.56	748.82
655.90	743.41
656.25	738.12
656.59	732.73
656.93	727.62
657.27	722.51
657.61	717.07
657.95	711.97
658.29	706.95
658.64	701.88
658.98	696.67
659.32	691.24
659.66	686.05
660.00	680.73
660.34	675.78
660.68	670.83
661.02	665.83
661.36	661.18
661.70	656.72
662.05	652.33
662.39	648.03
662.73	643.58
663.07	639.21
663.41	634.81
663.75	630.32
664.09	625.76
664.43	621.39
664.77	617.31
665.11	613.04
665.45	608.93
665.79	604.78
666.13	600.61
666.47	596.56
666.81	592.39
667.15	588.41
667.49	584.60
667.83	580.88
668.17	576.98
668.51	572.88
668.85	568.89
669.19	565.07
669.53	561.26
669.87	557.35
670.21	553.66
670.55	550.06
670.89	546.72
671.23	543.33
671.57	539.87
671.91	536.37
672.25	533.01
672.58	529.57
672.92	526.21
673.26	523.14
673.60	520.00
673.94	516.91
674.28	514.00
674.62	511.02
674.96	507.90
675.30	504.96
675.64	502.08
675.97	499.31
676.31	496.47
676.65	493.52
676.99	490.85
677.33	488.00
677.67	485.21
678.01	482.14
678.34	479.18
678.68	476.33
679.02	473.53
679.36	470.76
679.70	468.02
680.04	465.26
680.37	462.37
680.71	459.61
681.05	457.02
681.39	454.27
681.73	451.64
682.06	449.15
682.40	446.69
682.74	444.21
683.08	441.67
683.42	439.12
683.75	436.68
684.09	434.16
684.43	431.75
684.77	429.27
685.10	426.99
685.44	424.72
685.78	422.49
686.12	420.26
686.45	418.00
686.79	415.70
687.13	413.54
687.46	411.44
687.80	409.32
688.14	407.11
688.48	405.07
688.81	402.80
689.15	400.66
689.49	398.52
689.82	396.44
690.16	394.40
690.50	392.46
690.83	390.52
691.17	388.54
691.51	386.62
691.84	384.79
692.18	382.85
692.52	380.86
692.85	378.89
693.19	377.04
693.52	375.21
693.86	373.42
694.20	371.62
694.53	369.81
694.87	367.95
695.21	366.20
695.54	364.38
695.88	362.69
696.21	360.92
696.55	359.20
696.88	357.53
697.22	355.91
697.56	354.27
697.89	352.61
698.23	351.02
698.56	349.39
698.90	347.81
699.23	346.16
699.57	344.63
699.90	343.10
700.24	341.52
700.58	339.98
700.91	338.48
701.25	337.06
701.58	335.69
701.92	334.30
702.25	332.93
702.59	331.55
702.92	330.25
703.26	329.00
703.59	327.75
703.93	326.54
704.26	325.31
704.60	324.02
704.93	322.76
705.26	321.53
705.60	320.39
705.93	319.23
706.27	318.17
706.60	317.11
706.94	316.02
707.27	314.93
707.61	313.88
707.94	312.85
708.27	311.75
708.61	310.67
708.94	309.67
709.28	308.68
709.61	307.73
709.94	306.79
710.28	305.78
710.61	304.79
710.95	303.73
711.28	302.76
711.61	301.82
711.95	300.88
712.28	299.92
712.61	298.89
712.95	298.01
713.28	297.16
713.61	296.24
713.95	295.34
714.28	294.48
714.61	293.58
714.95	292.73
715.28	291.90
715.61	291.03
715.95	290.20
716.28	289.35
716.61	288.57
716.95	287.78
717.28	287.02
717.61	286.27
717.94	285.53
718.28	284.76
718.61	284.05
718.94	283.38
719.27	282.75
719.61	282.18
719.94	281.52
720.27	280.81
720.60	280.17
720.94	279.58
721.27	278.98
721.60	278.42
721.93	277.85
722.27	277.30
722.60	276.77
722.93	276.21
723.26	275.68
723.59	275.11
723.93	274.55
724.26	274.03
724.59	273.46
724.92	272.97
725.25	272.46
725.59	271.96
725.92	271.48
726.25	271.00
726.58	270.46
726.91	269.93
727.24	269.48
727.57	269.04
727.91	268.52
728.24	268.06
728.57	267.62
728.90	267.17
729.23	266.69
729.56	266.25
729.89	265.79
730.22	265.32
730.55	264.89
730.89	264.45
731.22	264.01
731.55	263.59
731.88	263.18
732.21	262.74
732.54	262.30
732.87	261.88
733.20	261.47
733.53	261.10
733.86	260.77
734.19	260.41
734.52	260.00
734.85	259.68
735.18	259.28
735.51	258.89
735.84	258.50
736.17	258.15
736.50	257.76
736.83	257.50
737.16	257.17
737.49	256.81
737.82	256.44
738.15	256.07
738.48	255.73
738.81	255.37
739.14	255.04
739.47	254.72
739.80	254.39
740.13	254.06
740.46	253.71
740.79	253.33
741.12	252.92
741.45	252.62
741.78	252.27
742.11	251.95
742.44	251.61
742.77	251.31
743.10	250.98
743.43	250.67
743.75	250.27
744.08	250.10
744.41	249.83
744.74	249.58
745.07	249.33
745.40	249.07
745.73	248.85
746.06	248.55
746.39	248.27
746.71	248.00
747.04	247.71
747.37	247.43
747.70	247.16
748.03	246.95
748.36	246.71
748.68	246.46
749.01	246.26
749.34	246.03
749.67	245.83
750.00	245.60
750.33	245.42
750.65	245.23
750.98	244.88
751.31	244.63
751.64	244.40
751.97	244.20
752.29	243.96
752.62	243.68
752.95	243.52
753.28	243.30
753.60	243.09
753.93	242.92
754.26	242.73
754.59	242.53
754.91	242.34
755.24	242.15
755.57	241.97
755.90	241.75
756.22	241.54
756.55	241.31
756.88	241.13
757.20	240.91
757.53	240.72
757.86	240.57
758.19	240.42
758.51	240.27
758.84	240.09
759.17	239.96
759.49	239.82
759.82	239.70
760.15	239.59
760.47	239.46
760.80	239.31
761.13	239.23
761.45	239.12
761.78	239.02
762.11	238.86
762.43	238.73
762.76	238.63
763.08	238.51
763.41	238.40
763.74	238.28
764.06	238.13
764.39	238.00
764.71	237.90
765.04	237.76
765.37	237.64
765.69	237.50
766.02	237.36
766.34	237.24
766.67	237.09
767.00	236.97
767.32	236.93
767.65	236.89
767.97	236.75
768.30	236.61
768.62	236.47
768.95	236.37
769.27	236.27
769.60	236.19
769.92	236.09
770.25	235.99
770.57	235.89
770.90	235.82
771.22	235.68
771.55	235.56
771.87	235.50
772.20	235.42
772.52	235.44
772.85	235.46
773.17	235.36
773.50	235.26
773.82	235.14
774.15	234.97
774.47	234.79
774.80	234.72
775.12	234.65
775.45	234.56
775.77	234.46
776.09	234.37
776.42	234.29
776.74	234.24
777.07	234.17
777.39	234.08
777.72	234.02
778.04	234.01
778.36	233.96
778.69	233.87
779.01	233.79
779.33	233.64
779.66	233.47
779.98	233.43
780.31	233.37
780.63	233.36
780.95	233.32
781.28	233.26
781.60	233.18
781.92	233.13
782.25	233.04
782.57	232.99
782.89	232.92
783.22	232.84
783.54	232.76
783.86	232.72
784.19	232.65
784.51	232.59
784.83	232.49
785.16	232.41
785.48	232.37
785.80	232.29
786.12	232.22
786.45	232.14
786.77	232.07
787.09	232.02
