SpectraSuite Data File
++++++++++++++++++++++++++++++++++++
Date: Fri Feb 01 17:00:03 EST 2013
User: group
Dark Spectrum Present: No
Reference Spectrum Present: No
Number of Sampled Component Spectra: 1
Spectrometers: USB2E7196
Integration Time (usec): 35000 (USB2E7196)
Spectra Averaged: 100 (USB2E7196)
Boxcar Smoothing: 10 (USB2E7196)
Correct for Electrical Dark: No (USB2E7196)
Strobe/Lamp Enabled: No (USB2E7196)
Correct for Detector Non-linearity: No (USB2E7196)
Correct for Stray Light: No (USB2E7196)
Number of Pixels in Processed Spectrum: 2048
>>>>>Begin Processed Spectral Data<<<<<
339.09	0.00
339.48	213.43
339.86	214.52
340.24	216.30
340.63	217.65
341.01	220.11
341.39	220.38
341.78	221.33
342.16	223.54
342.54	223.56
342.93	211.84
343.31	222.54
343.69	223.07
344.07	223.55
344.46	223.97
344.84	224.34
345.22	224.63
345.60	224.83
345.99	225.02
346.37	225.12
346.75	225.16
347.13	225.25
347.52	225.31
347.90	225.38
348.28	225.40
348.66	225.42
349.05	225.38
349.43	225.38
349.81	225.41
350.19	225.45
350.57	225.47
350.96	225.56
351.34	225.63
351.72	225.70
352.10	225.78
352.48	225.85
352.87	225.92
353.25	225.94
353.63	226.03
354.01	226.14
354.39	226.22
354.77	226.30
355.15	226.39
355.54	226.43
355.92	226.47
356.30	226.51
356.68	226.65
357.06	226.73
357.44	226.81
357.82	226.89
358.20	226.97
358.58	227.03
358.97	227.09
359.35	227.16
359.73	227.25
360.11	227.34
360.49	227.41
360.87	227.44
361.25	227.48
361.63	227.56
362.01	227.57
362.39	227.59
362.77	227.65
363.15	227.71
363.53	227.76
363.91	227.81
364.29	227.80
364.67	227.73
365.05	227.79
365.43	227.78
365.81	227.79
366.19	227.84
366.57	227.87
366.95	227.86
367.33	227.82
367.71	227.84
368.09	227.78
368.47	227.74
368.85	227.73
369.23	227.74
369.61	227.70
369.99	227.71
370.37	227.70
370.75	227.75
371.13	227.68
371.51	227.63
371.89	227.59
372.27	227.58
372.65	227.54
373.03	227.47
373.41	227.43
373.78	227.37
374.16	227.23
374.54	227.16
374.92	227.11
375.30	227.06
375.68	226.97
376.06	226.94
376.44	226.89
376.82	226.82
377.19	226.78
377.57	226.70
377.95	226.59
378.33	226.51
378.71	226.36
379.09	226.33
379.47	226.28
379.84	226.17
380.22	226.14
380.60	226.06
380.98	226.00
381.36	225.93
381.73	225.86
382.11	225.85
382.49	225.79
382.87	225.73
383.25	225.70
383.62	225.74
384.00	225.68
384.38	225.62
384.76	225.57
385.13	225.52
385.51	225.46
385.89	225.45
386.27	225.39
386.64	225.37
387.02	225.27
387.40	225.25
387.78	225.26
388.15	225.20
388.53	225.18
388.91	225.17
389.29	225.14
389.66	225.12
390.04	225.06
390.42	225.08
390.79	225.05
391.17	225.01
391.55	224.91
391.92	224.87
392.30	224.86
392.68	224.83
393.05	224.83
393.43	224.86
393.81	224.84
394.18	224.84
394.56	224.85
394.94	224.88
395.31	224.87
395.69	224.90
396.06	224.94
396.44	224.93
396.82	224.93
397.19	224.99
397.57	225.02
397.95	225.09
398.32	225.04
398.70	225.07
399.07	225.11
399.45	225.18
399.82	225.27
400.20	225.33
400.58	225.40
400.95	225.41
401.33	225.47
401.70	225.62
402.08	225.72
402.45	225.81
402.83	225.92
403.20	225.99
403.58	226.05
403.95	226.16
404.33	226.28
404.71	226.38
405.08	226.57
405.46	226.70
405.83	226.83
406.21	227.00
406.58	227.19
406.96	227.38
407.33	227.54
407.70	227.74
408.08	227.99
408.45	228.21
408.83	228.45
409.20	228.67
409.58	228.82
409.95	229.08
410.33	229.37
410.70	229.61
411.08	229.90
411.45	230.21
411.82	230.50
412.20	230.88
412.57	231.31
412.95	231.59
413.32	232.00
413.69	232.37
414.07	232.84
414.44	233.26
414.82	233.71
415.19	234.23
415.56	234.77
415.94	235.31
416.31	235.95
416.68	236.60
417.06	237.30
417.43	237.99
417.81	238.72
418.18	239.48
418.55	240.34
418.93	241.20
419.30	242.13
419.67	243.10
420.04	244.03
420.42	245.04
420.79	246.22
421.16	247.34
421.54	248.57
421.91	249.77
422.28	251.01
422.66	252.35
423.03	253.66
423.40	254.94
423.77	256.36
424.15	257.75
424.52	259.22
424.89	260.83
425.26	262.40
425.64	263.87
426.01	265.47
426.38	267.11
426.75	268.84
427.13	270.52
427.50	272.30
427.87	274.17
428.24	276.00
428.61	277.70
428.99	279.62
429.36	281.67
429.73	283.69
430.10	285.71
430.47	287.79
430.85	289.87
431.22	292.13
431.59	294.49
431.96	296.74
432.33	299.17
432.70	301.50
433.08	304.25
433.45	306.86
433.82	309.41
434.19	312.25
434.56	315.02
434.93	317.70
435.30	320.27
435.68	323.14
436.05	325.98
436.42	328.81
436.79	331.33
437.16	334.03
437.53	336.85
437.90	339.67
438.27	342.35
438.64	345.15
439.01	347.74
439.38	349.95
439.75	352.13
440.13	354.62
440.50	356.93
440.87	358.81
441.24	360.73
441.61	362.90
441.98	364.37
442.35	366.15
442.72	367.95
443.09	369.78
443.46	370.77
443.83	371.36
444.20	371.83
444.57	372.71
444.94	373.02
445.31	373.36
445.68	373.72
446.05	373.85
446.42	373.49
446.79	373.06
447.16	372.64
447.53	372.32
447.90	371.16
448.27	370.03
448.64	368.42
449.01	367.30
449.37	365.35
449.74	363.52
450.11	361.33
450.48	358.87
450.85	356.39
451.22	354.23
451.59	352.21
451.96	350.31
452.33	347.71
452.70	345.36
453.07	342.57
453.43	339.69
453.80	336.93
454.17	334.28
454.54	331.76
454.91	329.03
455.28	326.39
455.65	323.94
456.02	321.52
456.38	319.42
456.75	316.77
457.12	314.50
457.49	312.28
457.86	310.10
458.23	308.28
458.59	306.25
458.96	304.22
459.33	302.36
459.70	300.48
460.07	298.98
460.43	297.23
460.80	295.59
461.17	294.15
461.54	292.67
461.91	291.25
462.27	289.82
462.64	288.61
463.01	287.23
463.38	285.93
463.74	284.57
464.11	283.43
464.48	282.42
464.85	281.34
465.21	280.47
465.58	279.52
465.95	278.45
466.32	277.54
466.68	276.62
467.05	275.76
467.42	274.91
467.78	274.00
468.15	273.17
468.52	272.52
468.88	271.70
469.25	270.88
469.62	270.30
469.98	269.64
470.35	269.01
470.72	268.44
471.08	267.83
471.45	267.34
471.82	266.80
472.18	266.21
472.55	265.76
472.92	265.25
473.28	264.85
473.65	264.42
474.02	264.02
474.38	263.67
474.75	263.33
475.11	263.01
475.48	262.79
475.85	262.55
476.21	262.37
476.58	262.13
476.94	262.03
477.31	261.84
477.67	261.70
478.04	261.60
478.41	261.54
478.77	261.62
479.14	261.54
479.50	261.55
479.87	261.65
480.23	261.78
480.60	261.88
480.96	261.97
481.33	262.19
481.69	262.36
482.06	262.59
482.42	262.81
482.79	263.03
483.15	263.36
483.52	263.78
483.88	264.13
484.25	264.57
484.61	265.02
484.98	265.50
485.34	266.09
485.71	266.70
486.07	267.31
486.44	267.84
486.80	268.56
487.17	269.29
487.53	270.08
487.90	270.92
488.26	271.86
488.62	272.89
488.99	273.85
489.35	274.90
489.72	276.03
490.08	277.20
490.44	278.46
490.81	279.75
491.17	281.10
491.54	282.56
491.90	284.10
492.26	285.72
492.63	287.44
492.99	289.20
493.36	291.08
493.72	293.09
494.08	295.14
494.45	297.32
494.81	299.71
495.17	302.16
495.54	304.70
495.90	307.33
496.26	310.05
496.63	312.95
496.99	316.04
497.35	319.27
497.72	322.68
498.08	326.18
498.44	329.84
498.80	333.68
499.17	337.72
499.53	341.89
499.89	346.22
500.26	350.64
500.62	355.24
500.98	360.15
501.34	365.20
501.71	370.54
502.07	376.02
502.43	381.55
502.79	387.30
503.16	393.33
503.52	399.61
503.88	406.03
504.24	412.59
504.60	419.38
504.97	426.43
505.33	433.68
505.69	441.37
506.05	449.07
506.41	456.91
506.78	464.89
507.14	473.23
507.50	481.88
507.86	490.89
508.22	500.03
508.59	509.15
508.95	518.63
509.31	528.34
509.67	538.31
510.03	548.48
510.39	558.93
510.75	569.59
511.12	580.40
511.48	591.57
511.84	602.97
512.20	614.35
512.56	626.11
512.92	638.12
513.28	650.22
513.64	662.52
514.00	675.08
514.37	687.93
514.73	700.84
515.09	713.76
515.45	726.72
515.81	740.10
516.17	753.88
516.53	767.82
516.89	781.80
517.25	795.81
517.61	809.95
517.97	824.25
518.33	838.43
518.69	852.91
519.05	867.60
519.41	882.44
519.77	897.77
520.13	913.06
520.49	928.20
520.85	943.34
521.21	958.74
521.57	974.70
521.93	990.12
522.29	1006.16
522.65	1022.07
523.01	1038.09
523.37	1053.78
523.73	1069.65
524.09	1085.51
524.45	1101.39
524.81	1117.77
525.17	1134.28
525.53	1150.74
525.89	1167.34
526.25	1183.90
526.61	1200.03
526.97	1216.53
527.33	1232.61
527.68	1248.70
528.04	1264.77
528.40	1281.02
528.76	1297.78
529.12	1313.99
529.48	1330.57
529.84	1346.25
530.20	1362.50
530.56	1379.12
530.91	1396.25
531.27	1412.66
531.63	1428.67
531.99	1444.99
532.35	1460.46
532.71	1476.19
533.07	1492.02
533.42	1507.65
533.78	1523.36
534.14	1539.25
534.50	1554.29
534.86	1569.92
535.21	1584.95
535.57	1600.50
535.93	1615.63
536.29	1630.15
536.65	1644.83
537.00	1659.25
537.36	1674.28
537.72	1688.51
538.08	1702.53
538.44	1716.00
538.79	1729.67
539.15	1743.07
539.51	1756.47
539.87	1770.56
540.22	1783.82
540.58	1797.36
540.94	1810.30
541.29	1822.87
541.65	1835.19
542.01	1848.20
542.37	1860.16
542.72	1872.18
543.08	1883.83
543.44	1896.07
543.79	1907.19
544.15	1917.99
544.51	1929.41
544.87	1940.15
545.22	1950.69
545.58	1960.82
545.94	1970.39
546.29	1980.03
546.65	1989.71
547.01	1998.84
547.36	2007.39
547.72	2015.80
548.07	2023.65
548.43	2031.72
548.79	2039.52
549.14	2046.99
549.50	2054.10
549.86	2061.67
550.21	2069.01
550.57	2076.14
550.92	2082.60
551.28	2089.52
551.64	2096.61
551.99	2102.98
552.35	2109.07
552.70	2115.31
553.06	2121.22
553.41	2127.43
553.77	2133.39
554.13	2139.40
554.48	2145.56
554.84	2151.10
555.19	2156.28
555.55	2161.32
555.90	2165.83
556.26	2170.83
556.61	2175.54
556.97	2179.90
557.32	2184.01
557.68	2188.14
558.03	2192.41
558.39	2196.15
558.74	2200.72
559.10	2204.55
559.45	2208.33
559.81	2212.72
560.16	2216.57
560.52	2219.84
560.87	2223.35
561.23	2226.12
561.58	2229.07
561.94	2231.58
562.29	2233.91
562.64	2236.85
563.00	2239.50
563.35	2242.96
563.71	2246.12
564.06	2249.45
564.42	2252.32
564.77	2255.02
565.12	2257.34
565.48	2259.54
565.83	2261.54
566.19	2263.04
566.54	2264.04
566.89	2265.13
567.25	2265.78
567.60	2267.05
567.96	2269.00
568.31	2270.09
568.66	2271.32
569.02	2272.25
569.37	2272.73
569.72	2273.88
570.08	2274.16
570.43	2274.44
570.78	2274.14
571.14	2272.78
571.49	2271.63
571.84	2271.51
572.20	2270.88
572.55	2270.01
572.90	2268.41
573.26	2267.25
573.61	2265.66
573.96	2264.24
574.31	2261.68
574.67	2258.99
575.02	2255.76
575.37	2252.62
575.72	2249.17
576.08	2245.95
576.43	2242.65
576.78	2239.28
577.13	2236.17
577.49	2233.16
577.84	2229.86
578.19	2226.34
578.54	2223.01
578.90	2219.19
579.25	2213.73
579.60	2208.68
579.95	2203.97
580.30	2199.27
580.66	2194.23
581.01	2189.43
581.36	2184.67
581.71	2180.68
582.06	2176.50
582.42	2172.31
582.77	2167.32
583.12	2162.85
583.47	2158.48
583.82	2153.84
584.17	2148.83
584.53	2143.67
584.88	2138.23
585.23	2132.66
585.58	2127.36
585.93	2122.14
586.28	2117.34
586.63	2112.73
586.98	2107.87
587.34	2103.46
587.69	2098.82
588.04	2093.89
588.39	2088.52
588.74	2082.15
589.09	2076.12
589.44	2069.35
589.79	2063.47
590.14	2057.86
590.49	2051.44
590.84	2045.21
591.19	2039.31
591.54	2032.93
591.89	2025.74
592.25	2019.20
592.60	2012.18
592.95	2004.98
593.30	1997.70
593.65	1990.34
594.00	1983.47
594.35	1976.44
594.70	1968.53
595.05	1961.53
595.40	1954.41
595.75	1947.10
596.10	1941.19
596.45	1934.74
596.80	1928.87
597.15	1922.48
597.50	1915.62
597.85	1909.25
598.19	1902.67
598.54	1895.83
598.89	1889.51
599.24	1883.86
599.59	1877.42
599.94	1871.47
600.29	1865.22
600.64	1858.83
600.99	1851.61
601.34	1844.77
601.69	1837.91
602.04	1831.17
602.39	1823.96
602.74	1817.14
603.08	1810.48
603.43	1803.87
603.78	1796.69
604.13	1789.54
604.48	1782.37
604.83	1775.65
605.18	1768.95
605.53	1761.20
605.87	1753.15
606.22	1745.89
606.57	1738.00
606.92	1730.75
607.27	1723.68
607.62	1716.78
607.96	1709.69
608.31	1703.18
608.66	1695.87
609.01	1688.45
609.36	1681.06
609.70	1673.10
610.05	1665.27
610.40	1657.82
610.75	1649.44
611.10	1641.85
611.44	1633.47
611.79	1625.48
612.14	1616.96
612.49	1607.85
612.83	1599.50
613.18	1591.51
613.53	1583.46
613.88	1574.98
614.22	1566.74
614.57	1558.04
614.92	1550.03
615.27	1542.46
615.61	1534.20
615.96	1526.13
616.31	1518.51
616.65	1511.11
617.00	1503.55
617.35	1495.86
617.70	1487.47
618.04	1479.07
618.39	1470.81
618.74	1463.39
619.08	1455.03
619.43	1447.48
619.78	1440.49
620.12	1433.33
620.47	1425.94
620.82	1417.84
621.16	1410.42
621.51	1402.83
621.85	1395.31
622.20	1386.90
622.55	1378.54
622.89	1370.75
623.24	1363.12
623.59	1355.78
623.93	1348.30
624.28	1341.13
624.62	1333.67
624.97	1326.48
625.32	1319.72
625.66	1312.78
626.01	1305.59
626.35	1298.32
626.70	1290.51
627.04	1282.91
627.39	1275.16
627.73	1267.67
628.08	1260.73
628.43	1253.39
628.77	1246.01
629.12	1238.56
629.46	1231.49
629.81	1224.08
630.15	1216.82
630.50	1209.44
630.84	1201.28
631.19	1193.34
631.53	1185.79
631.88	1178.24
632.22	1170.75
632.57	1163.51
632.91	1155.90
633.26	1148.54
633.60	1141.17
633.95	1134.01
634.29	1126.94
634.64	1120.22
634.98	1112.86
635.32	1105.83
635.67	1099.21
636.01	1092.64
636.36	1085.80
636.70	1079.20
637.05	1072.66
637.39	1066.17
637.73	1059.62
638.08	1053.65
638.42	1047.60
638.77	1041.17
639.11	1034.67
639.45	1028.20
639.80	1021.59
640.14	1015.23
640.49	1008.71
640.83	1002.35
641.17	996.18
641.52	989.91
641.86	983.45
642.20	977.63
642.55	971.26
642.89	964.88
643.23	958.32
643.58	952.62
643.92	946.45
644.26	940.54
644.61	934.50
644.95	928.64
645.29	922.22
645.64	915.60
645.98	909.36
646.32	903.44
646.66	897.52
647.01	891.76
647.35	886.06
647.69	880.18
648.04	874.67
648.38	868.90
648.72	862.97
649.06	857.04
649.41	851.27
649.75	845.36
650.09	839.48
650.43	833.78
650.78	827.64
651.12	821.71
651.46	815.91
651.80	810.24
652.14	804.82
652.49	799.40
652.83	794.21
653.17	788.61
653.51	782.96
653.85	777.51
654.20	771.87
654.54	765.92
654.88	760.18
655.22	754.38
655.56	748.77
655.90	743.36
656.25	738.14
656.59	732.66
656.93	727.59
657.27	722.48
657.61	717.05
657.95	711.98
658.29	706.87
658.64	701.61
658.98	696.32
659.32	690.87
659.66	685.68
660.00	680.46
660.34	675.47
660.68	670.63
661.02	665.65
661.36	661.00
661.70	656.59
662.05	652.33
662.39	648.04
662.73	643.64
663.07	639.25
663.41	634.80
663.75	630.43
664.09	625.95
664.43	621.54
664.77	617.43
665.11	613.16
665.45	609.07
665.79	605.04
666.13	600.91
666.47	596.85
666.81	592.73
667.15	588.63
667.49	584.70
667.83	580.83
668.17	576.93
668.51	572.90
668.85	568.80
669.19	564.99
669.53	561.13
669.87	557.25
670.21	553.57
670.55	549.94
670.89	546.53
671.23	543.08
671.57	539.56
671.91	536.09
672.25	532.60
672.58	529.06
672.92	525.63
673.26	522.50
673.60	519.31
673.94	516.20
674.28	513.29
674.62	510.37
674.96	507.29
675.30	504.38
675.64	501.41
675.97	498.64
676.31	495.71
676.65	492.79
676.99	490.10
677.33	487.21
677.67	484.42
678.01	481.42
678.34	478.48
678.68	475.58
679.02	472.74
679.36	469.98
679.70	467.36
680.04	464.65
680.37	461.79
680.71	459.08
681.05	456.49
681.39	453.77
681.73	451.12
682.06	448.60
682.40	446.07
682.74	443.57
683.08	441.03
683.42	438.47
683.75	435.97
684.09	433.44
684.43	430.95
684.77	428.48
685.10	426.06
685.44	423.75
685.78	421.49
686.12	419.23
686.45	416.97
686.79	414.63
687.13	412.46
687.46	410.31
687.80	408.11
688.14	405.87
688.48	403.79
688.81	401.58
689.15	399.44
689.49	397.28
689.82	395.20
690.16	393.13
690.50	391.16
690.83	389.24
691.17	387.18
691.51	385.21
691.84	383.34
692.18	381.45
692.52	379.45
692.85	377.45
693.19	375.60
693.52	373.75
693.86	371.95
694.20	370.14
694.53	368.34
694.87	366.47
695.21	364.70
695.54	362.85
695.88	361.10
696.21	359.34
696.55	357.68
696.88	356.01
697.22	354.32
697.56	352.72
697.89	351.07
698.23	349.49
698.56	347.94
698.90	346.40
699.23	344.79
699.57	343.26
699.90	341.75
700.24	340.22
700.58	338.68
700.91	337.16
701.25	335.71
701.58	334.32
701.92	332.99
702.25	331.59
702.59	330.22
702.92	328.88
703.26	327.58
703.59	326.32
703.93	325.13
704.26	323.92
704.60	322.59
704.93	321.31
705.26	320.09
705.60	318.90
705.93	317.74
706.27	316.65
706.60	315.57
706.94	314.52
707.27	313.35
707.61	312.30
707.94	311.29
708.27	310.20
708.61	309.15
708.94	308.11
709.28	307.17
709.61	306.19
709.94	305.30
710.28	304.29
710.61	303.26
710.95	302.20
711.28	301.29
711.61	300.34
711.95	299.39
712.28	298.45
712.61	297.46
712.95	296.50
713.28	295.62
713.61	294.73
713.95	293.84
714.28	292.98
714.61	292.10
714.95	291.23
715.28	290.39
715.61	289.46
715.95	288.60
716.28	287.73
716.61	286.92
716.95	286.06
717.28	285.33
717.61	284.57
717.94	283.79
718.28	282.95
718.61	282.22
718.94	281.52
719.27	280.84
719.61	280.19
719.94	279.53
720.27	278.84
720.60	278.20
720.94	277.56
721.27	276.99
721.60	276.41
721.93	275.81
722.27	275.25
722.60	274.73
722.93	274.17
723.26	273.62
723.59	273.08
723.93	272.51
724.26	271.94
724.59	271.39
724.92	270.86
725.25	270.35
725.59	269.84
725.92	269.38
726.25	268.88
726.58	268.41
726.91	267.93
727.24	267.44
727.57	266.97
727.91	266.46
728.24	266.00
728.57	265.52
728.90	265.08
729.23	264.56
729.56	264.16
729.89	263.72
730.22	263.24
730.55	262.79
730.89	262.38
731.22	261.95
731.55	261.54
731.88	261.11
732.21	260.73
732.54	260.29
732.87	259.87
733.20	259.47
733.53	259.04
733.86	258.69
734.19	258.29
734.52	257.89
734.85	257.62
735.18	257.21
735.51	256.85
735.84	256.51
736.17	256.18
736.50	255.75
736.83	255.50
737.16	255.18
737.49	254.84
737.82	254.48
738.15	254.18
738.48	253.85
738.81	253.56
739.14	253.23
739.47	252.94
739.80	252.64
740.13	252.34
740.46	252.02
740.79	251.73
741.12	251.45
741.45	251.13
741.78	250.81
742.11	250.54
742.44	250.25
742.77	249.95
743.10	249.65
743.43	249.35
743.75	248.99
744.08	248.83
744.41	248.57
744.74	248.32
745.07	248.04
745.40	247.78
745.73	247.56
746.06	247.30
746.39	247.02
746.71	246.75
747.04	246.47
747.37	246.23
747.70	245.95
748.03	245.70
748.36	245.49
748.68	245.21
749.01	244.92
749.34	244.67
749.67	244.42
750.00	244.22
750.33	244.07
750.65	243.81
750.98	243.43
751.31	243.18
751.64	242.93
751.97	242.77
752.29	242.52
752.62	242.24
752.95	242.02
753.28	241.79
753.60	241.59
753.93	241.42
754.26	241.22
754.59	241.01
754.91	240.79
755.24	240.56
755.57	240.38
755.90	240.20
756.22	240.00
756.55	239.78
756.88	239.55
757.20	239.31
757.53	239.12
757.86	238.97
758.19	238.83
758.51	238.68
758.84	238.45
759.17	238.28
759.49	238.10
759.82	237.98
760.15	237.84
760.47	237.66
760.80	237.49
761.13	237.34
761.45	237.18
761.78	237.03
762.11	236.89
762.43	236.72
762.76	236.55
763.08	236.43
763.41	236.30
763.74	236.18
764.06	236.05
764.39	235.90
764.71	235.75
765.04	235.58
765.37	235.43
765.69	235.29
766.02	235.19
766.34	235.04
766.67	234.85
767.00	234.72
767.32	234.65
767.65	234.58
767.97	234.44
768.30	234.34
768.62	234.23
768.95	234.12
769.27	234.01
769.60	233.95
769.92	233.82
770.25	233.70
770.57	233.57
770.90	233.45
771.22	233.33
771.55	233.24
771.87	233.14
772.20	233.05
772.52	233.01
772.85	233.01
773.17	232.96
773.50	232.89
773.82	232.79
774.15	232.68
774.47	232.52
774.80	232.46
775.12	232.33
775.45	232.25
775.77	232.15
776.09	232.07
776.42	231.99
776.74	231.91
777.07	231.82
777.39	231.75
777.72	231.70
778.04	231.66
778.36	231.58
778.69	231.56
779.01	231.52
779.33	231.44
779.66	231.28
779.98	231.18
780.31	231.12
780.63	231.12
780.95	231.09
781.28	231.03
781.60	230.96
781.92	230.94
782.25	230.89
782.57	230.85
782.89	230.80
783.22	230.75
783.54	230.70
783.86	230.68
784.19	230.63
784.51	230.63
784.83	230.58
785.16	230.56
785.48	230.49
785.80	230.45
786.12	230.38
786.45	230.34
786.77	230.33
787.09	230.30
