SpectraSuite Data File
++++++++++++++++++++++++++++++++++++
Date: Fri Feb 01 17:41:02 EST 2013
User: group
Dark Spectrum Present: No
Reference Spectrum Present: No
Number of Sampled Component Spectra: 1
Spectrometers: USB2E7196
Integration Time (usec): 35000 (USB2E7196)
Spectra Averaged: 100 (USB2E7196)
Boxcar Smoothing: 10 (USB2E7196)
Correct for Electrical Dark: No (USB2E7196)
Strobe/Lamp Enabled: No (USB2E7196)
Correct for Detector Non-linearity: No (USB2E7196)
Correct for Stray Light: No (USB2E7196)
Number of Pixels in Processed Spectrum: 2048
>>>>>Begin Processed Spectral Data<<<<<
339.09	0.00
339.48	213.16
339.86	214.43
340.24	215.69
340.63	216.93
341.01	219.99
341.39	220.09
341.78	221.38
342.16	222.77
342.54	221.98
342.93	211.36
343.31	222.04
343.69	222.56
344.07	223.03
344.46	223.44
344.84	223.85
345.22	224.07
345.60	224.30
345.99	224.47
346.37	224.57
346.75	224.72
347.13	224.81
347.52	224.85
347.90	224.92
348.28	224.96
348.66	225.01
349.05	224.97
349.43	224.99
349.81	225.03
350.19	225.02
350.57	225.10
350.96	225.19
351.34	225.29
351.72	225.37
352.10	225.48
352.48	225.58
352.87	225.63
353.25	225.69
353.63	225.77
354.01	225.85
354.39	225.96
354.77	226.03
355.15	226.12
355.54	226.17
355.92	226.23
356.30	226.27
356.68	226.39
357.06	226.48
357.44	226.55
357.82	226.62
358.20	226.73
358.58	226.78
358.97	226.82
359.35	226.89
359.73	226.97
360.11	227.02
360.49	227.06
360.87	227.08
361.25	227.15
361.63	227.23
362.01	227.30
362.39	227.28
362.77	227.32
363.15	227.35
363.53	227.41
363.91	227.42
364.29	227.47
364.67	227.42
365.05	227.41
365.43	227.43
365.81	227.45
366.19	227.47
366.57	227.51
366.95	227.52
367.33	227.46
367.71	227.48
368.09	227.46
368.47	227.45
368.85	227.42
369.23	227.41
369.61	227.34
369.99	227.30
370.37	227.32
370.75	227.34
371.13	227.25
371.51	227.20
371.89	227.18
372.27	227.13
372.65	227.08
373.03	227.05
373.41	226.99
373.78	226.94
374.16	226.86
374.54	226.79
374.92	226.72
375.30	226.70
375.68	226.60
376.06	226.56
376.44	226.50
376.82	226.47
377.19	226.43
377.57	226.37
377.95	226.29
378.33	226.25
378.71	226.13
379.09	226.12
379.47	226.04
379.84	225.93
380.22	225.86
380.60	225.77
380.98	225.72
381.36	225.63
381.73	225.56
382.11	225.51
382.49	225.44
382.87	225.37
383.25	225.30
383.62	225.38
384.00	225.30
384.38	225.27
384.76	225.22
385.13	225.17
385.51	225.12
385.89	225.04
386.27	224.95
386.64	224.92
387.02	224.87
387.40	224.86
387.78	224.84
388.15	224.82
388.53	224.80
388.91	224.76
389.29	224.75
389.66	224.72
390.04	224.67
390.42	224.65
390.79	224.63
391.17	224.62
391.55	224.48
391.92	224.48
392.30	224.47
392.68	224.45
393.05	224.45
393.43	224.45
393.81	224.47
394.18	224.48
394.56	224.49
394.94	224.54
395.31	224.54
395.69	224.61
396.06	224.62
396.44	224.64
396.82	224.66
397.19	224.71
397.57	224.73
397.95	224.79
398.32	224.81
398.70	224.83
399.07	224.91
399.45	224.95
399.82	225.00
400.20	225.01
400.58	225.06
400.95	225.09
401.33	225.19
401.70	225.33
402.08	225.37
402.45	225.46
402.83	225.55
403.20	225.63
403.58	225.71
403.95	225.84
404.33	225.99
404.71	226.12
405.08	226.30
405.46	226.44
405.83	226.58
406.21	226.72
406.58	226.91
406.96	227.07
407.33	227.24
407.70	227.50
408.08	227.80
408.45	228.02
408.83	228.26
409.20	228.47
409.58	228.66
409.95	228.96
410.33	229.22
410.70	229.43
411.08	229.75
411.45	230.08
411.82	230.39
412.20	230.75
412.57	231.22
412.95	231.51
413.32	231.95
413.69	232.42
414.07	232.90
414.44	233.43
414.82	233.93
415.19	234.51
415.56	235.07
415.94	235.68
416.31	236.38
416.68	237.09
417.06	237.87
417.43	238.61
417.81	239.47
418.18	240.34
418.55	241.32
418.93	242.28
419.30	243.31
419.67	244.38
420.04	245.46
420.42	246.58
420.79	247.92
421.16	249.22
421.54	250.53
421.91	251.90
422.28	253.27
422.66	254.79
423.03	256.28
423.40	257.80
423.77	259.38
424.15	260.99
424.52	262.65
424.89	264.49
425.26	266.27
425.64	267.92
426.01	269.69
426.38	271.56
426.75	273.48
427.13	275.43
427.50	277.43
427.87	279.54
428.24	281.65
428.61	283.64
428.99	285.80
429.36	288.15
429.73	290.48
430.10	292.77
430.47	295.06
430.85	297.44
431.22	299.95
431.59	302.64
431.96	305.16
432.33	307.97
432.70	310.66
433.08	313.79
433.45	316.75
433.82	319.66
434.19	322.91
434.56	326.07
434.93	328.99
435.30	331.97
435.68	335.20
436.05	338.32
436.42	341.44
436.79	344.32
437.16	347.40
437.53	350.58
437.90	353.71
438.27	356.81
438.64	360.02
439.01	362.93
439.38	365.39
439.75	367.84
440.13	370.61
440.50	373.21
440.87	375.31
441.24	377.50
441.61	380.00
441.98	381.65
442.35	383.74
442.72	385.90
443.09	387.93
443.46	389.07
443.83	389.76
444.20	390.35
444.57	391.26
444.94	391.55
445.31	391.95
445.68	392.38
446.05	392.50
446.42	392.07
446.79	391.62
447.16	391.23
447.53	390.88
447.90	389.62
448.27	388.34
448.64	386.57
449.01	385.31
449.37	383.06
449.74	381.02
450.11	378.45
450.48	375.68
450.85	372.83
451.22	370.43
451.59	368.22
451.96	366.04
452.33	363.15
452.70	360.55
453.07	357.39
453.43	354.17
453.80	351.03
454.17	348.03
454.54	345.14
454.91	342.01
455.28	338.97
455.65	336.15
456.02	333.36
456.38	330.91
456.75	327.89
457.12	325.37
457.49	322.82
457.86	320.34
458.23	318.18
458.59	315.86
458.96	313.50
459.33	311.40
459.70	309.26
460.07	307.56
460.43	305.56
460.80	303.68
461.17	302.03
461.54	300.31
461.91	298.67
462.27	297.10
462.64	295.65
463.01	294.13
463.38	292.67
463.74	291.16
464.11	289.89
464.48	288.72
464.85	287.47
465.21	286.45
465.58	285.43
465.95	284.18
466.32	283.17
466.68	282.14
467.05	281.11
467.42	280.08
467.78	279.00
468.15	278.05
468.52	277.30
468.88	276.33
469.25	275.47
469.62	274.78
469.98	273.96
470.35	273.28
470.72	272.61
471.08	271.88
471.45	271.24
471.82	270.59
472.18	269.92
472.55	269.41
472.92	268.83
473.28	268.33
473.65	267.87
474.02	267.38
474.38	266.98
474.75	266.60
475.11	266.24
475.48	265.96
475.85	265.68
476.21	265.45
476.58	265.25
476.94	265.08
477.31	264.87
477.67	264.71
478.04	264.61
478.41	264.52
478.77	264.55
479.14	264.49
479.50	264.53
479.87	264.60
480.23	264.70
480.60	264.77
480.96	264.81
481.33	265.02
481.69	265.22
482.06	265.39
482.42	265.60
482.79	265.88
483.15	266.21
483.52	266.60
483.88	266.95
484.25	267.38
484.61	267.82
484.98	268.24
485.34	268.83
485.71	269.39
486.07	270.04
486.44	270.62
486.80	271.34
487.17	272.05
487.53	272.88
487.90	273.72
488.26	274.70
488.62	275.70
488.99	276.67
489.35	277.74
489.72	278.91
490.08	280.13
490.44	281.38
490.81	282.74
491.17	284.08
491.54	285.57
491.90	287.10
492.26	288.76
492.63	290.57
492.99	292.35
493.36	294.24
493.72	296.30
494.08	298.36
494.45	300.63
494.81	303.02
495.17	305.46
495.54	308.04
495.90	310.71
496.26	313.53
496.63	316.51
496.99	319.64
497.35	322.90
497.72	326.30
498.08	329.82
498.44	333.50
498.80	337.45
499.17	341.50
499.53	345.67
499.89	350.07
500.26	354.57
500.62	359.24
500.98	364.21
501.34	369.28
501.71	374.65
502.07	380.10
502.43	385.75
502.79	391.57
503.16	397.65
503.52	403.92
503.88	410.35
504.24	417.02
504.60	423.89
504.97	431.05
505.33	438.35
505.69	446.13
506.05	453.87
506.41	461.77
506.78	469.92
507.14	478.31
507.50	487.00
507.86	496.00
508.22	505.21
508.59	514.38
508.95	523.93
509.31	533.75
509.67	543.89
510.03	554.16
510.39	564.69
510.75	575.40
511.12	586.31
511.48	597.58
511.84	609.01
512.20	620.50
512.56	632.44
512.92	644.64
513.28	656.96
513.64	669.49
514.00	682.20
514.37	695.14
514.73	708.28
515.09	721.32
515.45	734.64
515.81	748.22
516.17	762.28
516.53	776.41
516.89	790.56
517.25	804.72
517.61	819.13
517.97	833.61
518.33	848.10
518.69	862.91
519.05	877.84
519.41	893.03
519.77	908.53
520.13	923.95
520.49	939.45
520.85	954.73
521.21	970.36
521.57	986.66
521.93	1002.47
522.29	1018.80
522.65	1035.11
523.01	1051.30
523.37	1067.40
523.73	1083.64
524.09	1099.83
524.45	1116.14
524.81	1132.80
525.17	1149.58
525.53	1166.51
525.89	1183.40
526.25	1200.40
526.61	1216.91
526.97	1233.76
527.33	1250.39
527.68	1267.05
528.04	1283.55
528.40	1300.18
528.76	1317.45
529.12	1334.09
529.48	1351.14
529.84	1367.39
530.20	1384.17
530.56	1401.36
530.91	1418.89
531.27	1435.74
531.63	1452.29
531.99	1469.07
532.35	1485.41
532.71	1501.70
533.07	1518.25
533.42	1534.53
533.78	1550.82
534.14	1567.29
534.50	1582.99
534.86	1599.21
535.21	1614.79
535.57	1631.07
535.93	1646.91
536.29	1662.04
536.65	1677.50
537.00	1692.57
537.36	1708.36
537.72	1723.18
538.08	1738.03
538.44	1752.22
538.79	1766.70
539.15	1780.77
539.51	1794.95
539.87	1809.59
540.22	1823.68
540.58	1837.69
540.94	1851.32
541.29	1864.49
541.65	1877.75
542.01	1891.33
542.37	1904.07
542.72	1917.00
543.08	1929.38
543.44	1942.39
543.79	1954.17
544.15	1965.66
544.51	1977.88
544.87	1989.30
545.22	2000.86
545.58	2011.62
545.94	2021.99
546.29	2032.35
546.65	2042.93
547.01	2052.97
547.36	2062.36
547.72	2071.50
548.07	2080.25
548.43	2089.11
548.79	2097.66
549.14	2106.05
549.50	2113.95
549.86	2122.13
550.21	2130.00
550.57	2137.78
550.92	2145.16
551.28	2152.95
551.64	2160.65
551.99	2167.71
552.35	2174.55
552.70	2181.29
553.06	2187.98
553.41	2195.06
553.77	2201.62
554.13	2208.40
554.48	2214.98
554.84	2221.37
555.19	2227.16
555.55	2233.05
555.90	2238.32
556.26	2244.20
556.61	2249.39
556.97	2254.70
557.32	2259.67
557.68	2264.65
558.03	2269.55
558.39	2273.74
558.74	2278.98
559.10	2283.53
559.45	2287.81
559.81	2292.66
560.16	2297.09
560.52	2301.09
560.87	2305.22
561.23	2308.62
561.58	2312.03
561.94	2315.32
562.29	2317.97
562.64	2321.65
563.00	2324.83
563.35	2328.90
563.71	2332.66
564.06	2336.46
564.42	2339.93
564.77	2343.14
565.12	2346.14
565.48	2348.65
565.83	2351.28
566.19	2353.35
566.54	2354.92
566.89	2356.83
567.25	2358.16
567.60	2359.98
567.96	2362.29
568.31	2363.62
568.66	2365.21
569.02	2366.42
569.37	2367.34
569.72	2368.92
570.08	2369.51
570.43	2369.90
570.78	2369.99
571.14	2369.09
571.49	2368.18
571.84	2368.07
572.20	2367.45
572.55	2366.78
572.90	2365.65
573.26	2364.70
573.61	2363.12
573.96	2361.91
574.31	2359.18
574.67	2356.60
575.02	2353.33
575.37	2350.13
575.72	2346.71
576.08	2343.62
576.43	2340.49
576.78	2337.33
577.13	2334.37
577.49	2331.28
577.84	2328.39
578.19	2324.86
578.54	2321.42
578.90	2317.62
579.25	2312.43
579.60	2307.76
579.95	2303.06
580.30	2298.18
580.66	2293.33
581.01	2288.67
581.36	2283.86
581.71	2280.17
582.06	2275.98
582.42	2271.95
582.77	2266.94
583.12	2262.52
583.47	2258.38
583.82	2253.80
584.17	2248.69
584.53	2243.51
584.88	2238.29
585.23	2232.66
585.58	2227.20
585.93	2221.76
586.28	2216.83
586.63	2211.99
586.98	2206.91
587.34	2202.08
587.69	2197.31
588.04	2192.15
588.39	2186.60
588.74	2180.03
589.09	2173.76
589.44	2167.02
589.79	2160.58
590.14	2154.88
590.49	2148.32
590.84	2141.56
591.19	2135.53
591.54	2129.01
591.89	2121.55
592.25	2114.82
592.60	2107.51
592.95	2100.10
593.30	2092.68
593.65	2085.02
594.00	2077.74
594.35	2070.49
594.70	2062.22
595.05	2055.12
595.40	2047.64
595.75	2040.11
596.10	2034.06
596.45	2027.37
596.80	2021.00
597.15	2014.55
597.50	2007.57
597.85	2001.02
598.19	1994.36
598.54	1987.29
598.89	1980.52
599.24	1974.46
599.59	1967.77
599.94	1961.14
600.29	1954.46
600.64	1947.60
600.99	1940.06
601.34	1933.02
601.69	1925.72
602.04	1918.86
602.39	1911.19
602.74	1904.19
603.08	1897.36
603.43	1890.26
603.78	1882.64
604.13	1875.19
604.48	1867.82
604.83	1860.83
605.18	1853.84
605.53	1845.69
605.87	1837.26
606.22	1829.76
606.57	1821.41
606.92	1813.39
607.27	1806.22
607.62	1799.08
607.96	1791.78
608.31	1785.29
608.66	1777.42
609.01	1769.63
609.36	1761.72
609.70	1753.52
610.05	1745.05
610.40	1736.89
610.75	1728.31
611.10	1720.30
611.44	1711.49
611.79	1702.99
612.14	1693.76
612.49	1683.99
612.83	1675.17
613.18	1666.52
613.53	1657.93
613.88	1649.07
614.22	1640.54
614.57	1631.38
614.92	1622.94
615.27	1615.04
615.61	1606.17
615.96	1597.87
616.31	1589.67
616.65	1581.95
617.00	1573.88
617.35	1565.85
617.70	1557.18
618.04	1548.22
618.39	1539.45
618.74	1531.55
619.08	1522.85
619.43	1514.89
619.78	1507.56
620.12	1500.10
620.47	1492.23
620.82	1483.49
621.16	1475.56
621.51	1467.43
621.85	1459.42
622.20	1450.52
622.55	1441.59
622.89	1433.15
623.24	1424.81
623.59	1416.89
623.93	1408.88
624.28	1401.11
624.62	1393.10
624.97	1385.34
625.32	1378.00
625.66	1370.57
626.01	1362.95
626.35	1355.19
626.70	1346.92
627.04	1338.83
627.39	1330.41
627.73	1322.50
628.08	1315.26
628.43	1307.76
628.77	1300.08
629.12	1292.14
629.46	1284.54
629.81	1276.58
630.15	1268.89
630.50	1261.27
630.84	1252.82
631.19	1244.46
631.53	1236.55
631.88	1228.68
632.22	1220.69
632.57	1212.91
632.91	1204.96
633.26	1197.12
633.60	1189.24
633.95	1181.65
634.29	1174.11
634.64	1167.06
634.98	1159.46
635.32	1151.89
635.67	1144.73
636.01	1137.70
636.36	1130.51
636.70	1123.59
637.05	1116.66
637.39	1109.89
637.73	1103.09
638.08	1096.84
638.42	1090.55
638.77	1083.85
639.11	1076.94
639.45	1070.21
639.80	1063.36
640.14	1056.73
640.49	1049.88
640.83	1043.25
641.17	1036.80
641.52	1030.32
641.86	1023.51
642.20	1017.27
642.55	1010.62
642.89	1003.83
643.23	996.89
643.58	990.78
643.92	984.32
644.26	978.07
644.61	971.71
644.95	965.39
645.29	958.63
645.64	951.57
645.98	944.91
646.32	938.56
646.66	932.30
647.01	926.26
647.35	920.26
647.69	914.08
648.04	908.27
648.38	902.23
648.72	895.94
649.06	889.79
649.41	883.57
649.75	877.31
650.09	871.13
650.43	865.14
650.78	858.68
651.12	852.47
651.46	846.47
651.80	840.64
652.14	834.90
652.49	829.28
652.83	823.86
653.17	818.04
653.51	812.27
653.85	806.54
654.20	800.68
654.54	794.37
654.88	788.42
655.22	782.18
655.56	776.15
655.90	770.38
656.25	764.90
656.59	759.36
656.93	754.07
657.27	748.68
657.61	742.96
657.95	737.63
658.29	732.24
658.64	726.65
658.98	720.91
659.32	715.22
659.66	709.82
660.00	704.29
660.34	699.07
660.68	693.84
661.02	688.57
661.36	683.65
661.70	678.96
662.05	674.41
662.39	670.02
662.73	665.43
663.07	660.82
663.41	656.13
663.75	651.45
664.09	646.74
664.43	642.13
664.77	637.89
665.11	633.50
665.45	629.16
665.79	625.01
666.13	620.80
666.47	616.50
666.81	612.11
667.15	607.77
667.49	603.64
667.83	599.62
668.17	595.56
668.51	591.32
668.85	587.06
669.19	582.89
669.53	578.84
669.87	574.73
670.21	570.87
670.55	567.02
670.89	563.40
671.23	559.83
671.57	556.15
671.91	552.51
672.25	548.79
672.58	545.14
672.92	541.47
673.26	538.04
673.60	534.73
673.94	531.50
674.28	528.42
674.62	525.36
674.96	522.17
675.30	519.06
675.64	515.99
675.97	513.05
676.31	510.16
676.65	507.08
676.99	504.30
677.33	501.25
677.67	498.31
678.01	495.14
678.34	491.98
678.68	488.97
679.02	485.95
679.36	483.12
679.70	480.27
680.04	477.40
680.37	474.55
680.71	471.63
681.05	468.86
681.39	466.08
681.73	463.29
682.06	460.61
682.40	458.01
682.74	455.33
683.08	452.68
683.42	449.91
683.75	447.28
684.09	444.52
684.43	441.91
684.77	439.33
685.10	436.82
685.44	434.40
685.78	432.00
686.12	429.59
686.45	427.12
686.79	424.72
687.13	422.40
687.46	420.05
687.80	417.78
688.14	415.40
688.48	413.22
688.81	410.92
689.15	408.67
689.49	406.39
689.82	404.21
690.16	401.93
690.50	399.89
690.83	397.88
691.17	395.85
691.51	393.91
691.84	391.99
692.18	390.04
692.52	388.01
692.85	385.98
693.19	384.08
693.52	382.13
693.86	380.16
694.20	378.30
694.53	376.43
694.87	374.46
695.21	372.60
695.54	370.66
695.88	368.80
696.21	367.01
696.55	365.24
696.88	363.42
697.22	361.70
697.56	359.91
697.89	358.17
698.23	356.48
698.56	354.75
698.90	353.09
699.23	351.38
699.57	349.76
699.90	348.10
700.24	346.37
700.58	344.82
700.91	343.31
701.25	341.77
701.58	340.32
701.92	338.95
702.25	337.50
702.59	336.08
702.92	334.75
703.26	333.33
703.59	331.98
703.93	330.76
704.26	329.54
704.60	328.25
704.93	326.93
705.26	325.56
705.60	324.27
705.93	323.00
706.27	321.88
706.60	320.77
706.94	319.62
707.27	318.46
707.61	317.30
707.94	316.14
708.27	314.99
708.61	313.80
708.94	312.70
709.28	311.65
709.61	310.56
709.94	309.50
710.28	308.42
710.61	307.35
710.95	306.20
711.28	305.15
711.61	304.13
711.95	303.15
712.28	302.17
712.61	301.20
712.95	300.19
713.28	299.23
713.61	298.25
713.95	297.33
714.28	296.42
714.61	295.51
714.95	294.64
715.28	293.75
715.61	292.84
715.95	291.95
716.28	291.05
716.61	290.24
716.95	289.34
717.28	288.58
717.61	287.75
717.94	286.96
718.28	286.13
718.61	285.34
718.94	284.59
719.27	283.90
719.61	283.17
719.94	282.51
720.27	281.75
720.60	280.99
720.94	280.34
721.27	279.73
721.60	279.11
721.93	278.51
722.27	277.96
722.60	277.39
722.93	276.75
723.26	276.20
723.59	275.59
723.93	275.02
724.26	274.40
724.59	273.82
724.92	273.22
725.25	272.70
725.59	272.12
725.92	271.56
726.25	271.03
726.58	270.52
726.91	269.98
727.24	269.51
727.57	269.07
727.91	268.51
728.24	268.02
728.57	267.52
728.90	267.02
729.23	266.46
729.56	266.01
729.89	265.54
730.22	264.98
730.55	264.45
730.89	263.97
731.22	263.53
731.55	263.05
731.88	262.60
732.21	262.14
732.54	261.71
732.87	261.25
733.20	260.83
733.53	260.40
733.86	259.99
734.19	259.57
734.52	259.18
734.85	258.83
735.18	258.39
735.51	257.98
735.84	257.57
736.17	257.20
736.50	256.79
736.83	256.54
737.16	256.22
737.49	255.91
737.82	255.54
738.15	255.16
738.48	254.85
738.81	254.50
739.14	254.15
739.47	253.82
739.80	253.52
740.13	253.20
740.46	252.86
740.79	252.51
741.12	252.16
741.45	251.79
741.78	251.43
742.11	251.18
742.44	250.85
742.77	250.56
743.10	250.25
743.43	249.93
743.75	249.54
744.08	249.37
744.41	249.05
744.74	248.77
745.07	248.49
745.40	248.24
745.73	248.05
746.06	247.76
746.39	247.48
746.71	247.18
747.04	246.88
747.37	246.60
747.70	246.34
748.03	246.08
748.36	245.86
748.68	245.62
749.01	245.32
749.34	245.08
749.67	244.84
750.00	244.60
750.33	244.43
750.65	244.16
750.98	243.79
751.31	243.59
751.64	243.37
751.97	243.21
752.29	242.96
752.62	242.69
752.95	242.47
753.28	242.27
753.60	242.05
753.93	241.84
754.26	241.65
754.59	241.45
754.91	241.22
755.24	240.99
755.57	240.78
755.90	240.59
756.22	240.38
756.55	240.15
756.88	239.95
757.20	239.69
757.53	239.49
757.86	239.32
758.19	239.14
758.51	238.95
758.84	238.68
759.17	238.46
759.49	238.26
759.82	238.15
760.15	237.96
760.47	237.82
760.80	237.64
761.13	237.52
761.45	237.32
761.78	237.19
762.11	237.06
762.43	236.91
762.76	236.77
763.08	236.61
763.41	236.51
763.74	236.34
764.06	236.21
764.39	236.09
764.71	235.93
765.04	235.76
765.37	235.62
765.69	235.51
766.02	235.40
766.34	235.26
766.67	235.09
767.00	234.98
767.32	234.90
767.65	234.88
767.97	234.75
768.30	234.64
768.62	234.53
768.95	234.39
769.27	234.28
769.60	234.16
769.92	234.07
770.25	233.91
770.57	233.83
770.90	233.71
771.22	233.59
771.55	233.51
771.87	233.41
772.20	233.31
772.52	233.29
772.85	233.33
773.17	233.24
773.50	233.10
773.82	232.98
774.15	232.82
774.47	232.64
774.80	232.52
775.12	232.46
775.45	232.35
775.77	232.25
776.09	232.14
776.42	232.08
776.74	232.03
777.07	231.96
777.39	231.88
777.72	231.77
778.04	231.71
778.36	231.66
778.69	231.60
779.01	231.57
779.33	231.44
779.66	231.24
779.98	231.18
780.31	231.15
780.63	231.14
780.95	231.10
781.28	231.04
781.60	230.98
781.92	230.90
782.25	230.81
782.57	230.75
782.89	230.70
783.22	230.62
783.54	230.55
783.86	230.49
784.19	230.41
784.51	230.39
784.83	230.33
785.16	230.24
785.48	230.19
785.80	230.12
786.12	230.04
786.45	229.97
786.77	229.97
