SpectraSuite Data File
++++++++++++++++++++++++++++++++++++
Date: Fri Feb 01 16:10:56 EST 2013
User: group
Dark Spectrum Present: No
Reference Spectrum Present: No
Number of Sampled Component Spectra: 1
Spectrometers: USB2E7196
Integration Time (usec): 35000 (USB2E7196)
Spectra Averaged: 100 (USB2E7196)
Boxcar Smoothing: 10 (USB2E7196)
Correct for Electrical Dark: No (USB2E7196)
Strobe/Lamp Enabled: No (USB2E7196)
Correct for Detector Non-linearity: No (USB2E7196)
Correct for Stray Light: No (USB2E7196)
Number of Pixels in Processed Spectrum: 2048
>>>>>Begin Processed Spectral Data<<<<<
339.09	0.00
339.48	213.92
339.86	216.22
340.24	217.29
340.63	218.89
341.01	221.82
341.39	221.46
341.78	223.24
342.16	223.94
342.54	224.58
342.93	212.83
343.31	223.56
343.69	224.16
344.07	224.59
344.46	225.02
344.84	225.38
345.22	225.58
345.60	225.83
345.99	225.97
346.37	226.07
346.75	226.16
347.13	226.23
347.52	226.26
347.90	226.34
348.28	226.34
348.66	226.38
349.05	226.37
349.43	226.42
349.81	226.46
350.19	226.50
350.57	226.55
350.96	226.62
351.34	226.68
351.72	226.71
352.10	226.82
352.48	226.88
352.87	226.91
353.25	226.98
353.63	227.01
354.01	227.07
354.39	227.15
354.77	227.21
355.15	227.30
355.54	227.34
355.92	227.37
356.30	227.45
356.68	227.58
357.06	227.64
357.44	227.69
357.82	227.76
358.20	227.83
358.58	227.90
358.97	227.96
359.35	228.06
359.73	228.15
360.11	228.21
360.49	228.25
360.87	228.30
361.25	228.35
361.63	228.43
362.01	228.49
362.39	228.52
362.77	228.57
363.15	228.61
363.53	228.65
363.91	228.68
364.29	228.69
364.67	228.61
365.05	228.62
365.43	228.65
365.81	228.69
366.19	228.78
366.57	228.82
366.95	228.82
367.33	228.78
367.71	228.76
368.09	228.78
368.47	228.76
368.85	228.75
369.23	228.76
369.61	228.69
369.99	228.71
370.37	228.66
370.75	228.68
371.13	228.61
371.51	228.55
371.89	228.51
372.27	228.48
372.65	228.47
373.03	228.42
373.41	228.36
373.78	228.28
374.16	228.15
374.54	228.06
374.92	227.98
375.30	227.95
375.68	227.91
376.06	227.84
376.44	227.77
376.82	227.74
377.19	227.68
377.57	227.62
377.95	227.50
378.33	227.45
378.71	227.31
379.09	227.29
379.47	227.23
379.84	227.19
380.22	227.12
380.60	227.01
380.98	226.97
381.36	226.91
381.73	226.84
382.11	226.81
382.49	226.76
382.87	226.71
383.25	226.64
383.62	226.66
384.00	226.62
384.38	226.61
384.76	226.58
385.13	226.56
385.51	226.51
385.89	226.48
386.27	226.45
386.64	226.43
387.02	226.35
387.40	226.32
387.78	226.26
388.15	226.23
388.53	226.20
388.91	226.16
389.29	226.14
389.66	226.13
390.04	226.07
390.42	226.07
390.79	226.04
391.17	226.01
391.55	225.90
391.92	225.84
392.30	225.80
392.68	225.78
393.05	225.76
393.43	225.77
393.81	225.78
394.18	225.78
394.56	225.80
394.94	225.86
395.31	225.89
395.69	225.96
396.06	226.00
396.44	226.04
396.82	226.07
397.19	226.14
397.57	226.18
397.95	226.25
398.32	226.25
398.70	226.31
399.07	226.41
399.45	226.50
399.82	226.57
400.20	226.64
400.58	226.74
400.95	226.80
401.33	226.89
401.70	227.04
402.08	227.14
402.45	227.23
402.83	227.33
403.20	227.43
403.58	227.51
403.95	227.64
404.33	227.78
404.71	227.92
405.08	228.10
405.46	228.22
405.83	228.36
406.21	228.52
406.58	228.69
406.96	228.82
407.33	229.00
407.70	229.20
408.08	229.46
408.45	229.65
408.83	229.87
409.20	230.10
409.58	230.26
409.95	230.51
410.33	230.80
410.70	231.06
411.08	231.36
411.45	231.68
411.82	231.96
412.20	232.31
412.57	232.72
412.95	233.04
413.32	233.46
413.69	233.87
414.07	234.30
414.44	234.75
414.82	235.27
415.19	235.81
415.56	236.36
415.94	236.92
416.31	237.56
416.68	238.21
417.06	238.90
417.43	239.62
417.81	240.39
418.18	241.16
418.55	241.99
418.93	242.87
419.30	243.76
419.67	244.70
420.04	245.66
420.42	246.65
420.79	247.81
421.16	248.99
421.54	250.19
421.91	251.45
422.28	252.75
422.66	254.06
423.03	255.38
423.40	256.70
423.77	258.10
424.15	259.52
424.52	261.00
424.89	262.64
425.26	264.19
425.64	265.64
426.01	267.20
426.38	268.83
426.75	270.48
427.13	272.18
427.50	273.99
427.87	275.88
428.24	277.74
428.61	279.47
428.99	281.35
429.36	283.40
429.73	285.42
430.10	287.41
430.47	289.43
430.85	291.54
431.22	293.77
431.59	296.11
431.96	298.36
432.33	300.83
432.70	303.18
433.08	305.97
433.45	308.61
433.82	311.26
434.19	314.12
434.56	316.88
434.93	319.53
435.30	322.11
435.68	324.98
436.05	327.78
436.42	330.57
436.79	333.13
437.16	335.85
437.53	338.66
437.90	341.46
438.27	344.21
438.64	347.03
439.01	349.66
439.38	351.89
439.75	354.03
440.13	356.48
440.50	358.79
440.87	360.63
441.24	362.55
441.61	364.68
441.98	366.22
442.35	368.04
442.72	369.92
443.09	371.69
443.46	372.66
443.83	373.23
444.20	373.72
444.57	374.52
444.94	374.78
445.31	375.12
445.68	375.46
446.05	375.55
446.42	375.17
446.79	374.73
447.16	374.29
447.53	373.97
447.90	372.82
448.27	371.70
448.64	370.12
449.01	368.96
449.37	366.97
449.74	365.04
450.11	362.84
450.48	360.34
450.85	357.83
451.22	355.70
451.59	353.71
451.96	351.76
452.33	349.17
452.70	346.81
453.07	343.97
453.43	341.09
453.80	338.29
454.17	335.62
454.54	333.06
454.91	330.37
455.28	327.70
455.65	325.20
456.02	322.74
456.38	320.59
456.75	317.94
457.12	315.71
457.49	313.52
457.86	311.32
458.23	309.46
458.59	307.44
458.96	305.36
459.33	303.53
459.70	301.69
460.07	300.21
460.43	298.46
460.80	296.86
461.17	295.43
461.54	293.96
461.91	292.54
462.27	291.11
462.64	289.84
463.01	288.48
463.38	287.22
463.74	285.84
464.11	284.70
464.48	283.69
464.85	282.62
465.21	281.73
465.58	280.84
465.95	279.77
466.32	278.89
466.68	277.98
467.05	277.08
467.42	276.18
467.78	275.24
468.15	274.43
468.52	273.77
468.88	272.93
469.25	272.15
469.62	271.52
469.98	270.82
470.35	270.22
470.72	269.63
471.08	268.94
471.45	268.41
471.82	267.86
472.18	267.28
472.55	266.83
472.92	266.34
473.28	265.88
473.65	265.41
474.02	264.94
474.38	264.59
474.75	264.26
475.11	263.91
475.48	263.65
475.85	263.41
476.21	263.19
476.58	263.00
476.94	262.84
477.31	262.63
477.67	262.50
478.04	262.39
478.41	262.33
478.77	262.40
479.14	262.35
479.50	262.35
479.87	262.42
480.23	262.49
480.60	262.49
480.96	262.54
481.33	262.78
481.69	263.01
482.06	263.15
482.42	263.34
482.79	263.60
483.15	263.91
483.52	264.29
483.88	264.63
484.25	264.98
484.61	265.40
484.98	265.89
485.34	266.45
485.71	267.04
486.07	267.61
486.44	268.18
486.80	268.88
487.17	269.57
487.53	270.35
487.90	271.18
488.26	272.13
488.62	273.14
488.99	274.11
489.35	275.13
489.72	276.28
490.08	277.50
490.44	278.77
490.81	280.09
491.17	281.45
491.54	282.93
491.90	284.51
492.26	286.20
492.63	287.92
492.99	289.68
493.36	291.59
493.72	293.67
494.08	295.76
494.45	298.06
494.81	300.43
495.17	302.92
495.54	305.56
495.90	308.30
496.26	311.12
496.63	314.12
496.99	317.25
497.35	320.55
497.72	323.97
498.08	327.52
498.44	331.25
498.80	335.16
499.17	339.24
499.53	343.39
499.89	347.74
500.26	352.29
500.62	357.01
500.98	361.98
501.34	367.09
501.71	372.45
502.07	377.89
502.43	383.52
502.79	389.35
503.16	395.41
503.52	401.70
503.88	408.11
504.24	414.74
504.60	421.70
504.97	428.85
505.33	436.20
505.69	443.87
506.05	451.60
506.41	459.51
506.78	467.70
507.14	476.22
507.50	485.00
507.86	493.98
508.22	503.12
508.59	512.38
508.95	521.90
509.31	531.74
509.67	541.85
510.03	552.18
510.39	562.80
510.75	573.60
511.12	584.49
511.48	595.79
511.84	607.25
512.20	618.73
512.56	630.70
512.92	642.95
513.28	655.35
513.64	667.82
514.00	680.51
514.37	693.42
514.73	706.51
515.09	719.51
515.45	732.83
515.81	746.43
516.17	760.37
516.53	774.54
516.89	788.69
517.25	802.82
517.61	817.25
517.97	831.58
518.33	845.96
518.69	860.72
519.05	875.68
519.41	890.81
519.77	906.35
520.13	921.65
520.49	936.91
520.85	952.18
521.21	967.79
521.57	983.99
521.93	999.77
522.29	1016.09
522.65	1032.27
523.01	1048.43
523.37	1064.46
523.73	1080.50
524.09	1096.46
524.45	1112.73
524.81	1129.36
525.17	1146.07
525.53	1162.93
525.89	1179.78
526.25	1196.66
526.61	1212.96
526.97	1229.66
527.33	1246.07
527.68	1262.67
528.04	1279.11
528.40	1295.71
528.76	1312.82
529.12	1329.47
529.48	1346.30
529.84	1362.27
530.20	1378.94
530.56	1395.92
530.91	1413.33
531.27	1430.11
531.63	1446.58
531.99	1463.12
532.35	1479.00
532.71	1494.93
533.07	1511.18
533.42	1527.02
533.78	1543.02
534.14	1559.31
534.50	1574.52
534.86	1590.38
535.21	1605.65
535.57	1621.47
535.93	1636.86
536.29	1651.63
536.65	1666.52
537.00	1681.15
537.36	1696.28
537.72	1710.62
538.08	1724.83
538.44	1738.31
538.79	1752.17
539.15	1765.69
539.51	1779.17
539.87	1793.32
540.22	1806.95
540.58	1820.48
540.94	1833.55
541.29	1846.17
541.65	1858.77
542.01	1871.83
542.37	1884.03
542.72	1896.14
543.08	1907.86
543.44	1920.24
543.79	1931.32
544.15	1942.25
544.51	1953.76
544.87	1964.67
545.22	1975.38
545.58	1985.66
545.94	1995.51
546.29	2005.25
546.65	2015.19
547.01	2024.62
547.36	2033.47
547.72	2041.91
548.07	2049.89
548.43	2058.24
548.79	2066.28
549.14	2073.66
549.50	2081.10
549.86	2088.81
550.21	2096.24
550.57	2103.44
550.92	2110.04
551.28	2117.15
551.64	2124.19
551.99	2130.72
552.35	2136.87
552.70	2143.14
553.06	2149.07
553.41	2155.50
553.77	2161.62
554.13	2167.66
554.48	2173.71
554.84	2179.18
555.19	2184.46
555.55	2189.66
555.90	2194.10
556.26	2199.10
556.61	2203.92
556.97	2208.31
557.32	2212.32
557.68	2216.48
558.03	2220.83
558.39	2224.57
558.74	2229.22
559.10	2233.04
559.45	2236.76
559.81	2241.11
560.16	2244.96
560.52	2248.16
560.87	2251.60
561.23	2254.23
561.58	2257.18
561.94	2259.75
562.29	2262.08
562.64	2264.62
563.00	2267.08
563.35	2270.77
563.71	2273.79
564.06	2277.08
564.42	2279.93
564.77	2282.61
565.12	2284.82
565.48	2286.78
565.83	2288.67
566.19	2289.98
566.54	2291.02
566.89	2292.19
567.25	2292.82
567.60	2294.02
567.96	2295.85
568.31	2296.60
568.66	2297.79
569.02	2298.41
569.37	2298.77
569.72	2299.64
570.08	2299.93
570.43	2300.11
570.78	2299.49
571.14	2297.98
571.49	2296.55
571.84	2296.12
572.20	2294.91
572.55	2294.02
572.90	2292.44
573.26	2291.07
573.61	2289.40
573.96	2287.65
574.31	2284.63
574.67	2281.64
575.02	2278.02
575.37	2274.68
575.72	2270.95
576.08	2267.57
576.43	2264.17
576.78	2260.52
577.13	2257.37
577.49	2254.36
577.84	2250.90
578.19	2247.20
578.54	2243.74
578.90	2239.71
579.25	2234.33
579.60	2229.43
579.95	2224.44
580.30	2219.42
580.66	2214.18
581.01	2209.15
581.36	2204.26
581.71	2200.12
582.06	2195.77
582.42	2191.49
582.77	2186.26
583.12	2181.85
583.47	2177.22
583.82	2172.28
584.17	2167.02
584.53	2161.61
584.88	2155.92
585.23	2150.16
585.58	2144.67
585.93	2139.23
586.28	2134.40
586.63	2129.29
586.98	2124.32
587.34	2119.58
587.69	2114.72
588.04	2109.55
588.39	2104.17
588.74	2097.73
589.09	2091.69
589.44	2084.91
589.79	2078.85
590.14	2073.30
590.49	2066.65
590.84	2060.25
591.19	2054.32
591.54	2047.93
591.89	2040.65
592.25	2033.95
592.60	2026.81
592.95	2019.25
593.30	2011.88
593.65	2004.35
594.00	1997.43
594.35	1990.09
594.70	1982.07
595.05	1974.87
595.40	1967.66
595.75	1960.04
596.10	1953.96
596.45	1947.26
596.80	1941.13
597.15	1934.58
597.50	1927.49
597.85	1921.11
598.19	1914.45
598.54	1907.35
598.89	1900.80
599.24	1894.83
599.59	1888.26
599.94	1882.05
600.29	1875.68
600.64	1869.00
600.99	1861.46
601.34	1854.53
601.69	1847.71
602.04	1840.92
602.39	1833.65
602.74	1826.83
603.08	1820.07
603.43	1813.30
603.78	1805.91
604.13	1798.83
604.48	1791.61
604.83	1784.70
605.18	1777.73
605.53	1769.63
605.87	1761.57
606.22	1754.17
606.57	1746.17
606.92	1738.69
607.27	1731.40
607.62	1724.50
607.96	1717.27
608.31	1710.71
608.66	1703.15
609.01	1695.48
609.36	1687.80
609.70	1679.64
610.05	1671.41
610.40	1663.67
610.75	1655.21
611.10	1647.55
611.44	1638.91
611.79	1630.86
612.14	1622.12
612.49	1612.92
612.83	1604.72
613.18	1596.58
613.53	1588.61
613.88	1580.24
614.22	1572.05
614.57	1563.49
614.92	1555.41
615.27	1547.90
615.61	1539.54
615.96	1531.51
616.31	1523.87
616.65	1516.59
617.00	1509.17
617.35	1501.56
617.70	1493.44
618.04	1484.96
618.39	1476.62
618.74	1469.09
619.08	1460.70
619.43	1453.16
619.78	1446.37
620.12	1439.16
620.47	1431.71
620.82	1423.54
621.16	1416.03
621.51	1408.40
621.85	1400.81
622.20	1392.38
622.55	1384.09
622.89	1376.30
623.24	1368.62
623.59	1361.19
623.93	1353.53
624.28	1346.21
624.62	1338.81
624.97	1331.45
625.32	1324.73
625.66	1317.84
626.01	1310.74
626.35	1303.26
626.70	1295.51
627.04	1287.73
627.39	1279.86
627.73	1272.40
628.08	1265.52
628.43	1258.16
628.77	1250.78
629.12	1243.23
629.46	1235.99
629.81	1228.40
630.15	1221.14
630.50	1213.78
630.84	1205.67
631.19	1197.87
631.53	1190.37
631.88	1182.64
632.22	1175.15
632.57	1167.86
632.91	1160.29
633.26	1152.90
633.60	1145.56
633.95	1138.44
634.29	1131.30
634.64	1124.74
634.98	1117.43
635.32	1110.17
635.67	1103.66
636.01	1096.94
636.36	1090.10
636.70	1083.59
637.05	1077.12
637.39	1070.70
637.73	1064.28
638.08	1058.36
638.42	1052.29
638.77	1045.90
639.11	1039.42
639.45	1032.91
639.80	1026.17
640.14	1019.86
640.49	1013.27
640.83	1006.97
641.17	1000.71
641.52	994.40
641.86	987.88
642.20	982.03
642.55	975.72
642.89	969.27
643.23	962.65
643.58	956.92
643.92	950.74
644.26	944.69
644.61	938.60
644.95	932.57
645.29	925.97
645.64	919.22
645.98	912.79
646.32	906.93
646.66	900.93
647.01	895.21
647.35	889.41
647.69	883.48
648.04	877.95
648.38	872.17
648.72	866.24
649.06	860.11
649.41	854.23
649.75	848.22
650.09	842.18
650.43	836.48
650.78	830.26
651.12	824.27
651.46	818.57
651.80	812.80
652.14	807.30
652.49	801.91
652.83	796.76
653.17	791.16
653.51	785.35
653.85	779.91
654.20	774.20
654.54	768.20
654.88	762.45
655.22	756.55
655.56	750.87
655.90	745.34
656.25	740.13
656.59	734.71
656.93	729.65
657.27	724.54
657.61	719.09
657.95	714.07
658.29	709.05
658.64	703.76
658.98	698.50
659.32	693.04
659.66	687.85
660.00	682.54
660.34	677.58
660.68	672.75
661.02	667.76
661.36	663.08
661.70	658.55
662.05	654.25
662.39	649.91
662.73	645.49
663.07	641.14
663.41	636.67
663.75	632.20
664.09	627.64
664.43	623.20
664.77	619.12
665.11	614.81
665.45	610.62
665.79	606.51
666.13	602.36
666.47	598.28
666.81	594.18
667.15	590.03
667.49	586.04
667.83	582.25
668.17	578.34
668.51	574.26
668.85	570.25
669.19	566.36
669.53	562.50
669.87	558.57
670.21	554.84
670.55	551.29
670.89	547.82
671.23	544.40
671.57	540.88
671.91	537.34
672.25	533.91
672.58	530.38
672.92	527.06
673.26	523.90
673.60	520.81
673.94	517.67
674.28	514.81
674.62	511.93
674.96	508.79
675.30	505.81
675.64	502.92
675.97	500.14
676.31	497.28
676.65	494.39
676.99	491.73
677.33	488.82
677.67	486.00
678.01	483.01
678.34	480.04
678.68	477.18
679.02	474.32
679.36	471.51
679.70	468.78
680.04	465.98
680.37	463.12
680.71	460.29
681.05	457.64
681.39	454.91
681.73	452.24
682.06	449.71
682.40	447.17
682.74	444.62
683.08	442.06
683.42	439.46
683.75	436.97
684.09	434.44
684.43	432.02
684.77	429.53
685.10	427.20
685.44	424.92
685.78	422.67
686.12	420.42
686.45	418.11
686.79	415.85
687.13	413.63
687.46	411.45
687.80	409.26
688.14	407.06
688.48	405.00
688.81	402.73
689.15	400.60
689.49	398.49
689.82	396.41
690.16	394.36
690.50	392.47
690.83	390.54
691.17	388.55
691.51	386.61
691.84	384.80
692.18	382.87
692.52	380.85
692.85	378.90
693.19	377.01
693.52	375.19
693.86	373.34
694.20	371.55
694.53	369.75
694.87	367.91
695.21	366.10
695.54	364.30
695.88	362.60
696.21	360.83
696.55	359.13
696.88	357.46
697.22	355.75
697.56	354.08
697.89	352.40
698.23	350.79
698.56	349.20
698.90	347.59
699.23	345.92
699.57	344.38
699.90	342.81
700.24	341.24
700.58	339.77
700.91	338.30
701.25	336.85
701.58	335.50
701.92	334.13
702.25	332.75
702.59	331.36
702.92	330.01
703.26	328.73
703.59	327.41
703.93	326.21
704.26	325.00
704.60	323.68
704.93	322.36
705.26	321.08
705.60	319.89
705.93	318.68
706.27	317.67
706.60	316.60
706.94	315.52
707.27	314.39
707.61	313.30
707.94	312.24
708.27	311.16
708.61	310.03
708.94	309.01
709.28	308.04
709.61	307.08
709.94	306.11
710.28	305.08
710.61	304.15
710.95	303.05
711.28	302.10
711.61	301.18
711.95	300.30
712.28	299.34
712.61	298.39
712.95	297.50
713.28	296.60
713.61	295.73
713.95	294.81
714.28	293.97
714.61	293.09
714.95	292.27
715.28	291.46
715.61	290.61
715.95	289.74
716.28	288.89
716.61	288.06
716.95	287.28
717.28	286.53
717.61	285.74
717.94	285.02
718.28	284.21
718.61	283.49
718.94	282.83
719.27	282.20
719.61	281.52
719.94	280.84
720.27	280.11
720.60	279.48
720.94	278.93
721.27	278.36
721.60	277.78
721.93	277.15
722.27	276.55
722.60	276.00
722.93	275.43
723.26	274.88
723.59	274.32
723.93	273.79
724.26	273.23
724.59	272.65
724.92	272.14
725.25	271.69
725.59	271.16
725.92	270.61
726.25	270.08
726.58	269.60
726.91	269.08
727.24	268.62
727.57	268.12
727.91	267.56
728.24	267.09
728.57	266.60
728.90	266.16
729.23	265.67
729.56	265.23
729.89	264.76
730.22	264.28
730.55	263.81
730.89	263.29
731.22	262.86
731.55	262.40
731.88	261.98
732.21	261.54
732.54	261.11
732.87	260.68
733.20	260.28
733.53	259.92
733.86	259.56
734.19	259.14
734.52	258.76
734.85	258.45
735.18	258.02
735.51	257.69
735.84	257.31
736.17	256.99
736.50	256.58
736.83	256.36
737.16	256.02
737.49	255.69
737.82	255.37
738.15	255.05
738.48	254.75
738.81	254.44
739.14	254.08
739.47	253.76
739.80	253.46
740.13	253.19
740.46	252.81
740.79	252.50
741.12	252.24
741.45	251.92
741.78	251.57
742.11	251.33
742.44	250.98
742.77	250.69
743.10	250.39
743.43	250.09
743.75	249.72
744.08	249.59
744.41	249.34
744.74	249.08
745.07	248.81
745.40	248.56
745.73	248.31
746.06	248.03
746.39	247.80
746.71	247.51
747.04	247.19
747.37	247.00
747.70	246.75
748.03	246.48
748.36	246.24
748.68	246.01
749.01	245.75
749.34	245.54
749.67	245.32
750.00	245.07
750.33	244.93
750.65	244.70
750.98	244.38
751.31	244.13
751.64	243.94
751.97	243.75
752.29	243.53
752.62	243.28
752.95	243.08
753.28	242.83
753.60	242.62
753.93	242.45
754.26	242.24
754.59	241.99
754.91	241.79
755.24	241.62
755.57	241.44
755.90	241.24
756.22	241.02
756.55	240.84
756.88	240.65
757.20	240.43
757.53	240.24
757.86	240.02
758.19	239.89
758.51	239.70
758.84	239.52
759.17	239.34
759.49	239.18
759.82	239.07
760.15	238.92
760.47	238.81
760.80	238.64
761.13	238.50
761.45	238.39
761.78	238.28
762.11	238.10
762.43	237.94
762.76	237.78
763.08	237.64
763.41	237.53
763.74	237.39
764.06	237.23
764.39	237.09
764.71	236.96
765.04	236.81
765.37	236.63
765.69	236.49
766.02	236.37
766.34	236.24
766.67	236.05
767.00	235.96
767.32	235.87
767.65	235.79
767.97	235.64
768.30	235.49
768.62	235.33
768.95	235.24
769.27	235.12
769.60	235.03
769.92	234.94
770.25	234.80
770.57	234.70
770.90	234.61
771.22	234.49
771.55	234.39
771.87	234.32
772.20	234.29
772.52	234.28
772.85	234.28
773.17	234.21
773.50	234.09
773.82	233.97
774.15	233.81
774.47	233.70
774.80	233.61
775.12	233.52
775.45	233.46
775.77	233.37
776.09	233.30
776.42	233.22
776.74	233.15
777.07	233.08
777.39	232.97
777.72	232.88
778.04	232.82
778.36	232.76
778.69	232.69
779.01	232.58
779.33	232.45
779.66	232.31
779.98	232.22
780.31	232.20
780.63	232.19
780.95	232.18
781.28	232.10
781.60	232.05
781.92	232.00
782.25	231.95
782.57	231.88
782.89	231.80
783.22	231.72
783.54	231.68
783.86	231.61
784.19	231.58
784.51	231.57
784.83	231.49
785.16	231.45
785.48	231.40
785.80	231.38
786.12	231.32
786.45	231.27
786.77	231.26
787.09	231.21
