SpectraSuite Data File
++++++++++++++++++++++++++++++++++++
Date: Fri Feb 01 15:25:29 EST 2013
User: group
Dark Spectrum Present: No
Reference Spectrum Present: No
Number of Sampled Component Spectra: 1
Spectrometers: USB2E7196
Integration Time (usec): 35000 (USB2E7196)
Spectra Averaged: 100 (USB2E7196)
Boxcar Smoothing: 10 (USB2E7196)
Correct for Electrical Dark: No (USB2E7196)
Strobe/Lamp Enabled: No (USB2E7196)
Correct for Detector Non-linearity: No (USB2E7196)
Correct for Stray Light: No (USB2E7196)
Number of Pixels in Processed Spectrum: 2048
>>>>>Begin Processed Spectral Data<<<<<
339.09	0.00
339.48	215.11
339.86	216.17
340.24	217.62
340.63	219.41
341.01	222.46
341.39	221.69
341.78	223.36
342.16	224.73
342.54	224.78
342.93	213.30
343.31	224.12
343.69	224.64
344.07	225.13
344.46	225.57
344.84	225.95
345.22	226.18
345.60	226.43
345.99	226.62
346.37	226.74
346.75	226.86
347.13	226.95
347.52	227.02
347.90	227.11
348.28	227.17
348.66	227.20
349.05	227.19
349.43	227.24
349.81	227.33
350.19	227.35
350.57	227.45
350.96	227.53
351.34	227.61
351.72	227.71
352.10	227.80
352.48	227.87
352.87	227.92
353.25	228.01
353.63	228.08
354.01	228.14
354.39	228.22
354.77	228.29
355.15	228.39
355.54	228.44
355.92	228.45
356.30	228.55
356.68	228.73
357.06	228.78
357.44	228.87
357.82	228.92
358.20	229.01
358.58	229.08
358.97	229.13
359.35	229.16
359.73	229.25
360.11	229.34
360.49	229.40
360.87	229.47
361.25	229.52
361.63	229.59
362.01	229.66
362.39	229.69
362.77	229.74
363.15	229.78
363.53	229.82
363.91	229.86
364.29	229.86
364.67	229.74
365.05	229.76
365.43	229.76
365.81	229.79
366.19	229.81
366.57	229.82
366.95	229.83
367.33	229.83
367.71	229.81
368.09	229.80
368.47	229.77
368.85	229.72
369.23	229.70
369.61	229.63
369.99	229.61
370.37	229.57
370.75	229.59
371.13	229.53
371.51	229.46
371.89	229.40
372.27	229.39
372.65	229.36
373.03	229.30
373.41	229.24
373.78	229.16
374.16	229.04
374.54	228.95
374.92	228.84
375.30	228.75
375.68	228.64
376.06	228.57
376.44	228.48
376.82	228.43
377.19	228.34
377.57	228.27
377.95	228.17
378.33	228.11
378.71	227.94
379.09	227.91
379.47	227.87
379.84	227.82
380.22	227.72
380.60	227.62
380.98	227.57
381.36	227.50
381.73	227.41
382.11	227.38
382.49	227.33
382.87	227.28
383.25	227.23
383.62	227.26
384.00	227.15
384.38	227.15
384.76	227.09
385.13	227.08
385.51	227.04
385.89	226.97
386.27	226.91
386.64	226.88
387.02	226.78
387.40	226.73
387.78	226.67
388.15	226.59
388.53	226.57
388.91	226.54
389.29	226.52
389.66	226.51
390.04	226.46
390.42	226.44
390.79	226.44
391.17	226.43
391.55	226.35
391.92	226.39
392.30	226.36
392.68	226.34
393.05	226.32
393.43	226.28
393.81	226.31
394.18	226.30
394.56	226.32
394.94	226.37
395.31	226.39
395.69	226.43
396.06	226.49
396.44	226.52
396.82	226.53
397.19	226.61
397.57	226.67
397.95	226.75
398.32	226.79
398.70	226.84
399.07	226.90
399.45	226.94
399.82	226.99
400.20	227.05
400.58	227.14
400.95	227.17
401.33	227.29
401.70	227.43
402.08	227.57
402.45	227.67
402.83	227.81
403.20	227.92
403.58	228.02
403.95	228.17
404.33	228.30
404.71	228.43
405.08	228.59
405.46	228.70
405.83	228.81
406.21	228.94
406.58	229.11
406.96	229.28
407.33	229.47
407.70	229.66
408.08	229.93
408.45	230.17
408.83	230.44
409.20	230.66
409.58	230.86
409.95	231.11
410.33	231.36
410.70	231.56
411.08	231.83
411.45	232.14
411.82	232.45
412.20	232.77
412.57	233.18
412.95	233.46
413.32	233.89
413.69	234.32
414.07	234.77
414.44	235.22
414.82	235.73
415.19	236.27
415.56	236.79
415.94	237.33
416.31	237.96
416.68	238.56
417.06	239.30
417.43	239.98
417.81	240.76
418.18	241.55
418.55	242.40
418.93	243.30
419.30	244.19
419.67	245.09
420.04	246.04
420.42	247.06
420.79	248.26
421.16	249.41
421.54	250.62
421.91	251.82
422.28	253.08
422.66	254.40
423.03	255.74
423.40	257.12
423.77	258.52
424.15	259.90
424.52	261.39
424.89	263.02
425.26	264.57
425.64	266.05
426.01	267.66
426.38	269.31
426.75	271.01
427.13	272.74
427.50	274.58
427.87	276.49
428.24	278.32
428.61	280.06
428.99	282.03
429.36	284.13
429.73	286.19
430.10	288.21
430.47	290.26
430.85	292.37
431.22	294.59
431.59	296.99
431.96	299.24
432.33	301.75
432.70	304.09
433.08	306.89
433.45	309.50
433.82	312.11
434.19	315.02
434.56	317.84
434.93	320.51
435.30	323.17
435.68	326.08
436.05	328.94
436.42	331.75
436.79	334.22
437.16	336.92
437.53	339.77
437.90	342.63
438.27	345.38
438.64	348.20
439.01	350.82
439.38	353.07
439.75	355.29
440.13	357.79
440.50	360.14
440.87	362.02
441.24	363.96
441.61	366.13
441.98	367.65
442.35	369.44
442.72	371.30
443.09	373.15
443.46	374.12
443.83	374.70
444.20	375.21
444.57	376.04
444.94	376.35
445.31	376.75
445.68	377.08
446.05	377.13
446.42	376.71
446.79	376.29
447.16	375.89
447.53	375.56
447.90	374.37
448.27	373.18
448.64	371.58
449.01	370.47
449.37	368.46
449.74	366.54
450.11	364.29
450.48	361.83
450.85	359.22
451.22	357.09
451.59	355.07
451.96	353.12
452.33	350.56
452.70	348.17
453.07	345.30
453.43	342.39
453.80	339.66
454.17	337.04
454.54	334.46
454.91	331.68
455.28	329.02
455.65	326.51
456.02	324.13
456.38	322.00
456.75	319.27
457.12	317.02
457.49	314.78
457.86	312.58
458.23	310.70
458.59	308.65
458.96	306.56
459.33	304.67
459.70	302.77
460.07	301.24
460.43	299.52
460.80	297.87
461.17	296.45
461.54	294.91
461.91	293.45
462.27	291.96
462.64	290.68
463.01	289.36
463.38	288.10
463.74	286.69
464.11	285.50
464.48	284.53
464.85	283.41
465.21	282.54
465.58	281.61
465.95	280.46
466.32	279.55
466.68	278.65
467.05	277.77
467.42	276.90
467.78	275.92
468.15	275.06
468.52	274.38
468.88	273.48
469.25	272.69
469.62	272.06
469.98	271.41
470.35	270.78
470.72	270.11
471.08	269.44
471.45	268.92
471.82	268.35
472.18	267.73
472.55	267.33
472.92	266.82
473.28	266.36
473.65	265.96
474.02	265.51
474.38	265.14
474.75	264.79
475.11	264.40
475.48	264.18
475.85	263.92
476.21	263.70
476.58	263.50
476.94	263.36
477.31	263.17
477.67	263.03
478.04	262.92
478.41	262.88
478.77	262.91
479.14	262.84
479.50	262.87
479.87	262.95
480.23	263.01
480.60	263.09
480.96	263.15
481.33	263.35
481.69	263.55
482.06	263.78
482.42	264.00
482.79	264.32
483.15	264.63
483.52	265.04
483.88	265.39
484.25	265.78
484.61	266.24
484.98	266.71
485.34	267.28
485.71	267.84
486.07	268.46
486.44	269.02
486.80	269.70
487.17	270.44
487.53	271.24
487.90	272.10
488.26	273.02
488.62	274.05
488.99	275.05
489.35	276.11
489.72	277.26
490.08	278.49
490.44	279.73
490.81	281.04
491.17	282.39
491.54	283.88
491.90	285.45
492.26	287.08
492.63	288.82
492.99	290.55
493.36	292.52
493.72	294.51
494.08	296.65
494.45	298.86
494.81	301.25
495.17	303.67
495.54	306.21
495.90	308.90
496.26	311.69
496.63	314.66
496.99	317.75
497.35	320.94
497.72	324.33
498.08	327.90
498.44	331.61
498.80	335.48
499.17	339.47
499.53	343.59
499.89	347.95
500.26	352.45
500.62	357.17
500.98	362.09
501.34	367.20
501.71	372.55
502.07	377.97
502.43	383.53
502.79	389.37
503.16	395.44
503.52	401.73
503.88	408.13
504.24	414.74
504.60	421.60
504.97	428.74
505.33	436.02
505.69	443.67
506.05	451.42
506.41	459.36
506.78	467.56
507.14	476.08
507.50	484.83
507.86	493.89
508.22	503.11
508.59	512.31
508.95	521.85
509.31	531.64
509.67	541.84
510.03	552.16
510.39	562.70
510.75	573.51
511.12	584.45
511.48	595.80
511.84	607.21
512.20	618.81
512.56	630.84
512.92	643.05
513.28	655.34
513.64	667.93
514.00	680.56
514.37	693.49
514.73	706.54
515.09	719.57
515.45	732.82
515.81	746.35
516.17	760.28
516.53	774.43
516.89	788.60
517.25	802.77
517.61	817.27
517.97	831.74
518.33	846.18
518.69	860.97
519.05	875.87
519.41	891.15
519.77	906.69
520.13	922.12
520.49	937.53
520.85	953.03
521.21	968.64
521.57	985.06
521.93	1000.96
522.29	1017.36
522.65	1033.63
523.01	1049.93
523.37	1066.02
523.73	1082.38
524.09	1098.41
524.45	1114.78
524.81	1131.44
525.17	1148.30
525.53	1165.31
525.89	1182.27
526.25	1199.10
526.61	1215.60
526.97	1232.35
527.33	1248.85
527.68	1265.51
528.04	1282.06
528.40	1298.70
528.76	1315.88
529.12	1332.43
529.48	1349.21
529.84	1365.27
530.20	1382.08
530.56	1399.17
530.91	1416.63
531.27	1433.39
531.63	1450.04
531.99	1466.65
532.35	1482.71
532.71	1498.65
533.07	1514.90
533.42	1530.86
533.78	1547.04
534.14	1563.40
534.50	1578.85
534.86	1594.77
535.21	1609.87
535.57	1625.86
535.93	1641.50
536.29	1656.27
536.65	1671.52
537.00	1686.48
537.36	1701.95
537.72	1716.49
538.08	1730.94
538.44	1744.87
538.79	1758.87
539.15	1772.68
539.51	1786.58
539.87	1800.92
540.22	1814.53
540.58	1828.42
540.94	1841.90
541.29	1855.02
541.65	1867.82
542.01	1881.21
542.37	1893.61
542.72	1906.17
543.08	1918.02
543.44	1930.42
543.79	1941.89
544.15	1952.85
544.51	1964.41
544.87	1975.35
545.22	1986.13
545.58	1996.38
545.94	2006.06
546.29	2015.91
546.65	2025.73
547.01	2034.88
547.36	2043.62
547.72	2052.32
548.07	2060.23
548.43	2068.27
548.79	2076.23
549.14	2083.74
549.50	2091.09
549.86	2098.81
550.21	2106.12
550.57	2113.21
550.92	2119.86
551.28	2126.89
551.64	2133.92
551.99	2140.54
552.35	2146.71
552.70	2152.87
553.06	2158.89
553.41	2165.30
553.77	2171.39
554.13	2177.46
554.48	2183.74
554.84	2189.18
555.19	2194.48
555.55	2199.61
555.90	2204.03
556.26	2208.89
556.61	2213.68
556.97	2217.74
557.32	2221.94
557.68	2226.11
558.03	2230.55
558.39	2234.30
558.74	2238.92
559.10	2242.74
559.45	2246.34
559.81	2250.78
560.16	2254.62
560.52	2257.82
560.87	2261.44
561.23	2264.10
561.58	2267.05
561.94	2269.58
562.29	2272.09
562.64	2274.56
563.00	2277.03
563.35	2280.78
563.71	2283.78
564.06	2286.82
564.42	2289.73
564.77	2292.18
565.12	2294.41
565.48	2296.18
565.83	2297.91
566.19	2299.18
566.54	2300.25
566.89	2301.40
567.25	2301.87
567.60	2303.13
567.96	2304.74
568.31	2305.46
568.66	2306.55
569.02	2307.06
569.37	2307.26
569.72	2307.91
570.08	2308.13
570.43	2308.25
570.78	2307.31
571.14	2305.76
571.49	2304.53
571.84	2304.22
572.20	2302.93
572.55	2301.87
572.90	2300.31
573.26	2298.97
573.61	2297.08
573.96	2295.11
574.31	2291.94
574.67	2288.75
575.02	2285.14
575.37	2281.65
575.72	2277.63
576.08	2274.13
576.43	2270.75
576.78	2266.98
577.13	2263.80
577.49	2260.55
577.84	2256.92
578.19	2253.38
578.54	2249.74
578.90	2245.30
579.25	2239.74
579.60	2234.71
579.95	2229.71
580.30	2224.65
580.66	2219.35
581.01	2214.40
581.36	2209.41
581.71	2205.26
582.06	2200.75
582.42	2196.19
582.77	2190.86
583.12	2186.32
583.47	2181.50
583.82	2176.37
584.17	2170.98
584.53	2165.45
584.88	2159.77
585.23	2153.88
585.58	2148.40
585.93	2142.85
586.28	2138.18
586.63	2132.90
586.98	2127.76
587.34	2123.03
587.69	2118.02
588.04	2112.59
588.39	2106.81
588.74	2100.32
589.09	2094.11
589.44	2087.30
589.79	2081.22
590.14	2075.60
590.49	2068.84
590.84	2062.33
591.19	2056.26
591.54	2049.87
591.89	2042.38
592.25	2035.62
592.60	2028.43
592.95	2020.56
593.30	2013.15
593.65	2005.42
594.00	1998.19
594.35	1990.96
594.70	1982.82
595.05	1975.42
595.40	1968.18
595.75	1960.59
596.10	1954.27
596.45	1947.33
596.80	1941.06
597.15	1934.25
597.50	1926.98
597.85	1920.61
598.19	1913.99
598.54	1906.84
598.89	1900.07
599.24	1894.21
599.59	1887.43
599.94	1881.11
600.29	1874.80
600.64	1868.23
600.99	1860.63
601.34	1853.92
601.69	1846.87
602.04	1839.82
602.39	1832.59
602.74	1825.75
603.08	1819.12
603.43	1812.28
603.78	1804.92
604.13	1797.72
604.48	1790.34
604.83	1783.60
605.18	1776.45
605.53	1768.37
605.87	1760.29
606.22	1752.95
606.57	1744.89
606.92	1737.48
607.27	1730.27
607.62	1723.31
607.96	1715.92
608.31	1709.30
608.66	1701.54
609.01	1693.93
609.36	1686.31
609.70	1678.17
610.05	1669.98
610.40	1662.23
610.75	1653.98
611.10	1646.27
611.44	1637.94
611.79	1630.03
612.14	1621.28
612.49	1612.24
612.83	1603.89
613.18	1595.87
613.53	1587.79
613.88	1579.29
614.22	1571.03
614.57	1562.52
614.92	1554.50
615.27	1546.91
615.61	1538.46
615.96	1530.53
616.31	1522.86
616.65	1515.54
617.00	1508.03
617.35	1500.53
617.70	1491.99
618.04	1483.38
618.39	1475.26
618.74	1467.54
619.08	1459.21
619.43	1451.63
619.78	1444.67
620.12	1437.57
620.47	1429.99
620.82	1421.90
621.16	1414.46
621.51	1406.89
621.85	1399.24
622.20	1390.62
622.55	1382.27
622.89	1374.41
623.24	1366.82
623.59	1359.53
623.93	1351.91
624.28	1344.65
624.62	1336.97
624.97	1329.99
625.32	1323.36
625.66	1316.39
626.01	1309.15
626.35	1301.69
626.70	1293.93
627.04	1286.15
627.39	1278.43
627.73	1270.97
628.08	1263.95
628.43	1256.63
628.77	1249.17
629.12	1241.48
629.46	1234.27
629.81	1226.89
630.15	1219.79
630.50	1212.36
630.84	1204.10
631.19	1196.25
631.53	1188.77
631.88	1181.16
632.22	1173.58
632.57	1166.17
632.91	1158.60
633.26	1151.25
633.60	1144.00
633.95	1137.07
634.29	1130.06
634.64	1123.28
634.98	1115.99
635.32	1108.92
635.67	1102.35
636.01	1095.75
636.36	1089.02
636.70	1082.64
637.05	1076.09
637.39	1069.57
637.73	1063.04
638.08	1057.27
638.42	1051.32
638.77	1044.85
639.11	1038.40
639.45	1031.92
639.80	1025.32
640.14	1018.85
640.49	1012.32
640.83	1006.01
641.17	999.61
641.52	993.29
641.86	986.81
642.20	980.96
642.55	974.71
642.89	968.23
643.23	961.76
643.58	955.95
643.92	949.74
644.26	943.63
644.61	937.70
644.95	931.69
645.29	925.07
645.64	918.31
645.98	912.06
646.32	906.22
646.66	900.19
647.01	894.43
647.35	888.82
647.69	882.98
648.04	877.49
648.38	871.69
648.72	865.64
649.06	859.65
649.41	853.71
649.75	847.63
650.09	841.72
650.43	835.87
650.78	829.77
651.12	823.74
651.46	818.02
651.80	812.22
652.14	806.83
652.49	801.42
652.83	796.27
653.17	790.46
653.51	784.59
653.85	779.20
654.20	773.46
654.54	767.36
654.88	761.64
655.22	755.69
655.56	750.08
655.90	744.65
656.25	739.37
656.59	734.05
656.93	729.05
657.27	723.86
657.61	718.43
657.95	713.26
658.29	708.18
658.64	702.92
658.98	697.66
659.32	692.17
659.66	686.94
660.00	681.63
660.34	676.77
660.68	671.92
661.02	666.92
661.36	662.22
661.70	657.85
662.05	653.50
662.39	649.16
662.73	644.71
663.07	640.35
663.41	635.84
663.75	631.38
664.09	626.82
664.43	622.46
664.77	618.36
665.11	614.14
665.45	610.06
665.79	606.02
666.13	601.85
666.47	597.85
666.81	593.73
667.15	589.60
667.49	585.68
667.83	581.89
668.17	577.94
668.51	573.95
668.85	569.85
669.19	566.04
669.53	562.16
669.87	558.22
670.21	554.54
670.55	550.92
670.89	547.43
671.23	543.98
671.57	540.45
671.91	536.92
672.25	533.53
672.58	529.98
672.92	526.57
673.26	523.43
673.60	520.26
673.94	517.15
674.28	514.27
674.62	511.33
674.96	508.25
675.30	505.35
675.64	502.45
675.97	499.74
676.31	496.91
676.65	494.05
676.99	491.45
677.33	488.63
677.67	485.86
678.01	482.87
678.34	479.90
678.68	477.04
679.02	474.23
679.36	471.37
679.70	468.71
680.04	465.99
680.37	463.12
680.71	460.32
681.05	457.72
681.39	455.00
681.73	452.41
682.06	449.88
682.40	447.34
682.74	444.77
683.08	442.18
683.42	439.55
683.75	437.09
684.09	434.48
684.43	432.02
684.77	429.62
685.10	427.33
685.44	425.03
685.78	422.78
686.12	420.57
686.45	418.34
686.79	416.02
687.13	413.80
687.46	411.64
687.80	409.51
688.14	407.36
688.48	405.31
688.81	403.04
689.15	400.89
689.49	398.77
689.82	396.70
690.16	394.67
690.50	392.75
690.83	390.79
691.17	388.85
691.51	386.95
691.84	385.08
692.18	383.10
692.52	381.09
692.85	379.18
693.19	377.25
693.52	375.49
693.86	373.74
694.20	372.00
694.53	370.20
694.87	368.34
695.21	366.46
695.54	364.66
695.88	362.95
696.21	361.21
696.55	359.51
696.88	357.85
697.22	356.19
697.56	354.54
697.89	352.85
698.23	351.21
698.56	349.59
698.90	347.97
699.23	346.35
699.57	344.84
699.90	343.28
700.24	341.76
700.58	340.18
700.91	338.61
701.25	337.15
701.58	335.81
701.92	334.47
702.25	333.12
702.59	331.71
702.92	330.40
703.26	329.07
703.59	327.78
703.93	326.64
704.26	325.37
704.60	324.12
704.93	322.84
705.26	321.62
705.60	320.43
705.93	319.27
706.27	318.24
706.60	317.18
706.94	316.10
707.27	314.95
707.61	313.89
707.94	312.90
708.27	311.78
708.61	310.70
708.94	309.69
709.28	308.72
709.61	307.78
709.94	306.80
710.28	305.78
710.61	304.81
710.95	303.68
711.28	302.77
711.61	301.77
711.95	300.87
712.28	299.91
712.61	298.97
712.95	298.04
713.28	297.14
713.61	296.25
713.95	295.36
714.28	294.55
714.61	293.67
714.95	292.85
715.28	292.00
715.61	291.13
715.95	290.27
716.28	289.36
716.61	288.54
716.95	287.72
717.28	287.06
717.61	286.28
717.94	285.57
718.28	284.77
718.61	284.12
718.94	283.42
719.27	282.78
719.61	282.11
719.94	281.47
720.27	280.75
720.60	280.11
720.94	279.48
721.27	278.89
721.60	278.33
721.93	277.70
722.27	277.20
722.60	276.68
722.93	276.13
723.26	275.66
723.59	275.11
723.93	274.55
724.26	273.96
724.59	273.42
724.92	272.90
725.25	272.38
725.59	271.84
725.92	271.35
726.25	270.86
726.58	270.40
726.91	269.93
727.24	269.48
727.57	269.02
727.91	268.54
728.24	268.07
728.57	267.61
728.90	267.21
729.23	266.69
729.56	266.27
729.89	265.79
730.22	265.31
730.55	264.81
730.89	264.41
731.22	264.00
731.55	263.57
731.88	263.16
732.21	262.77
732.54	262.33
732.87	261.90
733.20	261.50
733.53	261.11
733.86	260.73
734.19	260.30
734.52	259.92
734.85	259.62
735.18	259.19
735.51	258.80
735.84	258.39
736.17	258.06
736.50	257.61
736.83	257.39
737.16	257.03
737.49	256.77
737.82	256.38
738.15	256.04
738.48	255.70
738.81	255.34
739.14	254.99
739.47	254.66
739.80	254.32
740.13	253.96
740.46	253.61
740.79	253.28
741.12	252.97
741.45	252.62
741.78	252.21
742.11	251.95
742.44	251.64
742.77	251.35
743.10	251.02
743.43	250.72
743.75	250.30
744.08	250.16
744.41	249.82
744.74	249.58
745.07	249.23
745.40	249.00
745.73	248.77
746.06	248.48
746.39	248.24
746.71	247.99
747.04	247.74
747.37	247.45
747.70	247.19
748.03	246.94
748.36	246.76
748.68	246.55
749.01	246.28
749.34	246.05
749.67	245.80
750.00	245.55
750.33	245.46
750.65	245.24
750.98	244.90
751.31	244.70
751.64	244.47
751.97	244.35
752.29	244.13
752.62	243.85
752.95	243.63
753.28	243.41
753.60	243.20
753.93	243.02
754.26	242.84
754.59	242.63
754.91	242.44
755.24	242.21
755.57	242.02
755.90	241.83
756.22	241.63
756.55	241.42
756.88	241.26
757.20	240.99
757.53	240.81
757.86	240.63
758.19	240.47
758.51	240.31
758.84	240.11
759.17	239.95
759.49	239.82
759.82	239.71
760.15	239.55
760.47	239.40
760.80	239.27
761.13	239.15
761.45	239.01
761.78	238.84
762.11	238.69
762.43	238.55
762.76	238.39
763.08	238.28
763.41	238.19
763.74	238.05
764.06	237.93
764.39	237.80
764.71	237.69
765.04	237.56
765.37	237.41
765.69	237.29
766.02	237.13
766.34	237.03
766.67	236.90
767.00	236.82
767.32	236.74
767.65	236.66
767.97	236.54
768.30	236.44
768.62	236.34
768.95	236.25
769.27	236.13
769.60	236.08
769.92	235.97
770.25	235.83
770.57	235.73
770.90	235.62
771.22	235.48
771.55	235.38
771.87	235.28
772.20	235.21
772.52	235.21
772.85	235.25
773.17	235.15
773.50	235.04
773.82	234.91
774.15	234.80
774.47	234.64
774.80	234.56
775.12	234.48
775.45	234.38
775.77	234.31
776.09	234.25
776.42	234.13
776.74	234.06
777.07	234.00
777.39	233.90
777.72	233.81
778.04	233.77
778.36	233.70
778.69	233.63
779.01	233.55
779.33	233.38
779.66	233.17
779.98	233.07
780.31	233.00
780.63	232.98
780.95	232.94
781.28	232.87
781.60	232.79
781.92	232.70
782.25	232.62
782.57	232.53
782.89	232.46
783.22	232.41
783.54	232.34
783.86	232.28
784.19	232.22
784.51	232.21
784.83	232.10
785.16	232.06
785.48	232.01
785.80	231.94
786.12	231.88
786.45	231.86
786.77	231.85
787.09	231.82
