SpectraSuite Data File
++++++++++++++++++++++++++++++++++++
Date: Fri Feb 01 16:54:58 EST 2013
User: group
Dark Spectrum Present: No
Reference Spectrum Present: No
Number of Sampled Component Spectra: 1
Spectrometers: USB2E7196
Integration Time (usec): 35000 (USB2E7196)
Spectra Averaged: 100 (USB2E7196)
Boxcar Smoothing: 10 (USB2E7196)
Correct for Electrical Dark: No (USB2E7196)
Strobe/Lamp Enabled: No (USB2E7196)
Correct for Detector Non-linearity: No (USB2E7196)
Correct for Stray Light: No (USB2E7196)
Number of Pixels in Processed Spectrum: 2048
>>>>>Begin Processed Spectral Data<<<<<
339.09	0.00
339.48	213.22
339.86	214.61
340.24	216.05
340.63	217.84
341.01	219.99
341.39	220.69
341.78	221.52
342.16	223.00
342.54	223.51
342.93	211.71
343.31	222.44
343.69	222.99
344.07	223.43
344.46	223.87
344.84	224.24
345.22	224.52
345.60	224.74
345.99	224.91
346.37	225.04
346.75	225.12
347.13	225.17
347.52	225.23
347.90	225.31
348.28	225.33
348.66	225.37
349.05	225.32
349.43	225.38
349.81	225.42
350.19	225.44
350.57	225.52
350.96	225.61
351.34	225.66
351.72	225.72
352.10	225.86
352.48	225.92
352.87	225.98
353.25	226.00
353.63	226.09
354.01	226.18
354.39	226.26
354.77	226.35
355.15	226.43
355.54	226.48
355.92	226.51
356.30	226.58
356.68	226.69
357.06	226.75
357.44	226.78
357.82	226.85
358.20	226.97
358.58	227.05
358.97	227.10
359.35	227.21
359.73	227.30
360.11	227.34
360.49	227.40
360.87	227.45
361.25	227.54
361.63	227.61
362.01	227.65
362.39	227.69
362.77	227.75
363.15	227.79
363.53	227.83
363.91	227.87
364.29	227.91
364.67	227.85
365.05	227.90
365.43	227.95
365.81	227.99
366.19	228.02
366.57	228.06
366.95	228.04
367.33	227.99
367.71	227.94
368.09	227.96
368.47	227.96
368.85	227.90
369.23	227.86
369.61	227.80
369.99	227.77
370.37	227.73
370.75	227.69
371.13	227.63
371.51	227.59
371.89	227.56
372.27	227.52
372.65	227.51
373.03	227.45
373.41	227.40
373.78	227.32
374.16	227.19
374.54	227.10
374.92	227.05
375.30	226.98
375.68	226.94
376.06	226.85
376.44	226.75
376.82	226.69
377.19	226.64
377.57	226.58
377.95	226.50
378.33	226.43
378.71	226.33
379.09	226.26
379.47	226.22
379.84	226.13
380.22	226.04
380.60	225.97
380.98	225.90
381.36	225.84
381.73	225.76
382.11	225.73
382.49	225.66
382.87	225.61
383.25	225.54
383.62	225.61
384.00	225.55
384.38	225.53
384.76	225.52
385.13	225.47
385.51	225.42
385.89	225.37
386.27	225.36
386.64	225.33
387.02	225.29
387.40	225.25
387.78	225.24
388.15	225.21
388.53	225.16
388.91	225.14
389.29	225.11
389.66	225.08
390.04	225.05
390.42	225.04
390.79	224.99
391.17	224.99
391.55	224.86
391.92	224.85
392.30	224.85
392.68	224.83
393.05	224.84
393.43	224.83
393.81	224.86
394.18	224.81
394.56	224.83
394.94	224.89
395.31	224.86
395.69	224.91
396.06	224.96
396.44	224.96
396.82	224.97
397.19	225.07
397.57	225.14
397.95	225.19
398.32	225.22
398.70	225.32
399.07	225.40
399.45	225.45
399.82	225.51
400.20	225.55
400.58	225.61
400.95	225.67
401.33	225.76
401.70	225.90
402.08	226.02
402.45	226.11
402.83	226.21
403.20	226.34
403.58	226.41
403.95	226.53
404.33	226.68
404.71	226.77
405.08	226.94
405.46	227.06
405.83	227.19
406.21	227.32
406.58	227.45
406.96	227.59
407.33	227.77
407.70	227.97
408.08	228.22
408.45	228.44
408.83	228.67
409.20	228.86
409.58	229.00
409.95	229.22
410.33	229.47
410.70	229.69
411.08	229.96
411.45	230.26
411.82	230.55
412.20	230.90
412.57	231.34
412.95	231.58
413.32	231.96
413.69	232.39
414.07	232.81
414.44	233.30
414.82	233.75
415.19	234.30
415.56	234.82
415.94	235.37
416.31	236.03
416.68	236.65
417.06	237.41
417.43	238.09
417.81	238.87
418.18	239.63
418.55	240.45
418.93	241.32
419.30	242.23
419.67	243.16
420.04	244.11
420.42	245.09
420.79	246.28
421.16	247.43
421.54	248.60
421.91	249.83
422.28	251.07
422.66	252.41
423.03	253.67
423.40	254.97
423.77	256.35
424.15	257.76
424.52	259.24
424.89	260.82
425.26	262.40
425.64	263.82
426.01	265.41
426.38	267.08
426.75	268.73
427.13	270.44
427.50	272.24
427.87	274.12
428.24	275.96
428.61	277.70
428.99	279.63
429.36	281.68
429.73	283.71
430.10	285.73
430.47	287.78
430.85	289.90
431.22	292.15
431.59	294.48
431.96	296.69
432.33	299.17
432.70	301.49
433.08	304.23
433.45	306.88
433.82	309.45
434.19	312.33
434.56	315.10
434.93	317.72
435.30	320.34
435.68	323.23
436.05	326.02
436.42	328.79
436.79	331.31
437.16	334.05
437.53	336.83
437.90	339.64
438.27	342.34
438.64	345.15
439.01	347.71
439.38	349.97
439.75	352.12
440.13	354.56
440.50	356.90
440.87	358.76
441.24	360.66
441.61	362.84
441.98	364.31
442.35	366.14
442.72	367.99
443.09	369.82
443.46	370.76
443.83	371.36
444.20	371.88
444.57	372.69
444.94	372.98
445.31	373.35
445.68	373.66
446.05	373.74
446.42	373.34
446.79	372.97
447.16	372.53
447.53	372.22
447.90	371.12
448.27	370.00
448.64	368.44
449.01	367.39
449.37	365.42
449.74	363.57
450.11	361.32
450.48	358.88
450.85	356.30
451.22	354.20
451.59	352.18
451.96	350.25
452.33	347.63
452.70	345.29
453.07	342.43
453.43	339.56
453.80	336.86
454.17	334.24
454.54	331.72
454.91	329.02
455.28	326.38
455.65	323.86
456.02	321.40
456.38	319.26
456.75	316.59
457.12	314.35
457.49	312.14
457.86	310.02
458.23	308.16
458.59	306.16
458.96	304.10
459.33	302.24
459.70	300.40
460.07	298.94
460.43	297.23
460.80	295.66
461.17	294.28
461.54	292.75
461.91	291.30
462.27	289.86
462.64	288.62
463.01	287.28
463.38	286.03
463.74	284.68
464.11	283.49
464.48	282.48
464.85	281.37
465.21	280.47
465.58	279.53
465.95	278.47
466.32	277.55
466.68	276.64
467.05	275.78
467.42	274.90
467.78	274.00
468.15	273.15
468.52	272.50
468.88	271.63
469.25	270.88
469.62	270.26
469.98	269.61
470.35	268.97
470.72	268.37
471.08	267.69
471.45	267.17
471.82	266.69
472.18	266.07
472.55	265.64
472.92	265.15
473.28	264.68
473.65	264.24
474.02	263.80
474.38	263.47
474.75	263.20
475.11	262.88
475.48	262.59
475.85	262.32
476.21	262.06
476.58	261.88
476.94	261.76
477.31	261.60
477.67	261.45
478.04	261.37
478.41	261.31
478.77	261.37
479.14	261.34
479.50	261.34
479.87	261.45
480.23	261.57
480.60	261.63
480.96	261.75
481.33	261.96
481.69	262.20
482.06	262.40
482.42	262.59
482.79	262.86
483.15	263.19
483.52	263.60
483.88	264.01
484.25	264.42
484.61	264.86
484.98	265.37
485.34	265.94
485.71	266.53
486.07	267.15
486.44	267.73
486.80	268.44
487.17	269.17
487.53	269.98
487.90	270.85
488.26	271.83
488.62	272.79
488.99	273.76
489.35	274.82
489.72	275.96
490.08	277.16
490.44	278.40
490.81	279.77
491.17	281.14
491.54	282.66
491.90	284.21
492.26	285.84
492.63	287.57
492.99	289.30
493.36	291.19
493.72	293.22
494.08	295.33
494.45	297.56
494.81	299.93
495.17	302.36
495.54	304.91
495.90	307.61
496.26	310.45
496.63	313.40
496.99	316.51
497.35	319.78
497.72	323.19
498.08	326.70
498.44	330.33
498.80	334.23
499.17	338.23
499.53	342.34
499.89	346.72
500.26	351.18
500.62	355.90
500.98	360.88
501.34	365.95
501.71	371.20
502.07	376.65
502.43	382.25
502.79	387.97
503.16	393.98
503.52	400.17
503.88	406.50
504.24	413.11
504.60	419.96
504.97	427.00
505.33	434.25
505.69	441.88
506.05	449.67
506.41	457.51
506.78	465.65
507.14	474.05
507.50	482.66
507.86	491.64
508.22	500.72
508.59	509.79
508.95	519.24
509.31	529.00
509.67	539.02
510.03	549.22
510.39	559.75
510.75	570.44
511.12	581.29
511.48	592.57
511.84	603.90
512.20	615.31
512.56	627.12
512.92	639.18
513.28	651.39
513.64	663.66
514.00	676.22
514.37	688.99
514.73	701.95
515.09	714.78
515.45	727.87
515.81	741.25
516.17	755.06
516.53	769.04
516.89	783.09
517.25	797.05
517.61	811.30
517.97	825.56
518.33	839.81
518.69	854.42
519.05	869.13
519.41	884.08
519.77	899.37
520.13	914.60
520.49	929.79
520.85	944.92
521.21	960.40
521.57	976.39
521.93	991.89
522.29	1007.93
522.65	1023.97
523.01	1039.84
523.37	1055.77
523.73	1071.64
524.09	1087.48
524.45	1103.41
524.81	1119.86
525.17	1136.31
525.53	1152.90
525.89	1169.46
526.25	1186.00
526.61	1202.15
526.97	1218.70
527.33	1234.88
527.68	1251.14
528.04	1267.36
528.40	1283.70
528.76	1300.46
529.12	1316.71
529.48	1333.37
529.84	1349.08
530.20	1365.45
530.56	1382.22
530.91	1399.27
531.27	1415.82
531.63	1431.99
531.99	1448.37
532.35	1464.00
532.71	1479.69
533.07	1495.60
533.42	1511.34
533.78	1527.11
534.14	1543.03
534.50	1558.13
534.86	1573.78
535.21	1588.86
535.57	1604.44
535.93	1619.73
536.29	1634.35
536.65	1649.07
537.00	1663.52
537.36	1678.70
537.72	1692.88
538.08	1707.08
538.44	1720.62
538.79	1734.24
539.15	1747.56
539.51	1761.09
539.87	1775.09
540.22	1788.56
540.58	1802.12
540.94	1814.98
541.29	1827.38
541.65	1839.83
542.01	1852.76
542.37	1864.75
542.72	1876.76
543.08	1888.40
543.44	1900.53
543.79	1911.55
544.15	1922.39
544.51	1933.73
544.87	1944.42
545.22	1955.20
545.58	1965.18
545.94	1974.81
546.29	1984.53
546.65	1994.42
547.01	2003.40
547.36	2012.11
547.72	2020.47
548.07	2028.30
548.43	2036.48
548.79	2044.52
549.14	2052.10
549.50	2059.25
549.86	2066.84
550.21	2074.10
550.57	2081.07
550.92	2087.61
551.28	2094.47
551.64	2101.51
551.99	2107.98
552.35	2114.18
552.70	2120.28
553.06	2126.31
553.41	2132.55
553.77	2138.45
554.13	2144.35
554.48	2150.59
554.84	2156.14
555.19	2161.29
555.55	2166.41
555.90	2171.00
556.26	2176.05
556.61	2180.69
556.97	2185.26
557.32	2189.37
557.68	2193.67
558.03	2198.01
558.39	2201.71
558.74	2206.46
559.10	2210.43
559.45	2214.12
559.81	2218.34
560.16	2222.21
560.52	2225.59
560.87	2229.17
561.23	2232.01
561.58	2235.05
561.94	2237.59
562.29	2239.75
562.64	2242.64
563.00	2245.18
563.35	2248.65
563.71	2251.77
564.06	2255.07
564.42	2257.87
564.77	2260.71
565.12	2263.13
565.48	2265.27
565.83	2267.20
566.19	2268.74
566.54	2269.64
566.89	2270.94
567.25	2271.76
567.60	2273.10
567.96	2274.84
568.31	2275.69
568.66	2277.00
569.02	2277.70
569.37	2278.21
569.72	2279.53
570.08	2279.90
570.43	2280.08
570.78	2279.74
571.14	2278.34
571.49	2277.04
571.84	2276.92
572.20	2275.90
572.55	2274.88
572.90	2273.17
573.26	2272.13
573.61	2270.42
573.96	2269.06
574.31	2266.46
574.67	2263.66
575.02	2260.20
575.37	2256.89
575.72	2253.31
576.08	2249.90
576.43	2246.72
576.78	2243.27
577.13	2239.98
577.49	2236.95
577.84	2233.80
578.19	2230.11
578.54	2226.88
578.90	2223.02
579.25	2217.54
579.60	2212.80
579.95	2207.99
580.30	2203.40
580.66	2198.25
581.01	2193.38
581.36	2188.46
581.71	2184.38
582.06	2180.15
582.42	2175.98
582.77	2170.99
583.12	2166.71
583.47	2162.39
583.82	2157.59
584.17	2152.56
584.53	2147.36
584.88	2141.89
585.23	2136.30
585.58	2130.85
585.93	2125.48
586.28	2120.65
586.63	2115.80
586.98	2110.88
587.34	2106.38
587.69	2101.56
588.04	2096.62
588.39	2091.25
588.74	2085.07
589.09	2079.11
589.44	2072.50
589.79	2066.56
590.14	2061.10
590.49	2054.61
590.84	2048.18
591.19	2042.27
591.54	2035.94
591.89	2028.86
592.25	2022.33
592.60	2015.23
592.95	2008.11
593.30	2000.85
593.65	1993.38
594.00	1986.49
594.35	1979.33
594.70	1971.37
595.05	1964.48
595.40	1957.32
595.75	1949.97
596.10	1943.86
596.45	1937.21
596.80	1931.08
597.15	1924.55
597.50	1917.80
597.85	1911.48
598.19	1905.16
598.54	1898.35
598.89	1891.84
599.24	1885.83
599.59	1879.29
599.94	1873.18
600.29	1866.98
600.64	1860.46
600.99	1853.30
601.34	1846.53
601.69	1839.55
602.04	1832.85
602.39	1825.52
602.74	1818.68
603.08	1812.01
603.43	1805.38
603.78	1798.20
604.13	1791.18
604.48	1784.08
604.83	1777.19
605.18	1770.44
605.53	1762.64
605.87	1754.71
606.22	1747.55
606.57	1739.68
606.92	1732.32
607.27	1725.34
607.62	1718.54
607.96	1711.39
608.31	1705.06
608.66	1697.64
609.01	1690.38
609.36	1682.98
609.70	1675.05
610.05	1667.13
610.40	1659.66
610.75	1651.44
611.10	1643.77
611.44	1635.26
611.79	1627.30
612.14	1618.71
612.49	1609.56
612.83	1601.15
613.18	1593.08
613.53	1584.97
613.88	1576.63
614.22	1568.41
614.57	1559.82
614.92	1551.77
615.27	1544.38
615.61	1536.01
615.96	1527.89
616.31	1520.25
616.65	1512.81
617.00	1505.32
617.35	1497.60
617.70	1489.25
618.04	1480.71
618.39	1472.43
618.74	1464.92
619.08	1456.64
619.43	1449.08
619.78	1442.16
620.12	1435.09
620.47	1427.56
620.82	1419.42
621.16	1411.92
621.51	1404.38
621.85	1396.70
622.20	1388.15
622.55	1379.70
622.89	1371.82
623.24	1364.21
623.59	1356.67
623.93	1349.15
624.28	1342.05
624.62	1334.73
624.97	1327.56
625.32	1320.79
625.66	1313.89
626.01	1306.92
626.35	1299.63
626.70	1291.92
627.04	1284.19
627.39	1276.37
627.73	1268.97
628.08	1262.06
628.43	1254.88
628.77	1247.60
629.12	1240.11
629.46	1233.07
629.81	1225.59
630.15	1218.37
630.50	1211.16
630.84	1203.09
631.19	1195.18
631.53	1187.55
631.88	1179.96
632.22	1172.38
632.57	1165.19
632.91	1157.60
633.26	1150.10
633.60	1142.59
633.95	1135.36
634.29	1128.30
634.64	1121.42
634.98	1114.12
635.32	1107.00
635.67	1100.40
636.01	1093.70
636.36	1086.94
636.70	1080.40
637.05	1073.93
637.39	1067.56
637.73	1060.99
638.08	1055.11
638.42	1049.15
638.77	1042.81
639.11	1036.36
639.45	1029.93
639.80	1023.18
640.14	1016.85
640.49	1010.42
640.83	1004.15
641.17	997.97
641.52	991.68
641.86	985.38
642.20	979.61
642.55	973.21
642.89	966.87
643.23	960.25
643.58	954.51
643.92	948.32
644.26	942.43
644.61	936.23
644.95	930.29
645.29	923.76
645.64	917.01
645.98	910.62
646.32	904.64
646.66	898.73
647.01	893.05
647.35	887.37
647.69	881.43
648.04	875.91
648.38	870.17
648.72	864.25
649.06	858.29
649.41	852.31
649.75	846.49
650.09	840.47
650.43	834.81
650.78	828.68
651.12	822.73
651.46	816.89
651.80	811.29
652.14	805.89
652.49	800.53
652.83	795.36
653.17	789.74
653.51	784.07
653.85	778.61
654.20	772.94
654.54	766.93
654.88	761.14
655.22	755.24
655.56	749.55
655.90	744.12
656.25	738.89
656.59	733.58
656.93	728.54
657.27	723.39
657.61	717.90
657.95	712.80
658.29	707.80
658.64	702.52
658.98	697.15
659.32	691.60
659.66	686.41
660.00	681.24
660.34	676.32
660.68	671.36
661.02	666.37
661.36	661.73
661.70	657.17
662.05	652.94
662.39	648.72
662.73	644.29
663.07	639.96
663.41	635.51
663.75	631.00
664.09	626.42
664.43	622.02
664.77	618.00
665.11	613.74
665.45	609.54
665.79	605.47
666.13	601.40
666.47	597.37
666.81	593.28
667.15	589.13
667.49	585.26
667.83	581.45
668.17	577.52
668.51	573.47
668.85	569.49
669.19	565.54
669.53	561.69
669.87	557.88
670.21	554.16
670.55	550.46
670.89	547.14
671.23	543.76
671.57	540.26
671.91	536.76
672.25	533.23
672.58	529.70
672.92	526.22
673.26	523.01
673.60	519.85
673.94	516.72
674.28	513.77
674.62	510.75
674.96	507.70
675.30	504.79
675.64	501.85
675.97	499.07
676.31	496.23
676.65	493.27
676.99	490.50
677.33	487.58
677.67	484.82
678.01	481.77
678.34	478.79
678.68	475.96
679.02	473.11
679.36	470.31
679.70	467.60
680.04	464.93
680.37	462.13
680.71	459.32
681.05	456.68
681.39	453.95
681.73	451.31
682.06	448.77
682.40	446.16
682.74	443.62
683.08	441.07
683.42	438.50
683.75	436.01
684.09	433.42
684.43	430.99
684.77	428.50
685.10	426.07
685.44	423.70
685.78	421.40
686.12	419.14
686.45	416.91
686.79	414.66
687.13	412.48
687.46	410.27
687.80	408.11
688.14	405.91
688.48	403.85
688.81	401.66
689.15	399.51
689.49	397.38
689.82	395.30
690.16	393.19
690.50	391.24
690.83	389.32
691.17	387.33
691.51	385.41
691.84	383.59
692.18	381.70
692.52	379.79
692.85	377.79
693.19	375.97
693.52	374.12
693.86	372.28
694.20	370.50
694.53	368.73
694.87	366.87
695.21	365.06
695.54	363.28
695.88	361.51
696.21	359.80
696.55	358.12
696.88	356.44
697.22	354.78
697.56	353.13
697.89	351.48
698.23	349.89
698.56	348.29
698.90	346.69
699.23	345.05
699.57	343.49
699.90	341.95
700.24	340.37
700.58	338.86
700.91	337.36
701.25	335.92
701.58	334.56
701.92	333.18
702.25	331.81
702.59	330.43
702.92	329.13
703.26	327.81
703.59	326.55
703.93	325.35
704.26	324.15
704.60	322.89
704.93	321.57
705.26	320.35
705.60	319.18
705.93	318.02
706.27	317.00
706.60	315.93
706.94	314.91
707.27	313.79
707.61	312.68
707.94	311.65
708.27	310.57
708.61	309.47
708.94	308.47
709.28	307.52
709.61	306.56
709.94	305.60
710.28	304.60
710.61	303.65
710.95	302.56
711.28	301.61
711.61	300.66
711.95	299.82
712.28	298.91
712.61	297.91
712.95	296.95
713.28	296.02
713.61	295.14
713.95	294.20
714.28	293.36
714.61	292.54
714.95	291.71
715.28	290.87
715.61	290.01
715.95	289.16
716.28	288.24
716.61	287.39
716.95	286.52
717.28	285.78
717.61	284.95
717.94	284.24
718.28	283.42
718.61	282.70
718.94	281.93
719.27	281.29
719.61	280.65
719.94	280.03
720.27	279.34
720.60	278.63
720.94	278.05
721.27	277.46
721.60	276.85
721.93	276.25
722.27	275.69
722.60	275.15
722.93	274.57
723.26	274.10
723.59	273.56
723.93	273.07
724.26	272.49
724.59	271.93
724.92	271.39
725.25	270.88
725.59	270.33
725.92	269.87
726.25	269.30
726.58	268.82
726.91	268.29
727.24	267.78
727.57	267.33
727.91	266.76
728.24	266.29
728.57	265.81
728.90	265.36
729.23	264.84
729.56	264.39
729.89	263.93
730.22	263.40
730.55	262.94
730.89	262.44
731.22	262.01
731.55	261.62
731.88	261.20
732.21	260.81
732.54	260.39
732.87	259.94
733.20	259.58
733.53	259.18
733.86	258.79
734.19	258.40
734.52	258.00
734.85	257.69
735.18	257.28
735.51	256.91
735.84	256.50
736.17	256.15
736.50	255.69
736.83	255.49
737.16	255.15
737.49	254.82
737.82	254.48
738.15	254.15
738.48	253.76
738.81	253.42
739.14	253.07
739.47	252.75
739.80	252.47
740.13	252.13
740.46	251.77
740.79	251.44
741.12	251.15
741.45	250.84
741.78	250.53
742.11	250.22
742.44	249.92
742.77	249.67
743.10	249.37
743.43	249.09
743.75	248.68
744.08	248.54
744.41	248.25
744.74	248.00
745.07	247.69
745.40	247.48
745.73	247.24
746.06	246.98
746.39	246.72
746.71	246.40
747.04	246.16
747.37	245.93
747.70	245.71
748.03	245.49
748.36	245.26
748.68	244.97
749.01	244.72
749.34	244.52
749.67	244.25
750.00	244.05
750.33	243.90
750.65	243.68
750.98	243.33
751.31	243.12
751.64	242.89
751.97	242.75
752.29	242.51
752.62	242.29
752.95	242.10
753.28	241.88
753.60	241.69
753.93	241.50
754.26	241.28
754.59	241.04
754.91	240.80
755.24	240.61
755.57	240.46
755.90	240.32
756.22	240.09
756.55	239.89
756.88	239.68
757.20	239.45
757.53	239.26
757.86	239.10
758.19	238.95
758.51	238.79
758.84	238.58
759.17	238.43
759.49	238.27
759.82	238.13
760.15	238.00
760.47	237.86
760.80	237.69
761.13	237.54
761.45	237.40
761.78	237.26
762.11	237.09
762.43	236.92
762.76	236.73
763.08	236.58
763.41	236.46
763.74	236.32
764.06	236.17
764.39	236.06
764.71	235.93
765.04	235.74
765.37	235.57
765.69	235.43
766.02	235.29
766.34	235.13
766.67	235.00
767.00	234.89
767.32	234.83
767.65	234.79
767.97	234.67
768.30	234.52
768.62	234.42
768.95	234.29
769.27	234.21
769.60	234.10
769.92	233.98
770.25	233.85
770.57	233.73
770.90	233.65
771.22	233.50
771.55	233.38
771.87	233.31
772.20	233.24
772.52	233.21
772.85	233.24
773.17	233.16
773.50	233.04
773.82	232.93
774.15	232.76
774.47	232.56
774.80	232.49
775.12	232.41
775.45	232.34
775.77	232.27
776.09	232.17
776.42	232.10
776.74	232.03
777.07	231.97
777.39	231.89
777.72	231.81
778.04	231.79
778.36	231.69
778.69	231.63
779.01	231.56
779.33	231.46
779.66	231.24
779.98	231.18
780.31	231.13
780.63	231.08
780.95	231.05
781.28	230.99
781.60	230.93
781.92	230.88
782.25	230.82
782.57	230.78
782.89	230.71
783.22	230.68
783.54	230.65
783.86	230.62
784.19	230.58
784.51	230.58
784.83	230.50
785.16	230.50
785.48	230.47
785.80	230.43
786.12	230.38
786.45	230.37
786.77	230.32
787.09	230.26
