SpectraSuite Data File
++++++++++++++++++++++++++++++++++++
Date: Fri Feb 01 18:14:51 EST 2013
User: group
Dark Spectrum Present: No
Reference Spectrum Present: No
Number of Sampled Component Spectra: 1
Spectrometers: USB2E7196
Integration Time (usec): 35000 (USB2E7196)
Spectra Averaged: 100 (USB2E7196)
Boxcar Smoothing: 10 (USB2E7196)
Correct for Electrical Dark: No (USB2E7196)
Strobe/Lamp Enabled: No (USB2E7196)
Correct for Detector Non-linearity: No (USB2E7196)
Correct for Stray Light: No (USB2E7196)
Number of Pixels in Processed Spectrum: 2048
>>>>>Begin Processed Spectral Data<<<<<
339.09	0.00
339.48	213.12
339.86	215.11
340.24	215.65
340.63	217.57
341.01	220.10
341.39	219.82
341.78	221.84
342.16	222.04
342.54	223.36
342.93	211.58
343.31	222.30
343.69	222.84
344.07	223.27
344.46	223.72
344.84	224.09
345.22	224.34
345.60	224.58
345.99	224.75
346.37	224.91
346.75	225.02
347.13	225.06
347.52	225.12
347.90	225.19
348.28	225.23
348.66	225.30
349.05	225.25
349.43	225.31
349.81	225.32
350.19	225.40
350.57	225.47
350.96	225.54
351.34	225.63
351.72	225.73
352.10	225.82
352.48	225.90
352.87	225.96
353.25	226.03
353.63	226.10
354.01	226.18
354.39	226.25
354.77	226.31
355.15	226.47
355.54	226.56
355.92	226.61
356.30	226.70
356.68	226.84
357.06	226.93
357.44	226.97
357.82	227.07
358.20	227.11
358.58	227.17
358.97	227.28
359.35	227.33
359.73	227.41
360.11	227.48
360.49	227.54
360.87	227.61
361.25	227.69
361.63	227.79
362.01	227.83
362.39	227.87
362.77	227.93
363.15	227.96
363.53	227.99
363.91	228.01
364.29	228.04
364.67	227.93
365.05	227.99
365.43	228.03
365.81	228.02
366.19	228.02
366.57	228.06
366.95	228.04
367.33	228.04
367.71	228.04
368.09	228.04
368.47	228.03
368.85	228.01
369.23	227.97
369.61	227.91
369.99	227.95
370.37	227.96
370.75	227.96
371.13	227.90
371.51	227.83
371.89	227.82
372.27	227.77
372.65	227.78
373.03	227.76
373.41	227.71
373.78	227.70
374.16	227.64
374.54	227.55
374.92	227.49
375.30	227.41
375.68	227.32
376.06	227.27
376.44	227.20
376.82	227.12
377.19	227.09
377.57	226.99
377.95	226.87
378.33	226.79
378.71	226.69
379.09	226.61
379.47	226.58
379.84	226.47
380.22	226.41
380.60	226.29
380.98	226.21
381.36	226.15
381.73	226.05
382.11	226.05
382.49	226.02
382.87	225.91
383.25	225.86
383.62	225.91
384.00	225.83
384.38	225.76
384.76	225.75
385.13	225.70
385.51	225.70
385.89	225.63
386.27	225.59
386.64	225.56
387.02	225.51
387.40	225.47
387.78	225.42
388.15	225.36
388.53	225.34
388.91	225.30
389.29	225.28
389.66	225.26
390.04	225.18
390.42	225.16
390.79	225.19
391.17	225.18
391.55	225.07
391.92	225.07
392.30	225.10
392.68	225.07
393.05	225.04
393.43	225.03
393.81	225.03
394.18	225.00
394.56	224.99
394.94	225.03
395.31	225.01
395.69	225.09
396.06	225.14
396.44	225.18
396.82	225.20
397.19	225.24
397.57	225.28
397.95	225.35
398.32	225.36
398.70	225.39
399.07	225.45
399.45	225.49
399.82	225.53
400.20	225.57
400.58	225.65
400.95	225.69
401.33	225.80
401.70	225.97
402.08	226.09
402.45	226.19
402.83	226.31
403.20	226.43
403.58	226.54
403.95	226.67
404.33	226.84
404.71	226.98
405.08	227.19
405.46	227.34
405.83	227.52
406.21	227.70
406.58	227.92
406.96	228.11
407.33	228.36
407.70	228.59
408.08	228.92
408.45	229.19
408.83	229.51
409.20	229.78
409.58	230.02
409.95	230.37
410.33	230.74
410.70	231.08
411.08	231.49
411.45	231.89
411.82	232.31
412.20	232.72
412.57	233.26
412.95	233.67
413.32	234.22
413.69	234.76
414.07	235.37
414.44	236.00
414.82	236.63
415.19	237.37
415.56	238.16
415.94	238.94
416.31	239.81
416.68	240.65
417.06	241.68
417.43	242.61
417.81	243.65
418.18	244.71
418.55	245.88
418.93	247.08
419.30	248.35
419.67	249.67
420.04	251.07
420.42	252.45
420.79	254.11
421.16	255.72
421.54	257.38
421.91	259.07
422.28	260.84
422.66	262.76
423.03	264.55
423.40	266.43
423.77	268.37
424.15	270.38
424.52	272.48
424.89	274.71
425.26	276.92
425.64	278.98
426.01	281.19
426.38	283.52
426.75	285.88
427.13	288.33
427.50	290.87
427.87	293.52
428.24	296.14
428.61	298.62
428.99	301.36
429.36	304.33
429.73	307.25
430.10	310.08
430.47	312.97
430.85	316.01
431.22	319.17
431.59	322.54
431.96	325.75
432.33	329.26
432.70	332.64
433.08	336.62
433.45	340.32
433.82	344.03
434.19	348.11
434.56	352.09
434.93	355.81
435.30	359.45
435.68	363.55
436.05	367.56
436.42	371.48
436.79	375.03
437.16	378.86
437.53	382.86
437.90	386.80
438.27	390.63
438.64	394.58
439.01	398.24
439.38	401.43
439.75	404.48
440.13	408.00
440.50	411.29
440.87	413.93
441.24	416.69
441.61	419.80
441.98	421.92
442.35	424.46
442.72	427.10
443.09	429.73
443.46	431.11
443.83	432.01
444.20	432.78
444.57	433.99
444.94	434.40
445.31	434.88
445.68	435.38
446.05	435.53
446.42	435.06
446.79	434.45
447.16	433.79
447.53	433.31
447.90	431.74
448.27	430.08
448.64	427.77
449.01	426.22
449.37	423.34
449.74	420.64
450.11	417.40
450.48	413.93
450.85	410.36
451.22	407.30
451.59	404.34
451.96	401.57
452.33	397.87
452.70	394.52
453.07	390.51
453.43	386.47
453.80	382.58
454.17	378.80
454.54	375.22
454.91	371.41
455.28	367.66
455.65	364.09
456.02	360.58
456.38	357.59
456.75	353.77
457.12	350.60
457.49	347.46
457.86	344.43
458.23	341.78
458.59	338.87
458.96	335.88
459.33	333.33
459.70	330.66
460.07	328.54
460.43	326.12
460.80	323.84
461.17	321.75
461.54	319.60
461.91	317.55
462.27	315.49
462.64	313.66
463.01	311.70
463.38	309.80
463.74	307.92
464.11	306.25
464.48	304.79
464.85	303.23
465.21	301.98
465.58	300.68
465.95	299.12
466.32	297.81
466.68	296.58
467.05	295.27
467.42	293.96
467.78	292.61
468.15	291.33
468.52	290.37
468.88	289.17
469.25	288.04
469.62	287.11
469.98	286.13
470.35	285.25
470.72	284.39
471.08	283.49
471.45	282.67
471.82	281.86
472.18	280.97
472.55	280.29
472.92	279.52
473.28	278.83
473.65	278.16
474.02	277.51
474.38	276.93
474.75	276.41
475.11	275.91
475.48	275.53
475.85	275.16
476.21	274.80
476.58	274.51
476.94	274.25
477.31	273.97
477.67	273.72
478.04	273.50
478.41	273.33
478.77	273.29
479.14	273.16
479.50	273.08
479.87	273.12
480.23	273.16
480.60	273.15
480.96	273.16
481.33	273.34
481.69	273.47
482.06	273.64
482.42	273.81
482.79	274.06
483.15	274.31
483.52	274.66
483.88	274.96
484.25	275.30
484.61	275.70
484.98	276.17
485.34	276.72
485.71	277.32
486.07	277.94
486.44	278.50
486.80	279.22
487.17	280.00
487.53	280.82
487.90	281.69
488.26	282.66
488.62	283.69
488.99	284.70
489.35	285.82
489.72	287.00
490.08	288.27
490.44	289.55
490.81	290.96
491.17	292.42
491.54	294.00
491.90	295.62
492.26	297.37
492.63	299.16
492.99	301.05
493.36	303.03
493.72	305.20
494.08	307.44
494.45	309.85
494.81	312.39
495.17	315.03
495.54	317.76
495.90	320.62
496.26	323.60
496.63	326.74
496.99	330.04
497.35	333.52
497.72	337.13
498.08	340.89
498.44	344.82
498.80	349.01
499.17	353.33
499.53	357.85
499.89	362.56
500.26	367.43
500.62	372.46
500.98	377.77
501.34	383.29
501.71	388.99
502.07	394.76
502.43	400.79
502.79	407.05
503.16	413.54
503.52	420.36
503.88	427.25
504.24	434.37
504.60	441.77
504.97	449.45
505.33	457.35
505.69	465.64
506.05	474.06
506.41	482.52
506.78	491.26
507.14	500.37
507.50	509.74
507.86	519.52
508.22	529.45
508.59	539.45
508.95	549.73
509.31	560.38
509.67	571.39
510.03	582.58
510.39	594.02
510.75	605.82
511.12	617.68
511.48	629.95
511.84	642.46
512.20	655.05
512.56	668.10
512.92	681.31
513.28	694.86
513.64	708.49
514.00	722.41
514.37	736.62
514.73	750.92
515.09	765.24
515.45	779.66
515.81	794.54
516.17	809.92
516.53	825.50
516.89	841.20
517.25	856.79
517.61	872.65
517.97	888.54
518.33	904.47
518.69	920.73
519.05	937.27
519.41	953.99
519.77	971.13
520.13	988.34
520.49	1005.44
520.85	1022.43
521.21	1039.78
521.57	1057.77
521.93	1075.35
522.29	1093.51
522.65	1111.62
523.01	1129.76
523.37	1147.75
523.73	1165.83
524.09	1183.84
524.45	1201.85
524.81	1220.48
525.17	1239.26
525.53	1258.26
525.89	1277.27
526.25	1296.22
526.61	1314.70
526.97	1333.52
527.33	1352.10
527.68	1370.74
528.04	1389.35
528.40	1408.13
528.76	1427.63
529.12	1446.55
529.48	1465.81
529.84	1483.98
530.20	1502.92
530.56	1522.30
530.91	1542.07
531.27	1561.22
531.63	1579.97
531.99	1599.12
532.35	1617.42
532.71	1635.78
533.07	1654.47
533.42	1672.82
533.78	1691.47
534.14	1710.30
534.50	1728.23
534.86	1746.69
535.21	1764.27
535.57	1782.75
535.93	1800.84
536.29	1818.04
536.65	1835.70
537.00	1852.90
537.36	1870.97
537.72	1888.06
538.08	1905.15
538.44	1921.59
538.79	1938.13
539.15	1954.31
539.51	1970.64
539.87	1987.73
540.22	2003.90
540.58	2020.34
540.94	2036.14
541.29	2051.61
541.65	2066.94
542.01	2082.73
542.37	2097.83
542.72	2113.02
543.08	2127.53
543.44	2142.60
543.79	2156.45
544.15	2169.93
544.51	2184.03
544.87	2197.66
545.22	2210.94
545.58	2223.67
545.94	2235.78
546.29	2248.08
546.65	2260.58
547.01	2272.20
547.36	2283.22
547.72	2294.28
548.07	2304.60
548.43	2315.19
548.79	2325.42
549.14	2335.32
549.50	2344.92
549.86	2354.81
550.21	2364.35
550.57	2373.87
550.92	2382.69
551.28	2392.07
551.64	2401.26
551.99	2410.12
552.35	2418.30
552.70	2426.79
553.06	2434.85
553.41	2443.34
553.77	2451.36
554.13	2459.45
554.48	2467.86
554.84	2475.57
555.19	2482.71
555.55	2489.86
555.90	2496.38
556.26	2503.41
556.61	2509.98
556.97	2516.39
557.32	2522.39
557.68	2528.29
558.03	2534.47
558.39	2539.79
558.74	2546.37
559.10	2552.22
559.45	2557.56
559.81	2563.67
560.16	2569.20
560.52	2574.21
560.87	2579.31
561.23	2583.53
561.58	2588.08
561.94	2592.16
562.29	2595.74
562.64	2600.09
563.00	2604.14
563.35	2609.20
563.71	2613.78
564.06	2618.51
564.42	2622.75
564.77	2626.71
565.12	2630.48
565.48	2633.56
565.83	2636.89
566.19	2639.45
566.54	2641.40
566.89	2643.89
567.25	2645.81
567.60	2648.27
567.96	2651.20
568.31	2653.20
568.66	2655.59
569.02	2657.34
569.37	2658.52
569.72	2660.74
570.08	2661.94
570.43	2662.77
570.78	2662.77
571.14	2661.81
571.49	2660.92
571.84	2661.31
572.20	2660.79
572.55	2660.32
572.90	2659.21
573.26	2658.42
573.61	2656.95
573.96	2655.78
574.31	2652.99
574.67	2649.99
575.02	2646.47
575.37	2642.98
575.72	2639.24
576.08	2635.84
576.43	2632.52
576.78	2629.05
577.13	2625.72
577.49	2622.42
577.84	2618.91
578.19	2615.19
578.54	2611.67
578.90	2607.56
579.25	2601.65
579.60	2596.33
579.95	2591.08
580.30	2585.69
580.66	2580.17
581.01	2574.72
581.36	2569.23
581.71	2564.78
582.06	2560.13
582.42	2555.40
582.77	2549.92
583.12	2545.01
583.47	2540.20
583.82	2534.79
584.17	2529.00
584.53	2522.92
584.88	2516.75
585.23	2510.52
585.58	2504.35
585.93	2498.00
586.28	2492.46
586.63	2486.87
586.98	2481.22
587.34	2475.85
587.69	2470.26
588.04	2464.28
588.39	2458.07
588.74	2450.71
589.09	2443.73
589.44	2435.96
589.79	2428.94
590.14	2422.38
590.49	2414.69
590.84	2407.00
591.19	2400.09
591.54	2392.58
591.89	2384.22
592.25	2376.40
592.60	2367.98
592.95	2359.39
593.30	2350.98
593.65	2342.12
594.00	2333.94
594.35	2325.38
594.70	2316.06
595.05	2308.05
595.40	2299.49
595.75	2290.55
596.10	2283.29
596.45	2275.42
596.80	2268.22
597.15	2260.55
597.50	2252.47
597.85	2244.98
598.19	2237.13
598.54	2228.98
598.89	2221.12
599.24	2214.14
599.59	2206.41
599.94	2198.99
600.29	2191.38
600.64	2183.48
600.99	2175.07
601.34	2167.07
601.69	2158.81
602.04	2150.70
602.39	2141.87
602.74	2133.89
603.08	2125.92
603.43	2117.86
603.78	2109.17
604.13	2100.57
604.48	2091.97
604.83	2083.67
605.18	2075.48
605.53	2066.06
605.87	2056.21
606.22	2047.51
606.57	2037.87
606.92	2028.80
607.27	2020.42
607.62	2012.22
607.96	2003.70
608.31	1995.64
608.66	1986.40
609.01	1977.52
609.36	1968.53
609.70	1958.94
610.05	1949.15
610.40	1940.04
610.75	1930.29
611.10	1920.99
611.44	1910.69
611.79	1900.82
612.14	1890.30
612.49	1879.19
612.83	1868.99
613.18	1859.24
613.53	1849.45
613.88	1839.27
614.22	1829.48
614.57	1819.00
614.92	1809.37
615.27	1800.34
615.61	1790.38
615.96	1780.75
616.31	1771.50
616.65	1762.47
617.00	1753.28
617.35	1744.13
617.70	1734.25
618.04	1724.08
618.39	1714.10
618.74	1705.12
619.08	1695.37
619.43	1686.21
619.78	1677.92
620.12	1669.50
620.47	1660.46
620.82	1650.62
621.16	1641.57
621.51	1632.30
621.85	1623.02
622.20	1612.78
622.55	1602.55
622.89	1592.94
623.24	1583.61
623.59	1574.60
623.93	1565.58
624.28	1556.88
624.62	1547.69
624.97	1538.86
625.32	1530.49
625.66	1522.12
626.01	1513.54
626.35	1504.55
626.70	1495.30
627.04	1485.94
627.39	1476.34
627.73	1467.39
628.08	1459.12
628.43	1450.48
628.77	1441.80
629.12	1432.72
629.46	1424.12
629.81	1415.16
630.15	1406.55
630.50	1397.78
630.84	1388.00
631.19	1378.33
631.53	1369.25
631.88	1360.29
632.22	1351.18
632.57	1342.28
632.91	1333.17
633.26	1324.14
633.60	1315.25
633.95	1306.60
634.29	1298.12
634.64	1290.20
634.98	1281.37
635.32	1272.83
635.67	1264.86
636.01	1256.78
636.36	1248.63
636.70	1240.71
637.05	1232.84
637.39	1225.15
637.73	1217.24
638.08	1210.12
638.42	1202.95
638.77	1195.28
639.11	1187.37
639.45	1179.70
639.80	1171.85
640.14	1164.22
640.49	1156.45
640.83	1148.83
641.17	1141.49
641.52	1133.96
641.86	1126.21
642.20	1119.26
642.55	1111.68
642.89	1104.02
643.23	1096.15
643.58	1089.31
643.92	1081.98
644.26	1074.88
644.61	1067.56
644.95	1060.54
645.29	1052.83
645.64	1044.85
645.98	1037.25
646.32	1030.18
646.66	1023.05
647.01	1016.21
647.35	1009.46
647.69	1002.43
648.04	995.86
648.38	988.95
648.72	981.98
649.06	974.91
649.41	967.91
649.75	960.91
650.09	953.96
650.43	947.16
650.78	939.87
651.12	932.78
651.46	925.98
651.80	919.23
652.14	912.69
652.49	906.32
652.83	900.27
653.17	893.58
653.51	886.88
653.85	880.41
654.20	873.71
654.54	866.56
654.88	859.81
655.22	852.84
655.56	846.02
655.90	839.47
656.25	833.17
656.59	826.83
656.93	820.80
657.27	814.59
657.61	808.17
657.95	802.10
658.29	796.15
658.64	789.83
658.98	783.49
659.32	777.04
659.66	770.85
660.00	764.55
660.34	758.74
660.68	752.97
661.02	747.04
661.36	741.43
661.70	736.10
662.05	731.01
662.39	725.96
662.73	720.69
663.07	715.51
663.41	710.25
663.75	704.96
664.09	699.49
664.43	694.29
664.77	689.49
665.11	684.43
665.45	679.51
665.79	674.71
666.13	669.91
666.47	665.10
666.81	660.20
667.15	655.36
667.49	650.75
667.83	646.18
668.17	641.55
668.51	636.80
668.85	632.04
669.19	627.45
669.53	622.90
669.87	618.39
670.21	613.98
670.55	609.66
670.89	605.56
671.23	601.54
671.57	597.36
671.91	593.16
672.25	589.04
672.58	584.86
672.92	580.77
673.26	577.02
673.60	573.30
673.94	569.65
674.28	566.17
674.62	562.67
674.96	559.02
675.30	555.63
675.64	552.15
675.97	548.83
676.31	545.45
676.65	541.98
676.99	538.82
677.33	535.46
677.67	532.14
678.01	528.61
678.34	525.18
678.68	521.81
679.02	518.49
679.36	515.24
679.70	512.04
680.04	508.87
680.37	505.44
680.71	502.13
681.05	498.98
681.39	495.78
681.73	492.68
682.06	489.79
682.40	486.75
682.74	483.77
683.08	480.82
683.42	477.78
683.75	474.85
684.09	471.78
684.43	468.87
684.77	466.02
685.10	463.28
685.44	460.50
685.78	457.80
686.12	455.10
686.45	452.35
686.79	449.61
687.13	446.99
687.46	444.44
687.80	441.87
688.14	439.25
688.48	436.85
688.81	434.16
689.15	431.54
689.49	428.98
689.82	426.52
690.16	424.03
690.50	421.64
690.83	419.36
691.17	417.00
691.51	414.72
691.84	412.54
692.18	410.26
692.52	407.92
692.85	405.57
693.19	403.35
693.52	401.21
693.86	399.08
694.20	396.98
694.53	394.87
694.87	392.67
695.21	390.55
695.54	388.37
695.88	386.32
696.21	384.23
696.55	382.23
696.88	380.23
697.22	378.25
697.56	376.35
697.89	374.38
698.23	372.50
698.56	370.61
698.90	368.73
699.23	366.75
699.57	364.89
699.90	363.13
700.24	361.31
700.58	359.52
700.91	357.79
701.25	356.04
701.58	354.39
701.92	352.75
702.25	351.16
702.59	349.53
702.92	347.98
703.26	346.44
703.59	344.94
703.93	343.53
704.26	342.09
704.60	340.58
704.93	339.09
705.26	337.61
705.60	336.20
705.93	334.77
706.27	333.51
706.60	332.28
706.94	330.95
707.27	329.60
707.61	328.29
707.94	327.05
708.27	325.76
708.61	324.47
708.94	323.27
709.28	322.06
709.61	320.91
709.94	319.77
710.28	318.58
710.61	317.44
710.95	316.14
711.28	315.02
711.61	313.90
711.95	312.81
712.28	311.72
712.61	310.55
712.95	309.45
713.28	308.40
713.61	307.34
713.95	306.32
714.28	305.33
714.61	304.34
714.95	303.34
715.28	302.36
715.61	301.31
715.95	300.29
716.28	299.27
716.61	298.24
716.95	297.24
717.28	296.36
717.61	295.40
717.94	294.55
718.28	293.62
718.61	292.73
718.94	291.89
719.27	291.10
719.61	290.35
719.94	289.58
720.27	288.76
720.60	287.96
720.94	287.21
721.27	286.50
721.60	285.76
721.93	285.01
722.27	284.33
722.60	283.73
722.93	283.08
723.26	282.49
723.59	281.91
723.93	281.29
724.26	280.62
724.59	279.97
724.92	279.36
725.25	278.77
725.59	278.13
725.92	277.47
726.25	276.84
726.58	276.23
726.91	275.60
727.24	275.02
727.57	274.48
727.91	273.85
728.24	273.31
728.57	272.76
728.90	272.22
729.23	271.65
729.56	271.12
729.89	270.52
730.22	269.92
730.55	269.36
730.89	268.84
731.22	268.31
731.55	267.77
731.88	267.23
732.21	266.72
732.54	266.26
732.87	265.79
733.20	265.33
733.53	264.84
733.86	264.45
734.19	264.01
734.52	263.53
734.85	263.15
735.18	262.65
735.51	262.22
735.84	261.78
736.17	261.36
736.50	260.92
736.83	260.66
737.16	260.27
737.49	259.88
737.82	259.47
738.15	259.09
738.48	258.70
738.81	258.37
739.14	257.96
739.47	257.58
739.80	257.21
740.13	256.85
740.46	256.52
740.79	256.11
741.12	255.73
741.45	255.40
741.78	255.03
742.11	254.72
742.44	254.31
742.77	253.97
743.10	253.63
743.43	253.27
743.75	252.84
744.08	252.66
744.41	252.38
744.74	252.04
745.07	251.73
745.40	251.46
745.73	251.16
746.06	250.84
746.39	250.55
746.71	250.26
747.04	249.96
747.37	249.65
747.70	249.40
748.03	249.11
748.36	248.82
748.68	248.50
749.01	248.20
749.34	247.97
749.67	247.74
750.00	247.49
750.33	247.27
750.65	247.00
750.98	246.61
751.31	246.32
751.64	246.08
751.97	245.90
752.29	245.65
752.62	245.35
752.95	245.11
753.28	244.86
753.60	244.58
753.93	244.33
754.26	244.08
754.59	243.78
754.91	243.56
755.24	243.34
755.57	243.10
755.90	242.88
756.22	242.63
756.55	242.38
756.88	242.12
757.20	241.85
757.53	241.62
757.86	241.42
758.19	241.21
758.51	241.00
758.84	240.71
759.17	240.48
759.49	240.30
759.82	240.11
760.15	239.89
760.47	239.70
760.80	239.50
761.13	239.38
761.45	239.21
761.78	238.98
762.11	238.76
762.43	238.58
762.76	238.41
763.08	238.26
763.41	238.08
763.74	237.93
764.06	237.73
764.39	237.56
764.71	237.35
765.04	237.18
765.37	237.02
765.69	236.82
766.02	236.67
766.34	236.51
766.67	236.38
767.00	236.27
767.32	236.18
767.65	236.10
767.97	235.94
768.30	235.80
768.62	235.67
768.95	235.50
769.27	235.38
769.60	235.26
769.92	235.11
770.25	234.96
770.57	234.79
770.90	234.69
771.22	234.56
771.55	234.45
771.87	234.32
772.20	234.20
772.52	234.20
772.85	234.18
773.17	234.02
773.50	233.89
773.82	233.74
774.15	233.59
774.47	233.40
774.80	233.27
775.12	233.17
775.45	233.05
775.77	233.00
776.09	232.90
776.42	232.82
776.74	232.75
777.07	232.67
777.39	232.60
777.72	232.52
778.04	232.42
778.36	232.34
778.69	232.28
779.01	232.24
779.33	232.08
779.66	231.90
779.98	231.86
780.31	231.77
780.63	231.76
780.95	231.74
781.28	231.68
781.60	231.63
781.92	231.52
782.25	231.49
782.57	231.42
782.89	231.35
783.22	231.27
783.54	231.18
783.86	231.16
784.19	231.07
784.51	231.03
784.83	231.00
785.16	230.99
785.48	230.96
785.80	230.87
786.12	230.85
786.45	230.83
