SpectraSuite Data File
++++++++++++++++++++++++++++++++++++
Date: Fri Feb 01 16:25:55 EST 2013
User: group
Dark Spectrum Present: No
Reference Spectrum Present: No
Number of Sampled Component Spectra: 1
Spectrometers: USB2E7196
Integration Time (usec): 35000 (USB2E7196)
Spectra Averaged: 100 (USB2E7196)
Boxcar Smoothing: 10 (USB2E7196)
Correct for Electrical Dark: No (USB2E7196)
Strobe/Lamp Enabled: No (USB2E7196)
Correct for Detector Non-linearity: No (USB2E7196)
Correct for Stray Light: No (USB2E7196)
Number of Pixels in Processed Spectrum: 2048
>>>>>Begin Processed Spectral Data<<<<<
339.09	0.00
339.48	213.77
339.86	215.87
340.24	217.56
340.63	217.72
341.01	221.11
341.39	220.91
341.78	222.01
342.16	222.80
342.54	223.89
342.93	212.32
343.31	223.06
343.69	223.60
344.07	224.04
344.46	224.43
344.84	224.84
345.22	225.06
345.60	225.31
345.99	225.51
346.37	225.64
346.75	225.72
347.13	225.81
347.52	225.88
347.90	225.98
348.28	226.01
348.66	226.05
349.05	226.00
349.43	226.00
349.81	226.01
350.19	226.05
350.57	226.13
350.96	226.19
351.34	226.24
351.72	226.32
352.10	226.42
352.48	226.49
352.87	226.53
353.25	226.61
353.63	226.65
354.01	226.72
354.39	226.80
354.77	226.88
355.15	227.00
355.54	227.07
355.92	227.13
356.30	227.21
356.68	227.34
357.06	227.43
357.44	227.51
357.82	227.61
358.20	227.68
358.58	227.74
358.97	227.78
359.35	227.91
359.73	227.99
360.11	228.02
360.49	228.07
360.87	228.12
361.25	228.18
361.63	228.26
362.01	228.29
362.39	228.33
362.77	228.40
363.15	228.40
363.53	228.44
363.91	228.44
364.29	228.48
364.67	228.42
365.05	228.42
365.43	228.44
365.81	228.49
366.19	228.51
366.57	228.57
366.95	228.56
367.33	228.52
367.71	228.50
368.09	228.52
368.47	228.50
368.85	228.48
369.23	228.47
369.61	228.46
369.99	228.48
370.37	228.46
370.75	228.46
371.13	228.39
371.51	228.36
371.89	228.33
372.27	228.26
372.65	228.20
373.03	228.15
373.41	228.09
373.78	228.02
374.16	227.95
374.54	227.84
374.92	227.79
375.30	227.74
375.68	227.68
376.06	227.64
376.44	227.58
376.82	227.51
377.19	227.42
377.57	227.35
377.95	227.27
378.33	227.21
378.71	227.09
379.09	227.08
379.47	227.04
379.84	226.98
380.22	226.93
380.60	226.87
380.98	226.83
381.36	226.75
381.73	226.68
382.11	226.61
382.49	226.54
382.87	226.47
383.25	226.41
383.62	226.45
384.00	226.38
384.38	226.35
384.76	226.30
385.13	226.30
385.51	226.23
385.89	226.12
386.27	226.05
386.64	226.04
387.02	225.97
387.40	225.87
387.78	225.83
388.15	225.76
388.53	225.72
388.91	225.68
389.29	225.63
389.66	225.61
390.04	225.54
390.42	225.54
390.79	225.55
391.17	225.52
391.55	225.40
391.92	225.33
392.30	225.32
392.68	225.28
393.05	225.28
393.43	225.26
393.81	225.31
394.18	225.30
394.56	225.28
394.94	225.29
395.31	225.33
395.69	225.38
396.06	225.43
396.44	225.45
396.82	225.45
397.19	225.55
397.57	225.58
397.95	225.67
398.32	225.70
398.70	225.74
399.07	225.82
399.45	225.84
399.82	225.93
400.20	225.99
400.58	226.08
400.95	226.12
401.33	226.24
401.70	226.36
402.08	226.47
402.45	226.58
402.83	226.69
403.20	226.78
403.58	226.86
403.95	226.98
404.33	227.12
404.71	227.27
405.08	227.43
405.46	227.55
405.83	227.69
406.21	227.84
406.58	227.99
406.96	228.13
407.33	228.34
407.70	228.56
408.08	228.84
408.45	229.08
408.83	229.33
409.20	229.53
409.58	229.75
409.95	230.00
410.33	230.25
410.70	230.50
411.08	230.82
411.45	231.11
411.82	231.41
412.20	231.75
412.57	232.16
412.95	232.46
413.32	232.88
413.69	233.28
414.07	233.72
414.44	234.16
414.82	234.66
415.19	235.21
415.56	235.71
415.94	236.20
416.31	236.81
416.68	237.40
417.06	238.13
417.43	238.76
417.81	239.51
418.18	240.30
418.55	241.16
418.93	241.97
419.30	242.83
419.67	243.79
420.04	244.74
420.42	245.75
420.79	246.91
421.16	248.07
421.54	249.29
421.91	250.47
422.28	251.74
422.66	253.06
423.03	254.37
423.40	255.72
423.77	257.15
424.15	258.56
424.52	260.05
424.89	261.64
425.26	263.19
425.64	264.66
426.01	266.27
426.38	267.90
426.75	269.59
427.13	271.36
427.50	273.14
427.87	275.00
428.24	276.86
428.61	278.66
428.99	280.61
429.36	282.68
429.73	284.74
430.10	286.74
430.47	288.81
430.85	290.93
431.22	293.13
431.59	295.51
431.96	297.73
432.33	300.21
432.70	302.58
433.08	305.41
433.45	308.02
433.82	310.59
434.19	313.41
434.56	316.21
434.93	318.82
435.30	321.44
435.68	324.35
436.05	327.13
436.42	329.84
436.79	332.33
437.16	335.02
437.53	337.83
437.90	340.61
438.27	343.30
438.64	346.03
439.01	348.64
439.38	350.81
439.75	353.00
440.13	355.49
440.50	357.76
440.87	359.58
441.24	361.52
441.61	363.69
441.98	365.19
442.35	366.97
442.72	368.79
443.09	370.60
443.46	371.56
443.83	372.17
444.20	372.71
444.57	373.53
444.94	373.82
445.31	374.18
445.68	374.58
446.05	374.69
446.42	374.35
446.79	373.92
447.16	373.54
447.53	373.21
447.90	372.05
448.27	370.92
448.64	369.32
449.01	368.16
449.37	366.18
449.74	364.31
450.11	362.12
450.48	359.72
450.85	357.17
451.22	355.08
451.59	353.08
451.96	351.15
452.33	348.52
452.70	346.16
453.07	343.33
453.43	340.42
453.80	337.63
454.17	334.99
454.54	332.47
454.91	329.73
455.28	327.09
455.65	324.58
456.02	322.16
456.38	320.04
456.75	317.38
457.12	315.17
457.49	312.97
457.86	310.76
458.23	308.87
458.59	306.82
458.96	304.71
459.33	302.85
459.70	300.97
460.07	299.51
460.43	297.79
460.80	296.21
461.17	294.75
461.54	293.31
461.91	291.91
462.27	290.49
462.64	289.27
463.01	287.94
463.38	286.66
463.74	285.33
464.11	284.21
464.48	283.22
464.85	282.10
465.21	281.24
465.58	280.35
465.95	279.28
466.32	278.42
466.68	277.54
467.05	276.65
467.42	275.77
467.78	274.85
468.15	274.00
468.52	273.34
468.88	272.49
469.25	271.74
469.62	271.11
469.98	270.42
470.35	269.77
470.72	269.15
471.08	268.50
471.45	267.97
471.82	267.46
472.18	266.87
472.55	266.45
472.92	265.91
473.28	265.46
473.65	265.01
474.02	264.55
474.38	264.21
474.75	263.86
475.11	263.54
475.48	263.29
475.85	263.07
476.21	262.85
476.58	262.70
476.94	262.55
477.31	262.37
477.67	262.22
478.04	262.18
478.41	262.14
478.77	262.20
479.14	262.13
479.50	262.09
479.87	262.20
480.23	262.26
480.60	262.35
480.96	262.48
481.33	262.74
481.69	262.95
482.06	263.16
482.42	263.37
482.79	263.63
483.15	263.93
483.52	264.30
483.88	264.68
484.25	265.08
484.61	265.51
484.98	265.95
485.34	266.53
485.71	267.07
486.07	267.70
486.44	268.27
486.80	268.95
487.17	269.72
487.53	270.51
487.90	271.41
488.26	272.35
488.62	273.30
488.99	274.25
489.35	275.27
489.72	276.38
490.08	277.59
490.44	278.80
490.81	280.15
491.17	281.51
491.54	282.96
491.90	284.49
492.26	286.16
492.63	287.90
492.99	289.68
493.36	291.57
493.72	293.58
494.08	295.70
494.45	297.96
494.81	300.31
495.17	302.72
495.54	305.28
495.90	307.99
496.26	310.86
496.63	313.85
496.99	317.01
497.35	320.27
497.72	323.76
498.08	327.29
498.44	331.00
498.80	334.95
499.17	339.03
499.53	343.23
499.89	347.60
500.26	352.09
500.62	356.75
500.98	361.76
501.34	366.87
501.71	372.25
502.07	377.72
502.43	383.37
502.79	389.27
503.16	395.34
503.52	401.62
503.88	407.95
504.24	414.54
504.60	421.38
504.97	428.56
505.33	435.86
505.69	443.61
506.05	451.38
506.41	459.23
506.78	467.40
507.14	475.84
507.50	484.57
507.86	493.62
508.22	502.85
508.59	512.03
508.95	521.63
509.31	531.41
509.67	541.55
510.03	551.80
510.39	562.29
510.75	573.11
511.12	584.05
511.48	595.36
511.84	606.93
512.20	618.54
512.56	630.44
512.92	642.64
513.28	654.97
513.64	667.45
514.00	680.24
514.37	693.20
514.73	706.32
515.09	719.36
515.45	732.63
515.81	746.14
516.17	760.15
516.53	774.27
516.89	788.40
517.25	802.54
517.61	816.98
517.97	831.48
518.33	845.82
518.69	860.55
519.05	875.56
519.41	890.61
519.77	906.03
520.13	921.40
520.49	936.71
520.85	952.08
521.21	967.73
521.57	983.89
521.93	999.55
522.29	1015.75
522.65	1031.90
523.01	1048.06
523.37	1064.06
523.73	1080.08
524.09	1096.08
524.45	1112.38
524.81	1128.97
525.17	1145.74
525.53	1162.56
525.89	1179.42
526.25	1196.19
526.61	1212.47
526.97	1229.13
527.33	1245.63
527.68	1262.21
528.04	1278.53
528.40	1294.92
528.76	1311.78
529.12	1328.26
529.48	1344.95
529.84	1360.94
530.20	1377.50
530.56	1394.40
530.91	1411.71
531.27	1428.38
531.63	1444.71
531.99	1461.14
532.35	1476.90
532.71	1492.71
533.07	1508.89
533.42	1524.67
533.78	1540.53
534.14	1556.70
534.50	1571.92
534.86	1587.59
535.21	1602.67
535.57	1618.55
535.93	1634.12
536.29	1648.83
536.65	1663.64
537.00	1678.41
537.36	1693.61
537.72	1708.01
538.08	1722.40
538.44	1736.12
538.79	1749.93
539.15	1763.45
539.51	1777.09
539.87	1791.34
540.22	1805.01
540.58	1818.65
540.94	1831.91
541.29	1844.69
541.65	1857.35
542.01	1870.49
542.37	1882.81
542.72	1895.07
543.08	1906.81
543.44	1919.07
543.79	1930.17
544.15	1941.15
544.51	1952.77
544.87	1963.64
545.22	1974.42
545.58	1984.47
545.94	1994.20
546.29	2003.95
546.65	2013.85
547.01	2023.20
547.36	2031.88
547.72	2040.24
548.07	2048.02
548.43	2056.05
548.79	2064.17
549.14	2071.54
549.50	2078.82
549.86	2086.32
550.21	2093.69
550.57	2100.76
550.92	2107.29
551.28	2114.50
551.64	2121.66
551.99	2128.04
552.35	2134.19
552.70	2140.36
553.06	2146.39
553.41	2152.70
553.77	2158.79
554.13	2164.81
554.48	2170.77
554.84	2176.17
555.19	2181.40
555.55	2186.61
555.90	2191.14
556.26	2195.94
556.61	2200.65
556.97	2205.04
557.32	2209.22
557.68	2213.27
558.03	2217.62
558.39	2221.37
558.74	2225.99
559.10	2229.72
559.45	2233.37
559.81	2237.64
560.16	2241.33
560.52	2244.55
560.87	2247.94
561.23	2250.51
561.58	2253.58
561.94	2256.05
562.29	2258.53
562.64	2261.22
563.00	2263.61
563.35	2267.03
563.71	2270.14
564.06	2273.45
564.42	2276.30
564.77	2278.90
565.12	2281.24
565.48	2283.17
565.83	2285.06
566.19	2286.36
566.54	2287.36
566.89	2288.50
567.25	2289.05
567.60	2290.37
567.96	2292.08
568.31	2292.93
568.66	2294.27
569.02	2294.70
569.37	2295.12
569.72	2296.05
570.08	2296.17
570.43	2296.45
570.78	2296.02
571.14	2294.59
571.49	2293.31
571.84	2293.01
572.20	2291.89
572.55	2290.80
572.90	2289.18
573.26	2287.88
573.61	2286.37
573.96	2284.58
574.31	2281.87
574.67	2279.07
575.02	2275.68
575.37	2272.36
575.72	2268.69
576.08	2265.23
576.43	2262.02
576.78	2258.39
577.13	2255.18
577.49	2252.22
577.84	2248.66
578.19	2244.88
578.54	2241.22
578.90	2237.01
579.25	2231.50
579.60	2226.58
579.95	2221.65
580.30	2216.78
580.66	2211.60
581.01	2206.62
581.36	2201.83
581.71	2197.60
582.06	2193.09
582.42	2188.57
582.77	2183.44
583.12	2179.01
583.47	2174.42
583.82	2169.62
584.17	2164.44
584.53	2159.05
584.88	2153.37
585.23	2147.69
585.58	2142.41
585.93	2137.02
586.28	2132.21
586.63	2127.23
586.98	2122.28
587.34	2117.72
587.69	2112.79
588.04	2107.54
588.39	2101.82
588.74	2095.37
589.09	2089.19
589.44	2082.49
589.79	2076.62
590.14	2070.93
590.49	2064.32
590.84	2058.11
591.19	2051.99
591.54	2045.56
591.89	2038.29
592.25	2031.65
592.60	2024.60
592.95	2016.98
593.30	2009.70
593.65	2002.38
594.00	1995.33
594.35	1988.13
594.70	1980.18
595.05	1973.09
595.40	1965.98
595.75	1958.62
596.10	1952.49
596.45	1945.84
596.80	1939.91
597.15	1933.23
597.50	1926.34
597.85	1919.88
598.19	1913.09
598.54	1905.94
598.89	1899.38
599.24	1893.48
599.59	1886.73
599.94	1880.45
600.29	1874.15
600.64	1867.69
600.99	1860.15
601.34	1853.35
601.69	1846.53
602.04	1839.64
602.39	1832.27
602.74	1825.44
603.08	1818.69
603.43	1812.06
603.78	1804.69
604.13	1797.41
604.48	1790.18
604.83	1783.16
605.18	1776.36
605.53	1768.42
605.87	1760.64
606.22	1753.47
606.57	1745.62
606.92	1738.44
607.27	1731.36
607.62	1724.45
607.96	1717.17
608.31	1710.55
608.66	1702.86
609.01	1695.19
609.36	1687.64
609.70	1679.70
610.05	1671.61
610.40	1663.94
610.75	1655.56
611.10	1648.03
611.44	1639.58
611.79	1631.69
612.14	1623.11
612.49	1613.92
612.83	1605.63
613.18	1597.38
613.53	1589.19
613.88	1580.58
614.22	1572.26
614.57	1563.57
614.92	1555.59
615.27	1547.96
615.61	1539.74
615.96	1531.83
616.31	1524.24
616.65	1516.83
617.00	1509.34
617.35	1501.77
617.70	1493.45
618.04	1484.96
618.39	1476.68
618.74	1469.02
619.08	1460.61
619.43	1453.10
619.78	1446.15
620.12	1438.80
620.47	1431.34
620.82	1423.18
621.16	1415.77
621.51	1408.21
621.85	1400.70
622.20	1392.22
622.55	1383.87
622.89	1375.98
623.24	1368.39
623.59	1360.92
623.93	1353.45
624.28	1346.15
624.62	1338.55
624.97	1331.29
625.32	1324.54
625.66	1317.41
626.01	1310.26
626.35	1302.79
626.70	1294.92
627.04	1287.14
627.39	1279.38
627.73	1272.00
628.08	1265.25
628.43	1257.91
628.77	1250.50
629.12	1242.89
629.46	1235.72
629.81	1228.37
630.15	1221.07
630.50	1213.67
630.84	1205.49
631.19	1197.56
631.53	1190.17
631.88	1182.58
632.22	1175.02
632.57	1167.71
632.91	1160.27
633.26	1152.77
633.60	1145.38
633.95	1138.31
634.29	1131.32
634.64	1124.74
634.98	1117.36
635.32	1110.13
635.67	1103.58
636.01	1096.97
636.36	1090.19
636.70	1083.60
637.05	1077.01
637.39	1070.63
637.73	1064.09
638.08	1058.22
638.42	1052.19
638.77	1045.65
639.11	1039.12
639.45	1032.73
639.80	1026.02
640.14	1019.69
640.49	1013.26
640.83	1006.98
641.17	1000.75
641.52	994.36
641.86	987.92
642.20	982.04
642.55	975.68
642.89	969.17
643.23	962.56
643.58	956.74
643.92	950.63
644.26	944.50
644.61	938.44
644.95	932.41
645.29	925.79
645.64	919.03
645.98	912.69
646.32	906.83
646.66	900.78
647.01	894.98
647.35	889.17
647.69	883.32
648.04	877.80
648.38	872.04
648.72	866.12
649.06	860.00
649.41	854.08
649.75	848.13
650.09	842.19
650.43	836.37
650.78	830.16
651.12	824.09
651.46	818.44
651.80	812.63
652.14	807.19
652.49	801.86
652.83	796.74
653.17	790.98
653.51	785.17
653.85	779.83
654.20	774.22
654.54	768.20
654.88	762.44
655.22	756.58
655.56	750.84
655.90	745.40
656.25	740.12
656.59	734.75
656.93	729.63
657.27	724.50
657.61	719.11
657.95	714.01
658.29	708.96
658.64	703.66
658.98	698.37
659.32	692.93
659.66	687.65
660.00	682.27
660.34	677.36
660.68	672.50
661.02	667.50
661.36	662.75
661.70	658.36
662.05	653.98
662.39	649.67
662.73	645.24
663.07	640.86
663.41	636.48
663.75	631.98
664.09	627.42
664.43	622.93
664.77	618.83
665.11	614.68
665.45	610.59
665.79	606.51
666.13	602.42
666.47	598.35
666.81	594.20
667.15	590.08
667.49	586.14
667.83	582.25
668.17	578.26
668.51	574.14
668.85	570.04
669.19	566.17
669.53	562.25
669.87	558.30
670.21	554.56
670.55	550.94
670.89	547.54
671.23	544.13
671.57	540.66
671.91	537.08
672.25	533.53
672.58	529.91
672.92	526.51
673.26	523.31
673.60	520.15
673.94	517.07
674.28	514.17
674.62	511.27
674.96	508.17
675.30	505.22
675.64	502.32
675.97	499.58
676.31	496.75
676.65	493.90
676.99	491.26
677.33	488.41
677.67	485.55
678.01	482.53
678.34	479.55
678.68	476.69
679.02	473.91
679.36	471.18
679.70	468.53
680.04	465.80
680.37	462.94
680.71	460.15
681.05	457.54
681.39	454.86
681.73	452.22
682.06	449.76
682.40	447.22
682.74	444.70
683.08	442.12
683.42	439.54
683.75	437.03
684.09	434.44
684.43	431.96
684.77	429.52
685.10	427.12
685.44	424.84
685.78	422.54
686.12	420.28
686.45	417.95
686.79	415.60
687.13	413.42
687.46	411.30
687.80	409.13
688.14	406.90
688.48	404.82
688.81	402.50
689.15	400.31
689.49	398.19
689.82	396.10
690.16	394.00
690.50	392.02
690.83	390.06
691.17	388.09
691.51	386.19
691.84	384.32
692.18	382.41
692.52	380.46
692.85	378.55
693.19	376.69
693.52	374.84
693.86	373.07
694.20	371.28
694.53	369.44
694.87	367.63
695.21	365.85
695.54	364.00
695.88	362.31
696.21	360.58
696.55	358.88
696.88	357.22
697.22	355.60
697.56	353.94
697.89	352.28
698.23	350.67
698.56	349.04
698.90	347.43
699.23	345.76
699.57	344.21
699.90	342.64
700.24	341.04
700.58	339.52
700.91	338.02
701.25	336.53
701.58	335.13
701.92	333.74
702.25	332.34
702.59	330.95
702.92	329.61
703.26	328.29
703.59	327.02
703.93	325.82
704.26	324.56
704.60	323.27
704.93	322.01
705.26	320.78
705.60	319.61
705.93	318.48
706.27	317.44
706.60	316.34
706.94	315.25
707.27	314.15
707.61	313.08
707.94	312.07
708.27	310.96
708.61	309.87
708.94	308.86
709.28	307.87
709.61	306.95
709.94	306.01
710.28	304.99
710.61	304.00
710.95	302.92
711.28	301.99
711.61	301.07
711.95	300.13
712.28	299.16
712.61	298.14
712.95	297.19
713.28	296.33
713.61	295.41
713.95	294.52
714.28	293.69
714.61	292.83
714.95	291.93
715.28	291.13
715.61	290.28
715.95	289.40
716.28	288.55
716.61	287.70
716.95	286.91
717.28	286.19
717.61	285.39
717.94	284.68
718.28	283.86
718.61	283.10
718.94	282.44
719.27	281.77
719.61	281.14
719.94	280.49
720.27	279.73
720.60	279.09
720.94	278.48
721.27	277.86
721.60	277.26
721.93	276.72
722.27	276.15
722.60	275.61
722.93	275.06
723.26	274.52
723.59	273.97
723.93	273.42
724.26	272.87
724.59	272.34
724.92	271.77
725.25	271.32
725.59	270.82
725.92	270.28
726.25	269.78
726.58	269.28
726.91	268.79
727.24	268.37
727.57	267.92
727.91	267.40
728.24	266.99
728.57	266.51
728.90	266.05
729.23	265.55
729.56	265.14
729.89	264.66
730.22	264.19
730.55	263.71
730.89	263.26
731.22	262.82
731.55	262.39
731.88	262.00
732.21	261.54
732.54	261.09
732.87	260.65
733.20	260.24
733.53	259.86
733.86	259.50
734.19	259.09
734.52	258.67
734.85	258.40
735.18	257.96
735.51	257.59
735.84	257.20
736.17	256.84
736.50	256.42
736.83	256.18
737.16	255.88
737.49	255.54
737.82	255.20
738.15	254.88
738.48	254.51
738.81	254.20
739.14	253.89
739.47	253.58
739.80	253.31
740.13	253.02
740.46	252.68
740.79	252.33
741.12	252.02
741.45	251.73
741.78	251.35
742.11	251.06
742.44	250.71
742.77	250.43
743.10	250.14
743.43	249.82
743.75	249.46
744.08	249.29
744.41	249.01
744.74	248.72
745.07	248.42
745.40	248.20
745.73	247.92
746.06	247.63
746.39	247.43
746.71	247.12
747.04	246.83
747.37	246.55
747.70	246.32
748.03	246.07
748.36	245.85
748.68	245.60
749.01	245.31
749.34	245.11
749.67	244.87
750.00	244.63
750.33	244.50
750.65	244.27
750.98	243.87
751.31	243.66
751.64	243.45
751.97	243.25
752.29	243.00
752.62	242.74
752.95	242.55
753.28	242.28
753.60	242.07
753.93	241.89
754.26	241.73
754.59	241.49
754.91	241.26
755.24	241.06
755.57	240.87
755.90	240.71
756.22	240.53
756.55	240.32
756.88	240.13
757.20	239.87
757.53	239.67
757.86	239.50
758.19	239.33
758.51	239.15
758.84	238.97
759.17	238.79
759.49	238.65
759.82	238.52
760.15	238.38
760.47	238.26
760.80	238.10
761.13	237.93
761.45	237.78
761.78	237.65
762.11	237.49
762.43	237.35
762.76	237.23
763.08	237.08
763.41	236.95
763.74	236.80
764.06	236.65
764.39	236.53
764.71	236.44
765.04	236.27
765.37	236.14
765.69	235.99
766.02	235.87
766.34	235.75
766.67	235.60
767.00	235.49
767.32	235.43
767.65	235.40
767.97	235.27
768.30	235.16
768.62	235.02
768.95	234.92
769.27	234.80
769.60	234.68
769.92	234.56
770.25	234.43
770.57	234.36
770.90	234.29
771.22	234.19
771.55	234.10
771.87	234.05
772.20	233.94
772.52	233.96
772.85	234.02
773.17	233.92
773.50	233.80
773.82	233.74
774.15	233.58
774.47	233.42
774.80	233.33
775.12	233.26
775.45	233.20
775.77	233.09
776.09	233.04
776.42	232.97
776.74	232.95
777.07	232.91
777.39	232.81
777.72	232.73
778.04	232.67
778.36	232.56
778.69	232.51
779.01	232.47
779.33	232.29
779.66	232.09
779.98	232.02
780.31	231.99
780.63	231.93
780.95	231.89
781.28	231.81
781.60	231.77
781.92	231.71
782.25	231.66
782.57	231.61
782.89	231.53
783.22	231.45
783.54	231.33
783.86	231.27
784.19	231.23
784.51	231.18
784.83	231.06
785.16	231.01
785.48	230.93
785.80	230.88
786.12	230.84
786.45	230.77
786.77	230.78
787.09	230.73
