SpectraSuite Data File
++++++++++++++++++++++++++++++++++++
Date: Fri Feb 01 15:46:39 EST 2013
User: group
Dark Spectrum Present: No
Reference Spectrum Present: No
Number of Sampled Component Spectra: 1
Spectrometers: USB2E7196
Integration Time (usec): 35000 (USB2E7196)
Spectra Averaged: 100 (USB2E7196)
Boxcar Smoothing: 10 (USB2E7196)
Correct for Electrical Dark: No (USB2E7196)
Strobe/Lamp Enabled: No (USB2E7196)
Correct for Detector Non-linearity: No (USB2E7196)
Correct for Stray Light: No (USB2E7196)
Number of Pixels in Processed Spectrum: 2048
>>>>>Begin Processed Spectral Data<<<<<
339.09	0.00
339.48	214.73
339.86	216.19
340.24	218.11
340.63	219.16
341.01	222.26
341.39	222.25
341.78	223.11
342.16	224.26
342.54	224.66
342.93	213.36
343.31	224.16
343.69	224.72
344.07	225.21
344.46	225.62
344.84	226.01
345.22	226.23
345.60	226.47
345.99	226.70
346.37	226.86
346.75	226.97
347.13	227.02
347.52	227.05
347.90	227.13
348.28	227.19
348.66	227.23
349.05	227.21
349.43	227.26
349.81	227.30
350.19	227.36
350.57	227.44
350.96	227.51
351.34	227.59
351.72	227.68
352.10	227.79
352.48	227.84
352.87	227.91
353.25	227.98
353.63	228.04
354.01	228.12
354.39	228.20
354.77	228.30
355.15	228.43
355.54	228.52
355.92	228.54
356.30	228.60
356.68	228.74
357.06	228.82
357.44	228.87
357.82	228.92
358.20	228.95
358.58	229.00
358.97	229.05
359.35	229.11
359.73	229.16
360.11	229.19
360.49	229.26
360.87	229.26
361.25	229.32
361.63	229.37
362.01	229.38
362.39	229.37
362.77	229.37
363.15	229.38
363.53	229.40
363.91	229.43
364.29	229.45
364.67	229.37
365.05	229.39
365.43	229.40
365.81	229.42
366.19	229.45
366.57	229.45
366.95	229.44
367.33	229.40
367.71	229.43
368.09	229.43
368.47	229.35
368.85	229.37
369.23	229.37
369.61	229.30
369.99	229.29
370.37	229.26
370.75	229.27
371.13	229.22
371.51	229.14
371.89	229.13
372.27	229.08
372.65	229.02
373.03	228.93
373.41	228.85
373.78	228.78
374.16	228.67
374.54	228.59
374.92	228.50
375.30	228.44
375.68	228.30
376.06	228.23
376.44	228.19
376.82	228.12
377.19	228.00
377.57	227.93
377.95	227.81
378.33	227.77
378.71	227.65
379.09	227.58
379.47	227.54
379.84	227.44
380.22	227.37
380.60	227.29
380.98	227.22
381.36	227.18
381.73	227.10
382.11	227.05
382.49	226.96
382.87	226.87
383.25	226.81
383.62	226.91
384.00	226.84
384.38	226.80
384.76	226.76
385.13	226.76
385.51	226.71
385.89	226.64
386.27	226.56
386.64	226.52
387.02	226.49
387.40	226.43
387.78	226.39
388.15	226.39
388.53	226.34
388.91	226.32
389.29	226.27
389.66	226.25
390.04	226.23
390.42	226.26
390.79	226.27
391.17	226.26
391.55	226.12
391.92	226.12
392.30	226.11
392.68	226.11
393.05	226.10
393.43	226.10
393.81	226.14
394.18	226.14
394.56	226.15
394.94	226.17
395.31	226.16
395.69	226.23
396.06	226.23
396.44	226.28
396.82	226.33
397.19	226.42
397.57	226.46
397.95	226.52
398.32	226.54
398.70	226.59
399.07	226.64
399.45	226.69
399.82	226.75
400.20	226.79
400.58	226.84
400.95	226.90
401.33	227.02
401.70	227.15
402.08	227.25
402.45	227.36
402.83	227.48
403.20	227.63
403.58	227.73
403.95	227.82
404.33	227.97
404.71	228.07
405.08	228.22
405.46	228.38
405.83	228.53
406.21	228.68
406.58	228.84
406.96	229.02
407.33	229.20
407.70	229.41
408.08	229.68
408.45	229.91
408.83	230.12
409.20	230.31
409.58	230.49
409.95	230.75
410.33	231.03
410.70	231.27
411.08	231.56
411.45	231.86
411.82	232.21
412.20	232.51
412.57	232.96
412.95	233.27
413.32	233.67
413.69	234.08
414.07	234.50
414.44	234.98
414.82	235.46
415.19	236.01
415.56	236.57
415.94	237.11
416.31	237.73
416.68	238.37
417.06	239.13
417.43	239.82
417.81	240.60
418.18	241.34
418.55	242.22
418.93	243.08
419.30	243.95
419.67	244.90
420.04	245.87
420.42	246.81
420.79	248.00
421.16	249.16
421.54	250.38
421.91	251.62
422.28	252.88
422.66	254.21
423.03	255.54
423.40	256.82
423.77	258.23
424.15	259.67
424.52	261.16
424.89	262.75
425.26	264.31
425.64	265.76
426.01	267.36
426.38	269.02
426.75	270.70
427.13	272.42
427.50	274.23
427.87	276.12
428.24	277.99
428.61	279.77
428.99	281.70
429.36	283.77
429.73	285.82
430.10	287.83
430.47	289.88
430.85	291.96
431.22	294.23
431.59	296.61
431.96	298.87
432.33	301.36
432.70	303.74
433.08	306.58
433.45	309.19
433.82	311.82
434.19	314.70
434.56	317.53
434.93	320.22
435.30	322.85
435.68	325.77
436.05	328.59
436.42	331.40
436.79	333.96
437.16	336.66
437.53	339.50
437.90	342.27
438.27	344.98
438.64	347.79
439.01	350.41
439.38	352.63
439.75	354.76
440.13	357.26
440.50	359.58
440.87	361.39
441.24	363.41
441.61	365.59
441.98	367.04
442.35	368.85
442.72	370.71
443.09	372.51
443.46	373.50
443.83	374.15
444.20	374.62
444.57	375.42
444.94	375.73
445.31	376.09
445.68	376.46
446.05	376.51
446.42	376.19
446.79	375.74
447.16	375.30
447.53	375.02
447.90	373.83
448.27	372.66
448.64	371.07
449.01	369.89
449.37	367.90
449.74	366.00
450.11	363.73
450.48	361.24
450.85	358.71
451.22	356.54
451.59	354.49
451.96	352.57
452.33	349.98
452.70	347.62
453.07	344.79
453.43	341.90
453.80	339.21
454.17	336.51
454.54	334.00
454.91	331.24
455.28	328.56
455.65	326.10
456.02	323.66
456.38	321.52
456.75	318.86
457.12	316.62
457.49	314.44
457.86	312.27
458.23	310.44
458.59	308.39
458.96	306.30
459.33	304.39
459.70	302.49
460.07	300.94
460.43	299.22
460.80	297.59
461.17	296.16
461.54	294.68
461.91	293.28
462.27	291.80
462.64	290.61
463.01	289.26
463.38	287.95
463.74	286.58
464.11	285.42
464.48	284.41
464.85	283.28
465.21	282.40
465.58	281.49
465.95	280.39
466.32	279.47
466.68	278.56
467.05	277.70
467.42	276.87
467.78	275.96
468.15	275.09
468.52	274.41
468.88	273.57
469.25	272.76
469.62	272.10
469.98	271.46
470.35	270.82
470.72	270.23
471.08	269.57
471.45	269.07
471.82	268.51
472.18	267.87
472.55	267.46
472.92	266.93
473.28	266.43
473.65	265.96
474.02	265.54
474.38	265.18
474.75	264.86
475.11	264.47
475.48	264.23
475.85	263.98
476.21	263.75
476.58	263.58
476.94	263.47
477.31	263.31
477.67	263.17
478.04	263.06
478.41	263.00
478.77	263.07
479.14	262.97
479.50	263.02
479.87	263.14
480.23	263.21
480.60	263.30
480.96	263.44
481.33	263.64
481.69	263.83
482.06	264.04
482.42	264.24
482.79	264.49
483.15	264.77
483.52	265.16
483.88	265.52
484.25	265.88
484.61	266.29
484.98	266.76
485.34	267.27
485.71	267.87
486.07	268.48
486.44	269.04
486.80	269.76
487.17	270.44
487.53	271.23
487.90	272.09
488.26	272.99
488.62	273.97
488.99	274.96
489.35	276.01
489.72	277.14
490.08	278.37
490.44	279.63
490.81	280.98
491.17	282.34
491.54	283.85
491.90	285.42
492.26	287.07
492.63	288.77
492.99	290.55
493.36	292.44
493.72	294.44
494.08	296.53
494.45	298.75
494.81	301.14
495.17	303.53
495.54	306.09
495.90	308.77
496.26	311.56
496.63	314.55
496.99	317.68
497.35	320.89
497.72	324.26
498.08	327.77
498.44	331.49
498.80	335.40
499.17	339.40
499.53	343.55
499.89	347.93
500.26	352.46
500.62	357.15
500.98	362.10
501.34	367.23
501.71	372.57
502.07	378.04
502.43	383.69
502.79	389.58
503.16	395.64
503.52	401.96
503.88	408.34
504.24	415.01
504.60	421.87
504.97	429.04
505.33	436.39
505.69	444.13
506.05	451.93
506.41	459.82
506.78	467.99
507.14	476.50
507.50	485.19
507.86	494.25
508.22	503.47
508.59	512.72
508.95	522.28
509.31	532.14
509.67	542.19
510.03	552.50
510.39	562.95
510.75	573.83
511.12	584.78
511.48	596.15
511.84	607.58
512.20	619.14
512.56	631.13
512.92	643.37
513.28	655.68
513.64	668.10
514.00	680.78
514.37	693.77
514.73	706.76
515.09	719.82
515.45	733.09
515.81	746.66
516.17	760.71
516.53	774.84
516.89	789.00
517.25	803.26
517.61	817.71
517.97	832.33
518.33	846.67
518.69	861.40
519.05	876.41
519.41	891.61
519.77	907.08
520.13	922.46
520.49	937.76
520.85	953.28
521.21	969.02
521.57	985.29
521.93	1000.96
522.29	1017.37
522.65	1033.69
523.01	1049.97
523.37	1066.02
523.73	1082.13
524.09	1098.24
524.45	1114.54
524.81	1131.22
525.17	1148.03
525.53	1164.93
525.89	1181.82
526.25	1198.73
526.61	1215.19
526.97	1231.95
527.33	1248.47
527.68	1265.12
528.04	1281.64
528.40	1298.21
528.76	1315.27
529.12	1331.90
529.48	1348.80
529.84	1364.80
530.20	1381.38
530.56	1398.31
530.91	1415.84
531.27	1432.57
531.63	1449.22
531.99	1465.86
532.35	1481.77
532.71	1497.66
533.07	1513.86
533.42	1529.70
533.78	1545.73
534.14	1561.80
534.50	1577.08
534.86	1593.00
535.21	1608.14
535.57	1624.02
535.93	1639.49
536.29	1654.36
536.65	1669.28
537.00	1684.12
537.36	1699.40
537.72	1713.93
538.08	1728.43
538.44	1742.13
538.79	1755.99
539.15	1769.50
539.51	1783.19
539.87	1797.61
540.22	1811.38
540.58	1825.10
540.94	1838.67
541.29	1851.57
541.65	1864.31
542.01	1877.61
542.37	1889.90
542.72	1902.40
543.08	1914.20
543.44	1926.64
543.79	1937.77
544.15	1949.00
544.51	1960.55
544.87	1971.49
545.22	1982.30
545.58	1992.56
545.94	2002.31
546.29	2012.18
546.65	2022.06
547.01	2031.25
547.36	2039.88
547.72	2048.39
548.07	2056.40
548.43	2064.47
548.79	2072.68
549.14	2080.13
549.50	2087.57
549.86	2095.28
550.21	2102.56
550.57	2109.72
550.92	2116.25
551.28	2123.36
551.64	2130.24
551.99	2136.69
552.35	2142.80
552.70	2148.88
553.06	2154.82
553.41	2161.20
553.77	2167.24
554.13	2173.40
554.48	2179.56
554.84	2184.94
555.19	2190.18
555.55	2195.21
555.90	2199.65
556.26	2204.20
556.61	2209.17
556.97	2213.35
557.32	2217.37
557.68	2221.52
558.03	2225.75
558.39	2229.54
558.74	2234.15
559.10	2238.15
559.45	2241.83
559.81	2246.20
560.16	2250.06
560.52	2253.30
560.87	2256.70
561.23	2259.33
561.58	2262.19
561.94	2264.77
562.29	2267.25
562.64	2269.88
563.00	2272.65
563.35	2276.18
563.71	2279.50
564.06	2282.62
564.42	2285.48
564.77	2288.03
565.12	2290.19
565.48	2292.19
565.83	2293.88
566.19	2295.07
566.54	2295.85
566.89	2297.08
567.25	2297.68
567.60	2299.09
567.96	2300.75
568.31	2301.70
568.66	2302.93
569.02	2303.48
569.37	2303.83
569.72	2304.66
570.08	2304.73
570.43	2304.62
570.78	2304.03
571.14	2302.34
571.49	2301.01
571.84	2300.61
572.20	2299.48
572.55	2298.58
572.90	2297.01
573.26	2295.68
573.61	2294.14
573.96	2292.39
574.31	2289.38
574.67	2286.53
575.02	2282.96
575.37	2279.64
575.72	2275.67
576.08	2272.22
576.43	2268.79
576.78	2265.05
577.13	2261.89
577.49	2258.84
577.84	2255.30
578.19	2251.65
578.54	2248.16
578.90	2243.87
579.25	2238.38
579.60	2233.36
579.95	2228.29
580.30	2223.30
580.66	2218.02
581.01	2213.06
581.36	2208.20
581.71	2203.93
582.06	2199.25
582.42	2194.70
582.77	2189.44
583.12	2184.80
583.47	2179.98
583.82	2175.07
584.17	2169.85
584.53	2164.36
584.88	2158.75
585.23	2152.95
585.58	2147.37
585.93	2141.88
586.28	2137.02
586.63	2131.98
586.98	2126.99
587.34	2122.36
587.69	2117.36
588.04	2112.16
588.39	2106.40
588.74	2100.06
589.09	2094.01
589.44	2087.32
589.79	2081.30
590.14	2075.61
590.49	2069.10
590.84	2062.88
591.19	2056.88
591.54	2050.41
591.89	2042.87
592.25	2035.95
592.60	2028.69
592.95	2021.07
593.30	2013.53
593.65	2005.88
594.00	1998.78
594.35	1991.40
594.70	1983.30
595.05	1976.06
595.40	1968.80
595.75	1961.29
596.10	1954.81
596.45	1947.93
596.80	1941.66
597.15	1935.07
597.50	1927.84
597.85	1921.43
598.19	1914.65
598.54	1907.37
598.89	1900.65
599.24	1894.87
599.59	1888.18
599.94	1881.96
600.29	1875.52
600.64	1869.11
600.99	1861.76
601.34	1854.87
601.69	1847.95
602.04	1840.85
602.39	1833.59
602.74	1826.75
603.08	1819.98
603.43	1813.24
603.78	1805.98
604.13	1798.75
604.48	1791.17
604.83	1784.37
605.18	1777.30
605.53	1769.21
605.87	1761.24
606.22	1754.00
606.57	1745.95
606.92	1738.69
607.27	1731.47
607.62	1724.55
607.96	1717.12
608.31	1710.37
608.66	1702.64
609.01	1695.07
609.36	1687.57
609.70	1679.44
610.05	1671.35
610.40	1663.61
610.75	1655.29
611.10	1647.47
611.44	1639.10
611.79	1631.26
612.14	1622.47
612.49	1613.27
612.83	1605.04
613.18	1596.92
613.53	1588.83
613.88	1580.37
614.22	1572.10
614.57	1563.62
614.92	1555.64
615.27	1548.01
615.61	1539.80
615.96	1531.89
616.31	1524.31
616.65	1517.00
617.00	1509.56
617.35	1501.88
617.70	1493.55
618.04	1485.16
618.39	1477.12
618.74	1469.53
619.08	1461.28
619.43	1453.76
619.78	1446.96
620.12	1439.69
620.47	1432.20
620.82	1424.03
621.16	1416.62
621.51	1408.97
621.85	1401.32
622.20	1392.70
622.55	1384.42
622.89	1376.61
623.24	1369.03
623.59	1361.59
623.93	1354.08
624.28	1346.73
624.62	1339.29
624.97	1332.10
625.32	1325.25
625.66	1318.14
626.01	1311.03
626.35	1303.49
626.70	1295.85
627.04	1287.99
627.39	1280.24
627.73	1272.78
628.08	1265.91
628.43	1258.53
628.77	1251.11
629.12	1243.45
629.46	1236.37
629.81	1229.02
630.15	1221.73
630.50	1214.14
630.84	1205.95
631.19	1198.03
631.53	1190.51
631.88	1182.82
632.22	1175.18
632.57	1167.89
632.91	1160.29
633.26	1152.72
633.60	1145.48
633.95	1138.32
634.29	1131.36
634.64	1124.69
634.98	1117.36
635.32	1110.05
635.67	1103.54
636.01	1096.85
636.36	1090.06
636.70	1083.44
637.05	1076.84
637.39	1070.36
637.73	1063.95
638.08	1057.94
638.42	1051.90
638.77	1045.48
639.11	1038.89
639.45	1032.60
639.80	1025.95
640.14	1019.54
640.49	1012.94
640.83	1006.47
641.17	1000.16
641.52	993.78
641.86	987.30
642.20	981.49
642.55	975.26
642.89	968.72
643.23	962.21
643.58	956.49
643.92	950.34
644.26	944.20
644.61	938.18
644.95	932.11
645.29	925.58
645.64	918.84
645.98	912.50
646.32	906.73
646.66	900.72
647.01	894.85
647.35	889.13
647.69	883.40
648.04	877.88
648.38	872.15
648.72	866.18
649.06	860.15
649.41	854.19
649.75	848.20
650.09	842.30
650.43	836.55
650.78	830.40
651.12	824.44
651.46	818.76
651.80	812.99
652.14	807.61
652.49	802.35
652.83	797.17
653.17	791.42
653.51	785.64
653.85	780.24
654.20	774.61
654.54	768.68
654.88	762.93
655.22	757.08
655.56	751.40
655.90	745.99
656.25	740.74
656.59	735.34
656.93	730.26
657.27	725.08
657.61	719.67
657.95	714.52
658.29	709.45
658.64	704.29
658.98	698.95
659.32	693.48
659.66	688.19
660.00	682.89
660.34	678.01
660.68	673.14
661.02	668.01
661.36	663.33
661.70	658.79
662.05	654.46
662.39	650.10
662.73	645.61
663.07	641.19
663.41	636.70
663.75	632.30
664.09	627.79
664.43	623.43
664.77	619.29
665.11	615.04
665.45	610.91
665.79	606.74
666.13	602.74
666.47	598.65
666.81	594.53
667.15	590.44
667.49	586.57
667.83	582.77
668.17	578.82
668.51	574.76
668.85	570.74
669.19	566.94
669.53	563.11
669.87	559.17
670.21	555.49
670.55	551.90
670.89	548.44
671.23	544.95
671.57	541.36
671.91	537.84
672.25	534.36
672.58	530.87
672.92	527.48
673.26	524.23
673.60	521.15
673.94	518.04
674.28	515.04
674.62	512.10
674.96	509.00
675.30	506.13
675.64	503.21
675.97	500.49
676.31	497.57
676.65	494.64
676.99	491.96
677.33	489.05
677.67	486.19
678.01	483.13
678.34	480.13
678.68	477.31
679.02	474.46
679.36	471.74
679.70	469.01
680.04	466.27
680.37	463.37
680.71	460.56
681.05	457.93
681.39	455.23
681.73	452.50
682.06	449.96
682.40	447.39
682.74	444.86
683.08	442.28
683.42	439.70
683.75	437.15
684.09	434.66
684.43	432.21
684.77	429.77
685.10	427.48
685.44	425.19
685.78	422.91
686.12	420.67
686.45	418.37
686.79	416.08
687.13	413.84
687.46	411.70
687.80	409.51
688.14	407.27
688.48	405.22
688.81	402.98
689.15	400.83
689.49	398.66
689.82	396.56
690.16	394.44
690.50	392.50
690.83	390.63
691.17	388.61
691.51	386.70
691.84	384.83
692.18	382.90
692.52	380.90
692.85	378.98
693.19	377.12
693.52	375.27
693.86	373.44
694.20	371.68
694.53	369.93
694.87	368.06
695.21	366.34
695.54	364.56
695.88	362.91
696.21	361.21
696.55	359.55
696.88	357.88
697.22	356.32
697.56	354.69
697.89	353.04
698.23	351.41
698.56	349.80
698.90	348.19
699.23	346.50
699.57	344.96
699.90	343.39
700.24	341.84
700.58	340.28
700.91	338.75
701.25	337.30
701.58	335.89
701.92	334.57
702.25	333.15
702.59	331.74
702.92	330.36
703.26	329.01
703.59	327.74
703.93	326.54
704.26	325.24
704.60	323.98
704.93	322.68
705.26	321.45
705.60	320.26
705.93	319.10
706.27	318.09
706.60	317.04
706.94	315.97
707.27	314.84
707.61	313.82
707.94	312.77
708.27	311.65
708.61	310.59
708.94	309.62
709.28	308.59
709.61	307.66
709.94	306.73
710.28	305.71
710.61	304.73
710.95	303.67
711.28	302.77
711.61	301.77
711.95	300.84
712.28	299.90
712.61	298.94
712.95	298.01
713.28	297.13
713.61	296.20
713.95	295.32
714.28	294.53
714.61	293.65
714.95	292.83
715.28	292.00
715.61	291.09
715.95	290.18
716.28	289.38
716.61	288.57
716.95	287.76
717.28	287.04
717.61	286.25
717.94	285.50
718.28	284.66
718.61	283.96
718.94	283.25
719.27	282.60
719.61	281.97
719.94	281.31
720.27	280.57
720.60	279.93
720.94	279.27
721.27	278.61
721.60	278.02
721.93	277.41
722.27	276.86
722.60	276.31
722.93	275.72
723.26	275.18
723.59	274.60
723.93	274.04
724.26	273.46
724.59	272.90
724.92	272.37
725.25	271.93
725.59	271.44
725.92	270.93
726.25	270.42
726.58	269.91
726.91	269.43
727.24	268.97
727.57	268.47
727.91	267.98
728.24	267.55
728.57	267.08
728.90	266.61
729.23	266.11
729.56	265.71
729.89	265.23
730.22	264.76
730.55	264.29
730.89	263.84
731.22	263.47
731.55	263.06
731.88	262.63
732.21	262.17
732.54	261.74
732.87	261.36
733.20	261.01
733.53	260.64
733.86	260.25
734.19	259.89
734.52	259.54
734.85	259.24
735.18	258.82
735.51	258.44
735.84	258.11
736.17	257.77
736.50	257.35
736.83	257.14
737.16	256.81
737.49	256.48
737.82	256.18
738.15	255.80
738.48	255.48
738.81	255.15
739.14	254.81
739.47	254.46
739.80	254.12
740.13	253.75
740.46	253.42
740.79	253.10
741.12	252.76
741.45	252.44
741.78	252.09
742.11	251.76
742.44	251.44
742.77	251.16
743.10	250.84
743.43	250.57
743.75	250.19
744.08	250.03
744.41	249.75
744.74	249.47
745.07	249.20
745.40	248.92
745.73	248.67
746.06	248.41
746.39	248.18
746.71	247.90
747.04	247.66
747.37	247.38
747.70	247.13
748.03	246.90
748.36	246.69
748.68	246.43
749.01	246.19
749.34	246.00
749.67	245.74
750.00	245.59
750.33	245.38
750.65	245.16
750.98	244.78
751.31	244.58
751.64	244.35
751.97	244.18
752.29	243.94
752.62	243.73
752.95	243.51
753.28	243.27
753.60	243.09
753.93	242.90
754.26	242.70
754.59	242.47
754.91	242.26
755.24	242.06
755.57	241.85
755.90	241.66
756.22	241.45
756.55	241.27
756.88	241.02
757.20	240.80
757.53	240.60
757.86	240.47
758.19	240.29
758.51	240.10
758.84	239.91
759.17	239.76
759.49	239.60
759.82	239.48
760.15	239.31
760.47	239.17
760.80	239.01
761.13	238.89
761.45	238.75
761.78	238.58
762.11	238.45
762.43	238.32
762.76	238.21
763.08	238.08
763.41	237.93
763.74	237.80
764.06	237.71
764.39	237.58
764.71	237.43
765.04	237.27
765.37	237.15
765.69	237.04
766.02	236.89
766.34	236.75
766.67	236.59
767.00	236.50
767.32	236.42
767.65	236.37
767.97	236.25
768.30	236.18
768.62	236.07
768.95	235.93
769.27	235.80
769.60	235.72
769.92	235.62
770.25	235.49
770.57	235.34
770.90	235.20
771.22	235.12
771.55	235.05
771.87	234.96
772.20	234.84
772.52	234.80
772.85	234.81
773.17	234.72
773.50	234.67
773.82	234.58
774.15	234.42
774.47	234.24
774.80	234.13
775.12	234.01
775.45	233.95
775.77	233.89
776.09	233.84
776.42	233.72
776.74	233.66
777.07	233.57
777.39	233.54
777.72	233.47
778.04	233.39
778.36	233.28
778.69	233.24
779.01	233.19
779.33	233.05
779.66	232.93
779.98	232.88
780.31	232.78
780.63	232.73
780.95	232.71
781.28	232.65
781.60	232.62
781.92	232.57
782.25	232.50
782.57	232.43
782.89	232.35
783.22	232.30
783.54	232.21
783.86	232.19
784.19	232.12
784.51	232.06
784.83	232.01
785.16	231.97
785.48	231.92
785.80	231.87
786.12	231.82
786.45	231.74
786.77	231.66
787.09	231.60
