SpectraSuite Data File
++++++++++++++++++++++++++++++++++++
Date: Fri Feb 01 16:29:07 EST 2013
User: group
Dark Spectrum Present: No
Reference Spectrum Present: No
Number of Sampled Component Spectra: 1
Spectrometers: USB2E7196
Integration Time (usec): 35000 (USB2E7196)
Spectra Averaged: 100 (USB2E7196)
Boxcar Smoothing: 10 (USB2E7196)
Correct for Electrical Dark: No (USB2E7196)
Strobe/Lamp Enabled: No (USB2E7196)
Correct for Detector Non-linearity: No (USB2E7196)
Correct for Stray Light: No (USB2E7196)
Number of Pixels in Processed Spectrum: 2048
>>>>>Begin Processed Spectral Data<<<<<
339.09	0.00
339.48	214.40
339.86	215.21
340.24	216.87
340.63	218.78
341.01	221.03
341.39	221.24
341.78	222.33
342.16	223.24
342.54	224.34
342.93	212.55
343.31	223.29
343.69	223.82
344.07	224.32
344.46	224.71
344.84	225.05
345.22	225.30
345.60	225.55
345.99	225.72
346.37	225.84
346.75	225.94
347.13	226.02
347.52	226.09
347.90	226.10
348.28	226.10
348.66	226.13
349.05	226.11
349.43	226.16
349.81	226.23
350.19	226.29
350.57	226.30
350.96	226.36
351.34	226.45
351.72	226.53
352.10	226.60
352.48	226.69
352.87	226.75
353.25	226.83
353.63	226.89
354.01	226.96
354.39	227.08
354.77	227.14
355.15	227.21
355.54	227.27
355.92	227.35
356.30	227.46
356.68	227.59
357.06	227.66
357.44	227.69
357.82	227.75
358.20	227.82
358.58	227.90
358.97	227.97
359.35	228.03
359.73	228.13
360.11	228.16
360.49	228.23
360.87	228.31
361.25	228.32
361.63	228.39
362.01	228.45
362.39	228.47
362.77	228.54
363.15	228.57
363.53	228.60
363.91	228.62
364.29	228.62
364.67	228.54
365.05	228.59
365.43	228.65
365.81	228.63
366.19	228.66
366.57	228.69
366.95	228.67
367.33	228.64
367.71	228.62
368.09	228.61
368.47	228.56
368.85	228.55
369.23	228.56
369.61	228.50
369.99	228.49
370.37	228.46
370.75	228.47
371.13	228.39
371.51	228.38
371.89	228.35
372.27	228.31
372.65	228.27
373.03	228.19
373.41	228.13
373.78	228.07
374.16	227.99
374.54	227.92
374.92	227.88
375.30	227.84
375.68	227.74
376.06	227.73
376.44	227.68
376.82	227.61
377.19	227.55
377.57	227.48
377.95	227.41
378.33	227.33
378.71	227.19
379.09	227.18
379.47	227.08
379.84	227.00
380.22	226.95
380.60	226.87
380.98	226.82
381.36	226.71
381.73	226.64
382.11	226.58
382.49	226.53
382.87	226.42
383.25	226.37
383.62	226.43
384.00	226.35
384.38	226.31
384.76	226.27
385.13	226.25
385.51	226.20
385.89	226.13
386.27	226.09
386.64	226.05
387.02	225.95
387.40	225.90
387.78	225.83
388.15	225.77
388.53	225.73
388.91	225.72
389.29	225.70
389.66	225.69
390.04	225.67
390.42	225.62
390.79	225.62
391.17	225.58
391.55	225.44
391.92	225.45
392.30	225.43
392.68	225.40
393.05	225.39
393.43	225.37
393.81	225.37
394.18	225.38
394.56	225.37
394.94	225.42
395.31	225.44
395.69	225.50
396.06	225.55
396.44	225.60
396.82	225.58
397.19	225.67
397.57	225.70
397.95	225.74
398.32	225.77
398.70	225.83
399.07	225.92
399.45	225.98
399.82	225.99
400.20	226.08
400.58	226.15
400.95	226.16
401.33	226.28
401.70	226.44
402.08	226.52
402.45	226.62
402.83	226.75
403.20	226.88
403.58	226.94
403.95	227.04
404.33	227.17
404.71	227.28
405.08	227.45
405.46	227.61
405.83	227.76
406.21	227.95
406.58	228.11
406.96	228.29
407.33	228.50
407.70	228.70
408.08	228.95
408.45	229.15
408.83	229.38
409.20	229.58
409.58	229.73
409.95	230.00
410.33	230.30
410.70	230.57
411.08	230.84
411.45	231.17
411.82	231.50
412.20	231.85
412.57	232.30
412.95	232.61
413.32	232.99
413.69	233.39
414.07	233.84
414.44	234.32
414.82	234.78
415.19	235.31
415.56	235.87
415.94	236.46
416.31	237.13
416.68	237.78
417.06	238.51
417.43	239.23
417.81	239.97
418.18	240.69
418.55	241.50
418.93	242.39
419.30	243.28
419.67	244.21
420.04	245.15
420.42	246.13
420.79	247.31
421.16	248.45
421.54	249.64
421.91	250.83
422.28	252.10
422.66	253.45
423.03	254.78
423.40	256.13
423.77	257.49
424.15	258.91
424.52	260.41
424.89	262.02
425.26	263.57
425.64	265.02
426.01	266.65
426.38	268.28
426.75	269.94
427.13	271.69
427.50	273.48
427.87	275.36
428.24	277.19
428.61	278.89
428.99	280.85
429.36	282.93
429.73	284.99
430.10	286.99
430.47	289.06
430.85	291.19
431.22	293.42
431.59	295.81
431.96	298.03
432.33	300.50
432.70	302.86
433.08	305.64
433.45	308.30
433.82	310.84
434.19	313.71
434.56	316.50
434.93	319.14
435.30	321.75
435.68	324.60
436.05	327.43
436.42	330.22
436.79	332.72
437.16	335.42
437.53	338.28
437.90	341.07
438.27	343.73
438.64	346.47
439.01	348.99
439.38	351.18
439.75	353.33
440.13	355.81
440.50	358.08
440.87	359.95
441.24	361.88
441.61	364.07
441.98	365.58
442.35	367.37
442.72	369.23
443.09	370.96
443.46	371.97
443.83	372.58
444.20	373.11
444.57	373.92
444.94	374.18
445.31	374.42
445.68	374.74
446.05	374.81
446.42	374.41
446.79	374.00
447.16	373.58
447.53	373.26
447.90	372.12
448.27	370.97
448.64	369.35
449.01	368.18
449.37	366.21
449.74	364.27
450.11	362.03
450.48	359.55
450.85	357.08
451.22	354.93
451.59	352.91
451.96	350.94
452.33	348.31
452.70	345.94
453.07	343.14
453.43	340.27
453.80	337.51
454.17	334.88
454.54	332.35
454.91	329.65
455.28	326.94
455.65	324.39
456.02	321.98
456.38	319.82
456.75	317.19
457.12	314.92
457.49	312.70
457.86	310.56
458.23	308.73
458.59	306.68
458.96	304.60
459.33	302.72
459.70	300.86
460.07	299.39
460.43	297.71
460.80	296.12
461.17	294.69
461.54	293.24
461.91	291.83
462.27	290.39
462.64	289.09
463.01	287.79
463.38	286.54
463.74	285.18
464.11	284.05
464.48	283.01
464.85	281.91
465.21	281.08
465.58	280.14
465.95	279.03
466.32	278.14
466.68	277.30
467.05	276.42
467.42	275.54
467.78	274.63
468.15	273.76
468.52	273.11
468.88	272.25
469.25	271.48
469.62	270.88
469.98	270.25
470.35	269.60
470.72	269.01
471.08	268.33
471.45	267.83
471.82	267.32
472.18	266.74
472.55	266.36
472.92	265.87
473.28	265.38
473.65	264.95
474.02	264.54
474.38	264.15
474.75	263.84
475.11	263.52
475.48	263.26
475.85	263.02
476.21	262.79
476.58	262.66
476.94	262.53
477.31	262.33
477.67	262.21
478.04	262.17
478.41	262.14
478.77	262.25
479.14	262.16
479.50	262.16
479.87	262.27
480.23	262.31
480.60	262.37
480.96	262.54
481.33	262.77
481.69	262.96
482.06	263.18
482.42	263.43
482.79	263.70
483.15	264.07
483.52	264.47
483.88	264.83
484.25	265.20
484.61	265.63
484.98	266.11
485.34	266.65
485.71	267.28
486.07	267.87
486.44	268.40
486.80	269.13
487.17	269.88
487.53	270.68
487.90	271.56
488.26	272.50
488.62	273.47
488.99	274.47
489.35	275.51
489.72	276.65
490.08	277.83
490.44	279.10
490.81	280.43
491.17	281.79
491.54	283.30
491.90	284.86
492.26	286.53
492.63	288.30
492.99	290.08
493.36	291.95
493.72	294.00
494.08	296.13
494.45	298.37
494.81	300.72
495.17	303.17
495.54	305.73
495.90	308.44
496.26	311.19
496.63	314.12
496.99	317.25
497.35	320.47
497.72	323.86
498.08	327.34
498.44	330.99
498.80	334.93
499.17	338.95
499.53	343.12
499.89	347.49
500.26	351.93
500.62	356.64
500.98	361.56
501.34	366.63
501.71	371.94
502.07	377.38
502.43	383.01
502.79	388.85
503.16	394.96
503.52	401.27
503.88	407.70
504.24	414.34
504.60	421.22
504.97	428.37
505.33	435.70
505.69	443.42
506.05	451.18
506.41	459.04
506.78	467.21
507.14	475.65
507.50	484.38
507.86	493.42
508.22	502.59
508.59	511.85
508.95	521.46
509.31	531.29
509.67	541.40
510.03	551.71
510.39	562.18
510.75	572.89
511.12	583.73
511.48	595.05
511.84	606.55
512.20	618.03
512.56	629.95
512.92	642.12
513.28	654.44
513.64	666.98
514.00	679.64
514.37	692.55
514.73	705.61
515.09	718.56
515.45	731.81
515.81	745.41
516.17	759.34
516.53	773.37
516.89	787.47
517.25	801.58
517.61	815.96
517.97	830.40
518.33	844.85
518.69	859.68
519.05	874.54
519.41	889.63
519.77	905.20
520.13	920.58
520.49	936.02
520.85	951.41
521.21	967.07
521.57	983.27
521.93	998.97
522.29	1015.32
522.65	1031.53
523.01	1047.69
523.37	1063.59
523.73	1079.74
524.09	1095.78
524.45	1112.06
524.81	1128.65
525.17	1145.30
525.53	1162.28
525.89	1179.09
526.25	1195.85
526.61	1212.31
526.97	1229.00
527.33	1245.41
527.68	1261.97
528.04	1278.27
528.40	1294.80
528.76	1311.74
529.12	1328.21
529.48	1345.11
529.84	1361.03
530.20	1377.61
530.56	1394.57
530.91	1411.94
531.27	1428.55
531.63	1444.90
531.99	1461.32
532.35	1477.16
532.71	1492.99
533.07	1509.04
533.42	1524.85
533.78	1540.78
534.14	1556.97
534.50	1572.29
534.86	1587.97
535.21	1603.12
535.57	1618.94
535.93	1634.24
536.29	1648.98
536.65	1663.99
537.00	1678.55
537.36	1693.77
537.72	1708.27
538.08	1722.46
538.44	1736.22
538.79	1750.05
539.15	1763.80
539.51	1777.49
539.87	1791.76
540.22	1805.43
540.58	1819.09
540.94	1832.37
541.29	1845.16
541.65	1857.65
542.01	1870.65
542.37	1882.97
542.72	1895.07
543.08	1906.76
543.44	1919.21
543.79	1930.31
544.15	1941.16
544.51	1952.71
544.87	1963.55
545.22	1974.17
545.58	1984.42
545.94	1993.99
546.29	2003.67
546.65	2013.51
547.01	2022.69
547.36	2031.29
547.72	2039.71
548.07	2047.40
548.43	2055.46
548.79	2063.38
549.14	2070.78
549.50	2078.03
549.86	2085.56
550.21	2093.10
550.57	2100.20
550.92	2106.75
551.28	2113.64
551.64	2120.72
551.99	2127.20
552.35	2133.32
552.70	2139.49
553.06	2145.54
553.41	2151.85
553.77	2157.90
554.13	2163.77
554.48	2169.85
554.84	2175.33
555.19	2180.61
555.55	2185.95
555.90	2190.32
556.26	2195.24
556.61	2200.07
556.97	2204.34
557.32	2208.40
557.68	2212.44
558.03	2216.73
558.39	2220.32
558.74	2224.94
559.10	2228.87
559.45	2232.43
559.81	2236.75
560.16	2240.43
560.52	2243.51
560.87	2246.93
561.23	2249.69
561.58	2252.57
561.94	2255.20
562.29	2257.59
562.64	2260.32
563.00	2262.75
563.35	2266.24
563.71	2269.34
564.06	2272.47
564.42	2275.26
564.77	2277.82
565.12	2280.10
565.48	2282.11
565.83	2284.08
566.19	2285.49
566.54	2286.41
566.89	2287.61
567.25	2288.27
567.60	2289.66
567.96	2291.49
568.31	2292.34
568.66	2293.48
569.02	2294.09
569.37	2294.44
569.72	2295.44
570.08	2295.55
570.43	2295.62
570.78	2295.15
571.14	2293.64
571.49	2292.43
571.84	2292.46
572.20	2291.48
572.55	2290.49
572.90	2288.97
573.26	2287.66
573.61	2286.12
573.96	2284.41
574.31	2281.49
574.67	2278.48
575.02	2275.13
575.37	2271.74
575.72	2268.19
576.08	2264.76
576.43	2261.48
576.78	2257.85
577.13	2254.72
577.49	2251.67
577.84	2248.32
578.19	2244.77
578.54	2241.32
578.90	2237.17
579.25	2231.47
579.60	2226.61
579.95	2221.57
580.30	2216.64
580.66	2211.51
581.01	2206.60
581.36	2201.72
581.71	2197.74
582.06	2193.36
582.42	2188.82
582.77	2183.64
583.12	2179.18
583.47	2174.69
583.82	2169.96
584.17	2164.72
584.53	2159.37
584.88	2153.93
585.23	2148.26
585.58	2142.85
585.93	2137.43
586.28	2132.84
586.63	2127.86
586.98	2122.91
587.34	2118.25
587.69	2113.31
588.04	2108.05
588.39	2102.36
588.74	2095.98
589.09	2089.84
589.44	2083.11
589.79	2077.20
590.14	2071.87
590.49	2065.24
590.84	2058.84
591.19	2052.84
591.54	2046.61
591.89	2039.18
592.25	2032.34
592.60	2025.18
592.95	2017.64
593.30	2010.21
593.65	2002.79
594.00	1995.89
594.35	1988.66
594.70	1980.76
595.05	1973.69
595.40	1966.57
595.75	1959.20
596.10	1953.05
596.45	1946.48
596.80	1940.37
597.15	1933.65
597.50	1926.51
597.85	1920.15
598.19	1913.57
598.54	1906.41
598.89	1899.69
599.24	1893.81
599.59	1887.22
599.94	1881.09
600.29	1874.91
600.64	1868.47
600.99	1860.83
601.34	1854.11
601.69	1847.14
602.04	1840.33
602.39	1833.03
602.74	1826.30
603.08	1819.47
603.43	1812.74
603.78	1805.30
604.13	1798.05
604.48	1790.85
604.83	1783.95
605.18	1776.89
605.53	1769.01
605.87	1761.04
606.22	1753.88
606.57	1745.93
606.92	1738.56
607.27	1731.32
607.62	1724.30
607.96	1717.03
608.31	1710.48
608.66	1702.82
609.01	1695.35
609.36	1687.71
609.70	1679.69
610.05	1671.57
610.40	1663.87
610.75	1655.45
611.10	1647.81
611.44	1639.51
611.79	1631.60
612.14	1622.85
612.49	1613.71
612.83	1605.26
613.18	1597.24
613.53	1589.06
613.88	1580.54
614.22	1572.27
614.57	1563.74
614.92	1555.63
615.27	1548.00
615.61	1539.63
615.96	1531.58
616.31	1523.99
616.65	1516.70
617.00	1509.16
617.35	1501.45
617.70	1493.20
618.04	1484.81
618.39	1476.55
618.74	1468.96
619.08	1460.66
619.43	1453.10
619.78	1446.20
620.12	1439.04
620.47	1431.39
620.82	1423.28
621.16	1415.92
621.51	1408.34
621.85	1400.71
622.20	1392.19
622.55	1383.98
622.89	1376.20
623.24	1368.52
623.59	1361.08
623.93	1353.53
624.28	1346.34
624.62	1338.71
624.97	1331.51
625.32	1324.77
625.66	1317.82
626.01	1310.65
626.35	1303.16
626.70	1295.39
627.04	1287.69
627.39	1279.95
627.73	1272.59
628.08	1265.64
628.43	1258.27
628.77	1250.87
629.12	1243.30
629.46	1236.16
629.81	1228.63
630.15	1221.36
630.50	1213.99
630.84	1205.63
631.19	1197.71
631.53	1190.05
631.88	1182.58
632.22	1175.08
632.57	1167.72
632.91	1160.09
633.26	1152.63
633.60	1145.26
633.95	1138.18
634.29	1131.14
634.64	1124.44
634.98	1117.09
635.32	1109.95
635.67	1103.42
636.01	1096.84
636.36	1090.02
636.70	1083.44
637.05	1076.89
637.39	1070.31
637.73	1063.82
638.08	1058.01
638.42	1051.98
638.77	1045.61
639.11	1039.02
639.45	1032.48
639.80	1025.78
640.14	1019.55
640.49	1013.05
640.83	1006.72
641.17	1000.53
641.52	994.13
641.86	987.66
642.20	981.76
642.55	975.42
642.89	968.91
643.23	962.36
643.58	956.55
643.92	950.41
644.26	944.29
644.61	938.36
644.95	932.31
645.29	925.71
645.64	919.02
645.98	912.64
646.32	906.80
646.66	900.87
647.01	895.12
647.35	889.27
647.69	883.38
648.04	877.86
648.38	872.01
648.72	866.05
649.06	860.05
649.41	854.21
649.75	848.26
650.09	842.30
650.43	836.47
650.78	830.35
651.12	824.42
651.46	818.75
651.80	813.10
652.14	807.68
652.49	802.31
652.83	797.10
653.17	791.43
653.51	785.68
653.85	780.34
654.20	774.72
654.54	768.75
654.88	763.00
655.22	757.10
655.56	751.43
655.90	745.96
656.25	740.66
656.59	735.24
656.93	730.23
657.27	725.11
657.61	719.66
657.95	714.57
658.29	709.52
658.64	704.23
658.98	698.81
659.32	693.35
659.66	688.22
660.00	682.96
660.34	678.07
660.68	673.20
661.02	668.03
661.36	663.24
661.70	658.69
662.05	654.36
662.39	650.06
662.73	645.61
663.07	641.23
663.41	636.80
663.75	632.35
664.09	627.62
664.43	623.23
664.77	619.12
665.11	614.81
665.45	610.64
665.79	606.58
666.13	602.48
666.47	598.40
666.81	594.18
667.15	590.02
667.49	586.04
667.83	582.24
668.17	578.34
668.51	574.26
668.85	570.23
669.19	566.37
669.53	562.53
669.87	558.65
670.21	554.92
670.55	551.25
670.89	547.77
671.23	544.43
671.57	540.93
671.91	537.36
672.25	533.86
672.58	530.32
672.92	526.86
673.26	523.64
673.60	520.46
673.94	517.31
674.28	514.43
674.62	511.50
674.96	508.33
675.30	505.40
675.64	502.45
675.97	499.69
676.31	496.83
676.65	493.87
676.99	491.17
677.33	488.32
677.67	485.47
678.01	482.44
678.34	479.43
678.68	476.52
679.02	473.71
679.36	470.97
679.70	468.26
680.04	465.51
680.37	462.62
680.71	459.82
681.05	457.23
681.39	454.48
681.73	451.80
682.06	449.31
682.40	446.77
682.74	444.28
683.08	441.71
683.42	439.10
683.75	436.63
684.09	434.03
684.43	431.57
684.77	429.09
685.10	426.77
685.44	424.48
685.78	422.17
686.12	419.96
686.45	417.69
686.79	415.38
687.13	413.20
687.46	411.06
687.80	408.97
688.14	406.76
688.48	404.70
688.81	402.46
689.15	400.27
689.49	398.11
689.82	396.04
690.16	393.97
690.50	392.04
690.83	390.07
691.17	388.08
691.51	386.18
691.84	384.43
692.18	382.48
692.52	380.50
692.85	378.61
693.19	376.68
693.52	374.81
693.86	372.99
694.20	371.20
694.53	369.40
694.87	367.53
695.21	365.77
695.54	363.95
695.88	362.22
696.21	360.52
696.55	358.88
696.88	357.17
697.22	355.49
697.56	353.84
697.89	352.19
698.23	350.61
698.56	348.94
698.90	347.28
699.23	345.62
699.57	344.08
699.90	342.52
700.24	341.02
700.58	339.53
700.91	338.02
701.25	336.55
701.58	335.22
701.92	333.83
702.25	332.39
702.59	331.02
702.92	329.66
703.26	328.32
703.59	327.02
703.93	325.88
704.26	324.63
704.60	323.32
704.93	322.04
705.26	320.79
705.60	319.64
705.93	318.49
706.27	317.43
706.60	316.35
706.94	315.24
707.27	314.10
707.61	313.02
707.94	312.04
708.27	310.92
708.61	309.81
708.94	308.82
709.28	307.86
709.61	306.88
709.94	305.92
710.28	304.94
710.61	303.93
710.95	302.86
711.28	301.91
711.61	300.98
711.95	300.08
712.28	299.10
712.61	298.10
712.95	297.15
713.28	296.30
713.61	295.43
713.95	294.53
714.28	293.71
714.61	292.84
714.95	291.99
715.28	291.19
715.61	290.26
715.95	289.38
716.28	288.54
716.61	287.73
716.95	286.92
717.28	286.16
717.61	285.37
717.94	284.64
718.28	283.89
718.61	283.17
718.94	282.49
719.27	281.88
719.61	281.28
719.94	280.60
720.27	279.87
720.60	279.18
720.94	278.57
721.27	277.98
721.60	277.40
721.93	276.76
722.27	276.20
722.60	275.69
722.93	275.15
723.26	274.61
723.59	274.06
723.93	273.49
724.26	272.93
724.59	272.43
724.92	271.89
725.25	271.40
725.59	270.91
725.92	270.39
726.25	269.87
726.58	269.36
726.91	268.89
727.24	268.44
727.57	267.95
727.91	267.44
728.24	266.97
728.57	266.50
728.90	266.07
729.23	265.57
729.56	265.17
729.89	264.70
730.22	264.21
730.55	263.73
730.89	263.30
731.22	262.87
731.55	262.44
731.88	262.01
732.21	261.58
732.54	261.14
732.87	260.75
733.20	260.38
733.53	259.99
733.86	259.62
734.19	259.22
734.52	258.90
734.85	258.63
735.18	258.19
735.51	257.81
735.84	257.43
736.17	257.09
736.50	256.66
736.83	256.41
737.16	256.05
737.49	255.72
737.82	255.40
738.15	255.08
738.48	254.69
738.81	254.37
739.14	254.06
739.47	253.73
739.80	253.41
740.13	253.09
740.46	252.76
740.79	252.43
741.12	252.09
741.45	251.74
741.78	251.36
742.11	251.09
742.44	250.77
742.77	250.45
743.10	250.15
743.43	249.87
743.75	249.51
744.08	249.35
744.41	249.10
744.74	248.83
745.07	248.53
745.40	248.32
745.73	248.07
746.06	247.77
746.39	247.50
746.71	247.21
747.04	246.96
747.37	246.70
747.70	246.44
748.03	246.20
748.36	245.98
748.68	245.75
749.01	245.50
749.34	245.26
749.67	245.04
750.00	244.80
750.33	244.68
750.65	244.40
750.98	244.11
751.31	243.85
751.64	243.64
751.97	243.47
752.29	243.21
752.62	242.95
752.95	242.74
753.28	242.52
753.60	242.31
753.93	242.07
754.26	241.84
754.59	241.63
754.91	241.43
755.24	241.22
755.57	241.00
755.90	240.80
756.22	240.59
756.55	240.41
756.88	240.23
757.20	239.93
757.53	239.75
757.86	239.55
758.19	239.40
758.51	239.21
758.84	238.98
759.17	238.83
759.49	238.66
759.82	238.55
760.15	238.43
760.47	238.27
760.80	238.14
761.13	238.05
761.45	237.89
761.78	237.73
762.11	237.59
762.43	237.46
762.76	237.33
763.08	237.23
763.41	237.09
763.74	236.95
764.06	236.79
764.39	236.67
764.71	236.56
765.04	236.42
765.37	236.31
765.69	236.21
766.02	236.09
766.34	236.00
766.67	235.87
767.00	235.74
767.32	235.71
767.65	235.62
767.97	235.48
768.30	235.37
768.62	235.28
768.95	235.16
769.27	235.03
769.60	234.93
769.92	234.78
770.25	234.70
770.57	234.61
770.90	234.55
771.22	234.45
771.55	234.37
771.87	234.27
772.20	234.16
772.52	234.13
772.85	234.17
773.17	234.09
773.50	233.97
773.82	233.90
774.15	233.76
774.47	233.61
774.80	233.52
775.12	233.47
775.45	233.39
775.77	233.31
776.09	233.26
776.42	233.18
776.74	233.14
777.07	233.05
777.39	232.98
777.72	232.91
778.04	232.84
778.36	232.73
778.69	232.69
779.01	232.63
779.33	232.51
779.66	232.32
779.98	232.24
780.31	232.19
780.63	232.14
780.95	232.11
781.28	232.08
781.60	232.01
781.92	231.95
782.25	231.88
782.57	231.81
782.89	231.76
783.22	231.72
783.54	231.64
783.86	231.57
784.19	231.51
784.51	231.50
784.83	231.47
785.16	231.41
785.48	231.34
785.80	231.32
786.12	231.26
786.45	231.21
786.77	231.14
787.09	231.10
