SpectraSuite Data File
++++++++++++++++++++++++++++++++++++
Date: Fri Feb 01 15:39:16 EST 2013
User: group
Dark Spectrum Present: No
Reference Spectrum Present: No
Number of Sampled Component Spectra: 1
Spectrometers: USB2E7196
Integration Time (usec): 35000 (USB2E7196)
Spectra Averaged: 100 (USB2E7196)
Boxcar Smoothing: 10 (USB2E7196)
Correct for Electrical Dark: No (USB2E7196)
Strobe/Lamp Enabled: No (USB2E7196)
Correct for Detector Non-linearity: No (USB2E7196)
Correct for Stray Light: No (USB2E7196)
Number of Pixels in Processed Spectrum: 2048
>>>>>Begin Processed Spectral Data<<<<<
339.09	0.00
339.48	214.84
339.86	216.58
340.24	217.62
340.63	219.30
341.01	221.90
341.39	220.99
341.78	222.44
342.16	224.50
342.54	224.61
342.93	213.07
343.31	223.85
343.69	224.41
344.07	224.85
344.46	225.28
344.84	225.67
345.22	225.92
345.60	226.21
345.99	226.45
346.37	226.57
346.75	226.68
347.13	226.75
347.52	226.81
347.90	226.88
348.28	226.92
348.66	226.98
349.05	226.98
349.43	227.05
349.81	227.10
350.19	227.15
350.57	227.24
350.96	227.35
351.34	227.43
351.72	227.48
352.10	227.60
352.48	227.67
352.87	227.74
353.25	227.81
353.63	227.89
354.01	227.94
354.39	227.99
354.77	228.10
355.15	228.21
355.54	228.27
355.92	228.34
356.30	228.40
356.68	228.56
357.06	228.67
357.44	228.73
357.82	228.82
358.20	228.87
358.58	228.93
358.97	228.99
359.35	229.08
359.73	229.16
360.11	229.21
360.49	229.28
360.87	229.31
361.25	229.38
361.63	229.46
362.01	229.50
362.39	229.56
362.77	229.60
363.15	229.60
363.53	229.64
363.91	229.65
364.29	229.70
364.67	229.63
365.05	229.63
365.43	229.65
365.81	229.65
366.19	229.69
366.57	229.71
366.95	229.67
367.33	229.61
367.71	229.60
368.09	229.60
368.47	229.61
368.85	229.58
369.23	229.55
369.61	229.49
369.99	229.52
370.37	229.50
370.75	229.49
371.13	229.48
371.51	229.40
371.89	229.36
372.27	229.29
372.65	229.21
373.03	229.17
373.41	229.06
373.78	228.98
374.16	228.87
374.54	228.79
374.92	228.76
375.30	228.67
375.68	228.58
376.06	228.50
376.44	228.37
376.82	228.33
377.19	228.26
377.57	228.16
377.95	228.05
378.33	227.93
378.71	227.78
379.09	227.72
379.47	227.67
379.84	227.59
380.22	227.46
380.60	227.37
380.98	227.27
381.36	227.24
381.73	227.18
382.11	227.13
382.49	227.08
382.87	226.96
383.25	226.92
383.62	226.98
384.00	226.90
384.38	226.88
384.76	226.82
385.13	226.81
385.51	226.74
385.89	226.66
386.27	226.63
386.64	226.63
387.02	226.57
387.40	226.49
387.78	226.43
388.15	226.47
388.53	226.44
388.91	226.42
389.29	226.38
389.66	226.34
390.04	226.34
390.42	226.35
390.79	226.35
391.17	226.35
391.55	226.21
391.92	226.23
392.30	226.22
392.68	226.21
393.05	226.19
393.43	226.20
393.81	226.23
394.18	226.24
394.56	226.23
394.94	226.26
395.31	226.29
395.69	226.39
396.06	226.39
396.44	226.44
396.82	226.49
397.19	226.58
397.57	226.61
397.95	226.66
398.32	226.66
398.70	226.74
399.07	226.81
399.45	226.86
399.82	226.91
400.20	226.96
400.58	227.02
400.95	227.08
401.33	227.20
401.70	227.32
402.08	227.42
402.45	227.49
402.83	227.59
403.20	227.70
403.58	227.78
403.95	227.92
404.33	228.05
404.71	228.17
405.08	228.34
405.46	228.51
405.83	228.66
406.21	228.82
406.58	228.96
406.96	229.13
407.33	229.33
407.70	229.55
408.08	229.84
408.45	230.05
408.83	230.26
409.20	230.46
409.58	230.64
409.95	230.93
410.33	231.23
410.70	231.49
411.08	231.80
411.45	232.12
411.82	232.40
412.20	232.77
412.57	233.19
412.95	233.51
413.32	233.92
413.69	234.32
414.07	234.77
414.44	235.25
414.82	235.71
415.19	236.27
415.56	236.81
415.94	237.34
416.31	237.99
416.68	238.67
417.06	239.40
417.43	240.13
417.81	240.91
418.18	241.70
418.55	242.52
418.93	243.41
419.30	244.33
419.67	245.27
420.04	246.21
420.42	247.19
420.79	248.33
421.16	249.48
421.54	250.63
421.91	251.83
422.28	253.09
422.66	254.46
423.03	255.76
423.40	257.07
423.77	258.49
424.15	259.90
424.52	261.33
424.89	262.93
425.26	264.44
425.64	265.88
426.01	267.45
426.38	269.13
426.75	270.79
427.13	272.43
427.50	274.25
427.87	276.13
428.24	278.00
428.61	279.75
428.99	281.68
429.36	283.78
429.73	285.88
430.10	287.93
430.47	289.93
430.85	292.05
431.22	294.31
431.59	296.65
431.96	298.90
432.33	301.43
432.70	303.82
433.08	306.64
433.45	309.27
433.82	311.89
434.19	314.79
434.56	317.59
434.93	320.27
435.30	322.89
435.68	325.78
436.05	328.63
436.42	331.40
436.79	333.93
437.16	336.66
437.53	339.40
437.90	342.19
438.27	344.97
438.64	347.80
439.01	350.38
439.38	352.64
439.75	354.77
440.13	357.24
440.50	359.59
440.87	361.46
441.24	363.35
441.61	365.50
441.98	366.97
442.35	368.78
442.72	370.68
443.09	372.51
443.46	373.52
443.83	374.09
444.20	374.64
444.57	375.49
444.94	375.78
445.31	376.17
445.68	376.49
446.05	376.60
446.42	376.16
446.79	375.77
447.16	375.33
447.53	375.06
447.90	373.89
448.27	372.71
448.64	371.10
449.01	370.00
449.37	368.04
449.74	366.20
450.11	363.97
450.48	361.49
450.85	358.94
451.22	356.77
451.59	354.77
451.96	352.84
452.33	350.23
452.70	347.89
453.07	345.10
453.43	342.26
453.80	339.47
454.17	336.85
454.54	334.33
454.91	331.64
455.28	328.96
455.65	326.49
456.02	324.00
456.38	321.83
456.75	319.18
457.12	316.94
457.49	314.68
457.86	312.52
458.23	310.65
458.59	308.61
458.96	306.56
459.33	304.70
459.70	302.85
460.07	301.31
460.43	299.59
460.80	297.95
461.17	296.50
461.54	295.02
461.91	293.60
462.27	292.09
462.64	290.80
463.01	289.47
463.38	288.16
463.74	286.89
464.11	285.74
464.48	284.72
464.85	283.58
465.21	282.71
465.58	281.78
465.95	280.64
466.32	279.73
466.68	278.83
467.05	277.90
467.42	276.99
467.78	276.06
468.15	275.15
468.52	274.46
468.88	273.61
469.25	272.81
469.62	272.19
469.98	271.54
470.35	270.94
470.72	270.30
471.08	269.61
471.45	269.05
471.82	268.49
472.18	267.87
472.55	267.46
472.92	266.93
473.28	266.48
473.65	266.05
474.02	265.60
474.38	265.20
474.75	264.90
475.11	264.51
475.48	264.28
475.85	264.07
476.21	263.85
476.58	263.65
476.94	263.51
477.31	263.29
477.67	263.14
478.04	263.01
478.41	262.97
478.77	263.04
479.14	262.93
479.50	262.97
479.87	263.06
480.23	263.14
480.60	263.21
480.96	263.28
481.33	263.48
481.69	263.67
482.06	263.89
482.42	264.05
482.79	264.34
483.15	264.66
483.52	265.03
483.88	265.35
484.25	265.72
484.61	266.14
484.98	266.62
485.34	267.16
485.71	267.75
486.07	268.38
486.44	268.92
486.80	269.66
487.17	270.38
487.53	271.16
487.90	271.99
488.26	272.92
488.62	273.92
488.99	274.93
489.35	275.99
489.72	277.13
490.08	278.34
490.44	279.58
490.81	280.86
491.17	282.23
491.54	283.76
491.90	285.30
492.26	286.95
492.63	288.69
492.99	290.48
493.36	292.34
493.72	294.39
494.08	296.52
494.45	298.72
494.81	301.08
495.17	303.49
495.54	306.04
495.90	308.76
496.26	311.54
496.63	314.47
496.99	317.57
497.35	320.82
497.72	324.25
498.08	327.76
498.44	331.46
498.80	335.35
499.17	339.37
499.53	343.54
499.89	347.90
500.26	352.39
500.62	357.07
500.98	362.11
501.34	367.21
501.71	372.53
502.07	377.98
502.43	383.59
502.79	389.44
503.16	395.48
503.52	401.71
503.88	408.07
504.24	414.75
504.60	421.68
504.97	428.80
505.33	436.14
505.69	443.87
506.05	451.61
506.41	459.54
506.78	467.69
507.14	476.17
507.50	484.89
507.86	493.96
508.22	503.20
508.59	512.37
508.95	521.89
509.31	531.67
509.67	541.70
510.03	551.98
510.39	562.56
510.75	573.36
511.12	584.32
511.48	595.72
511.84	607.11
512.20	618.62
512.56	630.51
512.92	642.68
513.28	655.01
513.64	667.55
514.00	680.24
514.37	693.19
514.73	706.24
515.09	719.32
515.45	732.64
515.81	746.24
516.17	760.21
516.53	774.36
516.89	788.52
517.25	802.81
517.61	817.31
517.97	831.62
518.33	846.15
518.69	860.96
519.05	875.95
519.41	891.09
519.77	906.63
520.13	922.23
520.49	937.58
520.85	953.04
521.21	968.81
521.57	985.11
521.93	1000.91
522.29	1017.36
522.65	1033.65
523.01	1049.75
523.37	1065.65
523.73	1081.85
524.09	1097.90
524.45	1114.33
524.81	1130.98
525.17	1147.76
525.53	1164.88
525.89	1181.69
526.25	1198.52
526.61	1214.81
526.97	1231.68
527.33	1248.09
527.68	1264.70
528.04	1281.27
528.40	1297.97
528.76	1314.93
529.12	1331.55
529.48	1348.36
529.84	1364.37
530.20	1380.90
530.56	1397.94
530.91	1415.44
531.27	1432.23
531.63	1448.83
531.99	1465.36
532.35	1481.35
532.71	1497.18
533.07	1513.39
533.42	1529.30
533.78	1545.25
534.14	1561.55
534.50	1576.80
534.86	1592.69
535.21	1607.71
535.57	1623.74
535.93	1639.25
536.29	1654.04
536.65	1669.04
537.00	1683.93
537.36	1699.13
537.72	1713.70
538.08	1728.31
538.44	1742.23
538.79	1756.12
539.15	1769.78
539.51	1783.63
539.87	1798.00
540.22	1811.86
540.58	1825.71
540.94	1839.10
541.29	1852.08
541.65	1865.01
542.01	1878.29
542.37	1890.61
542.72	1903.19
543.08	1914.85
543.44	1927.10
543.79	1938.49
544.15	1949.60
544.51	1961.19
544.87	1972.27
545.22	1983.14
545.58	1993.29
545.94	2003.00
546.29	2012.78
546.65	2022.61
547.01	2031.84
547.36	2040.53
547.72	2049.01
548.07	2056.95
548.43	2065.19
548.79	2073.30
549.14	2080.73
549.50	2088.16
549.86	2096.02
550.21	2103.33
550.57	2110.50
550.92	2117.12
551.28	2124.12
551.64	2131.18
551.99	2137.68
552.35	2143.80
552.70	2150.08
553.06	2156.09
553.41	2162.38
553.77	2168.65
554.13	2174.84
554.48	2180.92
554.84	2186.24
555.19	2191.49
555.55	2196.58
555.90	2200.97
556.26	2205.77
556.61	2210.48
556.97	2214.73
557.32	2218.74
557.68	2222.82
558.03	2227.15
558.39	2230.93
558.74	2235.45
559.10	2239.34
559.45	2243.07
559.81	2247.49
560.16	2251.20
560.52	2254.32
560.87	2257.70
561.23	2260.25
561.58	2263.16
561.94	2265.75
562.29	2268.19
562.64	2270.91
563.00	2273.35
563.35	2276.98
563.71	2280.12
564.06	2283.36
564.42	2286.11
564.77	2288.58
565.12	2290.96
565.48	2292.75
565.83	2294.47
566.19	2295.81
566.54	2296.55
566.89	2297.62
567.25	2297.97
567.60	2299.16
567.96	2300.82
568.31	2301.76
568.66	2302.82
569.02	2303.25
569.37	2303.45
569.72	2304.38
570.08	2304.49
570.43	2304.55
570.78	2303.86
571.14	2302.25
571.49	2300.78
571.84	2300.47
572.20	2299.33
572.55	2298.17
572.90	2296.63
573.26	2295.31
573.61	2293.56
573.96	2291.75
574.31	2288.67
574.67	2285.66
575.02	2282.09
575.37	2278.79
575.72	2274.74
576.08	2271.37
576.43	2268.08
576.78	2264.46
577.13	2261.38
577.49	2258.21
577.84	2254.61
578.19	2250.81
578.54	2247.18
578.90	2242.88
579.25	2237.28
579.60	2232.33
579.95	2227.26
580.30	2222.34
580.66	2217.14
581.01	2212.26
581.36	2207.27
581.71	2202.91
582.06	2198.44
582.42	2194.00
582.77	2188.69
583.12	2184.26
583.47	2179.41
583.82	2174.24
584.17	2168.94
584.53	2163.15
584.88	2157.48
585.23	2151.69
585.58	2146.10
585.93	2140.65
586.28	2136.03
586.63	2130.88
586.98	2125.85
587.34	2121.16
587.69	2116.07
588.04	2110.66
588.39	2104.92
588.74	2098.54
589.09	2092.51
589.44	2085.78
589.79	2079.68
590.14	2074.02
590.49	2067.45
590.84	2061.16
591.19	2055.29
591.54	2048.87
591.89	2041.46
592.25	2034.60
592.60	2027.53
592.95	2020.05
593.30	2012.66
593.65	2005.00
594.00	1998.06
594.35	1990.70
594.70	1982.66
595.05	1975.40
595.40	1968.19
595.75	1960.70
596.10	1954.49
596.45	1947.80
596.80	1941.80
597.15	1935.24
597.50	1928.14
597.85	1921.61
598.19	1914.84
598.54	1907.63
598.89	1900.92
599.24	1895.25
599.59	1888.55
599.94	1882.26
600.29	1875.91
600.64	1869.37
600.99	1861.91
601.34	1855.08
601.69	1848.11
602.04	1841.15
602.39	1833.93
602.74	1827.15
603.08	1820.41
603.43	1813.60
603.78	1806.13
604.13	1798.70
604.48	1791.16
604.83	1784.39
605.18	1777.36
605.53	1769.41
605.87	1761.40
606.22	1754.11
606.57	1746.02
606.92	1738.65
607.27	1731.36
607.62	1724.19
607.96	1716.83
608.31	1710.00
608.66	1702.22
609.01	1694.61
609.36	1686.99
609.70	1678.87
610.05	1670.66
610.40	1662.77
610.75	1654.55
611.10	1647.02
611.44	1638.65
611.79	1630.70
612.14	1621.87
612.49	1612.71
612.83	1604.35
613.18	1596.11
613.53	1588.03
613.88	1579.49
614.22	1571.23
614.57	1562.68
614.92	1554.77
615.27	1547.10
615.61	1538.81
615.96	1530.87
616.31	1523.20
616.65	1515.81
617.00	1508.28
617.35	1500.72
617.70	1492.43
618.04	1483.83
618.39	1475.48
618.74	1467.79
619.08	1459.44
619.43	1451.75
619.78	1444.79
620.12	1437.48
620.47	1430.03
620.82	1421.77
621.16	1414.32
621.51	1406.71
621.85	1399.08
622.20	1390.49
622.55	1382.20
622.89	1374.43
623.24	1366.79
623.59	1359.45
623.93	1351.93
624.28	1344.70
624.62	1337.06
624.97	1329.91
625.32	1323.20
625.66	1316.21
626.01	1309.05
626.35	1301.61
626.70	1294.04
627.04	1286.39
627.39	1278.79
627.73	1271.41
628.08	1264.51
628.43	1257.13
628.77	1249.76
629.12	1242.19
629.46	1235.14
629.81	1227.77
630.15	1220.48
630.50	1213.07
630.84	1204.84
631.19	1197.06
631.53	1189.57
631.88	1182.15
632.22	1174.53
632.57	1167.18
632.91	1159.63
633.26	1152.27
633.60	1144.99
633.95	1137.88
634.29	1130.88
634.64	1124.11
634.98	1116.70
635.32	1109.53
635.67	1103.09
636.01	1096.41
636.36	1089.58
636.70	1083.12
637.05	1076.54
637.39	1070.08
637.73	1063.58
638.08	1057.75
638.42	1051.64
638.77	1045.16
639.11	1038.49
639.45	1032.17
639.80	1025.50
640.14	1019.06
640.49	1012.53
640.83	1006.23
641.17	999.85
641.52	993.51
641.86	987.10
642.20	981.33
642.55	975.25
642.89	968.66
643.23	962.19
643.58	956.46
643.92	950.20
644.26	944.16
644.61	938.27
644.95	932.19
645.29	925.59
645.64	918.81
645.98	912.50
646.32	906.73
646.66	900.67
647.01	894.86
647.35	889.25
647.69	883.38
648.04	877.91
648.38	872.16
648.72	866.16
649.06	860.12
649.41	854.23
649.75	848.13
650.09	842.18
650.43	836.38
650.78	830.18
651.12	824.24
651.46	818.49
651.80	812.62
652.14	807.29
652.49	801.96
652.83	796.92
653.17	791.14
653.51	785.32
653.85	779.91
654.20	774.33
654.54	768.28
654.88	762.57
655.22	756.61
655.56	750.98
655.90	745.52
656.25	740.25
656.59	734.82
656.93	729.80
657.27	724.66
657.61	719.21
657.95	714.11
658.29	709.02
658.64	703.75
658.98	698.49
659.32	692.95
659.66	687.75
660.00	682.37
660.34	677.46
660.68	672.58
661.02	667.52
661.36	662.77
661.70	658.29
662.05	653.91
662.39	649.62
662.73	645.15
663.07	640.77
663.41	636.31
663.75	631.88
664.09	627.23
664.43	622.80
664.77	618.74
665.11	614.50
665.45	610.38
665.79	606.30
666.13	602.15
666.47	598.13
666.81	593.94
667.15	589.83
667.49	585.95
667.83	582.15
668.17	578.19
668.51	574.08
668.85	570.07
669.19	566.26
669.53	562.35
669.87	558.49
670.21	554.76
670.55	551.09
670.89	547.68
671.23	544.29
671.57	540.83
671.91	537.26
672.25	533.81
672.58	530.26
672.92	526.90
673.26	523.75
673.60	520.56
673.94	517.48
674.28	514.65
674.62	511.70
674.96	508.62
675.30	505.75
675.64	502.85
675.97	500.07
676.31	497.18
676.65	494.30
676.99	491.57
677.33	488.76
677.67	486.02
678.01	482.96
678.34	479.97
678.68	477.14
679.02	474.34
679.36	471.58
679.70	468.92
680.04	466.18
680.37	463.31
680.71	460.55
681.05	457.90
681.39	455.09
681.73	452.45
682.06	449.93
682.40	447.43
682.74	444.95
683.08	442.42
683.42	439.79
683.75	437.33
684.09	434.77
684.43	432.27
684.77	429.77
685.10	427.45
685.44	425.19
685.78	422.90
686.12	420.65
686.45	418.35
686.79	416.06
687.13	413.87
687.46	411.72
687.80	409.60
688.14	407.38
688.48	405.36
688.81	403.12
689.15	400.96
689.49	398.80
689.82	396.71
690.16	394.63
690.50	392.72
690.83	390.74
691.17	388.79
691.51	386.91
691.84	385.08
692.18	383.14
692.52	381.16
692.85	379.21
693.19	377.34
693.52	375.54
693.86	373.67
694.20	371.87
694.53	370.12
694.87	368.26
695.21	366.51
695.54	364.67
695.88	362.94
696.21	361.16
696.55	359.46
696.88	357.73
697.22	356.04
697.56	354.42
697.89	352.80
698.23	351.15
698.56	349.48
698.90	347.83
699.23	346.16
699.57	344.58
699.90	343.04
700.24	341.43
700.58	339.88
700.91	338.44
701.25	336.99
701.58	335.56
701.92	334.19
702.25	332.79
702.59	331.44
702.92	330.08
703.26	328.82
703.59	327.56
703.93	326.42
704.26	325.16
704.60	323.86
704.93	322.57
705.26	321.36
705.60	320.21
705.93	319.09
706.27	318.08
706.60	317.02
706.94	315.95
707.27	314.90
707.61	313.85
707.94	312.79
708.27	311.69
708.61	310.58
708.94	309.51
709.28	308.56
709.61	307.58
709.94	306.66
710.28	305.62
710.61	304.65
710.95	303.56
711.28	302.68
711.61	301.70
711.95	300.76
712.28	299.78
712.61	298.80
712.95	297.87
713.28	296.97
713.61	296.07
713.95	295.16
714.28	294.30
714.61	293.45
714.95	292.57
715.28	291.73
715.61	290.89
715.95	290.10
716.28	289.21
716.61	288.39
716.95	287.60
717.28	286.87
717.61	286.09
717.94	285.35
718.28	284.54
718.61	283.86
718.94	283.20
719.27	282.55
719.61	281.90
719.94	281.22
720.27	280.51
720.60	279.83
720.94	279.21
721.27	278.61
721.60	278.04
721.93	277.45
722.27	276.94
722.60	276.44
722.93	275.86
723.26	275.34
723.59	274.80
723.93	274.25
724.26	273.69
724.59	273.16
724.92	272.64
725.25	272.14
725.59	271.61
725.92	271.12
726.25	270.63
726.58	270.15
726.91	269.69
727.24	269.25
727.57	268.76
727.91	268.27
728.24	267.80
728.57	267.31
728.90	266.89
729.23	266.39
729.56	265.92
729.89	265.46
730.22	264.99
730.55	264.56
730.89	264.12
731.22	263.70
731.55	263.23
731.88	262.80
732.21	262.38
732.54	261.95
732.87	261.51
733.20	261.10
733.53	260.71
733.86	260.35
734.19	259.93
734.52	259.61
734.85	259.32
735.18	258.91
735.51	258.54
735.84	258.16
736.17	257.79
736.50	257.38
736.83	257.14
737.16	256.82
737.49	256.44
737.82	256.06
738.15	255.75
738.48	255.42
738.81	255.13
739.14	254.79
739.47	254.49
739.80	254.19
740.13	253.88
740.46	253.55
740.79	253.19
741.12	252.91
741.45	252.56
741.78	252.21
742.11	251.94
742.44	251.61
742.77	251.32
743.10	251.00
743.43	250.73
743.75	250.36
744.08	250.18
744.41	249.90
744.74	249.63
745.07	249.30
745.40	249.04
745.73	248.81
746.06	248.54
746.39	248.26
746.71	247.96
747.04	247.70
747.37	247.44
747.70	247.20
748.03	246.92
748.36	246.70
748.68	246.45
749.01	246.16
749.34	245.98
749.67	245.72
750.00	245.54
750.33	245.41
750.65	245.17
750.98	244.86
751.31	244.66
751.64	244.48
751.97	244.35
752.29	244.17
752.62	243.86
752.95	243.64
753.28	243.44
753.60	243.25
753.93	243.06
754.26	242.86
754.59	242.63
754.91	242.41
755.24	242.21
755.57	242.01
755.90	241.85
756.22	241.61
756.55	241.39
756.88	241.19
757.20	240.89
757.53	240.69
757.86	240.50
758.19	240.33
758.51	240.15
758.84	239.95
759.17	239.74
759.49	239.62
759.82	239.51
760.15	239.32
760.47	239.16
760.80	238.98
761.13	238.86
761.45	238.74
761.78	238.61
762.11	238.48
762.43	238.33
762.76	238.20
763.08	238.08
763.41	237.99
763.74	237.87
764.06	237.77
764.39	237.64
764.71	237.50
765.04	237.37
765.37	237.23
765.69	237.09
766.02	236.97
766.34	236.86
766.67	236.71
767.00	236.62
767.32	236.56
767.65	236.52
767.97	236.40
768.30	236.27
768.62	236.16
768.95	236.03
769.27	235.90
769.60	235.77
769.92	235.66
770.25	235.55
770.57	235.42
770.90	235.29
771.22	235.18
771.55	235.09
771.87	235.00
772.20	234.90
772.52	234.89
772.85	234.90
773.17	234.82
773.50	234.71
773.82	234.62
774.15	234.50
774.47	234.34
774.80	234.24
775.12	234.17
775.45	234.09
775.77	233.99
776.09	233.91
776.42	233.85
776.74	233.79
777.07	233.71
777.39	233.64
777.72	233.60
778.04	233.54
778.36	233.46
778.69	233.36
779.01	233.30
779.33	233.13
779.66	232.97
779.98	232.88
780.31	232.82
780.63	232.80
780.95	232.75
781.28	232.70
781.60	232.63
781.92	232.56
782.25	232.48
782.57	232.44
782.89	232.44
783.22	232.39
783.54	232.32
783.86	232.24
784.19	232.20
784.51	232.14
784.83	232.07
785.16	232.01
785.48	231.96
785.80	231.92
786.12	231.89
786.45	231.83
786.77	231.80
787.09	231.78
