SpectraSuite Data File
++++++++++++++++++++++++++++++++++++
Date: Fri Feb 01 16:40:07 EST 2013
User: group
Dark Spectrum Present: No
Reference Spectrum Present: No
Number of Sampled Component Spectra: 1
Spectrometers: USB2E7196
Integration Time (usec): 35000 (USB2E7196)
Spectra Averaged: 100 (USB2E7196)
Boxcar Smoothing: 10 (USB2E7196)
Correct for Electrical Dark: No (USB2E7196)
Strobe/Lamp Enabled: No (USB2E7196)
Correct for Detector Non-linearity: No (USB2E7196)
Correct for Stray Light: No (USB2E7196)
Number of Pixels in Processed Spectrum: 2048
>>>>>Begin Processed Spectral Data<<<<<
339.09	0.00
339.48	213.29
339.86	214.70
340.24	216.35
340.63	216.91
341.01	219.85
341.39	220.03
341.78	221.86
342.16	222.36
342.54	223.21
342.93	211.70
343.31	222.39
343.69	222.95
344.07	223.40
344.46	223.83
344.84	224.22
345.22	224.49
345.60	224.78
345.99	224.96
346.37	225.09
346.75	225.19
347.13	225.31
347.52	225.34
347.90	225.44
348.28	225.48
348.66	225.51
349.05	225.47
349.43	225.53
349.81	225.60
350.19	225.66
350.57	225.75
350.96	225.83
351.34	225.94
351.72	226.04
352.10	226.18
352.48	226.26
352.87	226.33
353.25	226.43
353.63	226.45
354.01	226.55
354.39	226.64
354.77	226.73
355.15	226.82
355.54	226.89
355.92	226.94
356.30	227.01
356.68	227.20
357.06	227.30
357.44	227.38
357.82	227.45
358.20	227.56
358.58	227.60
358.97	227.66
359.35	227.76
359.73	227.82
360.11	227.88
360.49	227.94
360.87	228.00
361.25	228.05
361.63	228.14
362.01	228.18
362.39	228.23
362.77	228.30
363.15	228.32
363.53	228.38
363.91	228.43
364.29	228.45
364.67	228.36
365.05	228.40
365.43	228.41
365.81	228.42
366.19	228.46
366.57	228.53
366.95	228.53
367.33	228.50
367.71	228.49
368.09	228.50
368.47	228.48
368.85	228.47
369.23	228.50
369.61	228.47
369.99	228.47
370.37	228.45
370.75	228.43
371.13	228.39
371.51	228.33
371.89	228.29
372.27	228.27
372.65	228.22
373.03	228.16
373.41	228.07
373.78	228.01
374.16	227.87
374.54	227.77
374.92	227.72
375.30	227.66
375.68	227.58
376.06	227.52
376.44	227.46
376.82	227.37
377.19	227.30
377.57	227.22
377.95	227.14
378.33	227.10
378.71	226.98
379.09	226.95
379.47	226.93
379.84	226.83
380.22	226.74
380.60	226.67
380.98	226.60
381.36	226.56
381.73	226.47
382.11	226.42
382.49	226.35
382.87	226.27
383.25	226.23
383.62	226.27
384.00	226.17
384.38	226.13
384.76	226.13
385.13	226.08
385.51	226.05
385.89	225.96
386.27	225.88
386.64	225.83
387.02	225.78
387.40	225.70
387.78	225.65
388.15	225.60
388.53	225.54
388.91	225.46
389.29	225.43
389.66	225.40
390.04	225.38
390.42	225.35
390.79	225.31
391.17	225.28
391.55	225.17
391.92	225.14
392.30	225.12
392.68	225.07
393.05	225.01
393.43	224.99
393.81	225.00
394.18	225.00
394.56	225.02
394.94	225.01
395.31	224.99
395.69	225.04
396.06	225.09
396.44	225.10
396.82	225.16
397.19	225.22
397.57	225.23
397.95	225.30
398.32	225.34
398.70	225.40
399.07	225.44
399.45	225.53
399.82	225.59
400.20	225.62
400.58	225.72
400.95	225.78
401.33	225.85
401.70	226.00
402.08	226.08
402.45	226.16
402.83	226.26
403.20	226.37
403.58	226.46
403.95	226.59
404.33	226.75
404.71	226.86
405.08	227.04
405.46	227.20
405.83	227.32
406.21	227.49
406.58	227.64
406.96	227.80
407.33	227.95
407.70	228.16
408.08	228.45
408.45	228.64
408.83	228.89
409.20	229.12
409.58	229.27
409.95	229.55
410.33	229.83
410.70	230.05
411.08	230.36
411.45	230.66
411.82	230.95
412.20	231.32
412.57	231.74
412.95	231.99
413.32	232.39
413.69	232.80
414.07	233.25
414.44	233.75
414.82	234.24
415.19	234.78
415.56	235.30
415.94	235.81
416.31	236.44
416.68	237.05
417.06	237.77
417.43	238.46
417.81	239.23
418.18	240.01
418.55	240.88
418.93	241.80
419.30	242.69
419.67	243.60
420.04	244.56
420.42	245.53
420.79	246.75
421.16	247.94
421.54	249.14
421.91	250.32
422.28	251.58
422.66	252.89
423.03	254.20
423.40	255.56
423.77	256.98
424.15	258.41
424.52	259.85
424.89	261.43
425.26	263.02
425.64	264.46
426.01	266.09
426.38	267.75
426.75	269.35
427.13	271.06
427.50	272.86
427.87	274.72
428.24	276.58
428.61	278.32
428.99	280.15
429.36	282.24
429.73	284.27
430.10	286.27
430.47	288.34
430.85	290.43
431.22	292.59
431.59	294.94
431.96	297.15
432.33	299.64
432.70	302.00
433.08	304.75
433.45	307.37
433.82	309.88
434.19	312.72
434.56	315.49
434.93	318.15
435.30	320.78
435.68	323.63
436.05	326.38
436.42	329.14
436.79	331.66
437.16	334.31
437.53	337.10
437.90	339.85
438.27	342.51
438.64	345.32
439.01	347.92
439.38	350.15
439.75	352.31
440.13	354.78
440.50	357.08
440.87	358.88
441.24	360.75
441.61	362.87
441.98	364.36
442.35	366.14
442.72	367.92
443.09	369.65
443.46	370.59
443.83	371.20
444.20	371.68
444.57	372.56
444.94	372.83
445.31	373.18
445.68	373.54
446.05	373.62
446.42	373.23
446.79	372.81
447.16	372.35
447.53	372.03
447.90	370.90
448.27	369.71
448.64	368.19
449.01	367.14
449.37	365.22
449.74	363.32
450.11	361.08
450.48	358.68
450.85	356.23
451.22	354.14
451.59	352.17
451.96	350.27
452.33	347.68
452.70	345.34
453.07	342.54
453.43	339.67
453.80	336.94
454.17	334.29
454.54	331.77
454.91	329.07
455.28	326.43
455.65	323.94
456.02	321.55
456.38	319.38
456.75	316.73
457.12	314.47
457.49	312.26
457.86	310.15
458.23	308.30
458.59	306.24
458.96	304.18
459.33	302.32
459.70	300.48
460.07	298.99
460.43	297.30
460.80	295.69
461.17	294.27
461.54	292.82
461.91	291.39
462.27	289.97
462.64	288.76
463.01	287.46
463.38	286.22
463.74	284.83
464.11	283.71
464.48	282.70
464.85	281.62
465.21	280.80
465.58	279.91
465.95	278.82
466.32	277.99
466.68	277.10
467.05	276.22
467.42	275.32
467.78	274.43
468.15	273.60
468.52	273.00
468.88	272.16
469.25	271.38
469.62	270.81
469.98	270.12
470.35	269.50
470.72	268.93
471.08	268.28
471.45	267.81
471.82	267.31
472.18	266.71
472.55	266.30
472.92	265.80
473.28	265.36
473.65	264.95
474.02	264.50
474.38	264.19
474.75	263.88
475.11	263.57
475.48	263.29
475.85	263.10
476.21	262.83
476.58	262.68
476.94	262.55
477.31	262.36
477.67	262.30
478.04	262.21
478.41	262.13
478.77	262.18
479.14	262.14
479.50	262.12
479.87	262.23
480.23	262.34
480.60	262.40
480.96	262.43
481.33	262.62
481.69	262.82
482.06	262.97
482.42	263.16
482.79	263.37
483.15	263.69
483.52	264.03
483.88	264.37
484.25	264.71
484.61	265.08
484.98	265.54
485.34	266.06
485.71	266.62
486.07	267.21
486.44	267.74
486.80	268.39
487.17	269.12
487.53	269.85
487.90	270.68
488.26	271.62
488.62	272.65
488.99	273.62
489.35	274.65
489.72	275.77
490.08	276.98
490.44	278.24
490.81	279.55
491.17	280.91
491.54	282.43
491.90	283.98
492.26	285.64
492.63	287.37
492.99	289.12
493.36	291.05
493.72	293.05
494.08	295.19
494.45	297.46
494.81	299.83
495.17	302.32
495.54	304.87
495.90	307.53
496.26	310.36
496.63	313.31
496.99	316.43
497.35	319.74
497.72	323.14
498.08	326.66
498.44	330.33
498.80	334.30
499.17	338.31
499.53	342.47
499.89	346.87
500.26	351.39
500.62	356.07
500.98	361.00
501.34	366.08
501.71	371.40
502.07	376.81
502.43	382.46
502.79	388.25
503.16	394.31
503.52	400.57
503.88	406.94
504.24	413.59
504.60	420.48
504.97	427.59
505.33	434.98
505.69	442.74
506.05	450.50
506.41	458.32
506.78	466.50
507.14	475.00
507.50	483.74
507.86	492.76
508.22	501.97
508.59	511.17
508.95	520.72
509.31	530.53
509.67	540.69
510.03	550.93
510.39	561.54
510.75	572.33
511.12	583.25
511.48	594.48
511.84	605.91
512.20	617.35
512.56	629.23
512.92	641.27
513.28	653.64
513.64	666.15
514.00	678.84
514.37	691.72
514.73	704.69
515.09	717.63
515.45	730.86
515.81	744.33
516.17	758.26
516.53	772.41
516.89	786.54
517.25	800.61
517.61	815.03
517.97	829.34
518.33	843.67
518.69	858.41
519.05	873.37
519.41	888.44
519.77	903.86
520.13	919.29
520.49	934.61
520.85	949.81
521.21	965.34
521.57	981.45
521.93	997.06
522.29	1013.39
522.65	1029.56
523.01	1045.67
523.37	1061.64
523.73	1077.76
524.09	1093.77
524.45	1109.97
524.81	1126.56
525.17	1143.12
525.53	1159.87
525.89	1176.69
526.25	1193.37
526.61	1209.56
526.97	1226.16
527.33	1242.68
527.68	1259.11
528.04	1275.41
528.40	1291.92
528.76	1309.02
529.12	1325.44
529.48	1342.23
529.84	1357.97
530.20	1374.45
530.56	1391.19
530.91	1408.47
531.27	1425.09
531.63	1441.40
531.99	1457.88
532.35	1473.67
532.71	1489.53
533.07	1505.76
533.42	1521.55
533.78	1537.57
534.14	1553.82
534.50	1569.05
534.86	1584.66
535.21	1599.77
535.57	1615.57
535.93	1630.77
536.29	1645.29
536.65	1660.18
537.00	1674.70
537.36	1689.88
537.72	1704.15
538.08	1718.57
538.44	1732.16
538.79	1745.78
539.15	1759.23
539.51	1772.63
539.87	1786.76
540.22	1800.19
540.58	1813.49
540.94	1826.31
541.29	1838.63
541.65	1851.02
542.01	1863.98
542.37	1876.16
542.72	1888.27
543.08	1899.93
543.44	1912.23
543.79	1923.34
544.15	1934.15
544.51	1945.70
544.87	1956.50
545.22	1967.43
545.58	1977.56
545.94	1987.26
546.29	1997.06
546.65	2006.91
547.01	2016.20
547.36	2024.72
547.72	2033.26
548.07	2041.39
548.43	2049.73
548.79	2057.85
549.14	2065.49
549.50	2072.64
549.86	2080.10
550.21	2087.52
550.57	2094.81
550.92	2101.43
551.28	2108.47
551.64	2115.67
551.99	2122.10
552.35	2128.35
552.70	2134.37
553.06	2140.32
553.41	2146.69
553.77	2152.77
554.13	2158.68
554.48	2164.70
554.84	2170.46
555.19	2175.58
555.55	2180.66
555.90	2185.12
556.26	2190.21
556.61	2194.90
556.97	2199.60
557.32	2203.87
557.68	2207.87
558.03	2212.07
558.39	2215.66
558.74	2220.27
559.10	2224.07
559.45	2227.75
559.81	2231.94
560.16	2235.75
560.52	2238.95
560.87	2242.30
561.23	2244.81
561.58	2247.79
561.94	2250.43
562.29	2252.55
562.64	2255.40
563.00	2257.98
563.35	2261.56
563.71	2264.69
564.06	2267.78
564.42	2270.55
564.77	2273.17
565.12	2275.64
565.48	2277.65
565.83	2279.70
566.19	2281.05
566.54	2281.82
566.89	2283.17
567.25	2283.91
567.60	2285.22
567.96	2287.07
568.31	2288.03
568.66	2289.28
569.02	2289.90
569.37	2290.13
569.72	2291.33
570.08	2291.65
570.43	2291.86
570.78	2291.34
571.14	2289.78
571.49	2288.59
571.84	2288.19
572.20	2287.10
572.55	2285.98
572.90	2284.21
573.26	2282.88
573.61	2281.20
573.96	2279.84
574.31	2276.90
574.67	2273.84
575.02	2270.18
575.37	2266.68
575.72	2262.93
576.08	2259.49
576.43	2256.17
576.78	2252.83
577.13	2249.36
577.49	2245.96
577.84	2242.30
578.19	2238.48
578.54	2234.97
578.90	2230.81
579.25	2225.39
579.60	2220.54
579.95	2215.75
580.30	2210.94
580.66	2205.81
581.01	2200.90
581.36	2195.93
581.71	2191.83
582.06	2187.77
582.42	2183.51
582.77	2178.56
583.12	2174.23
583.47	2169.75
583.82	2164.95
584.17	2159.73
584.53	2154.38
584.88	2148.99
585.23	2143.47
585.58	2138.16
585.93	2132.76
586.28	2127.91
586.63	2122.90
586.98	2117.89
587.34	2113.21
587.69	2108.30
588.04	2103.17
588.39	2097.65
588.74	2091.18
589.09	2085.08
589.44	2078.38
589.79	2072.24
590.14	2066.45
590.49	2059.74
590.84	2053.28
591.19	2047.25
591.54	2040.78
591.89	2033.67
592.25	2027.08
592.60	2019.84
592.95	2012.41
593.30	2005.01
593.65	1997.50
594.00	1990.63
594.35	1983.42
594.70	1975.36
595.05	1968.48
595.40	1961.24
595.75	1953.72
596.10	1947.75
596.45	1941.14
596.80	1935.12
597.15	1928.75
597.50	1921.97
597.85	1915.59
598.19	1909.23
598.54	1902.42
598.89	1895.83
599.24	1889.94
599.59	1883.34
599.94	1877.26
600.29	1870.95
600.64	1864.41
600.99	1857.19
601.34	1850.43
601.69	1843.42
602.04	1836.72
602.39	1829.29
602.74	1822.54
603.08	1815.93
603.43	1809.14
603.78	1801.80
604.13	1794.41
604.48	1787.23
604.83	1780.38
605.18	1773.64
605.53	1765.57
605.87	1757.51
606.22	1750.29
606.57	1742.32
606.92	1734.76
607.27	1727.59
607.62	1720.75
607.96	1713.58
608.31	1707.09
608.66	1699.39
609.01	1692.02
609.36	1684.54
609.70	1676.51
610.05	1668.60
610.40	1660.89
610.75	1652.68
611.10	1645.00
611.44	1636.52
611.79	1628.44
612.14	1619.76
612.49	1610.47
612.83	1602.03
613.18	1593.87
613.53	1585.83
613.88	1577.40
614.22	1569.34
614.57	1560.75
614.92	1552.75
615.27	1545.48
615.61	1537.19
615.96	1529.19
616.31	1521.58
616.65	1514.10
617.00	1506.60
617.35	1498.88
617.70	1490.75
618.04	1482.17
618.39	1473.99
618.74	1466.52
619.08	1458.32
619.43	1450.74
619.78	1443.83
620.12	1436.89
620.47	1429.39
620.82	1421.30
621.16	1413.86
621.51	1406.22
621.85	1398.63
622.20	1390.16
622.55	1381.65
622.89	1373.76
623.24	1366.15
623.59	1358.65
623.93	1351.20
624.28	1344.04
624.62	1336.57
624.97	1329.29
625.32	1322.51
625.66	1315.54
626.01	1308.37
626.35	1300.94
626.70	1293.11
627.04	1285.48
627.39	1277.63
627.73	1270.26
628.08	1263.36
628.43	1256.15
628.77	1248.91
629.12	1241.49
629.46	1234.37
629.81	1226.88
630.15	1219.60
630.50	1212.25
630.84	1204.17
631.19	1196.20
631.53	1188.62
631.88	1180.95
632.22	1173.31
632.57	1165.99
632.91	1158.44
633.26	1151.07
633.60	1143.63
633.95	1136.65
634.29	1129.56
634.64	1122.86
634.98	1115.59
635.32	1108.47
635.67	1101.82
636.01	1095.15
636.36	1088.30
636.70	1081.74
637.05	1075.25
637.39	1068.88
637.73	1062.42
638.08	1056.52
638.42	1050.60
638.77	1044.28
639.11	1037.82
639.45	1031.58
639.80	1025.00
640.14	1018.65
640.49	1012.22
640.83	1005.92
641.17	999.75
641.52	993.48
641.86	987.02
642.20	981.13
642.55	974.74
642.89	968.34
643.23	961.74
643.58	955.90
643.92	949.72
644.26	943.83
644.61	937.77
644.95	931.77
645.29	925.25
645.64	918.52
645.98	912.11
646.32	906.15
646.66	900.00
647.01	894.23
647.35	888.45
647.69	882.53
648.04	877.04
648.38	871.23
648.72	865.23
649.06	859.23
649.41	853.27
649.75	847.36
650.09	841.37
650.43	835.61
650.78	829.49
651.12	823.54
651.46	817.63
651.80	811.83
652.14	806.47
652.49	801.10
652.83	795.88
653.17	790.29
653.51	784.66
653.85	779.23
654.20	773.59
654.54	767.61
654.88	761.79
655.22	755.94
655.56	750.15
655.90	744.72
656.25	739.43
656.59	734.10
656.93	729.04
657.27	723.94
657.61	718.49
657.95	713.43
658.29	708.34
658.64	703.07
658.98	697.75
659.32	692.24
659.66	687.05
660.00	681.80
660.34	676.79
660.68	671.83
661.02	666.86
661.36	662.19
661.70	657.72
662.05	653.41
662.39	649.16
662.73	644.76
663.07	640.33
663.41	635.92
663.75	631.42
664.09	626.83
664.43	622.47
664.77	618.37
665.11	614.13
665.45	609.98
665.79	605.96
666.13	601.94
666.47	597.86
666.81	593.67
667.15	589.56
667.49	585.67
667.83	581.86
668.17	577.94
668.51	573.89
668.85	569.82
669.19	565.97
669.53	562.05
669.87	558.19
670.21	554.56
670.55	550.97
670.89	547.54
671.23	544.09
671.57	540.51
671.91	537.03
672.25	533.53
672.58	530.02
672.92	526.54
673.26	523.26
673.60	520.13
673.94	517.03
674.28	514.12
674.62	511.18
674.96	508.07
675.30	505.16
675.64	502.27
675.97	499.50
676.31	496.63
676.65	493.72
676.99	491.02
677.33	488.11
677.67	485.23
678.01	482.24
678.34	479.35
678.68	476.45
679.02	473.65
679.36	470.84
679.70	468.08
680.04	465.40
680.37	462.62
680.71	459.77
681.05	457.10
681.39	454.34
681.73	451.66
682.06	449.11
682.40	446.56
682.74	443.95
683.08	441.40
683.42	438.83
683.75	436.32
684.09	433.71
684.43	431.22
684.77	428.80
685.10	426.41
685.44	424.04
685.78	421.73
686.12	419.43
686.45	417.18
686.79	414.96
687.13	412.74
687.46	410.51
687.80	408.35
688.14	406.13
688.48	404.06
688.81	401.84
689.15	399.74
689.49	397.59
689.82	395.53
690.16	393.42
690.50	391.45
690.83	389.54
691.17	387.54
691.51	385.63
691.84	383.79
692.18	381.92
692.52	379.98
692.85	378.05
693.19	376.18
693.52	374.30
693.86	372.44
694.20	370.68
694.53	368.92
694.87	367.07
695.21	365.31
695.54	363.48
695.88	361.76
696.21	360.01
696.55	358.30
696.88	356.64
697.22	354.98
697.56	353.31
697.89	351.64
698.23	350.09
698.56	348.47
698.90	346.86
699.23	345.21
699.57	343.63
699.90	342.08
700.24	340.54
700.58	339.04
700.91	337.53
701.25	336.02
701.58	334.67
701.92	333.33
702.25	331.96
702.59	330.63
702.92	329.28
703.26	328.00
703.59	326.69
703.93	325.43
704.26	324.19
704.60	322.88
704.93	321.60
705.26	320.29
705.60	319.11
705.93	317.95
706.27	316.91
706.60	315.88
706.94	314.83
707.27	313.68
707.61	312.58
707.94	311.59
708.27	310.54
708.61	309.43
708.94	308.39
709.28	307.41
709.61	306.43
709.94	305.48
710.28	304.44
710.61	303.50
710.95	302.44
711.28	301.55
711.61	300.63
711.95	299.74
712.28	298.85
712.61	297.91
712.95	296.98
713.28	296.09
713.61	295.18
713.95	294.29
714.28	293.42
714.61	292.60
714.95	291.74
715.28	290.89
715.61	290.01
715.95	289.18
716.28	288.32
716.61	287.48
716.95	286.66
717.28	285.92
717.61	285.15
717.94	284.44
718.28	283.62
718.61	282.88
718.94	282.18
719.27	281.54
719.61	280.88
719.94	280.19
720.27	279.46
720.60	278.78
720.94	278.15
721.27	277.61
721.60	277.05
721.93	276.44
722.27	275.88
722.60	275.33
722.93	274.77
723.26	274.25
723.59	273.69
723.93	273.12
724.26	272.58
724.59	271.98
724.92	271.45
725.25	270.94
725.59	270.42
725.92	269.94
726.25	269.41
726.58	268.91
726.91	268.44
727.24	267.99
727.57	267.53
727.91	267.03
728.24	266.55
728.57	266.02
728.90	265.58
729.23	265.06
729.56	264.65
729.89	264.14
730.22	263.66
730.55	263.22
730.89	262.81
731.22	262.37
731.55	261.95
731.88	261.50
732.21	261.06
732.54	260.62
732.87	260.14
733.20	259.74
733.53	259.33
733.86	258.95
734.19	258.51
734.52	258.14
734.85	257.82
735.18	257.40
735.51	257.05
735.84	256.68
736.17	256.37
736.50	255.95
736.83	255.74
737.16	255.39
737.49	255.02
737.82	254.64
738.15	254.27
738.48	253.93
738.81	253.61
739.14	253.31
739.47	252.99
739.80	252.69
740.13	252.37
740.46	252.05
740.79	251.69
741.12	251.39
741.45	251.05
741.78	250.70
742.11	250.42
742.44	250.09
742.77	249.78
743.10	249.46
743.43	249.19
743.75	248.78
744.08	248.65
744.41	248.40
744.74	248.16
745.07	247.90
745.40	247.65
745.73	247.41
746.06	247.15
746.39	246.88
746.71	246.63
747.04	246.35
747.37	246.10
747.70	245.83
748.03	245.62
748.36	245.38
748.68	245.14
749.01	244.88
749.34	244.68
749.67	244.42
750.00	244.20
750.33	244.02
750.65	243.81
750.98	243.45
751.31	243.19
751.64	242.95
751.97	242.81
752.29	242.61
752.62	242.35
752.95	242.13
753.28	241.91
753.60	241.69
753.93	241.52
754.26	241.33
754.59	241.14
754.91	240.91
755.24	240.69
755.57	240.50
755.90	240.28
756.22	240.02
756.55	239.85
756.88	239.68
757.20	239.43
757.53	239.25
757.86	239.12
758.19	239.01
758.51	238.85
758.84	238.60
759.17	238.46
759.49	238.33
759.82	238.21
760.15	238.09
760.47	237.94
760.80	237.74
761.13	237.62
761.45	237.48
761.78	237.34
762.11	237.22
762.43	237.07
762.76	236.97
763.08	236.89
763.41	236.79
763.74	236.64
764.06	236.52
764.39	236.42
764.71	236.29
765.04	236.13
765.37	236.00
765.69	235.87
766.02	235.72
766.34	235.60
766.67	235.45
767.00	235.37
767.32	235.31
767.65	235.29
767.97	235.18
768.30	235.07
768.62	234.96
768.95	234.85
769.27	234.78
769.60	234.71
769.92	234.61
770.25	234.47
770.57	234.38
770.90	234.28
771.22	234.13
771.55	234.01
771.87	233.92
772.20	233.82
772.52	233.82
772.85	233.88
773.17	233.79
773.50	233.68
773.82	233.54
774.15	233.43
774.47	233.30
774.80	233.19
775.12	233.12
775.45	233.04
775.77	232.97
776.09	232.87
776.42	232.75
776.74	232.70
777.07	232.59
777.39	232.52
777.72	232.45
778.04	232.42
778.36	232.35
778.69	232.27
779.01	232.23
779.33	232.09
779.66	231.90
779.98	231.84
780.31	231.77
780.63	231.77
780.95	231.72
781.28	231.64
781.60	231.59
781.92	231.51
782.25	231.46
782.57	231.39
782.89	231.34
783.22	231.28
783.54	231.20
783.86	231.18
784.19	231.11
784.51	231.07
784.83	230.96
785.16	230.88
785.48	230.84
785.80	230.78
786.12	230.71
786.45	230.65
786.77	230.60
787.09	230.56
