SpectraSuite Data File
++++++++++++++++++++++++++++++++++++
Date: Fri Feb 01 17:56:44 EST 2013
User: group
Dark Spectrum Present: No
Reference Spectrum Present: No
Number of Sampled Component Spectra: 1
Spectrometers: USB2E7196
Integration Time (usec): 35000 (USB2E7196)
Spectra Averaged: 100 (USB2E7196)
Boxcar Smoothing: 10 (USB2E7196)
Correct for Electrical Dark: No (USB2E7196)
Strobe/Lamp Enabled: No (USB2E7196)
Correct for Detector Non-linearity: No (USB2E7196)
Correct for Stray Light: No (USB2E7196)
Number of Pixels in Processed Spectrum: 2048
>>>>>Begin Processed Spectral Data<<<<<
339.09	0.00
339.48	212.16
339.86	213.91
340.24	215.43
340.63	216.87
341.01	219.41
341.39	219.71
341.78	220.95
342.16	222.14
342.54	222.34
342.93	210.95
343.31	221.59
343.69	222.15
344.07	222.61
344.46	223.02
344.84	223.41
345.22	223.67
345.60	223.91
345.99	224.11
346.37	224.26
346.75	224.38
347.13	224.46
347.52	224.54
347.90	224.64
348.28	224.67
348.66	224.67
349.05	224.66
349.43	224.71
349.81	224.75
350.19	224.83
350.57	224.91
350.96	224.98
351.34	225.11
351.72	225.19
352.10	225.32
352.48	225.43
352.87	225.47
353.25	225.53
353.63	225.60
354.01	225.67
354.39	225.75
354.77	225.85
355.15	225.95
355.54	226.05
355.92	226.09
356.30	226.19
356.68	226.38
357.06	226.50
357.44	226.58
357.82	226.65
358.20	226.71
358.58	226.76
358.97	226.84
359.35	226.90
359.73	226.98
360.11	227.00
360.49	227.06
360.87	227.14
361.25	227.21
361.63	227.29
362.01	227.32
362.39	227.36
362.77	227.36
363.15	227.36
363.53	227.37
363.91	227.41
364.29	227.45
364.67	227.36
365.05	227.33
365.43	227.36
365.81	227.39
366.19	227.46
366.57	227.50
366.95	227.50
367.33	227.48
367.71	227.48
368.09	227.49
368.47	227.45
368.85	227.41
369.23	227.38
369.61	227.34
369.99	227.33
370.37	227.30
370.75	227.33
371.13	227.28
371.51	227.24
371.89	227.20
372.27	227.17
372.65	227.14
373.03	227.13
373.41	227.05
373.78	226.97
374.16	226.84
374.54	226.76
374.92	226.69
375.30	226.65
375.68	226.59
376.06	226.53
376.44	226.48
376.82	226.44
377.19	226.38
377.57	226.30
377.95	226.20
378.33	226.13
378.71	226.01
379.09	226.01
379.47	225.96
379.84	225.88
380.22	225.80
380.60	225.71
380.98	225.62
381.36	225.55
381.73	225.51
382.11	225.46
382.49	225.39
382.87	225.32
383.25	225.24
383.62	225.29
384.00	225.24
384.38	225.23
384.76	225.18
385.13	225.16
385.51	225.12
385.89	225.07
386.27	225.03
386.64	225.02
387.02	224.94
387.40	224.89
387.78	224.85
388.15	224.83
388.53	224.78
388.91	224.75
389.29	224.70
389.66	224.67
390.04	224.63
390.42	224.61
390.79	224.61
391.17	224.58
391.55	224.46
391.92	224.44
392.30	224.40
392.68	224.39
393.05	224.39
393.43	224.39
393.81	224.39
394.18	224.40
394.56	224.41
394.94	224.45
395.31	224.46
395.69	224.53
396.06	224.59
396.44	224.63
396.82	224.65
397.19	224.75
397.57	224.81
397.95	224.89
398.32	224.92
398.70	224.96
399.07	225.03
399.45	225.10
399.82	225.14
400.20	225.20
400.58	225.28
400.95	225.32
401.33	225.43
401.70	225.60
402.08	225.70
402.45	225.77
402.83	225.87
403.20	226.01
403.58	226.09
403.95	226.20
404.33	226.33
404.71	226.49
405.08	226.69
405.46	226.83
405.83	227.01
406.21	227.19
406.58	227.39
406.96	227.60
407.33	227.81
407.70	228.07
408.08	228.36
408.45	228.64
408.83	228.91
409.20	229.20
409.58	229.42
409.95	229.77
410.33	230.12
410.70	230.44
411.08	230.80
411.45	231.19
411.82	231.57
412.20	232.03
412.57	232.54
412.95	232.95
413.32	233.50
413.69	234.01
414.07	234.59
414.44	235.21
414.82	235.83
415.19	236.54
415.56	237.24
415.94	237.98
416.31	238.82
416.68	239.67
417.06	240.60
417.43	241.49
417.81	242.52
418.18	243.58
418.55	244.70
418.93	245.88
419.30	247.05
419.67	248.32
420.04	249.59
420.42	250.92
420.79	252.44
421.16	253.98
421.54	255.55
421.91	257.18
422.28	258.83
422.66	260.66
423.03	262.40
423.40	264.20
423.77	266.10
424.15	267.99
424.52	269.96
424.89	272.07
425.26	274.19
425.64	276.10
426.01	278.23
426.38	280.44
426.75	282.69
427.13	285.03
427.50	287.43
427.87	289.96
428.24	292.46
428.61	294.84
428.99	297.43
429.36	300.26
429.73	303.04
430.10	305.75
430.47	308.44
430.85	311.29
431.22	314.30
431.59	317.46
431.96	320.45
432.33	323.77
432.70	326.97
433.08	330.72
433.45	334.26
433.82	337.70
434.19	341.53
434.56	345.27
434.93	348.78
435.30	352.28
435.68	356.16
436.05	359.90
436.42	363.61
436.79	366.98
437.16	370.57
437.53	374.37
437.90	378.14
438.27	381.83
438.64	385.64
439.01	389.10
439.38	392.14
439.75	395.06
440.13	398.42
440.50	401.56
440.87	404.04
441.24	406.62
441.61	409.55
441.98	411.59
442.35	414.00
442.72	416.52
443.09	418.97
443.46	420.36
443.83	421.18
444.20	421.88
444.57	423.00
444.94	423.45
445.31	423.85
445.68	424.33
446.05	424.43
446.42	423.90
446.79	423.38
447.16	422.80
447.53	422.40
447.90	420.85
448.27	419.33
448.64	417.19
449.01	415.75
449.37	413.16
449.74	410.63
450.11	407.60
450.48	404.28
450.85	400.88
451.22	397.98
451.59	395.26
451.96	392.66
452.33	389.18
452.70	385.98
453.07	382.26
453.43	378.38
453.80	374.66
454.17	371.05
454.54	367.63
454.91	363.99
455.28	360.36
455.65	357.05
456.02	353.71
456.38	350.82
456.75	347.21
457.12	344.13
457.49	341.13
457.86	338.28
458.23	335.77
458.59	333.02
458.96	330.17
459.33	327.68
459.70	325.15
460.07	323.12
460.43	320.84
460.80	318.62
461.17	316.68
461.54	314.68
461.91	312.74
462.27	310.76
462.64	309.04
463.01	307.19
463.38	305.39
463.74	303.56
464.11	302.00
464.48	300.57
464.85	299.06
465.21	297.85
465.58	296.59
465.95	295.14
466.32	293.88
466.68	292.68
467.05	291.47
467.42	290.30
467.78	289.03
468.15	287.80
468.52	286.88
468.88	285.70
469.25	284.65
469.62	283.82
469.98	282.89
470.35	282.02
470.72	281.20
471.08	280.32
471.45	279.58
471.82	278.80
472.18	277.99
472.55	277.40
472.92	276.71
473.28	276.07
473.65	275.41
474.02	274.81
474.38	274.28
474.75	273.78
475.11	273.27
475.48	272.88
475.85	272.53
476.21	272.15
476.58	271.86
476.94	271.60
477.31	271.29
477.67	271.01
478.04	270.81
478.41	270.70
478.77	270.66
479.14	270.52
479.50	270.48
479.87	270.46
480.23	270.48
480.60	270.51
480.96	270.51
481.33	270.67
481.69	270.81
482.06	270.98
482.42	271.15
482.79	271.36
483.15	271.65
483.52	272.04
483.88	272.36
484.25	272.74
484.61	273.13
484.98	273.59
485.34	274.15
485.71	274.75
486.07	275.36
486.44	275.93
486.80	276.65
487.17	277.35
487.53	278.23
487.90	279.05
488.26	279.95
488.62	281.02
488.99	282.02
489.35	283.10
489.72	284.23
490.08	285.48
490.44	286.72
490.81	288.11
491.17	289.49
491.54	291.09
491.90	292.70
492.26	294.46
492.63	296.33
492.99	298.22
493.36	300.18
493.72	302.32
494.08	304.54
494.45	306.90
494.81	309.42
495.17	311.96
495.54	314.70
495.90	317.53
496.26	320.45
496.63	323.59
496.99	326.89
497.35	330.33
497.72	333.92
498.08	337.67
498.44	341.52
498.80	345.69
499.17	349.96
499.53	354.36
499.89	359.02
500.26	363.71
500.62	368.68
500.98	373.95
501.34	379.33
501.71	384.91
502.07	390.69
502.43	396.68
502.79	402.86
503.16	409.30
503.52	416.02
503.88	422.85
504.24	429.88
504.60	437.16
504.97	444.78
505.33	452.53
505.69	460.81
506.05	469.15
506.41	477.49
506.78	486.13
507.14	495.17
507.50	504.38
507.86	513.98
508.22	523.77
508.59	533.60
508.95	543.84
509.31	554.34
509.67	565.05
510.03	576.01
510.39	587.25
510.75	598.72
511.12	610.39
511.48	622.47
511.84	634.70
512.20	647.08
512.56	659.81
512.92	672.90
513.28	686.07
513.64	699.40
514.00	713.04
514.37	726.97
514.73	740.96
515.09	754.92
515.45	769.23
515.81	783.78
516.17	798.74
516.53	813.98
516.89	829.31
517.25	844.66
517.61	860.21
517.97	875.81
518.33	891.42
518.69	907.39
519.05	923.56
519.41	939.98
519.77	956.84
520.13	973.59
520.49	990.28
520.85	1006.98
521.21	1024.05
521.57	1041.64
521.93	1058.74
522.29	1076.50
522.65	1094.36
523.01	1112.06
523.37	1129.64
523.73	1147.37
524.09	1164.95
524.45	1182.74
524.81	1200.98
525.17	1219.28
525.53	1237.86
525.89	1256.52
526.25	1274.96
526.61	1293.12
526.97	1311.55
527.33	1329.77
527.68	1348.15
528.04	1366.39
528.40	1384.79
528.76	1403.67
529.12	1422.14
529.48	1441.05
529.84	1458.85
530.20	1477.26
530.56	1496.07
530.91	1515.47
531.27	1534.21
531.63	1552.60
531.99	1571.06
532.35	1589.05
532.71	1606.97
533.07	1625.32
533.42	1643.05
533.78	1661.21
534.14	1679.58
534.50	1697.02
534.86	1714.86
535.21	1732.07
535.57	1750.04
535.93	1767.66
536.29	1784.56
536.65	1801.74
537.00	1818.45
537.36	1836.14
537.72	1852.75
538.08	1869.48
538.44	1885.35
538.79	1901.43
539.15	1917.04
539.51	1932.94
539.87	1949.42
540.22	1965.34
540.58	1981.22
540.94	1996.64
541.29	2011.64
541.65	2026.37
542.01	2041.97
542.37	2056.61
542.72	2071.27
543.08	2085.41
543.44	2100.00
543.79	2113.49
544.15	2126.64
544.51	2140.58
544.87	2153.61
545.22	2166.72
545.58	2179.05
545.94	2190.92
546.29	2202.82
546.65	2215.04
547.01	2226.56
547.36	2237.28
547.72	2247.87
548.07	2257.73
548.43	2267.99
548.79	2277.92
549.14	2287.52
549.50	2296.59
549.86	2306.12
550.21	2315.41
550.57	2324.54
550.92	2332.92
551.28	2341.82
551.64	2350.83
551.99	2359.00
552.35	2366.95
552.70	2375.04
553.06	2382.80
553.41	2391.06
553.77	2398.84
554.13	2406.69
554.48	2414.73
554.84	2422.19
555.19	2429.14
555.55	2436.12
555.90	2442.55
556.26	2449.41
556.61	2455.65
556.97	2461.70
557.32	2467.48
557.68	2473.19
558.03	2478.87
558.39	2484.13
558.74	2490.48
559.10	2495.96
559.45	2501.26
559.81	2507.16
560.16	2512.48
560.52	2517.28
560.87	2522.10
561.23	2526.26
561.58	2530.34
561.94	2534.14
562.29	2537.65
562.64	2541.84
563.00	2545.63
563.35	2550.19
563.71	2554.37
564.06	2558.97
564.42	2563.17
564.77	2567.03
565.12	2570.64
565.48	2573.72
565.83	2576.90
566.19	2579.40
566.54	2581.09
566.89	2583.40
567.25	2585.08
567.60	2587.23
567.96	2590.01
568.31	2591.69
568.66	2593.71
569.02	2595.45
569.37	2596.59
569.72	2598.43
570.08	2599.22
570.43	2600.02
570.78	2600.30
571.14	2599.48
571.49	2598.60
571.84	2598.79
572.20	2598.18
572.55	2597.54
572.90	2596.54
573.26	2595.68
573.61	2594.14
573.96	2593.00
574.31	2590.02
574.67	2587.34
575.02	2583.78
575.37	2580.34
575.72	2576.86
576.08	2573.44
576.43	2570.15
576.78	2566.52
577.13	2563.25
577.49	2560.27
577.84	2556.99
578.19	2553.21
578.54	2549.70
578.90	2545.47
579.25	2539.57
579.60	2534.41
579.95	2529.25
580.30	2523.97
580.66	2518.30
581.01	2512.98
581.36	2507.82
581.71	2503.74
582.06	2498.89
582.42	2494.32
582.77	2488.93
583.12	2483.91
583.47	2479.09
583.82	2473.81
584.17	2468.22
584.53	2462.40
584.88	2456.27
585.23	2449.99
585.58	2443.99
585.93	2437.92
586.28	2432.72
586.63	2427.29
586.98	2421.63
587.34	2416.53
587.69	2411.03
588.04	2405.58
588.39	2399.55
588.74	2392.28
589.09	2385.46
589.44	2378.06
589.79	2371.17
590.14	2364.78
590.49	2357.49
590.84	2350.30
591.19	2343.55
591.54	2336.39
591.89	2328.15
592.25	2320.59
592.60	2312.39
592.95	2304.19
593.30	2295.90
593.65	2287.38
594.00	2279.53
594.35	2271.33
594.70	2262.04
595.05	2254.07
595.40	2245.48
595.75	2236.87
596.10	2230.04
596.45	2222.40
596.80	2215.25
597.15	2207.91
597.50	2199.98
597.85	2192.47
598.19	2184.91
598.54	2176.93
598.89	2169.29
599.24	2162.58
599.59	2155.00
599.94	2147.85
600.29	2140.41
600.64	2132.82
600.99	2124.37
601.34	2116.42
601.69	2108.36
602.04	2100.55
602.39	2092.13
602.74	2084.32
603.08	2076.52
603.43	2068.50
603.78	2059.85
604.13	2051.59
604.48	2043.12
604.83	2035.12
605.18	2027.39
605.53	2018.18
605.87	2008.77
606.22	2000.30
606.57	1990.95
606.92	1982.18
607.27	1973.93
607.62	1965.89
607.96	1957.37
608.31	1949.62
608.66	1940.88
609.01	1932.20
609.36	1923.45
609.70	1913.99
610.05	1904.70
610.40	1895.78
610.75	1886.26
611.10	1877.46
611.44	1867.49
611.79	1858.01
612.14	1847.94
612.49	1837.03
612.83	1827.19
613.18	1817.59
613.53	1808.12
613.88	1798.22
614.22	1788.44
614.57	1778.13
614.92	1768.59
615.27	1759.89
615.61	1750.19
615.96	1740.72
616.31	1731.67
616.65	1722.99
617.00	1714.15
617.35	1705.16
617.70	1695.46
618.04	1685.40
618.39	1675.60
618.74	1666.75
619.08	1657.16
619.43	1648.12
619.78	1639.99
620.12	1631.61
620.47	1622.85
620.82	1613.08
621.16	1604.27
621.51	1595.46
621.85	1586.62
622.20	1576.73
622.55	1566.82
622.89	1557.57
623.24	1548.51
623.59	1539.81
623.93	1530.94
624.28	1522.54
624.62	1513.57
624.97	1505.05
625.32	1497.00
625.66	1488.78
626.01	1480.39
626.35	1471.76
626.70	1462.77
627.04	1453.72
627.39	1444.59
627.73	1435.97
628.08	1427.95
628.43	1419.52
628.77	1411.01
629.12	1402.16
629.46	1393.75
629.81	1385.00
630.15	1376.54
630.50	1367.93
630.84	1358.40
631.19	1349.19
631.53	1340.24
631.88	1331.54
632.22	1322.79
632.57	1314.33
632.91	1305.49
633.26	1296.86
633.60	1288.05
633.95	1279.58
634.29	1271.39
634.64	1263.57
634.98	1254.96
635.32	1246.63
635.67	1238.84
636.01	1231.03
636.36	1223.23
636.70	1215.56
637.05	1208.02
637.39	1200.42
637.73	1192.84
638.08	1185.93
638.42	1178.82
638.77	1171.42
639.11	1163.74
639.45	1156.11
639.80	1148.26
640.14	1140.92
640.49	1133.29
640.83	1126.11
641.17	1119.00
641.52	1111.57
641.86	1103.96
642.20	1097.11
642.55	1089.76
642.89	1082.24
643.23	1074.60
643.58	1067.90
643.92	1060.77
644.26	1053.81
644.61	1046.78
644.95	1039.86
645.29	1032.25
645.64	1024.43
645.98	1017.04
646.32	1010.14
646.66	1003.21
647.01	996.62
647.35	989.98
647.69	983.21
648.04	976.61
648.38	969.81
648.72	962.94
649.06	956.03
649.41	949.19
649.75	942.38
650.09	935.52
650.43	928.91
650.78	921.76
651.12	914.87
651.46	908.21
651.80	901.64
652.14	895.39
652.49	889.36
652.83	883.42
653.17	876.97
653.51	870.49
653.85	864.18
654.20	857.64
654.54	850.75
654.88	844.13
655.22	837.40
655.56	830.84
655.90	824.52
656.25	818.51
656.59	812.35
656.93	806.48
657.27	800.57
657.61	794.29
657.95	788.34
658.29	782.50
658.64	776.37
658.98	770.21
659.32	763.80
659.66	757.68
660.00	751.58
660.34	745.73
660.68	739.99
661.02	734.19
661.36	728.76
661.70	723.47
662.05	718.41
662.39	713.41
662.73	708.26
663.07	703.18
663.41	698.02
663.75	692.86
664.09	687.54
664.43	682.41
664.77	677.71
665.11	672.80
665.45	667.98
665.79	663.32
666.13	658.53
666.47	653.86
666.81	649.05
667.15	644.26
667.49	639.84
667.83	635.42
668.17	630.96
668.51	626.33
668.85	621.66
669.19	617.18
669.53	612.78
669.87	608.35
670.21	604.07
670.55	599.80
670.89	595.87
671.23	591.96
671.57	587.88
671.91	583.79
672.25	579.73
672.58	575.62
672.92	571.60
673.26	567.92
673.60	564.26
673.94	560.72
674.28	557.39
674.62	553.92
674.96	550.39
675.30	547.00
675.64	543.52
675.97	540.35
676.31	537.10
676.65	533.80
676.99	530.72
677.33	527.44
677.67	524.25
678.01	520.74
678.34	517.33
678.68	514.02
679.02	510.75
679.36	507.63
679.70	504.60
680.04	501.52
680.37	498.25
680.71	495.11
681.05	492.10
681.39	488.93
681.73	485.97
682.06	483.03
682.40	480.16
682.74	477.28
683.08	474.33
683.42	471.35
683.75	468.47
684.09	465.44
684.43	462.66
684.77	459.85
685.10	457.15
685.44	454.45
685.78	451.81
686.12	449.21
686.45	446.57
686.79	443.87
687.13	441.38
687.46	438.91
687.80	436.32
688.14	433.71
688.48	431.40
688.81	428.78
689.15	426.34
689.49	423.83
689.82	421.48
690.16	419.09
690.50	416.79
690.83	414.54
691.17	412.31
691.51	410.09
691.84	407.92
692.18	405.69
692.52	403.43
692.85	401.18
693.19	399.04
693.52	396.88
693.86	394.81
694.20	392.68
694.53	390.60
694.87	388.50
695.21	386.49
695.54	384.36
695.88	382.35
696.21	380.31
696.55	378.38
696.88	376.37
697.22	374.43
697.56	372.53
697.89	370.62
698.23	368.75
698.56	366.87
698.90	365.07
699.23	363.18
699.57	361.38
699.90	359.60
700.24	357.77
700.58	356.07
700.91	354.36
701.25	352.69
701.58	351.07
701.92	349.49
702.25	347.88
702.59	346.31
702.92	344.80
703.26	343.27
703.59	341.78
703.93	340.39
704.26	338.95
704.60	337.48
704.93	335.98
705.26	334.50
705.60	333.12
705.93	331.78
706.27	330.53
706.60	329.26
706.94	328.01
707.27	326.71
707.61	325.42
707.94	324.14
708.27	322.83
708.61	321.57
708.94	320.35
709.28	319.19
709.61	318.04
709.94	316.91
710.28	315.72
710.61	314.54
710.95	313.29
711.28	312.21
711.61	311.13
711.95	310.06
712.28	308.96
712.61	307.80
712.95	306.67
713.28	305.66
713.61	304.65
713.95	303.64
714.28	302.65
714.61	301.67
714.95	300.75
715.28	299.78
715.61	298.83
715.95	297.86
716.28	296.89
716.61	295.94
716.95	294.98
717.28	294.14
717.61	293.31
717.94	292.47
718.28	291.53
718.61	290.64
718.94	289.86
719.27	289.13
719.61	288.41
719.94	287.64
720.27	286.78
720.60	286.05
720.94	285.34
721.27	284.64
721.60	283.99
721.93	283.26
722.27	282.64
722.60	281.99
722.93	281.34
723.26	280.74
723.59	280.11
723.93	279.48
724.26	278.84
724.59	278.22
724.92	277.59
725.25	277.07
725.59	276.50
725.92	275.93
726.25	275.34
726.58	274.77
726.91	274.22
727.24	273.73
727.57	273.13
727.91	272.56
728.24	272.01
728.57	271.41
728.90	270.92
729.23	270.33
729.56	269.80
729.89	269.26
730.22	268.69
730.55	268.14
730.89	267.62
731.22	267.11
731.55	266.58
731.88	266.08
732.21	265.58
732.54	265.10
732.87	264.58
733.20	264.14
733.53	263.71
733.86	263.31
734.19	262.84
734.52	262.44
734.85	262.04
735.18	261.61
735.51	261.16
735.84	260.72
736.17	260.35
736.50	259.90
736.83	259.60
737.16	259.20
737.49	258.84
737.82	258.43
738.15	258.03
738.48	257.64
738.81	257.30
739.14	256.91
739.47	256.55
739.80	256.21
740.13	255.85
740.46	255.46
740.79	255.06
741.12	254.71
741.45	254.36
741.78	253.96
742.11	253.63
742.44	253.28
742.77	252.92
743.10	252.55
743.43	252.23
743.75	251.83
744.08	251.64
744.41	251.30
744.74	250.96
745.07	250.63
745.40	250.35
745.73	250.05
746.06	249.73
746.39	249.38
746.71	249.04
747.04	248.72
747.37	248.40
747.70	248.09
748.03	247.81
748.36	247.55
748.68	247.28
749.01	246.93
749.34	246.72
749.67	246.50
750.00	246.19
750.33	245.97
750.65	245.69
750.98	245.29
751.31	245.03
751.64	244.77
751.97	244.59
752.29	244.30
752.62	244.03
752.95	243.77
753.28	243.53
753.60	243.29
753.93	243.04
754.26	242.82
754.59	242.57
754.91	242.33
755.24	242.08
755.57	241.87
755.90	241.69
756.22	241.45
756.55	241.18
756.88	240.98
757.20	240.71
757.53	240.52
757.86	240.32
758.19	240.14
758.51	239.96
758.84	239.71
759.17	239.56
759.49	239.34
759.82	239.21
760.15	239.06
760.47	238.88
760.80	238.70
761.13	238.56
761.45	238.39
761.78	238.21
762.11	238.02
762.43	237.83
762.76	237.64
763.08	237.50
763.41	237.36
763.74	237.20
764.06	237.04
764.39	236.86
764.71	236.73
765.04	236.56
765.37	236.42
765.69	236.27
766.02	236.10
766.34	235.95
766.67	235.77
767.00	235.67
767.32	235.57
767.65	235.52
767.97	235.37
768.30	235.24
768.62	235.13
768.95	234.99
769.27	234.87
769.60	234.78
769.92	234.62
770.25	234.49
770.57	234.38
770.90	234.26
771.22	234.14
771.55	234.01
771.87	233.94
772.20	233.83
772.52	233.80
772.85	233.81
773.17	233.76
773.50	233.62
773.82	233.50
774.15	233.36
774.47	233.19
774.80	233.08
775.12	232.99
775.45	232.91
775.77	232.82
776.09	232.73
776.42	232.63
776.74	232.59
777.07	232.48
777.39	232.39
777.72	232.30
778.04	232.23
778.36	232.14
778.69	232.05
779.01	231.98
779.33	231.84
779.66	231.63
779.98	231.54
780.31	231.53
780.63	231.47
780.95	231.41
781.28	231.37
781.60	231.29
781.92	231.23
782.25	231.14
782.57	231.05
782.89	230.99
783.22	230.90
783.54	230.79
783.86	230.73
784.19	230.64
784.51	230.61
784.83	230.53
785.16	230.50
785.48	230.41
785.80	230.36
786.12	230.32
786.45	230.28
