SpectraSuite Data File
++++++++++++++++++++++++++++++++++++
Date: Fri Feb 01 15:46:02 EST 2013
User: group
Dark Spectrum Present: No
Reference Spectrum Present: No
Number of Sampled Component Spectra: 1
Spectrometers: USB2E7196
Integration Time (usec): 35000 (USB2E7196)
Spectra Averaged: 100 (USB2E7196)
Boxcar Smoothing: 10 (USB2E7196)
Correct for Electrical Dark: No (USB2E7196)
Strobe/Lamp Enabled: No (USB2E7196)
Correct for Detector Non-linearity: No (USB2E7196)
Correct for Stray Light: No (USB2E7196)
Number of Pixels in Processed Spectrum: 2048
>>>>>Begin Processed Spectral Data<<<<<
339.09	0.00
339.48	214.72
339.86	216.27
340.24	217.92
340.63	219.24
341.01	222.15
341.39	221.25
341.78	223.23
342.16	224.28
342.54	224.60
342.93	213.13
343.31	223.91
343.69	224.45
344.07	224.92
344.46	225.35
344.84	225.71
345.22	225.93
345.60	226.23
345.99	226.41
346.37	226.58
346.75	226.66
347.13	226.73
347.52	226.81
347.90	226.90
348.28	226.92
348.66	226.97
349.05	226.97
349.43	227.01
349.81	227.04
350.19	227.12
350.57	227.16
350.96	227.25
351.34	227.34
351.72	227.43
352.10	227.52
352.48	227.60
352.87	227.67
353.25	227.74
353.63	227.78
354.01	227.85
354.39	227.90
354.77	228.02
355.15	228.10
355.54	228.17
355.92	228.17
356.30	228.27
356.68	228.41
357.06	228.49
357.44	228.54
357.82	228.63
358.20	228.70
358.58	228.76
358.97	228.82
359.35	228.90
359.73	228.98
360.11	229.03
360.49	229.05
360.87	229.07
361.25	229.14
361.63	229.20
362.01	229.23
362.39	229.27
362.77	229.28
363.15	229.33
363.53	229.32
363.91	229.41
364.29	229.40
364.67	229.31
365.05	229.31
365.43	229.30
365.81	229.33
366.19	229.36
366.57	229.39
366.95	229.36
367.33	229.31
367.71	229.26
368.09	229.26
368.47	229.22
368.85	229.20
369.23	229.20
369.61	229.10
369.99	229.10
370.37	229.05
370.75	229.03
371.13	228.96
371.51	228.91
371.89	228.84
372.27	228.81
372.65	228.73
373.03	228.70
373.41	228.65
373.78	228.56
374.16	228.45
374.54	228.35
374.92	228.25
375.30	228.22
375.68	228.16
376.06	228.07
376.44	228.02
376.82	227.96
377.19	227.85
377.57	227.81
377.95	227.71
378.33	227.65
378.71	227.54
379.09	227.46
379.47	227.41
379.84	227.32
380.22	227.25
380.60	227.19
380.98	227.10
381.36	227.02
381.73	226.96
382.11	226.90
382.49	226.85
382.87	226.83
383.25	226.75
383.62	226.77
384.00	226.71
384.38	226.68
384.76	226.63
385.13	226.61
385.51	226.58
385.89	226.52
386.27	226.46
386.64	226.44
387.02	226.42
387.40	226.36
387.78	226.36
388.15	226.31
388.53	226.29
388.91	226.25
389.29	226.21
389.66	226.20
390.04	226.17
390.42	226.16
390.79	226.16
391.17	226.15
391.55	226.06
391.92	226.07
392.30	226.05
392.68	226.06
393.05	226.07
393.43	226.07
393.81	226.06
394.18	226.08
394.56	226.09
394.94	226.14
395.31	226.16
395.69	226.20
396.06	226.25
396.44	226.29
396.82	226.35
397.19	226.48
397.57	226.52
397.95	226.61
398.32	226.64
398.70	226.69
399.07	226.79
399.45	226.83
399.82	226.89
400.20	226.95
400.58	227.01
400.95	227.05
401.33	227.15
401.70	227.32
402.08	227.43
402.45	227.56
402.83	227.64
403.20	227.75
403.58	227.85
403.95	227.98
404.33	228.14
404.71	228.26
405.08	228.44
405.46	228.56
405.83	228.70
406.21	228.87
406.58	229.07
406.96	229.19
407.33	229.37
407.70	229.57
408.08	229.86
408.45	230.11
408.83	230.38
409.20	230.61
409.58	230.82
409.95	231.08
410.33	231.32
410.70	231.61
411.08	231.90
411.45	232.23
411.82	232.52
412.20	232.88
412.57	233.30
412.95	233.55
413.32	233.96
413.69	234.34
414.07	234.79
414.44	235.22
414.82	235.70
415.19	236.28
415.56	236.84
415.94	237.37
416.31	238.01
416.68	238.64
417.06	239.35
417.43	240.01
417.81	240.75
418.18	241.53
418.55	242.34
418.93	243.24
419.30	244.13
419.67	245.07
420.04	245.97
420.42	246.95
420.79	248.18
421.16	249.34
421.54	250.53
421.91	251.72
422.28	252.99
422.66	254.34
423.03	255.63
423.40	256.97
423.77	258.38
424.15	259.78
424.52	261.23
424.89	262.84
425.26	264.41
425.64	265.87
426.01	267.43
426.38	269.07
426.75	270.72
427.13	272.46
427.50	274.28
427.87	276.19
428.24	278.04
428.61	279.75
428.99	281.67
429.36	283.82
429.73	285.91
430.10	287.95
430.47	290.03
430.85	292.18
431.22	294.42
431.59	296.81
431.96	299.09
432.33	301.60
432.70	303.96
433.08	306.77
433.45	309.44
433.82	312.07
434.19	315.01
434.56	317.84
434.93	320.51
435.30	323.12
435.68	326.02
436.05	328.87
436.42	331.74
436.79	334.33
437.16	336.97
437.53	339.81
437.90	342.64
438.27	345.38
438.64	348.17
439.01	350.75
439.38	353.01
439.75	355.18
440.13	357.66
440.50	359.98
440.87	361.79
441.24	363.69
441.61	365.86
441.98	367.36
442.35	369.15
442.72	370.98
443.09	372.79
443.46	373.71
443.83	374.27
444.20	374.72
444.57	375.51
444.94	375.83
445.31	376.14
445.68	376.42
446.05	376.46
446.42	376.08
446.79	375.64
447.16	375.17
447.53	374.83
447.90	373.67
448.27	372.52
448.64	370.94
449.01	369.79
449.37	367.82
449.74	365.90
450.11	363.68
450.48	361.18
450.85	358.64
451.22	356.56
451.59	354.53
451.96	352.63
452.33	349.96
452.70	347.58
453.07	344.76
453.43	341.90
453.80	339.12
454.17	336.41
454.54	333.88
454.91	331.16
455.28	328.49
455.65	326.00
456.02	323.59
456.38	321.48
456.75	318.83
457.12	316.57
457.49	314.34
457.86	312.13
458.23	310.31
458.59	308.29
458.96	306.19
459.33	304.37
459.70	302.46
460.07	300.99
460.43	299.27
460.80	297.62
461.17	296.20
461.54	294.73
461.91	293.30
462.27	291.85
462.64	290.58
463.01	289.21
463.38	287.91
463.74	286.51
464.11	285.34
464.48	284.32
464.85	283.27
465.21	282.39
465.58	281.49
465.95	280.40
466.32	279.46
466.68	278.58
467.05	277.67
467.42	276.75
467.78	275.84
468.15	274.97
468.52	274.33
468.88	273.45
469.25	272.70
469.62	272.14
469.98	271.49
470.35	270.89
470.72	270.30
471.08	269.65
471.45	269.10
471.82	268.56
472.18	267.97
472.55	267.50
472.92	266.97
473.28	266.51
473.65	266.05
474.02	265.61
474.38	265.21
474.75	264.91
475.11	264.61
475.48	264.31
475.85	264.10
476.21	263.86
476.58	263.67
476.94	263.50
477.31	263.32
477.67	263.16
478.04	263.05
478.41	263.01
478.77	263.05
479.14	263.02
479.50	263.04
479.87	263.12
480.23	263.16
480.60	263.26
480.96	263.35
481.33	263.57
481.69	263.77
482.06	264.01
482.42	264.21
482.79	264.45
483.15	264.81
483.52	265.15
483.88	265.49
484.25	265.86
484.61	266.28
484.98	266.69
485.34	267.25
485.71	267.81
486.07	268.38
486.44	268.96
486.80	269.65
487.17	270.39
487.53	271.16
487.90	272.00
488.26	272.95
488.62	273.92
488.99	274.88
489.35	275.95
489.72	277.08
490.08	278.25
490.44	279.49
490.81	280.82
491.17	282.19
491.54	283.67
491.90	285.23
492.26	286.86
492.63	288.59
492.99	290.33
493.36	292.20
493.72	294.26
494.08	296.41
494.45	298.65
494.81	300.97
495.17	303.44
495.54	306.06
495.90	308.69
496.26	311.51
496.63	314.49
496.99	317.63
497.35	320.85
497.72	324.30
498.08	327.82
498.44	331.51
498.80	335.46
499.17	339.50
499.53	343.67
499.89	348.07
500.26	352.61
500.62	357.34
500.98	362.37
501.34	367.44
501.71	372.70
502.07	378.18
502.43	383.82
502.79	389.62
503.16	395.67
503.52	401.98
503.88	408.39
504.24	414.97
504.60	421.82
504.97	429.00
505.33	436.30
505.69	444.01
506.05	451.77
506.41	459.65
506.78	467.84
507.14	476.33
507.50	485.12
507.86	494.16
508.22	503.37
508.59	512.54
508.95	522.20
509.31	532.05
509.67	542.14
510.03	552.39
510.39	563.00
510.75	573.85
511.12	584.78
511.48	596.10
511.84	607.64
512.20	619.15
512.56	631.08
512.92	643.30
513.28	655.60
513.64	668.10
514.00	680.77
514.37	693.65
514.73	706.75
515.09	719.70
515.45	732.99
515.81	746.54
516.17	760.57
516.53	774.59
516.89	788.79
517.25	802.95
517.61	817.45
517.97	831.86
518.33	846.18
518.69	860.92
519.05	875.97
519.41	891.05
519.77	906.67
520.13	922.12
520.49	937.42
520.85	952.92
521.21	968.65
521.57	984.93
521.93	1000.78
522.29	1017.13
522.65	1033.41
523.01	1049.69
523.37	1065.78
523.73	1081.90
524.09	1098.05
524.45	1114.36
524.81	1131.06
525.17	1147.86
525.53	1164.81
525.89	1181.88
526.25	1198.79
526.61	1215.12
526.97	1231.90
527.33	1248.23
527.68	1264.85
528.04	1281.33
528.40	1298.00
528.76	1315.15
529.12	1331.78
529.48	1348.57
529.84	1364.54
530.20	1381.19
530.56	1398.21
530.91	1415.60
531.27	1432.41
531.63	1448.90
531.99	1465.50
532.35	1481.34
532.71	1497.16
533.07	1513.42
533.42	1529.25
533.78	1545.34
534.14	1561.64
534.50	1576.96
534.86	1592.89
535.21	1608.02
535.57	1624.03
535.93	1639.42
536.29	1654.15
536.65	1669.16
537.00	1683.98
537.36	1699.31
537.72	1713.72
538.08	1728.02
538.44	1741.73
538.79	1755.54
539.15	1769.20
539.51	1782.90
539.87	1797.41
540.22	1811.27
540.58	1825.11
540.94	1838.36
541.29	1851.23
541.65	1863.86
542.01	1877.24
542.37	1889.56
542.72	1902.16
543.08	1913.93
543.44	1926.43
543.79	1937.61
544.15	1948.52
544.51	1960.08
544.87	1971.16
545.22	1982.05
545.58	1992.29
545.94	2002.02
546.29	2012.00
546.65	2021.87
547.01	2031.03
547.36	2039.53
547.72	2047.94
548.07	2055.63
548.43	2063.82
548.79	2071.98
549.14	2079.57
549.50	2086.81
549.86	2094.47
550.21	2101.61
550.57	2108.85
550.92	2115.25
551.28	2122.14
551.64	2129.27
551.99	2135.84
552.35	2141.98
552.70	2148.22
553.06	2154.20
553.41	2160.64
553.77	2166.66
554.13	2172.73
554.48	2178.99
554.84	2184.57
555.19	2189.81
555.55	2195.10
555.90	2199.49
556.26	2204.30
556.61	2208.96
556.97	2213.21
557.32	2217.39
557.68	2221.53
558.03	2225.72
558.39	2229.57
558.74	2234.39
559.10	2238.29
559.45	2242.08
559.81	2246.40
560.16	2250.07
560.52	2253.45
560.87	2256.97
561.23	2259.65
561.58	2262.68
561.94	2265.08
562.29	2267.44
562.64	2270.11
563.00	2272.53
563.35	2276.18
563.71	2279.18
564.06	2282.47
564.42	2285.44
564.77	2287.96
565.12	2290.30
565.48	2292.22
565.83	2294.03
566.19	2295.18
566.54	2296.08
566.89	2297.07
567.25	2297.56
567.60	2298.92
567.96	2300.47
568.31	2301.19
568.66	2302.24
569.02	2302.80
569.37	2303.13
569.72	2304.02
570.08	2304.19
570.43	2304.27
570.78	2303.68
571.14	2302.24
571.49	2300.79
571.84	2300.30
572.20	2299.25
572.55	2298.26
572.90	2296.66
573.26	2295.23
573.61	2293.64
573.96	2291.86
574.31	2288.77
574.67	2285.64
575.02	2282.02
575.37	2278.72
575.72	2274.90
576.08	2271.67
576.43	2268.26
576.78	2264.56
577.13	2261.40
577.49	2258.32
577.84	2254.83
578.19	2251.14
578.54	2247.40
578.90	2243.20
579.25	2237.73
579.60	2232.73
579.95	2227.58
580.30	2222.48
580.66	2217.23
581.01	2212.29
581.36	2207.29
581.71	2203.20
582.06	2198.87
582.42	2194.44
582.77	2189.08
583.12	2184.51
583.47	2179.58
583.82	2174.52
584.17	2169.31
584.53	2163.75
584.88	2158.08
585.23	2152.40
585.58	2146.84
585.93	2141.33
586.28	2136.46
586.63	2131.42
586.98	2126.19
587.34	2121.45
587.69	2116.69
588.04	2111.51
588.39	2105.79
588.74	2099.39
589.09	2093.18
589.44	2086.25
589.79	2080.26
590.14	2074.63
590.49	2068.10
590.84	2061.87
591.19	2055.77
591.54	2049.22
591.89	2041.82
592.25	2035.00
592.60	2027.69
592.95	2020.00
593.30	2012.65
593.65	2005.07
594.00	1997.91
594.35	1990.68
594.70	1982.77
595.05	1975.41
595.40	1968.04
595.75	1960.57
596.10	1954.31
596.45	1947.53
596.80	1941.53
597.15	1934.78
597.50	1927.66
597.85	1921.12
598.19	1914.29
598.54	1907.20
598.89	1900.70
599.24	1894.82
599.59	1888.12
599.94	1881.85
600.29	1875.55
600.64	1869.03
600.99	1861.64
601.34	1854.74
601.69	1847.76
602.04	1840.75
602.39	1833.46
602.74	1826.74
603.08	1819.90
603.43	1813.09
603.78	1805.95
604.13	1798.67
604.48	1791.34
604.83	1784.41
605.18	1777.35
605.53	1769.33
605.87	1761.33
606.22	1754.04
606.57	1746.06
606.92	1738.65
607.27	1731.47
607.62	1724.54
607.96	1717.18
608.31	1710.63
608.66	1703.12
609.01	1695.46
609.36	1687.87
609.70	1679.82
610.05	1671.63
610.40	1663.95
610.75	1655.64
611.10	1647.85
611.44	1639.36
611.79	1631.34
612.14	1622.73
612.49	1613.60
612.83	1605.27
613.18	1597.12
613.53	1588.98
613.88	1580.41
614.22	1572.15
614.57	1563.51
614.92	1555.47
615.27	1547.89
615.61	1539.42
615.96	1531.23
616.31	1523.71
616.65	1516.38
617.00	1508.86
617.35	1501.20
617.70	1492.95
618.04	1484.47
618.39	1476.20
618.74	1468.74
619.08	1460.41
619.43	1452.89
619.78	1446.01
620.12	1438.81
620.47	1431.30
620.82	1423.14
621.16	1415.68
621.51	1408.11
621.85	1400.63
622.20	1392.00
622.55	1383.71
622.89	1375.92
623.24	1368.41
623.59	1361.02
623.93	1353.47
624.28	1346.24
624.62	1338.78
624.97	1331.57
625.32	1324.89
625.66	1317.90
626.01	1310.58
626.35	1303.13
626.70	1295.37
627.04	1287.70
627.39	1279.95
627.73	1272.50
628.08	1265.50
628.43	1258.17
628.77	1250.77
629.12	1243.17
629.46	1236.20
629.81	1228.83
630.15	1221.55
630.50	1214.23
630.84	1206.03
631.19	1198.08
631.53	1190.55
631.88	1183.01
632.22	1175.36
632.57	1167.91
632.91	1160.36
633.26	1152.97
633.60	1145.73
633.95	1138.59
634.29	1131.52
634.64	1124.87
634.98	1117.57
635.32	1110.55
635.67	1104.06
636.01	1097.47
636.36	1090.66
636.70	1084.14
637.05	1077.51
637.39	1071.15
637.73	1064.53
638.08	1058.71
638.42	1052.72
638.77	1046.20
639.11	1039.48
639.45	1033.11
639.80	1026.59
640.14	1020.14
640.49	1013.55
640.83	1007.14
641.17	1000.78
641.52	994.35
641.86	987.88
642.20	982.06
642.55	975.67
642.89	969.13
643.23	962.53
643.58	956.73
643.92	950.48
644.26	944.36
644.61	938.28
644.95	932.20
645.29	925.51
645.64	918.77
645.98	912.51
646.32	906.72
646.66	900.62
647.01	894.74
647.35	889.04
647.69	883.29
648.04	877.75
648.38	872.01
648.72	865.99
649.06	859.89
649.41	853.99
649.75	848.02
650.09	842.06
650.43	836.30
650.78	830.14
651.12	824.17
651.46	818.47
651.80	812.69
652.14	807.32
652.49	801.96
652.83	796.86
653.17	791.11
653.51	785.31
653.85	779.99
654.20	774.27
654.54	768.28
654.88	762.49
655.22	756.59
655.56	750.94
655.90	745.60
656.25	740.41
656.59	735.01
656.93	729.96
657.27	724.78
657.61	719.33
657.95	714.25
658.29	709.19
658.64	703.94
658.98	698.64
659.32	693.17
659.66	687.92
660.00	682.52
660.34	677.59
660.68	672.75
661.02	667.71
661.36	663.15
661.70	658.64
662.05	654.32
662.39	650.02
662.73	645.62
663.07	641.20
663.41	636.70
663.75	632.22
664.09	627.68
664.43	623.36
664.77	619.25
665.11	615.00
665.45	610.90
665.79	606.86
666.13	602.69
666.47	598.65
666.81	594.55
667.15	590.44
667.49	586.57
667.83	582.80
668.17	578.80
668.51	574.66
668.85	570.69
669.19	566.86
669.53	563.02
669.87	559.10
670.21	555.43
670.55	551.82
670.89	548.43
671.23	544.99
671.57	541.43
671.91	537.88
672.25	534.40
672.58	530.81
672.92	527.33
673.26	524.24
673.60	521.07
673.94	517.97
674.28	515.09
674.62	512.15
674.96	508.99
675.30	506.09
675.64	503.19
675.97	500.39
676.31	497.50
676.65	494.59
676.99	491.92
677.33	489.05
677.67	486.21
678.01	483.12
678.34	480.12
678.68	477.28
679.02	474.50
679.36	471.72
679.70	469.03
680.04	466.28
680.37	463.34
680.71	460.53
681.05	457.88
681.39	455.10
681.73	452.47
682.06	450.04
682.40	447.52
682.74	444.93
683.08	442.39
683.42	439.79
683.75	437.30
684.09	434.68
684.43	432.21
684.77	429.73
685.10	427.36
685.44	425.07
685.78	422.80
686.12	420.51
686.45	418.18
686.79	415.89
687.13	413.70
687.46	411.58
687.80	409.44
688.14	407.25
688.48	405.23
688.81	402.93
689.15	400.69
689.49	398.52
689.82	396.45
690.16	394.34
690.50	392.40
690.83	390.40
691.17	388.42
691.51	386.57
691.84	384.71
692.18	382.77
692.52	380.74
692.85	378.79
693.19	376.90
693.52	375.10
693.86	373.29
694.20	371.53
694.53	369.74
694.87	367.89
695.21	366.07
695.54	364.26
695.88	362.58
696.21	360.83
696.55	359.15
696.88	357.48
697.22	355.83
697.56	354.17
697.89	352.51
698.23	350.91
698.56	349.26
698.90	347.68
699.23	346.06
699.57	344.57
699.90	343.07
700.24	341.54
700.58	340.02
700.91	338.50
701.25	337.02
701.58	335.63
701.92	334.28
702.25	332.94
702.59	331.61
702.92	330.25
703.26	328.99
703.59	327.70
703.93	326.56
704.26	325.37
704.60	324.13
704.93	322.90
705.26	321.68
705.60	320.50
705.93	319.33
706.27	318.28
706.60	317.20
706.94	316.07
707.27	314.92
707.61	313.83
707.94	312.79
708.27	311.72
708.61	310.62
708.94	309.60
709.28	308.61
709.61	307.63
709.94	306.71
710.28	305.69
710.61	304.75
710.95	303.65
711.28	302.73
711.61	301.74
711.95	300.80
712.28	299.84
712.61	298.84
712.95	297.94
713.28	297.06
713.61	296.17
713.95	295.32
714.28	294.52
714.61	293.67
714.95	292.83
715.28	291.98
715.61	291.14
715.95	290.29
716.28	289.42
716.61	288.60
716.95	287.77
717.28	287.01
717.61	286.24
717.94	285.46
718.28	284.61
718.61	283.91
718.94	283.26
719.27	282.65
719.61	282.05
719.94	281.38
720.27	280.70
720.60	280.06
720.94	279.43
721.27	278.82
721.60	278.26
721.93	277.63
722.27	277.06
722.60	276.50
722.93	275.96
723.26	275.41
723.59	274.84
723.93	274.28
724.26	273.76
724.59	273.23
724.92	272.72
725.25	272.23
725.59	271.67
725.92	271.13
726.25	270.60
726.58	270.11
726.91	269.62
727.24	269.14
727.57	268.64
727.91	268.12
728.24	267.65
728.57	267.16
728.90	266.76
729.23	266.26
729.56	265.84
729.89	265.37
730.22	264.93
730.55	264.48
730.89	264.05
731.22	263.58
731.55	263.12
731.88	262.72
732.21	262.28
732.54	261.85
732.87	261.44
733.20	261.05
733.53	260.64
733.86	260.29
734.19	259.88
734.52	259.53
734.85	259.23
735.18	258.81
735.51	258.47
735.84	258.08
736.17	257.75
736.50	257.35
736.83	257.09
737.16	256.73
737.49	256.40
737.82	256.08
738.15	255.75
738.48	255.45
738.81	255.13
739.14	254.84
739.47	254.54
739.80	254.23
740.13	253.91
740.46	253.57
740.79	253.26
741.12	252.93
741.45	252.59
741.78	252.24
742.11	251.98
742.44	251.64
742.77	251.36
743.10	251.05
743.43	250.71
743.75	250.33
744.08	250.20
744.41	249.90
744.74	249.63
745.07	249.34
745.40	249.09
745.73	248.84
746.06	248.54
746.39	248.31
746.71	248.01
747.04	247.72
747.37	247.48
747.70	247.21
748.03	246.99
748.36	246.75
748.68	246.51
749.01	246.24
749.34	246.00
749.67	245.75
750.00	245.53
750.33	245.42
750.65	245.23
750.98	244.86
751.31	244.65
751.64	244.41
751.97	244.27
752.29	244.03
752.62	243.77
752.95	243.58
753.28	243.35
753.60	243.16
753.93	242.97
754.26	242.77
754.59	242.53
754.91	242.30
755.24	242.11
755.57	241.93
755.90	241.74
756.22	241.56
756.55	241.36
756.88	241.17
757.20	240.93
757.53	240.69
757.86	240.57
758.19	240.40
758.51	240.25
758.84	239.99
759.17	239.80
759.49	239.65
759.82	239.52
760.15	239.38
760.47	239.24
760.80	239.10
761.13	238.98
761.45	238.81
761.78	238.66
762.11	238.52
762.43	238.35
762.76	238.19
763.08	238.06
763.41	237.96
763.74	237.82
764.06	237.68
764.39	237.59
764.71	237.40
765.04	237.27
765.37	237.12
765.69	237.03
766.02	236.93
766.34	236.80
766.67	236.65
767.00	236.55
767.32	236.47
767.65	236.43
767.97	236.31
768.30	236.22
768.62	236.15
768.95	236.04
769.27	235.96
769.60	235.90
769.92	235.80
770.25	235.68
770.57	235.58
770.90	235.47
771.22	235.35
771.55	235.29
771.87	235.20
772.20	235.13
772.52	235.11
772.85	235.10
773.17	234.99
773.50	234.90
773.82	234.78
774.15	234.66
774.47	234.46
774.80	234.37
775.12	234.26
775.45	234.15
775.77	234.06
776.09	233.97
776.42	233.85
776.74	233.80
777.07	233.69
777.39	233.61
777.72	233.51
778.04	233.45
778.36	233.37
778.69	233.31
779.01	233.24
779.33	233.08
779.66	232.93
779.98	232.83
780.31	232.75
780.63	232.72
780.95	232.65
781.28	232.61
781.60	232.53
781.92	232.51
782.25	232.46
782.57	232.41
782.89	232.34
783.22	232.27
783.54	232.18
783.86	232.12
784.19	232.04
784.51	232.04
784.83	231.97
785.16	231.91
785.48	231.87
785.80	231.81
786.12	231.75
786.45	231.69
786.77	231.66
787.09	231.60
