SpectraSuite Data File
++++++++++++++++++++++++++++++++++++
Date: Fri Feb 01 14:58:40 EST 2013
User: group
Dark Spectrum Present: No
Reference Spectrum Present: No
Number of Sampled Component Spectra: 1
Spectrometers: USB2E7196
Integration Time (usec): 35000 (USB2E7196)
Spectra Averaged: 100 (USB2E7196)
Boxcar Smoothing: 10 (USB2E7196)
Correct for Electrical Dark: No (USB2E7196)
Strobe/Lamp Enabled: No (USB2E7196)
Correct for Detector Non-linearity: No (USB2E7196)
Correct for Stray Light: No (USB2E7196)
Number of Pixels in Processed Spectrum: 2048
>>>>>Begin Processed Spectral Data<<<<<
339.09	0.00
339.48	215.16
339.86	216.77
340.24	218.55
340.63	219.25
341.01	221.85
341.39	221.70
341.78	222.95
342.16	224.77
342.54	225.45
342.93	213.34
343.31	224.12
343.69	224.66
344.07	225.09
344.46	225.48
344.84	225.88
345.22	226.10
345.60	226.35
345.99	226.56
346.37	226.67
346.75	226.75
347.13	226.81
347.52	226.88
347.90	226.97
348.28	226.98
348.66	227.00
349.05	226.99
349.43	227.04
349.81	227.11
350.19	227.18
350.57	227.24
350.96	227.31
351.34	227.37
351.72	227.45
352.10	227.53
352.48	227.62
352.87	227.64
353.25	227.71
353.63	227.79
354.01	227.86
354.39	227.93
354.77	228.00
355.15	228.11
355.54	228.17
355.92	228.19
356.30	228.29
356.68	228.43
357.06	228.50
357.44	228.55
357.82	228.61
358.20	228.67
358.58	228.75
358.97	228.83
359.35	228.92
359.73	229.01
360.11	229.07
360.49	229.10
360.87	229.18
361.25	229.25
361.63	229.34
362.01	229.38
362.39	229.42
362.77	229.46
363.15	229.51
363.53	229.55
363.91	229.58
364.29	229.58
364.67	229.53
365.05	229.56
365.43	229.57
365.81	229.59
366.19	229.66
366.57	229.67
366.95	229.68
367.33	229.65
367.71	229.60
368.09	229.64
368.47	229.64
368.85	229.61
369.23	229.58
369.61	229.50
369.99	229.47
370.37	229.44
370.75	229.46
371.13	229.39
371.51	229.35
371.89	229.36
372.27	229.31
372.65	229.25
373.03	229.21
373.41	229.16
373.78	229.10
374.16	228.97
374.54	228.90
374.92	228.80
375.30	228.74
375.68	228.66
376.06	228.59
376.44	228.52
376.82	228.44
377.19	228.36
377.57	228.29
377.95	228.19
378.33	228.10
378.71	227.98
379.09	227.88
379.47	227.81
379.84	227.70
380.22	227.60
380.60	227.51
380.98	227.40
381.36	227.31
381.73	227.24
382.11	227.16
382.49	227.08
382.87	226.97
383.25	226.92
383.62	226.98
384.00	226.88
384.38	226.83
384.76	226.76
385.13	226.76
385.51	226.71
385.89	226.67
386.27	226.64
386.64	226.58
387.02	226.54
387.40	226.50
387.78	226.44
388.15	226.40
388.53	226.35
388.91	226.31
389.29	226.31
389.66	226.27
390.04	226.23
390.42	226.21
390.79	226.22
391.17	226.19
391.55	226.08
391.92	226.09
392.30	226.09
392.68	226.08
393.05	226.08
393.43	226.08
393.81	226.09
394.18	226.09
394.56	226.11
394.94	226.15
395.31	226.17
395.69	226.22
396.06	226.30
396.44	226.37
396.82	226.44
397.19	226.52
397.57	226.55
397.95	226.64
398.32	226.70
398.70	226.77
399.07	226.82
399.45	226.88
399.82	226.93
400.20	227.00
400.58	227.12
400.95	227.16
401.33	227.27
401.70	227.43
402.08	227.52
402.45	227.63
402.83	227.79
403.20	227.90
403.58	228.01
403.95	228.14
404.33	228.28
404.71	228.40
405.08	228.61
405.46	228.75
405.83	228.90
406.21	229.07
406.58	229.25
406.96	229.47
407.33	229.67
407.70	229.86
408.08	230.13
408.45	230.35
408.83	230.57
409.20	230.81
409.58	231.02
409.95	231.30
410.33	231.57
410.70	231.82
411.08	232.16
411.45	232.47
411.82	232.77
412.20	233.08
412.57	233.53
412.95	233.79
413.32	234.22
413.69	234.62
414.07	235.06
414.44	235.55
414.82	236.00
415.19	236.56
415.56	237.15
415.94	237.69
416.31	238.33
416.68	238.98
417.06	239.68
417.43	240.33
417.81	241.07
418.18	241.84
418.55	242.65
418.93	243.49
419.30	244.39
419.67	245.33
420.04	246.32
420.42	247.32
420.79	248.54
421.16	249.67
421.54	250.83
421.91	252.04
422.28	253.27
422.66	254.62
423.03	255.92
423.40	257.27
423.77	258.67
424.15	260.05
424.52	261.50
424.89	263.09
425.26	264.67
425.64	266.16
426.01	267.78
426.38	269.47
426.75	271.13
427.13	272.86
427.50	274.69
427.87	276.55
428.24	278.39
428.61	280.07
428.99	282.02
429.36	284.15
429.73	286.25
430.10	288.29
430.47	290.34
430.85	292.45
431.22	294.64
431.59	297.04
431.96	299.36
432.33	301.85
432.70	304.25
433.08	307.06
433.45	309.68
433.82	312.27
434.19	315.15
434.56	318.00
434.93	320.68
435.30	323.29
435.68	326.17
436.05	328.97
436.42	331.83
436.79	334.34
437.16	337.08
437.53	339.89
437.90	342.71
438.27	345.45
438.64	348.31
439.01	350.93
439.38	353.17
439.75	355.36
440.13	357.89
440.50	360.24
440.87	362.06
441.24	364.04
441.61	366.23
441.98	367.71
442.35	369.51
442.72	371.30
443.09	373.12
443.46	374.14
443.83	374.73
444.20	375.26
444.57	376.11
444.94	376.40
445.31	376.71
445.68	377.05
446.05	377.15
446.42	376.76
446.79	376.31
447.16	375.88
447.53	375.50
447.90	374.34
448.27	373.18
448.64	371.63
449.01	370.48
449.37	368.50
449.74	366.59
450.11	364.36
450.48	361.95
450.85	359.45
451.22	357.33
451.59	355.32
451.96	353.34
452.33	350.77
452.70	348.42
453.07	345.60
453.43	342.70
453.80	339.91
454.17	337.22
454.54	334.68
454.91	331.95
455.28	329.30
455.65	326.77
456.02	324.32
456.38	322.16
456.75	319.54
457.12	317.30
457.49	315.10
457.86	312.94
458.23	311.07
458.59	309.02
458.96	306.94
459.33	305.12
459.70	303.25
460.07	301.72
460.43	300.00
460.80	298.38
461.17	296.93
461.54	295.45
461.91	294.05
462.27	292.63
462.64	291.36
463.01	290.03
463.38	288.75
463.74	287.39
464.11	286.21
464.48	285.12
464.85	284.01
465.21	283.15
465.58	282.17
465.95	281.05
466.32	280.09
466.68	279.16
467.05	278.22
467.42	277.32
467.78	276.38
468.15	275.47
468.52	274.78
468.88	273.94
469.25	273.15
469.62	272.48
469.98	271.81
470.35	271.16
470.72	270.49
471.08	269.82
471.45	269.26
471.82	268.69
472.18	268.09
472.55	267.62
472.92	267.04
473.28	266.56
473.65	266.09
474.02	265.66
474.38	265.25
474.75	264.90
475.11	264.55
475.48	264.26
475.85	264.01
476.21	263.76
476.58	263.56
476.94	263.41
477.31	263.21
477.67	263.02
478.04	262.88
478.41	262.84
478.77	262.80
479.14	262.71
479.50	262.72
479.87	262.75
480.23	262.79
480.60	262.83
480.96	262.93
481.33	263.12
481.69	263.31
482.06	263.51
482.42	263.73
482.79	263.99
483.15	264.33
483.52	264.69
483.88	265.05
484.25	265.40
484.61	265.80
484.98	266.28
485.34	266.85
485.71	267.45
486.07	268.05
486.44	268.65
486.80	269.37
487.17	270.09
487.53	270.92
487.90	271.77
488.26	272.72
488.62	273.71
488.99	274.67
489.35	275.68
489.72	276.83
490.08	277.98
490.44	279.19
490.81	280.48
491.17	281.82
491.54	283.29
491.90	284.85
492.26	286.48
492.63	288.21
492.99	289.95
493.36	291.82
493.72	293.87
494.08	295.94
494.45	298.19
494.81	300.54
495.17	302.95
495.54	305.50
495.90	308.17
496.26	310.95
496.63	313.89
496.99	316.98
497.35	320.21
497.72	323.59
498.08	327.14
498.44	330.84
498.80	334.72
499.17	338.73
499.53	342.85
499.89	347.21
500.26	351.71
500.62	356.36
500.98	361.31
501.34	366.33
501.71	371.67
502.07	377.04
502.43	382.61
502.79	388.41
503.16	394.46
503.52	400.69
503.88	407.04
504.24	413.73
504.60	420.66
504.97	427.77
505.33	435.04
505.69	442.71
506.05	450.43
506.41	458.25
506.78	466.39
507.14	474.82
507.50	483.50
507.86	492.45
508.22	501.66
508.59	510.84
508.95	520.39
509.31	530.17
509.67	540.30
510.03	550.62
510.39	561.16
510.75	571.99
511.12	582.90
511.48	594.23
511.84	605.64
512.20	617.11
512.56	629.02
512.92	641.24
513.28	653.49
513.64	666.02
514.00	678.74
514.37	691.61
514.73	704.66
515.09	717.72
515.45	731.01
515.81	744.54
516.17	758.52
516.53	772.70
516.89	786.88
517.25	800.99
517.61	815.39
517.97	829.85
518.33	844.24
518.69	859.01
519.05	874.08
519.41	889.30
519.77	904.88
520.13	920.32
520.49	935.72
520.85	951.28
521.21	966.99
521.57	983.34
521.93	999.19
522.29	1015.63
522.65	1031.91
523.01	1048.17
523.37	1064.42
523.73	1080.71
524.09	1096.78
524.45	1113.17
524.81	1129.87
525.17	1146.80
525.53	1163.86
525.89	1180.78
526.25	1197.77
526.61	1214.17
526.97	1230.94
527.33	1247.51
527.68	1264.22
528.04	1280.75
528.40	1297.41
528.76	1314.59
529.12	1331.22
529.48	1348.22
529.84	1364.36
530.20	1381.07
530.56	1398.25
530.91	1415.63
531.27	1432.34
531.63	1448.89
531.99	1465.61
532.35	1481.67
532.71	1497.55
533.07	1513.75
533.42	1529.70
533.78	1545.76
534.14	1562.03
534.50	1577.41
534.86	1593.22
535.21	1608.40
535.57	1624.54
535.93	1640.06
536.29	1654.98
536.65	1670.18
537.00	1685.11
537.36	1700.47
537.72	1715.12
538.08	1729.62
538.44	1743.42
538.79	1757.58
539.15	1771.53
539.51	1785.31
539.87	1799.84
540.22	1813.75
540.58	1827.74
540.94	1841.27
541.29	1854.31
541.65	1867.16
542.01	1880.61
542.37	1893.05
542.72	1905.66
543.08	1917.35
543.44	1929.89
543.79	1941.07
544.15	1952.09
544.51	1963.59
544.87	1974.68
545.22	1985.52
545.58	1995.72
545.94	2005.64
546.29	2015.52
546.65	2025.35
547.01	2034.70
547.36	2043.46
547.72	2051.96
548.07	2059.70
548.43	2067.94
548.79	2076.07
549.14	2083.66
549.50	2090.89
549.86	2098.71
550.21	2106.06
550.57	2113.40
550.92	2119.92
551.28	2127.05
551.64	2134.08
551.99	2140.68
552.35	2146.73
552.70	2152.85
553.06	2158.78
553.41	2165.16
553.77	2171.22
554.13	2177.16
554.48	2183.10
554.84	2188.38
555.19	2193.60
555.55	2198.78
555.90	2203.06
556.26	2207.63
556.61	2212.23
556.97	2216.39
557.32	2220.38
557.68	2224.50
558.03	2228.71
558.39	2232.35
558.74	2236.89
559.10	2240.73
559.45	2244.25
559.81	2248.75
560.16	2252.43
560.52	2255.57
560.87	2258.83
561.23	2261.24
561.58	2264.24
561.94	2266.76
562.29	2269.26
562.64	2271.87
563.00	2274.47
563.35	2278.11
563.71	2281.39
564.06	2284.59
564.42	2287.30
564.77	2289.73
565.12	2291.71
565.48	2293.42
565.83	2295.13
566.19	2296.21
566.54	2297.15
566.89	2298.27
567.25	2298.57
567.60	2299.80
567.96	2301.51
568.31	2302.16
568.66	2303.07
569.02	2303.40
569.37	2303.59
569.72	2304.19
570.08	2304.06
570.43	2303.80
570.78	2302.87
571.14	2300.99
571.49	2299.40
571.84	2298.98
572.20	2297.49
572.55	2296.45
572.90	2294.76
573.26	2293.20
573.61	2291.46
573.96	2289.34
574.31	2286.23
574.67	2282.83
575.02	2278.98
575.37	2275.25
575.72	2271.27
576.08	2267.90
576.43	2264.46
576.78	2260.60
577.13	2257.29
577.49	2254.03
577.84	2250.50
578.19	2246.69
578.54	2242.89
578.90	2238.51
579.25	2232.82
579.60	2227.79
579.95	2222.61
580.30	2217.48
580.66	2212.25
581.01	2207.19
581.36	2202.19
581.71	2197.66
582.06	2193.19
582.42	2188.61
582.77	2183.40
583.12	2178.67
583.47	2173.77
583.82	2168.61
584.17	2163.39
584.53	2157.71
584.88	2152.08
585.23	2146.06
585.58	2140.47
585.93	2134.98
586.28	2130.15
586.63	2125.05
586.98	2120.07
587.34	2115.20
587.69	2110.17
588.04	2104.77
588.39	2098.83
588.74	2092.36
589.09	2086.14
589.44	2079.26
589.79	2073.27
590.14	2067.45
590.49	2060.80
590.84	2054.37
591.19	2048.12
591.54	2041.42
591.89	2033.85
592.25	2026.96
592.60	2019.82
592.95	2012.01
593.30	2004.44
593.65	1996.71
594.00	1989.61
594.35	1982.20
594.70	1974.12
595.05	1966.83
595.40	1959.59
595.75	1952.15
596.10	1945.64
596.45	1938.79
596.80	1932.58
597.15	1925.83
597.50	1918.58
597.85	1912.03
598.19	1905.31
598.54	1898.22
598.89	1891.47
599.24	1885.62
599.59	1878.78
599.94	1872.42
600.29	1866.08
600.64	1859.66
600.99	1852.13
601.34	1845.15
601.69	1838.16
602.04	1831.31
602.39	1823.83
602.74	1816.93
603.08	1810.24
603.43	1803.49
603.78	1796.26
604.13	1788.97
604.48	1781.56
604.83	1774.95
605.18	1768.02
605.53	1760.02
605.87	1752.04
606.22	1745.04
606.57	1737.20
606.92	1729.97
607.27	1722.81
607.62	1715.95
607.96	1708.54
608.31	1701.97
608.66	1694.43
609.01	1686.88
609.36	1679.26
609.70	1671.38
610.05	1663.33
610.40	1655.51
610.75	1647.20
611.10	1639.54
611.44	1631.35
611.79	1623.50
612.14	1614.65
612.49	1605.56
612.83	1597.12
613.18	1589.09
613.53	1580.94
613.88	1572.26
614.22	1563.90
614.57	1555.29
614.92	1547.12
615.27	1539.51
615.61	1531.30
615.96	1523.39
616.31	1515.82
616.65	1508.38
617.00	1500.72
617.35	1492.99
617.70	1484.60
618.04	1476.21
618.39	1468.05
618.74	1460.40
619.08	1452.11
619.43	1444.58
619.78	1437.68
620.12	1430.48
620.47	1422.85
620.82	1414.60
621.16	1407.34
621.51	1399.91
621.85	1392.38
622.20	1384.06
622.55	1375.84
622.89	1367.95
623.24	1360.32
623.59	1352.99
623.93	1345.52
624.28	1338.42
624.62	1330.91
624.97	1323.89
625.32	1317.19
625.66	1310.14
626.01	1302.92
626.35	1295.45
626.70	1287.74
627.04	1279.98
627.39	1272.30
627.73	1264.89
628.08	1258.03
628.43	1250.57
628.77	1243.08
629.12	1235.56
629.46	1228.35
629.81	1221.04
630.15	1213.86
630.50	1206.39
630.84	1198.24
631.19	1190.44
631.53	1182.99
631.88	1175.59
632.22	1167.99
632.57	1160.77
632.91	1153.40
633.26	1146.05
633.60	1138.80
633.95	1131.82
634.29	1124.92
634.64	1118.27
634.98	1111.00
635.32	1103.98
635.67	1097.68
636.01	1091.13
636.36	1084.24
636.70	1077.84
637.05	1071.32
637.39	1064.85
637.73	1058.55
638.08	1052.72
638.42	1046.75
638.77	1040.33
639.11	1033.73
639.45	1027.47
639.80	1020.77
640.14	1014.22
640.49	1007.71
640.83	1001.46
641.17	995.27
641.52	989.02
641.86	982.74
642.20	977.05
642.55	970.78
642.89	964.28
643.23	957.86
643.58	952.29
643.92	946.12
644.26	939.96
644.61	934.04
644.95	927.92
645.29	921.30
645.64	914.62
645.98	908.44
646.32	902.65
646.66	896.60
647.01	890.85
647.35	885.28
647.69	879.50
648.04	873.99
648.38	868.23
648.72	862.20
649.06	856.10
649.41	850.22
649.75	844.24
650.09	838.35
650.43	832.54
650.78	826.32
651.12	820.40
651.46	814.75
651.80	808.95
652.14	803.66
652.49	798.33
652.83	793.13
653.17	787.32
653.51	781.63
653.85	776.21
654.20	770.57
654.54	764.58
654.88	758.96
655.22	753.10
655.56	747.42
655.90	742.01
656.25	736.89
656.59	731.56
656.93	726.47
657.27	721.30
657.61	715.90
657.95	710.88
658.29	705.87
658.64	700.70
658.98	695.52
659.32	690.02
659.66	684.76
660.00	679.51
660.34	674.65
660.68	669.73
661.02	664.76
661.36	660.10
661.70	655.65
662.05	651.28
662.39	647.01
662.73	642.54
663.07	638.18
663.41	633.72
663.75	629.20
664.09	624.66
664.43	620.31
664.77	616.18
665.11	611.97
665.45	607.86
665.79	603.81
666.13	599.62
666.47	595.56
666.81	591.51
667.15	587.40
667.49	583.51
667.83	579.78
668.17	575.89
668.51	571.86
668.85	567.89
669.19	564.05
669.53	560.19
669.87	556.37
670.21	552.65
670.55	549.05
670.89	545.66
671.23	542.27
671.57	538.82
671.91	535.33
672.25	531.82
672.58	528.34
672.92	524.96
673.26	521.90
673.60	518.79
673.94	515.61
674.28	512.75
674.62	509.78
674.96	506.65
675.30	503.78
675.64	500.86
675.97	498.12
676.31	495.26
676.65	492.33
676.99	489.63
677.33	486.81
677.67	483.98
678.01	480.98
678.34	478.00
678.68	475.14
679.02	472.39
679.36	469.66
679.70	466.96
680.04	464.21
680.37	461.34
680.71	458.65
681.05	456.17
681.39	453.43
681.73	450.90
682.06	448.41
682.40	445.89
682.74	443.41
683.08	440.89
683.42	438.37
683.75	435.99
684.09	433.50
684.43	431.07
684.77	428.67
685.10	426.38
685.44	424.13
685.78	421.87
686.12	419.67
686.45	417.47
686.79	415.19
687.13	413.06
687.46	410.95
687.80	408.74
688.14	406.56
688.48	404.58
688.81	402.29
689.15	400.15
689.49	398.03
689.82	395.96
690.16	393.85
690.50	391.95
690.83	389.96
691.17	388.02
691.51	386.16
691.84	384.32
692.18	382.38
692.52	380.45
692.85	378.52
693.19	376.60
693.52	374.76
693.86	372.97
694.20	371.19
694.53	369.36
694.87	367.56
695.21	365.75
695.54	363.92
695.88	362.21
696.21	360.51
696.55	358.81
696.88	357.14
697.22	355.55
697.56	353.91
697.89	352.26
698.23	350.60
698.56	348.99
698.90	347.38
699.23	345.72
699.57	344.15
699.90	342.62
700.24	341.15
700.58	339.61
700.91	338.10
701.25	336.64
701.58	335.32
701.92	333.94
702.25	332.58
702.59	331.17
702.92	329.85
703.26	328.53
703.59	327.27
703.93	326.04
704.26	324.76
704.60	323.47
704.93	322.22
705.26	320.99
705.60	319.84
705.93	318.66
706.27	317.65
706.60	316.63
706.94	315.52
707.27	314.32
707.61	313.26
707.94	312.22
708.27	311.13
708.61	310.00
708.94	309.04
709.28	308.09
709.61	307.15
709.94	306.21
710.28	305.22
710.61	304.26
710.95	303.24
711.28	302.39
711.61	301.45
711.95	300.52
712.28	299.55
712.61	298.58
712.95	297.69
713.28	296.82
713.61	295.95
713.95	295.08
714.28	294.29
714.61	293.46
714.95	292.67
715.28	291.86
715.61	291.04
715.95	290.13
716.28	289.28
716.61	288.46
716.95	287.67
717.28	286.96
717.61	286.21
717.94	285.47
718.28	284.63
718.61	283.88
718.94	283.21
719.27	282.64
719.61	282.03
719.94	281.38
720.27	280.69
720.60	280.00
720.94	279.40
721.27	278.84
721.60	278.27
721.93	277.69
722.27	277.14
722.60	276.59
722.93	276.08
723.26	275.57
723.59	275.02
723.93	274.49
724.26	273.94
724.59	273.41
724.92	272.91
725.25	272.46
725.59	271.97
725.92	271.45
726.25	270.92
726.58	270.43
726.91	269.97
727.24	269.51
727.57	269.06
727.91	268.58
728.24	268.06
728.57	267.57
728.90	267.13
729.23	266.61
729.56	266.19
729.89	265.72
730.22	265.21
730.55	264.77
730.89	264.33
731.22	263.86
731.55	263.41
731.88	262.97
732.21	262.50
732.54	262.05
732.87	261.62
733.20	261.22
733.53	260.81
733.86	260.39
734.19	259.97
734.52	259.57
734.85	259.28
735.18	258.87
735.51	258.51
735.84	258.12
736.17	257.82
736.50	257.42
736.83	257.17
737.16	256.83
737.49	256.46
737.82	256.10
738.15	255.78
738.48	255.39
738.81	255.08
739.14	254.74
739.47	254.41
739.80	254.09
740.13	253.75
740.46	253.41
740.79	253.07
741.12	252.77
741.45	252.44
741.78	252.04
742.11	251.74
742.44	251.39
742.77	251.06
743.10	250.75
743.43	250.43
743.75	250.05
744.08	249.91
744.41	249.63
744.74	249.38
745.07	249.11
745.40	248.88
745.73	248.64
746.06	248.39
746.39	248.14
746.71	247.88
747.04	247.64
747.37	247.38
747.70	247.19
748.03	246.93
748.36	246.67
748.68	246.45
749.01	246.21
749.34	245.99
749.67	245.78
750.00	245.56
750.33	245.41
750.65	245.19
750.98	244.84
751.31	244.65
751.64	244.42
751.97	244.23
752.29	244.02
752.62	243.79
752.95	243.61
753.28	243.40
753.60	243.21
753.93	243.03
754.26	242.84
754.59	242.59
754.91	242.41
755.24	242.23
755.57	242.04
755.90	241.88
756.22	241.67
756.55	241.49
756.88	241.30
757.20	241.05
757.53	240.83
757.86	240.63
758.19	240.49
758.51	240.35
758.84	240.17
759.17	240.05
759.49	239.90
759.82	239.80
760.15	239.68
760.47	239.57
760.80	239.39
761.13	239.29
761.45	239.15
761.78	238.99
762.11	238.90
762.43	238.76
762.76	238.63
763.08	238.54
763.41	238.42
763.74	238.30
764.06	238.19
764.39	238.08
764.71	237.99
765.04	237.87
765.37	237.73
765.69	237.62
766.02	237.48
766.34	237.32
766.67	237.15
767.00	237.04
767.32	236.95
767.65	236.91
767.97	236.81
768.30	236.74
768.62	236.64
768.95	236.50
769.27	236.38
769.60	236.31
769.92	236.19
770.25	236.06
770.57	235.96
770.90	235.89
771.22	235.81
771.55	235.73
771.87	235.61
772.20	235.50
772.52	235.50
772.85	235.53
773.17	235.43
773.50	235.34
773.82	235.22
774.15	235.08
774.47	234.92
774.80	234.78
775.12	234.66
775.45	234.55
775.77	234.51
776.09	234.44
776.42	234.32
776.74	234.28
777.07	234.21
777.39	234.14
777.72	234.04
778.04	233.93
778.36	233.83
778.69	233.80
779.01	233.72
779.33	233.56
779.66	233.36
779.98	233.28
780.31	233.18
780.63	233.14
780.95	233.07
781.28	233.00
781.60	232.91
781.92	232.86
782.25	232.79
782.57	232.70
782.89	232.60
783.22	232.52
783.54	232.41
783.86	232.36
784.19	232.23
784.51	232.18
784.83	232.14
785.16	232.09
785.48	231.95
785.80	231.89
786.12	231.80
786.45	231.73
786.77	231.71
787.09	231.67
