SpectraSuite Data File
++++++++++++++++++++++++++++++++++++
Date: Fri Feb 01 17:48:28 EST 2013
User: group
Dark Spectrum Present: No
Reference Spectrum Present: No
Number of Sampled Component Spectra: 1
Spectrometers: USB2E7196
Integration Time (usec): 35000 (USB2E7196)
Spectra Averaged: 100 (USB2E7196)
Boxcar Smoothing: 10 (USB2E7196)
Correct for Electrical Dark: No (USB2E7196)
Strobe/Lamp Enabled: No (USB2E7196)
Correct for Detector Non-linearity: No (USB2E7196)
Correct for Stray Light: No (USB2E7196)
Number of Pixels in Processed Spectrum: 2048
>>>>>Begin Processed Spectral Data<<<<<
339.09	0.00
339.48	212.60
339.86	214.52
340.24	215.57
340.63	216.74
341.01	219.56
341.39	219.65
341.78	220.80
342.16	221.97
342.54	222.58
342.93	211.02
343.31	221.67
343.69	222.23
344.07	222.65
344.46	223.06
344.84	223.44
345.22	223.66
345.60	223.90
345.99	224.09
346.37	224.23
346.75	224.33
347.13	224.38
347.52	224.41
347.90	224.46
348.28	224.53
348.66	224.55
349.05	224.55
349.43	224.61
349.81	224.65
350.19	224.70
350.57	224.76
350.96	224.84
351.34	224.96
351.72	225.02
352.10	225.16
352.48	225.23
352.87	225.30
353.25	225.40
353.63	225.47
354.01	225.56
354.39	225.63
354.77	225.70
355.15	225.80
355.54	225.85
355.92	225.92
356.30	225.99
356.68	226.13
357.06	226.21
357.44	226.24
357.82	226.29
358.20	226.37
358.58	226.44
358.97	226.53
359.35	226.58
359.73	226.67
360.11	226.70
360.49	226.75
360.87	226.80
361.25	226.86
361.63	226.91
362.01	226.96
362.39	227.01
362.77	227.08
363.15	227.13
363.53	227.16
363.91	227.20
364.29	227.24
364.67	227.18
365.05	227.21
365.43	227.26
365.81	227.29
366.19	227.36
366.57	227.40
366.95	227.40
367.33	227.36
367.71	227.38
368.09	227.40
368.47	227.42
368.85	227.42
369.23	227.43
369.61	227.39
369.99	227.37
370.37	227.36
370.75	227.38
371.13	227.33
371.51	227.33
371.89	227.30
372.27	227.26
372.65	227.23
373.03	227.20
373.41	227.16
373.78	227.13
374.16	227.03
374.54	226.94
374.92	226.88
375.30	226.83
375.68	226.74
376.06	226.67
376.44	226.60
376.82	226.51
377.19	226.43
377.57	226.40
377.95	226.30
378.33	226.22
378.71	226.11
379.09	226.06
379.47	226.00
379.84	225.90
380.22	225.84
380.60	225.76
380.98	225.67
381.36	225.61
381.73	225.55
382.11	225.50
382.49	225.45
382.87	225.40
383.25	225.35
383.62	225.43
384.00	225.36
384.38	225.29
384.76	225.27
385.13	225.25
385.51	225.18
385.89	225.13
386.27	225.10
386.64	225.07
387.02	225.03
387.40	225.00
387.78	224.95
388.15	224.87
388.53	224.83
388.91	224.79
389.29	224.74
389.66	224.70
390.04	224.63
390.42	224.64
390.79	224.64
391.17	224.62
391.55	224.51
391.92	224.50
392.30	224.51
392.68	224.48
393.05	224.46
393.43	224.47
393.81	224.48
394.18	224.46
394.56	224.45
394.94	224.46
395.31	224.45
395.69	224.53
396.06	224.63
396.44	224.67
396.82	224.69
397.19	224.78
397.57	224.82
397.95	224.88
398.32	224.88
398.70	224.90
399.07	224.95
399.45	224.95
399.82	225.00
400.20	225.03
400.58	225.14
400.95	225.16
401.33	225.25
401.70	225.38
402.08	225.47
402.45	225.56
402.83	225.70
403.20	225.79
403.58	225.89
403.95	225.97
404.33	226.08
404.71	226.21
405.08	226.40
405.46	226.52
405.83	226.68
406.21	226.85
406.58	227.08
406.96	227.29
407.33	227.49
407.70	227.75
408.08	228.08
408.45	228.32
408.83	228.62
409.20	228.87
409.58	229.10
409.95	229.41
410.33	229.75
410.70	230.02
411.08	230.41
411.45	230.78
411.82	231.15
412.20	231.61
412.57	232.12
412.95	232.48
413.32	233.03
413.69	233.54
414.07	234.08
414.44	234.66
414.82	235.25
415.19	235.97
415.56	236.68
415.94	237.38
416.31	238.17
416.68	238.97
417.06	239.91
417.43	240.78
417.81	241.75
418.18	242.76
418.55	243.82
418.93	244.95
419.30	246.10
419.67	247.34
420.04	248.56
420.42	249.86
420.79	251.41
421.16	252.89
421.54	254.43
421.91	256.05
422.28	257.68
422.66	259.39
423.03	261.04
423.40	262.75
423.77	264.59
424.15	266.44
424.52	268.34
424.89	270.38
425.26	272.43
425.64	274.35
426.01	276.41
426.38	278.62
426.75	280.76
427.13	282.99
427.50	285.31
427.87	287.77
428.24	290.20
428.61	292.49
428.99	294.98
429.36	297.69
429.73	300.32
430.10	302.93
430.47	305.61
430.85	308.35
431.22	311.25
431.59	314.33
431.96	317.22
432.33	320.49
432.70	323.57
433.08	327.23
433.45	330.63
433.82	333.99
434.19	337.73
434.56	341.39
434.93	344.81
435.30	348.25
435.68	351.95
436.05	355.60
436.42	359.23
436.79	362.51
437.16	366.00
437.53	369.69
437.90	373.31
438.27	376.89
438.64	380.55
439.01	383.88
439.38	386.77
439.75	389.64
440.13	392.84
440.50	395.90
440.87	398.26
441.24	400.81
441.61	403.63
441.98	405.52
442.35	407.87
442.72	410.33
443.09	412.64
443.46	413.97
443.83	414.81
444.20	415.45
444.57	416.53
444.94	416.96
445.31	417.40
445.68	417.79
446.05	417.88
446.42	417.44
446.79	416.96
447.16	416.42
447.53	415.99
447.90	414.50
448.27	412.96
448.64	410.87
449.01	409.38
449.37	406.79
449.74	404.38
450.11	401.45
450.48	398.23
450.85	394.98
451.22	392.21
451.59	389.52
451.96	386.99
452.33	383.62
452.70	380.55
453.07	376.91
453.43	373.26
453.80	369.66
454.17	366.18
454.54	362.83
454.91	359.29
455.28	355.81
455.65	352.60
456.02	349.40
456.38	346.65
456.75	343.18
457.12	340.29
457.49	337.37
457.86	334.56
458.23	332.15
458.59	329.50
458.96	326.77
459.33	324.34
459.70	321.91
460.07	319.96
460.43	317.68
460.80	315.54
461.17	313.61
461.54	311.66
461.91	309.78
462.27	307.89
462.64	306.27
463.01	304.50
463.38	302.80
463.74	301.04
464.11	299.51
464.48	298.16
464.85	296.70
465.21	295.58
465.58	294.38
465.95	292.97
466.32	291.76
466.68	290.57
467.05	289.38
467.42	288.23
467.78	287.00
468.15	285.88
468.52	285.02
468.88	283.92
469.25	282.91
469.62	282.10
469.98	281.25
470.35	280.40
470.72	279.59
471.08	278.73
471.45	278.02
471.82	277.29
472.18	276.50
472.55	275.92
472.92	275.22
473.28	274.62
473.65	274.01
474.02	273.41
474.38	272.93
474.75	272.48
475.11	272.03
475.48	271.63
475.85	271.32
476.21	270.98
476.58	270.73
476.94	270.51
477.31	270.22
477.67	269.96
478.04	269.76
478.41	269.63
478.77	269.59
479.14	269.46
479.50	269.43
479.87	269.47
480.23	269.48
480.60	269.46
480.96	269.49
481.33	269.66
481.69	269.79
482.06	269.96
482.42	270.10
482.79	270.26
483.15	270.61
483.52	270.94
483.88	271.25
484.25	271.59
484.61	271.99
484.98	272.43
485.34	272.97
485.71	273.56
486.07	274.17
486.44	274.73
486.80	275.43
487.17	276.18
487.53	277.00
487.90	277.85
488.26	278.87
488.62	279.89
488.99	280.89
489.35	281.98
489.72	283.10
490.08	284.40
490.44	285.69
490.81	287.03
491.17	288.45
491.54	289.97
491.90	291.52
492.26	293.19
492.63	295.01
492.99	296.87
493.36	298.83
493.72	300.99
494.08	303.17
494.45	305.54
494.81	307.99
495.17	310.52
495.54	313.23
495.90	316.00
496.26	318.95
496.63	322.04
496.99	325.29
497.35	328.68
497.72	332.19
498.08	335.88
498.44	339.72
498.80	343.84
499.17	348.08
499.53	352.48
499.89	357.09
500.26	361.81
500.62	366.68
500.98	371.89
501.34	377.19
501.71	382.77
502.07	388.45
502.43	394.36
502.79	400.47
503.16	406.86
503.52	413.46
503.88	420.13
504.24	427.09
504.60	434.29
504.97	441.79
505.33	449.49
505.69	457.59
506.05	465.83
506.41	474.05
506.78	482.65
507.14	491.52
507.50	500.66
507.86	510.12
508.22	519.80
508.59	529.51
508.95	539.56
509.31	549.87
509.67	560.49
510.03	571.35
510.39	582.48
510.75	593.81
511.12	605.39
511.48	617.40
511.84	629.51
512.20	641.69
512.56	654.37
512.92	667.27
513.28	680.43
513.64	693.61
514.00	707.16
514.37	720.88
514.73	734.81
515.09	748.65
515.45	762.72
515.81	777.21
516.17	792.08
516.53	807.16
516.89	822.32
517.25	837.48
517.61	852.75
517.97	868.16
518.33	883.62
518.69	899.35
519.05	915.31
519.41	931.58
519.77	948.27
520.13	964.77
520.49	981.23
520.85	997.58
521.21	1014.32
521.57	1031.68
521.93	1048.54
522.29	1066.07
522.65	1083.63
523.01	1101.16
523.37	1118.43
523.73	1135.86
524.09	1153.24
524.45	1170.85
524.81	1188.87
525.17	1207.01
525.53	1225.28
525.89	1243.56
526.25	1261.76
526.61	1279.52
526.97	1297.72
527.33	1315.54
527.68	1333.49
528.04	1351.48
528.40	1369.64
528.76	1388.26
529.12	1406.38
529.48	1424.83
529.84	1442.45
530.20	1460.51
530.56	1479.04
530.91	1498.08
531.27	1516.51
531.63	1534.61
531.99	1552.80
532.35	1570.37
532.71	1588.04
533.07	1606.03
533.42	1623.68
533.78	1641.46
534.14	1659.53
534.50	1676.55
534.86	1694.31
535.21	1711.42
535.57	1729.09
535.93	1746.31
536.29	1762.85
536.65	1779.59
537.00	1796.09
537.36	1813.21
537.72	1829.54
538.08	1845.98
538.44	1861.51
538.79	1877.25
539.15	1892.65
539.51	1908.20
539.87	1924.31
540.22	1939.73
540.58	1955.26
540.94	1970.41
541.29	1985.05
541.65	1999.52
542.01	2014.57
542.37	2028.59
542.72	2042.76
543.08	2056.41
543.44	2070.71
543.79	2083.91
544.15	2096.77
544.51	2110.36
544.87	2123.05
545.22	2135.87
545.58	2147.89
545.94	2159.47
546.29	2171.13
546.65	2182.92
547.01	2194.03
547.36	2204.64
547.72	2215.05
548.07	2224.75
548.43	2234.61
548.79	2244.38
549.14	2253.76
549.50	2262.68
549.86	2272.08
550.21	2281.03
550.57	2290.05
550.92	2298.33
551.28	2306.97
551.64	2315.81
551.99	2323.95
552.35	2331.70
552.70	2339.43
553.06	2346.96
553.41	2354.94
553.77	2362.45
554.13	2369.98
554.48	2377.83
554.84	2385.10
555.19	2391.85
555.55	2398.48
555.90	2404.28
556.26	2410.86
556.61	2416.95
556.97	2423.00
557.32	2428.60
557.68	2434.24
558.03	2439.74
558.39	2444.71
558.74	2450.99
559.10	2456.21
559.45	2461.20
559.81	2466.94
560.16	2472.16
560.52	2476.76
560.87	2481.32
561.23	2485.23
561.58	2489.32
561.94	2492.96
562.29	2496.23
562.64	2500.14
563.00	2503.90
563.35	2508.75
563.71	2513.00
564.06	2517.45
564.42	2521.30
564.77	2525.06
565.12	2528.47
565.48	2531.59
565.83	2534.82
566.19	2537.00
566.54	2538.79
566.89	2540.88
567.25	2542.49
567.60	2544.60
567.96	2547.14
568.31	2548.91
568.66	2551.02
569.02	2552.53
569.37	2553.64
569.72	2555.24
570.08	2556.10
570.43	2556.80
570.78	2557.00
571.14	2555.91
571.49	2554.97
571.84	2555.31
572.20	2554.75
572.55	2554.28
572.90	2552.91
573.26	2551.91
573.61	2550.51
573.96	2549.30
574.31	2546.61
574.67	2543.88
575.02	2540.38
575.37	2537.14
575.72	2533.65
576.08	2530.25
576.43	2527.02
576.78	2523.63
577.13	2520.60
577.49	2517.47
577.84	2514.15
578.19	2510.31
578.54	2506.95
578.90	2502.85
579.25	2497.00
579.60	2491.77
579.95	2486.59
580.30	2481.46
580.66	2475.85
581.01	2470.72
581.36	2465.45
581.71	2461.30
582.06	2456.77
582.42	2452.24
582.77	2446.82
583.12	2442.06
583.47	2437.27
583.82	2432.15
584.17	2426.40
584.53	2420.56
584.88	2414.71
585.23	2408.56
585.58	2402.57
585.93	2396.65
586.28	2391.38
586.63	2386.01
586.98	2380.55
587.34	2375.37
587.69	2370.14
588.04	2364.78
588.39	2358.76
588.74	2351.75
589.09	2344.86
589.44	2337.28
589.79	2330.59
590.14	2324.29
590.49	2316.97
590.84	2309.86
591.19	2303.17
591.54	2296.00
591.89	2288.09
592.25	2280.66
592.60	2272.72
592.95	2264.57
593.30	2256.31
593.65	2247.94
594.00	2240.09
594.35	2232.14
594.70	2223.32
595.05	2215.43
595.40	2207.13
595.75	2198.74
596.10	2191.93
596.45	2184.58
596.80	2177.75
597.15	2170.36
597.50	2162.66
597.85	2155.39
598.19	2148.05
598.54	2140.16
598.89	2132.75
599.24	2126.02
599.59	2118.74
599.94	2111.68
600.29	2104.55
600.64	2097.17
600.99	2088.76
601.34	2081.10
601.69	2073.11
602.04	2065.43
602.39	2057.07
602.74	2049.35
603.08	2041.70
603.43	2033.94
603.78	2025.47
604.13	2017.28
604.48	2009.27
604.83	2001.34
605.18	1993.68
605.53	1984.75
605.87	1975.58
606.22	1967.41
606.57	1958.26
606.92	1949.50
607.27	1941.52
607.62	1933.62
607.96	1925.27
608.31	1917.88
608.66	1909.25
609.01	1900.72
609.36	1892.05
609.70	1883.02
610.05	1873.91
610.40	1865.09
610.75	1855.60
611.10	1846.95
611.44	1837.25
611.79	1828.03
612.14	1818.03
612.49	1807.40
612.83	1797.63
613.18	1788.29
613.53	1778.92
613.88	1769.28
614.22	1759.93
614.57	1749.87
614.92	1740.67
615.27	1732.10
615.61	1722.53
615.96	1713.29
616.31	1704.52
616.65	1695.99
617.00	1687.23
617.35	1678.21
617.70	1668.73
618.04	1659.02
618.39	1649.42
618.74	1640.77
619.08	1631.09
619.43	1622.39
619.78	1614.46
620.12	1606.21
620.47	1597.71
620.82	1588.28
621.16	1579.66
621.51	1570.86
621.85	1562.04
622.20	1552.24
622.55	1542.56
622.89	1533.49
623.24	1524.65
623.59	1515.99
623.93	1507.36
624.28	1499.05
624.62	1490.48
624.97	1482.19
625.32	1474.36
625.66	1466.32
626.01	1458.10
626.35	1449.68
626.70	1440.83
627.04	1431.90
627.39	1422.99
627.73	1414.35
628.08	1406.46
628.43	1398.13
628.77	1389.68
629.12	1381.01
629.46	1372.75
629.81	1364.12
630.15	1355.80
630.50	1347.41
630.84	1338.07
631.19	1328.89
631.53	1320.16
631.88	1311.46
632.22	1302.71
632.57	1294.28
632.91	1285.58
633.26	1277.12
633.60	1268.52
633.95	1260.30
634.29	1252.20
634.64	1244.48
634.98	1236.04
635.32	1227.71
635.67	1220.05
636.01	1212.53
636.36	1204.89
636.70	1197.37
637.05	1190.04
637.39	1182.64
637.73	1175.09
638.08	1168.35
638.42	1161.46
638.77	1154.08
639.11	1146.64
639.45	1139.39
639.80	1131.82
640.14	1124.60
640.49	1117.05
640.83	1109.86
641.17	1102.90
641.52	1095.75
641.86	1088.29
642.20	1081.61
642.55	1074.45
642.89	1067.12
643.23	1059.56
643.58	1052.94
643.92	1045.97
644.26	1039.04
644.61	1032.12
644.95	1025.24
645.29	1017.75
645.64	1010.09
645.98	1002.93
646.32	996.19
646.66	989.25
647.01	982.73
647.35	976.24
647.69	969.58
648.04	963.39
648.38	956.71
648.72	949.88
649.06	943.12
649.41	936.38
649.75	929.70
650.09	922.92
650.43	916.42
650.78	909.39
651.12	902.59
651.46	896.00
651.80	889.55
652.14	883.41
652.49	877.42
652.83	871.63
653.17	865.19
653.51	858.75
653.85	852.63
654.20	846.20
654.54	839.38
654.88	832.83
655.22	826.08
655.56	819.63
655.90	813.33
656.25	807.46
656.59	801.39
656.93	795.64
657.27	789.82
657.61	783.61
657.95	777.87
658.29	772.09
658.64	766.12
658.98	760.13
659.32	753.97
659.66	748.01
660.00	742.00
660.34	736.36
660.68	730.81
661.02	725.05
661.36	719.69
661.70	714.60
662.05	709.64
662.39	704.76
662.73	699.68
663.07	694.87
663.41	689.75
663.75	684.76
664.09	679.49
664.43	674.56
664.77	669.92
665.11	665.07
665.45	660.36
665.79	655.82
666.13	651.15
666.47	646.52
666.81	641.82
667.15	637.12
667.49	632.76
667.83	628.37
668.17	623.98
668.51	619.41
668.85	614.77
669.19	610.45
669.53	606.15
669.87	601.82
670.21	597.58
670.55	593.44
670.89	589.56
671.23	585.81
671.57	581.79
671.91	577.79
672.25	573.82
672.58	569.84
672.92	565.98
673.26	562.36
673.60	558.79
673.94	555.28
674.28	552.02
674.62	548.66
674.96	545.17
675.30	541.92
675.64	538.67
675.97	535.63
676.31	532.37
676.65	529.09
676.99	525.99
677.33	522.79
677.67	519.62
678.01	516.16
678.34	512.74
678.68	509.51
679.02	506.35
679.36	503.23
679.70	500.27
680.04	497.12
680.37	493.93
680.71	490.75
681.05	487.82
681.39	484.75
681.73	481.74
682.06	478.96
682.40	476.08
682.74	473.22
683.08	470.25
683.42	467.33
683.75	464.49
684.09	461.63
684.43	458.81
684.77	456.05
685.10	453.45
685.44	450.81
685.78	448.23
686.12	445.63
686.45	443.02
686.79	440.32
687.13	437.89
687.46	435.38
687.80	432.95
688.14	430.34
688.48	427.98
688.81	425.41
689.15	422.90
689.49	420.43
689.82	417.95
690.16	415.63
690.50	413.38
690.83	411.13
691.17	408.87
691.51	406.67
691.84	404.52
692.18	402.30
692.52	400.12
692.85	397.87
693.19	395.70
693.52	393.60
693.86	391.51
694.20	389.40
694.53	387.39
694.87	385.26
695.21	383.24
695.54	381.15
695.88	379.19
696.21	377.22
696.55	375.32
696.88	373.40
697.22	371.49
697.56	369.60
697.89	367.75
698.23	365.92
698.56	364.05
698.90	362.30
699.23	360.41
699.57	358.61
699.90	356.90
700.24	355.16
700.58	353.43
700.91	351.76
701.25	350.10
701.58	348.50
701.92	346.97
702.25	345.42
702.59	343.88
702.92	342.38
703.26	340.91
703.59	339.44
703.93	338.14
704.26	336.75
704.60	335.30
704.93	333.84
705.26	332.37
705.60	331.07
705.93	329.70
706.27	328.49
706.60	327.31
706.94	326.04
707.27	324.75
707.61	323.55
707.94	322.37
708.27	321.17
708.61	319.93
708.94	318.77
709.28	317.64
709.61	316.52
709.94	315.41
710.28	314.21
710.61	313.11
710.95	311.88
711.28	310.85
711.61	309.79
711.95	308.77
712.28	307.71
712.61	306.62
712.95	305.60
713.28	304.60
713.61	303.54
713.95	302.60
714.28	301.63
714.61	300.63
714.95	299.67
715.28	298.68
715.61	297.72
715.95	296.77
716.28	295.78
716.61	294.85
716.95	293.95
717.28	293.16
717.61	292.25
717.94	291.42
718.28	290.51
718.61	289.65
718.94	288.85
719.27	288.13
719.61	287.37
719.94	286.61
720.27	285.80
720.60	285.08
720.94	284.31
721.27	283.62
721.60	282.96
721.93	282.25
722.27	281.66
722.60	281.05
722.93	280.38
723.26	279.79
723.59	279.20
723.93	278.57
724.26	277.89
724.59	277.28
724.92	276.67
725.25	276.09
725.59	275.51
725.92	274.91
726.25	274.35
726.58	273.81
726.91	273.23
727.24	272.72
727.57	272.18
727.91	271.61
728.24	271.12
728.57	270.61
728.90	270.13
729.23	269.55
729.56	269.04
729.89	268.50
730.22	267.96
730.55	267.41
730.89	266.89
731.22	266.40
731.55	265.95
731.88	265.47
732.21	265.01
732.54	264.54
732.87	264.08
733.20	263.61
733.53	263.13
733.86	262.71
734.19	262.23
734.52	261.79
734.85	261.44
735.18	260.97
735.51	260.50
735.84	260.07
736.17	259.68
736.50	259.20
736.83	258.93
737.16	258.55
737.49	258.16
737.82	257.80
738.15	257.44
738.48	257.01
738.81	256.60
739.14	256.21
739.47	255.89
739.80	255.55
740.13	255.20
740.46	254.84
740.79	254.45
741.12	254.11
741.45	253.76
741.78	253.35
742.11	253.03
742.44	252.69
742.77	252.36
743.10	252.02
743.43	251.70
743.75	251.30
744.08	251.12
744.41	250.81
744.74	250.50
745.07	250.17
745.40	249.88
745.73	249.63
746.06	249.31
746.39	248.97
746.71	248.63
747.04	248.30
747.37	248.02
747.70	247.73
748.03	247.42
748.36	247.15
748.68	246.87
749.01	246.56
749.34	246.28
749.67	246.03
750.00	245.76
750.33	245.55
750.65	245.30
750.98	244.89
751.31	244.60
751.64	244.37
751.97	244.17
752.29	243.96
752.62	243.69
752.95	243.44
753.28	243.18
753.60	242.96
753.93	242.77
754.26	242.56
754.59	242.32
754.91	242.10
755.24	241.85
755.57	241.64
755.90	241.42
756.22	241.22
756.55	240.99
756.88	240.78
757.20	240.54
757.53	240.29
757.86	240.11
758.19	239.99
758.51	239.79
758.84	239.57
759.17	239.36
759.49	239.17
759.82	239.06
760.15	238.92
760.47	238.79
760.80	238.59
761.13	238.40
761.45	238.21
761.78	238.03
762.11	237.89
762.43	237.73
762.76	237.58
763.08	237.44
763.41	237.30
763.74	237.16
764.06	236.97
764.39	236.83
764.71	236.67
765.04	236.49
765.37	236.33
765.69	236.17
766.02	236.05
766.34	235.90
766.67	235.74
767.00	235.62
767.32	235.52
767.65	235.43
767.97	235.33
768.30	235.24
768.62	235.11
768.95	234.97
769.27	234.87
769.60	234.75
769.92	234.56
770.25	234.43
770.57	234.28
770.90	234.19
771.22	234.08
771.55	233.99
771.87	233.90
772.20	233.79
772.52	233.76
772.85	233.78
773.17	233.64
773.50	233.49
773.82	233.33
774.15	233.12
774.47	232.95
774.80	232.81
775.12	232.72
775.45	232.64
775.77	232.55
776.09	232.47
776.42	232.39
776.74	232.34
777.07	232.23
777.39	232.15
777.72	232.02
778.04	231.89
778.36	231.79
778.69	231.70
779.01	231.59
779.33	231.39
779.66	231.13
779.98	231.07
780.31	231.00
780.63	230.98
780.95	230.96
781.28	230.89
781.60	230.84
781.92	230.75
782.25	230.69
782.57	230.61
782.89	230.55
783.22	230.48
783.54	230.43
783.86	230.38
784.19	230.30
784.51	230.29
784.83	230.26
785.16	230.20
785.48	230.12
785.80	230.07
786.12	230.06
786.45	230.03
786.77	229.97
