SpectraSuite Data File
++++++++++++++++++++++++++++++++++++
Date: Fri Feb 01 16:01:39 EST 2013
User: group
Dark Spectrum Present: No
Reference Spectrum Present: No
Number of Sampled Component Spectra: 1
Spectrometers: USB2E7196
Integration Time (usec): 35000 (USB2E7196)
Spectra Averaged: 100 (USB2E7196)
Boxcar Smoothing: 10 (USB2E7196)
Correct for Electrical Dark: No (USB2E7196)
Strobe/Lamp Enabled: No (USB2E7196)
Correct for Detector Non-linearity: No (USB2E7196)
Correct for Stray Light: No (USB2E7196)
Number of Pixels in Processed Spectrum: 2048
>>>>>Begin Processed Spectral Data<<<<<
339.09	0.00
339.48	214.77
339.86	216.10
340.24	217.64
340.63	218.59
341.01	222.18
341.39	222.15
341.78	222.82
342.16	224.24
342.54	224.93
342.93	213.14
343.31	223.91
343.69	224.44
344.07	224.91
344.46	225.35
344.84	225.74
345.22	225.95
345.60	226.19
345.99	226.40
346.37	226.55
346.75	226.62
347.13	226.70
347.52	226.76
347.90	226.82
348.28	226.82
348.66	226.86
349.05	226.86
349.43	226.93
349.81	226.99
350.19	227.05
350.57	227.04
350.96	227.07
351.34	227.14
351.72	227.26
352.10	227.34
352.48	227.39
352.87	227.45
353.25	227.50
353.63	227.55
354.01	227.60
354.39	227.63
354.77	227.71
355.15	227.80
355.54	227.83
355.92	227.87
356.30	227.99
356.68	228.11
357.06	228.15
357.44	228.16
357.82	228.24
358.20	228.31
358.58	228.40
358.97	228.46
359.35	228.57
359.73	228.61
360.11	228.69
360.49	228.74
360.87	228.79
361.25	228.88
361.63	228.92
362.01	229.00
362.39	229.05
362.77	229.09
363.15	229.10
363.53	229.15
363.91	229.16
364.29	229.14
364.67	229.07
365.05	229.09
365.43	229.16
365.81	229.16
366.19	229.18
366.57	229.20
366.95	229.23
367.33	229.16
367.71	229.15
368.09	229.13
368.47	229.11
368.85	229.09
369.23	229.06
369.61	229.03
369.99	229.04
370.37	229.01
370.75	229.03
371.13	228.97
371.51	228.88
371.89	228.84
372.27	228.83
372.65	228.78
373.03	228.75
373.41	228.65
373.78	228.59
374.16	228.49
374.54	228.40
374.92	228.29
375.30	228.24
375.68	228.16
376.06	228.09
376.44	228.01
376.82	227.96
377.19	227.89
377.57	227.81
377.95	227.67
378.33	227.62
378.71	227.50
379.09	227.47
379.47	227.43
379.84	227.36
380.22	227.28
380.60	227.20
380.98	227.12
381.36	227.08
381.73	226.99
382.11	226.96
382.49	226.88
382.87	226.86
383.25	226.80
383.62	226.85
384.00	226.79
384.38	226.78
384.76	226.74
385.13	226.73
385.51	226.68
385.89	226.62
386.27	226.60
386.64	226.54
387.02	226.48
387.40	226.42
387.78	226.39
388.15	226.38
388.53	226.35
388.91	226.36
389.29	226.31
389.66	226.35
390.04	226.33
390.42	226.36
390.79	226.33
391.17	226.30
391.55	226.20
391.92	226.18
392.30	226.17
392.68	226.14
393.05	226.13
393.43	226.18
393.81	226.18
394.18	226.17
394.56	226.21
394.94	226.26
395.31	226.30
395.69	226.38
396.06	226.42
396.44	226.44
396.82	226.44
397.19	226.50
397.57	226.49
397.95	226.58
398.32	226.58
398.70	226.67
399.07	226.78
399.45	226.82
399.82	226.90
400.20	226.96
400.58	227.01
400.95	227.03
401.33	227.09
401.70	227.27
402.08	227.33
402.45	227.41
402.83	227.54
403.20	227.63
403.58	227.72
403.95	227.85
404.33	228.01
404.71	228.14
405.08	228.33
405.46	228.49
405.83	228.60
406.21	228.76
406.58	228.91
406.96	229.04
407.33	229.23
407.70	229.42
408.08	229.70
408.45	229.97
408.83	230.19
409.20	230.39
409.58	230.56
409.95	230.83
410.33	231.11
410.70	231.35
411.08	231.70
411.45	232.01
411.82	232.27
412.20	232.61
412.57	233.06
412.95	233.34
413.32	233.73
413.69	234.15
414.07	234.58
414.44	235.07
414.82	235.56
415.19	236.12
415.56	236.68
415.94	237.19
416.31	237.80
416.68	238.47
417.06	239.20
417.43	239.85
417.81	240.60
418.18	241.39
418.55	242.19
418.93	243.01
419.30	243.88
419.67	244.82
420.04	245.79
420.42	246.74
420.79	247.95
421.16	249.10
421.54	250.30
421.91	251.50
422.28	252.73
422.66	254.08
423.03	255.40
423.40	256.70
423.77	258.11
424.15	259.53
424.52	261.00
424.89	262.62
425.26	264.22
425.64	265.68
426.01	267.27
426.38	268.94
426.75	270.67
427.13	272.39
427.50	274.21
427.87	276.09
428.24	277.95
428.61	279.71
428.99	281.66
429.36	283.76
429.73	285.84
430.10	287.88
430.47	289.87
430.85	291.96
431.22	294.21
431.59	296.60
431.96	298.87
432.33	301.37
432.70	303.78
433.08	306.56
433.45	309.22
433.82	311.84
434.19	314.71
434.56	317.46
434.93	320.12
435.30	322.77
435.68	325.61
436.05	328.45
436.42	331.20
436.79	333.72
437.16	336.44
437.53	339.27
437.90	342.07
438.27	344.85
438.64	347.69
439.01	350.27
439.38	352.52
439.75	354.71
440.13	357.15
440.50	359.46
440.87	361.34
441.24	363.24
441.61	365.40
441.98	366.87
442.35	368.71
442.72	370.57
443.09	372.34
443.46	373.36
443.83	373.93
444.20	374.47
444.57	375.32
444.94	375.58
445.31	375.94
445.68	376.30
446.05	376.36
446.42	375.98
446.79	375.56
447.16	375.08
447.53	374.72
447.90	373.59
448.27	372.43
448.64	370.81
449.01	369.67
449.37	367.70
449.74	365.80
450.11	363.55
450.48	361.10
450.85	358.57
451.22	356.39
451.59	354.37
451.96	352.41
452.33	349.78
452.70	347.41
453.07	344.54
453.43	341.63
453.80	338.89
454.17	336.19
454.54	333.66
454.91	330.94
455.28	328.28
455.65	325.77
456.02	323.29
456.38	321.16
456.75	318.48
457.12	316.23
457.49	314.03
457.86	311.84
458.23	309.95
458.59	307.89
458.96	305.84
459.33	303.98
459.70	302.07
460.07	300.55
460.43	298.84
460.80	297.22
461.17	295.79
461.54	294.30
461.91	292.87
462.27	291.41
462.64	290.16
463.01	288.81
463.38	287.55
463.74	286.18
464.11	285.01
464.48	284.02
464.85	282.93
465.21	282.06
465.58	281.12
465.95	280.07
466.32	279.19
466.68	278.25
467.05	277.38
467.42	276.51
467.78	275.61
468.15	274.74
468.52	274.04
468.88	273.21
469.25	272.41
469.62	271.79
469.98	271.13
470.35	270.53
470.72	269.94
471.08	269.26
471.45	268.75
471.82	268.20
472.18	267.60
472.55	267.15
472.92	266.64
473.28	266.18
473.65	265.76
474.02	265.33
474.38	265.01
474.75	264.70
475.11	264.35
475.48	264.08
475.85	263.84
476.21	263.65
476.58	263.41
476.94	263.29
477.31	263.12
477.67	262.93
478.04	262.82
478.41	262.73
478.77	262.79
479.14	262.73
479.50	262.76
479.87	262.78
480.23	262.87
480.60	262.90
480.96	263.04
481.33	263.20
481.69	263.42
482.06	263.59
482.42	263.80
482.79	264.06
483.15	264.38
483.52	264.76
483.88	265.12
484.25	265.56
484.61	265.99
484.98	266.46
485.34	267.07
485.71	267.66
486.07	268.29
486.44	268.82
486.80	269.53
487.17	270.22
487.53	271.10
487.90	271.94
488.26	272.91
488.62	273.89
488.99	274.89
489.35	275.91
489.72	277.04
490.08	278.26
490.44	279.51
490.81	280.82
491.17	282.16
491.54	283.66
491.90	285.18
492.26	286.85
492.63	288.57
492.99	290.35
493.36	292.26
493.72	294.29
494.08	296.41
494.45	298.67
494.81	301.04
495.17	303.46
495.54	306.03
495.90	308.71
496.26	311.48
496.63	314.42
496.99	317.57
497.35	320.81
497.72	324.23
498.08	327.72
498.44	331.41
498.80	335.34
499.17	339.35
499.53	343.50
499.89	347.89
500.26	352.42
500.62	357.10
500.98	362.07
501.34	367.13
501.71	372.50
502.07	377.94
502.43	383.58
502.79	389.39
503.16	395.49
503.52	401.72
503.88	408.19
504.24	414.89
504.60	421.81
504.97	428.99
505.33	436.31
505.69	444.04
506.05	451.84
506.41	459.71
506.78	467.88
507.14	476.34
507.50	485.05
507.86	494.09
508.22	503.33
508.59	512.56
508.95	522.13
509.31	531.91
509.67	542.05
510.03	552.36
510.39	562.95
510.75	573.71
511.12	584.71
511.48	596.01
511.84	607.35
512.20	618.81
512.56	630.71
512.92	642.84
513.28	655.23
513.64	667.72
514.00	680.48
514.37	693.40
514.73	706.52
515.09	719.55
515.45	732.79
515.81	746.37
516.17	760.29
516.53	774.39
516.89	788.54
517.25	802.71
517.61	817.14
517.97	831.54
518.33	845.94
518.69	860.76
519.05	875.70
519.41	890.92
519.77	906.45
520.13	921.95
520.49	937.28
520.85	952.69
521.21	968.32
521.57	984.50
521.93	1000.25
522.29	1016.55
522.65	1032.83
523.01	1049.06
523.37	1065.09
523.73	1081.36
524.09	1097.39
524.45	1113.73
524.81	1130.37
525.17	1147.19
525.53	1164.16
525.89	1181.26
526.25	1198.09
526.61	1214.52
526.97	1231.27
527.33	1247.70
527.68	1264.20
528.04	1280.80
528.40	1297.30
528.76	1314.52
529.12	1331.15
529.48	1348.04
529.84	1364.08
530.20	1380.62
530.56	1397.63
530.91	1415.01
531.27	1431.61
531.63	1448.04
531.99	1464.47
532.35	1480.36
532.71	1496.15
533.07	1512.28
533.42	1528.01
533.78	1543.89
534.14	1560.08
534.50	1575.29
534.86	1591.16
535.21	1606.38
535.57	1622.28
535.93	1637.79
536.29	1652.29
536.65	1667.20
537.00	1682.03
537.36	1697.29
537.72	1711.79
538.08	1726.16
538.44	1739.83
538.79	1753.77
539.15	1767.43
539.51	1781.23
539.87	1795.47
540.22	1809.20
540.58	1822.98
540.94	1836.31
541.29	1849.15
541.65	1861.79
542.01	1875.05
542.37	1887.28
542.72	1899.66
543.08	1911.33
543.44	1923.66
543.79	1935.07
544.15	1946.05
544.51	1957.50
544.87	1968.49
545.22	1979.20
545.58	1989.28
545.94	1999.05
546.29	2008.80
546.65	2018.68
547.01	2027.95
547.36	2036.67
547.72	2045.04
548.07	2052.88
548.43	2060.83
548.79	2068.99
549.14	2076.40
549.50	2083.64
549.86	2091.26
550.21	2098.55
550.57	2105.66
550.92	2112.18
551.28	2119.19
551.64	2126.23
551.99	2132.63
552.35	2138.77
552.70	2144.97
553.06	2151.03
553.41	2157.43
553.77	2163.52
554.13	2169.63
554.48	2175.70
554.84	2181.23
555.19	2186.56
555.55	2191.76
555.90	2196.36
556.26	2201.08
556.61	2205.98
556.97	2210.44
557.32	2214.57
557.68	2218.66
558.03	2223.00
558.39	2226.73
558.74	2231.26
559.10	2235.15
559.45	2238.95
559.81	2243.24
560.16	2247.10
560.52	2250.36
560.87	2253.71
561.23	2256.31
561.58	2259.27
561.94	2261.73
562.29	2264.08
562.64	2266.74
563.00	2269.32
563.35	2272.79
563.71	2275.98
564.06	2279.12
564.42	2281.85
564.77	2284.34
565.12	2286.65
565.48	2288.41
565.83	2290.43
566.19	2291.81
566.54	2292.85
566.89	2293.89
567.25	2294.49
567.60	2295.79
567.96	2297.37
568.31	2298.18
568.66	2299.39
569.02	2299.90
569.37	2300.33
569.72	2301.17
570.08	2301.40
570.43	2301.31
570.78	2300.75
571.14	2299.28
571.49	2297.97
571.84	2297.83
572.20	2296.90
572.55	2295.81
572.90	2294.47
573.26	2293.03
573.61	2291.40
573.96	2289.47
574.31	2286.50
574.67	2283.54
575.02	2279.96
575.37	2276.62
575.72	2272.90
576.08	2269.44
576.43	2266.06
576.78	2262.39
577.13	2259.19
577.49	2256.10
577.84	2252.59
578.19	2248.95
578.54	2245.35
578.90	2241.04
579.25	2235.40
579.60	2230.34
579.95	2225.47
580.30	2220.40
580.66	2215.17
581.01	2210.13
581.36	2205.44
581.71	2201.26
582.06	2196.72
582.42	2192.36
582.77	2187.17
583.12	2182.53
583.47	2177.89
583.82	2172.89
584.17	2167.75
584.53	2162.31
584.88	2156.64
585.23	2151.06
585.58	2145.36
585.93	2139.84
586.28	2135.26
586.63	2130.33
586.98	2125.45
587.34	2120.68
587.69	2115.81
588.04	2110.54
588.39	2104.99
588.74	2098.45
589.09	2092.45
589.44	2085.64
589.79	2079.58
590.14	2073.99
590.49	2067.54
590.84	2061.15
591.19	2055.28
591.54	2048.77
591.89	2041.41
592.25	2034.49
592.60	2027.21
592.95	2019.74
593.30	2012.44
593.65	2004.81
594.00	1997.69
594.35	1990.29
594.70	1982.30
595.05	1975.13
595.40	1968.07
595.75	1960.41
596.10	1954.27
596.45	1947.50
596.80	1941.46
597.15	1934.78
597.50	1927.72
597.85	1921.41
598.19	1914.82
598.54	1907.61
598.89	1900.95
599.24	1895.14
599.59	1888.52
599.94	1882.38
600.29	1876.11
600.64	1869.59
600.99	1862.16
601.34	1855.24
601.69	1848.33
602.04	1841.47
602.39	1834.11
602.74	1827.01
603.08	1820.36
603.43	1813.39
603.78	1806.10
604.13	1798.84
604.48	1791.47
604.83	1784.54
605.18	1777.47
605.53	1769.48
605.87	1761.57
606.22	1754.37
606.57	1746.31
606.92	1739.04
607.27	1731.91
607.62	1725.07
607.96	1717.71
608.31	1711.04
608.66	1703.49
609.01	1695.92
609.36	1688.30
609.70	1680.28
610.05	1672.30
610.40	1664.51
610.75	1656.22
611.10	1648.44
611.44	1639.96
611.79	1632.11
612.14	1623.36
612.49	1614.10
612.83	1605.65
613.18	1597.54
613.53	1589.42
613.88	1580.93
614.22	1572.70
614.57	1563.98
614.92	1555.92
615.27	1548.38
615.61	1540.09
615.96	1532.03
616.31	1524.41
616.65	1516.98
617.00	1509.42
617.35	1501.82
617.70	1493.51
618.04	1485.07
618.39	1476.86
618.74	1469.32
619.08	1461.04
619.43	1453.53
619.78	1446.68
620.12	1439.43
620.47	1431.80
620.82	1423.81
621.16	1416.42
621.51	1408.83
621.85	1401.23
622.20	1392.56
622.55	1384.20
622.89	1376.33
623.24	1368.71
623.59	1361.34
623.93	1354.01
624.28	1346.73
624.62	1339.20
624.97	1332.12
625.32	1325.34
625.66	1318.39
626.01	1311.18
626.35	1303.58
626.70	1295.86
627.04	1288.10
627.39	1280.50
627.73	1273.11
628.08	1266.03
628.43	1258.68
628.77	1251.19
629.12	1243.58
629.46	1236.58
629.81	1229.16
630.15	1221.90
630.50	1214.34
630.84	1206.11
631.19	1198.12
631.53	1190.54
631.88	1182.96
632.22	1175.35
632.57	1168.07
632.91	1160.48
633.26	1153.10
633.60	1145.72
633.95	1138.66
634.29	1131.64
634.64	1124.79
634.98	1117.44
635.32	1110.22
635.67	1103.66
636.01	1097.05
636.36	1090.31
636.70	1083.75
637.05	1077.14
637.39	1070.62
637.73	1064.24
638.08	1058.38
638.42	1052.33
638.77	1045.90
639.11	1039.22
639.45	1032.80
639.80	1026.23
640.14	1019.82
640.49	1013.23
640.83	1006.92
641.17	1000.61
641.52	994.17
641.86	987.83
642.20	982.01
642.55	975.80
642.89	969.27
643.23	962.77
643.58	956.98
643.92	950.77
644.26	944.79
644.61	938.86
644.95	932.78
645.29	926.15
645.64	919.37
645.98	913.09
646.32	907.40
646.66	901.30
647.01	895.45
647.35	889.74
647.69	883.95
648.04	878.52
648.38	872.75
648.72	866.81
649.06	860.71
649.41	854.83
649.75	848.79
650.09	842.81
650.43	837.04
650.78	830.96
651.12	824.98
651.46	819.18
651.80	813.39
652.14	808.06
652.49	802.73
652.83	797.60
653.17	791.94
653.51	786.10
653.85	780.76
654.20	775.09
654.54	769.12
654.88	763.34
655.22	757.41
655.56	751.75
655.90	746.33
656.25	741.06
656.59	735.70
656.93	730.66
657.27	725.54
657.61	720.02
657.95	714.85
658.29	709.77
658.64	704.57
658.98	699.26
659.32	693.72
659.66	688.55
660.00	683.16
660.34	678.20
660.68	673.30
661.02	668.28
661.36	663.56
661.70	659.01
662.05	654.70
662.39	650.34
662.73	645.83
663.07	641.40
663.41	636.97
663.75	632.50
664.09	627.90
664.43	623.50
664.77	619.47
665.11	615.18
665.45	611.01
665.79	606.85
666.13	602.64
666.47	598.61
666.81	594.38
667.15	590.34
667.49	586.46
667.83	582.59
668.17	578.63
668.51	574.59
668.85	570.56
669.19	566.65
669.53	562.79
669.87	558.89
670.21	555.24
670.55	551.60
670.89	548.10
671.23	544.66
671.57	541.12
671.91	537.54
672.25	534.09
672.58	530.53
672.92	527.11
673.26	523.97
673.60	520.80
673.94	517.67
674.28	514.72
674.62	511.69
674.96	508.62
675.30	505.77
675.64	502.79
675.97	500.07
676.31	497.25
676.65	494.37
676.99	491.65
677.33	488.76
677.67	485.93
678.01	482.91
678.34	479.95
678.68	477.13
679.02	474.31
679.36	471.52
679.70	468.86
680.04	466.11
680.37	463.25
680.71	460.48
681.05	457.91
681.39	455.17
681.73	452.53
682.06	450.02
682.40	447.45
682.74	444.90
683.08	442.34
683.42	439.78
683.75	437.28
684.09	434.80
684.43	432.33
684.77	429.89
685.10	427.49
685.44	425.21
685.78	422.91
686.12	420.70
686.45	418.42
686.79	416.14
687.13	414.00
687.46	411.84
687.80	409.71
688.14	407.49
688.48	405.47
688.81	403.27
689.15	401.11
689.49	398.94
689.82	396.92
690.16	394.87
690.50	392.91
690.83	390.97
691.17	389.00
691.51	387.11
691.84	385.27
692.18	383.39
692.52	381.35
692.85	379.43
693.19	377.56
693.52	375.79
693.86	373.99
694.20	372.18
694.53	370.40
694.87	368.52
695.21	366.74
695.54	364.92
695.88	363.18
696.21	361.48
696.55	359.83
696.88	358.11
697.22	356.41
697.56	354.79
697.89	353.11
698.23	351.48
698.56	349.85
698.90	348.26
699.23	346.63
699.57	345.08
699.90	343.53
700.24	341.96
700.58	340.36
700.91	338.83
701.25	337.35
701.58	336.00
701.92	334.65
702.25	333.22
702.59	331.88
702.92	330.55
703.26	329.24
703.59	327.92
703.93	326.79
704.26	325.57
704.60	324.19
704.93	322.91
705.26	321.62
705.60	320.45
705.93	319.28
706.27	318.23
706.60	317.19
706.94	316.11
707.27	314.97
707.61	313.91
707.94	312.91
708.27	311.81
708.61	310.73
708.94	309.70
709.28	308.72
709.61	307.71
709.94	306.73
710.28	305.71
710.61	304.75
710.95	303.56
711.28	302.65
711.61	301.72
711.95	300.80
712.28	299.85
712.61	298.88
712.95	297.97
713.28	297.06
713.61	296.16
713.95	295.26
714.28	294.42
714.61	293.54
714.95	292.68
715.28	291.83
715.61	290.92
715.95	290.05
716.28	289.19
716.61	288.37
716.95	287.55
717.28	286.78
717.61	285.97
717.94	285.23
718.28	284.41
718.61	283.70
718.94	282.99
719.27	282.37
719.61	281.67
719.94	280.96
720.27	280.25
720.60	279.55
720.94	278.91
721.27	278.29
721.60	277.71
721.93	277.07
722.27	276.55
722.60	276.02
722.93	275.47
723.26	274.91
723.59	274.34
723.93	273.83
724.26	273.27
724.59	272.71
724.92	272.26
725.25	271.76
725.59	271.25
725.92	270.77
726.25	270.21
726.58	269.75
726.91	269.27
727.24	268.80
727.57	268.38
727.91	267.88
728.24	267.43
728.57	266.92
728.90	266.49
729.23	265.98
729.56	265.55
729.89	265.06
730.22	264.62
730.55	264.20
730.89	263.73
731.22	263.34
731.55	262.93
731.88	262.48
732.21	262.05
732.54	261.62
732.87	261.15
733.20	260.83
733.53	260.42
733.86	260.03
734.19	259.63
734.52	259.28
734.85	259.00
735.18	258.58
735.51	258.29
735.84	257.95
736.17	257.64
736.50	257.22
736.83	257.03
737.16	256.73
737.49	256.36
737.82	255.99
738.15	255.66
738.48	255.33
738.81	255.02
739.14	254.73
739.47	254.40
739.80	254.14
740.13	253.78
740.46	253.46
740.79	253.19
741.12	252.90
741.45	252.55
741.78	252.19
742.11	251.91
742.44	251.56
742.77	251.27
743.10	250.96
743.43	250.72
743.75	250.29
744.08	250.10
744.41	249.85
744.74	249.65
745.07	249.38
745.40	249.13
745.73	248.92
746.06	248.63
746.39	248.38
746.71	248.09
747.04	247.84
747.37	247.61
747.70	247.34
748.03	247.10
748.36	246.90
748.68	246.65
749.01	246.39
749.34	246.15
749.67	245.90
750.00	245.67
750.33	245.47
750.65	245.31
750.98	244.94
751.31	244.69
751.64	244.43
751.97	244.24
752.29	244.03
752.62	243.73
752.95	243.52
753.28	243.29
753.60	243.08
753.93	242.89
754.26	242.70
754.59	242.46
754.91	242.20
755.24	241.97
755.57	241.78
755.90	241.58
756.22	241.35
756.55	241.15
756.88	240.95
757.20	240.69
757.53	240.46
757.86	240.29
758.19	240.15
758.51	239.98
758.84	239.75
759.17	239.57
759.49	239.41
759.82	239.29
760.15	239.14
760.47	238.99
760.80	238.81
761.13	238.66
761.45	238.48
761.78	238.36
762.11	238.22
762.43	238.07
762.76	237.93
763.08	237.83
763.41	237.71
763.74	237.56
764.06	237.46
764.39	237.30
764.71	237.19
765.04	237.07
765.37	236.92
765.69	236.80
766.02	236.69
766.34	236.59
766.67	236.42
767.00	236.35
767.32	236.26
767.65	236.23
767.97	236.10
768.30	235.99
768.62	235.87
768.95	235.76
769.27	235.64
769.60	235.55
769.92	235.43
770.25	235.29
770.57	235.20
770.90	235.10
771.22	235.00
771.55	234.88
771.87	234.77
772.20	234.69
772.52	234.68
772.85	234.67
773.17	234.54
773.50	234.46
773.82	234.34
774.15	234.23
774.47	234.06
774.80	233.98
775.12	233.94
775.45	233.87
775.77	233.80
776.09	233.73
776.42	233.62
776.74	233.58
777.07	233.51
777.39	233.44
777.72	233.34
778.04	233.30
778.36	233.23
778.69	233.17
779.01	233.12
779.33	232.97
779.66	232.80
779.98	232.77
780.31	232.72
780.63	232.69
780.95	232.65
781.28	232.63
781.60	232.57
781.92	232.51
782.25	232.46
782.57	232.39
782.89	232.30
783.22	232.27
783.54	232.19
783.86	232.17
784.19	232.11
784.51	232.07
784.83	231.99
785.16	231.92
785.48	231.84
785.80	231.80
786.12	231.77
786.45	231.72
786.77	231.70
787.09	231.61
