SpectraSuite Data File
++++++++++++++++++++++++++++++++++++
Date: Fri Feb 01 17:29:55 EST 2013
User: group
Dark Spectrum Present: No
Reference Spectrum Present: No
Number of Sampled Component Spectra: 1
Spectrometers: USB2E7196
Integration Time (usec): 35000 (USB2E7196)
Spectra Averaged: 100 (USB2E7196)
Boxcar Smoothing: 10 (USB2E7196)
Correct for Electrical Dark: No (USB2E7196)
Strobe/Lamp Enabled: No (USB2E7196)
Correct for Detector Non-linearity: No (USB2E7196)
Correct for Stray Light: No (USB2E7196)
Number of Pixels in Processed Spectrum: 2048
>>>>>Begin Processed Spectral Data<<<<<
339.09	0.00
339.48	212.92
339.86	214.34
340.24	215.86
340.63	217.12
341.01	220.16
341.39	219.85
341.78	221.01
342.16	222.62
342.54	223.48
342.93	211.41
343.31	222.09
343.69	222.63
344.07	223.10
344.46	223.53
344.84	223.87
345.22	224.11
345.60	224.38
345.99	224.54
346.37	224.65
346.75	224.70
347.13	224.78
347.52	224.84
347.90	224.93
348.28	224.98
348.66	225.00
349.05	224.97
349.43	225.01
349.81	225.07
350.19	225.18
350.57	225.23
350.96	225.33
351.34	225.40
351.72	225.48
352.10	225.57
352.48	225.66
352.87	225.76
353.25	225.84
353.63	225.90
354.01	225.97
354.39	226.06
354.77	226.16
355.15	226.25
355.54	226.30
355.92	226.34
356.30	226.37
356.68	226.52
357.06	226.60
357.44	226.64
357.82	226.69
358.20	226.71
358.58	226.75
358.97	226.81
359.35	226.89
359.73	226.98
360.11	227.03
360.49	227.06
360.87	227.12
361.25	227.15
361.63	227.20
362.01	227.26
362.39	227.31
362.77	227.33
363.15	227.32
363.53	227.35
363.91	227.37
364.29	227.37
364.67	227.29
365.05	227.30
365.43	227.32
365.81	227.31
366.19	227.35
366.57	227.41
366.95	227.40
367.33	227.39
367.71	227.35
368.09	227.37
368.47	227.35
368.85	227.29
369.23	227.31
369.61	227.22
369.99	227.26
370.37	227.24
370.75	227.30
371.13	227.24
371.51	227.21
371.89	227.18
372.27	227.17
372.65	227.14
373.03	227.09
373.41	227.04
373.78	226.98
374.16	226.91
374.54	226.82
374.92	226.76
375.30	226.71
375.68	226.65
376.06	226.63
376.44	226.53
376.82	226.46
377.19	226.39
377.57	226.35
377.95	226.22
378.33	226.16
378.71	226.01
379.09	225.98
379.47	225.90
379.84	225.84
380.22	225.78
380.60	225.71
380.98	225.67
381.36	225.62
381.73	225.59
382.11	225.51
382.49	225.45
382.87	225.37
383.25	225.31
383.62	225.36
384.00	225.22
384.38	225.21
384.76	225.20
385.13	225.18
385.51	225.11
385.89	225.04
386.27	224.94
386.64	224.91
387.02	224.85
387.40	224.79
387.78	224.77
388.15	224.73
388.53	224.67
388.91	224.60
389.29	224.55
389.66	224.49
390.04	224.45
390.42	224.48
390.79	224.47
391.17	224.45
391.55	224.35
391.92	224.36
392.30	224.34
392.68	224.31
393.05	224.30
393.43	224.33
393.81	224.32
394.18	224.37
394.56	224.39
394.94	224.40
395.31	224.41
395.69	224.41
396.06	224.47
396.44	224.54
396.82	224.59
397.19	224.69
397.57	224.75
397.95	224.83
398.32	224.86
398.70	224.93
399.07	225.02
399.45	225.09
399.82	225.15
400.20	225.22
400.58	225.30
400.95	225.34
401.33	225.41
401.70	225.59
402.08	225.66
402.45	225.74
402.83	225.86
403.20	225.98
403.58	226.11
403.95	226.21
404.33	226.31
404.71	226.43
405.08	226.56
405.46	226.67
405.83	226.80
406.21	226.89
406.58	227.06
406.96	227.21
407.33	227.38
407.70	227.56
408.08	227.86
408.45	228.07
408.83	228.32
409.20	228.54
409.58	228.68
409.95	228.97
410.33	229.25
410.70	229.51
411.08	229.80
411.45	230.13
411.82	230.40
412.20	230.77
412.57	231.18
412.95	231.50
413.32	231.94
413.69	232.37
414.07	232.85
414.44	233.31
414.82	233.81
415.19	234.34
415.56	234.89
415.94	235.41
416.31	236.05
416.68	236.69
417.06	237.46
417.43	238.20
417.81	238.97
418.18	239.79
418.55	240.67
418.93	241.62
419.30	242.50
419.67	243.51
420.04	244.50
420.42	245.56
420.79	246.81
421.16	247.99
421.54	249.22
421.91	250.46
422.28	251.77
422.66	253.14
423.03	254.54
423.40	255.94
423.77	257.42
424.15	258.89
424.52	260.46
424.89	262.13
425.26	263.74
425.64	265.24
426.01	266.88
426.38	268.58
426.75	270.27
427.13	272.11
427.50	273.98
427.87	275.94
428.24	277.86
428.61	279.63
428.99	281.66
429.36	283.84
429.73	285.98
430.10	288.11
430.47	290.28
430.85	292.46
431.22	294.79
431.59	297.24
431.96	299.60
432.33	302.18
432.70	304.62
433.08	307.54
433.45	310.31
433.82	313.03
434.19	316.02
434.56	318.94
434.93	321.65
435.30	324.34
435.68	327.34
436.05	330.26
436.42	333.15
436.79	335.79
437.16	338.54
437.53	341.50
437.90	344.39
438.27	347.23
438.64	350.17
439.01	352.91
439.38	355.20
439.75	357.41
440.13	360.03
440.50	362.45
440.87	364.34
441.24	366.40
441.61	368.68
441.98	370.26
442.35	372.14
442.72	374.11
443.09	376.06
443.46	377.10
443.83	377.75
444.20	378.34
444.57	379.21
444.94	379.60
445.31	379.96
445.68	380.33
446.05	380.44
446.42	380.11
446.79	379.65
447.16	379.28
447.53	379.04
447.90	377.79
448.27	376.62
448.64	375.05
449.01	373.85
449.37	371.78
449.74	369.83
450.11	367.56
450.48	364.98
450.85	362.36
451.22	360.13
451.59	358.03
451.96	356.00
452.33	353.29
452.70	350.86
453.07	347.93
453.43	344.93
453.80	342.02
454.17	339.19
454.54	336.58
454.91	333.73
455.28	330.93
455.65	328.38
456.02	325.83
456.38	323.60
456.75	320.85
457.12	318.56
457.49	316.23
457.86	313.94
458.23	312.02
458.59	309.90
458.96	307.76
459.33	305.86
459.70	303.94
460.07	302.42
460.43	300.61
460.80	298.92
461.17	297.48
461.54	295.95
461.91	294.48
462.27	292.97
462.64	291.65
463.01	290.24
463.38	288.89
463.74	287.43
464.11	286.21
464.48	285.16
464.85	283.99
465.21	283.12
465.58	282.18
465.95	281.05
466.32	280.07
466.68	279.10
467.05	278.16
467.42	277.24
467.78	276.22
468.15	275.31
468.52	274.61
468.88	273.68
469.25	272.87
469.62	272.20
469.98	271.51
470.35	270.86
470.72	270.26
471.08	269.61
471.45	269.08
471.82	268.49
472.18	267.82
472.55	267.38
472.92	266.81
473.28	266.32
473.65	265.88
474.02	265.46
474.38	265.12
474.75	264.77
475.11	264.42
475.48	264.15
475.85	263.91
476.21	263.68
476.58	263.52
476.94	263.35
477.31	263.21
477.67	263.03
478.04	262.91
478.41	262.82
478.77	262.82
479.14	262.76
479.50	262.78
479.87	262.87
480.23	262.93
480.60	262.97
480.96	263.06
481.33	263.23
481.69	263.40
482.06	263.56
482.42	263.77
482.79	264.01
483.15	264.33
483.52	264.73
483.88	265.06
484.25	265.41
484.61	265.85
484.98	266.24
485.34	266.82
485.71	267.42
486.07	268.05
486.44	268.62
486.80	269.35
487.17	270.09
487.53	270.89
487.90	271.74
488.26	272.70
488.62	273.67
488.99	274.64
489.35	275.67
489.72	276.82
490.08	277.99
490.44	279.24
490.81	280.58
491.17	281.89
491.54	283.35
491.90	284.85
492.26	286.47
492.63	288.22
492.99	289.98
493.36	291.85
493.72	293.81
494.08	295.90
494.45	298.08
494.81	300.42
495.17	302.81
495.54	305.35
495.90	308.01
496.26	310.78
496.63	313.72
496.99	316.78
497.35	320.00
497.72	323.35
498.08	326.83
498.44	330.47
498.80	334.35
499.17	338.35
499.53	342.57
499.89	346.91
500.26	351.37
500.62	355.95
500.98	360.87
501.34	365.94
501.71	371.25
502.07	376.64
502.43	382.19
502.79	387.90
503.16	393.89
503.52	400.06
503.88	406.39
504.24	412.88
504.60	419.69
504.97	426.71
505.33	433.95
505.69	441.53
506.05	449.18
506.41	456.96
506.78	464.97
507.14	473.20
507.50	481.79
507.86	490.69
508.22	499.79
508.59	508.78
508.95	518.16
509.31	527.69
509.67	537.62
510.03	547.64
510.39	558.08
510.75	568.58
511.12	579.26
511.48	590.32
511.84	601.53
512.20	612.75
512.56	624.38
512.92	636.20
513.28	648.22
513.64	660.36
514.00	672.70
514.37	685.35
514.73	698.05
515.09	710.70
515.45	723.66
515.81	736.89
516.17	750.52
516.53	764.27
516.89	778.08
517.25	791.82
517.61	805.91
517.97	819.91
518.33	833.96
518.69	848.36
519.05	862.81
519.41	877.54
519.77	892.61
520.13	907.58
520.49	922.56
520.85	937.40
521.21	952.61
521.57	968.35
521.93	983.63
522.29	999.53
522.65	1015.34
523.01	1030.87
523.37	1046.41
523.73	1062.14
524.09	1077.77
524.45	1093.55
524.81	1109.73
525.17	1126.04
525.53	1142.47
525.89	1158.89
526.25	1175.22
526.61	1191.15
526.97	1207.51
527.33	1223.55
527.68	1239.70
528.04	1255.73
528.40	1271.87
528.76	1288.52
529.12	1304.70
529.48	1321.22
529.84	1336.69
530.20	1352.79
530.56	1369.36
530.91	1386.26
531.27	1402.53
531.63	1418.43
531.99	1434.57
532.35	1450.14
532.71	1465.56
533.07	1481.39
533.42	1496.91
533.78	1512.69
534.14	1528.64
534.50	1543.66
534.86	1559.11
535.21	1573.99
535.57	1589.64
535.93	1604.92
536.29	1619.37
536.65	1634.06
537.00	1648.35
537.36	1663.53
537.72	1677.75
538.08	1691.98
538.44	1705.47
538.79	1719.14
539.15	1732.52
539.51	1746.06
539.87	1760.29
540.22	1773.68
540.58	1787.16
540.94	1800.27
541.29	1812.80
541.65	1825.20
542.01	1838.12
542.37	1850.35
542.72	1862.61
543.08	1874.15
543.44	1886.38
543.79	1897.56
544.15	1908.54
544.51	1920.07
544.87	1930.96
545.22	1941.98
545.58	1952.30
545.94	1962.16
546.29	1972.06
546.65	1982.11
547.01	1991.53
547.36	2000.17
547.72	2008.97
548.07	2017.06
548.43	2025.34
548.79	2033.39
549.14	2041.39
549.50	2048.80
549.86	2056.51
550.21	2064.02
550.57	2071.50
550.92	2078.41
551.28	2085.63
551.64	2092.89
551.99	2099.67
552.35	2106.08
552.70	2112.36
553.06	2118.57
553.41	2125.19
553.77	2131.38
554.13	2137.70
554.48	2144.00
554.84	2149.91
555.19	2155.38
555.55	2160.92
555.90	2165.75
556.26	2171.07
556.61	2175.87
556.97	2180.74
557.32	2185.35
557.68	2189.76
558.03	2194.23
558.39	2198.11
558.74	2203.03
559.10	2207.36
559.45	2211.34
559.81	2215.83
560.16	2219.99
560.52	2223.64
560.87	2227.32
561.23	2230.45
561.58	2233.61
561.94	2236.60
562.29	2239.17
562.64	2242.52
563.00	2245.37
563.35	2249.15
563.71	2252.64
564.06	2256.09
564.42	2259.30
564.77	2262.29
565.12	2265.16
565.48	2267.72
565.83	2270.10
566.19	2272.01
566.54	2273.12
566.89	2274.82
567.25	2276.02
567.60	2277.54
567.96	2279.57
568.31	2280.94
568.66	2282.46
569.02	2283.59
569.37	2284.28
569.72	2285.64
570.08	2286.09
570.43	2286.59
570.78	2286.61
571.14	2285.52
571.49	2284.60
571.84	2284.50
572.20	2283.84
572.55	2283.07
572.90	2281.62
573.26	2280.56
573.61	2279.01
573.96	2277.83
574.31	2275.22
574.67	2272.47
575.02	2269.37
575.37	2266.36
575.72	2262.97
576.08	2259.95
576.43	2256.97
576.78	2253.70
577.13	2250.87
577.49	2247.82
577.84	2244.67
578.19	2241.28
578.54	2238.09
578.90	2234.51
579.25	2229.35
579.60	2224.74
579.95	2220.29
580.30	2215.76
580.66	2211.04
581.01	2206.54
581.36	2201.83
581.71	2198.14
582.06	2194.25
582.42	2190.19
582.77	2185.40
583.12	2181.15
583.47	2176.99
583.82	2172.41
584.17	2167.68
584.53	2162.45
584.88	2157.26
585.23	2151.92
585.58	2146.55
585.93	2141.35
586.28	2136.58
586.63	2132.04
586.98	2127.06
587.34	2122.48
587.69	2117.85
588.04	2113.03
588.39	2107.66
588.74	2101.57
589.09	2095.48
589.44	2089.11
589.79	2083.21
590.14	2077.75
590.49	2071.43
590.84	2065.09
591.19	2059.22
591.54	2052.92
591.89	2045.96
592.25	2039.57
592.60	2032.46
592.95	2025.19
593.30	2018.15
593.65	2010.94
594.00	2003.83
594.35	1996.94
594.70	1988.87
595.05	1981.95
595.40	1974.69
595.75	1967.33
596.10	1961.37
596.45	1954.93
596.80	1948.77
597.15	1942.34
597.50	1935.58
597.85	1929.37
598.19	1922.93
598.54	1916.13
598.89	1909.60
599.24	1903.71
599.59	1897.28
599.94	1891.21
600.29	1884.99
600.64	1878.35
600.99	1871.13
601.34	1864.61
601.69	1857.60
602.04	1851.17
602.39	1843.92
602.74	1837.18
603.08	1830.63
603.43	1823.86
603.78	1816.55
604.13	1809.30
604.48	1802.09
604.83	1795.20
605.18	1788.33
605.53	1780.39
605.87	1772.36
606.22	1765.03
606.57	1757.07
606.92	1749.38
607.27	1742.34
607.62	1735.54
607.96	1728.46
608.31	1721.88
608.66	1714.22
609.01	1706.86
609.36	1699.24
609.70	1691.10
610.05	1683.15
610.40	1675.31
610.75	1667.03
611.10	1659.28
611.44	1650.81
611.79	1642.77
612.14	1634.09
612.49	1624.79
612.83	1616.21
613.18	1608.00
613.53	1599.96
613.88	1591.41
614.22	1583.21
614.57	1574.42
614.92	1566.34
615.27	1558.72
615.61	1550.32
615.96	1542.18
616.31	1534.20
616.65	1526.72
617.00	1519.20
617.35	1511.32
617.70	1503.07
618.04	1494.54
618.39	1486.19
618.74	1478.70
619.08	1470.30
619.43	1462.61
619.78	1455.50
620.12	1448.40
620.47	1440.81
620.82	1432.44
621.16	1424.86
621.51	1417.12
621.85	1409.29
622.20	1400.58
622.55	1392.06
622.89	1384.06
623.24	1376.32
623.59	1368.86
623.93	1361.24
624.28	1353.85
624.62	1346.25
624.97	1338.96
625.32	1331.97
625.66	1324.86
626.01	1317.57
626.35	1310.17
626.70	1302.19
627.04	1294.46
627.39	1286.60
627.73	1279.12
628.08	1272.25
628.43	1264.98
628.77	1257.66
629.12	1250.20
629.46	1243.02
629.81	1235.41
630.15	1228.06
630.50	1220.63
630.84	1212.42
631.19	1204.40
631.53	1196.83
631.88	1189.26
632.22	1181.53
632.57	1174.09
632.91	1166.35
633.26	1158.78
633.60	1151.22
633.95	1143.97
634.29	1136.85
634.64	1130.03
634.98	1122.65
635.32	1115.46
635.67	1108.69
636.01	1101.89
636.36	1094.99
636.70	1088.34
637.05	1081.80
637.39	1075.33
637.73	1068.79
638.08	1062.79
638.42	1056.69
638.77	1050.17
639.11	1043.54
639.45	1037.16
639.80	1030.54
640.14	1024.35
640.49	1017.82
640.83	1011.53
641.17	1005.39
641.52	999.01
641.86	992.46
642.20	986.45
642.55	979.98
642.89	973.63
643.23	966.96
643.58	961.18
643.92	955.01
644.26	948.99
644.61	942.84
644.95	936.81
645.29	930.31
645.64	923.52
645.98	917.09
646.32	911.11
646.66	904.91
647.01	899.12
647.35	893.34
647.69	887.48
648.04	881.89
648.38	876.06
648.72	870.16
649.06	864.18
649.41	858.29
649.75	852.33
650.09	846.27
650.43	840.51
650.78	834.36
651.12	828.36
651.46	822.60
651.80	816.94
652.14	811.53
652.49	806.17
652.83	801.08
653.17	795.44
653.51	789.84
653.85	784.46
654.20	778.81
654.54	772.77
654.88	767.03
655.22	761.14
655.56	755.42
655.90	749.81
656.25	744.43
656.59	739.03
656.93	733.85
657.27	728.71
657.61	723.19
657.95	718.03
658.29	712.91
658.64	707.52
658.98	702.08
659.32	696.55
659.66	691.32
660.00	685.96
660.34	681.02
660.68	675.90
661.02	670.82
661.36	666.03
661.70	661.59
662.05	657.17
662.39	652.79
662.73	648.35
663.07	643.93
663.41	639.62
663.75	635.10
664.09	630.51
664.43	626.03
664.77	621.99
665.11	617.71
665.45	613.52
665.79	609.51
666.13	605.38
666.47	601.26
666.81	597.05
667.15	592.88
667.49	588.94
667.83	585.11
668.17	581.19
668.51	577.10
668.85	572.98
669.19	569.05
669.53	565.18
669.87	561.31
670.21	557.63
670.55	553.89
670.89	550.48
671.23	547.09
671.57	543.61
671.91	540.08
672.25	536.56
672.58	533.12
672.92	529.65
673.26	526.48
673.60	523.31
673.94	520.18
674.28	517.19
674.62	514.26
674.96	511.18
675.30	508.27
675.64	505.37
675.97	502.55
676.31	499.70
676.65	496.76
676.99	493.97
677.33	491.05
677.67	488.20
678.01	485.17
678.34	482.19
678.68	479.25
679.02	476.42
679.36	473.63
679.70	470.83
680.04	468.07
680.37	465.24
680.71	462.44
681.05	459.79
681.39	457.11
681.73	454.39
682.06	451.84
682.40	449.27
682.74	446.72
683.08	444.16
683.42	441.48
683.75	438.98
684.09	436.42
684.43	433.93
684.77	431.44
685.10	429.02
685.44	426.65
685.78	424.33
686.12	422.03
686.45	419.66
686.79	417.34
687.13	415.13
687.46	412.91
687.80	410.71
688.14	408.43
688.48	406.37
688.81	404.11
689.15	401.93
689.49	399.75
689.82	397.64
690.16	395.53
690.50	393.62
690.83	391.68
691.17	389.60
691.51	387.68
691.84	385.84
692.18	383.94
692.52	382.01
692.85	380.06
693.19	378.14
693.52	376.32
693.86	374.49
694.20	372.66
694.53	370.85
694.87	368.98
695.21	367.19
695.54	365.30
695.88	363.56
696.21	361.83
696.55	360.11
696.88	358.39
697.22	356.67
697.56	354.99
697.89	353.31
698.23	351.77
698.56	350.13
698.90	348.52
699.23	346.87
699.57	345.27
699.90	343.69
700.24	342.15
700.58	340.66
700.91	339.18
701.25	337.69
701.58	336.32
701.92	334.95
702.25	333.57
702.59	332.21
702.92	330.85
703.26	329.54
703.59	328.25
703.93	327.04
704.26	325.83
704.60	324.50
704.93	323.22
705.26	321.91
705.60	320.70
705.93	319.52
706.27	318.47
706.60	317.37
706.94	316.30
707.27	315.15
707.61	313.99
707.94	312.90
708.27	311.85
708.61	310.70
708.94	309.65
709.28	308.63
709.61	307.67
709.94	306.69
710.28	305.61
710.61	304.59
710.95	303.49
711.28	302.53
711.61	301.57
711.95	300.67
712.28	299.70
712.61	298.73
712.95	297.82
713.28	296.87
713.61	295.99
713.95	295.08
714.28	294.19
714.61	293.32
714.95	292.45
715.28	291.55
715.61	290.66
715.95	289.81
716.28	288.93
716.61	288.08
716.95	287.23
717.28	286.49
717.61	285.70
717.94	284.95
718.28	284.11
718.61	283.33
718.94	282.58
719.27	281.92
719.61	281.23
719.94	280.51
720.27	279.79
720.60	279.07
720.94	278.39
721.27	277.82
721.60	277.25
721.93	276.66
722.27	276.09
722.60	275.55
722.93	274.97
723.26	274.44
723.59	273.85
723.93	273.29
724.26	272.73
724.59	272.15
724.92	271.60
725.25	271.12
725.59	270.64
725.92	270.09
726.25	269.56
726.58	269.13
726.91	268.62
727.24	268.16
727.57	267.69
727.91	267.16
728.24	266.63
728.57	266.12
728.90	265.63
729.23	265.14
729.56	264.66
729.89	264.17
730.22	263.65
730.55	263.18
730.89	262.75
731.22	262.31
731.55	261.90
731.88	261.47
732.21	261.02
732.54	260.57
732.87	260.14
733.20	259.69
733.53	259.24
733.86	258.87
734.19	258.48
734.52	258.08
734.85	257.82
735.18	257.41
735.51	257.04
735.84	256.65
736.17	256.31
736.50	255.91
736.83	255.68
737.16	255.35
737.49	255.01
737.82	254.66
738.15	254.27
738.48	253.93
738.81	253.58
739.14	253.24
739.47	252.94
739.80	252.64
740.13	252.37
740.46	252.06
740.79	251.72
741.12	251.37
741.45	251.06
741.78	250.72
742.11	250.46
742.44	250.14
742.77	249.86
743.10	249.53
743.43	249.23
743.75	248.86
744.08	248.72
744.41	248.42
744.74	248.15
745.07	247.92
745.40	247.64
745.73	247.42
746.06	247.16
746.39	246.90
746.71	246.64
747.04	246.34
747.37	246.07
747.70	245.79
748.03	245.56
748.36	245.35
748.68	245.04
749.01	244.76
749.34	244.54
749.67	244.31
750.00	244.10
750.33	243.90
750.65	243.66
750.98	243.31
751.31	243.08
751.64	242.85
751.97	242.65
752.29	242.44
752.62	242.18
752.95	241.94
753.28	241.72
753.60	241.49
753.93	241.32
754.26	241.10
754.59	240.89
754.91	240.63
755.24	240.38
755.57	240.22
755.90	240.03
756.22	239.82
756.55	239.60
756.88	239.38
757.20	239.18
757.53	238.96
757.86	238.77
758.19	238.66
758.51	238.49
758.84	238.25
759.17	238.10
759.49	237.93
759.82	237.84
760.15	237.67
760.47	237.50
760.80	237.35
761.13	237.22
761.45	237.08
761.78	236.95
762.11	236.80
762.43	236.63
762.76	236.53
763.08	236.40
763.41	236.30
763.74	236.18
764.06	236.04
764.39	235.90
764.71	235.77
765.04	235.59
765.37	235.47
765.69	235.34
766.02	235.20
766.34	235.06
766.67	234.91
767.00	234.82
767.32	234.77
767.65	234.71
767.97	234.60
768.30	234.50
768.62	234.40
768.95	234.30
769.27	234.21
769.60	234.09
769.92	233.95
770.25	233.83
770.57	233.72
770.90	233.64
771.22	233.56
771.55	233.47
771.87	233.38
772.20	233.28
772.52	233.28
772.85	233.30
773.17	233.24
773.50	233.13
773.82	233.01
774.15	232.86
774.47	232.70
774.80	232.59
775.12	232.49
775.45	232.42
775.77	232.34
776.09	232.25
776.42	232.18
776.74	232.14
777.07	232.05
777.39	231.94
777.72	231.82
778.04	231.76
778.36	231.67
778.69	231.65
779.01	231.57
779.33	231.42
779.66	231.22
779.98	231.15
780.31	231.06
780.63	231.04
780.95	230.97
781.28	230.88
781.60	230.82
781.92	230.76
782.25	230.68
782.57	230.60
782.89	230.54
783.22	230.45
783.54	230.35
783.86	230.30
784.19	230.28
784.51	230.26
784.83	230.18
785.16	230.11
785.48	230.05
785.80	229.99
786.12	229.94
786.45	229.87
786.77	229.81
787.09	229.75
