SpectraSuite Data File
++++++++++++++++++++++++++++++++++++
Date: Fri Feb 01 15:31:49 EST 2013
User: group
Dark Spectrum Present: No
Reference Spectrum Present: No
Number of Sampled Component Spectra: 1
Spectrometers: USB2E7196
Integration Time (usec): 35000 (USB2E7196)
Spectra Averaged: 100 (USB2E7196)
Boxcar Smoothing: 10 (USB2E7196)
Correct for Electrical Dark: No (USB2E7196)
Strobe/Lamp Enabled: No (USB2E7196)
Correct for Detector Non-linearity: No (USB2E7196)
Correct for Stray Light: No (USB2E7196)
Number of Pixels in Processed Spectrum: 2048
>>>>>Begin Processed Spectral Data<<<<<
339.09	0.00
339.48	215.05
339.86	216.49
340.24	217.86
340.63	219.00
341.01	221.86
341.39	221.88
341.78	223.54
342.16	224.06
342.54	224.72
342.93	213.23
343.31	224.00
343.69	224.52
344.07	224.95
344.46	225.36
344.84	225.78
345.22	225.99
345.60	226.22
345.99	226.39
346.37	226.55
346.75	226.67
347.13	226.68
347.52	226.74
347.90	226.84
348.28	226.87
348.66	226.90
349.05	226.91
349.43	226.91
349.81	226.98
350.19	227.04
350.57	227.13
350.96	227.24
351.34	227.31
351.72	227.40
352.10	227.51
352.48	227.57
352.87	227.59
353.25	227.69
353.63	227.77
354.01	227.84
354.39	227.89
354.77	227.98
355.15	228.07
355.54	228.14
355.92	228.12
356.30	228.18
356.68	228.30
357.06	228.38
357.44	228.46
357.82	228.52
358.20	228.61
358.58	228.67
358.97	228.74
359.35	228.82
359.73	228.91
360.11	228.98
360.49	229.04
360.87	229.10
361.25	229.17
361.63	229.27
362.01	229.32
362.39	229.34
362.77	229.37
363.15	229.44
363.53	229.48
363.91	229.56
364.29	229.57
364.67	229.49
365.05	229.54
365.43	229.55
365.81	229.59
366.19	229.61
366.57	229.67
366.95	229.65
367.33	229.67
367.71	229.63
368.09	229.64
368.47	229.64
368.85	229.61
369.23	229.60
369.61	229.52
369.99	229.50
370.37	229.53
370.75	229.50
371.13	229.41
371.51	229.37
371.89	229.33
372.27	229.31
372.65	229.29
373.03	229.21
373.41	229.12
373.78	229.04
374.16	228.95
374.54	228.85
374.92	228.77
375.30	228.71
375.68	228.64
376.06	228.57
376.44	228.49
376.82	228.44
377.19	228.36
377.57	228.29
377.95	228.22
378.33	228.12
378.71	228.01
379.09	227.94
379.47	227.88
379.84	227.79
380.22	227.71
380.60	227.62
380.98	227.56
381.36	227.49
381.73	227.44
382.11	227.37
382.49	227.32
382.87	227.25
383.25	227.16
383.62	227.23
384.00	227.16
384.38	227.14
384.76	227.09
385.13	227.06
385.51	226.98
385.89	226.91
386.27	226.86
386.64	226.83
387.02	226.81
387.40	226.76
387.78	226.71
388.15	226.70
388.53	226.65
388.91	226.62
389.29	226.55
389.66	226.52
390.04	226.50
390.42	226.48
390.79	226.45
391.17	226.43
391.55	226.31
391.92	226.29
392.30	226.24
392.68	226.22
393.05	226.24
393.43	226.28
393.81	226.31
394.18	226.33
394.56	226.35
394.94	226.38
395.31	226.38
395.69	226.43
396.06	226.46
396.44	226.49
396.82	226.50
397.19	226.64
397.57	226.67
397.95	226.72
398.32	226.74
398.70	226.83
399.07	226.92
399.45	226.98
399.82	227.03
400.20	227.11
400.58	227.21
400.95	227.20
401.33	227.31
401.70	227.45
402.08	227.54
402.45	227.64
402.83	227.75
403.20	227.87
403.58	227.98
403.95	228.10
404.33	228.27
404.71	228.43
405.08	228.60
405.46	228.72
405.83	228.89
406.21	229.03
406.58	229.19
406.96	229.37
407.33	229.54
407.70	229.79
408.08	230.04
408.45	230.26
408.83	230.53
409.20	230.71
409.58	230.87
409.95	231.14
410.33	231.40
410.70	231.62
411.08	231.92
411.45	232.21
411.82	232.50
412.20	232.83
412.57	233.25
412.95	233.57
413.32	234.04
413.69	234.46
414.07	234.92
414.44	235.41
414.82	235.87
415.19	236.43
415.56	236.96
415.94	237.50
416.31	238.11
416.68	238.72
417.06	239.48
417.43	240.19
417.81	240.93
418.18	241.74
418.55	242.59
418.93	243.44
419.30	244.36
419.67	245.33
420.04	246.30
420.42	247.29
420.79	248.45
421.16	249.58
421.54	250.79
421.91	252.04
422.28	253.27
422.66	254.62
423.03	255.96
423.40	257.29
423.77	258.73
424.15	260.20
424.52	261.69
424.89	263.26
425.26	264.83
425.64	266.29
426.01	267.88
426.38	269.52
426.75	271.23
427.13	272.98
427.50	274.77
427.87	276.65
428.24	278.51
428.61	280.23
428.99	282.18
429.36	284.25
429.73	286.29
430.10	288.34
430.47	290.38
430.85	292.47
431.22	294.71
431.59	297.11
431.96	299.34
432.33	301.83
432.70	304.24
433.08	307.07
433.45	309.75
433.82	312.38
434.19	315.29
434.56	318.13
434.93	320.78
435.30	323.38
435.68	326.28
436.05	329.11
436.42	331.95
436.79	334.42
437.16	337.14
437.53	339.99
437.90	342.80
438.27	345.56
438.64	348.42
439.01	351.04
439.38	353.28
439.75	355.50
440.13	358.00
440.50	360.33
440.87	362.21
441.24	364.16
441.61	366.34
441.98	367.90
442.35	369.69
442.72	371.57
443.09	373.39
443.46	374.38
443.83	374.92
444.20	375.38
444.57	376.24
444.94	376.51
445.31	376.79
445.68	377.15
446.05	377.19
446.42	376.82
446.79	376.39
447.16	375.90
447.53	375.48
447.90	374.29
448.27	373.12
448.64	371.46
449.01	370.29
449.37	368.27
449.74	366.30
450.11	364.04
450.48	361.51
450.85	358.99
451.22	356.84
451.59	354.85
451.96	352.92
452.33	350.32
452.70	347.99
453.07	345.17
453.43	342.27
453.80	339.51
454.17	336.78
454.54	334.21
454.91	331.47
455.28	328.85
455.65	326.35
456.02	323.91
456.38	321.78
456.75	319.12
457.12	316.83
457.49	314.63
457.86	312.45
458.23	310.64
458.59	308.60
458.96	306.50
459.33	304.65
459.70	302.81
460.07	301.30
460.43	299.54
460.80	297.91
461.17	296.45
461.54	294.95
461.91	293.53
462.27	292.10
462.64	290.85
463.01	289.45
463.38	288.18
463.74	286.81
464.11	285.67
464.48	284.62
464.85	283.53
465.21	282.65
465.58	281.69
465.95	280.60
466.32	279.64
466.68	278.75
467.05	277.86
467.42	276.98
467.78	276.03
468.15	275.15
468.52	274.51
468.88	273.66
469.25	272.89
469.62	272.24
469.98	271.56
470.35	270.92
470.72	270.37
471.08	269.76
471.45	269.21
471.82	268.64
472.18	268.04
472.55	267.59
472.92	267.07
473.28	266.63
473.65	266.11
474.02	265.69
474.38	265.34
474.75	264.98
475.11	264.62
475.48	264.37
475.85	264.09
476.21	263.86
476.58	263.66
476.94	263.50
477.31	263.35
477.67	263.19
478.04	263.09
478.41	263.01
478.77	262.98
479.14	262.90
479.50	262.92
479.87	262.99
480.23	263.08
480.60	263.12
480.96	263.22
481.33	263.47
481.69	263.64
482.06	263.83
482.42	264.04
482.79	264.26
483.15	264.59
483.52	265.01
483.88	265.30
484.25	265.68
484.61	266.09
484.98	266.53
485.34	267.11
485.71	267.71
486.07	268.30
486.44	268.89
486.80	269.59
487.17	270.31
487.53	271.13
487.90	271.95
488.26	272.90
488.62	273.87
488.99	274.82
489.35	275.87
489.72	277.00
490.08	278.17
490.44	279.42
490.81	280.73
491.17	282.05
491.54	283.57
491.90	285.12
492.26	286.78
492.63	288.55
492.99	290.29
493.36	292.15
493.72	294.24
494.08	296.37
494.45	298.61
494.81	300.96
495.17	303.39
495.54	305.97
495.90	308.65
496.26	311.51
496.63	314.51
496.99	317.62
497.35	320.89
497.72	324.34
498.08	327.88
498.44	331.53
498.80	335.49
499.17	339.51
499.53	343.67
499.89	348.07
500.26	352.58
500.62	357.26
500.98	362.23
501.34	367.27
501.71	372.56
502.07	377.99
502.43	383.63
502.79	389.45
503.16	395.56
503.52	401.85
503.88	408.21
504.24	414.82
504.60	421.73
504.97	428.85
505.33	436.21
505.69	443.91
506.05	451.69
506.41	459.60
506.78	467.79
507.14	476.27
507.50	484.98
507.86	494.02
508.22	503.19
508.59	512.44
508.95	522.07
509.31	531.91
509.67	542.02
510.03	552.32
510.39	562.90
510.75	573.75
511.12	584.67
511.48	596.01
511.84	607.48
512.20	619.06
512.56	631.06
512.92	643.25
513.28	655.57
513.64	668.14
514.00	680.86
514.37	693.80
514.73	706.84
515.09	719.90
515.45	733.23
515.81	746.87
516.17	760.91
516.53	774.99
516.89	789.18
517.25	803.40
517.61	817.85
517.97	832.29
518.33	846.69
518.69	861.49
519.05	876.50
519.41	891.74
519.77	907.27
520.13	922.64
520.49	937.98
520.85	953.53
521.21	969.27
521.57	985.57
521.93	1001.38
522.29	1017.91
522.65	1034.12
523.01	1050.37
523.37	1066.41
523.73	1082.61
524.09	1098.74
524.45	1115.02
524.81	1131.80
525.17	1148.66
525.53	1165.76
525.89	1182.61
526.25	1199.46
526.61	1215.85
526.97	1232.56
527.33	1249.11
527.68	1265.77
528.04	1282.29
528.40	1298.93
528.76	1315.94
529.12	1332.53
529.48	1349.51
529.84	1365.59
530.20	1382.36
530.56	1399.45
530.91	1416.80
531.27	1433.60
531.63	1450.18
531.99	1466.92
532.35	1482.81
532.71	1498.65
533.07	1514.73
533.42	1530.67
533.78	1546.80
534.14	1563.14
534.50	1578.53
534.86	1594.43
535.21	1609.84
535.57	1625.92
535.93	1641.39
536.29	1656.27
536.65	1671.43
537.00	1686.18
537.36	1701.39
537.72	1715.96
538.08	1730.34
538.44	1744.22
538.79	1758.22
539.15	1771.97
539.51	1785.77
539.87	1800.20
540.22	1814.05
540.58	1828.02
540.94	1841.58
541.29	1854.61
541.65	1867.30
542.01	1880.64
542.37	1892.93
542.72	1905.35
543.08	1917.17
543.44	1929.73
543.79	1940.95
544.15	1951.89
544.51	1963.57
544.87	1974.74
545.22	1985.56
545.58	1995.73
545.94	2005.72
546.29	2015.59
546.65	2025.48
547.01	2034.68
547.36	2043.49
547.72	2052.10
548.07	2059.93
548.43	2068.13
548.79	2076.24
549.14	2083.90
549.50	2091.22
549.86	2098.98
550.21	2106.40
550.57	2113.47
550.92	2119.91
551.28	2127.15
551.64	2134.25
551.99	2140.84
552.35	2147.01
552.70	2153.15
553.06	2159.31
553.41	2165.70
553.77	2171.74
554.13	2177.80
554.48	2183.95
554.84	2189.29
555.19	2194.65
555.55	2199.73
555.90	2204.15
556.26	2208.95
556.61	2213.69
556.97	2217.78
557.32	2221.99
557.68	2225.95
558.03	2230.38
558.39	2234.25
558.74	2238.86
559.10	2242.78
559.45	2246.37
559.81	2250.49
560.16	2254.34
560.52	2257.52
560.87	2260.88
561.23	2263.49
561.58	2266.41
561.94	2269.07
562.29	2271.52
562.64	2274.08
563.00	2276.92
563.35	2280.34
563.71	2283.49
564.06	2286.64
564.42	2289.59
564.77	2292.00
565.12	2294.33
565.48	2296.08
565.83	2297.80
566.19	2298.93
566.54	2299.85
566.89	2300.91
567.25	2301.54
567.60	2302.75
567.96	2304.48
568.31	2305.23
568.66	2306.36
569.02	2306.96
569.37	2307.10
569.72	2307.85
570.08	2307.91
570.43	2307.71
570.78	2307.07
571.14	2305.49
571.49	2304.09
571.84	2303.86
572.20	2302.59
572.55	2301.50
572.90	2299.86
573.26	2298.56
573.61	2296.90
573.96	2295.09
574.31	2291.95
574.67	2289.00
575.02	2285.36
575.37	2281.81
575.72	2277.88
576.08	2274.51
576.43	2271.10
576.78	2267.38
577.13	2264.27
577.49	2261.20
577.84	2257.68
578.19	2253.99
578.54	2250.18
578.90	2245.95
579.25	2240.31
579.60	2235.32
579.95	2230.23
580.30	2225.22
580.66	2219.86
581.01	2214.93
581.36	2209.91
581.71	2205.83
582.06	2201.19
582.42	2196.66
582.77	2191.41
583.12	2186.80
583.47	2181.90
583.82	2176.76
584.17	2171.43
584.53	2165.82
584.88	2160.13
585.23	2154.27
585.58	2148.66
585.93	2143.25
586.28	2138.38
586.63	2133.20
586.98	2128.12
587.34	2123.36
587.69	2118.48
588.04	2113.13
588.39	2107.30
588.74	2100.71
589.09	2094.54
589.44	2087.74
589.79	2081.77
590.14	2076.08
590.49	2069.64
590.84	2063.30
591.19	2057.27
591.54	2050.79
591.89	2043.32
592.25	2036.31
592.60	2029.16
592.95	2021.52
593.30	2013.90
593.65	2006.23
594.00	1999.22
594.35	1991.99
594.70	1983.88
595.05	1976.42
595.40	1969.13
595.75	1961.59
596.10	1955.30
596.45	1948.40
596.80	1942.20
597.15	1935.35
597.50	1928.13
597.85	1921.54
598.19	1914.74
598.54	1907.52
598.89	1900.86
599.24	1894.87
599.59	1888.18
599.94	1881.85
600.29	1875.46
600.64	1869.02
600.99	1861.53
601.34	1854.57
601.69	1847.44
602.04	1840.42
602.39	1833.25
602.74	1826.44
603.08	1819.72
603.43	1813.00
603.78	1805.72
604.13	1798.44
604.48	1791.21
604.83	1784.43
605.18	1777.33
605.53	1769.20
605.87	1761.06
606.22	1753.79
606.57	1745.89
606.92	1738.51
607.27	1731.24
607.62	1724.37
607.96	1716.90
608.31	1710.14
608.66	1702.48
609.01	1694.90
609.36	1687.46
609.70	1679.27
610.05	1671.08
610.40	1663.20
610.75	1654.83
611.10	1647.09
611.44	1638.73
611.79	1630.72
612.14	1621.91
612.49	1612.89
612.83	1604.57
613.18	1596.54
613.53	1588.41
613.88	1579.88
614.22	1571.71
614.57	1563.17
614.92	1555.09
615.27	1547.66
615.61	1539.46
615.96	1531.53
616.31	1523.91
616.65	1516.43
617.00	1508.93
617.35	1501.33
617.70	1493.02
618.04	1484.41
618.39	1476.13
618.74	1468.38
619.08	1459.99
619.43	1452.45
619.78	1445.44
620.12	1438.23
620.47	1430.71
620.82	1422.53
621.16	1415.05
621.51	1407.38
621.85	1399.75
622.20	1391.14
622.55	1382.75
622.89	1374.84
623.24	1367.19
623.59	1359.83
623.93	1352.35
624.28	1345.07
624.62	1337.50
624.97	1330.45
625.32	1323.82
625.66	1316.88
626.01	1309.70
626.35	1302.27
626.70	1294.53
627.04	1286.73
627.39	1279.01
627.73	1271.58
628.08	1264.69
628.43	1257.35
628.77	1249.94
629.12	1242.34
629.46	1235.18
629.81	1227.78
630.15	1220.59
630.50	1213.19
630.84	1204.93
631.19	1197.04
631.53	1189.58
631.88	1182.05
632.22	1174.41
632.57	1167.19
632.91	1159.64
633.26	1152.28
633.60	1144.98
633.95	1137.88
634.29	1130.95
634.64	1124.19
634.98	1116.90
635.32	1109.77
635.67	1103.27
636.01	1096.58
636.36	1089.83
636.70	1083.44
637.05	1076.86
637.39	1070.47
637.73	1063.98
638.08	1058.17
638.42	1052.23
638.77	1045.73
639.11	1039.07
639.45	1032.67
639.80	1025.88
640.14	1019.48
640.49	1012.92
640.83	1006.68
641.17	1000.55
641.52	994.22
641.86	987.89
642.20	982.07
642.55	975.76
642.89	969.20
643.23	962.69
643.58	956.87
643.92	950.60
644.26	944.47
644.61	938.40
644.95	932.30
645.29	925.66
645.64	918.82
645.98	912.55
646.32	906.79
646.66	900.75
647.01	895.00
647.35	889.29
647.69	883.51
648.04	877.88
648.38	871.97
648.72	865.92
649.06	859.82
649.41	853.89
649.75	847.90
650.09	842.04
650.43	836.28
650.78	830.16
651.12	824.17
651.46	818.45
651.80	812.62
652.14	807.24
652.49	801.88
652.83	796.74
653.17	790.99
653.51	785.23
653.85	779.83
654.20	774.21
654.54	768.23
654.88	762.48
655.22	756.57
655.56	750.86
655.90	745.45
656.25	740.19
656.59	734.77
656.93	729.70
657.27	724.47
657.61	719.00
657.95	713.88
658.29	708.80
658.64	703.56
658.98	698.31
659.32	692.87
659.66	687.68
660.00	682.30
660.34	677.39
660.68	672.50
661.02	667.49
661.36	662.71
661.70	658.21
662.05	653.82
662.39	649.53
662.73	645.13
663.07	640.71
663.41	636.21
663.75	631.71
664.09	627.14
664.43	622.78
664.77	618.64
665.11	614.40
665.45	610.30
665.79	606.19
666.13	602.11
666.47	597.94
666.81	593.75
667.15	589.70
667.49	585.78
667.83	582.01
668.17	578.11
668.51	574.10
668.85	570.05
669.19	566.22
669.53	562.37
669.87	558.44
670.21	554.78
670.55	551.18
670.89	547.77
671.23	544.28
671.57	540.79
671.91	537.33
672.25	533.81
672.58	530.30
672.92	527.00
673.26	523.83
673.60	520.72
673.94	517.61
674.28	514.70
674.62	511.75
674.96	508.62
675.30	505.67
675.64	502.74
675.97	499.98
676.31	497.11
676.65	494.19
676.99	491.50
677.33	488.65
677.67	485.85
678.01	482.88
678.34	479.96
678.68	477.11
679.02	474.29
679.36	471.58
679.70	468.87
680.04	466.06
680.37	463.18
680.71	460.42
681.05	457.89
681.39	455.21
681.73	452.62
682.06	450.05
682.40	447.51
682.74	444.95
683.08	442.44
683.42	439.87
683.75	437.36
684.09	434.84
684.43	432.38
684.77	429.98
685.10	427.60
685.44	425.33
685.78	423.03
686.12	420.80
686.45	418.52
686.79	416.22
687.13	414.02
687.46	411.89
687.80	409.77
688.14	407.52
688.48	405.43
688.81	403.16
689.15	401.07
689.49	398.92
689.82	396.84
690.16	394.76
690.50	392.81
690.83	390.88
691.17	388.92
691.51	387.03
691.84	385.15
692.18	383.25
692.52	381.27
692.85	379.36
693.19	377.43
693.52	375.62
693.86	373.81
694.20	372.08
694.53	370.23
694.87	368.36
695.21	366.60
695.54	364.79
695.88	363.11
696.21	361.37
696.55	359.70
696.88	358.06
697.22	356.41
697.56	354.80
697.89	353.15
698.23	351.53
698.56	349.89
698.90	348.31
699.23	346.62
699.57	345.05
699.90	343.47
700.24	341.92
700.58	340.31
700.91	338.84
701.25	337.38
701.58	336.04
701.92	334.67
702.25	333.29
702.59	331.88
702.92	330.52
703.26	329.23
703.59	327.99
703.93	326.79
704.26	325.53
704.60	324.21
704.93	322.95
705.26	321.68
705.60	320.52
705.93	319.35
706.27	318.34
706.60	317.29
706.94	316.23
707.27	315.18
707.61	314.14
707.94	313.11
708.27	312.04
708.61	310.94
708.94	309.96
709.28	308.95
709.61	307.99
709.94	307.07
710.28	306.04
710.61	305.04
710.95	303.98
711.28	303.06
711.61	302.12
711.95	301.17
712.28	300.22
712.61	299.22
712.95	298.27
713.28	297.37
713.61	296.49
713.95	295.58
714.28	294.74
714.61	293.86
714.95	293.01
715.28	292.14
715.61	291.27
715.95	290.39
716.28	289.57
716.61	288.76
716.95	287.91
717.28	287.17
717.61	286.37
717.94	285.63
718.28	284.83
718.61	284.12
718.94	283.46
719.27	282.83
719.61	282.18
719.94	281.55
720.27	280.86
720.60	280.16
720.94	279.57
721.27	278.94
721.60	278.39
721.93	277.79
722.27	277.27
722.60	276.75
722.93	276.17
723.26	275.62
723.59	275.06
723.93	274.55
724.26	274.00
724.59	273.46
724.92	272.94
725.25	272.48
725.59	271.96
725.92	271.47
726.25	270.96
726.58	270.46
726.91	269.93
727.24	269.47
727.57	268.99
727.91	268.45
728.24	268.00
728.57	267.53
728.90	267.08
729.23	266.55
729.56	266.07
729.89	265.60
730.22	265.13
730.55	264.64
730.89	264.18
731.22	263.72
731.55	263.30
731.88	262.88
732.21	262.44
732.54	261.99
732.87	261.57
733.20	261.17
733.53	260.79
733.86	260.47
734.19	260.07
734.52	259.69
734.85	259.40
735.18	258.95
735.51	258.59
735.84	258.22
736.17	257.85
736.50	257.47
736.83	257.26
737.16	256.91
737.49	256.56
737.82	256.22
738.15	255.89
738.48	255.52
738.81	255.21
739.14	254.90
739.47	254.57
739.80	254.23
740.13	253.94
740.46	253.56
740.79	253.20
741.12	252.91
741.45	252.65
741.78	252.29
742.11	252.03
742.44	251.70
742.77	251.40
743.10	251.12
743.43	250.81
743.75	250.39
744.08	250.22
744.41	249.97
744.74	249.72
745.07	249.41
745.40	249.17
745.73	248.90
746.06	248.60
746.39	248.33
746.71	248.06
747.04	247.76
747.37	247.53
747.70	247.29
748.03	247.02
748.36	246.76
748.68	246.54
749.01	246.27
749.34	246.06
749.67	245.81
750.00	245.56
750.33	245.42
750.65	245.22
750.98	244.90
751.31	244.69
751.64	244.48
751.97	244.32
752.29	244.11
752.62	243.85
752.95	243.65
753.28	243.46
753.60	243.26
753.93	243.09
754.26	242.92
754.59	242.72
754.91	242.52
755.24	242.34
755.57	242.14
755.90	242.00
756.22	241.76
756.55	241.59
756.88	241.42
757.20	241.19
757.53	241.03
757.86	240.88
758.19	240.72
758.51	240.54
758.84	240.35
759.17	240.18
759.49	240.04
759.82	239.93
760.15	239.78
760.47	239.67
760.80	239.48
761.13	239.37
761.45	239.20
761.78	239.06
762.11	238.91
762.43	238.76
762.76	238.59
763.08	238.50
763.41	238.39
763.74	238.27
764.06	238.14
764.39	237.96
764.71	237.82
765.04	237.68
765.37	237.58
765.69	237.48
766.02	237.35
766.34	237.22
766.67	237.08
767.00	236.97
767.32	236.88
767.65	236.86
767.97	236.72
768.30	236.62
768.62	236.47
768.95	236.36
769.27	236.27
769.60	236.18
769.92	236.04
770.25	235.88
770.57	235.77
770.90	235.70
771.22	235.60
771.55	235.50
771.87	235.43
772.20	235.32
772.52	235.26
772.85	235.30
773.17	235.22
773.50	235.09
773.82	234.98
774.15	234.81
774.47	234.60
774.80	234.51
775.12	234.40
775.45	234.33
775.77	234.22
776.09	234.14
776.42	234.06
776.74	234.01
777.07	233.98
777.39	233.90
777.72	233.78
778.04	233.72
778.36	233.63
778.69	233.52
779.01	233.43
779.33	233.30
779.66	233.10
779.98	233.03
780.31	232.99
780.63	232.95
780.95	232.92
781.28	232.88
781.60	232.78
781.92	232.72
782.25	232.68
782.57	232.64
782.89	232.56
783.22	232.50
783.54	232.42
783.86	232.34
784.19	232.27
784.51	232.20
784.83	232.14
785.16	232.10
785.48	232.06
785.80	232.04
786.12	231.98
786.45	231.92
786.77	231.90
787.09	231.83
