SpectraSuite Data File
++++++++++++++++++++++++++++++++++++
Date: Fri Feb 01 15:55:14 EST 2013
User: group
Dark Spectrum Present: No
Reference Spectrum Present: No
Number of Sampled Component Spectra: 1
Spectrometers: USB2E7196
Integration Time (usec): 35000 (USB2E7196)
Spectra Averaged: 100 (USB2E7196)
Boxcar Smoothing: 10 (USB2E7196)
Correct for Electrical Dark: No (USB2E7196)
Strobe/Lamp Enabled: No (USB2E7196)
Correct for Detector Non-linearity: No (USB2E7196)
Correct for Stray Light: No (USB2E7196)
Number of Pixels in Processed Spectrum: 2048
>>>>>Begin Processed Spectral Data<<<<<
339.09	0.00
339.48	215.13
339.86	216.07
340.24	217.74
340.63	219.21
341.01	222.13
341.39	221.64
341.78	223.02
342.16	224.97
342.54	224.65
342.93	213.44
343.31	224.21
343.69	224.75
344.07	225.27
344.46	225.73
344.84	226.11
345.22	226.35
345.60	226.61
345.99	226.83
346.37	226.95
346.75	227.07
347.13	227.11
347.52	227.15
347.90	227.19
348.28	227.19
348.66	227.22
349.05	227.20
349.43	227.25
349.81	227.28
350.19	227.31
350.57	227.34
350.96	227.43
351.34	227.51
351.72	227.60
352.10	227.65
352.48	227.71
352.87	227.77
353.25	227.81
353.63	227.88
354.01	227.90
354.39	227.95
354.77	228.02
355.15	228.10
355.54	228.16
355.92	228.21
356.30	228.29
356.68	228.41
357.06	228.49
357.44	228.52
357.82	228.57
358.20	228.63
358.58	228.67
358.97	228.70
359.35	228.78
359.73	228.84
360.11	228.87
360.49	228.90
360.87	228.94
361.25	229.00
361.63	229.06
362.01	229.14
362.39	229.16
362.77	229.18
363.15	229.22
363.53	229.23
363.91	229.22
364.29	229.27
364.67	229.20
365.05	229.19
365.43	229.23
365.81	229.24
366.19	229.27
366.57	229.31
366.95	229.28
367.33	229.22
367.71	229.21
368.09	229.21
368.47	229.17
368.85	229.14
369.23	229.16
369.61	229.07
369.99	229.07
370.37	229.07
370.75	229.11
371.13	229.07
371.51	229.01
371.89	228.97
372.27	228.91
372.65	228.84
373.03	228.79
373.41	228.70
373.78	228.63
374.16	228.52
374.54	228.41
374.92	228.37
375.30	228.31
375.68	228.20
376.06	228.16
376.44	228.10
376.82	227.99
377.19	227.90
377.57	227.84
377.95	227.70
378.33	227.63
378.71	227.48
379.09	227.42
379.47	227.34
379.84	227.28
380.22	227.18
380.60	227.11
380.98	227.05
381.36	226.99
381.73	226.94
382.11	226.91
382.49	226.87
382.87	226.78
383.25	226.73
383.62	226.82
384.00	226.75
384.38	226.69
384.76	226.67
385.13	226.60
385.51	226.57
385.89	226.51
386.27	226.47
386.64	226.47
387.02	226.42
387.40	226.40
387.78	226.37
388.15	226.37
388.53	226.35
388.91	226.32
389.29	226.28
389.66	226.26
390.04	226.24
390.42	226.25
390.79	226.25
391.17	226.26
391.55	226.14
391.92	226.12
392.30	226.14
392.68	226.16
393.05	226.19
393.43	226.20
393.81	226.26
394.18	226.26
394.56	226.29
394.94	226.30
395.31	226.31
395.69	226.38
396.06	226.43
396.44	226.47
396.82	226.52
397.19	226.63
397.57	226.68
397.95	226.75
398.32	226.75
398.70	226.82
399.07	226.89
399.45	226.97
399.82	227.04
400.20	227.08
400.58	227.16
400.95	227.24
401.33	227.32
401.70	227.43
402.08	227.53
402.45	227.60
402.83	227.75
403.20	227.88
403.58	227.98
403.95	228.13
404.33	228.27
404.71	228.37
405.08	228.53
405.46	228.67
405.83	228.76
406.21	228.94
406.58	229.11
406.96	229.30
407.33	229.46
407.70	229.66
408.08	229.94
408.45	230.16
408.83	230.39
409.20	230.60
409.58	230.81
409.95	231.05
410.33	231.33
410.70	231.58
411.08	231.85
411.45	232.14
411.82	232.44
412.20	232.80
412.57	233.21
412.95	233.50
413.32	233.92
413.69	234.37
414.07	234.80
414.44	235.27
414.82	235.69
415.19	236.23
415.56	236.79
415.94	237.33
416.31	237.96
416.68	238.54
417.06	239.26
417.43	239.92
417.81	240.69
418.18	241.44
418.55	242.28
418.93	243.15
419.30	244.02
419.67	244.93
420.04	245.85
420.42	246.85
420.79	248.01
421.16	249.16
421.54	250.31
421.91	251.51
422.28	252.74
422.66	254.08
423.03	255.38
423.40	256.72
423.77	258.09
424.15	259.50
424.52	261.03
424.89	262.62
425.26	264.14
425.64	265.57
426.01	267.14
426.38	268.77
426.75	270.42
427.13	272.15
427.50	273.96
427.87	275.83
428.24	277.65
428.61	279.39
428.99	281.30
429.36	283.40
429.73	285.47
430.10	287.48
430.47	289.53
430.85	291.63
431.22	293.83
431.59	296.25
431.96	298.47
432.33	300.96
432.70	303.31
433.08	306.16
433.45	308.81
433.82	311.45
434.19	314.37
434.56	317.20
434.93	319.84
435.30	322.48
435.68	325.38
436.05	328.23
436.42	331.03
436.79	333.53
437.16	336.25
437.53	339.13
437.90	341.95
438.27	344.74
438.64	347.56
439.01	350.18
439.38	352.43
439.75	354.62
440.13	357.10
440.50	359.45
440.87	361.34
441.24	363.30
441.61	365.46
441.98	366.92
442.35	368.73
442.72	370.65
443.09	372.47
443.46	373.48
443.83	374.07
444.20	374.58
444.57	375.45
444.94	375.72
445.31	376.03
445.68	376.41
446.05	376.45
446.42	376.08
446.79	375.66
447.16	375.20
447.53	374.85
447.90	373.70
448.27	372.57
448.64	370.91
449.01	369.77
449.37	367.80
449.74	365.89
450.11	363.67
450.48	361.22
450.85	358.63
451.22	356.48
451.59	354.49
451.96	352.53
452.33	349.92
452.70	347.54
453.07	344.71
453.43	341.79
453.80	339.02
454.17	336.36
454.54	333.84
454.91	331.14
455.28	328.49
455.65	325.98
456.02	323.55
456.38	321.44
456.75	318.78
457.12	316.51
457.49	314.28
457.86	312.10
458.23	310.19
458.59	308.17
458.96	306.08
459.33	304.23
459.70	302.39
460.07	300.92
460.43	299.20
460.80	297.59
461.17	296.15
461.54	294.68
461.91	293.24
462.27	291.76
462.64	290.49
463.01	289.12
463.38	287.86
463.74	286.50
464.11	285.36
464.48	284.28
464.85	283.21
465.21	282.37
465.58	281.41
465.95	280.34
466.32	279.42
466.68	278.52
467.05	277.59
467.42	276.69
467.78	275.75
468.15	274.91
468.52	274.23
468.88	273.39
469.25	272.60
469.62	272.01
469.98	271.34
470.35	270.65
470.72	270.07
471.08	269.39
471.45	268.81
471.82	268.25
472.18	267.68
472.55	267.19
472.92	266.67
473.28	266.22
473.65	265.73
474.02	265.28
474.38	264.88
474.75	264.56
475.11	264.23
475.48	263.95
475.85	263.71
476.21	263.45
476.58	263.26
476.94	263.08
477.31	262.89
477.67	262.74
478.04	262.67
478.41	262.62
478.77	262.66
479.14	262.62
479.50	262.62
479.87	262.74
480.23	262.83
480.60	262.91
480.96	263.02
481.33	263.27
481.69	263.52
482.06	263.75
482.42	263.97
482.79	264.19
483.15	264.51
483.52	264.89
483.88	265.30
484.25	265.69
484.61	266.16
484.98	266.61
485.34	267.17
485.71	267.74
486.07	268.34
486.44	268.92
486.80	269.61
487.17	270.31
487.53	271.11
487.90	272.01
488.26	272.95
488.62	273.90
488.99	274.87
489.35	275.86
489.72	277.02
490.08	278.23
490.44	279.48
490.81	280.84
491.17	282.27
491.54	283.76
491.90	285.30
492.26	286.94
492.63	288.68
492.99	290.49
493.36	292.39
493.72	294.46
494.08	296.57
494.45	298.81
494.81	301.25
495.17	303.67
495.54	306.24
495.90	308.92
496.26	311.79
496.63	314.73
496.99	317.88
497.35	321.11
497.72	324.52
498.08	328.05
498.44	331.77
498.80	335.66
499.17	339.63
499.53	343.83
499.89	348.17
500.26	352.69
500.62	357.37
500.98	362.36
501.34	367.38
501.71	372.69
502.07	378.14
502.43	383.75
502.79	389.58
503.16	395.62
503.52	401.88
503.88	408.29
504.24	414.98
504.60	421.85
504.97	429.05
505.33	436.40
505.69	444.11
506.05	451.86
506.41	459.74
506.78	467.94
507.14	476.40
507.50	485.18
507.86	494.20
508.22	503.38
508.59	512.59
508.95	522.23
509.31	532.06
509.67	542.22
510.03	552.50
510.39	563.07
510.75	573.91
511.12	584.79
511.48	596.11
511.84	607.49
512.20	619.06
512.56	630.92
512.92	643.03
513.28	655.35
513.64	667.87
514.00	680.58
514.37	693.53
514.73	706.59
515.09	719.60
515.45	732.92
515.81	746.53
516.17	760.56
516.53	774.62
516.89	788.74
517.25	802.88
517.61	817.28
517.97	831.63
518.33	846.04
518.69	860.94
519.05	875.88
519.41	891.10
519.77	906.62
520.13	922.04
520.49	937.39
520.85	952.89
521.21	968.54
521.57	984.71
521.93	1000.46
522.29	1016.91
522.65	1033.14
523.01	1049.31
523.37	1065.35
523.73	1081.40
524.09	1097.48
524.45	1113.77
524.81	1130.37
525.17	1147.27
525.53	1164.29
525.89	1181.10
526.25	1197.88
526.61	1214.22
526.97	1230.99
527.33	1247.35
527.68	1263.93
528.04	1280.49
528.40	1297.02
528.76	1314.07
529.12	1330.77
529.48	1347.55
529.84	1363.53
530.20	1380.09
530.56	1397.07
530.91	1414.46
531.27	1431.25
531.63	1447.66
531.99	1464.22
532.35	1480.17
532.71	1495.91
533.07	1512.10
533.42	1528.06
533.78	1543.97
534.14	1560.32
534.50	1575.50
534.86	1591.33
535.21	1606.57
535.57	1622.45
535.93	1637.87
536.29	1652.61
536.65	1667.53
537.00	1682.34
537.36	1697.55
537.72	1712.11
538.08	1726.54
538.44	1740.28
538.79	1754.15
539.15	1767.89
539.51	1781.71
539.87	1796.03
540.22	1809.72
540.58	1823.43
540.94	1836.67
541.29	1849.68
541.65	1862.16
542.01	1875.49
542.37	1887.87
542.72	1900.22
543.08	1912.02
543.44	1924.48
543.79	1935.58
544.15	1946.50
544.51	1958.05
544.87	1969.13
545.22	1979.86
545.58	1989.96
545.94	1999.72
546.29	2009.55
546.65	2019.41
547.01	2028.64
547.36	2037.34
547.72	2045.87
548.07	2053.70
548.43	2061.85
548.79	2069.83
549.14	2077.38
549.50	2084.66
549.86	2092.30
550.21	2099.68
550.57	2106.75
550.92	2113.17
551.28	2120.41
551.64	2127.49
551.99	2134.08
552.35	2140.02
552.70	2146.15
553.06	2152.17
553.41	2158.35
553.77	2164.29
554.13	2170.28
554.48	2176.33
554.84	2181.72
555.19	2186.99
555.55	2192.22
555.90	2196.78
556.26	2201.66
556.61	2206.49
556.97	2210.74
557.32	2214.88
557.68	2219.06
558.03	2223.42
558.39	2227.28
558.74	2231.88
559.10	2235.80
559.45	2239.36
559.81	2243.67
560.16	2247.61
560.52	2250.75
560.87	2254.32
561.23	2257.12
561.58	2260.08
561.94	2262.59
562.29	2265.05
562.64	2267.73
563.00	2270.20
563.35	2273.64
563.71	2276.78
564.06	2279.89
564.42	2282.80
564.77	2285.35
565.12	2287.52
565.48	2289.32
565.83	2291.11
566.19	2292.22
566.54	2293.17
566.89	2294.25
567.25	2294.89
567.60	2296.09
567.96	2297.86
568.31	2298.68
568.66	2299.75
569.02	2300.39
569.37	2300.73
569.72	2301.53
570.08	2301.71
570.43	2301.78
570.78	2301.23
571.14	2299.54
571.49	2298.29
571.84	2297.91
572.20	2296.66
572.55	2295.59
572.90	2294.07
573.26	2292.56
573.61	2290.94
573.96	2289.13
574.31	2286.26
574.67	2283.19
575.02	2279.67
575.37	2276.31
575.72	2272.56
576.08	2269.31
576.43	2265.88
576.78	2262.15
577.13	2259.07
577.49	2255.90
577.84	2252.33
578.19	2248.59
578.54	2244.99
578.90	2240.75
579.25	2235.26
579.60	2230.28
579.95	2225.33
580.30	2220.28
580.66	2215.21
581.01	2210.25
581.36	2205.28
581.71	2201.12
582.06	2196.75
582.42	2192.29
582.77	2187.17
583.12	2182.64
583.47	2177.82
583.82	2172.92
584.17	2167.66
584.53	2162.12
584.88	2156.44
585.23	2150.76
585.58	2145.29
585.93	2139.90
586.28	2135.19
586.63	2130.10
586.98	2125.12
587.34	2120.31
587.69	2115.35
588.04	2110.17
588.39	2104.64
588.74	2098.22
589.09	2092.15
589.44	2085.26
589.79	2079.23
590.14	2073.53
590.49	2066.99
590.84	2060.64
591.19	2054.53
591.54	2048.14
591.89	2040.72
592.25	2034.02
592.60	2026.75
592.95	2019.12
593.30	2011.64
593.65	2004.03
594.00	1997.03
594.35	1989.85
594.70	1981.88
595.05	1974.72
595.40	1967.26
595.75	1959.78
596.10	1953.54
596.45	1946.62
596.80	1940.48
597.15	1933.84
597.50	1926.59
597.85	1920.09
598.19	1913.34
598.54	1906.21
598.89	1899.61
599.24	1893.73
599.59	1887.00
599.94	1880.91
600.29	1874.63
600.64	1868.27
600.99	1860.80
601.34	1853.85
601.69	1846.85
602.04	1840.02
602.39	1832.77
602.74	1826.10
603.08	1819.27
603.43	1812.57
603.78	1805.31
604.13	1798.21
604.48	1790.81
604.83	1783.96
605.18	1776.97
605.53	1768.93
605.87	1760.99
606.22	1753.66
606.57	1745.63
606.92	1738.23
607.27	1730.92
607.62	1724.00
607.96	1716.65
608.31	1710.02
608.66	1702.50
609.01	1694.93
609.36	1687.27
609.70	1679.17
610.05	1671.04
610.40	1663.34
610.75	1654.95
611.10	1647.29
611.44	1638.86
611.79	1631.04
612.14	1622.44
612.49	1613.23
612.83	1604.91
613.18	1596.72
613.53	1588.66
613.88	1580.21
614.22	1571.92
614.57	1563.33
614.92	1555.16
615.27	1547.61
615.61	1539.22
615.96	1531.14
616.31	1523.47
616.65	1516.12
617.00	1508.55
617.35	1500.88
617.70	1492.52
618.04	1484.03
618.39	1475.84
618.74	1468.26
619.08	1459.91
619.43	1452.33
619.78	1445.47
620.12	1438.25
620.47	1430.75
620.82	1422.60
621.16	1415.19
621.51	1407.78
621.85	1400.21
622.20	1391.76
622.55	1383.35
622.89	1375.48
623.24	1367.87
623.59	1360.49
623.93	1353.02
624.28	1345.83
624.62	1338.39
624.97	1331.25
625.32	1324.54
625.66	1317.38
626.01	1310.05
626.35	1302.51
626.70	1294.81
627.04	1287.03
627.39	1279.35
627.73	1271.95
628.08	1265.00
628.43	1257.67
628.77	1250.21
629.12	1242.64
629.46	1235.49
629.81	1228.07
630.15	1220.88
630.50	1213.43
630.84	1205.36
631.19	1197.33
631.53	1189.84
631.88	1182.22
632.22	1174.59
632.57	1167.25
632.91	1159.81
633.26	1152.44
633.60	1145.16
633.95	1138.01
634.29	1131.06
634.64	1124.35
634.98	1116.99
635.32	1109.83
635.67	1103.34
636.01	1096.71
636.36	1089.91
636.70	1083.42
637.05	1076.95
637.39	1070.53
637.73	1063.99
638.08	1058.04
638.42	1052.15
638.77	1045.75
639.11	1039.09
639.45	1032.71
639.80	1026.08
640.14	1019.66
640.49	1013.10
640.83	1006.77
641.17	1000.47
641.52	994.08
641.86	987.65
642.20	981.75
642.55	975.48
642.89	968.93
643.23	962.36
643.58	956.65
643.92	950.46
644.26	944.30
644.61	938.33
644.95	932.38
645.29	925.83
645.64	918.99
645.98	912.63
646.32	906.89
646.66	900.89
647.01	895.10
647.35	889.40
647.69	883.51
648.04	878.08
648.38	872.29
648.72	866.26
649.06	860.14
649.41	854.44
649.75	848.38
650.09	842.50
650.43	836.78
650.78	830.58
651.12	824.62
651.46	818.93
651.80	813.05
652.14	807.67
652.49	802.29
652.83	797.16
653.17	791.43
653.51	785.65
653.85	780.30
654.20	774.62
654.54	768.63
654.88	763.02
655.22	757.03
655.56	751.37
655.90	745.96
656.25	740.72
656.59	735.23
656.93	730.25
657.27	725.02
657.61	719.53
657.95	714.44
658.29	709.28
658.64	704.01
658.98	698.76
659.32	693.25
659.66	687.94
660.00	682.67
660.34	677.77
660.68	672.91
661.02	667.83
661.36	663.12
661.70	658.59
662.05	654.24
662.39	649.90
662.73	645.49
663.07	641.12
663.41	636.71
663.75	632.24
664.09	627.71
664.43	623.37
664.77	619.25
665.11	614.98
665.45	610.90
665.79	606.83
666.13	602.69
666.47	598.63
666.81	594.50
667.15	590.34
667.49	586.51
667.83	582.71
668.17	578.77
668.51	574.66
668.85	570.60
669.19	566.75
669.53	562.94
669.87	559.03
670.21	555.37
670.55	551.75
670.89	548.36
671.23	544.88
671.57	541.36
671.91	537.83
672.25	534.36
672.58	530.86
672.92	527.46
673.26	524.30
673.60	521.18
673.94	518.10
674.28	515.24
674.62	512.23
674.96	509.14
675.30	506.23
675.64	503.32
675.97	500.60
676.31	497.68
676.65	494.75
676.99	492.03
677.33	489.09
677.67	486.22
678.01	483.14
678.34	480.20
678.68	477.32
679.02	474.53
679.36	471.74
679.70	469.01
680.04	466.26
680.37	463.36
680.71	460.49
681.05	457.90
681.39	455.14
681.73	452.47
682.06	449.94
682.40	447.39
682.74	444.93
683.08	442.36
683.42	439.82
683.75	437.37
684.09	434.82
684.43	432.34
684.77	429.86
685.10	427.49
685.44	425.20
685.78	422.95
686.12	420.61
686.45	418.33
686.79	416.06
687.13	413.88
687.46	411.74
687.80	409.62
688.14	407.40
688.48	405.33
688.81	403.05
689.15	400.85
689.49	398.71
689.82	396.58
690.16	394.45
690.50	392.43
690.83	390.46
691.17	388.51
691.51	386.59
691.84	384.77
692.18	382.90
692.52	380.87
692.85	378.93
693.19	377.07
693.52	375.23
693.86	373.38
694.20	371.58
694.53	369.79
694.87	367.95
695.21	366.16
695.54	364.34
695.88	362.65
696.21	360.94
696.55	359.28
696.88	357.63
697.22	356.03
697.56	354.44
697.89	352.76
698.23	351.15
698.56	349.54
698.90	347.99
699.23	346.31
699.57	344.79
699.90	343.24
700.24	341.74
700.58	340.25
700.91	338.72
701.25	337.25
701.58	335.85
701.92	334.52
702.25	333.14
702.59	331.76
702.92	330.41
703.26	329.10
703.59	327.78
703.93	326.59
704.26	325.36
704.60	324.10
704.93	322.83
705.26	321.59
705.60	320.44
705.93	319.27
706.27	318.20
706.60	317.10
706.94	316.04
707.27	314.89
707.61	313.82
707.94	312.80
708.27	311.74
708.61	310.66
708.94	309.63
709.28	308.66
709.61	307.74
709.94	306.87
710.28	305.89
710.61	304.93
710.95	303.84
711.28	302.93
711.61	301.96
711.95	301.10
712.28	300.15
712.61	299.16
712.95	298.21
713.28	297.35
713.61	296.45
713.95	295.54
714.28	294.74
714.61	293.87
714.95	293.04
715.28	292.17
715.61	291.32
715.95	290.48
716.28	289.61
716.61	288.73
716.95	287.85
717.28	287.09
717.61	286.32
717.94	285.58
718.28	284.79
718.61	284.03
718.94	283.28
719.27	282.62
719.61	281.99
719.94	281.33
720.27	280.61
720.60	279.97
720.94	279.34
721.27	278.72
721.60	278.16
721.93	277.57
722.27	277.06
722.60	276.53
722.93	275.94
723.26	275.40
723.59	274.89
723.93	274.37
724.26	273.78
724.59	273.21
724.92	272.69
725.25	272.14
725.59	271.62
725.92	271.11
726.25	270.60
726.58	270.07
726.91	269.58
727.24	269.14
727.57	268.63
727.91	268.10
728.24	267.63
728.57	267.15
728.90	266.67
729.23	266.13
729.56	265.71
729.89	265.22
730.22	264.72
730.55	264.21
730.89	263.77
731.22	263.35
731.55	262.88
731.88	262.42
732.21	262.02
732.54	261.61
732.87	261.17
733.20	260.76
733.53	260.38
733.86	259.99
734.19	259.59
734.52	259.24
734.85	258.95
735.18	258.55
735.51	258.17
735.84	257.81
736.17	257.46
736.50	257.04
736.83	256.79
737.16	256.51
737.49	256.19
737.82	255.85
738.15	255.53
738.48	255.21
738.81	254.92
739.14	254.59
739.47	254.28
739.80	254.01
740.13	253.71
740.46	253.38
740.79	253.03
741.12	252.71
741.45	252.39
741.78	252.03
742.11	251.75
742.44	251.43
742.77	251.15
743.10	250.88
743.43	250.60
743.75	250.26
744.08	250.08
744.41	249.80
744.74	249.55
745.07	249.27
745.40	249.04
745.73	248.81
746.06	248.56
746.39	248.30
746.71	248.01
747.04	247.73
747.37	247.50
747.70	247.31
748.03	247.08
748.36	246.85
748.68	246.62
749.01	246.38
749.34	246.10
749.67	245.88
750.00	245.64
750.33	245.46
750.65	245.24
750.98	244.90
751.31	244.70
751.64	244.48
751.97	244.29
752.29	244.07
752.62	243.80
752.95	243.58
753.28	243.38
753.60	243.18
753.93	243.02
754.26	242.84
754.59	242.61
754.91	242.43
755.24	242.24
755.57	242.02
755.90	241.83
756.22	241.68
756.55	241.46
756.88	241.26
757.20	241.06
757.53	240.86
757.86	240.71
758.19	240.52
758.51	240.36
758.84	240.18
759.17	240.05
759.49	239.88
759.82	239.77
760.15	239.58
760.47	239.45
760.80	239.24
761.13	239.11
761.45	238.94
761.78	238.80
762.11	238.69
762.43	238.55
762.76	238.39
763.08	238.24
763.41	238.14
763.74	238.02
764.06	237.89
764.39	237.74
764.71	237.56
765.04	237.41
765.37	237.27
765.69	237.12
766.02	236.95
766.34	236.82
766.67	236.64
767.00	236.56
767.32	236.46
767.65	236.44
767.97	236.31
768.30	236.19
768.62	236.07
768.95	235.92
769.27	235.82
769.60	235.74
769.92	235.62
770.25	235.50
770.57	235.36
770.90	235.24
771.22	235.11
771.55	235.03
771.87	234.94
772.20	234.82
772.52	234.80
772.85	234.82
773.17	234.72
773.50	234.65
773.82	234.54
774.15	234.41
774.47	234.25
774.80	234.11
775.12	234.02
775.45	233.89
775.77	233.80
776.09	233.71
776.42	233.58
776.74	233.53
777.07	233.43
777.39	233.38
777.72	233.24
778.04	233.21
778.36	233.16
778.69	233.10
779.01	233.06
779.33	232.91
779.66	232.75
779.98	232.66
780.31	232.59
780.63	232.57
780.95	232.51
781.28	232.46
781.60	232.42
781.92	232.37
782.25	232.33
782.57	232.24
782.89	232.17
783.22	232.13
783.54	232.06
783.86	232.01
784.19	231.95
784.51	231.96
784.83	231.88
785.16	231.81
785.48	231.76
785.80	231.72
786.12	231.68
786.45	231.63
786.77	231.64
787.09	231.59
