SpectraSuite Data File
++++++++++++++++++++++++++++++++++++
Date: Fri Feb 01 15:39:09 EST 2013
User: group
Dark Spectrum Present: No
Reference Spectrum Present: No
Number of Sampled Component Spectra: 1
Spectrometers: USB2E7196
Integration Time (usec): 35000 (USB2E7196)
Spectra Averaged: 100 (USB2E7196)
Boxcar Smoothing: 10 (USB2E7196)
Correct for Electrical Dark: No (USB2E7196)
Strobe/Lamp Enabled: No (USB2E7196)
Correct for Detector Non-linearity: No (USB2E7196)
Correct for Stray Light: No (USB2E7196)
Number of Pixels in Processed Spectrum: 2048
>>>>>Begin Processed Spectral Data<<<<<
339.09	0.00
339.48	214.98
339.86	216.74
340.24	217.49
340.63	219.92
341.01	222.32
341.39	221.80
341.78	223.38
342.16	224.00
342.54	224.44
342.93	213.27
343.31	224.06
343.69	224.58
344.07	225.02
344.46	225.46
344.84	225.79
345.22	226.01
345.60	226.27
345.99	226.42
346.37	226.57
346.75	226.68
347.13	226.75
347.52	226.77
347.90	226.85
348.28	226.89
348.66	226.93
349.05	226.90
349.43	226.94
349.81	226.96
350.19	227.01
350.57	227.07
350.96	227.12
351.34	227.17
351.72	227.28
352.10	227.36
352.48	227.43
352.87	227.49
353.25	227.56
353.63	227.58
354.01	227.68
354.39	227.74
354.77	227.80
355.15	227.88
355.54	227.95
355.92	227.97
356.30	228.04
356.68	228.19
357.06	228.27
357.44	228.31
357.82	228.39
358.20	228.45
358.58	228.52
358.97	228.57
359.35	228.65
359.73	228.70
360.11	228.77
360.49	228.81
360.87	228.83
361.25	228.87
361.63	229.00
362.01	229.03
362.39	229.05
362.77	229.13
363.15	229.15
363.53	229.21
363.91	229.23
364.29	229.24
364.67	229.17
365.05	229.18
365.43	229.20
365.81	229.22
366.19	229.23
366.57	229.23
366.95	229.27
367.33	229.23
367.71	229.23
368.09	229.24
368.47	229.24
368.85	229.22
369.23	229.23
369.61	229.15
369.99	229.17
370.37	229.19
370.75	229.17
371.13	229.15
371.51	229.08
371.89	229.06
372.27	228.98
372.65	228.94
373.03	228.88
373.41	228.86
373.78	228.79
374.16	228.71
374.54	228.63
374.92	228.55
375.30	228.48
375.68	228.39
376.06	228.33
376.44	228.22
376.82	228.15
377.19	228.10
377.57	228.02
377.95	227.89
378.33	227.80
378.71	227.68
379.09	227.64
379.47	227.59
379.84	227.48
380.22	227.43
380.60	227.35
380.98	227.28
381.36	227.20
381.73	227.14
382.11	227.10
382.49	227.05
382.87	226.99
383.25	226.93
383.62	226.98
384.00	226.89
384.38	226.86
384.76	226.86
385.13	226.80
385.51	226.75
385.89	226.67
386.27	226.61
386.64	226.57
387.02	226.45
387.40	226.44
387.78	226.44
388.15	226.40
388.53	226.36
388.91	226.33
389.29	226.28
389.66	226.23
390.04	226.18
390.42	226.19
390.79	226.14
391.17	226.18
391.55	226.08
391.92	226.07
392.30	226.05
392.68	226.00
393.05	226.01
393.43	226.02
393.81	226.03
394.18	226.04
394.56	226.06
394.94	226.14
395.31	226.15
395.69	226.20
396.06	226.27
396.44	226.30
396.82	226.33
397.19	226.43
397.57	226.49
397.95	226.55
398.32	226.57
398.70	226.65
399.07	226.70
399.45	226.73
399.82	226.83
400.20	226.93
400.58	227.02
400.95	227.06
401.33	227.15
401.70	227.34
402.08	227.46
402.45	227.56
402.83	227.68
403.20	227.78
403.58	227.88
403.95	228.02
404.33	228.17
404.71	228.29
405.08	228.49
405.46	228.66
405.83	228.79
406.21	228.97
406.58	229.15
406.96	229.31
407.33	229.54
407.70	229.74
408.08	230.00
408.45	230.25
408.83	230.51
409.20	230.74
409.58	230.93
409.95	231.16
410.33	231.43
410.70	231.68
411.08	231.97
411.45	232.27
411.82	232.56
412.20	232.90
412.57	233.34
412.95	233.61
413.32	234.01
413.69	234.45
414.07	234.86
414.44	235.34
414.82	235.80
415.19	236.33
415.56	236.85
415.94	237.38
416.31	237.99
416.68	238.61
417.06	239.36
417.43	240.05
417.81	240.82
418.18	241.61
418.55	242.43
418.93	243.29
419.30	244.22
419.67	245.18
420.04	246.13
420.42	247.09
420.79	248.28
421.16	249.43
421.54	250.65
421.91	251.88
422.28	253.10
422.66	254.46
423.03	255.77
423.40	257.09
423.77	258.51
424.15	259.92
424.52	261.39
424.89	262.98
425.26	264.53
425.64	265.99
426.01	267.57
426.38	269.23
426.75	270.91
427.13	272.61
427.50	274.37
427.87	276.27
428.24	278.18
428.61	279.95
428.99	281.90
429.36	283.96
429.73	286.01
430.10	288.08
430.47	290.13
430.85	292.25
431.22	294.50
431.59	296.87
431.96	299.12
432.33	301.63
432.70	304.00
433.08	306.80
433.45	309.42
433.82	312.01
434.19	314.91
434.56	317.71
434.93	320.36
435.30	323.01
435.68	325.87
436.05	328.63
436.42	331.41
436.79	333.91
437.16	336.63
437.53	339.44
437.90	342.22
438.27	344.94
438.64	347.78
439.01	350.36
439.38	352.57
439.75	354.72
440.13	357.18
440.50	359.48
440.87	361.27
441.24	363.24
441.61	365.42
441.98	366.87
442.35	368.64
442.72	370.51
443.09	372.29
443.46	373.28
443.83	373.87
444.20	374.37
444.57	375.20
444.94	375.46
445.31	375.76
445.68	376.11
446.05	376.19
446.42	375.78
446.79	375.40
447.16	374.96
447.53	374.64
447.90	373.47
448.27	372.34
448.64	370.77
449.01	369.64
449.37	367.66
449.74	365.80
450.11	363.58
450.48	361.08
450.85	358.58
451.22	356.46
451.59	354.45
451.96	352.51
452.33	349.94
452.70	347.57
453.07	344.80
453.43	341.87
453.80	339.15
454.17	336.49
454.54	333.91
454.91	331.20
455.28	328.57
455.65	326.11
456.02	323.68
456.38	321.56
456.75	318.86
457.12	316.60
457.49	314.40
457.86	312.26
458.23	310.41
458.59	308.36
458.96	306.29
459.33	304.45
459.70	302.58
460.07	301.07
460.43	299.35
460.80	297.71
461.17	296.27
461.54	294.78
461.91	293.37
462.27	291.97
462.64	290.73
463.01	289.37
463.38	288.07
463.74	286.69
464.11	285.54
464.48	284.50
464.85	283.41
465.21	282.56
465.58	281.60
465.95	280.51
466.32	279.62
466.68	278.68
467.05	277.80
467.42	276.91
467.78	275.98
468.15	275.13
468.52	274.48
468.88	273.64
469.25	272.82
469.62	272.21
469.98	271.53
470.35	270.90
470.72	270.31
471.08	269.66
471.45	269.11
471.82	268.57
472.18	267.97
472.55	267.55
472.92	267.00
473.28	266.57
473.65	266.14
474.02	265.67
474.38	265.34
474.75	264.99
475.11	264.65
475.48	264.38
475.85	264.14
476.21	263.91
476.58	263.75
476.94	263.62
477.31	263.43
477.67	263.27
478.04	263.11
478.41	263.06
478.77	263.09
479.14	263.00
479.50	262.99
479.87	263.07
480.23	263.15
480.60	263.19
480.96	263.29
481.33	263.45
481.69	263.65
482.06	263.80
482.42	264.00
482.79	264.24
483.15	264.54
483.52	264.90
483.88	265.25
484.25	265.60
484.61	266.02
484.98	266.48
485.34	267.05
485.71	267.66
486.07	268.25
486.44	268.77
486.80	269.51
487.17	270.22
487.53	271.05
487.90	271.86
488.26	272.81
488.62	273.78
488.99	274.79
489.35	275.81
489.72	276.93
490.08	278.14
490.44	279.38
490.81	280.71
491.17	282.06
491.54	283.58
491.90	285.11
492.26	286.74
492.63	288.46
492.99	290.19
493.36	292.08
493.72	294.09
494.08	296.24
494.45	298.45
494.81	300.82
495.17	303.22
495.54	305.82
495.90	308.50
496.26	311.30
496.63	314.27
496.99	317.37
497.35	320.64
497.72	324.05
498.08	327.55
498.44	331.25
498.80	335.19
499.17	339.18
499.53	343.38
499.89	347.75
500.26	352.28
500.62	356.96
500.98	361.96
501.34	367.04
501.71	372.41
502.07	377.83
502.43	383.48
502.79	389.33
503.16	395.40
503.52	401.68
503.88	408.09
504.24	414.69
504.60	421.58
504.97	428.69
505.33	436.01
505.69	443.75
506.05	451.52
506.41	459.39
506.78	467.56
507.14	476.01
507.50	484.76
507.86	493.76
508.22	502.98
508.59	512.18
508.95	521.75
509.31	531.53
509.67	541.71
510.03	552.09
510.39	562.64
510.75	573.43
511.12	584.34
511.48	595.68
511.84	607.12
512.20	618.70
512.56	630.66
512.92	642.85
513.28	655.21
513.64	667.70
514.00	680.34
514.37	693.29
514.73	706.38
515.09	719.43
515.45	732.78
515.81	746.41
516.17	760.47
516.53	774.65
516.89	788.80
517.25	803.01
517.61	817.38
517.97	831.75
518.33	846.21
518.69	861.06
519.05	876.00
519.41	891.32
519.77	906.88
520.13	922.34
520.49	937.75
520.85	953.15
521.21	968.87
521.57	985.25
521.93	1001.08
522.29	1017.48
522.65	1033.65
523.01	1049.78
523.37	1065.77
523.73	1081.81
524.09	1097.82
524.45	1114.20
524.81	1130.84
525.17	1147.69
525.53	1164.75
525.89	1181.62
526.25	1198.43
526.61	1214.82
526.97	1231.49
527.33	1248.03
527.68	1264.74
528.04	1281.22
528.40	1297.89
528.76	1314.99
529.12	1331.57
529.48	1348.41
529.84	1364.48
530.20	1381.11
530.56	1398.25
530.91	1415.69
531.27	1432.59
531.63	1449.09
531.99	1465.73
532.35	1481.68
532.71	1497.48
533.07	1513.75
533.42	1529.67
533.78	1545.65
534.14	1561.95
534.50	1577.37
534.86	1593.21
535.21	1608.32
535.57	1624.31
535.93	1639.70
536.29	1654.54
536.65	1669.63
537.00	1684.53
537.36	1699.70
537.72	1714.31
538.08	1728.64
538.44	1742.38
538.79	1756.28
539.15	1770.17
539.51	1783.91
539.87	1798.17
540.22	1811.96
540.58	1825.74
540.94	1839.20
541.29	1852.27
541.65	1864.88
542.01	1878.01
542.37	1890.20
542.72	1902.73
543.08	1914.53
543.44	1927.12
543.79	1938.20
544.15	1949.20
544.51	1960.66
544.87	1971.84
545.22	1982.67
545.58	1992.90
545.94	2002.79
546.29	2012.66
546.65	2022.39
547.01	2031.62
547.36	2040.43
547.72	2048.94
548.07	2056.68
548.43	2064.73
548.79	2072.75
549.14	2080.52
549.50	2088.03
549.86	2095.87
550.21	2103.20
550.57	2110.38
550.92	2116.82
551.28	2124.08
551.64	2131.06
551.99	2137.66
552.35	2143.66
552.70	2149.75
553.06	2155.80
553.41	2162.13
553.77	2168.14
554.13	2174.31
554.48	2180.37
554.84	2185.77
555.19	2191.12
555.55	2196.30
555.90	2200.85
556.26	2205.52
556.61	2210.16
556.97	2214.35
557.32	2218.54
557.68	2222.64
558.03	2226.94
558.39	2230.80
558.74	2235.37
559.10	2239.34
559.45	2243.06
559.81	2247.39
560.16	2251.16
560.52	2254.43
560.87	2257.85
561.23	2260.46
561.58	2263.44
561.94	2266.02
562.29	2268.50
562.64	2271.03
563.00	2273.65
563.35	2277.12
563.71	2280.39
564.06	2283.62
564.42	2286.42
564.77	2288.82
565.12	2291.06
565.48	2292.82
565.83	2294.53
566.19	2295.83
566.54	2296.74
566.89	2297.60
567.25	2298.20
567.60	2299.60
567.96	2301.23
568.31	2302.05
568.66	2303.09
569.02	2303.59
569.37	2303.88
569.72	2304.62
570.08	2304.80
570.43	2304.88
570.78	2304.22
571.14	2302.71
571.49	2301.32
571.84	2301.08
572.20	2299.82
572.55	2298.74
572.90	2297.20
573.26	2295.88
573.61	2294.21
573.96	2292.30
574.31	2289.33
574.67	2286.29
575.02	2282.66
575.37	2279.29
575.72	2275.44
576.08	2272.08
576.43	2268.58
576.78	2264.89
577.13	2261.83
577.49	2258.67
577.84	2255.16
578.19	2251.45
578.54	2247.76
578.90	2243.41
579.25	2237.71
579.60	2232.81
579.95	2227.68
580.30	2222.71
580.66	2217.46
581.01	2212.36
581.36	2207.54
581.71	2203.46
582.06	2198.88
582.42	2194.36
582.77	2189.05
583.12	2184.41
583.47	2179.68
583.82	2174.65
584.17	2169.35
584.53	2163.78
584.88	2158.12
585.23	2152.21
585.58	2146.71
585.93	2141.23
586.28	2136.52
586.63	2131.43
586.98	2126.29
587.34	2121.67
587.69	2116.73
588.04	2111.43
588.39	2105.70
588.74	2099.06
589.09	2092.94
589.44	2086.10
589.79	2080.12
590.14	2074.54
590.49	2068.02
590.84	2061.75
591.19	2055.69
591.54	2049.21
591.89	2041.64
592.25	2034.82
592.60	2027.68
592.95	2020.06
593.30	2012.54
593.65	2004.88
594.00	1997.81
594.35	1990.57
594.70	1982.44
595.05	1975.13
595.40	1967.83
595.75	1960.28
596.10	1954.02
596.45	1947.16
596.80	1941.10
597.15	1934.40
597.50	1927.10
597.85	1920.68
598.19	1913.70
598.54	1906.60
598.89	1900.01
599.24	1894.24
599.59	1887.36
599.94	1881.03
600.29	1874.56
600.64	1868.02
600.99	1860.56
601.34	1853.63
601.69	1846.72
602.04	1839.75
602.39	1832.43
602.74	1825.58
603.08	1818.92
603.43	1812.15
603.78	1804.86
604.13	1797.52
604.48	1790.17
604.83	1783.39
605.18	1776.21
605.53	1768.32
605.87	1760.25
606.22	1752.91
606.57	1744.79
606.92	1737.68
607.27	1730.52
607.62	1723.74
607.96	1716.39
608.31	1709.83
608.66	1702.26
609.01	1694.59
609.36	1687.08
609.70	1679.10
610.05	1670.93
610.40	1663.11
610.75	1654.83
611.10	1647.13
611.44	1638.85
611.79	1630.87
612.14	1622.03
612.49	1613.03
612.83	1604.67
613.18	1596.62
613.53	1588.54
613.88	1580.04
614.22	1571.79
614.57	1563.22
614.92	1555.16
615.27	1547.71
615.61	1539.26
615.96	1531.30
616.31	1523.71
616.65	1516.32
617.00	1508.66
617.35	1501.05
617.70	1492.64
618.04	1484.14
618.39	1475.94
618.74	1468.23
619.08	1459.90
619.43	1452.45
619.78	1445.49
620.12	1438.26
620.47	1430.73
620.82	1422.52
621.16	1415.22
621.51	1407.59
621.85	1399.90
622.20	1391.33
622.55	1383.03
622.89	1375.23
623.24	1367.59
623.59	1360.21
623.93	1352.71
624.28	1345.56
624.62	1338.02
624.97	1330.98
625.32	1324.24
625.66	1317.22
626.01	1310.01
626.35	1302.51
626.70	1294.82
627.04	1287.11
627.39	1279.53
627.73	1272.09
628.08	1265.20
628.43	1257.82
628.77	1250.46
629.12	1242.98
629.46	1235.85
629.81	1228.28
630.15	1220.99
630.50	1213.61
630.84	1205.42
631.19	1197.53
631.53	1189.99
631.88	1182.42
632.22	1174.83
632.57	1167.52
632.91	1160.00
633.26	1152.72
633.60	1145.45
633.95	1138.39
634.29	1131.26
634.64	1124.46
634.98	1117.17
635.32	1110.02
635.67	1103.49
636.01	1096.77
636.36	1089.89
636.70	1083.31
637.05	1076.82
637.39	1070.36
637.73	1063.84
638.08	1057.94
638.42	1051.88
638.77	1045.41
639.11	1038.80
639.45	1032.36
639.80	1025.70
640.14	1019.21
640.49	1012.58
640.83	1006.27
641.17	999.92
641.52	993.66
641.86	987.23
642.20	981.36
642.55	975.08
642.89	968.52
643.23	962.00
643.58	956.18
643.92	950.03
644.26	943.89
644.61	937.90
644.95	931.80
645.29	925.10
645.64	918.37
645.98	912.04
646.32	906.25
646.66	900.27
647.01	894.45
647.35	888.77
647.69	882.96
648.04	877.53
648.38	871.78
648.72	865.72
649.06	859.63
649.41	853.72
649.75	847.70
650.09	841.73
650.43	835.96
650.78	829.87
651.12	823.95
651.46	818.19
651.80	812.41
652.14	807.07
652.49	801.73
652.83	796.60
653.17	790.89
653.51	785.12
653.85	779.68
654.20	774.06
654.54	768.04
654.88	762.29
655.22	756.31
655.56	750.58
655.90	745.15
656.25	739.96
656.59	734.68
656.93	729.63
657.27	724.55
657.61	719.14
657.95	714.09
658.29	708.99
658.64	703.89
658.98	698.68
659.32	693.21
659.66	687.98
660.00	682.62
660.34	677.72
660.68	672.84
661.02	667.88
661.36	663.13
661.70	658.63
662.05	654.31
662.39	649.97
662.73	645.57
663.07	641.22
663.41	636.75
663.75	632.17
664.09	627.62
664.43	623.20
664.77	619.00
665.11	614.75
665.45	610.61
665.79	606.42
666.13	602.26
666.47	598.21
666.81	594.11
667.15	590.02
667.49	586.10
667.83	582.31
668.17	578.35
668.51	574.32
668.85	570.27
669.19	566.40
669.53	562.53
669.87	558.62
670.21	554.94
670.55	551.31
670.89	547.92
671.23	544.48
671.57	540.95
671.91	537.42
672.25	533.95
672.58	530.43
672.92	527.08
673.26	523.85
673.60	520.63
673.94	517.49
674.28	514.62
674.62	511.67
674.96	508.57
675.30	505.64
675.64	502.70
675.97	500.00
676.31	497.14
676.65	494.22
676.99	491.54
677.33	488.62
677.67	485.77
678.01	482.76
678.34	479.74
678.68	476.92
679.02	474.12
679.36	471.33
679.70	468.62
680.04	465.88
680.37	463.05
680.71	460.32
681.05	457.75
681.39	455.03
681.73	452.37
682.06	449.82
682.40	447.29
682.74	444.78
683.08	442.19
683.42	439.59
683.75	437.11
684.09	434.56
684.43	432.13
684.77	429.67
685.10	427.30
685.44	425.04
685.78	422.70
686.12	420.52
686.45	418.27
686.79	415.95
687.13	413.73
687.46	411.54
687.80	409.41
688.14	407.17
688.48	405.06
688.81	402.77
689.15	400.62
689.49	398.47
689.82	396.36
690.16	394.28
690.50	392.34
690.83	390.36
691.17	388.36
691.51	386.40
691.84	384.56
692.18	382.64
692.52	380.66
692.85	378.77
693.19	376.84
693.52	374.99
693.86	373.22
694.20	371.41
694.53	369.64
694.87	367.79
695.21	366.00
695.54	364.23
695.88	362.57
696.21	360.85
696.55	359.22
696.88	357.57
697.22	355.93
697.56	354.34
697.89	352.70
698.23	351.12
698.56	349.54
698.90	347.96
699.23	346.34
699.57	344.75
699.90	343.21
700.24	341.68
700.58	340.12
700.91	338.62
701.25	337.17
701.58	335.80
701.92	334.43
702.25	333.07
702.59	331.66
702.92	330.32
703.26	328.99
703.59	327.72
703.93	326.57
704.26	325.35
704.60	324.00
704.93	322.73
705.26	321.46
705.60	320.26
705.93	319.10
706.27	318.04
706.60	317.05
706.94	315.97
707.27	314.81
707.61	313.78
707.94	312.72
708.27	311.65
708.61	310.60
708.94	309.58
709.28	308.65
709.61	307.73
709.94	306.79
710.28	305.79
710.61	304.80
710.95	303.70
711.28	302.75
711.61	301.83
711.95	300.93
712.28	299.98
712.61	299.00
712.95	298.07
713.28	297.17
713.61	296.25
713.95	295.34
714.28	294.52
714.61	293.67
714.95	292.85
715.28	292.00
715.61	291.10
715.95	290.29
716.28	289.39
716.61	288.57
716.95	287.82
717.28	287.10
717.61	286.33
717.94	285.59
718.28	284.77
718.61	284.06
718.94	283.36
719.27	282.72
719.61	282.11
719.94	281.47
720.27	280.76
720.60	280.05
720.94	279.43
721.27	278.82
721.60	278.24
721.93	277.62
722.27	277.07
722.60	276.50
722.93	275.91
723.26	275.38
723.59	274.82
723.93	274.19
724.26	273.68
724.59	273.16
724.92	272.67
725.25	272.18
725.59	271.64
725.92	271.14
726.25	270.64
726.58	270.13
726.91	269.63
727.24	269.16
727.57	268.74
727.91	268.27
728.24	267.80
728.57	267.31
728.90	266.85
729.23	266.36
729.56	265.96
729.89	265.48
730.22	264.99
730.55	264.50
730.89	264.08
731.22	263.60
731.55	263.11
731.88	262.65
732.21	262.24
732.54	261.79
732.87	261.40
733.20	260.97
733.53	260.57
733.86	260.21
734.19	259.83
734.52	259.40
734.85	259.12
735.18	258.68
735.51	258.33
735.84	257.98
736.17	257.64
736.50	257.22
736.83	257.01
737.16	256.68
737.49	256.35
737.82	256.02
738.15	255.69
738.48	255.36
738.81	255.02
739.14	254.68
739.47	254.37
739.80	254.03
740.13	253.72
740.46	253.40
740.79	253.05
741.12	252.73
741.45	252.43
741.78	252.00
742.11	251.74
742.44	251.37
742.77	251.07
743.10	250.74
743.43	250.45
743.75	250.04
744.08	249.90
744.41	249.64
744.74	249.36
745.07	249.05
745.40	248.82
745.73	248.59
746.06	248.31
746.39	248.06
746.71	247.80
747.04	247.53
747.37	247.27
747.70	247.04
748.03	246.81
748.36	246.62
748.68	246.39
749.01	246.13
749.34	245.92
749.67	245.69
750.00	245.48
750.33	245.30
750.65	245.08
750.98	244.75
751.31	244.52
751.64	244.30
751.97	244.14
752.29	243.93
752.62	243.69
752.95	243.50
753.28	243.26
753.60	243.07
753.93	242.89
754.26	242.71
754.59	242.48
754.91	242.29
755.24	242.09
755.57	241.89
755.90	241.73
756.22	241.54
756.55	241.34
756.88	241.17
757.20	240.95
757.53	240.77
757.86	240.58
758.19	240.41
758.51	240.25
758.84	240.08
759.17	239.87
759.49	239.75
759.82	239.61
760.15	239.49
760.47	239.36
760.80	239.20
761.13	239.07
761.45	238.93
761.78	238.78
762.11	238.62
762.43	238.47
762.76	238.35
763.08	238.22
763.41	238.11
763.74	237.95
764.06	237.81
764.39	237.66
764.71	237.55
765.04	237.42
765.37	237.28
765.69	237.11
766.02	237.00
766.34	236.85
766.67	236.72
767.00	236.62
767.32	236.53
767.65	236.48
767.97	236.37
768.30	236.27
768.62	236.16
768.95	236.07
769.27	235.97
769.60	235.85
769.92	235.74
770.25	235.60
770.57	235.51
770.90	235.40
771.22	235.33
771.55	235.22
771.87	235.12
772.20	235.01
772.52	235.02
772.85	235.03
773.17	234.94
773.50	234.83
773.82	234.68
774.15	234.56
774.47	234.39
774.80	234.23
775.12	234.13
775.45	234.05
775.77	233.94
776.09	233.88
776.42	233.80
776.74	233.75
777.07	233.69
777.39	233.60
777.72	233.54
778.04	233.48
778.36	233.40
778.69	233.33
779.01	233.28
779.33	233.13
779.66	232.94
779.98	232.86
780.31	232.78
780.63	232.77
780.95	232.72
781.28	232.66
781.60	232.63
781.92	232.55
782.25	232.50
782.57	232.46
782.89	232.37
783.22	232.33
783.54	232.26
783.86	232.20
784.19	232.12
784.51	232.10
784.83	232.02
785.16	231.97
785.48	231.90
785.80	231.84
786.12	231.82
786.45	231.80
786.77	231.77
787.09	231.76
