SpectraSuite Data File
++++++++++++++++++++++++++++++++++++
Date: Fri Feb 01 15:13:46 EST 2013
User: group
Dark Spectrum Present: No
Reference Spectrum Present: No
Number of Sampled Component Spectra: 1
Spectrometers: USB2E7196
Integration Time (usec): 35000 (USB2E7196)
Spectra Averaged: 100 (USB2E7196)
Boxcar Smoothing: 10 (USB2E7196)
Correct for Electrical Dark: No (USB2E7196)
Strobe/Lamp Enabled: No (USB2E7196)
Correct for Detector Non-linearity: No (USB2E7196)
Correct for Stray Light: No (USB2E7196)
Number of Pixels in Processed Spectrum: 2048
>>>>>Begin Processed Spectral Data<<<<<
339.09	0.00
339.48	215.81
339.86	216.49
340.24	218.14
340.63	219.56
341.01	222.29
341.39	222.82
341.78	223.34
342.16	224.84
342.54	225.49
342.93	213.72
343.31	224.50
343.69	225.04
344.07	225.51
344.46	225.95
344.84	226.33
345.22	226.58
345.60	226.81
345.99	227.01
346.37	227.14
346.75	227.24
347.13	227.30
347.52	227.37
347.90	227.48
348.28	227.50
348.66	227.53
349.05	227.53
349.43	227.58
349.81	227.65
350.19	227.68
350.57	227.72
350.96	227.82
351.34	227.90
351.72	227.98
352.10	228.08
352.48	228.14
352.87	228.21
353.25	228.25
353.63	228.30
354.01	228.39
354.39	228.44
354.77	228.53
355.15	228.62
355.54	228.66
355.92	228.66
356.30	228.72
356.68	228.83
357.06	228.87
357.44	228.92
357.82	228.96
358.20	229.03
358.58	229.07
358.97	229.12
359.35	229.22
359.73	229.28
360.11	229.31
360.49	229.37
360.87	229.35
361.25	229.38
361.63	229.46
362.01	229.48
362.39	229.51
362.77	229.53
363.15	229.56
363.53	229.58
363.91	229.60
364.29	229.60
364.67	229.51
365.05	229.53
365.43	229.52
365.81	229.55
366.19	229.56
366.57	229.61
366.95	229.57
367.33	229.52
367.71	229.50
368.09	229.52
368.47	229.48
368.85	229.49
369.23	229.50
369.61	229.42
369.99	229.40
370.37	229.37
370.75	229.37
371.13	229.30
371.51	229.23
371.89	229.18
372.27	229.14
372.65	229.08
373.03	229.01
373.41	228.94
373.78	228.86
374.16	228.75
374.54	228.66
374.92	228.60
375.30	228.55
375.68	228.46
376.06	228.36
376.44	228.31
376.82	228.28
377.19	228.19
377.57	228.12
377.95	228.05
378.33	227.98
378.71	227.83
379.09	227.78
379.47	227.71
379.84	227.66
380.22	227.60
380.60	227.53
380.98	227.45
381.36	227.38
381.73	227.29
382.11	227.23
382.49	227.17
382.87	227.12
383.25	227.02
383.62	227.07
384.00	227.00
384.38	226.94
384.76	226.87
385.13	226.87
385.51	226.83
385.89	226.75
386.27	226.69
386.64	226.72
387.02	226.68
387.40	226.63
387.78	226.59
388.15	226.52
388.53	226.49
388.91	226.44
389.29	226.41
389.66	226.41
390.04	226.37
390.42	226.35
390.79	226.35
391.17	226.35
391.55	226.23
391.92	226.18
392.30	226.18
392.68	226.16
393.05	226.12
393.43	226.14
393.81	226.15
394.18	226.18
394.56	226.16
394.94	226.21
395.31	226.24
395.69	226.32
396.06	226.37
396.44	226.44
396.82	226.52
397.19	226.61
397.57	226.67
397.95	226.78
398.32	226.81
398.70	226.87
399.07	226.95
399.45	227.04
399.82	227.18
400.20	227.27
400.58	227.32
400.95	227.39
401.33	227.49
401.70	227.67
402.08	227.75
402.45	227.85
402.83	227.97
403.20	228.10
403.58	228.22
403.95	228.38
404.33	228.52
404.71	228.69
405.08	228.89
405.46	229.02
405.83	229.17
406.21	229.33
406.58	229.49
406.96	229.67
407.33	229.87
407.70	230.08
408.08	230.34
408.45	230.60
408.83	230.84
409.20	231.04
409.58	231.24
409.95	231.56
410.33	231.82
410.70	232.06
411.08	232.39
411.45	232.67
411.82	232.96
412.20	233.33
412.57	233.71
412.95	234.04
413.32	234.50
413.69	234.88
414.07	235.38
414.44	235.86
414.82	236.31
415.19	236.88
415.56	237.42
415.94	238.00
416.31	238.67
416.68	239.33
417.06	240.06
417.43	240.72
417.81	241.47
418.18	242.25
418.55	243.08
418.93	243.93
419.30	244.84
419.67	245.79
420.04	246.75
420.42	247.77
420.79	248.90
421.16	250.01
421.54	251.22
421.91	252.41
422.28	253.66
422.66	255.03
423.03	256.34
423.40	257.65
423.77	259.02
424.15	260.46
424.52	261.93
424.89	263.56
425.26	265.13
425.64	266.57
426.01	268.19
426.38	269.87
426.75	271.53
427.13	273.23
427.50	275.06
427.87	276.93
428.24	278.80
428.61	280.60
428.99	282.54
429.36	284.68
429.73	286.71
430.10	288.75
430.47	290.81
430.85	292.90
431.22	295.18
431.59	297.60
431.96	299.83
432.33	302.28
432.70	304.65
433.08	307.45
433.45	310.08
433.82	312.67
434.19	315.59
434.56	318.44
434.93	321.08
435.30	323.68
435.68	326.55
436.05	329.36
436.42	332.14
436.79	334.66
437.16	337.32
437.53	340.18
437.90	343.02
438.27	345.78
438.64	348.63
439.01	351.23
439.38	353.45
439.75	355.64
440.13	358.12
440.50	360.46
440.87	362.33
441.24	364.29
441.61	366.50
441.98	367.97
442.35	369.74
442.72	371.63
443.09	373.46
443.46	374.44
443.83	375.03
444.20	375.53
444.57	376.34
444.94	376.65
445.31	377.00
445.68	377.32
446.05	377.34
446.42	376.95
446.79	376.47
447.16	376.00
447.53	375.65
447.90	374.53
448.27	373.37
448.64	371.74
449.01	370.59
449.37	368.57
449.74	366.66
450.11	364.43
450.48	361.98
450.85	359.42
451.22	357.30
451.59	355.25
451.96	353.23
452.33	350.68
452.70	348.31
453.07	345.44
453.43	342.52
453.80	339.78
454.17	337.08
454.54	334.58
454.91	331.84
455.28	329.16
455.65	326.63
456.02	324.18
456.38	322.04
456.75	319.40
457.12	317.15
457.49	314.95
457.86	312.75
458.23	310.90
458.59	308.84
458.96	306.79
459.33	304.97
459.70	303.17
460.07	301.64
460.43	299.92
460.80	298.34
461.17	296.89
461.54	295.36
461.91	293.96
462.27	292.51
462.64	291.27
463.01	289.91
463.38	288.63
463.74	287.24
464.11	286.06
464.48	285.04
464.85	283.92
465.21	283.01
465.58	282.08
465.95	280.93
466.32	280.02
466.68	279.08
467.05	278.15
467.42	277.21
467.78	276.28
468.15	275.37
468.52	274.69
468.88	273.82
469.25	273.06
469.62	272.42
469.98	271.72
470.35	271.08
470.72	270.45
471.08	269.79
471.45	269.26
471.82	268.70
472.18	268.07
472.55	267.63
472.92	267.08
473.28	266.59
473.65	266.14
474.02	265.69
474.38	265.32
474.75	265.00
475.11	264.66
475.48	264.37
475.85	264.15
476.21	263.89
476.58	263.72
476.94	263.54
477.31	263.36
477.67	263.25
478.04	263.11
478.41	263.05
478.77	263.10
479.14	263.04
479.50	263.05
479.87	263.10
480.23	263.16
480.60	263.22
480.96	263.35
481.33	263.57
481.69	263.76
482.06	263.92
482.42	264.10
482.79	264.35
483.15	264.65
483.52	265.04
483.88	265.41
484.25	265.79
484.61	266.21
484.98	266.66
485.34	267.18
485.71	267.77
486.07	268.35
486.44	268.90
486.80	269.59
487.17	270.30
487.53	271.11
487.90	271.99
488.26	272.91
488.62	273.86
488.99	274.85
489.35	275.86
489.72	276.99
490.08	278.19
490.44	279.49
490.81	280.83
491.17	282.17
491.54	283.62
491.90	285.15
492.26	286.80
492.63	288.50
492.99	290.28
493.36	292.21
493.72	294.26
494.08	296.35
494.45	298.59
494.81	300.98
495.17	303.40
495.54	305.93
495.90	308.63
496.26	311.42
496.63	314.34
496.99	317.46
497.35	320.68
497.72	324.06
498.08	327.52
498.44	331.22
498.80	335.09
499.17	339.12
499.53	343.28
499.89	347.62
500.26	352.16
500.62	356.82
500.98	361.78
501.34	366.80
501.71	372.11
502.07	377.54
502.43	383.10
502.79	388.92
503.16	395.04
503.52	401.25
503.88	407.67
504.24	414.34
504.60	421.24
504.97	428.35
505.33	435.75
505.69	443.48
506.05	451.24
506.41	459.15
506.78	467.31
507.14	475.76
507.50	484.52
507.86	493.55
508.22	502.70
508.59	511.82
508.95	521.47
509.31	531.28
509.67	541.35
510.03	551.70
510.39	562.29
510.75	573.14
511.12	584.15
511.48	595.49
511.84	606.95
512.20	618.52
512.56	630.57
512.92	642.74
513.28	655.03
513.64	667.47
514.00	680.20
514.37	693.06
514.73	706.11
515.09	719.12
515.45	732.40
515.81	746.08
516.17	760.16
516.53	774.24
516.89	788.40
517.25	802.61
517.61	817.02
517.97	831.51
518.33	845.86
518.69	860.58
519.05	875.62
519.41	890.81
519.77	906.34
520.13	921.77
520.49	937.22
520.85	952.67
521.21	968.46
521.57	984.75
521.93	1000.55
522.29	1017.03
522.65	1033.39
523.01	1049.61
523.37	1065.66
523.73	1081.88
524.09	1098.12
524.45	1114.66
524.81	1131.36
525.17	1148.33
525.53	1165.32
525.89	1182.26
526.25	1199.25
526.61	1215.69
526.97	1232.49
527.33	1248.99
527.68	1265.65
528.04	1282.13
528.40	1298.84
528.76	1315.98
529.12	1332.58
529.48	1349.58
529.84	1365.69
530.20	1382.38
530.56	1399.57
530.91	1417.02
531.27	1433.79
531.63	1450.28
531.99	1466.80
532.35	1482.83
532.71	1498.71
533.07	1514.95
533.42	1530.91
533.78	1546.94
534.14	1563.21
534.50	1578.62
534.86	1594.66
535.21	1609.80
535.57	1625.95
535.93	1641.57
536.29	1656.50
536.65	1671.72
537.00	1686.66
537.36	1702.02
537.72	1716.69
538.08	1731.18
538.44	1745.15
538.79	1759.16
539.15	1772.97
539.51	1786.83
539.87	1801.40
540.22	1815.16
540.58	1829.10
540.94	1842.56
541.29	1855.63
541.65	1868.38
542.01	1881.75
542.37	1894.16
542.72	1906.75
543.08	1918.50
543.44	1930.92
543.79	1942.06
544.15	1953.04
544.51	1964.56
544.87	1975.59
545.22	1986.38
545.58	1996.65
545.94	2006.34
546.29	2016.20
546.65	2026.00
547.01	2035.21
547.36	2043.88
547.72	2052.48
548.07	2060.28
548.43	2068.48
548.79	2076.58
549.14	2084.23
549.50	2091.73
549.86	2099.36
550.21	2106.74
550.57	2113.98
550.92	2120.54
551.28	2127.63
551.64	2134.71
551.99	2141.29
552.35	2147.42
552.70	2153.46
553.06	2159.33
553.41	2165.61
553.77	2171.74
554.13	2177.97
554.48	2184.09
554.84	2189.54
555.19	2194.82
555.55	2199.98
555.90	2204.42
556.26	2209.17
556.61	2213.72
556.97	2217.66
557.32	2221.80
557.68	2225.88
558.03	2230.06
558.39	2233.81
558.74	2238.49
559.10	2242.39
559.45	2246.06
559.81	2250.38
560.16	2254.27
560.52	2257.55
560.87	2261.05
561.23	2263.77
561.58	2266.63
561.94	2269.17
562.29	2271.53
562.64	2274.17
563.00	2276.78
563.35	2280.21
563.71	2283.30
564.06	2286.57
564.42	2289.46
564.77	2291.85
565.12	2294.04
565.48	2295.76
565.83	2297.47
566.19	2298.77
566.54	2299.62
566.89	2300.70
567.25	2301.16
567.60	2302.57
567.96	2304.21
568.31	2305.11
568.66	2305.89
569.02	2306.29
569.37	2306.46
569.72	2307.04
570.08	2307.06
570.43	2306.98
570.78	2306.28
571.14	2304.66
571.49	2303.30
571.84	2303.04
572.20	2301.81
572.55	2300.73
572.90	2299.26
573.26	2297.88
573.61	2296.02
573.96	2294.06
574.31	2290.93
574.67	2287.93
575.02	2284.06
575.37	2280.60
575.72	2276.47
576.08	2273.17
576.43	2269.90
576.78	2266.28
577.13	2263.21
577.49	2260.16
577.84	2256.48
578.19	2252.66
578.54	2248.87
578.90	2244.56
579.25	2238.94
579.60	2233.98
579.95	2228.94
580.30	2223.86
580.66	2218.54
581.01	2213.64
581.36	2208.78
581.71	2204.51
582.06	2199.98
582.42	2195.39
582.77	2189.93
583.12	2185.19
583.47	2180.41
583.82	2175.15
584.17	2169.71
584.53	2164.07
584.88	2158.22
585.23	2152.23
585.58	2146.76
585.93	2141.33
586.28	2136.39
586.63	2131.11
586.98	2125.89
587.34	2121.17
587.69	2116.24
588.04	2110.97
588.39	2104.99
588.74	2098.41
589.09	2092.16
589.44	2085.19
589.79	2079.20
590.14	2073.68
590.49	2067.15
590.84	2060.63
591.19	2054.61
591.54	2048.11
591.89	2040.57
592.25	2033.79
592.60	2026.60
592.95	2018.87
593.30	2011.32
593.65	2003.71
594.00	1996.63
594.35	1989.30
594.70	1981.12
595.05	1973.57
595.40	1966.30
595.75	1958.84
596.10	1952.46
596.45	1945.72
596.80	1939.41
597.15	1932.54
597.50	1925.26
597.85	1918.89
598.19	1912.18
598.54	1904.95
598.89	1898.31
599.24	1892.40
599.59	1885.50
599.94	1879.40
600.29	1873.11
600.64	1866.59
600.99	1859.08
601.34	1852.02
601.69	1844.97
602.04	1837.82
602.39	1830.58
602.74	1823.60
603.08	1816.89
603.43	1810.11
603.78	1802.76
604.13	1795.62
604.48	1788.31
604.83	1781.50
605.18	1774.37
605.53	1766.37
605.87	1758.33
606.22	1751.15
606.57	1743.27
606.92	1735.99
607.27	1728.61
607.62	1721.60
607.96	1714.22
608.31	1707.51
608.66	1699.94
609.01	1692.35
609.36	1684.83
609.70	1676.75
610.05	1668.58
610.40	1660.81
610.75	1652.56
611.10	1644.87
611.44	1636.42
611.79	1628.48
612.14	1619.77
612.49	1610.73
612.83	1602.31
613.18	1594.37
613.53	1586.06
613.88	1577.51
614.22	1569.24
614.57	1560.70
614.92	1552.65
615.27	1545.11
615.61	1536.83
615.96	1528.92
616.31	1521.41
616.65	1514.02
617.00	1506.50
617.35	1498.93
617.70	1490.46
618.04	1481.83
618.39	1473.53
618.74	1466.01
619.08	1457.63
619.43	1450.04
619.78	1443.15
620.12	1435.96
620.47	1428.29
620.82	1420.34
621.16	1412.96
621.51	1405.38
621.85	1397.79
622.20	1389.23
622.55	1380.89
622.89	1373.12
623.24	1365.51
623.59	1358.21
623.93	1350.77
624.28	1343.59
624.62	1336.03
624.97	1328.99
625.32	1322.35
625.66	1315.27
626.01	1308.06
626.35	1300.69
626.70	1292.89
627.04	1285.01
627.39	1277.34
627.73	1269.93
628.08	1262.79
628.43	1255.31
628.77	1247.86
629.12	1240.25
629.46	1233.10
629.81	1225.83
630.15	1218.54
630.50	1211.12
630.84	1202.78
631.19	1194.90
631.53	1187.42
631.88	1179.95
632.22	1172.34
632.57	1165.05
632.91	1157.65
633.26	1150.16
633.60	1142.88
633.95	1135.87
634.29	1128.87
634.64	1122.18
634.98	1114.86
635.32	1107.87
635.67	1101.34
636.01	1094.75
636.36	1088.05
636.70	1081.57
637.05	1074.97
637.39	1068.50
637.73	1062.02
638.08	1056.22
638.42	1050.27
638.77	1043.82
639.11	1037.12
639.45	1030.73
639.80	1024.12
640.14	1017.69
640.49	1011.22
640.83	1004.89
641.17	998.64
641.52	992.41
641.86	986.00
642.20	980.15
642.55	973.89
642.89	967.45
643.23	961.01
643.58	955.25
643.92	949.09
644.26	942.94
644.61	936.93
644.95	930.94
645.29	924.33
645.64	917.59
645.98	911.18
646.32	905.36
646.66	899.36
647.01	893.51
647.35	887.83
647.69	881.99
648.04	876.40
648.38	870.59
648.72	864.53
649.06	858.48
649.41	852.60
649.75	846.55
650.09	840.58
650.43	834.68
650.78	828.46
651.12	822.50
651.46	816.81
651.80	810.98
652.14	805.48
652.49	800.15
652.83	794.93
653.17	789.25
653.51	783.47
653.85	778.10
654.20	772.38
654.54	766.38
654.88	760.75
655.22	754.93
655.56	749.24
655.90	743.80
656.25	738.52
656.59	733.17
656.93	728.04
657.27	722.92
657.61	717.50
657.95	712.53
658.29	707.49
658.64	702.31
658.98	697.11
659.32	691.74
659.66	686.53
660.00	681.22
660.34	676.36
660.68	671.52
661.02	666.43
661.36	661.79
661.70	657.36
662.05	652.89
662.39	648.57
662.73	644.20
663.07	639.85
663.41	635.40
663.75	630.90
664.09	626.48
664.43	622.12
664.77	618.07
665.11	613.74
665.45	609.63
665.79	605.58
666.13	601.46
666.47	597.36
666.81	593.19
667.15	589.07
667.49	585.14
667.83	581.40
668.17	577.56
668.51	573.55
668.85	569.54
669.19	565.76
669.53	561.87
669.87	557.95
670.21	554.27
670.55	550.64
670.89	547.24
671.23	543.77
671.57	540.23
671.91	536.72
672.25	533.29
672.58	529.75
672.92	526.29
673.26	523.13
673.60	519.98
673.94	516.89
674.28	514.09
674.62	511.19
674.96	508.06
675.30	505.14
675.64	502.16
675.97	499.36
676.31	496.49
676.65	493.62
676.99	490.91
677.33	488.09
677.67	485.26
678.01	482.24
678.34	479.21
678.68	476.40
679.02	473.53
679.36	470.79
679.70	468.13
680.04	465.39
680.37	462.47
680.71	459.72
681.05	457.10
681.39	454.37
681.73	451.77
682.06	449.29
682.40	446.74
682.74	444.25
683.08	441.73
683.42	439.15
683.75	436.66
684.09	434.14
684.43	431.64
684.77	429.21
685.10	426.90
685.44	424.71
685.78	422.41
686.12	420.26
686.45	417.94
686.79	415.63
687.13	413.52
687.46	411.42
687.80	409.32
688.14	407.15
688.48	405.07
688.81	402.80
689.15	400.64
689.49	398.51
689.82	396.45
690.16	394.38
690.50	392.42
690.83	390.51
691.17	388.53
691.51	386.65
691.84	384.82
692.18	382.84
692.52	380.82
692.85	378.89
693.19	376.96
693.52	375.18
693.86	373.35
694.20	371.49
694.53	369.68
694.87	367.80
695.21	365.99
695.54	364.16
695.88	362.43
696.21	360.69
696.55	358.99
696.88	357.27
697.22	355.64
697.56	354.02
697.89	352.33
698.23	350.74
698.56	349.15
698.90	347.54
699.23	345.92
699.57	344.36
699.90	342.86
700.24	341.29
700.58	339.76
700.91	338.30
701.25	336.90
701.58	335.52
701.92	334.16
702.25	332.80
702.59	331.51
702.92	330.20
703.26	328.92
703.59	327.63
703.93	326.46
704.26	325.22
704.60	323.96
704.93	322.71
705.26	321.47
705.60	320.32
705.93	319.18
706.27	318.17
706.60	317.15
706.94	316.08
707.27	314.97
707.61	313.91
707.94	312.87
708.27	311.78
708.61	310.74
708.94	309.74
709.28	308.76
709.61	307.81
709.94	306.87
710.28	305.88
710.61	304.94
710.95	303.89
711.28	302.98
711.61	302.07
711.95	301.20
712.28	300.25
712.61	299.26
712.95	298.32
713.28	297.47
713.61	296.56
713.95	295.68
714.28	294.87
714.61	294.02
714.95	293.22
715.28	292.36
715.61	291.49
715.95	290.66
716.28	289.82
716.61	288.96
716.95	288.15
717.28	287.42
717.61	286.67
717.94	285.95
718.28	285.11
718.61	284.37
718.94	283.69
719.27	283.07
719.61	282.42
719.94	281.81
720.27	281.07
720.60	280.44
720.94	279.85
721.27	279.26
721.60	278.67
721.93	278.06
722.27	277.53
722.60	277.00
722.93	276.45
723.26	275.93
723.59	275.36
723.93	274.83
724.26	274.28
724.59	273.74
724.92	273.22
725.25	272.76
725.59	272.26
725.92	271.72
726.25	271.19
726.58	270.70
726.91	270.19
727.24	269.70
727.57	269.23
727.91	268.65
728.24	268.18
728.57	267.69
728.90	267.22
729.23	266.72
729.56	266.27
729.89	265.78
730.22	265.28
730.55	264.78
730.89	264.29
731.22	263.84
731.55	263.39
731.88	262.93
732.21	262.53
732.54	262.08
732.87	261.64
733.20	261.24
733.53	260.85
733.86	260.43
734.19	260.02
734.52	259.64
734.85	259.36
735.18	258.93
735.51	258.57
735.84	258.19
736.17	257.83
736.50	257.43
736.83	257.17
737.16	256.85
737.49	256.54
737.82	256.21
738.15	255.85
738.48	255.47
738.81	255.13
739.14	254.77
739.47	254.44
739.80	254.15
740.13	253.84
740.46	253.48
740.79	253.16
741.12	252.85
741.45	252.52
741.78	252.14
742.11	251.87
742.44	251.51
742.77	251.26
743.10	250.95
743.43	250.65
743.75	250.28
744.08	250.13
744.41	249.86
744.74	249.58
745.07	249.28
745.40	249.07
745.73	248.82
746.06	248.55
746.39	248.31
746.71	248.00
747.04	247.72
747.37	247.47
747.70	247.25
748.03	247.01
748.36	246.79
748.68	246.56
749.01	246.29
749.34	246.06
749.67	245.79
750.00	245.56
750.33	245.40
750.65	245.19
750.98	244.82
751.31	244.60
751.64	244.42
751.97	244.29
752.29	244.08
752.62	243.85
752.95	243.68
753.28	243.46
753.60	243.26
753.93	243.13
754.26	242.96
754.59	242.73
754.91	242.56
755.24	242.36
755.57	242.17
755.90	242.01
756.22	241.85
756.55	241.67
756.88	241.49
757.20	241.26
757.53	241.04
757.86	240.89
758.19	240.75
758.51	240.59
758.84	240.38
759.17	240.23
759.49	240.08
759.82	239.97
760.15	239.83
760.47	239.71
760.80	239.52
761.13	239.38
761.45	239.25
761.78	239.09
762.11	238.95
762.43	238.83
762.76	238.69
763.08	238.58
763.41	238.45
763.74	238.32
764.06	238.20
764.39	238.08
764.71	237.96
765.04	237.81
765.37	237.70
765.69	237.60
766.02	237.44
766.34	237.33
766.67	237.15
767.00	237.03
767.32	236.98
767.65	236.94
767.97	236.84
768.30	236.75
768.62	236.62
768.95	236.49
769.27	236.38
769.60	236.28
769.92	236.17
770.25	236.04
770.57	235.97
770.90	235.86
771.22	235.80
771.55	235.68
771.87	235.59
772.20	235.46
772.52	235.43
772.85	235.45
773.17	235.35
773.50	235.25
773.82	235.16
774.15	235.02
774.47	234.83
774.80	234.72
775.12	234.59
775.45	234.53
775.77	234.46
776.09	234.35
776.42	234.27
776.74	234.19
777.07	234.12
777.39	234.01
777.72	233.93
778.04	233.84
778.36	233.78
778.69	233.70
779.01	233.61
779.33	233.44
779.66	233.27
779.98	233.17
780.31	233.09
780.63	233.05
780.95	232.96
781.28	232.90
781.60	232.80
781.92	232.76
782.25	232.69
782.57	232.61
782.89	232.57
783.22	232.49
783.54	232.40
783.86	232.32
784.19	232.25
784.51	232.20
784.83	232.10
785.16	232.05
785.48	231.99
785.80	231.94
786.12	231.89
786.45	231.84
786.77	231.80
787.09	231.77
