SpectraSuite Data File
++++++++++++++++++++++++++++++++++++
Date: Fri Feb 01 17:09:34 EST 2013
User: group
Dark Spectrum Present: No
Reference Spectrum Present: No
Number of Sampled Component Spectra: 1
Spectrometers: USB2E7196
Integration Time (usec): 35000 (USB2E7196)
Spectra Averaged: 100 (USB2E7196)
Boxcar Smoothing: 10 (USB2E7196)
Correct for Electrical Dark: No (USB2E7196)
Strobe/Lamp Enabled: No (USB2E7196)
Correct for Detector Non-linearity: No (USB2E7196)
Correct for Stray Light: No (USB2E7196)
Number of Pixels in Processed Spectrum: 2048
>>>>>Begin Processed Spectral Data<<<<<
339.09	0.00
339.48	213.06
339.86	214.26
340.24	216.33
340.63	217.61
341.01	220.45
341.39	220.13
341.78	221.17
342.16	222.67
342.54	223.20
342.93	211.56
343.31	222.22
343.69	222.79
344.07	223.28
344.46	223.71
344.84	224.09
345.22	224.31
345.60	224.54
345.99	224.72
346.37	224.86
346.75	224.95
347.13	224.98
347.52	225.05
347.90	225.11
348.28	225.11
348.66	225.16
349.05	225.16
349.43	225.19
349.81	225.21
350.19	225.27
350.57	225.31
350.96	225.39
351.34	225.50
351.72	225.56
352.10	225.63
352.48	225.65
352.87	225.69
353.25	225.73
353.63	225.81
354.01	225.88
354.39	225.93
354.77	226.00
355.15	226.14
355.54	226.17
355.92	226.23
356.30	226.34
356.68	226.45
357.06	226.53
357.44	226.58
357.82	226.70
358.20	226.72
358.58	226.82
358.97	226.88
359.35	226.98
359.73	227.03
360.11	227.10
360.49	227.18
360.87	227.22
361.25	227.31
361.63	227.36
362.01	227.42
362.39	227.46
362.77	227.51
363.15	227.51
363.53	227.56
363.91	227.58
364.29	227.57
364.67	227.50
365.05	227.51
365.43	227.54
365.81	227.54
366.19	227.62
366.57	227.68
366.95	227.66
367.33	227.60
367.71	227.62
368.09	227.63
368.47	227.61
368.85	227.60
369.23	227.60
369.61	227.58
369.99	227.59
370.37	227.56
370.75	227.58
371.13	227.55
371.51	227.52
371.89	227.50
372.27	227.50
372.65	227.49
373.03	227.45
373.41	227.42
373.78	227.39
374.16	227.27
374.54	227.16
374.92	227.12
375.30	227.09
375.68	227.00
376.06	226.93
376.44	226.90
376.82	226.83
377.19	226.78
377.57	226.74
377.95	226.67
378.33	226.58
378.71	226.50
379.09	226.47
379.47	226.40
379.84	226.36
380.22	226.27
380.60	226.18
380.98	226.11
381.36	226.00
381.73	225.94
382.11	225.91
382.49	225.86
382.87	225.78
383.25	225.73
383.62	225.79
384.00	225.74
384.38	225.67
384.76	225.67
385.13	225.65
385.51	225.57
385.89	225.52
386.27	225.50
386.64	225.44
387.02	225.37
387.40	225.33
387.78	225.29
388.15	225.29
388.53	225.25
388.91	225.21
389.29	225.19
389.66	225.14
390.04	225.08
390.42	225.06
390.79	225.05
391.17	225.00
391.55	224.90
391.92	224.90
392.30	224.88
392.68	224.81
393.05	224.79
393.43	224.80
393.81	224.77
394.18	224.76
394.56	224.75
394.94	224.79
395.31	224.78
395.69	224.82
396.06	224.82
396.44	224.84
396.82	224.88
397.19	224.95
397.57	225.02
397.95	225.10
398.32	225.10
398.70	225.16
399.07	225.25
399.45	225.26
399.82	225.30
400.20	225.35
400.58	225.43
400.95	225.46
401.33	225.53
401.70	225.69
402.08	225.76
402.45	225.84
402.83	225.90
403.20	226.00
403.58	226.08
403.95	226.20
404.33	226.30
404.71	226.41
405.08	226.61
405.46	226.70
405.83	226.80
406.21	226.97
406.58	227.14
406.96	227.28
407.33	227.47
407.70	227.62
408.08	227.90
408.45	228.10
408.83	228.30
409.20	228.49
409.58	228.62
409.95	228.90
410.33	229.18
410.70	229.42
411.08	229.72
411.45	230.02
411.82	230.33
412.20	230.65
412.57	231.07
412.95	231.34
413.32	231.75
413.69	232.14
414.07	232.59
414.44	233.04
414.82	233.50
415.19	234.06
415.56	234.66
415.94	235.19
416.31	235.83
416.68	236.47
417.06	237.21
417.43	237.91
417.81	238.67
418.18	239.44
418.55	240.31
418.93	241.18
419.30	242.05
419.67	242.99
420.04	243.97
420.42	244.92
420.79	246.10
421.16	247.25
421.54	248.47
421.91	249.69
422.28	250.92
422.66	252.24
423.03	253.54
423.40	254.84
423.77	256.27
424.15	257.71
424.52	259.19
424.89	260.78
425.26	262.32
425.64	263.79
426.01	265.42
426.38	267.09
426.75	268.77
427.13	270.52
427.50	272.32
427.87	274.19
428.24	276.08
428.61	277.82
428.99	279.74
429.36	281.82
429.73	283.87
430.10	285.90
430.47	287.94
430.85	290.06
431.22	292.33
431.59	294.67
431.96	296.92
432.33	299.43
432.70	301.77
433.08	304.58
433.45	307.15
433.82	309.72
434.19	312.57
434.56	315.37
434.93	317.99
435.30	320.55
435.68	323.48
436.05	326.33
436.42	329.10
436.79	331.60
437.16	334.31
437.53	337.09
437.90	339.89
438.27	342.64
438.64	345.42
439.01	347.97
439.38	350.20
439.75	352.31
440.13	354.72
440.50	357.08
440.87	358.93
441.24	360.88
441.61	363.01
441.98	364.48
442.35	366.24
442.72	368.09
443.09	369.89
443.46	370.85
443.83	371.43
444.20	371.97
444.57	372.83
444.94	373.09
445.31	373.47
445.68	373.83
446.05	373.92
446.42	373.57
446.79	373.16
447.16	372.70
447.53	372.43
447.90	371.31
448.27	370.13
448.64	368.56
449.01	367.41
449.37	365.48
449.74	363.63
450.11	361.43
450.48	358.98
450.85	356.50
451.22	354.33
451.59	352.29
451.96	350.35
452.33	347.71
452.70	345.39
453.07	342.56
453.43	339.66
453.80	336.90
454.17	334.22
454.54	331.71
454.91	329.01
455.28	326.35
455.65	323.88
456.02	321.48
456.38	319.35
456.75	316.69
457.12	314.46
457.49	312.24
457.86	310.09
458.23	308.24
458.59	306.23
458.96	304.18
459.33	302.33
459.70	300.44
460.07	298.97
460.43	297.25
460.80	295.64
461.17	294.22
461.54	292.74
461.91	291.32
462.27	289.86
462.64	288.66
463.01	287.31
463.38	286.02
463.74	284.67
464.11	283.50
464.48	282.53
464.85	281.43
465.21	280.55
465.58	279.61
465.95	278.53
466.32	277.57
466.68	276.67
467.05	275.79
467.42	274.93
467.78	274.02
468.15	273.16
468.52	272.51
468.88	271.65
469.25	270.86
469.62	270.28
469.98	269.65
470.35	268.95
470.72	268.37
471.08	267.70
471.45	267.18
471.82	266.66
472.18	266.08
472.55	265.66
472.92	265.18
473.28	264.74
473.65	264.31
474.02	263.95
474.38	263.61
474.75	263.35
475.11	263.01
475.48	262.77
475.85	262.53
476.21	262.37
476.58	262.21
476.94	262.09
477.31	261.90
477.67	261.79
478.04	261.74
478.41	261.71
478.77	261.81
479.14	261.78
479.50	261.79
479.87	261.87
480.23	261.97
480.60	262.04
480.96	262.17
481.33	262.39
481.69	262.56
482.06	262.81
482.42	262.98
482.79	263.26
483.15	263.57
483.52	264.00
483.88	264.31
484.25	264.69
484.61	265.19
484.98	265.68
485.34	266.21
485.71	266.83
486.07	267.44
486.44	267.98
486.80	268.70
487.17	269.46
487.53	270.28
487.90	271.11
488.26	272.04
488.62	272.99
488.99	273.95
489.35	275.01
489.72	276.09
490.08	277.31
490.44	278.55
490.81	279.86
491.17	281.16
491.54	282.65
491.90	284.19
492.26	285.79
492.63	287.50
492.99	289.31
493.36	291.18
493.72	293.22
494.08	295.36
494.45	297.59
494.81	299.91
495.17	302.34
495.54	304.89
495.90	307.56
496.26	310.37
496.63	313.32
496.99	316.41
497.35	319.69
497.72	323.06
498.08	326.59
498.44	330.25
498.80	334.13
499.17	338.11
499.53	342.25
499.89	346.57
500.26	351.04
500.62	355.67
500.98	360.58
501.34	365.57
501.71	370.86
502.07	376.25
502.43	381.84
502.79	387.62
503.16	393.64
503.52	399.83
503.88	406.19
504.24	412.73
504.60	419.53
504.97	426.54
505.33	433.84
505.69	441.44
506.05	449.19
506.41	457.01
506.78	465.11
507.14	473.52
507.50	482.13
507.86	491.02
508.22	500.09
508.59	509.18
508.95	518.64
509.31	528.33
509.67	538.27
510.03	548.40
510.39	558.83
510.75	569.52
511.12	580.30
511.48	591.41
511.84	602.74
512.20	614.10
512.56	625.90
512.92	637.83
513.28	649.96
513.64	662.20
514.00	674.72
514.37	687.44
514.73	700.14
515.09	712.95
515.45	726.09
515.81	739.44
516.17	753.19
516.53	767.02
516.89	780.81
517.25	794.70
517.61	808.94
517.97	823.15
518.33	837.20
518.69	851.69
519.05	866.40
519.41	881.25
519.77	896.50
520.13	911.57
520.49	926.64
520.85	941.74
521.21	957.04
521.57	972.96
521.93	988.37
522.29	1004.55
522.65	1020.54
523.01	1036.36
523.37	1052.02
523.73	1067.81
524.09	1083.65
524.45	1099.68
524.81	1115.96
525.17	1132.31
525.53	1148.69
525.89	1165.27
526.25	1181.82
526.61	1197.84
526.97	1214.17
527.33	1230.31
527.68	1246.51
528.04	1262.67
528.40	1278.79
528.76	1295.51
529.12	1311.58
529.48	1328.17
529.84	1343.70
530.20	1359.79
530.56	1376.43
530.91	1393.42
531.27	1409.83
531.63	1425.79
531.99	1441.97
532.35	1457.64
532.71	1473.19
533.07	1489.12
533.42	1504.58
533.78	1520.25
534.14	1536.12
534.50	1551.17
534.86	1566.61
535.21	1581.47
535.57	1597.05
535.93	1612.20
536.29	1626.66
536.65	1641.42
537.00	1655.58
537.36	1670.70
537.72	1684.82
538.08	1698.87
538.44	1712.31
538.79	1725.94
539.15	1739.22
539.51	1752.61
539.87	1766.54
540.22	1779.85
540.58	1793.17
540.94	1806.03
541.29	1818.46
541.65	1830.79
542.01	1843.65
542.37	1855.70
542.72	1867.74
543.08	1879.16
543.44	1891.30
543.79	1902.30
544.15	1913.01
544.51	1924.44
544.87	1935.09
545.22	1945.81
545.58	1955.80
545.94	1965.24
546.29	1974.75
546.65	1984.50
547.01	1993.58
547.36	2002.15
547.72	2010.48
548.07	2018.32
548.43	2026.32
548.79	2034.28
549.14	2041.68
549.50	2048.80
549.86	2056.34
550.21	2063.64
550.57	2070.64
550.92	2077.09
551.28	2083.95
551.64	2091.07
551.99	2097.58
552.35	2103.71
552.70	2109.75
553.06	2115.69
553.41	2122.18
553.77	2128.31
554.13	2134.36
554.48	2140.57
554.84	2146.15
555.19	2151.34
555.55	2156.55
555.90	2161.19
556.26	2166.13
556.61	2171.02
556.97	2175.50
557.32	2179.56
557.68	2183.66
558.03	2188.04
558.39	2191.79
558.74	2196.56
559.10	2200.41
559.45	2204.12
559.81	2208.22
560.16	2212.31
560.52	2215.76
560.87	2219.13
561.23	2221.84
561.58	2224.75
561.94	2227.23
562.29	2229.40
562.64	2232.36
563.00	2234.96
563.35	2238.51
563.71	2241.71
564.06	2244.81
564.42	2248.00
564.77	2250.85
565.12	2253.33
565.48	2255.40
565.83	2257.46
566.19	2259.02
566.54	2259.98
566.89	2261.34
567.25	2262.37
567.60	2263.54
567.96	2265.24
568.31	2266.25
568.66	2267.50
569.02	2268.34
569.37	2268.88
569.72	2270.11
570.08	2270.51
570.43	2270.74
570.78	2270.50
571.14	2269.11
571.49	2268.08
571.84	2267.71
572.20	2266.73
572.55	2266.01
572.90	2264.58
573.26	2263.45
573.61	2261.78
573.96	2260.50
574.31	2257.74
574.67	2254.93
575.02	2251.57
575.37	2248.43
575.72	2245.09
576.08	2241.91
576.43	2238.72
576.78	2235.38
577.13	2232.51
577.49	2229.55
577.84	2226.49
578.19	2222.89
578.54	2219.58
578.90	2215.63
579.25	2210.36
579.60	2205.56
579.95	2200.69
580.30	2195.96
580.66	2190.93
581.01	2186.16
581.36	2181.34
581.71	2177.44
582.06	2173.25
582.42	2169.23
582.77	2164.34
583.12	2159.92
583.47	2155.53
583.82	2150.90
584.17	2145.92
584.53	2140.64
584.88	2135.19
585.23	2129.56
585.58	2124.28
585.93	2118.98
586.28	2114.36
586.63	2109.62
586.98	2104.90
587.34	2100.32
587.69	2095.49
588.04	2090.55
588.39	2085.37
588.74	2079.16
589.09	2073.25
589.44	2066.74
589.79	2060.75
590.14	2055.18
590.49	2048.79
590.84	2042.61
591.19	2036.76
591.54	2030.57
591.89	2023.40
592.25	2016.95
592.60	2009.89
592.95	2002.75
593.30	1995.68
593.65	1988.40
594.00	1981.40
594.35	1974.30
594.70	1966.48
595.05	1959.82
595.40	1952.73
595.75	1945.24
596.10	1939.34
596.45	1932.82
596.80	1926.76
597.15	1920.45
597.50	1913.72
597.85	1907.47
598.19	1901.02
598.54	1894.17
598.89	1887.57
599.24	1881.83
599.59	1875.45
599.94	1869.41
600.29	1863.08
600.64	1856.52
600.99	1849.30
601.34	1842.73
601.69	1835.89
602.04	1829.24
602.39	1821.77
602.74	1815.13
603.08	1808.63
603.43	1801.91
603.78	1794.69
604.13	1787.62
604.48	1780.50
604.83	1773.65
605.18	1766.96
605.53	1759.17
605.87	1751.28
606.22	1744.10
606.57	1736.10
606.92	1728.68
607.27	1721.70
607.62	1715.03
607.96	1708.02
608.31	1701.44
608.66	1693.92
609.01	1686.50
609.36	1679.16
609.70	1671.38
610.05	1663.41
610.40	1655.73
610.75	1647.53
611.10	1640.02
611.44	1631.62
611.79	1623.65
612.14	1615.11
612.49	1605.83
612.83	1597.35
613.18	1589.29
613.53	1581.24
613.88	1572.89
614.22	1564.72
614.57	1556.07
614.92	1547.94
615.27	1540.53
615.61	1532.30
615.96	1524.29
616.31	1516.62
616.65	1509.23
617.00	1501.82
617.35	1494.05
617.70	1485.88
618.04	1477.49
618.39	1469.23
618.74	1461.74
619.08	1453.49
619.43	1445.90
619.78	1439.03
620.12	1432.00
620.47	1424.59
620.82	1416.50
621.16	1409.14
621.51	1401.54
621.85	1394.07
622.20	1385.70
622.55	1377.23
622.89	1369.39
623.24	1361.82
623.59	1354.44
623.93	1346.95
624.28	1339.70
624.62	1332.45
624.97	1325.26
625.32	1318.46
625.66	1311.47
626.01	1304.25
626.35	1296.87
626.70	1289.16
627.04	1281.59
627.39	1273.79
627.73	1266.34
628.08	1259.47
628.43	1252.36
628.77	1245.04
629.12	1237.53
629.46	1230.40
629.81	1222.98
630.15	1215.82
630.50	1208.53
630.84	1200.42
631.19	1192.49
631.53	1185.05
631.88	1177.42
632.22	1169.87
632.57	1162.62
632.91	1155.13
633.26	1147.80
633.60	1140.37
633.95	1133.32
634.29	1126.24
634.64	1119.60
634.98	1112.31
635.32	1105.21
635.67	1098.50
636.01	1091.75
636.36	1085.02
636.70	1078.51
637.05	1072.07
637.39	1065.57
637.73	1059.07
638.08	1053.22
638.42	1047.22
638.77	1040.67
639.11	1034.22
639.45	1027.90
639.80	1021.18
640.14	1014.90
640.49	1008.50
640.83	1002.29
641.17	996.08
641.52	989.72
641.86	983.24
642.20	977.29
642.55	970.93
642.89	964.65
643.23	958.20
643.58	952.43
643.92	946.25
644.26	940.24
644.61	934.21
644.95	928.16
645.29	921.69
645.64	915.03
645.98	908.71
646.32	902.79
646.66	896.69
647.01	890.98
647.35	885.24
647.69	879.34
648.04	873.84
648.38	868.10
648.72	862.21
649.06	856.27
649.41	850.50
649.75	844.56
650.09	838.50
650.43	832.81
650.78	826.68
651.12	820.78
651.46	815.08
651.80	809.49
652.14	804.13
652.49	798.79
652.83	793.68
653.17	788.13
653.51	782.47
653.85	777.15
654.20	771.57
654.54	765.53
654.88	759.83
655.22	753.86
655.56	748.15
655.90	742.72
656.25	737.53
656.59	732.28
656.93	727.28
657.27	722.18
657.61	716.67
657.95	711.61
658.29	706.60
658.64	701.27
658.98	695.90
659.32	690.43
659.66	685.24
660.00	679.99
660.34	675.06
660.68	670.15
661.02	665.13
661.36	660.47
661.70	656.04
662.05	651.75
662.39	647.58
662.73	643.15
663.07	638.75
663.41	634.37
663.75	629.89
664.09	625.40
664.43	621.05
664.77	617.11
665.11	612.86
665.45	608.70
665.79	604.71
666.13	600.64
666.47	596.67
666.81	592.47
667.15	588.32
667.49	584.40
667.83	580.56
668.17	576.70
668.51	572.66
668.85	568.63
669.19	564.73
669.53	560.88
669.87	557.11
670.21	553.50
670.55	549.76
670.89	546.32
671.23	542.91
671.57	539.38
671.91	535.86
672.25	532.36
672.58	528.85
672.92	525.39
673.26	522.25
673.60	519.09
673.94	516.05
674.28	513.17
674.62	510.24
674.96	507.17
675.30	504.20
675.64	501.28
675.97	498.48
676.31	495.65
676.65	492.71
676.99	489.98
677.33	487.08
677.67	484.36
678.01	481.37
678.34	478.37
678.68	475.46
679.02	472.62
679.36	469.82
679.70	467.11
680.04	464.42
680.37	461.58
680.71	458.76
681.05	456.16
681.39	453.41
681.73	450.82
682.06	448.33
682.40	445.82
682.74	443.25
683.08	440.75
683.42	438.16
683.75	435.72
684.09	433.14
684.43	430.69
684.77	428.17
685.10	425.81
685.44	423.51
685.78	421.27
686.12	418.98
686.45	416.75
686.79	414.47
687.13	412.27
687.46	410.03
687.80	407.86
688.14	405.60
688.48	403.58
688.81	401.32
689.15	399.17
689.49	396.99
689.82	394.89
690.16	392.78
690.50	390.83
690.83	388.86
691.17	386.87
691.51	384.98
691.84	383.16
692.18	381.24
692.52	379.27
692.85	377.33
693.19	375.49
693.52	373.62
693.86	371.85
694.20	370.03
694.53	368.31
694.87	366.47
695.21	364.71
695.54	362.87
695.88	361.16
696.21	359.45
696.55	357.81
696.88	356.15
697.22	354.48
697.56	352.86
697.89	351.23
698.23	349.64
698.56	348.03
698.90	346.45
699.23	344.82
699.57	343.28
699.90	341.75
700.24	340.21
700.58	338.71
700.91	337.19
701.25	335.80
701.58	334.38
701.92	333.07
702.25	331.71
702.59	330.38
702.92	329.05
703.26	327.75
703.59	326.45
703.93	325.31
704.26	324.09
704.60	322.80
704.93	321.51
705.26	320.29
705.60	319.07
705.93	317.90
706.27	316.88
706.60	315.83
706.94	314.71
707.27	313.60
707.61	312.57
707.94	311.55
708.27	310.41
708.61	309.34
708.94	308.32
709.28	307.32
709.61	306.31
709.94	305.35
710.28	304.32
710.61	303.33
710.95	302.22
711.28	301.32
711.61	300.37
711.95	299.48
712.28	298.55
712.61	297.59
712.95	296.68
713.28	295.76
713.61	294.82
713.95	293.99
714.28	293.11
714.61	292.21
714.95	291.38
715.28	290.55
715.61	289.71
715.95	288.84
716.28	287.98
716.61	287.17
716.95	286.35
717.28	285.64
717.61	284.90
717.94	284.17
718.28	283.36
718.61	282.64
718.94	281.93
719.27	281.27
719.61	280.63
719.94	279.98
720.27	279.26
720.60	278.62
720.94	277.97
721.27	277.39
721.60	276.83
721.93	276.20
722.27	275.65
722.60	275.08
722.93	274.49
723.26	273.97
723.59	273.39
723.93	272.82
724.26	272.22
724.59	271.62
724.92	271.05
725.25	270.56
725.59	270.05
725.92	269.53
726.25	268.98
726.58	268.46
726.91	267.93
727.24	267.44
727.57	266.95
727.91	266.44
728.24	265.96
728.57	265.49
728.90	265.04
729.23	264.55
729.56	264.10
729.89	263.69
730.22	263.23
730.55	262.78
730.89	262.37
731.22	261.94
731.55	261.55
731.88	261.15
732.21	260.70
732.54	260.25
732.87	259.84
733.20	259.42
733.53	259.06
733.86	258.73
734.19	258.35
734.52	257.97
734.85	257.65
735.18	257.26
735.51	256.87
735.84	256.46
736.17	256.07
736.50	255.69
736.83	255.43
737.16	255.05
737.49	254.70
737.82	254.37
738.15	254.05
738.48	253.69
738.81	253.36
739.14	253.06
739.47	252.73
739.80	252.40
740.13	252.12
740.46	251.79
740.79	251.42
741.12	251.11
741.45	250.80
741.78	250.43
742.11	250.13
742.44	249.83
742.77	249.57
743.10	249.32
743.43	249.00
743.75	248.61
744.08	248.49
744.41	248.22
744.74	247.95
745.07	247.70
745.40	247.49
745.73	247.24
746.06	246.96
746.39	246.70
746.71	246.44
747.04	246.15
747.37	245.90
747.70	245.68
748.03	245.43
748.36	245.21
748.68	244.98
749.01	244.72
749.34	244.47
749.67	244.26
750.00	244.00
750.33	243.87
750.65	243.66
750.98	243.30
751.31	243.10
751.64	242.86
751.97	242.63
752.29	242.37
752.62	242.10
752.95	241.91
753.28	241.70
753.60	241.48
753.93	241.31
754.26	241.12
754.59	240.88
754.91	240.66
755.24	240.41
755.57	240.19
755.90	239.99
756.22	239.80
756.55	239.56
756.88	239.39
757.20	239.12
757.53	238.91
757.86	238.73
758.19	238.56
758.51	238.39
758.84	238.18
759.17	238.00
759.49	237.88
759.82	237.74
760.15	237.59
760.47	237.49
760.80	237.31
761.13	237.14
761.45	236.99
761.78	236.87
762.11	236.72
762.43	236.59
762.76	236.44
763.08	236.29
763.41	236.16
763.74	236.05
764.06	235.90
764.39	235.77
764.71	235.66
765.04	235.52
765.37	235.37
765.69	235.26
766.02	235.11
766.34	234.95
766.67	234.81
767.00	234.72
767.32	234.60
767.65	234.53
767.97	234.43
768.30	234.34
768.62	234.21
768.95	234.13
769.27	234.03
769.60	233.95
769.92	233.84
770.25	233.70
770.57	233.55
770.90	233.45
771.22	233.33
771.55	233.18
771.87	233.07
772.20	232.97
772.52	232.96
772.85	233.01
773.17	232.96
773.50	232.84
773.82	232.73
774.15	232.61
774.47	232.47
774.80	232.34
775.12	232.22
775.45	232.15
775.77	232.08
776.09	232.05
776.42	231.96
776.74	231.95
777.07	231.92
777.39	231.87
777.72	231.80
778.04	231.77
778.36	231.72
778.69	231.66
779.01	231.62
779.33	231.49
779.66	231.32
779.98	231.20
780.31	231.14
780.63	231.13
780.95	231.10
781.28	231.06
781.60	231.01
781.92	230.97
782.25	230.92
782.57	230.86
782.89	230.80
783.22	230.76
783.54	230.65
783.86	230.61
784.19	230.55
784.51	230.52
784.83	230.45
785.16	230.39
785.48	230.33
785.80	230.30
786.12	230.24
786.45	230.16
786.77	230.15
787.09	230.10
