SpectraSuite Data File
++++++++++++++++++++++++++++++++++++
Date: Fri Feb 01 17:15:32 EST 2013
User: group
Dark Spectrum Present: No
Reference Spectrum Present: No
Number of Sampled Component Spectra: 1
Spectrometers: USB2E7196
Integration Time (usec): 35000 (USB2E7196)
Spectra Averaged: 100 (USB2E7196)
Boxcar Smoothing: 10 (USB2E7196)
Correct for Electrical Dark: No (USB2E7196)
Strobe/Lamp Enabled: No (USB2E7196)
Correct for Detector Non-linearity: No (USB2E7196)
Correct for Stray Light: No (USB2E7196)
Number of Pixels in Processed Spectrum: 2048
>>>>>Begin Processed Spectral Data<<<<<
339.09	0.00
339.48	212.47
339.86	214.41
340.24	215.93
340.63	217.29
341.01	219.95
341.39	219.93
341.78	221.61
342.16	221.84
342.54	222.91
342.93	211.35
343.31	222.05
343.69	222.63
344.07	223.08
344.46	223.51
344.84	223.89
345.22	224.14
345.60	224.40
345.99	224.53
346.37	224.69
346.75	224.77
347.13	224.89
347.52	224.91
347.90	225.00
348.28	225.08
348.66	225.16
349.05	225.15
349.43	225.19
349.81	225.26
350.19	225.28
350.57	225.32
350.96	225.45
351.34	225.52
351.72	225.59
352.10	225.70
352.48	225.76
352.87	225.82
353.25	225.89
353.63	225.96
354.01	226.08
354.39	226.16
354.77	226.28
355.15	226.39
355.54	226.46
355.92	226.50
356.30	226.52
356.68	226.66
357.06	226.72
357.44	226.78
357.82	226.83
358.20	226.88
358.58	226.94
358.97	226.97
359.35	227.03
359.73	227.13
360.11	227.19
360.49	227.25
360.87	227.32
361.25	227.33
361.63	227.41
362.01	227.47
362.39	227.49
362.77	227.51
363.15	227.49
363.53	227.53
363.91	227.56
364.29	227.60
364.67	227.51
365.05	227.52
365.43	227.52
365.81	227.53
366.19	227.62
366.57	227.65
366.95	227.63
367.33	227.60
367.71	227.57
368.09	227.59
368.47	227.56
368.85	227.54
369.23	227.58
369.61	227.51
369.99	227.51
370.37	227.50
370.75	227.53
371.13	227.47
371.51	227.43
371.89	227.40
372.27	227.36
372.65	227.34
373.03	227.33
373.41	227.29
373.78	227.20
374.16	227.08
374.54	226.98
374.92	226.94
375.30	226.91
375.68	226.82
376.06	226.74
376.44	226.66
376.82	226.57
377.19	226.49
377.57	226.42
377.95	226.32
378.33	226.22
378.71	226.10
379.09	226.07
379.47	226.04
379.84	225.93
380.22	225.86
380.60	225.79
380.98	225.70
381.36	225.64
381.73	225.61
382.11	225.57
382.49	225.54
382.87	225.45
383.25	225.39
383.62	225.44
384.00	225.38
384.38	225.31
384.76	225.28
385.13	225.27
385.51	225.19
385.89	225.12
386.27	225.10
386.64	225.02
387.02	224.96
387.40	224.89
387.78	224.89
388.15	224.83
388.53	224.76
388.91	224.74
389.29	224.69
389.66	224.70
390.04	224.65
390.42	224.65
390.79	224.65
391.17	224.62
391.55	224.50
391.92	224.51
392.30	224.54
392.68	224.54
393.05	224.54
393.43	224.60
393.81	224.63
394.18	224.62
394.56	224.64
394.94	224.67
395.31	224.69
395.69	224.75
396.06	224.78
396.44	224.83
396.82	224.87
397.19	224.97
397.57	224.95
397.95	225.03
398.32	225.05
398.70	225.10
399.07	225.16
399.45	225.22
399.82	225.27
400.20	225.33
400.58	225.40
400.95	225.39
401.33	225.46
401.70	225.59
402.08	225.71
402.45	225.79
402.83	225.89
403.20	226.00
403.58	226.05
403.95	226.17
404.33	226.31
404.71	226.38
405.08	226.52
405.46	226.67
405.83	226.80
406.21	226.92
406.58	227.06
406.96	227.24
407.33	227.46
407.70	227.66
408.08	227.96
408.45	228.15
408.83	228.45
409.20	228.64
409.58	228.82
409.95	229.06
410.33	229.36
410.70	229.61
411.08	229.90
411.45	230.21
411.82	230.56
412.20	230.92
412.57	231.38
412.95	231.66
413.32	232.08
413.69	232.51
414.07	233.00
414.44	233.49
414.82	233.98
415.19	234.53
415.56	235.08
415.94	235.62
416.31	236.27
416.68	236.88
417.06	237.63
417.43	238.36
417.81	239.14
418.18	239.91
418.55	240.78
418.93	241.66
419.30	242.60
419.67	243.53
420.04	244.47
420.42	245.49
420.79	246.72
421.16	247.91
421.54	249.16
421.91	250.40
422.28	251.70
422.66	253.06
423.03	254.38
423.40	255.77
423.77	257.17
424.15	258.66
424.52	260.19
424.89	261.84
425.26	263.40
425.64	264.88
426.01	266.49
426.38	268.18
426.75	269.90
427.13	271.66
427.50	273.51
427.87	275.45
428.24	277.36
428.61	279.17
428.99	281.14
429.36	283.24
429.73	285.33
430.10	287.40
430.47	289.48
430.85	291.60
431.22	293.83
431.59	296.28
431.96	298.54
432.33	301.06
432.70	303.51
433.08	306.39
433.45	309.11
433.82	311.78
434.19	314.73
434.56	317.63
434.93	320.30
435.30	322.96
435.68	325.95
436.05	328.82
436.42	331.66
436.79	334.22
437.16	336.93
437.53	339.82
437.90	342.72
438.27	345.54
438.64	348.48
439.01	351.18
439.38	353.46
439.75	355.74
440.13	358.28
440.50	360.65
440.87	362.51
441.24	364.47
441.61	366.69
441.98	368.23
442.35	370.05
442.72	371.96
443.09	373.88
443.46	374.90
443.83	375.51
444.20	376.06
444.57	376.97
444.94	377.35
445.31	377.76
445.68	378.12
446.05	378.25
446.42	377.90
446.79	377.50
447.16	377.05
447.53	376.71
447.90	375.56
448.27	374.41
448.64	372.79
449.01	371.68
449.37	369.66
449.74	367.75
450.11	365.47
450.48	362.97
450.85	360.37
451.22	358.18
451.59	356.13
451.96	354.13
452.33	351.45
452.70	349.02
453.07	346.09
453.43	343.15
453.80	340.27
454.17	337.50
454.54	334.84
454.91	332.07
455.28	329.36
455.65	326.81
456.02	324.28
456.38	322.13
456.75	319.40
457.12	317.11
457.49	314.81
457.86	312.64
458.23	310.74
458.59	308.61
458.96	306.47
459.33	304.59
459.70	302.68
460.07	301.13
460.43	299.37
460.80	297.70
461.17	296.18
461.54	294.64
461.91	293.17
462.27	291.74
462.64	290.50
463.01	289.11
463.38	287.80
463.74	286.44
464.11	285.23
464.48	284.19
464.85	283.06
465.21	282.18
465.58	281.21
465.95	280.08
466.32	279.17
466.68	278.23
467.05	277.28
467.42	276.37
467.78	275.44
468.15	274.54
468.52	273.87
468.88	272.99
469.25	272.22
469.62	271.60
469.98	270.84
470.35	270.16
470.72	269.51
471.08	268.84
471.45	268.27
471.82	267.71
472.18	267.07
472.55	266.64
472.92	266.12
473.28	265.62
473.65	265.20
474.02	264.78
474.38	264.42
474.75	264.14
475.11	263.80
475.48	263.53
475.85	263.30
476.21	263.10
476.58	262.92
476.94	262.75
477.31	262.57
477.67	262.46
478.04	262.35
478.41	262.28
478.77	262.29
479.14	262.22
479.50	262.25
479.87	262.33
480.23	262.42
480.60	262.51
480.96	262.62
481.33	262.81
481.69	262.98
482.06	263.20
482.42	263.39
482.79	263.64
483.15	263.95
483.52	264.35
483.88	264.66
484.25	265.07
484.61	265.53
484.98	265.98
485.34	266.53
485.71	267.15
486.07	267.75
486.44	268.30
486.80	269.01
487.17	269.71
487.53	270.56
487.90	271.39
488.26	272.34
488.62	273.32
488.99	274.31
489.35	275.34
489.72	276.44
490.08	277.62
490.44	278.87
490.81	280.24
491.17	281.55
491.54	283.05
491.90	284.58
492.26	286.20
492.63	287.94
492.99	289.73
493.36	291.57
493.72	293.63
494.08	295.78
494.45	298.06
494.81	300.43
495.17	302.81
495.54	305.36
495.90	308.02
496.26	310.81
496.63	313.75
496.99	316.88
497.35	320.14
497.72	323.56
498.08	327.07
498.44	330.69
498.80	334.58
499.17	338.63
499.53	342.76
499.89	347.13
500.26	351.62
500.62	356.26
500.98	361.25
501.34	366.31
501.71	371.60
502.07	376.97
502.43	382.56
502.79	388.37
503.16	394.44
503.52	400.64
503.88	406.94
504.24	413.55
504.60	420.38
504.97	427.45
505.33	434.68
505.69	442.30
506.05	450.01
506.41	457.86
506.78	465.92
507.14	474.32
507.50	482.96
507.86	491.93
508.22	501.02
508.59	510.06
508.95	519.50
509.31	529.24
509.67	539.22
510.03	549.40
510.39	559.78
510.75	570.34
511.12	581.09
511.48	592.21
511.84	603.50
512.20	614.86
512.56	626.61
512.92	638.57
513.28	650.72
513.64	663.03
514.00	675.47
514.37	688.18
514.73	701.03
515.09	713.82
515.45	726.81
515.81	740.13
516.17	753.88
516.53	767.80
516.89	781.68
517.25	795.58
517.61	809.67
517.97	823.86
518.33	838.05
518.69	852.66
519.05	867.37
519.41	882.23
519.77	897.39
520.13	912.49
520.49	927.68
520.85	942.77
521.21	958.18
521.57	974.12
521.93	989.64
522.29	1005.66
522.65	1021.61
523.01	1037.45
523.37	1053.24
523.73	1069.05
524.09	1084.78
524.45	1100.68
524.81	1116.93
525.17	1133.41
525.53	1149.88
525.89	1166.47
526.25	1183.03
526.61	1199.09
526.97	1215.56
527.33	1231.85
527.68	1248.14
528.04	1264.21
528.40	1280.48
528.76	1297.14
529.12	1313.48
529.48	1329.96
529.84	1345.57
530.20	1361.89
530.56	1378.56
530.91	1395.60
531.27	1412.07
531.63	1428.19
531.99	1444.56
532.35	1460.26
532.71	1475.85
533.07	1491.82
533.42	1507.42
533.78	1523.17
534.14	1539.23
534.50	1554.29
534.86	1569.75
535.21	1584.75
535.57	1600.39
535.93	1615.59
536.29	1630.13
536.65	1644.82
537.00	1659.36
537.36	1674.58
537.72	1688.91
538.08	1703.18
538.44	1716.75
538.79	1730.48
539.15	1743.88
539.51	1757.51
539.87	1771.75
540.22	1785.34
540.58	1798.93
540.94	1812.06
541.29	1824.43
541.65	1837.05
542.01	1850.04
542.37	1862.43
542.72	1874.64
543.08	1886.46
543.44	1898.83
543.79	1910.21
544.15	1921.24
544.51	1932.70
544.87	1943.63
545.22	1954.44
545.58	1964.63
545.94	1974.47
546.29	1984.43
546.65	1994.54
547.01	2003.78
547.36	2012.55
547.72	2021.20
548.07	2029.34
548.43	2037.49
548.79	2045.72
549.14	2053.39
549.50	2060.89
549.86	2068.40
550.21	2075.83
550.57	2083.00
550.92	2089.65
551.28	2096.60
551.64	2103.82
551.99	2110.57
552.35	2116.87
552.70	2123.12
553.06	2129.33
553.41	2135.83
553.77	2141.90
554.13	2147.96
554.48	2154.22
554.84	2159.89
555.19	2165.19
555.55	2170.53
555.90	2175.54
556.26	2180.90
556.61	2185.75
556.97	2190.30
557.32	2194.90
557.68	2199.19
558.03	2203.65
558.39	2207.48
558.74	2212.27
559.10	2216.34
559.45	2220.30
559.81	2224.68
560.16	2228.78
560.52	2232.22
560.87	2235.86
561.23	2238.84
561.58	2241.95
561.94	2244.82
562.29	2247.35
562.64	2250.50
563.00	2253.23
563.35	2256.77
563.71	2260.10
564.06	2263.40
564.42	2266.69
564.77	2269.48
565.12	2272.37
565.48	2274.84
565.83	2277.23
566.19	2279.00
566.54	2280.03
566.89	2281.45
567.25	2282.45
567.60	2283.86
567.96	2285.99
568.31	2287.17
568.66	2288.65
569.02	2289.77
569.37	2290.29
569.72	2291.47
570.08	2291.77
570.43	2292.09
570.78	2292.03
571.14	2290.79
571.49	2289.87
571.84	2289.47
572.20	2288.59
572.55	2287.64
572.90	2285.99
573.26	2284.91
573.61	2283.43
573.96	2282.32
574.31	2279.56
574.67	2276.94
575.02	2273.66
575.37	2270.43
575.72	2266.95
576.08	2263.68
576.43	2260.43
576.78	2257.18
577.13	2254.23
577.49	2251.30
577.84	2248.10
578.19	2244.38
578.54	2241.05
578.90	2237.32
579.25	2232.21
579.60	2227.58
579.95	2222.95
580.30	2218.41
580.66	2213.43
581.01	2208.69
581.36	2203.89
581.71	2200.08
582.06	2195.97
582.42	2191.87
582.77	2186.89
583.12	2182.46
583.47	2178.26
583.82	2173.66
584.17	2168.64
584.53	2163.30
584.88	2158.00
585.23	2152.66
585.58	2147.34
585.93	2141.97
586.28	2137.15
586.63	2132.31
586.98	2127.22
587.34	2122.65
587.69	2117.83
588.04	2112.82
588.39	2107.48
588.74	2101.10
589.09	2095.04
589.44	2088.46
589.79	2082.40
590.14	2076.88
590.49	2070.54
590.84	2064.10
591.19	2058.05
591.54	2051.58
591.89	2044.71
592.25	2038.21
592.60	2031.05
592.95	2023.87
593.30	2016.78
593.65	2009.33
594.00	2002.40
594.35	1995.55
594.70	1987.42
595.05	1980.61
595.40	1973.40
595.75	1966.00
596.10	1960.12
596.45	1953.80
596.80	1947.65
597.15	1941.42
597.50	1934.83
597.85	1928.46
598.19	1922.00
598.54	1915.44
598.89	1909.04
599.24	1903.05
599.59	1896.61
599.94	1890.40
600.29	1884.15
600.64	1877.62
600.99	1870.34
601.34	1863.70
601.69	1856.64
602.04	1850.03
602.39	1842.67
602.74	1836.03
603.08	1829.44
603.43	1822.64
603.78	1815.26
604.13	1808.03
604.48	1800.80
604.83	1793.84
605.18	1787.15
605.53	1779.29
605.87	1771.14
606.22	1763.82
606.57	1755.87
606.92	1748.32
607.27	1741.33
607.62	1734.51
607.96	1727.28
608.31	1720.86
608.66	1713.33
609.01	1705.99
609.36	1698.45
609.70	1690.47
610.05	1682.45
610.40	1674.72
610.75	1666.33
611.10	1658.70
611.44	1650.25
611.79	1642.04
612.14	1633.22
612.49	1623.80
612.83	1615.27
613.18	1606.99
613.53	1598.86
613.88	1590.41
614.22	1582.03
614.57	1573.22
614.92	1564.98
615.27	1557.53
615.61	1549.10
615.96	1541.00
616.31	1533.13
616.65	1525.71
617.00	1518.07
617.35	1510.21
617.70	1501.90
618.04	1493.55
618.39	1485.18
618.74	1477.63
619.08	1469.36
619.43	1461.76
619.78	1454.74
620.12	1447.57
620.47	1440.07
620.82	1431.88
621.16	1424.16
621.51	1416.40
621.85	1408.66
622.20	1400.11
622.55	1391.54
622.89	1383.58
623.24	1375.70
623.59	1368.14
623.93	1360.44
624.28	1353.11
624.62	1345.63
624.97	1338.34
625.32	1331.29
625.66	1324.10
626.01	1316.83
626.35	1309.53
626.70	1301.72
627.04	1294.00
627.39	1286.10
627.73	1278.59
628.08	1271.49
628.43	1264.31
628.77	1257.09
629.12	1249.63
629.46	1242.52
629.81	1234.89
630.15	1227.46
630.50	1220.10
630.84	1211.96
631.19	1203.94
631.53	1196.33
631.88	1188.53
632.22	1180.82
632.57	1173.41
632.91	1165.75
633.26	1158.32
633.60	1150.75
633.95	1143.32
634.29	1136.12
634.64	1129.36
634.98	1121.88
635.32	1114.81
635.67	1108.13
636.01	1101.34
636.36	1094.52
636.70	1087.80
637.05	1081.19
637.39	1074.78
637.73	1068.28
638.08	1062.36
638.42	1056.45
638.77	1050.01
639.11	1043.57
639.45	1037.07
639.80	1030.48
640.14	1024.16
640.49	1017.55
640.83	1011.20
641.17	1005.13
641.52	998.84
641.86	992.32
642.20	986.47
642.55	980.02
642.89	973.62
643.23	966.90
643.58	961.05
643.92	954.87
644.26	948.96
644.61	942.76
644.95	936.66
645.29	930.07
645.64	923.30
645.98	916.86
646.32	910.81
646.66	904.83
647.01	899.03
647.35	893.33
647.69	887.34
648.04	881.74
648.38	875.91
648.72	869.97
649.06	863.97
649.41	857.97
649.75	852.06
650.09	845.98
650.43	840.31
650.78	834.14
651.12	828.10
651.46	822.23
651.80	816.65
652.14	811.14
652.49	805.84
652.83	800.62
653.17	795.02
653.51	789.35
653.85	783.83
654.20	778.21
654.54	772.05
654.88	766.35
655.22	760.36
655.56	754.55
655.90	748.97
656.25	743.70
656.59	738.43
656.93	733.25
657.27	728.13
657.61	722.68
657.95	717.53
658.29	712.48
658.64	707.19
658.98	701.78
659.32	696.31
659.66	690.99
660.00	685.72
660.34	680.76
660.68	675.82
661.02	670.77
661.36	665.98
661.70	661.56
662.05	657.20
662.39	652.92
662.73	648.53
663.07	644.13
663.41	639.59
663.75	635.10
664.09	630.57
664.43	626.06
664.77	621.88
665.11	617.60
665.45	613.40
665.79	609.32
666.13	605.14
666.47	601.02
666.81	596.88
667.15	592.64
667.49	588.61
667.83	584.70
668.17	580.77
668.51	576.72
668.85	572.63
669.19	568.69
669.53	564.83
669.87	560.97
670.21	557.25
670.55	553.62
670.89	550.16
671.23	546.74
671.57	543.21
671.91	539.71
672.25	536.15
672.58	532.64
672.92	529.22
673.26	525.95
673.60	522.81
673.94	519.65
674.28	516.73
674.62	513.77
674.96	510.67
675.30	507.73
675.64	504.75
675.97	501.91
676.31	499.00
676.65	496.11
676.99	493.31
677.33	490.44
677.67	487.64
678.01	484.58
678.34	481.58
678.68	478.68
679.02	475.88
679.36	473.07
679.70	470.32
680.04	467.54
680.37	464.76
680.71	461.94
681.05	459.33
681.39	456.56
681.73	453.93
682.06	451.41
682.40	448.88
682.74	446.34
683.08	443.76
683.42	441.19
683.75	438.66
684.09	436.11
684.43	433.56
684.77	431.11
685.10	428.72
685.44	426.36
685.78	424.08
686.12	421.73
686.45	419.48
686.79	417.17
687.13	414.97
687.46	412.75
687.80	410.51
688.14	408.18
688.48	406.10
688.81	403.87
689.15	401.66
689.49	399.46
689.82	397.34
690.16	395.17
690.50	393.19
690.83	391.22
691.17	389.16
691.51	387.27
691.84	385.34
692.18	383.41
692.52	381.49
692.85	379.49
693.19	377.59
693.52	375.75
693.86	373.89
694.20	372.07
694.53	370.29
694.87	368.43
695.21	366.66
695.54	364.82
695.88	363.03
696.21	361.28
696.55	359.57
696.88	357.86
697.22	356.21
697.56	354.57
697.89	352.85
698.23	351.27
698.56	349.66
698.90	348.06
699.23	346.41
699.57	344.80
699.90	343.21
700.24	341.67
700.58	340.12
700.91	338.63
701.25	337.13
701.58	335.67
701.92	334.31
702.25	332.95
702.59	331.60
702.92	330.26
703.26	328.94
703.59	327.65
703.93	326.44
704.26	325.22
704.60	323.90
704.93	322.65
705.26	321.40
705.60	320.14
705.93	318.91
706.27	317.86
706.60	316.81
706.94	315.74
707.27	314.56
707.61	313.46
707.94	312.41
708.27	311.32
708.61	310.23
708.94	309.22
709.28	308.21
709.61	307.20
709.94	306.24
710.28	305.13
710.61	304.09
710.95	303.00
711.28	302.04
711.61	301.08
711.95	300.17
712.28	299.22
712.61	298.25
712.95	297.32
713.28	296.37
713.61	295.43
713.95	294.53
714.28	293.70
714.61	292.81
714.95	291.93
715.28	291.04
715.61	290.17
715.95	289.26
716.28	288.38
716.61	287.50
716.95	286.62
717.28	285.91
717.61	285.19
717.94	284.45
718.28	283.66
718.61	282.90
718.94	282.15
719.27	281.47
719.61	280.83
719.94	280.14
720.27	279.44
720.60	278.81
720.94	278.17
721.27	277.59
721.60	277.03
721.93	276.44
722.27	275.88
722.60	275.32
722.93	274.75
723.26	274.24
723.59	273.72
723.93	273.17
724.26	272.63
724.59	272.02
724.92	271.47
725.25	270.96
725.59	270.42
725.92	269.94
726.25	269.42
726.58	268.93
726.91	268.47
727.24	267.96
727.57	267.44
727.91	266.95
728.24	266.45
728.57	265.95
728.90	265.45
729.23	264.98
729.56	264.58
729.89	264.11
730.22	263.57
730.55	263.08
730.89	262.65
731.22	262.20
731.55	261.76
731.88	261.34
732.21	260.90
732.54	260.48
732.87	260.02
733.20	259.61
733.53	259.22
733.86	258.81
734.19	258.44
734.52	258.07
734.85	257.75
735.18	257.35
735.51	256.99
735.84	256.63
736.17	256.29
736.50	255.85
736.83	255.67
737.16	255.35
737.49	255.00
737.82	254.70
738.15	254.36
738.48	254.04
738.81	253.70
739.14	253.40
739.47	253.08
739.80	252.78
740.13	252.45
740.46	252.12
740.79	251.81
741.12	251.47
741.45	251.12
741.78	250.76
742.11	250.46
742.44	250.12
742.77	249.82
743.10	249.47
743.43	249.19
743.75	248.79
744.08	248.65
744.41	248.40
744.74	248.10
745.07	247.86
745.40	247.58
745.73	247.34
746.06	247.02
746.39	246.78
746.71	246.51
747.04	246.22
747.37	245.95
747.70	245.70
748.03	245.47
748.36	245.24
748.68	244.99
749.01	244.73
749.34	244.51
749.67	244.31
750.00	244.07
750.33	243.94
750.65	243.69
750.98	243.37
751.31	243.11
751.64	242.89
751.97	242.67
752.29	242.48
752.62	242.23
752.95	242.02
753.28	241.77
753.60	241.58
753.93	241.39
754.26	241.21
754.59	240.99
754.91	240.78
755.24	240.59
755.57	240.40
755.90	240.20
756.22	240.02
756.55	239.78
756.88	239.61
757.20	239.33
757.53	239.14
757.86	238.92
758.19	238.81
758.51	238.62
758.84	238.43
759.17	238.23
759.49	238.07
759.82	237.98
760.15	237.86
760.47	237.67
760.80	237.52
761.13	237.41
761.45	237.26
761.78	237.10
762.11	236.94
762.43	236.79
762.76	236.66
763.08	236.51
763.41	236.38
763.74	236.23
764.06	236.06
764.39	235.90
764.71	235.72
765.04	235.52
765.37	235.40
765.69	235.25
766.02	235.15
766.34	235.04
766.67	234.87
767.00	234.73
767.32	234.67
767.65	234.64
767.97	234.48
768.30	234.34
768.62	234.22
768.95	234.07
769.27	233.94
769.60	233.83
769.92	233.73
770.25	233.62
770.57	233.50
770.90	233.45
771.22	233.35
771.55	233.33
771.87	233.28
772.20	233.18
772.52	233.17
772.85	233.19
773.17	233.09
773.50	232.99
773.82	232.90
774.15	232.73
774.47	232.54
774.80	232.44
775.12	232.36
775.45	232.26
775.77	232.23
776.09	232.16
776.42	232.11
776.74	232.00
777.07	231.94
777.39	231.88
777.72	231.77
778.04	231.74
778.36	231.65
778.69	231.58
779.01	231.48
779.33	231.32
779.66	231.14
779.98	231.05
780.31	230.98
780.63	230.98
780.95	230.97
781.28	230.91
781.60	230.85
781.92	230.80
782.25	230.77
782.57	230.71
782.89	230.62
783.22	230.56
783.54	230.51
783.86	230.48
784.19	230.43
784.51	230.42
784.83	230.34
785.16	230.26
785.48	230.21
785.80	230.18
786.12	230.18
786.45	230.12
786.77	230.13
787.09	230.09
