SpectraSuite Data File
++++++++++++++++++++++++++++++++++++
Date: Fri Feb 01 15:31:09 EST 2013
User: group
Dark Spectrum Present: No
Reference Spectrum Present: No
Number of Sampled Component Spectra: 1
Spectrometers: USB2E7196
Integration Time (usec): 35000 (USB2E7196)
Spectra Averaged: 100 (USB2E7196)
Boxcar Smoothing: 10 (USB2E7196)
Correct for Electrical Dark: No (USB2E7196)
Strobe/Lamp Enabled: No (USB2E7196)
Correct for Detector Non-linearity: No (USB2E7196)
Correct for Stray Light: No (USB2E7196)
Number of Pixels in Processed Spectrum: 2048
>>>>>Begin Processed Spectral Data<<<<<
339.09	0.00
339.48	215.12
339.86	216.49
340.24	218.02
340.63	219.38
341.01	221.86
341.39	221.89
341.78	223.58
342.16	224.57
342.54	225.03
342.93	213.46
343.31	224.27
343.69	224.82
344.07	225.28
344.46	225.70
344.84	226.07
345.22	226.31
345.60	226.56
345.99	226.74
346.37	226.88
346.75	226.98
347.13	227.07
347.52	227.13
347.90	227.20
348.28	227.21
348.66	227.22
349.05	227.18
349.43	227.21
349.81	227.25
350.19	227.26
350.57	227.33
350.96	227.40
351.34	227.45
351.72	227.50
352.10	227.60
352.48	227.67
352.87	227.74
353.25	227.82
353.63	227.89
354.01	227.94
354.39	228.00
354.77	228.08
355.15	228.17
355.54	228.22
355.92	228.27
356.30	228.34
356.68	228.48
357.06	228.55
357.44	228.58
357.82	228.68
358.20	228.77
358.58	228.80
358.97	228.85
359.35	228.92
359.73	228.98
360.11	229.02
360.49	229.06
360.87	229.09
361.25	229.11
361.63	229.18
362.01	229.23
362.39	229.26
362.77	229.28
363.15	229.31
363.53	229.35
363.91	229.37
364.29	229.38
364.67	229.30
365.05	229.33
365.43	229.38
365.81	229.38
366.19	229.43
366.57	229.48
366.95	229.48
367.33	229.43
367.71	229.45
368.09	229.46
368.47	229.44
368.85	229.41
369.23	229.41
369.61	229.35
369.99	229.34
370.37	229.31
370.75	229.34
371.13	229.27
371.51	229.20
371.89	229.18
372.27	229.15
372.65	229.13
373.03	229.08
373.41	229.00
373.78	228.94
374.16	228.83
374.54	228.75
374.92	228.70
375.30	228.69
375.68	228.56
376.06	228.51
376.44	228.45
376.82	228.40
377.19	228.34
377.57	228.27
377.95	228.16
378.33	228.08
378.71	227.96
379.09	227.91
379.47	227.88
379.84	227.78
380.22	227.71
380.60	227.58
380.98	227.53
381.36	227.49
381.73	227.42
382.11	227.39
382.49	227.30
382.87	227.23
383.25	227.16
383.62	227.25
384.00	227.14
384.38	227.12
384.76	227.12
385.13	227.10
385.51	227.03
385.89	227.00
386.27	226.97
386.64	226.93
387.02	226.87
387.40	226.79
387.78	226.77
388.15	226.72
388.53	226.72
388.91	226.65
389.29	226.58
389.66	226.56
390.04	226.51
390.42	226.52
390.79	226.53
391.17	226.50
391.55	226.35
391.92	226.37
392.30	226.34
392.68	226.27
393.05	226.26
393.43	226.27
393.81	226.28
394.18	226.29
394.56	226.29
394.94	226.33
395.31	226.37
395.69	226.40
396.06	226.44
396.44	226.46
396.82	226.49
397.19	226.55
397.57	226.58
397.95	226.63
398.32	226.63
398.70	226.70
399.07	226.77
399.45	226.84
399.82	226.88
400.20	226.96
400.58	227.07
400.95	227.11
401.33	227.21
401.70	227.33
402.08	227.43
402.45	227.53
402.83	227.66
403.20	227.77
403.58	227.88
403.95	228.03
404.33	228.15
404.71	228.30
405.08	228.49
405.46	228.63
405.83	228.78
406.21	228.92
406.58	229.02
406.96	229.19
407.33	229.37
407.70	229.56
408.08	229.84
408.45	230.03
408.83	230.28
409.20	230.47
409.58	230.69
409.95	230.93
410.33	231.19
410.70	231.42
411.08	231.72
411.45	232.03
411.82	232.33
412.20	232.68
412.57	233.08
412.95	233.39
413.32	233.84
413.69	234.31
414.07	234.79
414.44	235.27
414.82	235.80
415.19	236.39
415.56	236.96
415.94	237.50
416.31	238.15
416.68	238.79
417.06	239.51
417.43	240.19
417.81	240.97
418.18	241.80
418.55	242.65
418.93	243.56
419.30	244.48
419.67	245.41
420.04	246.40
420.42	247.42
420.79	248.63
421.16	249.78
421.54	250.96
421.91	252.21
422.28	253.49
422.66	254.82
423.03	256.13
423.40	257.48
423.77	258.89
424.15	260.34
424.52	261.85
424.89	263.46
425.26	265.05
425.64	266.51
426.01	268.07
426.38	269.73
426.75	271.37
427.13	273.07
427.50	274.89
427.87	276.77
428.24	278.65
428.61	280.36
428.99	282.30
429.36	284.40
429.73	286.45
430.10	288.48
430.47	290.52
430.85	292.64
431.22	294.91
431.59	297.33
431.96	299.55
432.33	302.05
432.70	304.44
433.08	307.25
433.45	309.89
433.82	312.51
434.19	315.41
434.56	318.23
434.93	320.94
435.30	323.58
435.68	326.47
436.05	329.28
436.42	332.08
436.79	334.61
437.16	337.27
437.53	340.12
437.90	342.92
438.27	345.68
438.64	348.52
439.01	351.11
439.38	353.33
439.75	355.50
440.13	357.94
440.50	360.26
440.87	362.09
441.24	364.02
441.61	366.19
441.98	367.64
442.35	369.44
442.72	371.27
443.09	373.01
443.46	373.96
443.83	374.54
444.20	375.02
444.57	375.84
444.94	376.15
445.31	376.49
445.68	376.86
446.05	376.93
446.42	376.49
446.79	376.08
447.16	375.59
447.53	375.27
447.90	374.12
448.27	372.98
448.64	371.38
449.01	370.21
449.37	368.21
449.74	366.36
450.11	364.09
450.48	361.60
450.85	359.09
451.22	357.01
451.59	354.95
451.96	353.00
452.33	350.36
452.70	348.00
453.07	345.13
453.43	342.20
453.80	339.39
454.17	336.71
454.54	334.09
454.91	331.39
455.28	328.72
455.65	326.20
456.02	323.73
456.38	321.60
456.75	318.93
457.12	316.68
457.49	314.42
457.86	312.26
458.23	310.43
458.59	308.44
458.96	306.31
459.33	304.50
459.70	302.65
460.07	301.17
460.43	299.44
460.80	297.83
461.17	296.40
461.54	294.92
461.91	293.53
462.27	292.12
462.64	290.86
463.01	289.53
463.38	288.24
463.74	286.87
464.11	285.69
464.48	284.70
464.85	283.60
465.21	282.76
465.58	281.85
465.95	280.71
466.32	279.78
466.68	278.88
467.05	277.95
467.42	277.09
467.78	276.14
468.15	275.31
468.52	274.61
468.88	273.78
469.25	272.99
469.62	272.33
469.98	271.66
470.35	271.02
470.72	270.39
471.08	269.76
471.45	269.21
471.82	268.68
472.18	268.09
472.55	267.66
472.92	267.17
473.28	266.70
473.65	266.28
474.02	265.87
474.38	265.53
474.75	265.23
475.11	264.89
475.48	264.65
475.85	264.39
476.21	264.17
476.58	263.97
476.94	263.85
477.31	263.69
477.67	263.50
478.04	263.40
478.41	263.39
478.77	263.42
479.14	263.36
479.50	263.35
479.87	263.44
480.23	263.50
480.60	263.53
480.96	263.60
481.33	263.81
481.69	263.97
482.06	264.15
482.42	264.37
482.79	264.59
483.15	264.90
483.52	265.27
483.88	265.59
484.25	265.97
484.61	266.41
484.98	266.87
485.34	267.45
485.71	268.04
486.07	268.61
486.44	269.19
486.80	269.93
487.17	270.62
487.53	271.41
487.90	272.24
488.26	273.15
488.62	274.15
488.99	275.08
489.35	276.13
489.72	277.26
490.08	278.44
490.44	279.69
490.81	281.02
491.17	282.36
491.54	283.90
491.90	285.44
492.26	287.10
492.63	288.84
492.99	290.61
493.36	292.49
493.72	294.51
494.08	296.58
494.45	298.78
494.81	301.17
495.17	303.58
495.54	306.14
495.90	308.81
496.26	311.60
496.63	314.59
496.99	317.65
497.35	320.92
497.72	324.29
498.08	327.79
498.44	331.43
498.80	335.38
499.17	339.36
499.53	343.52
499.89	347.83
500.26	352.30
500.62	356.96
500.98	361.91
501.34	367.00
501.71	372.36
502.07	377.82
502.43	383.41
502.79	389.26
503.16	395.33
503.52	401.66
503.88	408.10
504.24	414.74
504.60	421.65
504.97	428.77
505.33	436.10
505.69	443.82
506.05	451.66
506.41	459.54
506.78	467.74
507.14	476.20
507.50	484.99
507.86	494.05
508.22	503.27
508.59	512.42
508.95	522.00
509.31	531.78
509.67	541.93
510.03	552.22
510.39	562.75
510.75	573.61
511.12	584.55
511.48	595.86
511.84	607.30
512.20	618.81
512.56	630.82
512.92	643.07
513.28	655.40
513.64	667.92
514.00	680.58
514.37	693.50
514.73	706.59
515.09	719.64
515.45	732.94
515.81	746.45
516.17	760.54
516.53	774.75
516.89	789.04
517.25	803.21
517.61	817.68
517.97	832.19
518.33	846.61
518.69	861.47
519.05	876.47
519.41	891.75
519.77	907.38
520.13	922.82
520.49	938.18
520.85	953.69
521.21	969.37
521.57	985.75
521.93	1001.74
522.29	1018.10
522.65	1034.33
523.01	1050.65
523.37	1066.82
523.73	1083.01
524.09	1099.10
524.45	1115.39
524.81	1132.06
525.17	1148.92
525.53	1165.86
525.89	1182.79
526.25	1199.56
526.61	1216.02
526.97	1232.76
527.33	1249.28
527.68	1265.98
528.04	1282.58
528.40	1299.21
528.76	1316.34
529.12	1332.92
529.48	1349.71
529.84	1365.91
530.20	1382.58
530.56	1399.61
530.91	1417.10
531.27	1433.89
531.63	1450.37
531.99	1467.03
532.35	1483.08
532.71	1498.94
533.07	1515.25
533.42	1531.20
533.78	1547.30
534.14	1563.67
534.50	1579.11
534.86	1594.99
535.21	1610.13
535.57	1626.08
535.93	1641.62
536.29	1656.40
536.65	1671.53
537.00	1686.45
537.36	1701.73
537.72	1716.35
538.08	1730.78
538.44	1744.63
538.79	1758.64
539.15	1772.40
539.51	1786.15
539.87	1800.62
540.22	1814.38
540.58	1828.19
540.94	1841.58
541.29	1854.59
541.65	1867.21
542.01	1880.45
542.37	1892.81
542.72	1905.26
543.08	1917.03
543.44	1929.40
543.79	1940.70
544.15	1951.62
544.51	1963.30
544.87	1974.34
545.22	1985.14
545.58	1995.50
545.94	2005.31
546.29	2015.24
546.65	2025.16
547.01	2034.45
547.36	2043.23
547.72	2051.76
548.07	2059.55
548.43	2067.90
548.79	2075.96
549.14	2083.63
549.50	2091.04
549.86	2098.79
550.21	2106.09
550.57	2113.31
550.92	2119.99
551.28	2127.05
551.64	2134.20
551.99	2140.67
552.35	2146.85
552.70	2153.01
553.06	2158.91
553.41	2165.16
553.77	2171.11
554.13	2177.23
554.48	2183.49
554.84	2188.78
555.19	2194.23
555.55	2199.28
555.90	2203.58
556.26	2208.31
556.61	2213.00
556.97	2217.12
557.32	2221.15
557.68	2225.39
558.03	2229.70
558.39	2233.45
558.74	2238.11
559.10	2242.06
559.45	2245.60
559.81	2249.93
560.16	2253.75
560.52	2256.93
560.87	2260.39
561.23	2263.02
561.58	2265.94
561.94	2268.22
562.29	2270.62
562.64	2273.29
563.00	2276.08
563.35	2279.64
563.71	2282.88
564.06	2286.01
564.42	2288.84
564.77	2291.35
565.12	2293.54
565.48	2295.41
565.83	2297.26
566.19	2298.50
566.54	2299.39
566.89	2300.48
567.25	2300.91
567.60	2302.26
567.96	2303.93
568.31	2304.74
568.66	2305.83
569.02	2306.29
569.37	2306.76
569.72	2307.65
570.08	2307.65
570.43	2307.62
570.78	2306.99
571.14	2305.38
571.49	2304.06
571.84	2303.77
572.20	2302.62
572.55	2301.67
572.90	2300.07
573.26	2298.67
573.61	2297.01
573.96	2295.21
574.31	2292.18
574.67	2289.19
575.02	2285.50
575.37	2281.97
575.72	2278.15
576.08	2274.84
576.43	2271.50
576.78	2267.72
577.13	2264.47
577.49	2261.37
577.84	2257.82
578.19	2254.02
578.54	2250.30
578.90	2246.04
579.25	2240.30
579.60	2235.25
579.95	2230.02
580.30	2224.87
580.66	2219.55
581.01	2214.59
581.36	2209.64
581.71	2205.31
582.06	2200.66
582.42	2196.14
582.77	2190.98
583.12	2186.27
583.47	2181.44
583.82	2176.32
584.17	2170.82
584.53	2165.28
584.88	2159.41
585.23	2153.51
585.58	2148.05
585.93	2142.54
586.28	2137.77
586.63	2132.75
586.98	2127.69
587.34	2122.98
587.69	2118.09
588.04	2112.85
588.39	2106.97
588.74	2100.29
589.09	2094.25
589.44	2087.58
589.79	2081.50
590.14	2075.76
590.49	2069.13
590.84	2062.80
591.19	2056.74
591.54	2050.49
591.89	2043.00
592.25	2036.31
592.60	2029.02
592.95	2021.19
593.30	2013.78
593.65	2005.96
594.00	1998.95
594.35	1991.62
594.70	1983.61
595.05	1976.35
595.40	1968.92
595.75	1961.52
596.10	1955.26
596.45	1948.30
596.80	1942.10
597.15	1935.30
597.50	1928.16
597.85	1921.91
598.19	1914.97
598.54	1907.82
598.89	1901.07
599.24	1895.16
599.59	1888.35
599.94	1882.06
600.29	1875.80
600.64	1869.23
600.99	1861.71
601.34	1854.76
601.69	1847.64
602.04	1840.56
602.39	1833.20
602.74	1826.32
603.08	1819.42
603.43	1812.71
603.78	1805.47
604.13	1798.15
604.48	1790.85
604.83	1784.06
605.18	1776.83
605.53	1768.79
605.87	1760.69
606.22	1753.42
606.57	1745.38
606.92	1738.07
607.27	1731.00
607.62	1724.09
607.96	1716.79
608.31	1710.16
608.66	1702.59
609.01	1695.05
609.36	1687.52
609.70	1679.49
610.05	1671.36
610.40	1663.57
610.75	1655.21
611.10	1647.64
611.44	1639.29
611.79	1631.38
612.14	1622.57
612.49	1613.46
612.83	1605.20
613.18	1597.06
613.53	1588.94
613.88	1580.44
614.22	1572.10
614.57	1563.49
614.92	1555.42
615.27	1547.84
615.61	1539.52
615.96	1531.49
616.31	1523.96
616.65	1516.53
617.00	1508.84
617.35	1501.15
617.70	1492.88
618.04	1484.36
618.39	1475.94
618.74	1468.21
619.08	1459.81
619.43	1452.29
619.78	1445.38
620.12	1438.04
620.47	1430.51
620.82	1422.29
621.16	1414.97
621.51	1407.46
621.85	1399.93
622.20	1391.29
622.55	1382.85
622.89	1374.91
623.24	1367.25
623.59	1359.83
623.93	1352.31
624.28	1345.19
624.62	1337.63
624.97	1330.46
625.32	1323.72
625.66	1316.70
626.01	1309.48
626.35	1302.08
626.70	1294.30
627.04	1286.53
627.39	1278.90
627.73	1271.61
628.08	1264.68
628.43	1257.25
628.77	1249.83
629.12	1242.13
629.46	1235.06
629.81	1227.76
630.15	1220.64
630.50	1213.27
630.84	1205.03
631.19	1197.21
631.53	1189.62
631.88	1182.14
632.22	1174.48
632.57	1167.16
632.91	1159.62
633.26	1152.34
633.60	1144.93
633.95	1137.87
634.29	1130.87
634.64	1124.23
634.98	1116.80
635.32	1109.76
635.67	1103.30
636.01	1096.72
636.36	1089.95
636.70	1083.51
637.05	1076.82
637.39	1070.39
637.73	1063.78
638.08	1058.02
638.42	1051.97
638.77	1045.62
639.11	1039.01
639.45	1032.70
639.80	1026.01
640.14	1019.62
640.49	1013.08
640.83	1006.83
641.17	1000.46
641.52	994.16
641.86	987.68
642.20	981.85
642.55	975.50
642.89	968.90
643.23	962.28
643.58	956.49
643.92	950.14
644.26	944.07
644.61	938.09
644.95	932.07
645.29	925.29
645.64	918.53
645.98	912.17
646.32	906.37
646.66	900.34
647.01	894.56
647.35	888.89
647.69	883.02
648.04	877.49
648.38	871.76
648.72	865.67
649.06	859.56
649.41	853.63
649.75	847.61
650.09	841.66
650.43	835.86
650.78	829.68
651.12	823.76
651.46	818.02
651.80	812.16
652.14	806.82
652.49	801.53
652.83	796.36
653.17	790.63
653.51	784.88
653.85	779.43
654.20	773.84
654.54	767.78
654.88	762.02
655.22	756.12
655.56	750.42
655.90	745.02
656.25	739.75
656.59	734.39
656.93	729.37
657.27	724.21
657.61	718.75
657.95	713.62
658.29	708.53
658.64	703.29
658.98	697.96
659.32	692.44
659.66	687.22
660.00	681.93
660.34	676.98
660.68	672.07
661.02	666.99
661.36	662.21
661.70	657.72
662.05	653.35
662.39	649.01
662.73	644.59
663.07	640.13
663.41	635.72
663.75	631.27
664.09	626.67
664.43	622.28
664.77	618.25
665.11	614.10
665.45	609.99
665.79	605.87
666.13	601.84
666.47	597.78
666.81	593.68
667.15	589.59
667.49	585.69
667.83	581.91
668.17	578.03
668.51	573.90
668.85	569.92
669.19	566.11
669.53	562.26
669.87	558.35
670.21	554.70
670.55	551.08
670.89	547.63
671.23	544.23
671.57	540.70
671.91	537.13
672.25	533.60
672.58	530.07
672.92	526.75
673.26	523.54
673.60	520.45
673.94	517.32
674.28	514.41
674.62	511.51
674.96	508.37
675.30	505.45
675.64	502.63
675.97	499.85
676.31	497.01
676.65	494.08
676.99	491.41
677.33	488.56
677.67	485.75
678.01	482.81
678.34	479.85
678.68	476.98
679.02	474.15
679.36	471.46
679.70	468.76
680.04	466.05
680.37	463.22
680.71	460.43
681.05	457.82
681.39	455.09
681.73	452.45
682.06	449.96
682.40	447.44
682.74	444.89
683.08	442.36
683.42	439.74
683.75	437.27
684.09	434.73
684.43	432.27
684.77	429.80
685.10	427.44
685.44	425.17
685.78	422.94
686.12	420.74
686.45	418.45
686.79	416.18
687.13	413.96
687.46	411.79
687.80	409.63
688.14	407.49
688.48	405.46
688.81	403.23
689.15	401.07
689.49	398.92
689.82	396.92
690.16	394.85
690.50	392.90
690.83	390.95
691.17	388.96
691.51	387.06
691.84	385.19
692.18	383.24
692.52	381.22
692.85	379.27
693.19	377.36
693.52	375.54
693.86	373.75
694.20	371.97
694.53	370.21
694.87	368.38
695.21	366.56
695.54	364.73
695.88	362.99
696.21	361.24
696.55	359.56
696.88	357.79
697.22	356.12
697.56	354.54
697.89	352.89
698.23	351.28
698.56	349.65
698.90	348.02
699.23	346.35
699.57	344.80
699.90	343.25
700.24	341.75
700.58	340.17
700.91	338.63
701.25	337.18
701.58	335.80
701.92	334.42
702.25	333.05
702.59	331.71
702.92	330.39
703.26	329.13
703.59	327.89
703.93	326.74
704.26	325.53
704.60	324.23
704.93	322.94
705.26	321.71
705.60	320.57
705.93	319.48
706.27	318.47
706.60	317.42
706.94	316.36
707.27	315.24
707.61	314.19
707.94	313.16
708.27	312.03
708.61	310.91
708.94	309.89
709.28	308.91
709.61	307.93
709.94	306.95
710.28	305.89
710.61	304.89
710.95	303.80
711.28	302.86
711.61	301.92
711.95	301.00
712.28	300.05
712.61	299.03
712.95	298.11
713.28	297.22
713.61	296.30
713.95	295.38
714.28	294.51
714.61	293.64
714.95	292.79
715.28	291.97
715.61	291.14
715.95	290.31
716.28	289.44
716.61	288.57
716.95	287.77
717.28	287.04
717.61	286.28
717.94	285.56
718.28	284.77
718.61	283.99
718.94	283.33
719.27	282.68
719.61	282.07
719.94	281.38
720.27	280.69
720.60	280.05
720.94	279.44
721.27	278.85
721.60	278.28
721.93	277.73
722.27	277.19
722.60	276.64
722.93	276.06
723.26	275.57
723.59	275.05
723.93	274.50
724.26	273.94
724.59	273.40
724.92	272.89
725.25	272.40
725.59	271.93
725.92	271.42
726.25	270.90
726.58	270.43
726.91	269.97
727.24	269.50
727.57	269.02
727.91	268.52
728.24	268.07
728.57	267.61
728.90	267.14
729.23	266.65
729.56	266.18
729.89	265.74
730.22	265.20
730.55	264.74
730.89	264.30
731.22	263.86
731.55	263.41
731.88	262.97
732.21	262.54
732.54	262.08
732.87	261.65
733.20	261.28
733.53	260.88
733.86	260.49
734.19	260.09
734.52	259.74
734.85	259.45
735.18	259.03
735.51	258.66
735.84	258.27
736.17	257.89
736.50	257.54
736.83	257.30
737.16	257.00
737.49	256.68
737.82	256.33
738.15	256.00
738.48	255.64
738.81	255.28
739.14	254.95
739.47	254.66
739.80	254.37
740.13	254.03
740.46	253.69
740.79	253.33
741.12	253.02
741.45	252.68
741.78	252.32
742.11	252.03
742.44	251.71
742.77	251.39
743.10	251.13
743.43	250.82
743.75	250.42
744.08	250.29
744.41	249.97
744.74	249.71
745.07	249.43
745.40	249.22
745.73	248.99
746.06	248.72
746.39	248.43
746.71	248.14
747.04	247.89
747.37	247.62
747.70	247.41
748.03	247.15
748.36	246.95
748.68	246.69
749.01	246.43
749.34	246.20
749.67	246.00
750.00	245.73
750.33	245.57
750.65	245.33
750.98	244.95
751.31	244.76
751.64	244.57
751.97	244.41
752.29	244.19
752.62	243.94
752.95	243.74
753.28	243.57
753.60	243.38
753.93	243.20
754.26	242.98
754.59	242.77
754.91	242.55
755.24	242.29
755.57	242.10
755.90	241.93
756.22	241.75
756.55	241.51
756.88	241.33
757.20	241.09
757.53	240.92
757.86	240.76
758.19	240.56
758.51	240.35
758.84	240.12
759.17	239.91
759.49	239.78
759.82	239.65
760.15	239.47
760.47	239.27
760.80	239.11
761.13	238.99
761.45	238.84
761.78	238.67
762.11	238.54
762.43	238.38
762.76	238.23
763.08	238.08
763.41	237.98
763.74	237.83
764.06	237.70
764.39	237.57
764.71	237.42
765.04	237.29
765.37	237.17
765.69	237.04
766.02	236.94
766.34	236.80
766.67	236.66
767.00	236.56
767.32	236.52
767.65	236.46
767.97	236.34
768.30	236.23
768.62	236.17
768.95	236.04
769.27	235.98
769.60	235.88
769.92	235.76
770.25	235.67
770.57	235.56
770.90	235.47
771.22	235.36
771.55	235.26
771.87	235.22
772.20	235.12
772.52	235.13
772.85	235.14
773.17	235.05
773.50	234.95
773.82	234.86
774.15	234.71
774.47	234.53
774.80	234.44
775.12	234.37
775.45	234.27
775.77	234.21
776.09	234.13
776.42	234.07
776.74	234.02
777.07	233.94
777.39	233.86
777.72	233.80
778.04	233.74
778.36	233.68
778.69	233.59
779.01	233.55
779.33	233.39
779.66	233.22
779.98	233.16
780.31	233.09
780.63	233.09
780.95	233.06
781.28	233.02
781.60	232.97
781.92	232.91
782.25	232.85
782.57	232.80
782.89	232.71
783.22	232.66
783.54	232.55
783.86	232.50
784.19	232.44
784.51	232.40
784.83	232.35
785.16	232.29
785.48	232.21
785.80	232.16
786.12	232.15
786.45	232.10
786.77	232.07
787.09	232.02
