SpectraSuite Data File
++++++++++++++++++++++++++++++++++++
Date: Fri Feb 01 18:07:02 EST 2013
User: group
Dark Spectrum Present: No
Reference Spectrum Present: No
Number of Sampled Component Spectra: 1
Spectrometers: USB2E7196
Integration Time (usec): 35000 (USB2E7196)
Spectra Averaged: 100 (USB2E7196)
Boxcar Smoothing: 10 (USB2E7196)
Correct for Electrical Dark: No (USB2E7196)
Strobe/Lamp Enabled: No (USB2E7196)
Correct for Detector Non-linearity: No (USB2E7196)
Correct for Stray Light: No (USB2E7196)
Number of Pixels in Processed Spectrum: 2048
>>>>>Begin Processed Spectral Data<<<<<
339.09	0.00
339.48	212.85
339.86	214.45
340.24	216.08
340.63	217.44
341.01	220.37
341.39	219.19
341.78	220.69
342.16	222.76
342.54	222.30
342.93	211.27
343.31	221.95
343.69	222.50
344.07	222.95
344.46	223.37
344.84	223.73
345.22	223.93
345.60	224.21
345.99	224.43
346.37	224.57
346.75	224.70
347.13	224.79
347.52	224.88
347.90	224.96
348.28	224.98
348.66	225.05
349.05	225.06
349.43	225.08
349.81	225.15
350.19	225.22
350.57	225.29
350.96	225.37
351.34	225.51
351.72	225.62
352.10	225.73
352.48	225.80
352.87	225.88
353.25	225.96
353.63	226.04
354.01	226.13
354.39	226.19
354.77	226.28
355.15	226.41
355.54	226.49
355.92	226.54
356.30	226.66
356.68	226.79
357.06	226.86
357.44	226.95
357.82	226.99
358.20	227.06
358.58	227.13
358.97	227.22
359.35	227.27
359.73	227.35
360.11	227.43
360.49	227.52
360.87	227.59
361.25	227.68
361.63	227.76
362.01	227.81
362.39	227.84
362.77	227.91
363.15	227.92
363.53	227.95
363.91	228.01
364.29	228.03
364.67	227.96
365.05	228.01
365.43	228.04
365.81	228.09
366.19	228.16
366.57	228.23
366.95	228.22
367.33	228.19
367.71	228.16
368.09	228.13
368.47	228.10
368.85	228.07
369.23	228.05
369.61	228.01
369.99	228.02
370.37	228.04
370.75	228.05
371.13	228.00
371.51	227.94
371.89	227.92
372.27	227.87
372.65	227.84
373.03	227.76
373.41	227.72
373.78	227.65
374.16	227.51
374.54	227.41
374.92	227.32
375.30	227.28
375.68	227.23
376.06	227.21
376.44	227.13
376.82	227.08
377.19	227.02
377.57	226.92
377.95	226.82
378.33	226.72
378.71	226.57
379.09	226.53
379.47	226.49
379.84	226.37
380.22	226.29
380.60	226.18
380.98	226.16
381.36	226.07
381.73	226.01
382.11	226.00
382.49	225.94
382.87	225.93
383.25	225.85
383.62	225.91
384.00	225.82
384.38	225.77
384.76	225.72
385.13	225.72
385.51	225.66
385.89	225.60
386.27	225.57
386.64	225.54
387.02	225.49
387.40	225.43
387.78	225.40
388.15	225.39
388.53	225.37
388.91	225.32
389.29	225.24
389.66	225.21
390.04	225.14
390.42	225.12
390.79	225.06
391.17	225.04
391.55	224.86
391.92	224.84
392.30	224.83
392.68	224.80
393.05	224.78
393.43	224.85
393.81	224.84
394.18	224.83
394.56	224.83
394.94	224.84
395.31	224.84
395.69	224.90
396.06	224.92
396.44	224.97
396.82	224.99
397.19	225.11
397.57	225.12
397.95	225.20
398.32	225.27
398.70	225.35
399.07	225.43
399.45	225.49
399.82	225.55
400.20	225.62
400.58	225.69
400.95	225.69
401.33	225.77
401.70	225.89
402.08	225.97
402.45	226.05
402.83	226.16
403.20	226.30
403.58	226.40
403.95	226.54
404.33	226.66
404.71	226.79
405.08	227.01
405.46	227.21
405.83	227.36
406.21	227.51
406.58	227.71
406.96	227.88
407.33	228.12
407.70	228.38
408.08	228.69
408.45	228.97
408.83	229.26
409.20	229.49
409.58	229.74
409.95	230.08
410.33	230.45
410.70	230.78
411.08	231.15
411.45	231.55
411.82	231.92
412.20	232.36
412.57	232.89
412.95	233.26
413.32	233.74
413.69	234.28
414.07	234.84
414.44	235.44
414.82	236.10
415.19	236.84
415.56	237.57
415.94	238.33
416.31	239.18
416.68	240.02
417.06	241.01
417.43	241.93
417.81	242.96
418.18	243.96
418.55	245.11
418.93	246.27
419.30	247.51
419.67	248.78
420.04	250.08
420.42	251.41
420.79	253.00
421.16	254.57
421.54	256.20
421.91	257.86
422.28	259.60
422.66	261.41
423.03	263.14
423.40	264.95
423.77	266.85
424.15	268.82
424.52	270.85
424.89	273.04
425.26	275.17
425.64	277.15
426.01	279.37
426.38	281.63
426.75	283.88
427.13	286.20
427.50	288.66
427.87	291.22
428.24	293.81
428.61	296.18
428.99	298.79
429.36	301.65
429.73	304.45
430.10	307.19
430.47	310.00
430.85	312.93
431.22	315.99
431.59	319.19
431.96	322.23
432.33	325.62
432.70	328.87
433.08	332.69
433.45	336.22
433.82	339.74
434.19	343.70
434.56	347.54
434.93	351.21
435.30	354.80
435.68	358.77
436.05	362.55
436.42	366.38
436.79	369.84
437.16	373.52
437.53	377.44
437.90	381.22
438.27	384.95
438.64	388.77
439.01	392.31
439.38	395.40
439.75	398.37
440.13	401.78
440.50	404.96
440.87	407.49
441.24	410.22
441.61	413.24
441.98	415.27
442.35	417.78
442.72	420.28
443.09	422.74
443.46	424.10
443.83	424.97
444.20	425.71
444.57	426.92
444.94	427.32
445.31	427.75
445.68	428.23
446.05	428.31
446.42	427.85
446.79	427.26
447.16	426.68
447.53	426.22
447.90	424.62
448.27	422.99
448.64	420.82
449.01	419.24
449.37	416.52
449.74	413.89
450.11	410.77
450.48	407.40
450.85	403.94
451.22	401.00
451.59	398.19
451.96	395.55
452.33	391.95
452.70	388.72
453.07	384.86
453.43	380.96
453.80	377.22
454.17	373.53
454.54	370.05
454.91	366.32
455.28	362.71
455.65	359.35
456.02	355.96
456.38	353.01
456.75	349.41
457.12	346.35
457.49	343.34
457.86	340.38
458.23	337.82
458.59	335.01
458.96	332.20
459.33	329.68
459.70	327.10
460.07	325.01
460.43	322.67
460.80	320.40
461.17	318.36
461.54	316.29
461.91	314.29
462.27	312.32
462.64	310.59
463.01	308.71
463.38	306.87
463.74	305.03
464.11	303.42
464.48	301.96
464.85	300.39
465.21	299.15
465.58	297.88
465.95	296.39
466.32	295.19
466.68	293.88
467.05	292.64
467.42	291.40
467.78	290.12
468.15	288.92
468.52	288.04
468.88	286.86
469.25	285.76
469.62	284.91
469.98	283.98
470.35	283.10
470.72	282.28
471.08	281.39
471.45	280.62
471.82	279.85
472.18	279.01
472.55	278.40
472.92	277.70
473.28	277.04
473.65	276.36
474.02	275.69
474.38	275.18
474.75	274.72
475.11	274.23
475.48	273.84
475.85	273.46
476.21	273.08
476.58	272.82
476.94	272.61
477.31	272.35
477.67	272.03
478.04	271.82
478.41	271.64
478.77	271.61
479.14	271.49
479.50	271.47
479.87	271.48
480.23	271.52
480.60	271.50
480.96	271.53
481.33	271.75
481.69	271.93
482.06	272.05
482.42	272.19
482.79	272.35
483.15	272.61
483.52	272.98
483.88	273.30
484.25	273.66
484.61	274.06
484.98	274.48
485.34	275.06
485.71	275.67
486.07	276.29
486.44	276.82
486.80	277.51
487.17	278.24
487.53	279.09
487.90	279.96
488.26	280.96
488.62	281.97
488.99	282.96
489.35	284.00
489.72	285.22
490.08	286.47
490.44	287.82
490.81	289.21
491.17	290.61
491.54	292.20
491.90	293.79
492.26	295.52
492.63	297.37
492.99	299.26
493.36	301.24
493.72	303.37
494.08	305.64
494.45	308.05
494.81	310.52
495.17	313.08
495.54	315.78
495.90	318.60
496.26	321.59
496.63	324.69
496.99	328.00
497.35	331.43
497.72	335.07
498.08	338.77
498.44	342.69
498.80	346.86
499.17	351.10
499.53	355.55
499.89	360.15
500.26	364.91
500.62	369.86
500.98	375.13
501.34	380.51
501.71	386.17
502.07	391.96
502.43	397.96
502.79	404.07
503.16	410.54
503.52	417.27
503.88	424.11
504.24	431.15
504.60	438.46
504.97	446.08
505.33	453.86
505.69	462.12
506.05	470.40
506.41	478.78
506.78	487.47
507.14	496.53
507.50	505.88
507.86	515.53
508.22	525.37
508.59	535.23
508.95	545.54
509.31	556.08
509.67	566.85
510.03	577.89
510.39	589.28
510.75	600.93
511.12	612.59
511.48	624.71
511.84	637.11
512.20	649.54
512.56	662.44
512.92	675.53
513.28	688.88
513.64	702.35
514.00	716.06
514.37	730.04
514.73	744.13
515.09	758.22
515.45	772.59
515.81	787.25
516.17	802.30
516.53	817.53
516.89	832.89
517.25	848.29
517.61	863.88
517.97	879.63
518.33	895.26
518.69	911.39
519.05	927.66
519.41	944.14
519.77	961.01
520.13	977.81
520.49	994.61
520.85	1011.33
521.21	1028.49
521.57	1046.27
521.93	1063.52
522.29	1081.45
522.65	1099.29
523.01	1117.10
523.37	1134.79
523.73	1152.66
524.09	1170.37
524.45	1188.28
524.81	1206.55
525.17	1225.07
525.53	1243.70
525.89	1262.38
526.25	1281.09
526.61	1299.27
526.97	1317.79
527.33	1336.21
527.68	1354.58
528.04	1372.96
528.40	1391.37
528.76	1410.24
529.12	1428.70
529.48	1447.59
529.84	1465.44
530.20	1483.99
530.56	1502.98
530.91	1522.48
531.27	1541.40
531.63	1559.99
531.99	1578.74
532.35	1596.81
532.71	1614.87
533.07	1633.23
533.42	1651.19
533.78	1669.32
534.14	1687.86
534.50	1705.52
534.86	1723.47
535.21	1740.89
535.57	1759.02
535.93	1776.80
536.29	1793.99
536.65	1811.30
537.00	1828.22
537.36	1845.79
537.72	1862.60
538.08	1879.31
538.44	1895.38
538.79	1911.34
539.15	1927.17
539.51	1943.06
539.87	1959.73
540.22	1975.72
540.58	1991.84
540.94	2007.59
541.29	2022.73
541.65	2037.60
542.01	2052.97
542.37	2067.66
542.72	2082.43
543.08	2096.53
543.44	2111.38
543.79	2124.82
544.15	2138.23
544.51	2152.28
544.87	2165.63
545.22	2178.81
545.58	2191.23
545.94	2203.05
546.29	2215.18
546.65	2227.31
547.01	2238.90
547.36	2249.75
547.72	2260.40
548.07	2270.28
548.43	2280.54
548.79	2290.69
549.14	2300.39
549.50	2309.71
549.86	2319.31
550.21	2328.64
550.57	2337.79
550.92	2346.31
551.28	2355.31
551.64	2364.35
551.99	2372.77
552.35	2380.98
552.70	2389.08
553.06	2397.21
553.41	2405.61
553.77	2413.73
554.13	2421.91
554.48	2430.13
554.84	2437.76
555.19	2444.92
555.55	2451.99
555.90	2458.17
556.26	2464.87
556.61	2471.43
556.97	2477.77
557.32	2483.66
557.68	2489.51
558.03	2495.58
558.39	2500.86
558.74	2507.30
559.10	2512.75
559.45	2518.08
559.81	2523.92
560.16	2529.31
560.52	2533.95
560.87	2538.90
561.23	2542.88
561.58	2547.12
561.94	2550.87
562.29	2554.36
562.64	2558.54
563.00	2562.43
563.35	2567.38
563.71	2571.85
564.06	2576.37
564.42	2580.65
564.77	2584.47
565.12	2588.18
565.48	2591.34
565.83	2594.71
566.19	2597.29
566.54	2599.26
566.89	2601.56
567.25	2603.28
567.60	2605.63
567.96	2608.37
568.31	2610.20
568.66	2612.41
569.02	2613.99
569.37	2615.09
569.72	2617.09
570.08	2618.06
570.43	2618.93
570.78	2619.19
571.14	2618.19
571.49	2617.37
571.84	2617.47
572.20	2617.15
572.55	2616.51
572.90	2615.26
573.26	2614.23
573.61	2612.82
573.96	2611.66
574.31	2608.85
574.67	2606.07
575.02	2602.65
575.37	2599.43
575.72	2595.88
576.08	2592.62
576.43	2589.33
576.78	2585.89
577.13	2582.56
577.49	2579.52
577.84	2576.14
578.19	2572.23
578.54	2568.92
578.90	2564.84
579.25	2559.03
579.60	2553.82
579.95	2548.68
580.30	2543.48
580.66	2537.90
581.01	2532.54
581.36	2527.29
581.71	2522.97
582.06	2518.19
582.42	2513.37
582.77	2507.86
583.12	2502.92
583.47	2497.91
583.82	2492.62
584.17	2486.94
584.53	2481.15
584.88	2475.06
585.23	2468.73
585.58	2462.73
585.93	2456.48
586.28	2451.13
586.63	2445.68
586.98	2440.07
587.34	2434.80
587.69	2429.37
588.04	2423.68
588.39	2417.51
588.74	2410.28
589.09	2403.42
589.44	2396.05
589.79	2389.33
590.14	2382.92
590.49	2375.61
590.84	2368.43
591.19	2361.69
591.54	2354.36
591.89	2346.26
592.25	2338.59
592.60	2330.44
592.95	2321.97
593.30	2313.79
593.65	2305.14
594.00	2297.13
594.35	2288.96
594.70	2279.79
595.05	2271.77
595.40	2263.45
595.75	2254.89
596.10	2247.84
596.45	2240.21
596.80	2233.03
597.15	2225.69
597.50	2217.64
597.85	2210.07
598.19	2202.47
598.54	2194.34
598.89	2186.63
599.24	2179.55
599.59	2171.87
599.94	2164.75
600.29	2157.53
600.64	2149.77
600.99	2141.23
601.34	2133.25
601.69	2125.02
602.04	2117.18
602.39	2108.59
602.74	2100.58
603.08	2092.78
603.43	2084.78
603.78	2076.00
604.13	2067.54
604.48	2058.89
604.83	2050.89
605.18	2042.81
605.53	2033.42
605.87	2023.99
606.22	2015.60
606.57	2006.25
606.92	1997.52
607.27	1989.15
607.62	1980.97
607.96	1972.45
608.31	1964.84
608.66	1955.93
609.01	1947.18
609.36	1938.24
609.70	1928.82
610.05	1919.33
610.40	1910.24
610.75	1900.48
611.10	1891.59
611.44	1881.66
611.79	1872.13
612.14	1861.92
612.49	1851.07
612.83	1841.18
613.18	1831.46
613.53	1821.94
613.88	1811.87
614.22	1802.02
614.57	1791.82
614.92	1782.25
615.27	1773.42
615.61	1763.40
615.96	1753.82
616.31	1744.68
616.65	1735.89
617.00	1726.79
617.35	1717.74
617.70	1708.04
618.04	1697.96
618.39	1688.27
618.74	1679.31
619.08	1669.52
619.43	1660.46
619.78	1652.33
620.12	1643.73
620.47	1634.83
620.82	1625.09
621.16	1616.35
621.51	1607.45
621.85	1598.30
622.20	1588.21
622.55	1578.20
622.89	1568.94
623.24	1559.94
623.59	1551.21
623.93	1542.26
624.28	1533.81
624.62	1524.90
624.97	1516.28
625.32	1508.29
625.66	1499.92
626.01	1491.48
626.35	1482.76
626.70	1473.55
627.04	1464.45
627.39	1455.30
627.73	1446.62
628.08	1438.40
628.43	1429.83
628.77	1421.19
629.12	1412.28
629.46	1403.90
629.81	1395.07
630.15	1386.39
630.50	1377.66
630.84	1368.07
631.19	1358.82
631.53	1349.98
631.88	1341.07
632.22	1332.14
632.57	1323.48
632.91	1314.63
633.26	1305.82
633.60	1297.04
633.95	1288.66
634.29	1280.32
634.64	1272.50
634.98	1263.89
635.32	1255.49
635.67	1247.68
636.01	1239.74
636.36	1231.79
636.70	1224.03
637.05	1216.43
637.39	1208.91
637.73	1201.25
638.08	1194.21
638.42	1187.08
638.77	1179.43
639.11	1171.69
639.45	1164.15
639.80	1156.34
640.14	1148.74
640.49	1141.12
640.83	1133.77
641.17	1126.52
641.52	1118.98
641.86	1111.26
642.20	1104.34
642.55	1096.92
642.89	1089.20
643.23	1081.49
643.58	1074.70
643.92	1067.42
644.26	1060.24
644.61	1053.08
644.95	1046.02
645.29	1038.36
645.64	1030.48
645.98	1023.07
646.32	1016.25
646.66	1009.20
647.01	1002.48
647.35	995.80
647.69	988.86
648.04	982.38
648.38	975.64
648.72	968.68
649.06	961.78
649.41	954.89
649.75	948.00
650.09	941.14
650.43	934.44
650.78	927.34
651.12	920.48
651.46	913.84
651.80	907.19
652.14	900.86
652.49	894.60
652.83	888.53
653.17	881.94
653.51	875.24
653.85	868.88
654.20	862.29
654.54	855.34
654.88	848.69
655.22	841.82
655.56	835.14
655.90	828.83
656.25	822.69
656.59	816.49
656.93	810.60
657.27	804.57
657.61	798.29
657.95	792.35
658.29	786.45
658.64	780.40
658.98	774.26
659.32	767.99
659.66	761.96
660.00	755.87
660.34	750.18
660.68	744.47
661.02	738.62
661.36	733.15
661.70	727.94
662.05	722.89
662.39	717.88
662.73	712.68
663.07	707.59
663.41	702.37
663.75	697.18
664.09	691.82
664.43	686.82
664.77	682.01
665.11	677.02
665.45	672.28
665.79	667.53
666.13	662.77
666.47	658.01
666.81	653.21
667.15	648.37
667.49	643.82
667.83	639.48
668.17	634.93
668.51	630.24
668.85	625.57
669.19	621.16
669.53	616.69
669.87	612.23
670.21	608.00
670.55	603.80
670.89	599.83
671.23	595.86
671.57	591.70
671.91	587.60
672.25	583.58
672.58	579.38
672.92	575.34
673.26	571.63
673.60	567.95
673.94	564.33
674.28	561.00
674.62	557.63
674.96	553.95
675.30	550.62
675.64	547.24
675.97	543.97
676.31	540.58
676.65	537.23
676.99	534.15
677.33	530.74
677.67	527.49
678.01	523.96
678.34	520.53
678.68	517.20
679.02	514.00
679.36	510.80
679.70	507.67
680.04	504.51
680.37	501.21
680.71	497.94
681.05	494.93
681.39	491.76
681.73	488.65
682.06	485.73
682.40	482.78
682.74	479.79
683.08	476.89
683.42	473.88
683.75	470.95
684.09	467.98
684.43	465.10
684.77	462.23
685.10	459.43
685.44	456.74
685.78	454.09
686.12	451.41
686.45	448.75
686.79	446.06
687.13	443.46
687.46	440.92
687.80	438.47
688.14	435.82
688.48	433.36
688.81	430.71
689.15	428.22
689.49	425.71
689.82	423.29
690.16	420.78
690.50	418.54
690.83	416.29
691.17	413.95
691.51	411.77
691.84	409.63
692.18	407.40
692.52	405.09
692.85	402.82
693.19	400.61
693.52	398.44
693.86	396.31
694.20	394.24
694.53	392.17
694.87	389.97
695.21	387.88
695.54	385.78
695.88	383.80
696.21	381.76
696.55	379.76
696.88	377.83
697.22	375.95
697.56	374.05
697.89	372.14
698.23	370.26
698.56	368.34
698.90	366.46
699.23	364.63
699.57	362.84
699.90	361.04
700.24	359.31
700.58	357.52
700.91	355.82
701.25	354.10
701.58	352.47
701.92	350.90
702.25	349.32
702.59	347.75
702.92	346.19
703.26	344.71
703.59	343.25
703.93	341.84
704.26	340.36
704.60	338.81
704.93	337.29
705.26	335.84
705.60	334.47
705.93	333.17
706.27	331.92
706.60	330.66
706.94	329.37
707.27	328.05
707.61	326.78
707.94	325.58
708.27	324.36
708.61	323.09
708.94	321.92
709.28	320.81
709.61	319.65
709.94	318.51
710.28	317.31
710.61	316.12
710.95	314.86
711.28	313.80
711.61	312.72
711.95	311.65
712.28	310.55
712.61	309.40
712.95	308.23
713.28	307.17
713.61	306.12
713.95	305.13
714.28	304.11
714.61	303.18
714.95	302.20
715.28	301.18
715.61	300.19
715.95	299.21
716.28	298.15
716.61	297.15
716.95	296.22
717.28	295.30
717.61	294.41
717.94	293.58
718.28	292.61
718.61	291.75
718.94	290.93
719.27	290.15
719.61	289.43
719.94	288.69
720.27	287.84
720.60	287.09
720.94	286.32
721.27	285.59
721.60	284.85
721.93	284.12
722.27	283.48
722.60	282.84
722.93	282.15
723.26	281.49
723.59	280.85
723.93	280.22
724.26	279.57
724.59	278.96
724.92	278.31
725.25	277.75
725.59	277.13
725.92	276.53
726.25	275.94
726.58	275.32
726.91	274.74
727.24	274.21
727.57	273.61
727.91	273.01
728.24	272.47
728.57	271.94
728.90	271.40
729.23	270.82
729.56	270.27
729.89	269.69
730.22	269.16
730.55	268.66
730.89	268.12
731.22	267.60
731.55	267.08
731.88	266.62
732.21	266.08
732.54	265.59
732.87	265.09
733.20	264.61
733.53	264.16
733.86	263.72
734.19	263.24
734.52	262.78
734.85	262.43
735.18	261.91
735.51	261.47
735.84	261.07
736.17	260.62
736.50	260.18
736.83	259.89
737.16	259.53
737.49	259.11
737.82	258.68
738.15	258.31
738.48	257.92
738.81	257.52
739.14	257.14
739.47	256.77
739.80	256.40
740.13	256.03
740.46	255.66
740.79	255.25
741.12	254.89
741.45	254.55
741.78	254.14
742.11	253.84
742.44	253.45
742.77	253.10
743.10	252.77
743.43	252.41
743.75	251.98
744.08	251.78
744.41	251.48
744.74	251.18
745.07	250.86
745.40	250.59
745.73	250.34
746.06	250.02
746.39	249.70
746.71	249.41
747.04	249.11
747.37	248.81
747.70	248.56
748.03	248.27
748.36	248.02
748.68	247.78
749.01	247.50
749.34	247.23
749.67	246.98
750.00	246.75
750.33	246.55
750.65	246.31
750.98	245.91
751.31	245.67
751.64	245.39
751.97	245.19
752.29	244.92
752.62	244.59
752.95	244.35
753.28	244.11
753.60	243.89
753.93	243.68
754.26	243.47
754.59	243.17
754.91	242.94
755.24	242.67
755.57	242.44
755.90	242.24
756.22	242.05
756.55	241.79
756.88	241.55
757.20	241.29
757.53	241.06
757.86	240.85
758.19	240.67
758.51	240.53
758.84	240.28
759.17	240.07
759.49	239.94
759.82	239.81
760.15	239.63
760.47	239.45
760.80	239.27
761.13	239.07
761.45	238.93
761.78	238.79
762.11	238.65
762.43	238.46
762.76	238.31
763.08	238.15
763.41	238.00
763.74	237.86
764.06	237.71
764.39	237.58
764.71	237.41
765.04	237.26
765.37	237.07
765.69	236.93
766.02	236.79
766.34	236.62
766.67	236.44
767.00	236.31
767.32	236.21
767.65	236.14
767.97	236.03
768.30	235.91
768.62	235.76
768.95	235.60
769.27	235.49
769.60	235.37
769.92	235.22
770.25	235.09
770.57	234.97
770.90	234.84
771.22	234.72
771.55	234.63
771.87	234.49
772.20	234.40
772.52	234.40
772.85	234.40
773.17	234.30
773.50	234.20
773.82	234.10
774.15	233.96
774.47	233.80
774.80	233.70
775.12	233.62
775.45	233.50
775.77	233.46
776.09	233.37
776.42	233.27
776.74	233.20
777.07	233.12
777.39	233.01
777.72	232.90
778.04	232.82
778.36	232.75
778.69	232.71
779.01	232.66
779.33	232.48
779.66	232.28
779.98	232.19
780.31	232.13
780.63	232.08
780.95	232.00
781.28	231.89
781.60	231.80
781.92	231.72
782.25	231.66
782.57	231.57
782.89	231.48
783.22	231.38
783.54	231.31
783.86	231.25
784.19	231.17
784.51	231.17
784.83	231.09
785.16	231.00
785.48	230.93
785.80	230.86
786.12	230.79
786.45	230.75
