SpectraSuite Data File
++++++++++++++++++++++++++++++++++++
Date: Fri Feb 01 17:49:06 EST 2013
User: group
Dark Spectrum Present: No
Reference Spectrum Present: No
Number of Sampled Component Spectra: 1
Spectrometers: USB2E7196
Integration Time (usec): 35000 (USB2E7196)
Spectra Averaged: 100 (USB2E7196)
Boxcar Smoothing: 10 (USB2E7196)
Correct for Electrical Dark: No (USB2E7196)
Strobe/Lamp Enabled: No (USB2E7196)
Correct for Detector Non-linearity: No (USB2E7196)
Correct for Stray Light: No (USB2E7196)
Number of Pixels in Processed Spectrum: 2048
>>>>>Begin Processed Spectral Data<<<<<
339.09	0.00
339.48	212.95
339.86	213.82
340.24	215.72
340.63	217.05
341.01	219.86
341.39	220.16
341.78	220.20
342.16	222.21
342.54	222.53
342.93	211.14
343.31	221.81
343.69	222.33
344.07	222.82
344.46	223.22
344.84	223.59
345.22	223.85
345.60	224.09
345.99	224.32
346.37	224.48
346.75	224.59
347.13	224.65
347.52	224.72
347.90	224.79
348.28	224.82
348.66	224.87
349.05	224.87
349.43	224.88
349.81	224.95
350.19	225.00
350.57	225.07
350.96	225.15
351.34	225.24
351.72	225.32
352.10	225.40
352.48	225.47
352.87	225.51
353.25	225.55
353.63	225.61
354.01	225.66
354.39	225.68
354.77	225.75
355.15	225.85
355.54	225.90
355.92	225.95
356.30	226.03
356.68	226.14
357.06	226.20
357.44	226.26
357.82	226.28
358.20	226.37
358.58	226.40
358.97	226.44
359.35	226.51
359.73	226.55
360.11	226.60
360.49	226.67
360.87	226.73
361.25	226.79
361.63	226.86
362.01	226.87
362.39	226.92
362.77	226.96
363.15	226.94
363.53	226.98
363.91	226.98
364.29	227.03
364.67	226.95
365.05	226.99
365.43	227.00
365.81	227.04
366.19	227.05
366.57	227.12
366.95	227.13
367.33	227.11
367.71	227.13
368.09	227.12
368.47	227.10
368.85	227.06
369.23	227.03
369.61	226.94
369.99	226.99
370.37	226.94
370.75	226.96
371.13	226.97
371.51	226.90
371.89	226.91
372.27	226.83
372.65	226.79
373.03	226.74
373.41	226.72
373.78	226.65
374.16	226.58
374.54	226.50
374.92	226.41
375.30	226.36
375.68	226.30
376.06	226.26
376.44	226.18
376.82	226.17
377.19	226.13
377.57	226.09
377.95	225.99
378.33	225.95
378.71	225.83
379.09	225.74
379.47	225.73
379.84	225.65
380.22	225.59
380.60	225.52
380.98	225.44
381.36	225.35
381.73	225.30
382.11	225.26
382.49	225.20
382.87	225.17
383.25	225.14
383.62	225.19
384.00	225.15
384.38	225.15
384.76	225.08
385.13	225.10
385.51	225.05
385.89	224.98
386.27	224.98
386.64	224.95
387.02	224.92
387.40	224.86
387.78	224.82
388.15	224.80
388.53	224.77
388.91	224.75
389.29	224.68
389.66	224.69
390.04	224.65
390.42	224.67
390.79	224.67
391.17	224.65
391.55	224.53
391.92	224.50
392.30	224.47
392.68	224.48
393.05	224.45
393.43	224.47
393.81	224.51
394.18	224.48
394.56	224.48
394.94	224.52
395.31	224.52
395.69	224.56
396.06	224.60
396.44	224.64
396.82	224.68
397.19	224.80
397.57	224.78
397.95	224.85
398.32	224.85
398.70	224.88
399.07	224.95
399.45	225.01
399.82	225.04
400.20	225.11
400.58	225.14
400.95	225.17
401.33	225.28
401.70	225.38
402.08	225.50
402.45	225.59
402.83	225.65
403.20	225.76
403.58	225.87
403.95	225.99
404.33	226.11
404.71	226.23
405.08	226.39
405.46	226.55
405.83	226.68
406.21	226.87
406.58	227.06
406.96	227.24
407.33	227.45
407.70	227.71
408.08	227.98
408.45	228.23
408.83	228.49
409.20	228.73
409.58	228.94
409.95	229.25
410.33	229.58
410.70	229.89
411.08	230.25
411.45	230.61
411.82	230.99
412.20	231.42
412.57	231.95
412.95	232.33
413.32	232.85
413.69	233.36
414.07	233.90
414.44	234.48
414.82	235.06
415.19	235.75
415.56	236.46
415.94	237.18
416.31	238.01
416.68	238.85
417.06	239.75
417.43	240.66
417.81	241.63
418.18	242.63
418.55	243.76
418.93	244.90
419.30	246.07
419.67	247.31
420.04	248.56
420.42	249.86
420.79	251.40
421.16	252.88
421.54	254.44
421.91	256.02
422.28	257.69
422.66	259.41
423.03	261.05
423.40	262.76
423.77	264.60
424.15	266.46
424.52	268.37
424.89	270.46
425.26	272.48
425.64	274.35
426.01	276.44
426.38	278.62
426.75	280.76
427.13	283.01
427.50	285.30
427.87	287.74
428.24	290.17
428.61	292.48
428.99	294.97
429.36	297.70
429.73	300.42
430.10	303.02
430.47	305.74
430.85	308.57
431.22	311.46
431.59	314.54
431.96	317.44
432.33	320.73
432.70	323.87
433.08	327.47
433.45	330.91
433.82	334.28
434.19	337.99
434.56	341.66
434.93	345.14
435.30	348.60
435.68	352.42
436.05	356.06
436.42	359.65
436.79	362.97
437.16	366.49
437.53	370.13
437.90	373.83
438.27	377.36
438.64	381.03
439.01	384.43
439.38	387.41
439.75	390.27
440.13	393.48
440.50	396.49
440.87	398.94
441.24	401.51
441.61	404.36
441.98	406.34
442.35	408.74
442.72	411.17
443.09	413.57
443.46	414.84
443.83	415.66
444.20	416.38
444.57	417.53
444.94	417.88
445.31	418.42
445.68	418.82
446.05	419.00
446.42	418.52
446.79	418.02
447.16	417.43
447.53	417.02
447.90	415.53
448.27	414.03
448.64	411.99
449.01	410.51
449.37	407.92
449.74	405.45
450.11	402.47
450.48	399.24
450.85	395.92
451.22	393.15
451.59	390.52
451.96	387.98
452.33	384.54
452.70	381.53
453.07	377.78
453.43	374.04
453.80	370.44
454.17	366.96
454.54	363.66
454.91	360.07
455.28	356.57
455.65	353.32
456.02	350.10
456.38	347.28
456.75	343.78
457.12	340.84
457.49	337.94
457.86	335.15
458.23	332.72
458.59	330.07
458.96	327.34
459.33	324.87
459.70	322.43
460.07	320.47
460.43	318.21
460.80	316.07
461.17	314.17
461.54	312.12
461.91	310.25
462.27	308.30
462.64	306.69
463.01	304.92
463.38	303.24
463.74	301.47
464.11	299.96
464.48	298.62
464.85	297.19
465.21	296.00
465.58	294.75
465.95	293.33
466.32	292.10
466.68	290.90
467.05	289.73
467.42	288.55
467.78	287.33
468.15	286.16
468.52	285.29
468.88	284.21
469.25	283.27
469.62	282.43
469.98	281.58
470.35	280.73
470.72	279.92
471.08	279.02
471.45	278.31
471.82	277.59
472.18	276.79
472.55	276.21
472.92	275.57
473.28	274.97
473.65	274.34
474.02	273.73
474.38	273.22
474.75	272.79
475.11	272.32
475.48	271.90
475.85	271.62
476.21	271.32
476.58	271.03
476.94	270.78
477.31	270.51
477.67	270.27
478.04	270.09
478.41	269.97
478.77	269.96
479.14	269.82
479.50	269.78
479.87	269.81
480.23	269.82
480.60	269.85
480.96	269.88
481.33	270.07
481.69	270.24
482.06	270.44
482.42	270.60
482.79	270.81
483.15	271.16
483.52	271.49
483.88	271.81
484.25	272.17
484.61	272.58
484.98	273.02
485.34	273.55
485.71	274.13
486.07	274.71
486.44	275.27
486.80	275.97
487.17	276.71
487.53	277.53
487.90	278.38
488.26	279.33
488.62	280.36
488.99	281.35
489.35	282.41
489.72	283.57
490.08	284.79
490.44	286.13
490.81	287.51
491.17	288.91
491.54	290.41
491.90	291.96
492.26	293.64
492.63	295.44
492.99	297.27
493.36	299.22
493.72	301.38
494.08	303.58
494.45	305.92
494.81	308.40
495.17	310.95
495.54	313.66
495.90	316.43
496.26	319.33
496.63	322.42
496.99	325.66
497.35	329.02
497.72	332.59
498.08	336.21
498.44	340.02
498.80	344.13
499.17	348.36
499.53	352.77
499.89	357.35
500.26	362.06
500.62	367.00
500.98	372.20
501.34	377.51
501.71	383.11
502.07	388.85
502.43	394.75
502.79	400.86
503.16	407.20
503.52	413.79
503.88	420.47
504.24	427.48
504.60	434.71
504.97	442.21
505.33	449.89
505.69	457.98
506.05	466.22
506.41	474.50
506.78	483.04
507.14	491.94
507.50	501.14
507.86	510.60
508.22	520.29
508.59	530.07
508.95	540.20
509.31	550.51
509.67	561.15
510.03	571.98
510.39	583.15
510.75	594.54
511.12	606.11
511.48	618.12
511.84	630.18
512.20	642.37
512.56	655.02
512.92	667.87
513.28	681.02
513.64	694.22
514.00	707.76
514.37	721.57
514.73	735.35
515.09	749.16
515.45	763.37
515.81	777.84
516.17	792.66
516.53	807.68
516.89	822.86
517.25	837.97
517.61	853.40
517.97	868.88
518.33	884.25
518.69	900.05
519.05	916.01
519.41	932.26
519.77	948.89
520.13	965.48
520.49	982.09
520.85	998.60
521.21	1015.36
521.57	1032.71
521.93	1049.72
522.29	1067.39
522.65	1085.02
523.01	1102.55
523.37	1119.89
523.73	1137.32
524.09	1154.71
524.45	1172.34
524.81	1190.26
525.17	1208.35
525.53	1226.67
525.89	1245.11
526.25	1263.44
526.61	1281.30
526.97	1299.53
527.33	1317.54
527.68	1335.63
528.04	1353.64
528.40	1371.70
528.76	1390.34
529.12	1408.56
529.48	1427.05
529.84	1444.58
530.20	1462.66
530.56	1481.24
530.91	1500.35
531.27	1518.84
531.63	1536.99
531.99	1555.22
532.35	1573.05
532.71	1590.77
533.07	1608.63
533.42	1626.24
533.78	1644.03
534.14	1662.11
534.50	1679.28
534.86	1696.84
535.21	1713.76
535.57	1731.46
535.93	1748.81
536.29	1765.46
536.65	1782.31
537.00	1798.83
537.36	1816.20
537.72	1832.58
538.08	1848.98
538.44	1864.48
538.79	1880.22
539.15	1895.68
539.51	1911.11
539.87	1927.28
540.22	1942.82
540.58	1958.64
540.94	1973.75
541.29	1988.47
541.65	2003.04
542.01	2018.03
542.37	2032.48
542.72	2046.86
543.08	2060.50
543.44	2074.79
543.79	2087.99
544.15	2100.92
544.51	2114.46
544.87	2127.21
545.22	2139.99
545.58	2152.03
545.94	2163.66
546.29	2175.41
546.65	2187.26
547.01	2198.56
547.36	2209.02
547.72	2219.31
548.07	2228.88
548.43	2238.87
548.79	2248.60
549.14	2258.00
549.50	2267.02
549.86	2276.21
550.21	2285.17
550.57	2294.16
550.92	2302.40
551.28	2311.16
551.64	2320.00
551.99	2328.26
552.35	2336.14
552.70	2343.92
553.06	2351.59
553.41	2359.74
553.77	2367.38
554.13	2374.99
554.48	2382.86
554.84	2390.22
555.19	2397.05
555.55	2403.89
555.90	2409.94
556.26	2416.48
556.61	2422.53
556.97	2428.54
557.32	2434.25
557.68	2439.98
558.03	2445.68
558.39	2450.75
558.74	2456.90
559.10	2462.07
559.45	2467.12
559.81	2472.67
560.16	2477.99
560.52	2482.41
560.87	2486.94
561.23	2490.76
561.58	2494.95
561.94	2498.58
562.29	2501.88
562.64	2505.92
563.00	2509.47
563.35	2514.29
563.71	2518.63
564.06	2523.00
564.42	2527.16
564.77	2530.80
565.12	2534.24
565.48	2537.09
565.83	2540.17
566.19	2542.50
566.54	2544.22
566.89	2546.30
567.25	2547.83
567.60	2549.89
567.96	2552.51
568.31	2554.28
568.66	2556.41
569.02	2557.87
569.37	2558.97
569.72	2560.71
570.08	2561.43
570.43	2562.25
570.78	2562.23
571.14	2561.16
571.49	2560.43
571.84	2560.57
572.20	2560.03
572.55	2559.36
572.90	2558.18
573.26	2557.45
573.61	2556.11
573.96	2554.99
574.31	2552.16
574.67	2549.52
575.02	2546.02
575.37	2542.92
575.72	2539.29
576.08	2535.93
576.43	2532.63
576.78	2529.14
577.13	2526.00
577.49	2522.99
577.84	2519.52
578.19	2515.99
578.54	2512.48
578.90	2508.36
579.25	2502.46
579.60	2497.37
579.95	2492.17
580.30	2487.13
580.66	2481.56
581.01	2476.14
581.36	2470.95
581.71	2466.83
582.06	2462.20
582.42	2457.67
582.77	2452.07
583.12	2447.32
583.47	2442.45
583.82	2437.41
584.17	2431.75
584.53	2425.92
584.88	2420.13
585.23	2413.96
585.58	2407.84
585.93	2401.93
586.28	2396.52
586.63	2391.25
586.98	2385.67
587.34	2380.55
587.69	2375.39
588.04	2369.68
588.39	2363.66
588.74	2356.60
589.09	2349.73
589.44	2342.27
589.79	2335.58
590.14	2329.54
590.49	2322.26
590.84	2315.25
591.19	2308.47
591.54	2301.45
591.89	2293.48
592.25	2285.97
592.60	2278.10
592.95	2269.82
593.30	2261.68
593.65	2253.46
594.00	2245.57
594.35	2237.44
594.70	2228.47
595.05	2220.48
595.40	2212.32
595.75	2204.00
596.10	2197.14
596.45	2189.66
596.80	2182.89
597.15	2175.59
597.50	2167.68
597.85	2160.38
598.19	2152.98
598.54	2145.01
598.89	2137.50
599.24	2130.71
599.59	2123.19
599.94	2116.10
600.29	2108.98
600.64	2101.50
600.99	2093.19
601.34	2085.56
601.69	2077.79
602.04	2070.33
602.39	2061.83
602.74	2054.18
603.08	2046.49
603.43	2038.72
603.78	2030.43
604.13	2022.20
604.48	2013.90
604.83	2006.06
605.18	1998.32
605.53	1989.13
605.87	1980.08
606.22	1971.78
606.57	1962.79
606.92	1954.13
607.27	1946.01
607.62	1938.05
607.96	1929.81
608.31	1922.19
608.66	1913.30
609.01	1904.76
609.36	1895.92
609.70	1886.83
610.05	1877.56
610.40	1868.73
610.75	1859.17
611.10	1850.32
611.44	1840.46
611.79	1831.35
612.14	1821.26
612.49	1810.71
612.83	1801.00
613.18	1791.52
613.53	1782.20
613.88	1772.40
614.22	1763.03
614.57	1753.00
614.92	1743.73
615.27	1735.00
615.61	1725.53
615.96	1716.32
616.31	1707.43
616.65	1698.88
617.00	1690.12
617.35	1681.27
617.70	1671.83
618.04	1662.18
618.39	1652.69
618.74	1644.08
619.08	1634.49
619.43	1625.87
619.78	1617.73
620.12	1609.63
620.47	1600.95
620.82	1591.60
621.16	1583.04
621.51	1574.14
621.85	1565.37
622.20	1555.63
622.55	1546.03
622.89	1536.92
623.24	1528.20
623.59	1519.45
623.93	1510.82
624.28	1502.46
624.62	1493.84
624.97	1485.53
625.32	1477.51
625.66	1469.45
626.01	1461.04
626.35	1452.55
626.70	1443.54
627.04	1434.76
627.39	1425.71
627.73	1417.22
628.08	1409.26
628.43	1400.86
628.77	1392.54
629.12	1383.87
629.46	1375.63
629.81	1366.98
630.15	1358.56
630.50	1349.99
630.84	1340.79
631.19	1331.59
631.53	1322.96
631.88	1314.20
632.22	1305.41
632.57	1297.08
632.91	1288.41
633.26	1279.99
633.60	1271.45
633.95	1263.13
634.29	1254.96
634.64	1247.31
634.98	1238.83
635.32	1230.52
635.67	1222.83
636.01	1215.19
636.36	1207.34
636.70	1199.74
637.05	1192.29
637.39	1184.91
637.73	1177.40
638.08	1170.59
638.42	1163.82
638.77	1156.43
639.11	1148.93
639.45	1141.64
639.80	1134.06
640.14	1126.72
640.49	1119.28
640.83	1112.06
641.17	1105.04
641.52	1097.82
641.86	1090.36
642.20	1083.76
642.55	1076.47
642.89	1069.16
643.23	1061.60
643.58	1055.03
643.92	1047.97
644.26	1040.99
644.61	1033.99
644.95	1027.17
645.29	1019.61
645.64	1011.83
645.98	1004.62
646.32	997.87
646.66	990.98
647.01	984.32
647.35	977.80
647.69	971.13
648.04	964.76
648.38	958.18
648.72	951.37
649.06	944.54
649.41	937.80
649.75	931.19
650.09	924.40
650.43	917.84
650.78	910.87
651.12	904.15
651.46	897.66
651.80	891.20
652.14	885.03
652.49	878.99
652.83	873.16
653.17	866.68
653.51	860.25
653.85	854.08
654.20	847.71
654.54	840.87
654.88	834.35
655.22	827.73
655.56	821.23
655.90	814.98
656.25	809.07
656.59	803.01
656.93	797.15
657.27	791.30
657.61	785.12
657.95	779.36
658.29	773.56
658.64	767.55
658.98	761.43
659.32	755.28
659.66	749.32
660.00	743.32
660.34	737.69
660.68	732.04
661.02	726.32
661.36	720.98
661.70	715.88
662.05	710.87
662.39	705.86
662.73	700.80
663.07	695.92
663.41	690.87
663.75	685.77
664.09	680.54
664.43	675.54
664.77	670.95
665.11	666.19
665.45	661.52
665.79	656.95
666.13	652.33
666.47	647.65
666.81	643.06
667.15	638.37
667.49	633.97
667.83	629.68
668.17	625.23
668.51	620.62
668.85	616.01
669.19	611.68
669.53	607.35
669.87	602.97
670.21	598.66
670.55	594.50
670.89	590.60
671.23	586.77
671.57	582.80
671.91	578.77
672.25	574.71
672.58	570.67
672.92	566.75
673.26	563.18
673.60	559.66
673.94	556.10
674.28	552.76
674.62	549.47
674.96	545.97
675.30	542.68
675.64	539.32
675.97	536.19
676.31	532.90
676.65	529.68
676.99	526.60
677.33	523.39
677.67	520.21
678.01	516.80
678.34	513.38
678.68	510.10
679.02	506.90
679.36	503.82
679.70	500.79
680.04	497.71
680.37	494.45
680.71	491.20
681.05	488.19
681.39	485.16
681.73	482.11
682.06	479.24
682.40	476.34
682.74	473.52
683.08	470.61
683.42	467.72
683.75	464.77
684.09	461.86
684.43	459.11
684.77	456.33
685.10	453.64
685.44	451.09
685.78	448.48
686.12	445.87
686.45	443.25
686.79	440.62
687.13	438.12
687.46	435.68
687.80	433.24
688.14	430.74
688.48	428.33
688.81	425.74
689.15	423.29
689.49	420.80
689.82	418.40
690.16	415.98
690.50	413.69
690.83	411.51
691.17	409.22
691.51	406.97
691.84	404.83
692.18	402.65
692.52	400.35
692.85	398.17
693.19	396.05
693.52	393.91
693.86	391.83
694.20	389.79
694.53	387.71
694.87	385.60
695.21	383.59
695.54	381.51
695.88	379.48
696.21	377.52
696.55	375.65
696.88	373.70
697.22	371.84
697.56	369.96
697.89	368.11
698.23	366.31
698.56	364.49
698.90	362.72
699.23	360.84
699.57	359.10
699.90	357.31
700.24	355.52
700.58	353.77
700.91	352.01
701.25	350.33
701.58	348.78
701.92	347.25
702.25	345.69
702.59	344.17
702.92	342.72
703.26	341.21
703.59	339.75
703.93	338.38
704.26	336.98
704.60	335.53
704.93	334.02
705.26	332.62
705.60	331.28
705.93	329.98
706.27	328.77
706.60	327.50
706.94	326.27
707.27	325.02
707.61	323.78
707.94	322.64
708.27	321.41
708.61	320.16
708.94	318.98
709.28	317.81
709.61	316.68
709.94	315.57
710.28	314.38
710.61	313.23
710.95	312.02
711.28	310.94
711.61	309.86
711.95	308.84
712.28	307.73
712.61	306.64
712.95	305.56
713.28	304.54
713.61	303.53
713.95	302.53
714.28	301.55
714.61	300.62
714.95	299.65
715.28	298.67
715.61	297.70
715.95	296.75
716.28	295.79
716.61	294.84
716.95	293.93
717.28	293.15
717.61	292.27
717.94	291.44
718.28	290.55
718.61	289.77
718.94	288.99
719.27	288.29
719.61	287.53
719.94	286.77
720.27	285.98
720.60	285.23
720.94	284.53
721.27	283.85
721.60	283.21
721.93	282.58
722.27	281.96
722.60	281.33
722.93	280.70
723.26	280.08
723.59	279.49
723.93	278.86
724.26	278.18
724.59	277.53
724.92	276.92
725.25	276.35
725.59	275.71
725.92	275.14
726.25	274.54
726.58	274.00
726.91	273.40
727.24	272.87
727.57	272.38
727.91	271.82
728.24	271.28
728.57	270.74
728.90	270.18
729.23	269.63
729.56	269.13
729.89	268.61
730.22	268.01
730.55	267.43
730.89	266.92
731.22	266.41
731.55	265.95
731.88	265.46
732.21	264.94
732.54	264.44
732.87	263.97
733.20	263.50
733.53	263.04
733.86	262.60
734.19	262.11
734.52	261.65
734.85	261.26
735.18	260.80
735.51	260.33
735.84	259.91
736.17	259.54
736.50	259.05
736.83	258.75
737.16	258.43
737.49	258.08
737.82	257.68
738.15	257.30
738.48	256.90
738.81	256.51
739.14	256.20
739.47	255.86
739.80	255.46
740.13	255.10
740.46	254.74
740.79	254.37
741.12	254.01
741.45	253.63
741.78	253.22
742.11	252.91
742.44	252.55
742.77	252.21
743.10	251.79
743.43	251.43
743.75	251.00
744.08	250.78
744.41	250.44
744.74	250.12
745.07	249.80
745.40	249.53
745.73	249.26
746.06	248.89
746.39	248.61
746.71	248.31
747.04	247.99
747.37	247.68
747.70	247.39
748.03	247.15
748.36	246.92
748.68	246.62
749.01	246.32
749.34	246.09
749.67	245.80
750.00	245.60
750.33	245.44
750.65	245.18
750.98	244.81
751.31	244.58
751.64	244.34
751.97	244.19
752.29	243.94
752.62	243.65
752.95	243.44
753.28	243.19
753.60	242.97
753.93	242.78
754.26	242.57
754.59	242.34
754.91	242.09
755.24	241.85
755.57	241.64
755.90	241.43
756.22	241.22
756.55	241.02
756.88	240.80
757.20	240.54
757.53	240.35
757.86	240.15
758.19	239.97
758.51	239.76
758.84	239.48
759.17	239.28
759.49	239.14
759.82	239.02
760.15	238.82
760.47	238.64
760.80	238.45
761.13	238.31
761.45	238.12
761.78	237.94
762.11	237.79
762.43	237.69
762.76	237.53
763.08	237.39
763.41	237.23
763.74	237.09
764.06	236.96
764.39	236.80
764.71	236.63
765.04	236.45
765.37	236.32
765.69	236.20
766.02	236.06
766.34	235.88
766.67	235.69
767.00	235.61
767.32	235.53
767.65	235.48
767.97	235.37
768.30	235.27
768.62	235.14
768.95	235.03
769.27	234.89
769.60	234.78
769.92	234.61
770.25	234.51
770.57	234.39
770.90	234.23
771.22	234.11
771.55	234.02
771.87	233.94
772.20	233.83
772.52	233.81
772.85	233.81
773.17	233.70
773.50	233.61
773.82	233.48
774.15	233.32
774.47	233.16
774.80	233.02
775.12	232.91
775.45	232.80
775.77	232.71
776.09	232.61
776.42	232.51
776.74	232.48
777.07	232.35
777.39	232.25
777.72	232.18
778.04	232.11
778.36	232.01
778.69	231.90
779.01	231.82
779.33	231.64
779.66	231.47
779.98	231.45
780.31	231.40
780.63	231.35
780.95	231.29
781.28	231.21
781.60	231.14
781.92	231.11
782.25	231.03
782.57	230.94
782.89	230.85
783.22	230.80
783.54	230.70
783.86	230.63
784.19	230.57
784.51	230.54
784.83	230.47
785.16	230.39
785.48	230.35
785.80	230.32
786.12	230.28
786.45	230.20
786.77	230.10
