SpectraSuite Data File
++++++++++++++++++++++++++++++++++++
Date: Fri Feb 01 16:19:36 EST 2013
User: group
Dark Spectrum Present: No
Reference Spectrum Present: No
Number of Sampled Component Spectra: 1
Spectrometers: USB2E7196
Integration Time (usec): 35000 (USB2E7196)
Spectra Averaged: 100 (USB2E7196)
Boxcar Smoothing: 10 (USB2E7196)
Correct for Electrical Dark: No (USB2E7196)
Strobe/Lamp Enabled: No (USB2E7196)
Correct for Detector Non-linearity: No (USB2E7196)
Correct for Stray Light: No (USB2E7196)
Number of Pixels in Processed Spectrum: 2048
>>>>>Begin Processed Spectral Data<<<<<
339.09	0.00
339.48	214.39
339.86	215.36
340.24	216.17
340.63	218.17
341.01	221.15
341.39	220.68
341.78	222.79
342.16	223.48
342.54	223.56
342.93	212.39
343.31	223.14
343.69	223.64
344.07	224.11
344.46	224.55
344.84	224.95
345.22	225.18
345.60	225.45
345.99	225.59
346.37	225.72
346.75	225.81
347.13	225.85
347.52	225.92
347.90	226.00
348.28	226.00
348.66	226.06
349.05	226.03
349.43	226.08
349.81	226.11
350.19	226.13
350.57	226.20
350.96	226.28
351.34	226.36
351.72	226.45
352.10	226.54
352.48	226.64
352.87	226.66
353.25	226.72
353.63	226.79
354.01	226.86
354.39	226.93
354.77	227.00
355.15	227.11
355.54	227.15
355.92	227.20
356.30	227.30
356.68	227.41
357.06	227.53
357.44	227.57
357.82	227.61
358.20	227.67
358.58	227.75
358.97	227.81
359.35	227.87
359.73	227.96
360.11	228.00
360.49	228.05
360.87	228.16
361.25	228.21
361.63	228.30
362.01	228.35
362.39	228.43
362.77	228.51
363.15	228.57
363.53	228.64
363.91	228.66
364.29	228.71
364.67	228.64
365.05	228.64
365.43	228.69
365.81	228.73
366.19	228.76
366.57	228.80
366.95	228.83
367.33	228.80
367.71	228.79
368.09	228.84
368.47	228.85
368.85	228.82
369.23	228.80
369.61	228.69
369.99	228.73
370.37	228.69
370.75	228.68
371.13	228.60
371.51	228.54
371.89	228.53
372.27	228.47
372.65	228.44
373.03	228.36
373.41	228.31
373.78	228.25
374.16	228.15
374.54	228.05
374.92	227.96
375.30	227.91
375.68	227.83
376.06	227.74
376.44	227.65
376.82	227.57
377.19	227.52
377.57	227.49
377.95	227.36
378.33	227.28
378.71	227.15
379.09	227.09
379.47	227.02
379.84	226.93
380.22	226.86
380.60	226.75
380.98	226.70
381.36	226.61
381.73	226.53
382.11	226.49
382.49	226.43
382.87	226.35
383.25	226.29
383.62	226.32
384.00	226.25
384.38	226.18
384.76	226.16
385.13	226.13
385.51	226.06
385.89	226.00
386.27	225.96
386.64	225.92
387.02	225.87
387.40	225.82
387.78	225.78
388.15	225.74
388.53	225.72
388.91	225.66
389.29	225.66
389.66	225.63
390.04	225.62
390.42	225.65
390.79	225.65
391.17	225.63
391.55	225.51
391.92	225.44
392.30	225.48
392.68	225.43
393.05	225.44
393.43	225.47
393.81	225.49
394.18	225.49
394.56	225.49
394.94	225.51
395.31	225.55
395.69	225.61
396.06	225.65
396.44	225.71
396.82	225.76
397.19	225.83
397.57	225.89
397.95	225.93
398.32	225.93
398.70	225.98
399.07	226.09
399.45	226.17
399.82	226.27
400.20	226.31
400.58	226.39
400.95	226.46
401.33	226.51
401.70	226.65
402.08	226.75
402.45	226.87
402.83	226.99
403.20	227.10
403.58	227.19
403.95	227.31
404.33	227.43
404.71	227.56
405.08	227.75
405.46	227.89
405.83	228.07
406.21	228.21
406.58	228.39
406.96	228.51
407.33	228.71
407.70	228.91
408.08	229.19
408.45	229.41
408.83	229.61
409.20	229.82
409.58	229.99
409.95	230.28
410.33	230.56
410.70	230.81
411.08	231.11
411.45	231.40
411.82	231.69
412.20	232.06
412.57	232.45
412.95	232.74
413.32	233.14
413.69	233.52
414.07	233.94
414.44	234.41
414.82	234.89
415.19	235.42
415.56	235.96
415.94	236.50
416.31	237.13
416.68	237.74
417.06	238.48
417.43	239.19
417.81	239.92
418.18	240.67
418.55	241.50
418.93	242.37
419.30	243.30
419.67	244.23
420.04	245.18
420.42	246.18
420.79	247.32
421.16	248.47
421.54	249.65
421.91	250.91
422.28	252.12
422.66	253.46
423.03	254.77
423.40	256.10
423.77	257.48
424.15	258.91
424.52	260.42
424.89	262.00
425.26	263.52
425.64	264.94
426.01	266.54
426.38	268.17
426.75	269.81
427.13	271.50
427.50	273.33
427.87	275.19
428.24	277.01
428.61	278.76
428.99	280.67
429.36	282.73
429.73	284.75
430.10	286.79
430.47	288.79
430.85	290.87
431.22	293.12
431.59	295.48
431.96	297.74
432.33	300.21
432.70	302.62
433.08	305.43
433.45	308.07
433.82	310.68
434.19	313.61
434.56	316.42
434.93	319.07
435.30	321.68
435.68	324.54
436.05	327.35
436.42	330.15
436.79	332.65
437.16	335.40
437.53	338.24
437.90	341.01
438.27	343.82
438.64	346.57
439.01	349.14
439.38	351.40
439.75	353.53
440.13	356.00
440.50	358.34
440.87	360.19
441.24	362.14
441.61	364.24
441.98	365.69
442.35	367.46
442.72	369.31
443.09	371.11
443.46	372.08
443.83	372.70
444.20	373.19
444.57	374.06
444.94	374.29
445.31	374.61
445.68	374.99
446.05	375.04
446.42	374.72
446.79	374.32
447.16	373.88
447.53	373.55
447.90	372.41
448.27	371.21
448.64	369.63
449.01	368.48
449.37	366.53
449.74	364.63
450.11	362.43
450.48	359.99
450.85	357.49
451.22	355.42
451.59	353.34
451.96	351.42
452.33	348.79
452.70	346.44
453.07	343.64
453.43	340.74
453.80	337.96
454.17	335.34
454.54	332.83
454.91	330.11
455.28	327.43
455.65	324.94
456.02	322.47
456.38	320.33
456.75	317.73
457.12	315.49
457.49	313.28
457.86	311.07
458.23	309.22
458.59	307.15
458.96	305.04
459.33	303.24
459.70	301.38
460.07	299.92
460.43	298.22
460.80	296.60
461.17	295.17
461.54	293.70
461.91	292.27
462.27	290.80
462.64	289.55
463.01	288.20
463.38	286.92
463.74	285.61
464.11	284.47
464.48	283.44
464.85	282.38
465.21	281.51
465.58	280.60
465.95	279.48
466.32	278.64
466.68	277.74
467.05	276.85
467.42	276.01
467.78	275.06
468.15	274.24
468.52	273.58
468.88	272.72
469.25	271.93
469.62	271.28
469.98	270.61
470.35	270.02
470.72	269.43
471.08	268.76
471.45	268.20
471.82	267.65
472.18	267.08
472.55	266.60
472.92	266.09
473.28	265.67
473.65	265.25
474.02	264.77
474.38	264.41
474.75	264.09
475.11	263.68
475.48	263.44
475.85	263.20
476.21	262.96
476.58	262.80
476.94	262.67
477.31	262.54
477.67	262.37
478.04	262.26
478.41	262.24
478.77	262.27
479.14	262.19
479.50	262.21
479.87	262.25
480.23	262.31
480.60	262.40
480.96	262.45
481.33	262.65
481.69	262.84
482.06	263.02
482.42	263.22
482.79	263.50
483.15	263.80
483.52	264.17
483.88	264.52
484.25	264.89
484.61	265.30
484.98	265.74
485.34	266.31
485.71	266.85
486.07	267.42
486.44	268.03
486.80	268.76
487.17	269.48
487.53	270.31
487.90	271.20
488.26	272.12
488.62	273.11
488.99	274.06
489.35	275.17
489.72	276.33
490.08	277.54
490.44	278.79
490.81	280.15
491.17	281.51
491.54	282.98
491.90	284.54
492.26	286.21
492.63	287.93
492.99	289.73
493.36	291.67
493.72	293.74
494.08	295.84
494.45	298.15
494.81	300.56
495.17	302.99
495.54	305.56
495.90	308.26
496.26	311.13
496.63	314.12
496.99	317.21
497.35	320.47
497.72	323.86
498.08	327.37
498.44	331.02
498.80	334.94
499.17	339.02
499.53	343.17
499.89	347.57
500.26	352.05
500.62	356.75
500.98	361.73
501.34	366.78
501.71	372.15
502.07	377.60
502.43	383.19
502.79	389.07
503.16	395.15
503.52	401.44
503.88	407.87
504.24	414.50
504.60	421.37
504.97	428.53
505.33	435.86
505.69	443.62
506.05	451.40
506.41	459.31
506.78	467.49
507.14	475.99
507.50	484.72
507.86	493.83
508.22	503.02
508.59	512.22
508.95	521.90
509.31	531.67
509.67	541.76
510.03	552.09
510.39	562.63
510.75	573.47
511.12	584.41
511.48	595.69
511.84	607.18
512.20	618.72
512.56	630.74
512.92	642.96
513.28	655.29
513.64	667.80
514.00	680.54
514.37	693.41
514.73	706.50
515.09	719.57
515.45	732.88
515.81	746.42
516.17	760.35
516.53	774.36
516.89	788.57
517.25	802.67
517.61	817.09
517.97	831.49
518.33	845.74
518.69	860.51
519.05	875.49
519.41	890.60
519.77	906.15
520.13	921.44
520.49	936.76
520.85	952.11
521.21	967.79
521.57	983.98
521.93	999.72
522.29	1016.06
522.65	1032.21
523.01	1048.30
523.37	1064.23
523.73	1080.38
524.09	1096.41
524.45	1112.62
524.81	1129.29
525.17	1146.06
525.53	1163.00
525.89	1179.96
526.25	1196.79
526.61	1213.15
526.97	1229.90
527.33	1246.22
527.68	1262.72
528.04	1279.19
528.40	1295.77
528.76	1312.84
529.12	1329.34
529.48	1346.20
529.84	1362.12
530.20	1378.69
530.56	1395.73
530.91	1413.22
531.27	1430.02
531.63	1446.55
531.99	1463.15
532.35	1478.92
532.71	1494.72
533.07	1510.87
533.42	1526.78
533.78	1542.74
534.14	1558.83
534.50	1574.11
534.86	1589.98
535.21	1605.22
535.57	1621.08
535.93	1636.57
536.29	1651.27
536.65	1666.22
537.00	1680.95
537.36	1696.16
537.72	1710.53
538.08	1724.85
538.44	1738.52
538.79	1752.20
539.15	1765.74
539.51	1779.44
539.87	1793.72
540.22	1807.36
540.58	1821.02
540.94	1834.07
541.29	1846.80
541.65	1859.53
542.01	1872.64
542.37	1884.87
542.72	1897.15
543.08	1908.84
543.44	1921.06
543.79	1932.18
544.15	1943.23
544.51	1954.80
544.87	1965.79
545.22	1976.62
545.58	1986.69
545.94	1996.36
546.29	2006.33
546.65	2016.18
547.01	2025.33
547.36	2034.07
547.72	2042.59
548.07	2050.48
548.43	2058.77
548.79	2066.70
549.14	2074.16
549.50	2081.38
549.86	2089.13
550.21	2096.44
550.57	2103.63
550.92	2110.17
551.28	2117.19
551.64	2124.11
551.99	2130.61
552.35	2136.67
552.70	2142.90
553.06	2149.02
553.41	2155.38
553.77	2161.31
554.13	2167.24
554.48	2173.33
554.84	2178.92
555.19	2184.06
555.55	2189.19
555.90	2193.53
556.26	2198.41
556.61	2203.06
556.97	2207.46
557.32	2211.43
557.68	2215.52
558.03	2219.83
558.39	2223.57
558.74	2228.33
559.10	2232.23
559.45	2235.80
559.81	2240.14
560.16	2244.03
560.52	2247.12
560.87	2250.48
561.23	2253.15
561.58	2256.16
561.94	2258.71
562.29	2260.96
562.64	2263.68
563.00	2266.28
563.35	2269.94
563.71	2273.10
564.06	2276.40
564.42	2279.11
564.77	2281.67
565.12	2284.02
565.48	2285.86
565.83	2287.72
566.19	2289.05
566.54	2289.98
566.89	2291.02
567.25	2291.69
567.60	2292.82
567.96	2294.70
568.31	2295.57
568.66	2296.72
569.02	2297.38
569.37	2297.53
569.72	2298.53
570.08	2298.63
570.43	2298.67
570.78	2298.03
571.14	2296.67
571.49	2295.31
571.84	2295.14
572.20	2294.13
572.55	2293.23
572.90	2291.78
573.26	2290.46
573.61	2288.76
573.96	2287.05
574.31	2284.28
574.67	2281.29
575.02	2277.79
575.37	2274.42
575.72	2270.61
576.08	2267.34
576.43	2263.96
576.78	2260.54
577.13	2257.32
577.49	2254.37
577.84	2250.94
578.19	2247.36
578.54	2243.70
578.90	2239.51
579.25	2234.08
579.60	2229.08
579.95	2223.95
580.30	2218.95
580.66	2213.92
581.01	2208.99
581.36	2204.08
581.71	2199.89
582.06	2195.48
582.42	2191.01
582.77	2185.75
583.12	2181.45
583.47	2176.73
583.82	2171.88
584.17	2166.64
584.53	2161.20
584.88	2155.63
585.23	2149.88
585.58	2144.36
585.93	2138.94
586.28	2134.28
586.63	2129.23
586.98	2124.33
587.34	2119.68
587.69	2114.82
588.04	2109.51
588.39	2103.97
588.74	2097.60
589.09	2091.61
589.44	2084.87
589.79	2078.96
590.14	2073.46
590.49	2066.77
590.84	2060.43
591.19	2054.44
591.54	2048.13
591.89	2040.84
592.25	2034.03
592.60	2026.97
592.95	2019.48
593.30	2012.17
593.65	2004.53
594.00	1997.49
594.35	1990.27
594.70	1982.43
595.05	1975.27
595.40	1968.00
595.75	1960.45
596.10	1954.23
596.45	1947.39
596.80	1941.27
597.15	1934.65
597.50	1927.64
597.85	1921.31
598.19	1914.68
598.54	1907.52
598.89	1900.79
599.24	1894.92
599.59	1888.20
599.94	1881.95
600.29	1875.64
600.64	1869.16
600.99	1861.80
601.34	1855.04
601.69	1848.20
602.04	1841.26
602.39	1833.99
602.74	1827.22
603.08	1820.50
603.43	1814.00
603.78	1806.74
604.13	1799.47
604.48	1792.31
604.83	1785.30
605.18	1778.36
605.53	1770.37
605.87	1762.47
606.22	1755.36
606.57	1747.37
606.92	1740.23
607.27	1733.15
607.62	1726.24
607.96	1719.03
608.31	1712.44
608.66	1704.92
609.01	1697.20
609.36	1689.62
609.70	1681.54
610.05	1673.54
610.40	1665.85
610.75	1657.33
611.10	1649.70
611.44	1641.31
611.79	1633.23
612.14	1624.68
612.49	1615.52
612.83	1607.28
613.18	1599.12
613.53	1590.93
613.88	1582.39
614.22	1574.01
614.57	1565.24
614.92	1557.20
615.27	1549.56
615.61	1541.26
615.96	1533.06
616.31	1525.49
616.65	1518.13
617.00	1510.45
617.35	1502.78
617.70	1494.30
618.04	1485.83
618.39	1477.57
618.74	1469.95
619.08	1461.60
619.43	1453.97
619.78	1447.15
620.12	1439.90
620.47	1432.41
620.82	1424.25
621.16	1416.87
621.51	1409.17
621.85	1401.55
622.20	1393.06
622.55	1384.71
622.89	1376.83
623.24	1369.25
623.59	1361.78
623.93	1354.18
624.28	1347.09
624.62	1339.57
624.97	1332.49
625.32	1325.72
625.66	1318.67
626.01	1311.56
626.35	1304.19
626.70	1296.50
627.04	1288.57
627.39	1280.68
627.73	1273.30
628.08	1266.30
628.43	1259.02
628.77	1251.73
629.12	1244.14
629.46	1236.88
629.81	1229.46
630.15	1222.17
630.50	1214.80
630.84	1206.57
631.19	1198.72
631.53	1191.18
631.88	1183.50
632.22	1175.81
632.57	1168.54
632.91	1161.02
633.26	1153.43
633.60	1145.99
633.95	1138.71
634.29	1131.71
634.64	1125.09
634.98	1117.68
635.32	1110.60
635.67	1103.95
636.01	1097.30
636.36	1090.50
636.70	1084.05
637.05	1077.38
637.39	1071.02
637.73	1064.41
638.08	1058.53
638.42	1052.50
638.77	1046.00
639.11	1039.48
639.45	1033.15
639.80	1026.40
640.14	1019.98
640.49	1013.58
640.83	1007.30
641.17	1001.06
641.52	994.68
641.86	988.10
642.20	982.19
642.55	975.89
642.89	969.45
643.23	962.88
643.58	957.19
643.92	950.94
644.26	944.77
644.61	938.67
644.95	932.68
645.29	926.06
645.64	919.39
645.98	913.06
646.32	907.21
646.66	901.13
647.01	895.33
647.35	889.57
647.69	883.72
648.04	878.08
648.38	872.29
648.72	866.29
649.06	860.35
649.41	854.48
649.75	848.44
650.09	842.41
650.43	836.56
650.78	830.28
651.12	824.35
651.46	818.75
651.80	812.98
652.14	807.61
652.49	802.30
652.83	797.01
653.17	791.32
653.51	785.58
653.85	780.28
654.20	774.58
654.54	768.58
654.88	762.81
655.22	756.99
655.56	751.32
655.90	745.94
656.25	740.65
656.59	735.27
656.93	730.28
657.27	725.17
657.61	719.70
657.95	714.71
658.29	709.62
658.64	704.37
658.98	699.06
659.32	693.58
659.66	688.37
660.00	683.06
660.34	678.18
660.68	673.25
661.02	668.14
661.36	663.51
661.70	659.04
662.05	654.66
662.39	650.27
662.73	645.77
663.07	641.33
663.41	636.89
663.75	632.39
664.09	627.75
664.43	623.32
664.77	619.25
665.11	614.95
665.45	610.80
665.79	606.70
666.13	602.59
666.47	598.41
666.81	594.23
667.15	590.20
667.49	586.23
667.83	582.43
668.17	578.50
668.51	574.44
668.85	570.40
669.19	566.55
669.53	562.73
669.87	558.86
670.21	555.19
670.55	551.56
670.89	548.12
671.23	544.74
671.57	541.25
671.91	537.69
672.25	534.19
672.58	530.70
672.92	527.27
673.26	524.06
673.60	520.93
673.94	517.82
674.28	514.85
674.62	511.96
674.96	508.81
675.30	505.91
675.64	502.98
675.97	500.17
676.31	497.28
676.65	494.36
676.99	491.66
677.33	488.79
677.67	485.98
678.01	482.96
678.34	479.94
678.68	477.04
679.02	474.27
679.36	471.52
679.70	468.70
680.04	465.99
680.37	463.16
680.71	460.36
681.05	457.71
681.39	454.99
681.73	452.26
682.06	449.73
682.40	447.19
682.74	444.60
683.08	442.02
683.42	439.39
683.75	436.88
684.09	434.30
684.43	431.79
684.77	429.28
685.10	426.89
685.44	424.55
685.78	422.29
686.12	420.01
686.45	417.68
686.79	415.38
687.13	413.12
687.46	410.90
687.80	408.74
688.14	406.49
688.48	404.40
688.81	402.17
689.15	400.02
689.49	397.83
689.82	395.77
690.16	393.68
690.50	391.75
690.83	389.84
691.17	387.89
691.51	385.97
691.84	384.13
692.18	382.22
692.52	380.26
692.85	378.30
693.19	376.45
693.52	374.63
693.86	372.83
694.20	371.07
694.53	369.31
694.87	367.46
695.21	365.68
695.54	363.86
695.88	362.11
696.21	360.37
696.55	358.68
696.88	356.97
697.22	355.33
697.56	353.69
697.89	351.99
698.23	350.34
698.56	348.77
698.90	347.17
699.23	345.55
699.57	343.98
699.90	342.40
700.24	340.83
700.58	339.27
700.91	337.77
701.25	336.33
701.58	334.94
701.92	333.58
702.25	332.21
702.59	330.87
702.92	329.56
703.26	328.27
703.59	327.00
703.93	325.82
704.26	324.60
704.60	323.36
704.93	322.14
705.26	320.94
705.60	319.76
705.93	318.63
706.27	317.56
706.60	316.52
706.94	315.49
707.27	314.37
707.61	313.36
707.94	312.36
708.27	311.27
708.61	310.24
708.94	309.25
709.28	308.31
709.61	307.36
709.94	306.44
710.28	305.43
710.61	304.45
710.95	303.36
711.28	302.45
711.61	301.50
711.95	300.59
712.28	299.62
712.61	298.64
712.95	297.70
713.28	296.82
713.61	295.92
713.95	295.04
714.28	294.23
714.61	293.35
714.95	292.50
715.28	291.65
715.61	290.74
715.95	289.88
716.28	289.00
716.61	288.16
716.95	287.37
717.28	286.66
717.61	285.91
717.94	285.18
718.28	284.37
718.61	283.63
718.94	282.93
719.27	282.29
719.61	281.65
719.94	281.01
720.27	280.28
720.60	279.62
720.94	278.99
721.27	278.35
721.60	277.76
721.93	277.18
722.27	276.62
722.60	276.06
722.93	275.49
723.26	274.95
723.59	274.37
723.93	273.79
724.26	273.18
724.59	272.58
724.92	272.11
725.25	271.62
725.59	271.09
725.92	270.56
726.25	270.04
726.58	269.51
726.91	269.00
727.24	268.55
727.57	268.09
727.91	267.56
728.24	267.08
728.57	266.59
728.90	266.14
729.23	265.64
729.56	265.20
729.89	264.74
730.22	264.23
730.55	263.75
730.89	263.28
731.22	262.83
731.55	262.38
731.88	261.95
732.21	261.46
732.54	260.99
732.87	260.56
733.20	260.16
733.53	259.79
733.86	259.40
734.19	258.99
734.52	258.60
734.85	258.29
735.18	257.86
735.51	257.51
735.84	257.09
736.17	256.74
736.50	256.30
736.83	256.08
737.16	255.76
737.49	255.40
737.82	255.04
738.15	254.73
738.48	254.44
738.81	254.07
739.14	253.76
739.47	253.45
739.80	253.16
740.13	252.82
740.46	252.49
740.79	252.15
741.12	251.83
741.45	251.52
741.78	251.15
742.11	250.89
742.44	250.57
742.77	250.30
743.10	250.03
743.43	249.77
743.75	249.32
744.08	249.19
744.41	248.98
744.74	248.70
745.07	248.43
745.40	248.17
745.73	247.93
746.06	247.69
746.39	247.47
746.71	247.22
747.04	246.96
747.37	246.71
747.70	246.48
748.03	246.24
748.36	246.00
748.68	245.79
749.01	245.56
749.34	245.32
749.67	245.11
750.00	244.85
750.33	244.71
750.65	244.54
750.98	244.22
751.31	244.00
751.64	243.82
751.97	243.64
752.29	243.47
752.62	243.23
752.95	243.03
753.28	242.81
753.60	242.59
753.93	242.45
754.26	242.28
754.59	242.12
754.91	241.90
755.24	241.74
755.57	241.54
755.90	241.36
756.22	241.17
756.55	240.96
756.88	240.77
757.20	240.56
757.53	240.39
757.86	240.21
758.19	240.05
758.51	239.91
758.84	239.68
759.17	239.49
759.49	239.34
759.82	239.22
760.15	239.06
760.47	238.88
760.80	238.66
761.13	238.49
761.45	238.31
761.78	238.18
762.11	238.06
762.43	237.89
762.76	237.71
763.08	237.58
763.41	237.46
763.74	237.36
764.06	237.20
764.39	237.04
764.71	236.90
765.04	236.76
765.37	236.62
765.69	236.50
766.02	236.33
766.34	236.21
766.67	236.05
767.00	235.95
767.32	235.89
767.65	235.86
767.97	235.74
768.30	235.63
768.62	235.51
768.95	235.32
769.27	235.23
769.60	235.19
769.92	235.06
770.25	234.91
770.57	234.80
770.90	234.66
771.22	234.55
771.55	234.45
771.87	234.33
772.20	234.20
772.52	234.18
772.85	234.21
773.17	234.10
773.50	233.99
773.82	233.89
774.15	233.77
774.47	233.61
774.80	233.48
775.12	233.38
775.45	233.27
775.77	233.20
776.09	233.09
776.42	232.94
776.74	232.86
777.07	232.77
777.39	232.70
777.72	232.66
778.04	232.58
778.36	232.46
778.69	232.40
779.01	232.34
779.33	232.16
779.66	231.96
779.98	231.90
780.31	231.82
780.63	231.78
780.95	231.70
781.28	231.62
781.60	231.59
781.92	231.53
782.25	231.48
782.57	231.43
782.89	231.39
783.22	231.36
783.54	231.28
783.86	231.24
784.19	231.16
784.51	231.12
784.83	231.05
785.16	230.99
785.48	230.92
785.80	230.87
786.12	230.86
786.45	230.84
786.77	230.83
787.09	230.80
