SpectraSuite Data File
++++++++++++++++++++++++++++++++++++
Date: Fri Feb 01 17:25:25 EST 2013
User: group
Dark Spectrum Present: No
Reference Spectrum Present: No
Number of Sampled Component Spectra: 1
Spectrometers: USB2E7196
Integration Time (usec): 35000 (USB2E7196)
Spectra Averaged: 100 (USB2E7196)
Boxcar Smoothing: 10 (USB2E7196)
Correct for Electrical Dark: No (USB2E7196)
Strobe/Lamp Enabled: No (USB2E7196)
Correct for Detector Non-linearity: No (USB2E7196)
Correct for Stray Light: No (USB2E7196)
Number of Pixels in Processed Spectrum: 2048
>>>>>Begin Processed Spectral Data<<<<<
339.09	0.00
339.48	212.95
339.86	214.93
340.24	215.86
340.63	217.32
341.01	220.42
341.39	220.11
341.78	221.21
342.16	221.82
342.54	223.02
342.93	211.42
343.31	222.10
343.69	222.67
344.07	223.13
344.46	223.52
344.84	223.89
345.22	224.10
345.60	224.31
345.99	224.50
346.37	224.66
346.75	224.74
347.13	224.76
347.52	224.79
347.90	224.84
348.28	224.85
348.66	224.87
349.05	224.84
349.43	224.83
349.81	224.84
350.19	224.89
350.57	224.92
350.96	225.03
351.34	225.10
351.72	225.12
352.10	225.20
352.48	225.27
352.87	225.33
353.25	225.38
353.63	225.45
354.01	225.49
354.39	225.49
354.77	225.57
355.15	225.67
355.54	225.73
355.92	225.78
356.30	225.84
356.68	225.95
357.06	226.04
357.44	226.11
357.82	226.17
358.20	226.20
358.58	226.28
358.97	226.30
359.35	226.39
359.73	226.47
360.11	226.51
360.49	226.56
360.87	226.60
361.25	226.66
361.63	226.74
362.01	226.82
362.39	226.89
362.77	226.92
363.15	226.95
363.53	227.00
363.91	227.02
364.29	227.02
364.67	226.97
365.05	227.01
365.43	227.04
365.81	227.10
366.19	227.16
366.57	227.20
366.95	227.22
367.33	227.20
367.71	227.19
368.09	227.18
368.47	227.19
368.85	227.16
369.23	227.17
369.61	227.09
369.99	227.06
370.37	227.06
370.75	227.11
371.13	227.07
371.51	227.00
371.89	227.00
372.27	227.00
372.65	226.99
373.03	226.89
373.41	226.85
373.78	226.77
374.16	226.69
374.54	226.64
374.92	226.57
375.30	226.50
375.68	226.43
376.06	226.39
376.44	226.31
376.82	226.29
377.19	226.22
377.57	226.18
377.95	226.08
378.33	226.04
378.71	225.93
379.09	225.89
379.47	225.86
379.84	225.77
380.22	225.71
380.60	225.63
380.98	225.62
381.36	225.57
381.73	225.52
382.11	225.47
382.49	225.40
382.87	225.36
383.25	225.34
383.62	225.43
384.00	225.36
384.38	225.34
384.76	225.28
385.13	225.31
385.51	225.27
385.89	225.24
386.27	225.18
386.64	225.15
387.02	225.09
387.40	225.02
387.78	225.01
388.15	224.97
388.53	224.91
388.91	224.89
389.29	224.87
389.66	224.82
390.04	224.83
390.42	224.80
390.79	224.77
391.17	224.74
391.55	224.60
391.92	224.60
392.30	224.60
392.68	224.60
393.05	224.58
393.43	224.60
393.81	224.57
394.18	224.55
394.56	224.53
394.94	224.58
395.31	224.58
395.69	224.61
396.06	224.63
396.44	224.64
396.82	224.64
397.19	224.68
397.57	224.74
397.95	224.77
398.32	224.78
398.70	224.86
399.07	224.94
399.45	224.99
399.82	225.06
400.20	225.11
400.58	225.15
400.95	225.15
401.33	225.18
401.70	225.37
402.08	225.48
402.45	225.59
402.83	225.67
403.20	225.80
403.58	225.88
403.95	226.02
404.33	226.15
404.71	226.29
405.08	226.47
405.46	226.59
405.83	226.72
406.21	226.88
406.58	227.02
406.96	227.14
407.33	227.31
407.70	227.50
408.08	227.79
408.45	228.01
408.83	228.25
409.20	228.47
409.58	228.65
409.95	228.87
410.33	229.11
410.70	229.36
411.08	229.64
411.45	229.97
411.82	230.25
412.20	230.64
412.57	231.05
412.95	231.35
413.32	231.77
413.69	232.17
414.07	232.60
414.44	233.10
414.82	233.61
415.19	234.20
415.56	234.74
415.94	235.26
416.31	235.91
416.68	236.57
417.06	237.30
417.43	238.03
417.81	238.86
418.18	239.70
418.55	240.59
418.93	241.49
419.30	242.42
419.67	243.42
420.04	244.40
420.42	245.43
420.79	246.69
421.16	247.89
421.54	249.12
421.91	250.41
422.28	251.70
422.66	253.09
423.03	254.44
423.40	255.79
423.77	257.26
424.15	258.74
424.52	260.30
424.89	262.01
425.26	263.60
425.64	265.10
426.01	266.74
426.38	268.46
426.75	270.21
427.13	272.01
427.50	273.93
427.87	275.91
428.24	277.83
428.61	279.62
428.99	281.63
429.36	283.80
429.73	285.96
430.10	288.08
430.47	290.22
430.85	292.42
431.22	294.77
431.59	297.26
431.96	299.60
432.33	302.20
432.70	304.61
433.08	307.50
433.45	310.25
433.82	312.96
434.19	315.98
434.56	318.90
434.93	321.63
435.30	324.34
435.68	327.36
436.05	330.37
436.42	333.31
436.79	335.92
437.16	338.74
437.53	341.69
437.90	344.60
438.27	347.45
438.64	350.39
439.01	353.12
439.38	355.45
439.75	357.71
440.13	360.25
440.50	362.69
440.87	364.62
441.24	366.61
441.61	368.87
441.98	370.40
442.35	372.26
442.72	374.19
443.09	376.06
443.46	377.06
443.83	377.64
444.20	378.10
444.57	379.03
444.94	379.38
445.31	379.71
445.68	380.06
446.05	380.19
446.42	379.83
446.79	379.41
447.16	378.98
447.53	378.64
447.90	377.53
448.27	376.35
448.64	374.79
449.01	373.64
449.37	371.60
449.74	369.65
450.11	367.35
450.48	364.82
450.85	362.22
451.22	360.03
451.59	357.95
451.96	355.99
452.33	353.26
452.70	350.78
453.07	347.84
453.43	344.85
453.80	341.94
454.17	339.14
454.54	336.45
454.91	333.61
455.28	330.84
455.65	328.23
456.02	325.69
456.38	323.42
456.75	320.65
457.12	318.32
457.49	316.04
457.86	313.79
458.23	311.84
458.59	309.70
458.96	307.52
459.33	305.56
459.70	303.60
460.07	302.04
460.43	300.26
460.80	298.54
461.17	297.01
461.54	295.44
461.91	293.94
462.27	292.41
462.64	291.11
463.01	289.65
463.38	288.27
463.74	286.80
464.11	285.55
464.48	284.53
464.85	283.35
465.21	282.40
465.58	281.42
465.95	280.29
466.32	279.29
466.68	278.30
467.05	277.34
467.42	276.41
467.78	275.42
468.15	274.53
468.52	273.87
468.88	273.02
469.25	272.22
469.62	271.60
469.98	270.91
470.35	270.26
470.72	269.68
471.08	269.05
471.45	268.50
471.82	267.96
472.18	267.31
472.55	266.87
472.92	266.34
473.28	265.88
473.65	265.43
474.02	265.01
474.38	264.68
474.75	264.39
475.11	264.04
475.48	263.76
475.85	263.52
476.21	263.29
476.58	263.06
476.94	262.92
477.31	262.74
477.67	262.61
478.04	262.50
478.41	262.43
478.77	262.51
479.14	262.47
479.50	262.48
479.87	262.57
480.23	262.66
480.60	262.75
480.96	262.86
481.33	263.08
481.69	263.31
482.06	263.48
482.42	263.67
482.79	263.96
483.15	264.34
483.52	264.73
483.88	265.10
484.25	265.55
484.61	265.96
484.98	266.41
485.34	267.01
485.71	267.62
486.07	268.23
486.44	268.78
486.80	269.52
487.17	270.22
487.53	271.04
487.90	271.86
488.26	272.76
488.62	273.75
488.99	274.73
489.35	275.76
489.72	276.89
490.08	278.10
490.44	279.35
490.81	280.70
491.17	282.03
491.54	283.48
491.90	285.00
492.26	286.66
492.63	288.40
492.99	290.13
493.36	291.97
493.72	294.03
494.08	296.12
494.45	298.34
494.81	300.72
495.17	303.14
495.54	305.74
495.90	308.45
496.26	311.20
496.63	314.11
496.99	317.21
497.35	320.42
497.72	323.81
498.08	327.26
498.44	330.86
498.80	334.77
499.17	338.81
499.53	342.96
499.89	347.27
500.26	351.72
500.62	356.36
500.98	361.28
501.34	366.29
501.71	371.51
502.07	376.84
502.43	382.37
502.79	388.11
503.16	394.07
503.52	400.22
503.88	406.57
504.24	413.09
504.60	419.87
504.97	426.92
505.33	434.11
505.69	441.76
506.05	449.40
506.41	457.09
506.78	465.08
507.14	473.32
507.50	481.88
507.86	490.71
508.22	499.78
508.59	508.79
508.95	518.12
509.31	527.74
509.67	537.58
510.03	547.69
510.39	557.99
510.75	568.56
511.12	579.23
511.48	590.32
511.84	601.55
512.20	612.82
512.56	624.51
512.92	636.43
513.28	648.45
513.64	660.61
514.00	673.11
514.37	685.75
514.73	698.59
515.09	711.35
515.45	724.31
515.81	737.47
516.17	751.17
516.53	765.02
516.89	778.97
517.25	792.95
517.61	807.05
517.97	821.15
518.33	835.21
518.69	849.63
519.05	864.16
519.41	878.94
519.77	893.97
520.13	909.01
520.49	923.99
520.85	938.97
521.21	954.23
521.57	969.91
521.93	985.28
522.29	1001.12
522.65	1016.99
523.01	1032.79
523.37	1048.40
523.73	1064.12
524.09	1079.87
524.45	1095.57
524.81	1111.68
525.17	1127.90
525.53	1144.38
525.89	1160.79
526.25	1177.22
526.61	1193.18
526.97	1209.53
527.33	1225.71
527.68	1241.94
528.04	1257.93
528.40	1274.12
528.76	1290.88
529.12	1307.10
529.48	1323.55
529.84	1339.18
530.20	1355.37
530.56	1371.87
530.91	1389.01
531.27	1405.41
531.63	1421.38
531.99	1437.67
532.35	1453.28
532.71	1469.03
533.07	1484.94
533.42	1500.61
533.78	1516.34
534.14	1532.30
534.50	1547.36
534.86	1562.78
535.21	1577.56
535.57	1593.21
535.93	1608.40
536.29	1622.86
536.65	1637.54
537.00	1652.05
537.36	1667.25
537.72	1681.48
538.08	1695.80
538.44	1709.26
538.79	1722.88
539.15	1736.29
539.51	1749.79
539.87	1763.89
540.22	1777.32
540.58	1790.92
540.94	1803.85
541.29	1816.54
541.65	1829.05
542.01	1841.95
542.37	1854.34
542.72	1866.68
543.08	1878.45
543.44	1890.73
543.79	1902.03
544.15	1913.20
544.51	1924.74
544.87	1935.53
545.22	1946.34
545.58	1956.45
545.94	1966.32
546.29	1976.27
546.65	1986.26
547.01	1995.66
547.36	2004.40
547.72	2012.92
548.07	2020.90
548.43	2029.23
548.79	2037.18
549.14	2044.83
549.50	2052.34
549.86	2059.88
550.21	2067.35
550.57	2074.76
550.92	2081.56
551.28	2088.81
551.64	2095.85
551.99	2102.44
552.35	2108.85
552.70	2115.26
553.06	2121.57
553.41	2128.15
553.77	2134.29
554.13	2140.50
554.48	2146.75
554.84	2152.73
555.19	2158.21
555.55	2163.63
555.90	2168.50
556.26	2173.85
556.61	2178.90
556.97	2183.78
557.32	2188.54
557.68	2192.98
558.03	2197.46
558.39	2201.45
558.74	2206.34
559.10	2210.66
559.45	2214.72
559.81	2219.32
560.16	2223.44
560.52	2227.09
560.87	2230.68
561.23	2233.71
561.58	2236.96
561.94	2239.93
562.29	2242.52
562.64	2245.76
563.00	2248.62
563.35	2252.41
563.71	2255.94
564.06	2259.33
564.42	2262.39
564.77	2265.11
565.12	2267.87
565.48	2270.27
565.83	2272.55
566.19	2274.24
566.54	2275.39
566.89	2277.03
567.25	2278.00
567.60	2279.68
567.96	2281.84
568.31	2283.15
568.66	2284.66
569.02	2285.76
569.37	2286.45
569.72	2287.77
570.08	2288.28
570.43	2288.80
570.78	2288.79
571.14	2287.71
571.49	2286.74
571.84	2286.74
572.20	2286.08
572.55	2285.45
572.90	2284.13
573.26	2283.12
573.61	2281.60
573.96	2280.41
574.31	2277.84
574.67	2275.34
575.02	2272.01
575.37	2268.87
575.72	2265.61
576.08	2262.57
576.43	2259.48
576.78	2256.46
577.13	2253.41
577.49	2250.46
577.84	2247.40
578.19	2243.91
578.54	2240.61
578.90	2237.03
579.25	2231.75
579.60	2227.13
579.95	2222.49
580.30	2217.89
580.66	2213.10
581.01	2208.57
581.36	2203.92
581.71	2200.11
582.06	2195.91
582.42	2191.89
582.77	2186.92
583.12	2182.68
583.47	2178.49
583.82	2173.97
584.17	2169.01
584.53	2163.96
584.88	2158.68
585.23	2153.14
585.58	2147.89
585.93	2142.56
586.28	2137.78
586.63	2133.15
586.98	2128.36
587.34	2123.69
587.69	2119.04
588.04	2114.03
588.39	2108.61
588.74	2102.25
589.09	2096.27
589.44	2089.83
589.79	2083.90
590.14	2078.44
590.49	2071.87
590.84	2065.51
591.19	2059.56
591.54	2053.15
591.89	2046.14
592.25	2039.68
592.60	2032.71
592.95	2025.43
593.30	2018.43
593.65	2011.14
594.00	2004.08
594.35	1997.00
594.70	1989.11
595.05	1982.15
595.40	1975.05
595.75	1967.69
596.10	1961.92
596.45	1955.44
596.80	1949.39
597.15	1943.06
597.50	1936.36
597.85	1930.04
598.19	1923.61
598.54	1916.74
598.89	1910.17
599.24	1904.26
599.59	1897.92
599.94	1891.75
600.29	1885.41
600.64	1878.82
600.99	1871.59
601.34	1865.05
601.69	1858.11
602.04	1851.50
602.39	1844.12
602.74	1837.32
603.08	1830.80
603.43	1823.88
603.78	1816.57
604.13	1809.45
604.48	1802.27
604.83	1795.36
605.18	1788.73
605.53	1780.84
605.87	1772.90
606.22	1765.66
606.57	1757.66
606.92	1750.15
607.27	1743.03
607.62	1736.22
607.96	1729.13
608.31	1722.68
608.66	1715.05
609.01	1707.66
609.36	1700.07
609.70	1692.14
610.05	1684.00
610.40	1676.19
610.75	1667.88
611.10	1660.25
611.44	1651.64
611.79	1643.41
612.14	1634.69
612.49	1625.34
612.83	1616.80
613.18	1608.64
613.53	1600.51
613.88	1592.03
614.22	1583.61
614.57	1574.82
614.92	1566.70
615.27	1559.13
615.61	1550.64
615.96	1542.61
616.31	1534.79
616.65	1527.33
617.00	1519.65
617.35	1511.95
617.70	1503.72
618.04	1495.26
618.39	1486.77
618.74	1479.32
619.08	1470.96
619.43	1463.31
619.78	1456.22
620.12	1449.04
620.47	1441.45
620.82	1433.10
621.16	1425.47
621.51	1417.76
621.85	1410.09
622.20	1401.52
622.55	1392.92
622.89	1384.99
623.24	1377.13
623.59	1369.52
623.93	1361.90
624.28	1354.47
624.62	1346.92
624.97	1339.47
625.32	1332.45
625.66	1325.34
626.01	1318.00
626.35	1310.63
626.70	1302.69
627.04	1295.02
627.39	1287.08
627.73	1279.54
628.08	1272.59
628.43	1265.38
628.77	1258.09
629.12	1250.52
629.46	1243.29
629.81	1235.73
630.15	1228.37
630.50	1220.99
630.84	1212.92
631.19	1204.77
631.53	1197.16
631.88	1189.49
632.22	1181.87
632.57	1174.50
632.91	1166.93
633.26	1159.46
633.60	1151.87
633.95	1144.67
634.29	1137.43
634.64	1130.71
634.98	1123.25
635.32	1115.99
635.67	1109.20
636.01	1102.34
636.36	1095.45
636.70	1088.74
637.05	1082.12
637.39	1075.50
637.73	1068.95
638.08	1062.94
638.42	1057.00
638.77	1050.56
639.11	1044.04
639.45	1037.63
639.80	1030.99
640.14	1024.60
640.49	1017.93
640.83	1011.65
641.17	1005.44
641.52	999.18
641.86	992.64
642.20	986.79
642.55	980.33
642.89	973.87
643.23	967.29
643.58	961.46
643.92	955.28
644.26	949.30
644.61	943.25
644.95	937.10
645.29	930.60
645.64	923.84
645.98	917.47
646.32	911.36
646.66	905.37
647.01	899.53
647.35	893.78
647.69	887.92
648.04	882.32
648.38	876.52
648.72	870.53
649.06	864.53
649.41	858.58
649.75	852.71
650.09	846.78
650.43	840.97
650.78	834.90
651.12	828.98
651.46	823.13
651.80	817.44
652.14	812.11
652.49	806.60
652.83	801.35
653.17	795.74
653.51	790.14
653.85	784.61
654.20	778.96
654.54	772.94
654.88	767.20
655.22	761.20
655.56	755.39
655.90	749.82
656.25	744.53
656.59	739.11
656.93	734.01
657.27	728.83
657.61	723.29
657.95	718.07
658.29	712.97
658.64	707.68
658.98	702.31
659.32	696.71
659.66	691.48
660.00	686.16
660.34	681.17
660.68	676.22
661.02	671.11
661.36	666.38
661.70	661.79
662.05	657.45
662.39	653.25
662.73	648.82
663.07	644.41
663.41	639.96
663.75	635.49
664.09	630.90
664.43	626.48
664.77	622.40
665.11	618.12
665.45	613.89
665.79	609.81
666.13	605.64
666.47	601.55
666.81	597.37
667.15	593.28
667.49	589.38
667.83	585.52
668.17	581.66
668.51	577.58
668.85	573.55
669.19	569.62
669.53	565.74
669.87	561.86
670.21	558.14
670.55	554.47
670.89	550.99
671.23	547.50
671.57	543.96
671.91	540.45
672.25	536.98
672.58	533.44
672.92	530.05
673.26	526.83
673.60	523.61
673.94	520.54
674.28	517.61
674.62	514.58
674.96	511.47
675.30	508.50
675.64	505.56
675.97	502.76
676.31	499.83
676.65	496.87
676.99	494.10
677.33	491.20
677.67	488.32
678.01	485.34
678.34	482.43
678.68	479.45
679.02	476.61
679.36	473.79
679.70	471.09
680.04	468.25
680.37	465.42
680.71	462.64
681.05	459.94
681.39	457.17
681.73	454.48
682.06	451.94
682.40	449.38
682.74	446.78
683.08	444.18
683.42	441.59
683.75	439.02
684.09	436.43
684.43	433.92
684.77	431.48
685.10	429.02
685.44	426.64
685.78	424.35
686.12	422.05
686.45	419.72
686.79	417.42
687.13	415.19
687.46	412.98
687.80	410.82
688.14	408.57
688.48	406.47
688.81	404.21
689.15	402.02
689.49	399.77
689.82	397.69
690.16	395.55
690.50	393.56
690.83	391.65
691.17	389.62
691.51	387.69
691.84	385.77
692.18	383.90
692.52	381.89
692.85	379.88
693.19	377.95
693.52	376.11
693.86	374.23
694.20	372.46
694.53	370.66
694.87	368.73
695.21	366.92
695.54	365.07
695.88	363.31
696.21	361.53
696.55	359.88
696.88	358.15
697.22	356.44
697.56	354.77
697.89	353.08
698.23	351.53
698.56	349.93
698.90	348.37
699.23	346.70
699.57	345.16
699.90	343.64
700.24	342.13
700.58	340.58
700.91	339.08
701.25	337.59
701.58	336.17
701.92	334.80
702.25	333.41
702.59	332.03
702.92	330.68
703.26	329.39
703.59	328.08
703.93	326.88
704.26	325.66
704.60	324.38
704.93	323.05
705.26	321.75
705.60	320.48
705.93	319.24
706.27	318.19
706.60	317.10
706.94	316.00
707.27	314.83
707.61	313.73
707.94	312.65
708.27	311.54
708.61	310.43
708.94	309.41
709.28	308.41
709.61	307.39
709.94	306.41
710.28	305.38
710.61	304.37
710.95	303.29
711.28	302.36
711.61	301.37
711.95	300.50
712.28	299.54
712.61	298.58
712.95	297.65
713.28	296.68
713.61	295.78
713.95	294.88
714.28	294.01
714.61	293.13
714.95	292.25
715.28	291.40
715.61	290.52
715.95	289.66
716.28	288.76
716.61	287.91
716.95	287.08
717.28	286.30
717.61	285.54
717.94	284.78
718.28	283.94
718.61	283.21
718.94	282.48
719.27	281.84
719.61	281.18
719.94	280.54
720.27	279.81
720.60	279.13
720.94	278.50
721.27	277.89
721.60	277.29
721.93	276.71
722.27	276.12
722.60	275.58
722.93	274.98
723.26	274.44
723.59	273.87
723.93	273.32
724.26	272.76
724.59	272.17
724.92	271.60
725.25	271.10
725.59	270.58
725.92	270.07
726.25	269.54
726.58	269.04
726.91	268.53
727.24	268.07
727.57	267.61
727.91	267.07
728.24	266.57
728.57	266.05
728.90	265.61
729.23	265.10
729.56	264.63
729.89	264.16
730.22	263.69
730.55	263.21
730.89	262.79
731.22	262.35
731.55	261.89
731.88	261.48
732.21	261.04
732.54	260.59
732.87	260.14
733.20	259.71
733.53	259.26
733.86	258.88
734.19	258.43
734.52	258.03
734.85	257.72
735.18	257.28
735.51	256.93
735.84	256.52
736.17	256.17
736.50	255.78
736.83	255.52
737.16	255.15
737.49	254.85
737.82	254.47
738.15	254.12
738.48	253.78
738.81	253.47
739.14	253.13
739.47	252.80
739.80	252.48
740.13	252.17
740.46	251.87
740.79	251.54
741.12	251.27
741.45	250.93
741.78	250.60
742.11	250.37
742.44	250.06
742.77	249.74
743.10	249.43
743.43	249.12
743.75	248.75
744.08	248.60
744.41	248.30
744.74	248.03
745.07	247.74
745.40	247.54
745.73	247.29
746.06	247.01
746.39	246.76
746.71	246.50
747.04	246.19
747.37	245.92
747.70	245.64
748.03	245.39
748.36	245.18
748.68	244.94
749.01	244.64
749.34	244.39
749.67	244.18
750.00	243.99
750.33	243.82
750.65	243.57
750.98	243.22
751.31	243.01
751.64	242.77
751.97	242.63
752.29	242.38
752.62	242.09
752.95	241.86
753.28	241.62
753.60	241.41
753.93	241.23
754.26	241.01
754.59	240.79
754.91	240.57
755.24	240.34
755.57	240.11
755.90	239.91
756.22	239.71
756.55	239.49
756.88	239.25
757.20	238.99
757.53	238.83
757.86	238.63
758.19	238.47
758.51	238.33
758.84	238.11
759.17	237.95
759.49	237.81
759.82	237.69
760.15	237.54
760.47	237.40
760.80	237.24
761.13	237.15
761.45	237.01
761.78	236.87
762.11	236.73
762.43	236.61
762.76	236.46
763.08	236.35
763.41	236.22
763.74	236.06
764.06	235.93
764.39	235.78
764.71	235.68
765.04	235.47
765.37	235.30
765.69	235.12
766.02	234.99
766.34	234.89
766.67	234.73
767.00	234.60
767.32	234.49
767.65	234.43
767.97	234.29
768.30	234.17
768.62	234.07
768.95	233.92
769.27	233.83
769.60	233.78
769.92	233.66
770.25	233.55
770.57	233.47
770.90	233.38
771.22	233.28
771.55	233.17
771.87	233.12
772.20	233.02
772.52	233.02
772.85	233.03
773.17	232.90
773.50	232.81
773.82	232.75
774.15	232.63
774.47	232.49
774.80	232.39
775.12	232.30
775.45	232.21
775.77	232.16
776.09	232.05
776.42	231.97
776.74	231.93
777.07	231.86
777.39	231.81
777.72	231.70
778.04	231.63
778.36	231.55
778.69	231.51
779.01	231.46
779.33	231.35
779.66	231.17
779.98	231.11
780.31	231.08
780.63	231.05
780.95	231.00
781.28	230.92
781.60	230.85
781.92	230.80
782.25	230.75
782.57	230.70
782.89	230.62
783.22	230.54
783.54	230.46
783.86	230.41
784.19	230.35
784.51	230.35
784.83	230.31
785.16	230.27
785.48	230.21
785.80	230.15
786.12	230.08
786.45	230.05
786.77	230.01
787.09	229.93
