SpectraSuite Data File
++++++++++++++++++++++++++++++++++++
Date: Fri Feb 01 16:26:13 EST 2013
User: group
Dark Spectrum Present: No
Reference Spectrum Present: No
Number of Sampled Component Spectra: 1
Spectrometers: USB2E7196
Integration Time (usec): 35000 (USB2E7196)
Spectra Averaged: 100 (USB2E7196)
Boxcar Smoothing: 10 (USB2E7196)
Correct for Electrical Dark: No (USB2E7196)
Strobe/Lamp Enabled: No (USB2E7196)
Correct for Detector Non-linearity: No (USB2E7196)
Correct for Stray Light: No (USB2E7196)
Number of Pixels in Processed Spectrum: 2048
>>>>>Begin Processed Spectral Data<<<<<
339.09	0.00
339.48	214.20
339.86	215.72
340.24	216.92
340.63	218.40
341.01	221.15
341.39	220.71
341.78	222.42
342.16	223.56
342.54	224.17
342.93	212.39
343.31	223.09
343.69	223.59
344.07	224.04
344.46	224.46
344.84	224.81
345.22	225.02
345.60	225.29
345.99	225.45
346.37	225.56
346.75	225.63
347.13	225.71
347.52	225.75
347.90	225.85
348.28	225.88
348.66	225.92
349.05	225.89
349.43	225.91
349.81	225.98
350.19	226.00
350.57	226.08
350.96	226.13
351.34	226.24
351.72	226.36
352.10	226.45
352.48	226.54
352.87	226.62
353.25	226.72
353.63	226.77
354.01	226.85
354.39	226.95
354.77	227.04
355.15	227.15
355.54	227.19
355.92	227.23
356.30	227.31
356.68	227.47
357.06	227.59
357.44	227.66
357.82	227.72
358.20	227.80
358.58	227.87
358.97	227.94
359.35	228.02
359.73	228.09
360.11	228.15
360.49	228.19
360.87	228.23
361.25	228.28
361.63	228.40
362.01	228.46
362.39	228.51
362.77	228.58
363.15	228.57
363.53	228.64
363.91	228.68
364.29	228.73
364.67	228.63
365.05	228.65
365.43	228.70
365.81	228.72
366.19	228.75
366.57	228.80
366.95	228.81
367.33	228.78
367.71	228.79
368.09	228.79
368.47	228.81
368.85	228.82
369.23	228.81
369.61	228.73
369.99	228.74
370.37	228.69
370.75	228.71
371.13	228.69
371.51	228.66
371.89	228.61
372.27	228.55
372.65	228.51
373.03	228.45
373.41	228.35
373.78	228.29
374.16	228.19
374.54	228.10
374.92	227.98
375.30	227.94
375.68	227.86
376.06	227.80
376.44	227.70
376.82	227.62
377.19	227.55
377.57	227.47
377.95	227.37
378.33	227.27
378.71	227.13
379.09	227.08
379.47	226.97
379.84	226.87
380.22	226.79
380.60	226.72
380.98	226.63
381.36	226.57
381.73	226.50
382.11	226.47
382.49	226.41
382.87	226.37
383.25	226.32
383.62	226.39
384.00	226.31
384.38	226.26
384.76	226.26
385.13	226.23
385.51	226.21
385.89	226.14
386.27	226.12
386.64	226.08
387.02	226.02
387.40	226.00
387.78	225.97
388.15	225.90
388.53	225.86
388.91	225.84
389.29	225.82
389.66	225.80
390.04	225.71
390.42	225.69
390.79	225.70
391.17	225.68
391.55	225.51
391.92	225.53
392.30	225.54
392.68	225.48
393.05	225.46
393.43	225.44
393.81	225.45
394.18	225.45
394.56	225.46
394.94	225.51
395.31	225.52
395.69	225.59
396.06	225.65
396.44	225.71
396.82	225.73
397.19	225.81
397.57	225.86
397.95	225.95
398.32	225.94
398.70	225.97
399.07	226.06
399.45	226.11
399.82	226.15
400.20	226.19
400.58	226.28
400.95	226.30
401.33	226.41
401.70	226.57
402.08	226.65
402.45	226.71
402.83	226.79
403.20	226.88
403.58	226.97
403.95	227.08
404.33	227.19
404.71	227.31
405.08	227.49
405.46	227.63
405.83	227.78
406.21	227.98
406.58	228.18
406.96	228.31
407.33	228.49
407.70	228.69
408.08	228.97
408.45	229.17
408.83	229.41
409.20	229.62
409.58	229.79
409.95	230.05
410.33	230.37
410.70	230.61
411.08	230.91
411.45	231.20
411.82	231.53
412.20	231.87
412.57	232.30
412.95	232.59
413.32	232.99
413.69	233.39
414.07	233.80
414.44	234.23
414.82	234.73
415.19	235.29
415.56	235.86
415.94	236.39
416.31	237.04
416.68	237.65
417.06	238.37
417.43	239.06
417.81	239.84
418.18	240.58
418.55	241.44
418.93	242.35
419.30	243.26
419.67	244.19
420.04	245.14
420.42	246.10
420.79	247.24
421.16	248.38
421.54	249.56
421.91	250.79
422.28	252.04
422.66	253.33
423.03	254.62
423.40	255.95
423.77	257.35
424.15	258.77
424.52	260.27
424.89	261.84
425.26	263.37
425.64	264.80
426.01	266.41
426.38	268.03
426.75	269.68
427.13	271.41
427.50	273.19
427.87	275.06
428.24	276.93
428.61	278.72
428.99	280.65
429.36	282.75
429.73	284.78
430.10	286.79
430.47	288.85
430.85	290.96
431.22	293.18
431.59	295.52
431.96	297.71
432.33	300.19
432.70	302.57
433.08	305.38
433.45	308.00
433.82	310.57
434.19	313.48
434.56	316.28
434.93	318.92
435.30	321.57
435.68	324.47
436.05	327.28
436.42	330.02
436.79	332.51
437.16	335.21
437.53	338.04
437.90	340.87
438.27	343.62
438.64	346.41
439.01	348.92
439.38	351.20
439.75	353.37
440.13	355.83
440.50	358.14
440.87	359.93
441.24	361.87
441.61	364.01
441.98	365.47
442.35	367.24
442.72	369.08
443.09	370.86
443.46	371.82
443.83	372.43
444.20	372.95
444.57	373.83
444.94	374.07
445.31	374.42
445.68	374.73
446.05	374.78
446.42	374.42
446.79	374.05
447.16	373.57
447.53	373.30
447.90	372.15
448.27	370.98
448.64	369.44
449.01	368.30
449.37	366.38
449.74	364.50
450.11	362.24
450.48	359.77
450.85	357.22
451.22	355.11
451.59	353.05
451.96	351.11
452.33	348.49
452.70	346.17
453.07	343.37
453.43	340.54
453.80	337.80
454.17	335.14
454.54	332.62
454.91	329.94
455.28	327.26
455.65	324.78
456.02	322.38
456.38	320.23
456.75	317.57
457.12	315.34
457.49	313.12
457.86	311.01
458.23	309.19
458.59	307.18
458.96	305.10
459.33	303.26
459.70	301.38
460.07	299.87
460.43	298.15
460.80	296.50
461.17	295.06
461.54	293.57
461.91	292.14
462.27	290.70
462.64	289.44
463.01	288.08
463.38	286.77
463.74	285.39
464.11	284.24
464.48	283.26
464.85	282.15
465.21	281.28
465.58	280.35
465.95	279.25
466.32	278.34
466.68	277.42
467.05	276.54
467.42	275.69
467.78	274.78
468.15	273.90
468.52	273.25
468.88	272.38
469.25	271.59
469.62	271.00
469.98	270.35
470.35	269.71
470.72	269.11
471.08	268.45
471.45	267.94
471.82	267.39
472.18	266.77
472.55	266.30
472.92	265.78
473.28	265.29
473.65	264.83
474.02	264.36
474.38	264.03
474.75	263.72
475.11	263.38
475.48	263.14
475.85	262.87
476.21	262.63
476.58	262.46
476.94	262.35
477.31	262.15
477.67	261.97
478.04	261.89
478.41	261.83
478.77	261.92
479.14	261.85
479.50	261.86
479.87	261.97
480.23	262.07
480.60	262.16
480.96	262.29
481.33	262.50
481.69	262.74
482.06	262.95
482.42	263.18
482.79	263.45
483.15	263.77
483.52	264.18
483.88	264.58
484.25	264.98
484.61	265.41
484.98	265.92
485.34	266.51
485.71	267.10
486.07	267.70
486.44	268.28
486.80	269.00
487.17	269.76
487.53	270.57
487.90	271.44
488.26	272.42
488.62	273.42
488.99	274.44
489.35	275.52
489.72	276.64
490.08	277.86
490.44	279.09
490.81	280.37
491.17	281.76
491.54	283.25
491.90	284.78
492.26	286.40
492.63	288.14
492.99	289.92
493.36	291.82
493.72	293.87
494.08	295.95
494.45	298.21
494.81	300.56
495.17	303.00
495.54	305.60
495.90	308.27
496.26	311.06
496.63	314.03
496.99	317.12
497.35	320.41
497.72	323.82
498.08	327.33
498.44	331.04
498.80	334.98
499.17	339.05
499.53	343.26
499.89	347.65
500.26	352.15
500.62	356.82
500.98	361.75
501.34	366.84
501.71	372.19
502.07	377.63
502.43	383.30
502.79	389.15
503.16	395.23
503.52	401.51
503.88	407.94
504.24	414.57
504.60	421.47
504.97	428.63
505.33	435.97
505.69	443.73
506.05	451.48
506.41	459.34
506.78	467.47
507.14	475.92
507.50	484.59
507.86	493.66
508.22	502.85
508.59	512.16
508.95	521.77
509.31	531.55
509.67	541.66
510.03	551.92
510.39	562.45
510.75	573.27
511.12	584.23
511.48	595.50
511.84	606.96
512.20	618.41
512.56	630.29
512.92	642.50
513.28	654.79
513.64	667.36
514.00	680.05
514.37	692.95
514.73	705.96
515.09	719.08
515.45	732.26
515.81	745.80
516.17	759.71
516.53	773.83
516.89	788.03
517.25	802.21
517.61	816.59
517.97	830.95
518.33	845.21
518.69	859.89
519.05	874.84
519.41	889.98
519.77	905.52
520.13	920.90
520.49	936.09
520.85	951.47
521.21	967.09
521.57	983.22
521.93	999.04
522.29	1015.32
522.65	1031.42
523.01	1047.64
523.37	1063.71
523.73	1079.79
524.09	1095.71
524.45	1111.87
524.81	1128.42
525.17	1145.09
525.53	1161.94
525.89	1178.78
526.25	1195.53
526.61	1211.85
526.97	1228.58
527.33	1244.94
527.68	1261.35
528.04	1277.86
528.40	1294.30
528.76	1311.29
529.12	1327.96
529.48	1344.73
529.84	1360.82
530.20	1377.41
530.56	1394.37
530.91	1411.73
531.27	1428.40
531.63	1444.88
531.99	1461.48
532.35	1477.34
532.71	1493.24
533.07	1509.51
533.42	1525.42
533.78	1541.40
534.14	1557.67
534.50	1572.98
534.86	1588.75
535.21	1603.96
535.57	1619.77
535.93	1635.31
536.29	1649.89
536.65	1664.71
537.00	1679.32
537.36	1694.43
537.72	1708.85
538.08	1723.13
538.44	1736.79
538.79	1750.59
539.15	1763.97
539.51	1777.45
539.87	1791.71
540.22	1805.41
540.58	1819.11
540.94	1832.30
541.29	1845.13
541.65	1857.75
542.01	1870.62
542.37	1882.78
542.72	1895.11
543.08	1906.87
543.44	1919.02
543.79	1930.22
544.15	1941.22
544.51	1952.70
544.87	1963.59
545.22	1974.42
545.58	1984.58
545.94	1994.24
546.29	2004.04
546.65	2014.08
547.01	2023.28
547.36	2032.00
547.72	2040.50
548.07	2048.17
548.43	2056.32
548.79	2064.34
549.14	2071.74
549.50	2079.14
549.86	2086.95
550.21	2094.24
550.57	2101.24
550.92	2107.93
551.28	2114.92
551.64	2121.80
551.99	2128.39
552.35	2134.56
552.70	2140.66
553.06	2146.66
553.41	2152.99
553.77	2159.05
554.13	2164.99
554.48	2171.26
554.84	2176.60
555.19	2181.72
555.55	2187.01
555.90	2191.35
556.26	2196.07
556.61	2200.82
556.97	2205.11
557.32	2209.08
557.68	2213.23
558.03	2217.61
558.39	2221.30
558.74	2226.01
559.10	2230.02
559.45	2233.79
559.81	2238.11
560.16	2241.76
560.52	2244.90
560.87	2248.34
561.23	2250.89
561.58	2253.85
561.94	2256.27
562.29	2258.73
562.64	2261.36
563.00	2263.79
563.35	2267.30
563.71	2270.47
564.06	2273.71
564.42	2276.72
564.77	2279.29
565.12	2281.54
565.48	2283.43
565.83	2285.38
566.19	2286.59
566.54	2287.43
566.89	2288.52
567.25	2289.11
567.60	2290.59
567.96	2292.35
568.31	2293.20
568.66	2294.46
569.02	2295.09
569.37	2295.57
569.72	2296.40
570.08	2296.78
570.43	2296.90
570.78	2296.47
571.14	2295.05
571.49	2293.70
571.84	2293.35
572.20	2292.43
572.55	2291.48
572.90	2289.98
573.26	2288.62
573.61	2287.16
573.96	2285.52
574.31	2282.54
574.67	2279.69
575.02	2276.05
575.37	2272.79
575.72	2268.96
576.08	2265.65
576.43	2262.43
576.78	2258.76
577.13	2255.58
577.49	2252.50
577.84	2249.14
578.19	2245.45
578.54	2241.95
578.90	2237.97
579.25	2232.41
579.60	2227.32
579.95	2222.32
580.30	2217.39
580.66	2212.40
581.01	2207.39
581.36	2202.57
581.71	2198.51
582.06	2194.00
582.42	2189.67
582.77	2184.46
583.12	2180.08
583.47	2175.56
583.82	2170.49
584.17	2165.32
584.53	2160.00
584.88	2154.35
585.23	2148.67
585.58	2143.24
585.93	2137.75
586.28	2132.84
586.63	2127.87
586.98	2123.01
587.34	2118.29
587.69	2113.49
588.04	2108.13
588.39	2102.65
588.74	2096.11
589.09	2089.98
589.44	2083.25
589.79	2077.37
590.14	2071.79
590.49	2065.39
590.84	2058.90
591.19	2053.11
591.54	2046.65
591.89	2039.36
592.25	2032.60
592.60	2025.44
592.95	2017.96
593.30	2010.65
593.65	2003.10
594.00	1996.20
594.35	1988.90
594.70	1981.12
595.05	1973.96
595.40	1966.75
595.75	1959.22
596.10	1953.11
596.45	1946.47
596.80	1940.29
597.15	1933.57
597.50	1926.42
597.85	1919.90
598.19	1913.25
598.54	1906.00
598.89	1899.52
599.24	1893.60
599.59	1886.90
599.94	1880.81
600.29	1874.46
600.64	1868.05
600.99	1860.75
601.34	1853.88
601.69	1847.03
602.04	1840.16
602.39	1832.78
602.74	1825.89
603.08	1819.07
603.43	1812.46
603.78	1805.08
604.13	1798.01
604.48	1790.77
604.83	1784.08
605.18	1777.05
605.53	1769.13
605.87	1761.26
606.22	1754.05
606.57	1746.14
606.92	1738.82
607.27	1731.52
607.62	1724.59
607.96	1717.18
608.31	1710.54
608.66	1702.93
609.01	1695.43
609.36	1687.85
609.70	1679.70
610.05	1671.69
610.40	1664.15
610.75	1655.77
611.10	1648.13
611.44	1639.71
611.79	1631.77
612.14	1623.07
612.49	1614.08
612.83	1605.76
613.18	1597.64
613.53	1589.49
613.88	1581.00
614.22	1572.80
614.57	1564.16
614.92	1556.12
615.27	1548.55
615.61	1540.16
615.96	1532.05
616.31	1524.34
616.65	1516.95
617.00	1509.56
617.35	1501.93
617.70	1493.60
618.04	1485.07
618.39	1476.87
618.74	1469.20
619.08	1460.80
619.43	1453.16
619.78	1446.07
620.12	1438.78
620.47	1431.32
620.82	1423.13
621.16	1415.67
621.51	1408.07
621.85	1400.52
622.20	1392.04
622.55	1383.78
622.89	1376.01
623.24	1368.40
623.59	1360.99
623.93	1353.41
624.28	1346.22
624.62	1338.64
624.97	1331.49
625.32	1324.84
625.66	1317.94
626.01	1310.80
626.35	1303.43
626.70	1295.74
627.04	1288.07
627.39	1280.39
627.73	1272.90
628.08	1266.03
628.43	1258.71
628.77	1251.37
629.12	1243.79
629.46	1236.65
629.81	1229.20
630.15	1221.88
630.50	1214.55
630.84	1206.43
631.19	1198.58
631.53	1191.02
631.88	1183.59
632.22	1175.99
632.57	1168.66
632.91	1160.92
633.26	1153.51
633.60	1146.18
633.95	1139.03
634.29	1131.99
634.64	1125.31
634.98	1117.96
635.32	1110.71
635.67	1104.17
636.01	1097.49
636.36	1090.63
636.70	1084.00
637.05	1077.34
637.39	1070.95
637.73	1064.32
638.08	1058.37
638.42	1052.31
638.77	1045.85
639.11	1039.10
639.45	1032.62
639.80	1025.97
640.14	1019.64
640.49	1013.11
640.83	1006.77
641.17	1000.48
641.52	994.14
641.86	987.58
642.20	981.67
642.55	975.47
642.89	968.96
643.23	962.45
643.58	956.73
643.92	950.55
644.26	944.42
644.61	938.34
644.95	932.32
645.29	925.71
645.64	918.99
645.98	912.65
646.32	906.88
646.66	900.81
647.01	894.85
647.35	889.04
647.69	883.16
648.04	877.60
648.38	871.80
648.72	865.77
649.06	859.71
649.41	853.87
649.75	847.74
650.09	841.78
650.43	835.98
650.78	829.79
651.12	823.87
651.46	818.27
651.80	812.53
652.14	807.16
652.49	801.83
652.83	796.70
653.17	791.01
653.51	785.29
653.85	779.91
654.20	774.34
654.54	768.42
654.88	762.69
655.22	756.82
655.56	751.10
655.90	745.65
656.25	740.46
656.59	735.09
656.93	730.12
657.27	724.96
657.61	719.44
657.95	714.39
658.29	709.34
658.64	704.05
658.98	698.75
659.32	693.25
659.66	687.99
660.00	682.64
660.34	677.68
660.68	672.74
661.02	667.76
661.36	663.03
661.70	658.48
662.05	654.11
662.39	649.75
662.73	645.39
663.07	641.00
663.41	636.58
663.75	632.10
664.09	627.57
664.43	623.16
664.77	619.13
665.11	614.83
665.45	610.69
665.79	606.62
666.13	602.51
666.47	598.48
666.81	594.35
667.15	590.27
667.49	586.41
667.83	582.63
668.17	578.66
668.51	574.65
668.85	570.65
669.19	566.84
669.53	562.98
669.87	559.03
670.21	555.32
670.55	551.66
670.89	548.22
671.23	544.75
671.57	541.28
671.91	537.72
672.25	534.25
672.58	530.69
672.92	527.30
673.26	524.15
673.60	520.97
673.94	517.88
674.28	514.94
674.62	511.95
674.96	508.80
675.30	505.92
675.64	502.98
675.97	500.18
676.31	497.28
676.65	494.40
676.99	491.69
677.33	488.87
677.67	486.07
678.01	482.98
678.34	480.01
678.68	477.05
679.02	474.17
679.36	471.40
679.70	468.73
680.04	465.95
680.37	462.99
680.71	460.18
681.05	457.55
681.39	454.82
681.73	452.12
682.06	449.57
682.40	446.97
682.74	444.41
683.08	441.82
683.42	439.24
683.75	436.66
684.09	434.12
684.43	431.62
684.77	429.10
685.10	426.76
685.44	424.41
685.78	422.13
686.12	419.94
686.45	417.62
686.79	415.29
687.13	413.03
687.46	410.89
687.80	408.75
688.14	406.55
688.48	404.45
688.81	402.24
689.15	400.11
689.49	397.96
689.82	395.91
690.16	393.82
690.50	391.83
690.83	389.91
691.17	387.92
691.51	385.98
691.84	384.14
692.18	382.18
692.52	380.22
692.85	378.30
693.19	376.40
693.52	374.58
693.86	372.77
694.20	371.03
694.53	369.23
694.87	367.37
695.21	365.50
695.54	363.67
695.88	361.95
696.21	360.21
696.55	358.55
696.88	356.79
697.22	355.11
697.56	353.50
697.89	351.85
698.23	350.27
698.56	348.68
698.90	347.08
699.23	345.45
699.57	343.89
699.90	342.37
700.24	340.82
700.58	339.30
700.91	337.80
701.25	336.37
701.58	335.00
701.92	333.68
702.25	332.37
702.59	330.98
702.92	329.65
703.26	328.35
703.59	327.06
703.93	325.92
704.26	324.68
704.60	323.39
704.93	322.12
705.26	320.84
705.60	319.68
705.93	318.57
706.27	317.54
706.60	316.51
706.94	315.43
707.27	314.27
707.61	313.23
707.94	312.19
708.27	311.13
708.61	310.05
708.94	309.05
709.28	308.03
709.61	307.14
709.94	306.19
710.28	305.14
710.61	304.15
710.95	303.05
711.28	302.18
711.61	301.24
711.95	300.31
712.28	299.40
712.61	298.42
712.95	297.45
713.28	296.59
713.61	295.68
713.95	294.77
714.28	293.96
714.61	293.11
714.95	292.26
715.28	291.37
715.61	290.48
715.95	289.60
716.28	288.74
716.61	287.92
716.95	287.09
717.28	286.38
717.61	285.62
717.94	284.90
718.28	284.07
718.61	283.37
718.94	282.67
719.27	281.99
719.61	281.36
719.94	280.68
720.27	279.96
720.60	279.26
720.94	278.65
721.27	278.09
721.60	277.48
721.93	276.89
722.27	276.37
722.60	275.85
722.93	275.31
723.26	274.78
723.59	274.18
723.93	273.63
724.26	273.07
724.59	272.52
724.92	271.94
725.25	271.44
725.59	270.89
725.92	270.39
726.25	269.86
726.58	269.35
726.91	268.85
727.24	268.39
727.57	267.90
727.91	267.36
728.24	266.84
728.57	266.35
728.90	265.88
729.23	265.35
729.56	264.87
729.89	264.39
730.22	263.90
730.55	263.42
730.89	263.00
731.22	262.55
731.55	262.14
731.88	261.76
732.21	261.31
732.54	260.89
732.87	260.44
733.20	260.03
733.53	259.67
733.86	259.28
734.19	258.90
734.52	258.54
734.85	258.26
735.18	257.82
735.51	257.43
735.84	257.07
736.17	256.71
736.50	256.30
736.83	256.07
737.16	255.72
737.49	255.43
737.82	255.08
738.15	254.76
738.48	254.41
738.81	254.07
739.14	253.79
739.47	253.46
739.80	253.17
740.13	252.93
740.46	252.56
740.79	252.26
741.12	251.94
741.45	251.61
741.78	251.26
742.11	251.02
742.44	250.73
742.77	250.44
743.10	250.15
743.43	249.88
743.75	249.50
744.08	249.37
744.41	249.09
744.74	248.82
745.07	248.55
745.40	248.28
745.73	248.06
746.06	247.78
746.39	247.54
746.71	247.29
747.04	247.01
747.37	246.74
747.70	246.50
748.03	246.26
748.36	246.05
748.68	245.82
749.01	245.58
749.34	245.36
749.67	245.13
750.00	244.94
750.33	244.75
750.65	244.57
750.98	244.23
751.31	243.98
751.64	243.78
751.97	243.62
752.29	243.45
752.62	243.20
752.95	243.00
753.28	242.79
753.60	242.57
753.93	242.40
754.26	242.22
754.59	242.00
754.91	241.81
755.24	241.60
755.57	241.41
755.90	241.22
756.22	241.04
756.55	240.82
756.88	240.65
757.20	240.47
757.53	240.25
757.86	240.07
758.19	239.96
758.51	239.76
758.84	239.54
759.17	239.35
759.49	239.18
759.82	239.06
760.15	238.92
760.47	238.76
760.80	238.60
761.13	238.48
761.45	238.33
761.78	238.16
762.11	238.00
762.43	237.86
762.76	237.69
763.08	237.52
763.41	237.42
763.74	237.26
764.06	237.11
764.39	236.93
764.71	236.81
765.04	236.63
765.37	236.48
765.69	236.32
766.02	236.19
766.34	236.03
766.67	235.88
767.00	235.77
767.32	235.71
767.65	235.61
767.97	235.48
768.30	235.35
768.62	235.25
768.95	235.13
769.27	234.98
769.60	234.88
769.92	234.78
770.25	234.63
770.57	234.50
770.90	234.37
771.22	234.28
771.55	234.11
771.87	233.98
772.20	233.89
772.52	233.89
772.85	233.91
773.17	233.82
773.50	233.70
773.82	233.57
774.15	233.42
774.47	233.29
774.80	233.18
775.12	233.07
775.45	232.95
775.77	232.88
776.09	232.79
776.42	232.71
776.74	232.66
777.07	232.57
777.39	232.50
777.72	232.41
778.04	232.34
778.36	232.31
778.69	232.26
779.01	232.20
779.33	232.06
779.66	231.89
779.98	231.78
780.31	231.68
780.63	231.62
780.95	231.56
781.28	231.45
781.60	231.39
781.92	231.32
782.25	231.26
782.57	231.21
782.89	231.13
783.22	231.08
783.54	231.00
783.86	230.96
784.19	230.90
784.51	230.88
784.83	230.81
785.16	230.75
785.48	230.73
785.80	230.71
786.12	230.68
786.45	230.64
786.77	230.62
787.09	230.61
