SpectraSuite Data File
++++++++++++++++++++++++++++++++++++
Date: Fri Feb 01 16:04:41 EST 2013
User: group
Dark Spectrum Present: No
Reference Spectrum Present: No
Number of Sampled Component Spectra: 1
Spectrometers: USB2E7196
Integration Time (usec): 35000 (USB2E7196)
Spectra Averaged: 100 (USB2E7196)
Boxcar Smoothing: 10 (USB2E7196)
Correct for Electrical Dark: No (USB2E7196)
Strobe/Lamp Enabled: No (USB2E7196)
Correct for Detector Non-linearity: No (USB2E7196)
Correct for Stray Light: No (USB2E7196)
Number of Pixels in Processed Spectrum: 2048
>>>>>Begin Processed Spectral Data<<<<<
339.09	0.00
339.48	215.06
339.86	215.78
340.24	217.26
340.63	218.74
341.01	221.27
341.39	222.19
341.78	222.68
342.16	224.19
342.54	224.84
342.93	213.03
343.31	223.82
343.69	224.34
344.07	224.85
344.46	225.31
344.84	225.73
345.22	225.97
345.60	226.18
345.99	226.36
346.37	226.49
346.75	226.57
347.13	226.63
347.52	226.66
347.90	226.76
348.28	226.80
348.66	226.83
349.05	226.79
349.43	226.84
349.81	226.88
350.19	226.91
350.57	226.94
350.96	227.02
351.34	227.07
351.72	227.16
352.10	227.22
352.48	227.28
352.87	227.30
353.25	227.37
353.63	227.44
354.01	227.52
354.39	227.60
354.77	227.70
355.15	227.77
355.54	227.82
355.92	227.83
356.30	227.88
356.68	227.97
357.06	228.05
357.44	228.09
357.82	228.17
358.20	228.25
358.58	228.32
358.97	228.39
359.35	228.46
359.73	228.52
360.11	228.57
360.49	228.62
360.87	228.64
361.25	228.69
361.63	228.77
362.01	228.81
362.39	228.85
362.77	228.84
363.15	228.85
363.53	228.87
363.91	228.88
364.29	228.95
364.67	228.87
365.05	228.88
365.43	228.88
365.81	228.89
366.19	228.94
366.57	228.95
366.95	228.92
367.33	228.91
367.71	228.89
368.09	228.89
368.47	228.88
368.85	228.87
369.23	228.86
369.61	228.79
369.99	228.77
370.37	228.74
370.75	228.80
371.13	228.76
371.51	228.72
371.89	228.69
372.27	228.66
372.65	228.62
373.03	228.58
373.41	228.53
373.78	228.46
374.16	228.35
374.54	228.31
374.92	228.28
375.30	228.21
375.68	228.14
376.06	228.08
376.44	227.98
376.82	227.89
377.19	227.82
377.57	227.72
377.95	227.66
378.33	227.58
378.71	227.47
379.09	227.42
379.47	227.40
379.84	227.35
380.22	227.24
380.60	227.22
380.98	227.17
381.36	227.09
381.73	227.05
382.11	227.01
382.49	226.93
382.87	226.85
383.25	226.81
383.62	226.89
384.00	226.83
384.38	226.81
384.76	226.82
385.13	226.86
385.51	226.83
385.89	226.77
386.27	226.74
386.64	226.69
387.02	226.66
387.40	226.59
387.78	226.59
388.15	226.59
388.53	226.53
388.91	226.47
389.29	226.45
389.66	226.45
390.04	226.44
390.42	226.45
390.79	226.45
391.17	226.44
391.55	226.32
391.92	226.31
392.30	226.31
392.68	226.27
393.05	226.22
393.43	226.24
393.81	226.27
394.18	226.28
394.56	226.27
394.94	226.27
395.31	226.29
395.69	226.29
396.06	226.31
396.44	226.33
396.82	226.37
397.19	226.46
397.57	226.45
397.95	226.46
398.32	226.46
398.70	226.47
399.07	226.48
399.45	226.51
399.82	226.58
400.20	226.65
400.58	226.69
400.95	226.71
401.33	226.83
401.70	226.97
402.08	227.05
402.45	227.16
402.83	227.27
403.20	227.38
403.58	227.47
403.95	227.58
404.33	227.71
404.71	227.84
405.08	228.03
405.46	228.18
405.83	228.32
406.21	228.49
406.58	228.67
406.96	228.86
407.33	229.04
407.70	229.19
408.08	229.42
408.45	229.65
408.83	229.89
409.20	230.06
409.58	230.23
409.95	230.48
410.33	230.75
410.70	231.02
411.08	231.28
411.45	231.57
411.82	231.87
412.20	232.23
412.57	232.63
412.95	232.90
413.32	233.31
413.69	233.71
414.07	234.12
414.44	234.61
414.82	235.12
415.19	235.66
415.56	236.25
415.94	236.79
416.31	237.45
416.68	238.09
417.06	238.81
417.43	239.48
417.81	240.26
418.18	241.03
418.55	241.88
418.93	242.78
419.30	243.68
419.67	244.61
420.04	245.56
420.42	246.56
420.79	247.77
421.16	248.92
421.54	250.13
421.91	251.36
422.28	252.61
422.66	253.92
423.03	255.24
423.40	256.60
423.77	258.05
424.15	259.47
424.52	260.96
424.89	262.62
425.26	264.19
425.64	265.61
426.01	267.22
426.38	268.89
426.75	270.56
427.13	272.32
427.50	274.14
427.87	276.07
428.24	277.98
428.61	279.76
428.99	281.68
429.36	283.79
429.73	285.87
430.10	287.92
430.47	289.98
430.85	292.09
431.22	294.33
431.59	296.71
431.96	298.97
432.33	301.45
432.70	303.79
433.08	306.57
433.45	309.24
433.82	311.83
434.19	314.67
434.56	317.52
434.93	320.18
435.30	322.83
435.68	325.65
436.05	328.48
436.42	331.25
436.79	333.80
437.16	336.49
437.53	339.35
437.90	342.13
438.27	344.86
438.64	347.70
439.01	350.26
439.38	352.49
439.75	354.65
440.13	357.17
440.50	359.51
440.87	361.41
441.24	363.33
441.61	365.46
441.98	366.94
442.35	368.72
442.72	370.55
443.09	372.36
443.46	373.34
443.83	373.89
444.20	374.35
444.57	375.16
444.94	375.52
445.31	375.78
445.68	376.12
446.05	376.18
446.42	375.81
446.79	375.36
447.16	374.89
447.53	374.54
447.90	373.34
448.27	372.15
448.64	370.55
449.01	369.38
449.37	367.41
449.74	365.51
450.11	363.24
450.48	360.74
450.85	358.17
451.22	356.07
451.59	354.00
451.96	352.08
452.33	349.45
452.70	346.98
453.07	344.15
453.43	341.25
453.80	338.46
454.17	335.76
454.54	333.19
454.91	330.44
455.28	327.76
455.65	325.25
456.02	322.80
456.38	320.63
456.75	317.97
457.12	315.73
457.49	313.51
457.86	311.34
458.23	309.47
458.59	307.42
458.96	305.29
459.33	303.44
459.70	301.58
460.07	300.10
460.43	298.40
460.80	296.79
461.17	295.34
461.54	293.86
461.91	292.39
462.27	290.97
462.64	289.76
463.01	288.43
463.38	287.14
463.74	285.76
464.11	284.57
464.48	283.56
464.85	282.45
465.21	281.59
465.58	280.68
465.95	279.64
466.32	278.75
466.68	277.86
467.05	276.98
467.42	276.07
467.78	275.14
468.15	274.28
468.52	273.62
468.88	272.80
469.25	272.06
469.62	271.52
469.98	270.87
470.35	270.23
470.72	269.67
471.08	269.04
471.45	268.53
471.82	268.02
472.18	267.45
472.55	267.04
472.92	266.53
473.28	266.08
473.65	265.63
474.02	265.18
474.38	264.84
474.75	264.54
475.11	264.23
475.48	263.99
475.85	263.79
476.21	263.55
476.58	263.37
476.94	263.25
477.31	263.07
477.67	262.92
478.04	262.83
478.41	262.74
478.77	262.80
479.14	262.75
479.50	262.76
479.87	262.84
480.23	262.90
480.60	263.00
480.96	263.10
481.33	263.27
481.69	263.49
482.06	263.69
482.42	263.90
482.79	264.15
483.15	264.43
483.52	264.76
483.88	265.13
484.25	265.50
484.61	265.90
484.98	266.32
485.34	266.88
485.71	267.45
486.07	268.05
486.44	268.57
486.80	269.28
487.17	269.98
487.53	270.75
487.90	271.55
488.26	272.50
488.62	273.47
488.99	274.47
489.35	275.50
489.72	276.60
490.08	277.77
490.44	279.02
490.81	280.35
491.17	281.75
491.54	283.22
491.90	284.78
492.26	286.41
492.63	288.14
492.99	289.91
493.36	291.81
493.72	293.82
494.08	295.95
494.45	298.23
494.81	300.61
495.17	303.09
495.54	305.69
495.90	308.36
496.26	311.18
496.63	314.15
496.99	317.26
497.35	320.54
497.72	323.92
498.08	327.45
498.44	331.17
498.80	335.09
499.17	339.16
499.53	343.36
499.89	347.77
500.26	352.29
500.62	356.99
500.98	361.95
501.34	367.06
501.71	372.40
502.07	377.84
502.43	383.48
502.79	389.34
503.16	395.47
503.52	401.80
503.88	408.21
504.24	414.90
504.60	421.81
504.97	428.97
505.33	436.36
505.69	444.12
506.05	451.89
506.41	459.81
506.78	467.97
507.14	476.45
507.50	485.17
507.86	494.20
508.22	503.42
508.59	512.68
508.95	522.29
509.31	532.19
509.67	542.30
510.03	552.63
510.39	563.22
510.75	573.96
511.12	584.83
511.48	596.13
511.84	607.58
512.20	619.11
512.56	631.05
512.92	643.25
513.28	655.57
513.64	668.02
514.00	680.71
514.37	693.69
514.73	706.79
515.09	719.73
515.45	733.03
515.81	746.61
516.17	760.58
516.53	774.78
516.89	788.92
517.25	803.12
517.61	817.51
517.97	832.04
518.33	846.56
518.69	861.43
519.05	876.40
519.41	891.54
519.77	907.12
520.13	922.54
520.49	937.84
520.85	953.25
521.21	968.91
521.57	985.10
521.93	1000.84
522.29	1017.16
522.65	1033.57
523.01	1049.89
523.37	1066.04
523.73	1082.24
524.09	1098.27
524.45	1114.53
524.81	1131.20
525.17	1147.99
525.53	1164.70
525.89	1181.53
526.25	1198.33
526.61	1214.83
526.97	1231.66
527.33	1248.13
527.68	1264.83
528.04	1281.37
528.40	1297.89
528.76	1315.04
529.12	1331.74
529.48	1348.54
529.84	1364.51
530.20	1381.05
530.56	1397.94
530.91	1415.17
531.27	1431.81
531.63	1448.31
531.99	1464.77
532.35	1480.63
532.71	1496.54
533.07	1512.93
533.42	1528.78
533.78	1544.77
534.14	1560.92
534.50	1576.15
534.86	1592.03
535.21	1607.10
535.57	1622.94
535.93	1638.32
536.29	1653.06
536.65	1667.91
537.00	1682.70
537.36	1697.89
537.72	1712.33
538.08	1726.67
538.44	1740.31
538.79	1754.10
539.15	1767.42
539.51	1781.03
539.87	1795.25
540.22	1808.71
540.58	1822.15
540.94	1835.20
541.29	1847.88
541.65	1860.34
542.01	1873.38
542.37	1885.51
542.72	1897.84
543.08	1909.50
543.44	1921.84
543.79	1932.97
544.15	1943.85
544.51	1955.28
544.87	1966.29
545.22	1977.13
545.58	1987.31
545.94	1997.19
546.29	2007.05
546.65	2017.05
547.01	2026.46
547.36	2035.19
547.72	2043.81
548.07	2051.83
548.43	2060.12
548.79	2068.20
549.14	2075.94
549.50	2083.28
549.86	2091.09
550.21	2098.37
550.57	2105.63
550.92	2112.24
551.28	2119.26
551.64	2126.45
551.99	2133.00
552.35	2139.17
552.70	2145.36
553.06	2151.31
553.41	2157.53
553.77	2163.58
554.13	2169.79
554.48	2175.97
554.84	2181.39
555.19	2186.74
555.55	2191.92
555.90	2196.48
556.26	2201.36
556.61	2206.14
556.97	2210.66
557.32	2214.68
557.68	2218.88
558.03	2223.29
558.39	2227.09
558.74	2231.77
559.10	2235.66
559.45	2239.34
559.81	2243.61
560.16	2247.44
560.52	2250.81
560.87	2254.45
561.23	2257.22
561.58	2260.06
561.94	2262.51
562.29	2265.00
562.64	2267.66
563.00	2270.29
563.35	2273.88
563.71	2277.10
564.06	2280.24
564.42	2282.96
564.77	2285.52
565.12	2287.83
565.48	2289.64
565.83	2291.57
566.19	2292.89
566.54	2293.78
566.89	2295.05
567.25	2295.62
567.60	2296.88
567.96	2298.52
568.31	2299.25
568.66	2300.32
569.02	2301.04
569.37	2301.40
569.72	2302.30
570.08	2302.45
570.43	2302.48
570.78	2301.91
571.14	2300.41
571.49	2299.16
571.84	2298.86
572.20	2297.65
572.55	2296.61
572.90	2295.05
573.26	2293.51
573.61	2291.80
573.96	2290.13
574.31	2287.17
574.67	2284.24
575.02	2280.64
575.37	2277.26
575.72	2273.58
576.08	2270.30
576.43	2266.96
576.78	2263.31
577.13	2260.06
577.49	2256.99
577.84	2253.49
578.19	2249.64
578.54	2246.00
578.90	2241.69
579.25	2236.11
579.60	2231.31
579.95	2226.25
580.30	2221.24
580.66	2216.09
581.01	2211.16
581.36	2206.10
581.71	2202.01
582.06	2197.64
582.42	2193.18
582.77	2187.92
583.12	2183.25
583.47	2178.51
583.82	2173.42
584.17	2168.08
584.53	2162.65
584.88	2157.01
585.23	2151.23
585.58	2145.76
585.93	2140.19
586.28	2135.36
586.63	2130.45
586.98	2125.33
587.34	2120.69
587.69	2115.78
588.04	2110.73
588.39	2105.15
588.74	2098.73
589.09	2092.46
589.44	2085.66
589.79	2079.65
590.14	2074.08
590.49	2067.51
590.84	2061.07
591.19	2055.07
591.54	2048.82
591.89	2041.50
592.25	2034.64
592.60	2027.50
592.95	2020.00
593.30	2012.80
593.65	2005.30
594.00	1998.11
594.35	1990.88
594.70	1982.78
595.05	1975.60
595.40	1968.22
595.75	1960.59
596.10	1954.47
596.45	1947.86
596.80	1941.75
597.15	1935.24
597.50	1928.21
597.85	1921.82
598.19	1915.32
598.54	1908.23
598.89	1901.55
599.24	1895.55
599.59	1888.97
599.94	1882.76
600.29	1876.46
600.64	1869.86
600.99	1862.36
601.34	1855.56
601.69	1848.55
602.04	1841.74
602.39	1834.48
602.74	1827.66
603.08	1821.07
603.43	1814.25
603.78	1806.79
604.13	1799.49
604.48	1792.09
604.83	1785.24
605.18	1778.28
605.53	1770.15
605.87	1762.10
606.22	1754.68
606.57	1746.64
606.92	1739.26
607.27	1731.94
607.62	1724.92
607.96	1717.49
608.31	1710.77
608.66	1703.17
609.01	1695.67
609.36	1688.14
609.70	1679.97
610.05	1671.96
610.40	1664.13
610.75	1655.89
611.10	1648.21
611.44	1639.84
611.79	1631.72
612.14	1622.93
612.49	1613.74
612.83	1605.42
613.18	1597.26
613.53	1589.24
613.88	1580.79
614.22	1572.45
614.57	1563.94
614.92	1556.12
615.27	1548.76
615.61	1540.59
615.96	1532.65
616.31	1525.02
616.65	1517.69
617.00	1510.20
617.35	1502.49
617.70	1494.21
618.04	1485.64
618.39	1477.47
618.74	1469.83
619.08	1461.72
619.43	1454.20
619.78	1447.28
620.12	1440.08
620.47	1432.67
620.82	1424.51
621.16	1417.11
621.51	1409.63
621.85	1401.95
622.20	1393.30
622.55	1384.92
622.89	1377.05
623.24	1369.30
623.59	1361.82
623.93	1354.17
624.28	1346.93
624.62	1339.52
624.97	1332.36
625.32	1325.51
625.66	1318.38
626.01	1311.25
626.35	1303.58
626.70	1295.78
627.04	1287.98
627.39	1280.13
627.73	1272.71
628.08	1265.83
628.43	1258.53
628.77	1251.17
629.12	1243.60
629.46	1236.44
629.81	1229.05
630.15	1221.80
630.50	1214.40
630.84	1206.26
631.19	1198.26
631.53	1190.77
631.88	1183.08
632.22	1175.44
632.57	1168.27
632.91	1160.87
633.26	1153.45
633.60	1146.23
633.95	1139.13
634.29	1132.13
634.64	1125.46
634.98	1118.09
635.32	1110.91
635.67	1104.25
636.01	1097.60
636.36	1090.80
636.70	1084.15
637.05	1077.43
637.39	1070.94
637.73	1064.46
638.08	1058.57
638.42	1052.66
638.77	1046.21
639.11	1039.68
639.45	1033.40
639.80	1026.68
640.14	1020.18
640.49	1013.55
640.83	1007.23
641.17	1001.00
641.52	994.66
641.86	988.28
642.20	982.38
642.55	976.05
642.89	969.62
643.23	963.05
643.58	957.35
643.92	951.27
644.26	945.23
644.61	939.25
644.95	933.27
645.29	926.70
645.64	920.01
645.98	913.66
646.32	907.81
646.66	901.66
647.01	895.84
647.35	890.13
647.69	884.24
648.04	878.68
648.38	872.92
648.72	866.96
649.06	860.85
649.41	854.97
649.75	849.01
650.09	843.07
650.43	837.24
650.78	831.10
651.12	825.10
651.46	819.44
651.80	813.65
652.14	808.25
652.49	802.86
652.83	797.68
653.17	792.06
653.51	786.27
653.85	780.90
654.20	775.32
654.54	769.33
654.88	763.69
655.22	757.82
655.56	752.05
655.90	746.52
656.25	741.28
656.59	735.96
656.93	730.89
657.27	725.72
657.61	720.33
657.95	715.16
658.29	710.06
658.64	704.80
658.98	699.52
659.32	693.99
659.66	688.75
660.00	683.41
660.34	678.42
660.68	673.51
661.02	668.48
661.36	663.72
661.70	659.21
662.05	654.84
662.39	650.48
662.73	645.98
663.07	641.72
663.41	637.25
663.75	632.71
664.09	628.15
664.43	623.79
664.77	619.58
665.11	615.33
665.45	611.18
665.79	607.11
666.13	602.95
666.47	598.84
666.81	594.65
667.15	590.54
667.49	586.61
667.83	582.74
668.17	578.78
668.51	574.71
668.85	570.69
669.19	566.75
669.53	562.91
669.87	559.10
670.21	555.29
670.55	551.66
670.89	548.27
671.23	544.80
671.57	541.24
671.91	537.73
672.25	534.23
672.58	530.73
672.92	527.24
673.26	524.07
673.60	520.95
673.94	517.88
674.28	514.89
674.62	511.89
674.96	508.85
675.30	505.94
675.64	502.99
675.97	500.20
676.31	497.38
676.65	494.44
676.99	491.72
677.33	488.88
677.67	486.06
678.01	483.02
678.34	480.07
678.68	477.20
679.02	474.39
679.36	471.61
679.70	468.88
680.04	466.18
680.37	463.30
680.71	460.49
681.05	457.87
681.39	455.17
681.73	452.51
682.06	450.00
682.40	447.47
682.74	444.93
683.08	442.35
683.42	439.74
683.75	437.27
684.09	434.74
684.43	432.25
684.77	429.78
685.10	427.34
685.44	425.03
685.78	422.74
686.12	420.49
686.45	418.25
686.79	415.94
687.13	413.72
687.46	411.57
687.80	409.43
688.14	407.18
688.48	405.17
688.81	402.98
689.15	400.82
689.49	398.65
689.82	396.59
690.16	394.48
690.50	392.52
690.83	390.56
691.17	388.54
691.51	386.71
691.84	384.83
692.18	382.96
692.52	381.01
692.85	379.03
693.19	377.12
693.52	375.28
693.86	373.45
694.20	371.67
694.53	369.88
694.87	368.03
695.21	366.26
695.54	364.39
695.88	362.67
696.21	360.92
696.55	359.26
696.88	357.55
697.22	355.95
697.56	354.34
697.89	352.67
698.23	351.09
698.56	349.45
698.90	347.91
699.23	346.31
699.57	344.76
699.90	343.26
700.24	341.71
700.58	340.17
700.91	338.73
701.25	337.28
701.58	335.93
701.92	334.57
702.25	333.15
702.59	331.79
702.92	330.46
703.26	329.18
703.59	327.88
703.93	326.72
704.26	325.49
704.60	324.18
704.93	322.90
705.26	321.65
705.60	320.44
705.93	319.20
706.27	318.12
706.60	317.04
706.94	315.95
707.27	314.84
707.61	313.79
707.94	312.75
708.27	311.64
708.61	310.52
708.94	309.50
709.28	308.56
709.61	307.56
709.94	306.58
710.28	305.57
710.61	304.59
710.95	303.45
711.28	302.51
711.61	301.53
711.95	300.64
712.28	299.65
712.61	298.66
712.95	297.74
713.28	296.81
713.61	295.91
713.95	295.00
714.28	294.14
714.61	293.27
714.95	292.35
715.28	291.48
715.61	290.57
715.95	289.71
716.28	288.84
716.61	288.02
716.95	287.17
717.28	286.41
717.61	285.63
717.94	284.92
718.28	284.14
718.61	283.45
718.94	282.72
719.27	282.06
719.61	281.40
719.94	280.75
720.27	280.09
720.60	279.41
720.94	278.79
721.27	278.21
721.60	277.60
721.93	277.05
722.27	276.50
722.60	276.01
722.93	275.46
723.26	274.92
723.59	274.38
723.93	273.86
724.26	273.26
724.59	272.73
724.92	272.19
725.25	271.67
725.59	271.17
725.92	270.66
726.25	270.19
726.58	269.73
726.91	269.21
727.24	268.72
727.57	268.26
727.91	267.78
728.24	267.32
728.57	266.86
728.90	266.39
729.23	265.88
729.56	265.42
729.89	264.94
730.22	264.48
730.55	264.03
730.89	263.62
731.22	263.18
731.55	262.77
731.88	262.37
732.21	261.94
732.54	261.49
732.87	261.06
733.20	260.66
733.53	260.28
733.86	259.92
734.19	259.53
734.52	259.18
734.85	258.90
735.18	258.50
735.51	258.16
735.84	257.80
736.17	257.48
736.50	257.07
736.83	256.86
737.16	256.52
737.49	256.20
737.82	255.84
738.15	255.51
738.48	255.15
738.81	254.83
739.14	254.54
739.47	254.26
739.80	253.98
740.13	253.69
740.46	253.34
740.79	253.02
741.12	252.73
741.45	252.41
741.78	252.04
742.11	251.77
742.44	251.45
742.77	251.16
743.10	250.86
743.43	250.57
743.75	250.17
744.08	250.01
744.41	249.70
744.74	249.44
745.07	249.18
745.40	248.93
745.73	248.69
746.06	248.37
746.39	248.08
746.71	247.81
747.04	247.52
747.37	247.29
747.70	247.09
748.03	246.86
748.36	246.62
748.68	246.39
749.01	246.12
749.34	245.88
749.67	245.65
750.00	245.39
750.33	245.25
750.65	245.04
750.98	244.69
751.31	244.45
751.64	244.22
751.97	244.04
752.29	243.82
752.62	243.52
752.95	243.32
753.28	243.11
753.60	242.88
753.93	242.71
754.26	242.47
754.59	242.21
754.91	241.96
755.24	241.76
755.57	241.51
755.90	241.31
756.22	241.10
756.55	240.90
756.88	240.67
757.20	240.43
757.53	240.22
757.86	240.07
758.19	239.90
758.51	239.74
758.84	239.51
759.17	239.30
759.49	239.18
759.82	239.06
760.15	238.89
760.47	238.75
760.80	238.56
761.13	238.46
761.45	238.28
761.78	238.12
762.11	237.99
762.43	237.86
762.76	237.74
763.08	237.60
763.41	237.45
763.74	237.35
764.06	237.20
764.39	237.05
764.71	236.91
765.04	236.80
765.37	236.67
765.69	236.57
766.02	236.45
766.34	236.34
766.67	236.21
767.00	236.12
767.32	236.06
767.65	236.03
767.97	235.89
768.30	235.82
768.62	235.74
768.95	235.58
769.27	235.49
769.60	235.40
769.92	235.34
770.25	235.24
770.57	235.13
770.90	235.04
771.22	234.97
771.55	234.89
771.87	234.80
772.20	234.70
772.52	234.71
772.85	234.78
773.17	234.68
773.50	234.58
773.82	234.47
774.15	234.33
774.47	234.18
774.80	234.12
775.12	234.05
775.45	233.97
775.77	233.92
776.09	233.86
776.42	233.76
776.74	233.70
777.07	233.61
777.39	233.56
777.72	233.48
778.04	233.41
778.36	233.33
778.69	233.26
779.01	233.23
779.33	233.07
779.66	232.88
779.98	232.85
780.31	232.80
780.63	232.78
780.95	232.76
781.28	232.71
781.60	232.64
781.92	232.56
782.25	232.52
782.57	232.43
782.89	232.36
783.22	232.29
783.54	232.23
783.86	232.19
784.19	232.15
784.51	232.10
784.83	232.05
785.16	231.98
785.48	231.94
785.80	231.91
786.12	231.87
786.45	231.81
786.77	231.74
787.09	231.70
