SpectraSuite Data File
++++++++++++++++++++++++++++++++++++
Date: Fri Feb 01 16:36:18 EST 2013
User: group
Dark Spectrum Present: No
Reference Spectrum Present: No
Number of Sampled Component Spectra: 1
Spectrometers: USB2E7196
Integration Time (usec): 35000 (USB2E7196)
Spectra Averaged: 100 (USB2E7196)
Boxcar Smoothing: 10 (USB2E7196)
Correct for Electrical Dark: No (USB2E7196)
Strobe/Lamp Enabled: No (USB2E7196)
Correct for Detector Non-linearity: No (USB2E7196)
Correct for Stray Light: No (USB2E7196)
Number of Pixels in Processed Spectrum: 2048
>>>>>Begin Processed Spectral Data<<<<<
339.09	0.00
339.48	213.57
339.86	215.02
340.24	216.17
340.63	218.11
341.01	220.92
341.39	220.77
341.78	222.50
342.16	223.01
342.54	223.23
342.93	212.15
343.31	222.88
343.69	223.43
344.07	223.89
344.46	224.35
344.84	224.71
345.22	224.93
345.60	225.19
345.99	225.38
346.37	225.54
346.75	225.68
347.13	225.77
347.52	225.85
347.90	225.92
348.28	225.95
348.66	225.97
349.05	225.93
349.43	225.96
349.81	226.01
350.19	226.06
350.57	226.09
350.96	226.16
351.34	226.23
351.72	226.32
352.10	226.44
352.48	226.48
352.87	226.55
353.25	226.66
353.63	226.71
354.01	226.75
354.39	226.84
354.77	226.92
355.15	227.07
355.54	227.12
355.92	227.18
356.30	227.24
356.68	227.38
357.06	227.45
357.44	227.52
357.82	227.56
358.20	227.66
358.58	227.74
358.97	227.80
359.35	227.87
359.73	227.95
360.11	228.00
360.49	228.11
360.87	228.13
361.25	228.18
361.63	228.24
362.01	228.27
362.39	228.29
362.77	228.32
363.15	228.29
363.53	228.36
363.91	228.38
364.29	228.44
364.67	228.40
365.05	228.42
365.43	228.44
365.81	228.48
366.19	228.48
366.57	228.56
366.95	228.52
367.33	228.51
367.71	228.50
368.09	228.51
368.47	228.49
368.85	228.49
369.23	228.49
369.61	228.47
369.99	228.47
370.37	228.42
370.75	228.43
371.13	228.39
371.51	228.32
371.89	228.30
372.27	228.26
372.65	228.23
373.03	228.21
373.41	228.14
373.78	228.09
374.16	228.02
374.54	227.93
374.92	227.88
375.30	227.83
375.68	227.73
376.06	227.66
376.44	227.57
376.82	227.51
377.19	227.45
377.57	227.38
377.95	227.32
378.33	227.27
378.71	227.13
379.09	227.09
379.47	227.05
379.84	226.95
380.22	226.86
380.60	226.78
380.98	226.72
381.36	226.64
381.73	226.55
382.11	226.46
382.49	226.41
382.87	226.35
383.25	226.31
383.62	226.38
384.00	226.32
384.38	226.30
384.76	226.27
385.13	226.23
385.51	226.13
385.89	226.08
386.27	226.06
386.64	226.04
387.02	225.96
387.40	225.88
387.78	225.87
388.15	225.85
388.53	225.79
388.91	225.76
389.29	225.77
389.66	225.75
390.04	225.72
390.42	225.71
390.79	225.70
391.17	225.66
391.55	225.54
391.92	225.51
392.30	225.49
392.68	225.46
393.05	225.45
393.43	225.47
393.81	225.46
394.18	225.43
394.56	225.43
394.94	225.49
395.31	225.50
395.69	225.54
396.06	225.57
396.44	225.59
396.82	225.63
397.19	225.67
397.57	225.74
397.95	225.80
398.32	225.80
398.70	225.86
399.07	225.94
399.45	225.97
399.82	226.06
400.20	226.12
400.58	226.18
400.95	226.20
401.33	226.31
401.70	226.45
402.08	226.51
402.45	226.61
402.83	226.69
403.20	226.79
403.58	226.87
403.95	227.00
404.33	227.11
404.71	227.23
405.08	227.40
405.46	227.49
405.83	227.66
406.21	227.82
406.58	227.96
406.96	228.09
407.33	228.28
407.70	228.45
408.08	228.70
408.45	228.94
408.83	229.17
409.20	229.37
409.58	229.54
409.95	229.85
410.33	230.11
410.70	230.34
411.08	230.65
411.45	230.93
411.82	231.22
412.20	231.56
412.57	231.97
412.95	232.26
413.32	232.64
413.69	232.99
414.07	233.41
414.44	233.88
414.82	234.35
415.19	234.90
415.56	235.46
415.94	235.98
416.31	236.60
416.68	237.22
417.06	237.94
417.43	238.59
417.81	239.29
418.18	240.05
418.55	240.94
418.93	241.79
419.30	242.69
419.67	243.62
420.04	244.60
420.42	245.57
420.79	246.78
421.16	247.95
421.54	249.15
421.91	250.36
422.28	251.59
422.66	252.89
423.03	254.17
423.40	255.47
423.77	256.89
424.15	258.28
424.52	259.77
424.89	261.36
425.26	262.94
425.64	264.42
426.01	266.01
426.38	267.63
426.75	269.29
427.13	271.03
427.50	272.83
427.87	274.69
428.24	276.54
428.61	278.23
428.99	280.18
429.36	282.28
429.73	284.35
430.10	286.39
430.47	288.45
430.85	290.56
431.22	292.78
431.59	295.12
431.96	297.34
432.33	299.80
432.70	302.12
433.08	304.88
433.45	307.47
433.82	310.07
434.19	312.94
434.56	315.71
434.93	318.33
435.30	320.96
435.68	323.82
436.05	326.62
436.42	329.39
436.79	331.88
437.16	334.57
437.53	337.36
437.90	340.15
438.27	342.88
438.64	345.66
439.01	348.28
439.38	350.52
439.75	352.70
440.13	355.14
440.50	357.50
440.87	359.39
441.24	361.36
441.61	363.51
441.98	364.99
442.35	366.80
442.72	368.67
443.09	370.44
443.46	371.44
443.83	372.01
444.20	372.53
444.57	373.34
444.94	373.61
445.31	373.98
445.68	374.34
446.05	374.45
446.42	374.11
446.79	373.68
447.16	373.24
447.53	372.96
447.90	371.82
448.27	370.67
448.64	369.06
449.01	367.91
449.37	365.96
449.74	364.10
450.11	361.87
450.48	359.40
450.85	356.84
451.22	354.74
451.59	352.76
451.96	350.82
452.33	348.24
452.70	345.89
453.07	343.01
453.43	340.10
453.80	337.31
454.17	334.66
454.54	332.12
454.91	329.43
455.28	326.72
455.65	324.29
456.02	321.85
456.38	319.71
456.75	317.06
457.12	314.80
457.49	312.58
457.86	310.45
458.23	308.58
458.59	306.58
458.96	304.48
459.33	302.62
459.70	300.79
460.07	299.28
460.43	297.57
460.80	295.99
461.17	294.59
461.54	293.14
461.91	291.70
462.27	290.25
462.64	288.98
463.01	287.65
463.38	286.34
463.74	285.00
464.11	283.87
464.48	282.87
464.85	281.76
465.21	280.88
465.58	279.95
465.95	278.88
466.32	277.97
466.68	277.08
467.05	276.17
467.42	275.27
467.78	274.34
468.15	273.49
468.52	272.85
468.88	272.00
469.25	271.20
469.62	270.55
469.98	269.92
470.35	269.27
470.72	268.67
471.08	268.00
471.45	267.45
471.82	266.90
472.18	266.32
472.55	265.93
472.92	265.41
473.28	264.94
473.65	264.54
474.02	264.12
474.38	263.73
474.75	263.45
475.11	263.15
475.48	262.92
475.85	262.69
476.21	262.49
476.58	262.33
476.94	262.24
477.31	262.11
477.67	261.96
478.04	261.91
478.41	261.88
478.77	261.97
479.14	261.93
479.50	261.96
479.87	262.04
480.23	262.14
480.60	262.24
480.96	262.37
481.33	262.57
481.69	262.79
482.06	263.01
482.42	263.23
482.79	263.52
483.15	263.85
483.52	264.21
483.88	264.54
484.25	264.90
484.61	265.27
484.98	265.76
485.34	266.34
485.71	266.92
486.07	267.53
486.44	268.10
486.80	268.77
487.17	269.47
487.53	270.29
487.90	271.12
488.26	272.05
488.62	273.05
488.99	274.03
489.35	275.09
489.72	276.25
490.08	277.45
490.44	278.68
490.81	280.00
491.17	281.37
491.54	282.89
491.90	284.44
492.26	286.12
492.63	287.85
492.99	289.65
493.36	291.57
493.72	293.65
494.08	295.74
494.45	298.04
494.81	300.46
495.17	302.87
495.54	305.45
495.90	308.14
496.26	310.94
496.63	313.92
496.99	317.05
497.35	320.31
497.72	323.74
498.08	327.25
498.44	330.90
498.80	334.80
499.17	338.81
499.53	342.98
499.89	347.36
500.26	351.84
500.62	356.52
500.98	361.50
501.34	366.55
501.71	371.90
502.07	377.38
502.43	382.97
502.79	388.87
503.16	394.96
503.52	401.27
503.88	407.63
504.24	414.24
504.60	421.10
504.97	428.27
505.33	435.51
505.69	443.27
506.05	451.08
506.41	458.99
506.78	467.18
507.14	475.68
507.50	484.40
507.86	493.38
508.22	502.59
508.59	511.79
508.95	521.40
509.31	531.18
509.67	541.26
510.03	551.57
510.39	562.04
510.75	572.85
511.12	583.69
511.48	594.98
511.84	606.40
512.20	617.91
512.56	629.78
512.92	641.96
513.28	654.24
513.64	666.66
514.00	679.34
514.37	692.18
514.73	705.20
515.09	718.18
515.45	731.41
515.81	744.89
516.17	758.77
516.53	772.75
516.89	786.91
517.25	801.09
517.61	815.45
517.97	829.87
518.33	844.23
518.69	859.02
519.05	873.98
519.41	889.12
519.77	904.47
520.13	919.85
520.49	935.24
520.85	950.59
521.21	966.22
521.57	982.34
521.93	998.07
522.29	1014.38
522.65	1030.57
523.01	1046.81
523.37	1062.86
523.73	1078.97
524.09	1095.05
524.45	1111.34
524.81	1127.96
525.17	1144.67
525.53	1161.38
525.89	1178.16
526.25	1194.90
526.61	1211.13
526.97	1227.83
527.33	1244.32
527.68	1260.89
528.04	1277.11
528.40	1293.54
528.76	1310.58
529.12	1327.19
529.48	1344.06
529.84	1359.90
530.20	1376.49
530.56	1393.45
530.91	1410.68
531.27	1427.40
531.63	1443.78
531.99	1460.27
532.35	1475.99
532.71	1491.81
533.07	1508.06
533.42	1523.82
533.78	1539.82
534.14	1556.01
534.50	1571.24
534.86	1587.02
535.21	1602.06
535.57	1617.99
535.93	1633.32
536.29	1647.92
536.65	1662.69
537.00	1677.26
537.36	1692.45
537.72	1706.64
538.08	1720.87
538.44	1734.54
538.79	1748.16
539.15	1761.51
539.51	1774.83
539.87	1789.03
540.22	1802.44
540.58	1815.93
540.94	1828.84
541.29	1841.41
541.65	1853.90
542.01	1866.80
542.37	1878.95
542.72	1891.23
543.08	1902.81
543.44	1915.02
543.79	1926.07
544.15	1937.06
544.51	1948.53
544.87	1959.40
545.22	1970.37
545.58	1980.47
545.94	1990.17
546.29	1999.94
546.65	2009.91
547.01	2019.20
547.36	2027.93
547.72	2036.46
548.07	2044.44
548.43	2052.72
548.79	2060.62
549.14	2068.29
549.50	2075.61
549.86	2083.17
550.21	2090.47
550.57	2097.73
550.92	2104.39
551.28	2111.53
551.64	2118.46
551.99	2125.00
552.35	2131.30
552.70	2137.37
553.06	2143.37
553.41	2149.61
553.77	2155.69
554.13	2161.61
554.48	2167.70
554.84	2173.21
555.19	2178.47
555.55	2183.48
555.90	2188.10
556.26	2193.24
556.61	2197.85
556.97	2202.40
557.32	2206.55
557.68	2210.67
558.03	2214.82
558.39	2218.34
558.74	2222.91
559.10	2226.81
559.45	2230.30
559.81	2234.41
560.16	2238.26
560.52	2241.59
560.87	2245.01
561.23	2247.69
561.58	2250.62
561.94	2253.24
562.29	2255.53
562.64	2258.27
563.00	2260.92
563.35	2264.45
563.71	2267.38
564.06	2270.63
564.42	2273.40
564.77	2276.06
565.12	2278.56
565.48	2280.64
565.83	2282.76
566.19	2284.12
566.54	2285.19
566.89	2286.54
567.25	2287.27
567.60	2288.50
567.96	2290.18
568.31	2291.09
568.66	2292.19
569.02	2292.95
569.37	2293.37
569.72	2294.34
570.08	2294.56
570.43	2294.70
570.78	2294.22
571.14	2292.89
571.49	2291.53
571.84	2291.20
572.20	2290.11
572.55	2288.93
572.90	2287.29
573.26	2286.02
573.61	2284.30
573.96	2282.60
574.31	2279.63
574.67	2276.57
575.02	2272.93
575.37	2269.52
575.72	2265.89
576.08	2262.54
576.43	2259.22
576.78	2255.53
577.13	2252.24
577.49	2249.01
577.84	2245.61
578.19	2241.77
578.54	2238.16
578.90	2234.15
579.25	2228.62
579.60	2223.84
579.95	2218.95
580.30	2214.00
580.66	2208.76
581.01	2203.93
581.36	2199.05
581.71	2195.00
582.06	2190.85
582.42	2186.65
582.77	2181.60
583.12	2177.12
583.47	2172.75
583.82	2167.88
584.17	2162.92
584.53	2157.53
584.88	2151.93
585.23	2146.33
585.58	2140.86
585.93	2135.37
586.28	2130.49
586.63	2125.59
586.98	2120.46
587.34	2115.68
587.69	2110.91
588.04	2105.90
588.39	2100.35
588.74	2093.88
589.09	2087.77
589.44	2081.06
589.79	2074.92
590.14	2069.13
590.49	2062.53
590.84	2055.95
591.19	2049.91
591.54	2043.41
591.89	2036.30
592.25	2029.86
592.60	2022.68
592.95	2015.34
593.30	2008.12
593.65	2000.60
594.00	1993.62
594.35	1986.39
594.70	1978.30
595.05	1971.35
595.40	1963.96
595.75	1956.59
596.10	1950.53
596.45	1943.85
596.80	1937.69
597.15	1931.27
597.50	1924.46
597.85	1917.98
598.19	1911.42
598.54	1904.61
598.89	1897.87
599.24	1891.96
599.59	1885.32
599.94	1879.08
600.29	1872.74
600.64	1866.24
600.99	1858.99
601.34	1852.25
601.69	1845.38
602.04	1838.85
602.39	1831.40
602.74	1824.81
603.08	1818.02
603.43	1811.29
603.78	1804.04
604.13	1796.90
604.48	1789.59
604.83	1782.72
605.18	1776.00
605.53	1768.13
605.87	1759.98
606.22	1752.79
606.57	1744.74
606.92	1737.24
607.27	1730.03
607.62	1723.17
607.96	1715.93
608.31	1709.34
608.66	1701.73
609.01	1694.01
609.36	1686.33
609.70	1678.18
610.05	1669.97
610.40	1662.25
610.75	1653.87
611.10	1646.19
611.44	1637.51
611.79	1629.41
612.14	1620.75
612.49	1611.47
612.83	1603.07
613.18	1594.99
613.53	1586.99
613.88	1578.53
614.22	1570.35
614.57	1561.81
614.92	1553.89
615.27	1546.47
615.61	1538.12
615.96	1530.00
616.31	1522.45
616.65	1515.16
617.00	1507.77
617.35	1500.08
617.70	1491.92
618.04	1483.49
618.39	1475.24
618.74	1467.87
619.08	1459.69
619.43	1452.01
619.78	1445.08
620.12	1437.96
620.47	1430.51
620.82	1422.28
621.16	1414.81
621.51	1407.14
621.85	1399.56
622.20	1390.96
622.55	1382.44
622.89	1374.55
623.24	1366.95
623.59	1359.54
623.93	1351.98
624.28	1344.70
624.62	1337.37
624.97	1330.16
625.32	1323.34
625.66	1316.41
626.01	1309.22
626.35	1301.83
626.70	1294.13
627.04	1286.50
627.39	1278.75
627.73	1271.21
628.08	1264.38
628.43	1257.26
628.77	1250.04
629.12	1242.57
629.46	1235.43
629.81	1228.01
630.15	1220.80
630.50	1213.41
630.84	1205.32
631.19	1197.37
631.53	1189.89
631.88	1182.23
632.22	1174.57
632.57	1167.25
632.91	1159.71
633.26	1152.30
633.60	1144.77
633.95	1137.62
634.29	1130.41
634.64	1123.64
634.98	1116.40
635.32	1109.27
635.67	1102.58
636.01	1095.88
636.36	1088.98
636.70	1082.41
637.05	1075.88
637.39	1069.46
637.73	1063.02
638.08	1057.16
638.42	1051.17
638.77	1044.69
639.11	1038.22
639.45	1031.86
639.80	1025.21
640.14	1018.79
640.49	1012.31
640.83	1006.19
641.17	1000.08
641.52	993.88
641.86	987.48
642.20	981.67
642.55	975.25
642.89	968.84
643.23	962.25
643.58	956.51
643.92	950.39
644.26	944.41
644.61	938.33
644.95	932.35
645.29	925.84
645.64	919.14
645.98	912.89
646.32	906.97
646.66	900.93
647.01	895.13
647.35	889.46
647.69	883.60
648.04	877.90
648.38	872.08
648.72	866.08
649.06	859.99
649.41	854.01
649.75	848.06
650.09	842.02
650.43	836.32
650.78	830.11
651.12	824.12
651.46	818.27
651.80	812.58
652.14	807.13
652.49	801.71
652.83	796.55
653.17	790.82
653.51	785.16
653.85	779.81
654.20	774.26
654.54	768.21
654.88	762.44
655.22	756.64
655.56	750.89
655.90	745.42
656.25	740.20
656.59	734.87
656.93	729.84
657.27	724.76
657.61	719.26
657.95	714.15
658.29	709.03
658.64	703.83
658.98	698.50
659.32	693.01
659.66	687.81
660.00	682.51
660.34	677.54
660.68	672.55
661.02	667.44
661.36	662.71
661.70	658.22
662.05	653.84
662.39	649.57
662.73	645.13
663.07	640.72
663.41	636.35
663.75	631.88
664.09	627.31
664.43	622.93
664.77	618.91
665.11	614.75
665.45	610.60
665.79	606.56
666.13	602.48
666.47	598.36
666.81	594.19
667.15	590.03
667.49	586.11
667.83	582.28
668.17	578.36
668.51	574.29
668.85	570.24
669.19	566.39
669.53	562.56
669.87	558.73
670.21	555.08
670.55	551.40
670.89	547.95
671.23	544.48
671.57	540.92
671.91	537.42
672.25	533.89
672.58	530.42
672.92	527.00
673.26	523.77
673.60	520.65
673.94	517.52
674.28	514.61
674.62	511.67
674.96	508.52
675.30	505.65
675.64	502.74
675.97	499.98
676.31	497.11
676.65	494.16
676.99	491.40
677.33	488.52
677.67	485.64
678.01	482.58
678.34	479.62
678.68	476.75
679.02	473.88
679.36	471.13
679.70	468.39
680.04	465.62
680.37	462.78
680.71	459.99
681.05	457.41
681.39	454.74
681.73	452.07
682.06	449.60
682.40	447.02
682.74	444.48
683.08	441.88
683.42	439.25
683.75	436.74
684.09	434.14
684.43	431.64
684.77	429.20
685.10	426.87
685.44	424.53
685.78	422.20
686.12	419.90
686.45	417.56
686.79	415.25
687.13	413.02
687.46	410.84
687.80	408.66
688.14	406.38
688.48	404.25
688.81	402.05
689.15	399.87
689.49	397.70
689.82	395.60
690.16	393.57
690.50	391.64
690.83	389.68
691.17	387.73
691.51	385.86
691.84	384.01
692.18	382.10
692.52	380.18
692.85	378.27
693.19	376.39
693.52	374.55
693.86	372.77
694.20	370.96
694.53	369.17
694.87	367.32
695.21	365.54
695.54	363.73
695.88	361.99
696.21	360.27
696.55	358.58
696.88	356.91
697.22	355.19
697.56	353.55
697.89	351.92
698.23	350.34
698.56	348.72
698.90	347.16
699.23	345.56
699.57	344.02
699.90	342.48
700.24	340.92
700.58	339.42
700.91	337.89
701.25	336.46
701.58	335.17
701.92	333.82
702.25	332.48
702.59	331.10
702.92	329.72
703.26	328.42
703.59	327.17
703.93	325.96
704.26	324.75
704.60	323.44
704.93	322.16
705.26	320.85
705.60	319.67
705.93	318.48
706.27	317.38
706.60	316.30
706.94	315.17
707.27	314.04
707.61	312.96
707.94	311.95
708.27	310.84
708.61	309.67
708.94	308.62
709.28	307.64
709.61	306.71
709.94	305.76
710.28	304.70
710.61	303.69
710.95	302.60
711.28	301.61
711.61	300.69
711.95	299.79
712.28	298.89
712.61	297.88
712.95	296.94
713.28	296.09
713.61	295.18
713.95	294.38
714.28	293.55
714.61	292.71
714.95	291.85
715.28	291.02
715.61	290.11
715.95	289.27
716.28	288.37
716.61	287.48
716.95	286.67
717.28	285.96
717.61	285.18
717.94	284.43
718.28	283.68
718.61	282.94
718.94	282.21
719.27	281.54
719.61	280.92
719.94	280.26
720.27	279.50
720.60	278.83
720.94	278.15
721.27	277.52
721.60	276.98
721.93	276.40
722.27	275.83
722.60	275.31
722.93	274.75
723.26	274.23
723.59	273.71
723.93	273.17
724.26	272.61
724.59	272.07
724.92	271.57
725.25	271.05
725.59	270.54
725.92	270.06
726.25	269.53
726.58	269.01
726.91	268.52
727.24	268.04
727.57	267.58
727.91	267.08
728.24	266.68
728.57	266.17
728.90	265.72
729.23	265.24
729.56	264.83
729.89	264.39
730.22	263.93
730.55	263.43
730.89	263.02
731.22	262.59
731.55	262.15
731.88	261.73
732.21	261.30
732.54	260.85
732.87	260.43
733.20	260.04
733.53	259.63
733.86	259.25
734.19	258.86
734.52	258.48
734.85	258.18
735.18	257.71
735.51	257.34
735.84	256.93
736.17	256.57
736.50	256.17
736.83	255.90
737.16	255.54
737.49	255.27
737.82	254.93
738.15	254.61
738.48	254.28
738.81	254.00
739.14	253.74
739.47	253.47
739.80	253.16
740.13	252.86
740.46	252.59
740.79	252.26
741.12	251.92
741.45	251.60
741.78	251.26
742.11	250.99
742.44	250.64
742.77	250.36
743.10	250.06
743.43	249.73
743.75	249.36
744.08	249.25
744.41	248.92
744.74	248.63
745.07	248.36
745.40	248.10
745.73	247.85
746.06	247.53
746.39	247.25
746.71	246.97
747.04	246.71
747.37	246.44
747.70	246.21
748.03	245.99
748.36	245.80
748.68	245.58
749.01	245.33
749.34	245.14
749.67	244.91
750.00	244.68
750.33	244.56
750.65	244.33
750.98	243.95
751.31	243.74
751.64	243.52
751.97	243.31
752.29	243.10
752.62	242.82
752.95	242.62
753.28	242.39
753.60	242.19
753.93	241.97
754.26	241.77
754.59	241.51
754.91	241.32
755.24	241.06
755.57	240.82
755.90	240.61
756.22	240.42
756.55	240.22
756.88	240.05
757.20	239.80
757.53	239.59
757.86	239.40
758.19	239.23
758.51	239.04
758.84	238.85
759.17	238.67
759.49	238.52
759.82	238.36
760.15	238.22
760.47	238.03
760.80	237.91
761.13	237.75
761.45	237.60
761.78	237.43
762.11	237.29
762.43	237.15
762.76	237.02
763.08	236.87
763.41	236.76
763.74	236.62
764.06	236.44
764.39	236.36
764.71	236.23
765.04	236.08
765.37	235.95
765.69	235.79
766.02	235.66
766.34	235.53
766.67	235.38
767.00	235.27
767.32	235.22
767.65	235.14
767.97	235.04
768.30	234.95
768.62	234.83
768.95	234.74
769.27	234.64
769.60	234.52
769.92	234.41
770.25	234.29
770.57	234.20
770.90	234.12
771.22	234.00
771.55	233.92
771.87	233.84
772.20	233.76
772.52	233.79
772.85	233.83
773.17	233.74
773.50	233.69
773.82	233.58
774.15	233.44
774.47	233.29
774.80	233.24
775.12	233.16
775.45	233.08
775.77	233.03
776.09	232.97
776.42	232.90
776.74	232.89
777.07	232.80
777.39	232.72
777.72	232.65
778.04	232.56
778.36	232.51
778.69	232.45
779.01	232.43
779.33	232.30
779.66	232.12
779.98	232.07
780.31	232.01
780.63	232.02
780.95	231.99
781.28	231.95
781.60	231.85
781.92	231.78
782.25	231.72
782.57	231.66
782.89	231.60
783.22	231.53
783.54	231.46
783.86	231.44
784.19	231.43
784.51	231.41
784.83	231.39
785.16	231.35
785.48	231.32
785.80	231.24
786.12	231.14
786.45	231.08
786.77	231.06
787.09	230.99
