SpectraSuite Data File
++++++++++++++++++++++++++++++++++++
Date: Fri Feb 01 16:56:22 EST 2013
User: group
Dark Spectrum Present: No
Reference Spectrum Present: No
Number of Sampled Component Spectra: 1
Spectrometers: USB2E7196
Integration Time (usec): 35000 (USB2E7196)
Spectra Averaged: 100 (USB2E7196)
Boxcar Smoothing: 10 (USB2E7196)
Correct for Electrical Dark: No (USB2E7196)
Strobe/Lamp Enabled: No (USB2E7196)
Correct for Detector Non-linearity: No (USB2E7196)
Correct for Stray Light: No (USB2E7196)
Number of Pixels in Processed Spectrum: 2048
>>>>>Begin Processed Spectral Data<<<<<
339.09	0.00
339.48	213.16
339.86	214.65
340.24	216.37
340.63	217.53
341.01	220.18
341.39	220.22
341.78	221.87
342.16	222.56
342.54	222.83
342.93	211.75
343.31	222.46
343.69	223.02
344.07	223.48
344.46	223.92
344.84	224.31
345.22	224.55
345.60	224.78
345.99	224.95
346.37	225.08
346.75	225.19
347.13	225.26
347.52	225.29
347.90	225.36
348.28	225.35
348.66	225.37
349.05	225.37
349.43	225.42
349.81	225.48
350.19	225.51
350.57	225.59
350.96	225.66
351.34	225.71
351.72	225.79
352.10	225.89
352.48	225.96
352.87	226.00
353.25	226.08
353.63	226.17
354.01	226.23
354.39	226.31
354.77	226.41
355.15	226.50
355.54	226.56
355.92	226.56
356.30	226.67
356.68	226.79
357.06	226.82
357.44	226.88
357.82	226.95
358.20	227.04
358.58	227.10
358.97	227.17
359.35	227.27
359.73	227.32
360.11	227.35
360.49	227.40
360.87	227.46
361.25	227.50
361.63	227.56
362.01	227.58
362.39	227.61
362.77	227.64
363.15	227.68
363.53	227.74
363.91	227.79
364.29	227.78
364.67	227.74
365.05	227.79
365.43	227.77
365.81	227.82
366.19	227.86
366.57	227.88
366.95	227.87
367.33	227.83
367.71	227.85
368.09	227.87
368.47	227.85
368.85	227.83
369.23	227.84
369.61	227.78
369.99	227.83
370.37	227.81
370.75	227.82
371.13	227.77
371.51	227.73
371.89	227.67
372.27	227.65
372.65	227.60
373.03	227.57
373.41	227.52
373.78	227.44
374.16	227.33
374.54	227.26
374.92	227.17
375.30	227.16
375.68	227.09
376.06	227.06
376.44	227.02
376.82	226.96
377.19	226.90
377.57	226.87
377.95	226.76
378.33	226.70
378.71	226.57
379.09	226.53
379.47	226.45
379.84	226.42
380.22	226.33
380.60	226.24
380.98	226.14
381.36	226.12
381.73	226.04
382.11	226.03
382.49	226.01
382.87	225.95
383.25	225.89
383.62	225.94
384.00	225.84
384.38	225.77
384.76	225.76
385.13	225.74
385.51	225.68
385.89	225.62
386.27	225.60
386.64	225.60
387.02	225.54
387.40	225.52
387.78	225.48
388.15	225.46
388.53	225.45
388.91	225.44
389.29	225.39
389.66	225.38
390.04	225.31
390.42	225.29
390.79	225.27
391.17	225.25
391.55	225.12
391.92	225.10
392.30	225.10
392.68	225.07
393.05	225.07
393.43	225.05
393.81	225.03
394.18	224.98
394.56	224.98
394.94	225.02
395.31	225.02
395.69	225.03
396.06	225.04
396.44	225.04
396.82	225.06
397.19	225.15
397.57	225.19
397.95	225.25
398.32	225.21
398.70	225.27
399.07	225.34
399.45	225.39
399.82	225.43
400.20	225.46
400.58	225.50
400.95	225.51
401.33	225.61
401.70	225.81
402.08	225.90
402.45	225.94
402.83	226.05
403.20	226.12
403.58	226.22
403.95	226.35
404.33	226.51
404.71	226.59
405.08	226.71
405.46	226.83
405.83	226.96
406.21	227.15
406.58	227.29
406.96	227.41
407.33	227.58
407.70	227.78
408.08	228.06
408.45	228.31
408.83	228.51
409.20	228.68
409.58	228.82
409.95	229.06
410.33	229.37
410.70	229.58
411.08	229.87
411.45	230.19
411.82	230.48
412.20	230.78
412.57	231.20
412.95	231.51
413.32	231.92
413.69	232.30
414.07	232.70
414.44	233.14
414.82	233.62
415.19	234.15
415.56	234.67
415.94	235.18
416.31	235.79
416.68	236.42
417.06	237.14
417.43	237.79
417.81	238.61
418.18	239.37
418.55	240.19
418.93	241.08
419.30	241.95
419.67	242.87
420.04	243.85
420.42	244.83
420.79	246.03
421.16	247.18
421.54	248.38
421.91	249.61
422.28	250.90
422.66	252.24
423.03	253.50
423.40	254.82
423.77	256.21
424.15	257.59
424.52	259.07
424.89	260.70
425.26	262.27
425.64	263.68
426.01	265.27
426.38	266.93
426.75	268.60
427.13	270.31
427.50	272.10
427.87	273.99
428.24	275.85
428.61	277.56
428.99	279.49
429.36	281.55
429.73	283.63
430.10	285.62
430.47	287.63
430.85	289.79
431.22	292.05
431.59	294.44
431.96	296.69
432.33	299.17
432.70	301.53
433.08	304.32
433.45	306.99
433.82	309.61
434.19	312.42
434.56	315.22
434.93	317.90
435.30	320.49
435.68	323.34
436.05	326.14
436.42	328.92
436.79	331.44
437.16	334.12
437.53	336.89
437.90	339.67
438.27	342.45
438.64	345.22
439.01	347.80
439.38	350.01
439.75	352.17
440.13	354.64
440.50	356.94
440.87	358.76
441.24	360.65
441.61	362.79
441.98	364.32
442.35	366.07
442.72	367.92
443.09	369.80
443.46	370.77
443.83	371.37
444.20	371.92
444.57	372.72
444.94	373.05
445.31	373.45
445.68	373.81
446.05	373.91
446.42	373.56
446.79	373.14
447.16	372.67
447.53	372.41
447.90	371.26
448.27	370.12
448.64	368.57
449.01	367.44
449.37	365.47
449.74	363.58
450.11	361.38
450.48	358.91
450.85	356.37
451.22	354.29
451.59	352.29
451.96	350.34
452.33	347.74
452.70	345.41
453.07	342.61
453.43	339.79
453.80	337.00
454.17	334.37
454.54	331.87
454.91	329.20
455.28	326.52
455.65	324.07
456.02	321.65
456.38	319.56
456.75	316.94
457.12	314.70
457.49	312.50
457.86	310.34
458.23	308.51
458.59	306.49
458.96	304.39
459.33	302.55
459.70	300.71
460.07	299.23
460.43	297.51
460.80	295.88
461.17	294.44
461.54	292.96
461.91	291.53
462.27	290.08
462.64	288.87
463.01	287.55
463.38	286.28
463.74	284.92
464.11	283.72
464.48	282.67
464.85	281.59
465.21	280.74
465.58	279.85
465.95	278.74
466.32	277.84
466.68	276.97
467.05	276.11
467.42	275.24
467.78	274.32
468.15	273.46
468.52	272.76
468.88	271.90
469.25	271.12
469.62	270.52
469.98	269.87
470.35	269.21
470.72	268.60
471.08	267.97
471.45	267.45
471.82	266.93
472.18	266.39
472.55	265.92
472.92	265.43
473.28	264.95
473.65	264.55
474.02	264.14
474.38	263.79
474.75	263.48
475.11	263.11
475.48	262.86
475.85	262.66
476.21	262.48
476.58	262.32
476.94	262.21
477.31	262.06
477.67	261.89
478.04	261.83
478.41	261.81
478.77	261.82
479.14	261.76
479.50	261.80
479.87	261.84
480.23	261.99
480.60	262.03
480.96	262.16
481.33	262.37
481.69	262.59
482.06	262.79
482.42	262.97
482.79	263.29
483.15	263.63
483.52	263.99
483.88	264.32
484.25	264.71
484.61	265.14
484.98	265.58
485.34	266.19
485.71	266.76
486.07	267.35
486.44	267.92
486.80	268.64
487.17	269.35
487.53	270.21
487.90	271.07
488.26	272.07
488.62	273.06
488.99	274.01
489.35	275.04
489.72	276.16
490.08	277.36
490.44	278.59
490.81	279.88
491.17	281.23
491.54	282.67
491.90	284.22
492.26	285.87
492.63	287.59
492.99	289.37
493.36	291.27
493.72	293.28
494.08	295.38
494.45	297.65
494.81	300.04
495.17	302.46
495.54	305.01
495.90	307.60
496.26	310.42
496.63	313.38
496.99	316.48
497.35	319.73
497.72	323.12
498.08	326.62
498.44	330.27
498.80	334.19
499.17	338.26
499.53	342.39
499.89	346.74
500.26	351.19
500.62	355.80
500.98	360.78
501.34	365.85
501.71	371.13
502.07	376.50
502.43	381.99
502.79	387.75
503.16	393.77
503.52	400.06
503.88	406.36
504.24	412.90
504.60	419.74
504.97	426.81
505.33	434.04
505.69	441.66
506.05	449.38
506.41	457.20
506.78	465.24
507.14	473.62
507.50	482.25
507.86	491.19
508.22	500.29
508.59	509.29
508.95	518.80
509.31	528.51
509.67	538.53
510.03	548.74
510.39	559.17
510.75	569.79
511.12	580.57
511.48	591.79
511.84	603.16
512.20	614.57
512.56	626.36
512.92	638.44
513.28	650.69
513.64	663.08
514.00	675.63
514.37	688.43
514.73	701.33
515.09	714.22
515.45	727.33
515.81	740.75
516.17	754.65
516.53	768.57
516.89	782.61
517.25	796.55
517.61	810.87
517.97	825.14
518.33	839.41
518.69	853.99
519.05	868.68
519.41	883.64
519.77	898.91
520.13	914.28
520.49	929.47
520.85	944.59
521.21	959.95
521.57	975.95
521.93	991.51
522.29	1007.62
522.65	1023.59
523.01	1039.53
523.37	1055.27
523.73	1071.21
524.09	1087.07
524.45	1102.93
524.81	1119.31
525.17	1135.73
525.53	1152.31
525.89	1168.92
526.25	1185.45
526.61	1201.61
526.97	1218.13
527.33	1234.32
527.68	1250.52
528.04	1266.66
528.40	1282.95
528.76	1299.78
529.12	1316.09
529.48	1332.67
529.84	1348.43
530.20	1364.81
530.56	1381.49
530.91	1398.62
531.27	1415.06
531.63	1431.10
531.99	1447.54
532.35	1463.19
532.71	1478.75
533.07	1494.70
533.42	1510.32
533.78	1526.22
534.14	1542.30
534.50	1557.20
534.86	1572.84
535.21	1587.64
535.57	1603.24
535.93	1618.37
536.29	1632.85
536.65	1647.57
537.00	1662.01
537.36	1677.09
537.72	1691.20
538.08	1705.36
538.44	1718.88
538.79	1732.48
539.15	1745.94
539.51	1759.50
539.87	1773.63
540.22	1787.05
540.58	1800.58
540.94	1813.58
541.29	1826.05
541.65	1838.33
542.01	1851.33
542.37	1863.36
542.72	1875.48
543.08	1887.14
543.44	1899.34
543.79	1910.40
544.15	1921.29
544.51	1932.67
544.87	1943.43
545.22	1954.31
545.58	1964.50
545.94	1974.20
546.29	1983.89
546.65	1993.70
547.01	2002.64
547.36	2011.19
547.72	2019.79
548.07	2027.54
548.43	2035.58
548.79	2043.34
549.14	2050.88
549.50	2058.07
549.86	2065.65
550.21	2073.06
550.57	2080.09
550.92	2086.69
551.28	2093.66
551.64	2100.52
551.99	2106.98
552.35	2113.09
552.70	2119.12
553.06	2124.99
553.41	2131.18
553.77	2137.16
554.13	2143.17
554.48	2149.43
554.84	2154.97
555.19	2160.01
555.55	2165.24
555.90	2169.87
556.26	2175.00
556.61	2179.69
556.97	2184.15
557.32	2188.26
557.68	2192.53
558.03	2196.92
558.39	2200.56
558.74	2205.35
559.10	2209.33
559.45	2213.11
559.81	2217.37
560.16	2221.17
560.52	2224.51
560.87	2227.99
561.23	2230.69
561.58	2233.60
561.94	2236.08
562.29	2238.52
562.64	2241.60
563.00	2244.13
563.35	2247.72
563.71	2250.94
564.06	2254.25
564.42	2257.20
564.77	2259.95
565.12	2262.38
565.48	2264.40
565.83	2266.49
566.19	2267.90
566.54	2268.81
566.89	2270.09
567.25	2270.72
567.60	2272.17
567.96	2273.97
568.31	2275.01
568.66	2276.33
569.02	2277.09
569.37	2277.73
569.72	2278.73
570.08	2278.81
570.43	2279.16
570.78	2278.78
571.14	2277.31
571.49	2275.94
571.84	2275.73
572.20	2274.80
572.55	2273.84
572.90	2272.33
573.26	2271.11
573.61	2269.49
573.96	2268.13
574.31	2265.34
574.67	2262.75
575.02	2259.33
575.37	2256.13
575.72	2252.63
576.08	2249.35
576.43	2246.06
576.78	2242.51
577.13	2239.42
577.49	2236.50
577.84	2233.25
578.19	2229.50
578.54	2226.11
578.90	2222.46
579.25	2217.09
579.60	2212.31
579.95	2207.41
580.30	2202.59
580.66	2197.64
581.01	2192.82
581.36	2188.01
581.71	2184.05
582.06	2179.64
582.42	2175.42
582.77	2170.42
583.12	2165.98
583.47	2161.73
583.82	2157.10
584.17	2152.02
584.53	2146.80
584.88	2141.22
585.23	2135.53
585.58	2130.26
585.93	2124.98
586.28	2120.06
586.63	2115.30
586.98	2110.33
587.34	2105.77
587.69	2101.03
588.04	2095.94
588.39	2090.47
588.74	2084.07
589.09	2077.98
589.44	2071.60
589.79	2065.63
590.14	2060.09
590.49	2053.59
590.84	2047.14
591.19	2041.11
591.54	2034.84
591.89	2027.73
592.25	2021.32
592.60	2014.25
592.95	2007.02
593.30	1999.87
593.65	1992.50
594.00	1985.46
594.35	1978.34
594.70	1970.36
595.05	1963.54
595.40	1956.38
595.75	1948.98
596.10	1943.09
596.45	1936.61
596.80	1930.41
597.15	1923.91
597.50	1917.00
597.85	1910.65
598.19	1904.15
598.54	1897.41
598.89	1890.87
599.24	1884.92
599.59	1878.42
599.94	1872.26
600.29	1865.78
600.64	1859.22
600.99	1851.98
601.34	1845.38
601.69	1838.48
602.04	1831.72
602.39	1824.27
602.74	1817.53
603.08	1811.10
603.43	1804.45
603.78	1797.11
604.13	1789.94
604.48	1782.76
604.83	1775.91
605.18	1769.29
605.53	1761.34
605.87	1753.38
606.22	1746.24
606.57	1738.40
606.92	1730.99
607.27	1724.02
607.62	1717.36
607.96	1710.20
608.31	1703.82
608.66	1696.39
609.01	1689.02
609.36	1681.61
609.70	1673.69
610.05	1665.70
610.40	1658.00
610.75	1649.68
611.10	1642.14
611.44	1633.89
611.79	1626.03
612.14	1617.49
612.49	1608.25
612.83	1600.02
613.18	1591.91
613.53	1583.87
613.88	1575.44
614.22	1567.25
614.57	1558.62
614.92	1550.65
615.27	1543.24
615.61	1534.89
615.96	1526.81
616.31	1519.13
616.65	1511.99
617.00	1504.49
617.35	1496.85
617.70	1488.65
618.04	1480.20
618.39	1471.96
618.74	1464.35
619.08	1456.07
619.43	1448.48
619.78	1441.62
620.12	1434.59
620.47	1427.16
620.82	1419.05
621.16	1411.57
621.51	1404.01
621.85	1396.41
622.20	1387.97
622.55	1379.57
622.89	1371.78
623.24	1364.20
623.59	1356.74
623.93	1349.10
624.28	1341.91
624.62	1334.48
624.97	1327.24
625.32	1320.45
625.66	1313.42
626.01	1306.31
626.35	1299.00
626.70	1291.29
627.04	1283.66
627.39	1275.71
627.73	1268.38
628.08	1261.41
628.43	1254.32
628.77	1247.03
629.12	1239.54
629.46	1232.44
629.81	1224.96
630.15	1217.60
630.50	1210.14
630.84	1202.08
631.19	1194.05
631.53	1186.53
631.88	1178.94
632.22	1171.30
632.57	1164.05
632.91	1156.62
633.26	1149.29
633.60	1141.84
633.95	1134.70
634.29	1127.62
634.64	1121.04
634.98	1113.57
635.32	1106.51
635.67	1099.80
636.01	1093.23
636.36	1086.38
636.70	1079.77
637.05	1073.29
637.39	1066.98
637.73	1060.58
638.08	1054.66
638.42	1048.81
638.77	1042.44
639.11	1036.00
639.45	1029.69
639.80	1023.06
640.14	1016.66
640.49	1010.16
640.83	1003.89
641.17	997.67
641.52	991.32
641.86	984.89
642.20	979.09
642.55	972.69
642.89	966.27
643.23	959.57
643.58	953.91
643.92	947.79
644.26	941.83
644.61	935.75
644.95	929.72
645.29	923.26
645.64	916.57
645.98	910.23
646.32	904.19
646.66	898.20
647.01	892.44
647.35	886.79
647.69	880.91
648.04	875.31
648.38	869.58
648.72	863.58
649.06	857.56
649.41	851.68
649.75	845.85
650.09	839.88
650.43	834.18
650.78	828.03
651.12	822.05
651.46	816.29
651.80	810.62
652.14	805.19
652.49	799.84
652.83	794.70
653.17	789.11
653.51	783.54
653.85	778.12
654.20	772.51
654.54	766.51
654.88	760.75
655.22	754.86
655.56	749.18
655.90	743.79
656.25	738.54
656.59	733.22
656.93	728.11
657.27	723.00
657.61	717.58
657.95	712.52
658.29	707.45
658.64	702.20
658.98	696.84
659.32	691.37
659.66	686.15
660.00	680.86
660.34	675.93
660.68	671.03
661.02	666.06
661.36	661.34
661.70	656.85
662.05	652.50
662.39	648.29
662.73	643.91
663.07	639.56
663.41	635.10
663.75	630.62
664.09	626.07
664.43	621.69
664.77	617.63
665.11	613.41
665.45	609.25
665.79	605.15
666.13	601.04
666.47	597.01
666.81	592.86
667.15	588.74
667.49	584.73
667.83	580.93
668.17	577.07
668.51	572.97
668.85	568.96
669.19	565.16
669.53	561.33
669.87	557.42
670.21	553.65
670.55	550.08
670.89	546.68
671.23	543.29
671.57	539.73
671.91	536.18
672.25	532.65
672.58	529.15
672.92	525.73
673.26	522.59
673.60	519.37
673.94	516.29
674.28	513.32
674.62	510.43
674.96	507.31
675.30	504.35
675.64	501.47
675.97	498.61
676.31	495.71
676.65	492.72
676.99	490.02
677.33	487.20
677.67	484.36
678.01	481.34
678.34	478.38
678.68	475.53
679.02	472.71
679.36	469.98
679.70	467.30
680.04	464.57
680.37	461.70
680.71	458.91
681.05	456.26
681.39	453.64
681.73	450.97
682.06	448.46
682.40	445.90
682.74	443.39
683.08	440.89
683.42	438.32
683.75	435.86
684.09	433.27
684.43	430.83
684.77	428.35
685.10	425.98
685.44	423.67
685.78	421.39
686.12	419.17
686.45	416.86
686.79	414.58
687.13	412.38
687.46	410.22
687.80	408.09
688.14	405.90
688.48	403.80
688.81	401.60
689.15	399.46
689.49	397.26
689.82	395.16
690.16	393.11
690.50	391.15
690.83	389.23
691.17	387.28
691.51	385.38
691.84	383.56
692.18	381.68
692.52	379.69
692.85	377.78
693.19	375.88
693.52	373.97
693.86	372.15
694.20	370.37
694.53	368.58
694.87	366.75
695.21	365.00
695.54	363.17
695.88	361.44
696.21	359.73
696.55	358.15
696.88	356.47
697.22	354.78
697.56	353.16
697.89	351.52
698.23	349.92
698.56	348.29
698.90	346.72
699.23	345.04
699.57	343.51
699.90	341.96
700.24	340.42
700.58	338.98
700.91	337.49
701.25	336.07
701.58	334.72
701.92	333.38
702.25	331.99
702.59	330.63
702.92	329.30
703.26	327.95
703.59	326.64
703.93	325.49
704.26	324.30
704.60	323.01
704.93	321.71
705.26	320.44
705.60	319.26
705.93	318.07
706.27	317.07
706.60	316.00
706.94	314.93
707.27	313.82
707.61	312.75
707.94	311.70
708.27	310.62
708.61	309.55
708.94	308.49
709.28	307.50
709.61	306.57
709.94	305.61
710.28	304.62
710.61	303.66
710.95	302.59
711.28	301.66
711.61	300.72
711.95	299.83
712.28	298.93
712.61	297.93
712.95	297.01
713.28	296.10
713.61	295.22
713.95	294.32
714.28	293.45
714.61	292.59
714.95	291.76
715.28	290.90
715.61	289.99
715.95	289.15
716.28	288.27
716.61	287.39
716.95	286.56
717.28	285.79
717.61	284.99
717.94	284.21
718.28	283.41
718.61	282.67
718.94	282.00
719.27	281.35
719.61	280.68
719.94	280.01
720.27	279.31
720.60	278.60
720.94	277.98
721.27	277.39
721.60	276.82
721.93	276.22
722.27	275.62
722.60	275.11
722.93	274.56
723.26	274.07
723.59	273.51
723.93	272.97
724.26	272.43
724.59	271.89
724.92	271.35
725.25	270.87
725.59	270.37
725.92	269.85
726.25	269.30
726.58	268.84
726.91	268.30
727.24	267.79
727.57	267.34
727.91	266.85
728.24	266.38
728.57	265.90
728.90	265.42
729.23	264.97
729.56	264.50
729.89	264.01
730.22	263.52
730.55	263.05
730.89	262.59
731.22	262.12
731.55	261.67
731.88	261.25
732.21	260.77
732.54	260.32
732.87	259.87
733.20	259.46
733.53	259.10
733.86	258.73
734.19	258.36
734.52	258.00
734.85	257.65
735.18	257.27
735.51	256.90
735.84	256.55
736.17	256.20
736.50	255.82
736.83	255.59
737.16	255.24
737.49	254.95
737.82	254.61
738.15	254.30
738.48	253.96
738.81	253.61
739.14	253.27
739.47	252.95
739.80	252.66
740.13	252.38
740.46	252.03
740.79	251.71
741.12	251.41
741.45	251.06
741.78	250.74
742.11	250.44
742.44	250.11
742.77	249.78
743.10	249.47
743.43	249.17
743.75	248.81
744.08	248.67
744.41	248.38
744.74	248.11
745.07	247.83
745.40	247.61
745.73	247.41
746.06	247.20
746.39	246.96
746.71	246.64
747.04	246.38
747.37	246.13
747.70	245.89
748.03	245.68
748.36	245.47
748.68	245.23
749.01	245.01
749.34	244.77
749.67	244.55
750.00	244.31
750.33	244.15
750.65	243.92
750.98	243.57
751.31	243.36
751.64	243.14
751.97	242.99
752.29	242.75
752.62	242.50
752.95	242.26
753.28	242.04
753.60	241.86
753.93	241.67
754.26	241.48
754.59	241.27
754.91	241.01
755.24	240.81
755.57	240.62
755.90	240.41
756.22	240.21
756.55	240.04
756.88	239.85
757.20	239.62
757.53	239.40
757.86	239.26
758.19	239.07
758.51	238.90
758.84	238.67
759.17	238.50
759.49	238.35
759.82	238.23
760.15	238.09
760.47	237.93
760.80	237.75
761.13	237.60
761.45	237.46
761.78	237.31
762.11	237.14
762.43	236.97
762.76	236.79
763.08	236.67
763.41	236.52
763.74	236.41
764.06	236.28
764.39	236.16
764.71	235.99
765.04	235.87
765.37	235.71
765.69	235.61
766.02	235.47
766.34	235.30
766.67	235.16
767.00	235.09
767.32	234.98
767.65	234.95
767.97	234.82
768.30	234.71
768.62	234.61
768.95	234.48
769.27	234.37
769.60	234.28
769.92	234.16
770.25	234.02
770.57	233.89
770.90	233.77
771.22	233.64
771.55	233.56
771.87	233.46
772.20	233.36
772.52	233.31
772.85	233.34
773.17	233.25
773.50	233.14
773.82	233.01
774.15	232.88
774.47	232.69
774.80	232.60
775.12	232.50
775.45	232.43
775.77	232.37
776.09	232.32
776.42	232.25
776.74	232.22
777.07	232.16
777.39	232.07
777.72	232.00
778.04	231.95
778.36	231.83
778.69	231.76
779.01	231.69
779.33	231.57
779.66	231.39
779.98	231.35
780.31	231.30
780.63	231.27
780.95	231.23
781.28	231.19
781.60	231.10
781.92	231.02
782.25	230.97
782.57	230.89
782.89	230.83
783.22	230.74
783.54	230.66
783.86	230.63
784.19	230.57
784.51	230.55
784.83	230.49
785.16	230.45
785.48	230.39
785.80	230.34
786.12	230.31
786.45	230.24
786.77	230.15
787.09	230.09
