SpectraSuite Data File
++++++++++++++++++++++++++++++++++++
Date: Fri Feb 01 15:12:14 EST 2013
User: group
Dark Spectrum Present: No
Reference Spectrum Present: No
Number of Sampled Component Spectra: 1
Spectrometers: USB2E7196
Integration Time (usec): 35000 (USB2E7196)
Spectra Averaged: 100 (USB2E7196)
Boxcar Smoothing: 10 (USB2E7196)
Correct for Electrical Dark: No (USB2E7196)
Strobe/Lamp Enabled: No (USB2E7196)
Correct for Detector Non-linearity: No (USB2E7196)
Correct for Stray Light: No (USB2E7196)
Number of Pixels in Processed Spectrum: 2048
>>>>>Begin Processed Spectral Data<<<<<
339.09	0.00
339.48	214.93
339.86	216.30
340.24	217.09
340.63	218.87
341.01	222.15
341.39	222.10
341.78	223.10
342.16	224.78
342.54	225.06
342.93	213.30
343.31	224.11
343.69	224.64
344.07	225.10
344.46	225.58
344.84	225.96
345.22	226.19
345.60	226.42
345.99	226.62
346.37	226.72
346.75	226.83
347.13	226.88
347.52	226.94
347.90	227.02
348.28	227.05
348.66	227.11
349.05	227.12
349.43	227.16
349.81	227.22
350.19	227.24
350.57	227.29
350.96	227.39
351.34	227.47
351.72	227.58
352.10	227.67
352.48	227.72
352.87	227.77
353.25	227.84
353.63	227.91
354.01	227.97
354.39	228.09
354.77	228.17
355.15	228.28
355.54	228.36
355.92	228.41
356.30	228.51
356.68	228.65
357.06	228.75
357.44	228.82
357.82	228.89
358.20	228.99
358.58	229.07
358.97	229.16
359.35	229.22
359.73	229.31
360.11	229.43
360.49	229.50
360.87	229.59
361.25	229.65
361.63	229.73
362.01	229.80
362.39	229.80
362.77	229.85
363.15	229.92
363.53	229.96
363.91	229.96
364.29	229.96
364.67	229.89
365.05	229.91
365.43	229.93
365.81	229.94
366.19	229.96
366.57	229.96
366.95	229.94
367.33	229.92
367.71	229.89
368.09	229.87
368.47	229.86
368.85	229.85
369.23	229.84
369.61	229.79
369.99	229.79
370.37	229.75
370.75	229.76
371.13	229.69
371.51	229.64
371.89	229.61
372.27	229.57
372.65	229.48
373.03	229.40
373.41	229.32
373.78	229.25
374.16	229.17
374.54	229.07
374.92	228.96
375.30	228.88
375.68	228.76
376.06	228.67
376.44	228.55
376.82	228.46
377.19	228.36
377.57	228.30
377.95	228.17
378.33	228.10
378.71	227.95
379.09	227.86
379.47	227.78
379.84	227.67
380.22	227.58
380.60	227.52
380.98	227.44
381.36	227.39
381.73	227.28
382.11	227.21
382.49	227.15
382.87	227.06
383.25	226.98
383.62	227.04
384.00	226.92
384.38	226.86
384.76	226.83
385.13	226.83
385.51	226.72
385.89	226.65
386.27	226.60
386.64	226.54
387.02	226.48
387.40	226.43
387.78	226.39
388.15	226.36
388.53	226.31
388.91	226.27
389.29	226.22
389.66	226.22
390.04	226.16
390.42	226.18
390.79	226.18
391.17	226.16
391.55	226.04
391.92	226.04
392.30	226.06
392.68	226.01
393.05	226.01
393.43	226.05
393.81	226.08
394.18	226.10
394.56	226.13
394.94	226.16
395.31	226.18
395.69	226.22
396.06	226.27
396.44	226.31
396.82	226.37
397.19	226.46
397.57	226.51
397.95	226.61
398.32	226.66
398.70	226.74
399.07	226.84
399.45	226.91
399.82	227.02
400.20	227.10
400.58	227.21
400.95	227.26
401.33	227.39
401.70	227.59
402.08	227.70
402.45	227.80
402.83	227.96
403.20	228.11
403.58	228.27
403.95	228.44
404.33	228.56
404.71	228.71
405.08	228.90
405.46	229.07
405.83	229.23
406.21	229.37
406.58	229.58
406.96	229.76
407.33	229.98
407.70	230.21
408.08	230.48
408.45	230.68
408.83	230.93
409.20	231.14
409.58	231.27
409.95	231.57
410.33	231.91
410.70	232.14
411.08	232.43
411.45	232.75
411.82	233.04
412.20	233.46
412.57	233.87
412.95	234.16
413.32	234.59
413.69	235.00
414.07	235.46
414.44	235.91
414.82	236.39
415.19	236.96
415.56	237.48
415.94	238.03
416.31	238.69
416.68	239.32
417.06	240.06
417.43	240.75
417.81	241.46
418.18	242.21
418.55	243.07
418.93	243.95
419.30	244.80
419.67	245.76
420.04	246.67
420.42	247.70
420.79	248.87
421.16	249.99
421.54	251.14
421.91	252.34
422.28	253.57
422.66	254.88
423.03	256.17
423.40	257.49
423.77	258.88
424.15	260.27
424.52	261.75
424.89	263.34
425.26	264.90
425.64	266.38
426.01	267.95
426.38	269.57
426.75	271.22
427.13	272.96
427.50	274.76
427.87	276.64
428.24	278.44
428.61	280.17
428.99	282.10
429.36	284.25
429.73	286.32
430.10	288.34
430.47	290.41
430.85	292.50
431.22	294.78
431.59	297.19
431.96	299.45
432.33	301.95
432.70	304.33
433.08	307.16
433.45	309.80
433.82	312.39
434.19	315.28
434.56	318.11
434.93	320.77
435.30	323.39
435.68	326.29
436.05	329.11
436.42	331.93
436.79	334.44
437.16	337.11
437.53	339.97
437.90	342.77
438.27	345.54
438.64	348.40
439.01	350.99
439.38	353.27
439.75	355.42
440.13	357.86
440.50	360.20
440.87	362.02
441.24	363.99
441.61	366.21
441.98	367.70
442.35	369.53
442.72	371.41
443.09	373.25
443.46	374.24
443.83	374.87
444.20	375.40
444.57	376.25
444.94	376.55
445.31	376.85
445.68	377.22
446.05	377.35
446.42	376.90
446.79	376.47
447.16	375.99
447.53	375.70
447.90	374.56
448.27	373.41
448.64	371.88
449.01	370.75
449.37	368.77
449.74	366.89
450.11	364.62
450.48	362.09
450.85	359.54
451.22	357.39
451.59	355.39
451.96	353.47
452.33	350.88
452.70	348.55
453.07	345.74
453.43	342.88
453.80	340.04
454.17	337.42
454.54	334.86
454.91	332.14
455.28	329.45
455.65	326.98
456.02	324.52
456.38	322.35
456.75	319.66
457.12	317.40
457.49	315.17
457.86	313.00
458.23	311.16
458.59	309.10
458.96	307.02
459.33	305.13
459.70	303.23
460.07	301.72
460.43	299.97
460.80	298.32
461.17	296.87
461.54	295.38
461.91	293.91
462.27	292.48
462.64	291.23
463.01	289.87
463.38	288.60
463.74	287.26
464.11	286.07
464.48	285.07
464.85	283.96
465.21	283.09
465.58	282.16
465.95	281.04
466.32	280.09
466.68	279.19
467.05	278.30
467.42	277.42
467.78	276.48
468.15	275.59
468.52	274.95
468.88	274.04
469.25	273.23
469.62	272.60
469.98	271.90
470.35	271.22
470.72	270.63
471.08	269.94
471.45	269.35
471.82	268.78
472.18	268.15
472.55	267.70
472.92	267.15
473.28	266.64
473.65	266.20
474.02	265.77
474.38	265.38
474.75	265.02
475.11	264.64
475.48	264.35
475.85	264.12
476.21	263.85
476.58	263.66
476.94	263.52
477.31	263.33
477.67	263.17
478.04	263.03
478.41	262.93
478.77	262.96
479.14	262.88
479.50	262.89
479.87	262.94
480.23	262.99
480.60	263.04
480.96	263.14
481.33	263.31
481.69	263.47
482.06	263.66
482.42	263.87
482.79	264.10
483.15	264.46
483.52	264.82
483.88	265.15
484.25	265.56
484.61	265.97
484.98	266.43
485.34	267.00
485.71	267.59
486.07	268.20
486.44	268.71
486.80	269.40
487.17	270.14
487.53	270.97
487.90	271.83
488.26	272.74
488.62	273.72
488.99	274.74
489.35	275.85
489.72	277.01
490.08	278.21
490.44	279.46
490.81	280.77
491.17	282.11
491.54	283.61
491.90	285.12
492.26	286.77
492.63	288.48
492.99	290.21
493.36	292.10
493.72	294.14
494.08	296.28
494.45	298.55
494.81	300.93
495.17	303.34
495.54	305.91
495.90	308.63
496.26	311.42
496.63	314.36
496.99	317.44
497.35	320.67
497.72	324.06
498.08	327.54
498.44	331.22
498.80	335.20
499.17	339.22
499.53	343.41
499.89	347.80
500.26	352.30
500.62	357.01
500.98	361.97
501.34	367.09
501.71	372.42
502.07	377.81
502.43	383.40
502.79	389.17
503.16	395.30
503.52	401.58
503.88	408.01
504.24	414.61
504.60	421.45
504.97	428.57
505.33	435.88
505.69	443.61
506.05	451.38
506.41	459.18
506.78	467.38
507.14	475.83
507.50	484.51
507.86	493.55
508.22	502.74
508.59	511.99
508.95	521.52
509.31	531.28
509.67	541.39
510.03	551.66
510.39	562.28
510.75	573.03
511.12	583.90
511.48	595.17
511.84	606.61
512.20	618.16
512.56	630.11
512.92	642.29
513.28	654.50
513.64	666.99
514.00	679.73
514.37	692.61
514.73	705.71
515.09	718.78
515.45	732.07
515.81	745.68
516.17	759.66
516.53	773.74
516.89	787.95
517.25	802.19
517.61	816.60
517.97	831.05
518.33	845.51
518.69	860.34
519.05	875.35
519.41	890.62
519.77	906.19
520.13	921.61
520.49	937.02
520.85	952.64
521.21	968.37
521.57	984.58
521.93	1000.33
522.29	1016.71
522.65	1032.99
523.01	1049.30
523.37	1065.39
523.73	1081.64
524.09	1097.84
524.45	1114.16
524.81	1130.77
525.17	1147.76
525.53	1164.60
525.89	1181.53
526.25	1198.44
526.61	1214.85
526.97	1231.55
527.33	1248.03
527.68	1264.80
528.04	1281.41
528.40	1298.07
528.76	1315.26
529.12	1331.97
529.48	1348.90
529.84	1364.93
530.20	1381.59
530.56	1398.63
530.91	1416.03
531.27	1432.98
531.63	1449.55
531.99	1466.24
532.35	1482.33
532.71	1498.27
533.07	1514.67
533.42	1530.69
533.78	1546.72
534.14	1563.13
534.50	1578.61
534.86	1594.55
535.21	1609.69
535.57	1625.67
535.93	1641.21
536.29	1656.09
536.65	1671.17
537.00	1686.22
537.36	1701.68
537.72	1716.38
538.08	1730.92
538.44	1744.92
538.79	1758.71
539.15	1772.48
539.51	1786.38
539.87	1800.91
540.22	1814.71
540.58	1828.57
540.94	1841.96
541.29	1855.09
541.65	1867.81
542.01	1881.27
542.37	1893.70
542.72	1906.24
543.08	1918.06
543.44	1930.61
543.79	1941.81
544.15	1952.90
544.51	1964.35
544.87	1975.51
545.22	1986.35
545.58	1996.60
545.94	2006.36
546.29	2016.31
546.65	2026.19
547.01	2035.33
547.36	2043.96
547.72	2052.35
548.07	2060.40
548.43	2068.58
548.79	2076.61
549.14	2084.16
549.50	2091.44
549.86	2099.35
550.21	2106.72
550.57	2113.96
550.92	2120.63
551.28	2127.84
551.64	2135.06
551.99	2141.70
552.35	2147.70
552.70	2153.73
553.06	2159.58
553.41	2165.86
553.77	2171.85
554.13	2177.86
554.48	2184.09
554.84	2189.44
555.19	2194.96
555.55	2199.88
555.90	2204.31
556.26	2209.21
556.61	2213.99
556.97	2218.06
557.32	2221.96
557.68	2225.95
558.03	2230.21
558.39	2233.80
558.74	2238.27
559.10	2241.94
559.45	2245.63
559.81	2250.06
560.16	2253.97
560.52	2257.19
560.87	2260.63
561.23	2263.29
561.58	2266.37
561.94	2268.87
562.29	2271.40
562.64	2273.99
563.00	2276.73
563.35	2280.28
563.71	2283.31
564.06	2286.36
564.42	2289.37
564.77	2291.82
565.12	2294.02
565.48	2295.80
565.83	2297.54
566.19	2298.72
566.54	2299.63
566.89	2300.52
567.25	2300.77
567.60	2302.06
567.96	2303.71
568.31	2304.55
568.66	2305.42
569.02	2305.88
569.37	2306.06
569.72	2306.79
570.08	2306.68
570.43	2306.51
570.78	2305.75
571.14	2304.11
571.49	2302.80
571.84	2302.40
572.20	2301.12
572.55	2300.10
572.90	2298.47
573.26	2296.94
573.61	2295.14
573.96	2293.21
574.31	2290.14
574.67	2287.07
575.02	2283.36
575.37	2279.92
575.72	2275.91
576.08	2272.64
576.43	2269.16
576.78	2265.37
577.13	2262.11
577.49	2259.05
577.84	2255.49
578.19	2251.53
578.54	2247.73
578.90	2243.49
579.25	2237.78
579.60	2232.89
579.95	2227.74
580.30	2222.51
580.66	2217.29
581.01	2212.46
581.36	2207.49
581.71	2203.37
582.06	2198.90
582.42	2194.31
582.77	2188.92
583.12	2184.22
583.47	2179.33
583.82	2174.25
584.17	2168.98
584.53	2163.41
584.88	2157.63
585.23	2151.75
585.58	2146.29
585.93	2140.83
586.28	2135.89
586.63	2130.78
586.98	2125.49
587.34	2120.70
587.69	2115.94
588.04	2110.59
588.39	2104.70
588.74	2098.24
589.09	2091.95
589.44	2084.97
589.79	2078.68
590.14	2073.01
590.49	2066.38
590.84	2059.99
591.19	2053.78
591.54	2047.14
591.89	2039.50
592.25	2032.55
592.60	2025.30
592.95	2017.57
593.30	2010.11
593.65	2002.35
594.00	1995.31
594.35	1987.99
594.70	1979.96
595.05	1972.62
595.40	1965.29
595.75	1957.72
596.10	1951.32
596.45	1944.40
596.80	1938.22
597.15	1931.65
597.50	1924.47
597.85	1918.02
598.19	1911.30
598.54	1904.15
598.89	1897.55
599.24	1891.73
599.59	1884.93
599.94	1878.63
600.29	1872.39
600.64	1865.69
600.99	1858.34
601.34	1851.26
601.69	1844.35
602.04	1837.24
602.39	1829.79
602.74	1822.90
603.08	1816.15
603.43	1809.40
603.78	1802.26
604.13	1795.06
604.48	1787.62
604.83	1780.75
605.18	1773.63
605.53	1765.45
605.87	1757.44
606.22	1750.23
606.57	1742.07
606.92	1734.73
607.27	1727.40
607.62	1720.42
607.96	1713.15
608.31	1706.32
608.66	1698.69
609.01	1691.01
609.36	1683.47
609.70	1675.42
610.05	1667.25
610.40	1659.47
610.75	1651.14
611.10	1643.41
611.44	1635.01
611.79	1627.15
612.14	1618.37
612.49	1609.36
612.83	1601.05
613.18	1592.97
613.53	1584.81
613.88	1576.33
614.22	1568.15
614.57	1559.74
614.92	1551.72
615.27	1544.07
615.61	1535.80
615.96	1527.76
616.31	1520.10
616.65	1512.79
617.00	1505.28
617.35	1497.71
617.70	1489.32
618.04	1480.76
618.39	1472.53
618.74	1464.94
619.08	1456.60
619.43	1449.15
619.78	1442.23
620.12	1435.18
620.47	1427.65
620.82	1419.55
621.16	1412.27
621.51	1404.71
621.85	1397.08
622.20	1388.67
622.55	1380.43
622.89	1372.61
623.24	1365.07
623.59	1357.74
623.93	1350.21
624.28	1342.91
624.62	1335.39
624.97	1328.33
625.32	1321.69
625.66	1314.63
626.01	1307.34
626.35	1299.87
626.70	1292.19
627.04	1284.33
627.39	1276.47
627.73	1269.07
628.08	1262.05
628.43	1254.66
628.77	1247.29
629.12	1239.61
629.46	1232.31
629.81	1224.93
630.15	1217.67
630.50	1210.31
630.84	1202.19
631.19	1194.34
631.53	1186.94
631.88	1179.43
632.22	1171.91
632.57	1164.62
632.91	1157.12
633.26	1149.88
633.60	1142.56
633.95	1135.50
634.29	1128.55
634.64	1121.89
634.98	1114.61
635.32	1107.58
635.67	1101.11
636.01	1094.46
636.36	1087.80
636.70	1081.38
637.05	1074.85
637.39	1068.45
637.73	1061.92
638.08	1056.05
638.42	1050.05
638.77	1043.66
639.11	1037.03
639.45	1030.61
639.80	1023.91
640.14	1017.42
640.49	1010.88
640.83	1004.66
641.17	998.32
641.52	992.04
641.86	985.71
642.20	979.82
642.55	973.54
642.89	967.03
643.23	960.51
643.58	954.72
643.92	948.43
644.26	942.33
644.61	936.34
644.95	930.32
645.29	923.74
645.64	917.06
645.98	910.67
646.32	904.85
646.66	898.83
647.01	893.05
647.35	887.40
647.69	881.60
648.04	875.99
648.38	870.25
648.72	864.33
649.06	858.24
649.41	852.39
649.75	846.41
650.09	840.46
650.43	834.65
650.78	828.52
651.12	822.62
651.46	816.84
651.80	811.02
652.14	805.62
652.49	800.27
652.83	795.06
653.17	789.39
653.51	783.67
653.85	778.28
654.20	772.60
654.54	766.62
654.88	760.81
655.22	755.01
655.56	749.39
655.90	743.95
656.25	738.69
656.59	733.31
656.93	728.18
657.27	723.10
657.61	717.68
657.95	712.56
658.29	707.43
658.64	702.24
658.98	697.07
659.32	691.54
659.66	686.30
660.00	680.98
660.34	676.01
660.68	671.17
661.02	666.11
661.36	661.43
661.70	656.98
662.05	652.69
662.39	648.34
662.73	643.84
663.07	639.40
663.41	634.93
663.75	630.43
664.09	625.85
664.43	621.39
664.77	617.29
665.11	613.09
665.45	609.10
665.79	605.04
666.13	600.85
666.47	596.84
666.81	592.70
667.15	588.61
667.49	584.78
667.83	580.99
668.17	577.11
668.51	573.03
668.85	569.04
669.19	565.15
669.53	561.29
669.87	557.43
670.21	553.74
670.55	550.14
670.89	546.75
671.23	543.39
671.57	539.90
671.91	536.36
672.25	532.90
672.58	529.38
672.92	526.00
673.26	522.89
673.60	519.82
673.94	516.76
674.28	513.87
674.62	510.94
674.96	507.84
675.30	504.98
675.64	502.14
675.97	499.41
676.31	496.66
676.65	493.74
676.99	491.04
677.33	488.19
677.67	485.38
678.01	482.37
678.34	479.37
678.68	476.57
679.02	473.79
679.36	471.02
679.70	468.26
680.04	465.55
680.37	462.66
680.71	459.92
681.05	457.30
681.39	454.62
681.73	451.99
682.06	449.43
682.40	446.85
682.74	444.37
683.08	441.81
683.42	439.16
683.75	436.72
684.09	434.22
684.43	431.84
684.77	429.39
685.10	427.07
685.44	424.80
685.78	422.56
686.12	420.32
686.45	418.03
686.79	415.78
687.13	413.61
687.46	411.52
687.80	409.30
688.14	407.07
688.48	404.99
688.81	402.74
689.15	400.64
689.49	398.52
689.82	396.37
690.16	394.27
690.50	392.36
690.83	390.41
691.17	388.44
691.51	386.49
691.84	384.66
692.18	382.72
692.52	380.76
692.85	378.81
693.19	376.91
693.52	375.12
693.86	373.34
694.20	371.54
694.53	369.70
694.87	367.92
695.21	366.16
695.54	364.35
695.88	362.63
696.21	360.85
696.55	359.16
696.88	357.54
697.22	355.88
697.56	354.29
697.89	352.59
698.23	350.95
698.56	349.33
698.90	347.71
699.23	346.06
699.57	344.48
699.90	342.94
700.24	341.41
700.58	339.85
700.91	338.32
701.25	336.86
701.58	335.50
701.92	334.12
702.25	332.71
702.59	331.32
702.92	329.99
703.26	328.71
703.59	327.42
703.93	326.21
704.26	324.99
704.60	323.64
704.93	322.47
705.26	321.23
705.60	320.12
705.93	318.99
706.27	317.98
706.60	316.94
706.94	315.88
707.27	314.80
707.61	313.77
707.94	312.76
708.27	311.65
708.61	310.55
708.94	309.57
709.28	308.62
709.61	307.74
709.94	306.84
710.28	305.88
710.61	304.90
710.95	303.82
711.28	302.94
711.61	302.00
711.95	301.06
712.28	300.16
712.61	299.13
712.95	298.19
713.28	297.29
713.61	296.40
713.95	295.51
714.28	294.65
714.61	293.80
714.95	292.96
715.28	292.15
715.61	291.30
715.95	290.41
716.28	289.56
716.61	288.73
716.95	287.93
717.28	287.18
717.61	286.45
717.94	285.79
718.28	284.99
718.61	284.29
718.94	283.63
719.27	282.98
719.61	282.42
719.94	281.74
720.27	281.06
720.60	280.43
720.94	279.83
721.27	279.24
721.60	278.68
721.93	278.08
722.27	277.54
722.60	277.01
722.93	276.49
723.26	275.99
723.59	275.44
723.93	274.88
724.26	274.31
724.59	273.77
724.92	273.18
725.25	272.68
725.59	272.16
725.92	271.63
726.25	271.10
726.58	270.59
726.91	270.12
727.24	269.66
727.57	269.16
727.91	268.66
728.24	268.19
728.57	267.67
728.90	267.23
729.23	266.78
729.56	266.34
729.89	265.83
730.22	265.32
730.55	264.81
730.89	264.40
731.22	263.96
731.55	263.48
731.88	263.08
732.21	262.62
732.54	262.18
732.87	261.76
733.20	261.37
733.53	260.95
733.86	260.56
734.19	260.15
734.52	259.80
734.85	259.47
735.18	259.07
735.51	258.73
735.84	258.34
736.17	257.97
736.50	257.56
736.83	257.34
737.16	257.02
737.49	256.68
737.82	256.32
738.15	255.93
738.48	255.62
738.81	255.34
739.14	255.02
739.47	254.73
739.80	254.39
740.13	254.07
740.46	253.73
740.79	253.40
741.12	253.09
741.45	252.77
741.78	252.40
742.11	252.12
742.44	251.76
742.77	251.48
743.10	251.14
743.43	250.81
743.75	250.39
744.08	250.24
744.41	249.97
744.74	249.69
745.07	249.46
745.40	249.17
745.73	248.87
746.06	248.61
746.39	248.35
746.71	248.08
747.04	247.79
747.37	247.52
747.70	247.26
748.03	247.02
748.36	246.79
748.68	246.56
749.01	246.29
749.34	246.09
749.67	245.86
750.00	245.63
750.33	245.49
750.65	245.30
750.98	244.94
751.31	244.70
751.64	244.48
751.97	244.30
752.29	244.13
752.62	243.88
752.95	243.68
753.28	243.49
753.60	243.30
753.93	243.14
754.26	242.97
754.59	242.77
754.91	242.56
755.24	242.37
755.57	242.18
755.90	242.00
756.22	241.81
756.55	241.60
756.88	241.45
757.20	241.24
757.53	241.05
757.86	240.93
758.19	240.78
758.51	240.61
758.84	240.41
759.17	240.20
759.49	240.06
759.82	239.90
760.15	239.74
760.47	239.59
760.80	239.42
761.13	239.26
761.45	239.13
761.78	238.97
762.11	238.83
762.43	238.69
762.76	238.54
763.08	238.45
763.41	238.36
763.74	238.22
764.06	238.10
764.39	237.96
764.71	237.81
765.04	237.70
765.37	237.56
765.69	237.45
766.02	237.35
766.34	237.25
766.67	237.10
767.00	237.00
767.32	236.93
767.65	236.86
767.97	236.75
768.30	236.64
768.62	236.54
768.95	236.39
769.27	236.26
769.60	236.16
769.92	235.98
770.25	235.86
770.57	235.73
770.90	235.59
771.22	235.49
771.55	235.36
771.87	235.26
772.20	235.17
772.52	235.14
772.85	235.18
773.17	235.06
773.50	234.97
773.82	234.86
774.15	234.68
774.47	234.54
774.80	234.43
775.12	234.31
775.45	234.23
775.77	234.18
776.09	234.11
776.42	234.04
776.74	234.00
777.07	233.88
777.39	233.82
777.72	233.77
778.04	233.71
778.36	233.61
778.69	233.57
779.01	233.51
779.33	233.34
779.66	233.16
779.98	233.07
780.31	233.01
780.63	233.01
780.95	233.00
781.28	232.94
781.60	232.87
781.92	232.78
782.25	232.72
782.57	232.63
782.89	232.54
783.22	232.48
783.54	232.41
783.86	232.39
784.19	232.28
784.51	232.24
784.83	232.17
785.16	232.11
785.48	232.06
785.80	232.01
786.12	232.03
786.45	231.98
786.77	231.98
787.09	231.93
