SpectraSuite Data File
++++++++++++++++++++++++++++++++++++
Date: Fri Feb 01 14:51:30 EST 2013
User: group
Dark Spectrum Present: No
Reference Spectrum Present: No
Number of Sampled Component Spectra: 1
Spectrometers: USB2E7196
Integration Time (usec): 35000 (USB2E7196)
Spectra Averaged: 100 (USB2E7196)
Boxcar Smoothing: 10 (USB2E7196)
Correct for Electrical Dark: No (USB2E7196)
Strobe/Lamp Enabled: No (USB2E7196)
Correct for Detector Non-linearity: No (USB2E7196)
Correct for Stray Light: No (USB2E7196)
Number of Pixels in Processed Spectrum: 2048
>>>>>Begin Processed Spectral Data<<<<<
339.09	0.00
339.48	215.37
339.86	216.93
340.24	218.82
340.63	220.03
341.01	222.84
341.39	222.89
341.78	223.86
342.16	225.26
342.54	225.72
342.93	214.04
343.31	224.83
343.69	225.39
344.07	225.87
344.46	226.29
344.84	226.65
345.22	226.89
345.60	227.10
345.99	227.30
346.37	227.42
346.75	227.51
347.13	227.58
347.52	227.60
347.90	227.67
348.28	227.67
348.66	227.70
349.05	227.69
349.43	227.74
349.81	227.76
350.19	227.81
350.57	227.85
350.96	227.93
351.34	228.03
351.72	228.09
352.10	228.17
352.48	228.22
352.87	228.29
353.25	228.34
353.63	228.41
354.01	228.47
354.39	228.57
354.77	228.62
355.15	228.73
355.54	228.80
355.92	228.83
356.30	228.94
356.68	229.04
357.06	229.13
357.44	229.17
357.82	229.23
358.20	229.31
358.58	229.36
358.97	229.39
359.35	229.48
359.73	229.57
360.11	229.63
360.49	229.68
360.87	229.71
361.25	229.75
361.63	229.85
362.01	229.87
362.39	229.84
362.77	229.93
363.15	229.91
363.53	229.93
363.91	229.96
364.29	229.93
364.67	229.87
365.05	229.87
365.43	229.90
365.81	229.90
366.19	229.92
366.57	229.94
366.95	229.90
367.33	229.84
367.71	229.81
368.09	229.78
368.47	229.76
368.85	229.74
369.23	229.72
369.61	229.61
369.99	229.60
370.37	229.58
370.75	229.55
371.13	229.48
371.51	229.43
371.89	229.38
372.27	229.33
372.65	229.24
373.03	229.16
373.41	229.09
373.78	229.02
374.16	228.90
374.54	228.82
374.92	228.76
375.30	228.73
375.68	228.64
376.06	228.57
376.44	228.49
376.82	228.43
377.19	228.36
377.57	228.26
377.95	228.12
378.33	228.03
378.71	227.92
379.09	227.89
379.47	227.83
379.84	227.72
380.22	227.67
380.60	227.60
380.98	227.52
381.36	227.45
381.73	227.38
382.11	227.33
382.49	227.25
382.87	227.18
383.25	227.08
383.62	227.08
384.00	227.01
384.38	226.94
384.76	226.89
385.13	226.84
385.51	226.83
385.89	226.80
386.27	226.76
386.64	226.71
387.02	226.65
387.40	226.57
387.78	226.57
388.15	226.54
388.53	226.53
388.91	226.51
389.29	226.49
389.66	226.47
390.04	226.46
390.42	226.47
390.79	226.46
391.17	226.45
391.55	226.38
391.92	226.39
392.30	226.41
392.68	226.40
393.05	226.41
393.43	226.43
393.81	226.45
394.18	226.46
394.56	226.51
394.94	226.56
395.31	226.61
395.69	226.68
396.06	226.73
396.44	226.79
396.82	226.84
397.19	226.97
397.57	227.02
397.95	227.08
398.32	227.11
398.70	227.21
399.07	227.33
399.45	227.41
399.82	227.49
400.20	227.53
400.58	227.66
400.95	227.75
401.33	227.87
401.70	228.07
402.08	228.20
402.45	228.31
402.83	228.39
403.20	228.52
403.58	228.61
403.95	228.72
404.33	228.88
404.71	229.01
405.08	229.18
405.46	229.33
405.83	229.51
406.21	229.68
406.58	229.83
406.96	229.98
407.33	230.15
407.70	230.39
408.08	230.69
408.45	230.88
408.83	231.15
409.20	231.35
409.58	231.52
409.95	231.79
410.33	232.07
410.70	232.33
411.08	232.65
411.45	232.94
411.82	233.25
412.20	233.57
412.57	233.99
412.95	234.23
413.32	234.64
413.69	235.02
414.07	235.47
414.44	235.97
414.82	236.44
415.19	237.00
415.56	237.55
415.94	238.09
416.31	238.73
416.68	239.33
417.06	240.05
417.43	240.76
417.81	241.51
418.18	242.26
418.55	243.13
418.93	243.98
419.30	244.90
419.67	245.83
420.04	246.82
420.42	247.80
420.79	249.01
421.16	250.17
421.54	251.37
421.91	252.55
422.28	253.77
422.66	255.09
423.03	256.34
423.40	257.69
423.77	259.12
424.15	260.54
424.52	262.03
424.89	263.64
425.26	265.17
425.64	266.60
426.01	268.16
426.38	269.78
426.75	271.44
427.13	273.15
427.50	274.98
427.87	276.85
428.24	278.73
428.61	280.45
428.99	282.38
429.36	284.45
429.73	286.53
430.10	288.55
430.47	290.60
430.85	292.77
431.22	294.96
431.59	297.30
431.96	299.49
432.33	301.95
432.70	304.31
433.08	307.09
433.45	309.75
433.82	312.38
434.19	315.26
434.56	318.07
434.93	320.75
435.30	323.36
435.68	326.23
436.05	329.03
436.42	331.86
436.79	334.42
437.16	337.20
437.53	340.00
437.90	342.79
438.27	345.53
438.64	348.37
439.01	350.97
439.38	353.20
439.75	355.40
440.13	357.91
440.50	360.25
440.87	362.12
441.24	364.04
441.61	366.22
441.98	367.73
442.35	369.54
442.72	371.41
443.09	373.24
443.46	374.22
443.83	374.84
444.20	375.37
444.57	376.19
444.94	376.44
445.31	376.78
445.68	377.17
446.05	377.29
446.42	376.94
446.79	376.50
447.16	376.11
447.53	375.79
447.90	374.60
448.27	373.44
448.64	371.88
449.01	370.75
449.37	368.82
449.74	366.92
450.11	364.67
450.48	362.20
450.85	359.64
451.22	357.50
451.59	355.47
451.96	353.54
452.33	350.93
452.70	348.56
453.07	345.78
453.43	342.88
453.80	340.15
454.17	337.46
454.54	334.94
454.91	332.22
455.28	329.59
455.65	327.14
456.02	324.71
456.38	322.54
456.75	319.87
457.12	317.56
457.49	315.35
457.86	313.21
458.23	311.34
458.59	309.31
458.96	307.23
459.33	305.35
459.70	303.48
460.07	301.97
460.43	300.22
460.80	298.60
461.17	297.15
461.54	295.61
461.91	294.14
462.27	292.70
462.64	291.41
463.01	290.01
463.38	288.70
463.74	287.33
464.11	286.18
464.48	285.17
464.85	284.07
465.21	283.19
465.58	282.24
465.95	281.15
466.32	280.21
466.68	279.32
467.05	278.41
467.42	277.49
467.78	276.54
468.15	275.67
468.52	274.98
468.88	274.10
469.25	273.31
469.62	272.67
469.98	271.96
470.35	271.32
470.72	270.74
471.08	270.06
471.45	269.49
471.82	268.92
472.18	268.28
472.55	267.82
472.92	267.25
473.28	266.77
473.65	266.27
474.02	265.81
474.38	265.42
474.75	265.10
475.11	264.71
475.48	264.45
475.85	264.23
476.21	263.96
476.58	263.77
476.94	263.57
477.31	263.38
477.67	263.20
478.04	263.05
478.41	262.93
478.77	262.96
479.14	262.87
479.50	262.86
479.87	262.93
480.23	263.02
480.60	263.09
480.96	263.13
481.33	263.35
481.69	263.53
482.06	263.69
482.42	263.86
482.79	264.14
483.15	264.42
483.52	264.80
483.88	265.16
484.25	265.51
484.61	265.96
484.98	266.43
485.34	266.97
485.71	267.57
486.07	268.21
486.44	268.78
486.80	269.48
487.17	270.19
487.53	271.01
487.90	271.85
488.26	272.77
488.62	273.80
488.99	274.74
489.35	275.79
489.72	276.93
490.08	278.15
490.44	279.35
490.81	280.67
491.17	281.96
491.54	283.41
491.90	284.97
492.26	286.56
492.63	288.26
492.99	290.06
493.36	291.91
493.72	293.88
494.08	295.99
494.45	298.22
494.81	300.53
495.17	302.93
495.54	305.48
495.90	308.17
496.26	310.91
496.63	313.87
496.99	316.92
497.35	320.14
497.72	323.54
498.08	327.00
498.44	330.64
498.80	334.59
499.17	338.64
499.53	342.76
499.89	347.11
500.26	351.61
500.62	356.21
500.98	361.14
501.34	366.15
501.71	371.42
502.07	376.84
502.43	382.41
502.79	388.23
503.16	394.26
503.52	400.41
503.88	406.80
504.24	413.41
504.60	420.26
504.97	427.34
505.33	434.63
505.69	442.37
506.05	450.11
506.41	457.89
506.78	466.03
507.14	474.46
507.50	483.17
507.86	492.22
508.22	501.37
508.59	510.54
508.95	520.17
509.31	529.98
509.67	540.03
510.03	550.33
510.39	560.83
510.75	571.65
511.12	582.57
511.48	593.85
511.84	605.21
512.20	616.71
512.56	628.63
512.92	640.72
513.28	652.93
513.64	665.44
514.00	678.14
514.37	691.01
514.73	703.95
515.09	716.94
515.45	730.09
515.81	743.67
516.17	757.68
516.53	771.72
516.89	785.85
517.25	800.00
517.61	814.36
517.97	828.81
518.33	843.23
518.69	857.98
519.05	872.94
519.41	888.08
519.77	903.61
520.13	919.11
520.49	934.48
520.85	949.97
521.21	965.60
521.57	981.81
521.93	997.63
522.29	1014.07
522.65	1030.39
523.01	1046.72
523.37	1062.85
523.73	1079.06
524.09	1095.29
524.45	1111.62
524.81	1128.32
525.17	1145.30
525.53	1162.30
525.89	1179.18
526.25	1196.13
526.61	1212.59
526.97	1229.55
527.33	1246.17
527.68	1262.85
528.04	1279.42
528.40	1296.17
528.76	1313.37
529.12	1330.04
529.48	1347.02
529.84	1363.13
530.20	1379.80
530.56	1396.91
530.91	1414.25
531.27	1431.01
531.63	1447.48
531.99	1464.20
532.35	1480.35
532.71	1496.20
533.07	1512.62
533.42	1528.58
533.78	1544.73
534.14	1561.04
534.50	1576.30
534.86	1592.09
535.21	1607.14
535.57	1623.22
535.93	1638.69
536.29	1653.54
536.65	1668.85
537.00	1683.66
537.36	1698.98
537.72	1713.69
538.08	1728.15
538.44	1742.12
538.79	1756.16
539.15	1770.05
539.51	1784.03
539.87	1798.41
540.22	1812.25
540.58	1825.91
540.94	1839.28
541.29	1852.20
541.65	1864.92
542.01	1878.13
542.37	1890.63
542.72	1903.27
543.08	1915.10
543.44	1927.61
543.79	1938.85
544.15	1949.79
544.51	1961.38
544.87	1972.40
545.22	1983.16
545.58	1993.27
545.94	2003.11
546.29	2013.08
546.65	2022.63
547.01	2031.65
547.36	2040.24
547.72	2048.77
548.07	2056.71
548.43	2064.91
548.79	2072.97
549.14	2080.46
549.50	2088.02
549.86	2095.66
550.21	2102.89
550.57	2110.01
550.92	2116.54
551.28	2123.65
551.64	2130.70
551.99	2137.20
552.35	2143.44
552.70	2149.50
553.06	2155.56
553.41	2161.81
553.77	2167.77
554.13	2173.84
554.48	2179.91
554.84	2185.35
555.19	2190.60
555.55	2195.70
555.90	2200.02
556.26	2204.68
556.61	2209.42
556.97	2213.34
557.32	2217.39
557.68	2221.37
558.03	2225.50
558.39	2229.05
558.74	2233.53
559.10	2237.14
559.45	2240.75
559.81	2244.96
560.16	2248.59
560.52	2251.45
560.87	2254.73
561.23	2257.12
561.58	2259.92
561.94	2262.36
562.29	2264.65
562.64	2267.05
563.00	2269.43
563.35	2272.79
563.71	2275.82
564.06	2278.81
564.42	2281.75
564.77	2284.04
565.12	2286.24
565.48	2287.91
565.83	2289.61
566.19	2290.67
566.54	2291.52
566.89	2292.44
567.25	2292.63
567.60	2293.75
567.96	2295.49
568.31	2295.96
568.66	2296.80
569.02	2297.28
569.37	2297.37
569.72	2297.80
570.08	2297.74
570.43	2297.42
570.78	2296.52
571.14	2294.66
571.49	2293.03
571.84	2292.37
572.20	2290.93
572.55	2289.57
572.90	2287.85
573.26	2286.14
573.61	2284.23
573.96	2282.22
574.31	2279.06
574.67	2275.97
575.02	2272.06
575.37	2268.41
575.72	2264.50
576.08	2261.07
576.43	2257.47
576.78	2253.45
577.13	2250.11
577.49	2246.79
577.84	2243.13
578.19	2239.38
578.54	2235.67
578.90	2231.31
579.25	2225.67
579.60	2220.55
579.95	2215.40
580.30	2210.10
580.66	2204.87
581.01	2199.88
581.36	2194.71
581.71	2190.33
582.06	2185.62
582.42	2181.28
582.77	2175.77
583.12	2171.05
583.47	2166.14
583.82	2161.11
584.17	2155.81
584.53	2150.27
584.88	2144.50
585.23	2138.60
585.58	2132.94
585.93	2127.38
586.28	2122.57
586.63	2117.15
586.98	2111.94
587.34	2107.20
587.69	2102.26
588.04	2096.94
588.39	2090.97
588.74	2084.39
589.09	2077.91
589.44	2071.00
589.79	2064.60
590.14	2058.86
590.49	2052.13
590.84	2045.39
591.19	2039.19
591.54	2032.58
591.89	2025.02
592.25	2018.11
592.60	2010.85
592.95	2003.15
593.30	1995.50
593.65	1987.69
594.00	1980.56
594.35	1973.16
594.70	1964.92
595.05	1957.58
595.40	1950.11
595.75	1942.58
596.10	1936.25
596.45	1929.39
596.80	1923.00
597.15	1916.28
597.50	1909.12
597.85	1902.65
598.19	1896.05
598.54	1888.95
598.89	1882.33
599.24	1876.35
599.59	1869.57
599.94	1863.31
600.29	1856.84
600.64	1850.22
600.99	1842.69
601.34	1835.94
601.69	1829.11
602.04	1822.15
602.39	1814.86
602.74	1807.95
603.08	1801.18
603.43	1794.53
603.78	1787.32
604.13	1780.31
604.48	1773.02
604.83	1766.26
605.18	1759.22
605.53	1751.19
605.87	1742.92
606.22	1735.59
606.57	1727.86
606.92	1720.59
607.27	1713.26
607.62	1706.46
607.96	1699.26
608.31	1692.66
608.66	1684.93
609.01	1677.33
609.36	1669.96
609.70	1662.03
610.05	1654.11
610.40	1646.58
610.75	1638.27
611.10	1630.77
611.44	1622.54
611.79	1614.70
612.14	1606.06
612.49	1597.14
612.83	1588.94
613.18	1581.09
613.53	1573.18
613.88	1564.54
614.22	1556.33
614.57	1547.93
614.92	1540.06
615.27	1532.56
615.61	1524.39
615.96	1516.58
616.31	1509.04
616.65	1501.74
617.00	1494.15
617.35	1486.50
617.70	1478.12
618.04	1469.64
618.39	1461.48
618.74	1453.82
619.08	1445.55
619.43	1438.12
619.78	1431.23
620.12	1424.12
620.47	1416.75
620.82	1408.72
621.16	1401.44
621.51	1394.00
621.85	1386.54
622.20	1378.13
622.55	1370.04
622.89	1362.25
623.24	1354.82
623.59	1347.47
623.93	1339.99
624.28	1332.88
624.62	1325.50
624.97	1318.41
625.32	1311.77
625.66	1304.79
626.01	1297.70
626.35	1290.35
626.70	1282.69
627.04	1274.99
627.39	1267.33
627.73	1259.94
628.08	1253.13
628.43	1245.95
628.77	1238.56
629.12	1231.02
629.46	1223.83
629.81	1216.46
630.15	1209.39
630.50	1202.04
630.84	1194.03
631.19	1186.15
631.53	1178.73
631.88	1171.30
632.22	1163.82
632.57	1156.67
632.91	1149.33
633.26	1142.01
633.60	1134.79
633.95	1127.80
634.29	1120.88
634.64	1114.31
634.98	1107.14
635.32	1100.09
635.67	1093.67
636.01	1087.20
636.36	1080.44
636.70	1074.02
637.05	1067.60
637.39	1061.30
637.73	1054.89
638.08	1049.10
638.42	1043.23
638.77	1036.93
639.11	1030.42
639.45	1024.15
639.80	1017.46
640.14	1011.00
640.49	1004.51
640.83	998.26
641.17	992.12
641.52	985.93
641.86	979.58
642.20	973.77
642.55	967.50
642.89	960.97
643.23	954.47
643.58	948.85
643.92	942.77
644.26	936.67
644.61	930.66
644.95	924.63
645.29	918.07
645.64	911.42
645.98	905.08
646.32	899.25
646.66	893.19
647.01	887.57
647.35	882.00
647.69	876.31
648.04	870.93
648.38	865.13
648.72	859.12
649.06	853.09
649.41	847.27
649.75	841.27
650.09	835.46
650.43	829.79
650.78	823.67
651.12	817.77
651.46	812.16
651.80	806.41
652.14	801.13
652.49	795.83
652.83	790.70
653.17	785.07
653.51	779.45
653.85	774.16
654.20	768.52
654.54	762.54
654.88	756.76
655.22	750.92
655.56	745.33
655.90	739.93
656.25	734.70
656.59	729.40
656.93	724.40
657.27	719.29
657.61	713.91
657.95	708.83
658.29	703.84
658.64	698.63
658.98	693.43
659.32	688.00
659.66	682.86
660.00	677.64
660.34	672.79
660.68	667.98
661.02	662.99
661.36	658.34
661.70	653.94
662.05	649.67
662.39	645.36
662.73	640.94
663.07	636.69
663.41	632.29
663.75	627.82
664.09	623.33
664.43	618.93
664.77	614.84
665.11	610.69
665.45	606.60
665.79	602.61
666.13	598.52
666.47	594.49
666.81	590.38
667.15	586.26
667.49	582.43
667.83	578.61
668.17	574.75
668.51	570.82
668.85	566.84
669.19	563.10
669.53	559.26
669.87	555.46
670.21	551.81
670.55	548.27
670.89	544.88
671.23	541.46
671.57	538.05
671.91	534.55
672.25	531.06
672.58	527.61
672.92	524.25
673.26	521.12
673.60	518.01
673.94	514.95
674.28	512.13
674.62	509.22
674.96	506.21
675.30	503.33
675.64	500.36
675.97	497.66
676.31	494.77
676.65	491.87
676.99	489.18
677.33	486.32
677.67	483.52
678.01	480.52
678.34	477.59
678.68	474.73
679.02	471.91
679.36	469.21
679.70	466.52
680.04	463.78
680.37	460.98
680.71	458.16
681.05	455.58
681.39	452.88
681.73	450.28
682.06	447.79
682.40	445.25
682.74	442.75
683.08	440.21
683.42	437.72
683.75	435.27
684.09	432.76
684.43	430.30
684.77	427.91
685.10	425.65
685.44	423.43
685.78	421.19
686.12	419.08
686.45	416.85
686.79	414.57
687.13	412.42
687.46	410.25
687.80	408.19
688.14	406.00
688.48	403.92
688.81	401.67
689.15	399.49
689.49	397.41
689.82	395.36
690.16	393.25
690.50	391.30
690.83	389.42
691.17	387.49
691.51	385.65
691.84	383.77
692.18	381.84
692.52	379.81
692.85	377.89
693.19	375.95
693.52	374.15
693.86	372.33
694.20	370.55
694.53	368.74
694.87	366.89
695.21	365.15
695.54	363.42
695.88	361.71
696.21	360.04
696.55	358.31
696.88	356.66
697.22	355.03
697.56	353.42
697.89	351.78
698.23	350.14
698.56	348.54
698.90	347.00
699.23	345.33
699.57	343.86
699.90	342.34
700.24	340.83
700.58	339.30
700.91	337.88
701.25	336.44
701.58	335.17
701.92	333.86
702.25	332.52
702.59	331.13
702.92	329.83
703.26	328.50
703.59	327.27
703.93	326.14
704.26	324.94
704.60	323.64
704.93	322.38
705.26	321.15
705.60	319.97
705.93	318.82
706.27	317.83
706.60	316.74
706.94	315.66
707.27	314.55
707.61	313.53
707.94	312.45
708.27	311.39
708.61	310.29
708.94	309.25
709.28	308.30
709.61	307.32
709.94	306.38
710.28	305.38
710.61	304.45
710.95	303.37
711.28	302.44
711.61	301.52
711.95	300.60
712.28	299.67
712.61	298.73
712.95	297.83
713.28	296.96
713.61	296.09
713.95	295.25
714.28	294.39
714.61	293.55
714.95	292.76
715.28	291.88
715.61	291.01
715.95	290.17
716.28	289.28
716.61	288.51
716.95	287.73
717.28	287.02
717.61	286.25
717.94	285.56
718.28	284.78
718.61	284.09
718.94	283.41
719.27	282.74
719.61	282.12
719.94	281.46
720.27	280.73
720.60	280.07
720.94	279.43
721.27	278.87
721.60	278.27
721.93	277.66
722.27	277.18
722.60	276.67
722.93	276.15
723.26	275.61
723.59	275.06
723.93	274.52
724.26	273.94
724.59	273.37
724.92	272.84
725.25	272.39
725.59	271.83
725.92	271.34
726.25	270.85
726.58	270.36
726.91	269.88
727.24	269.46
727.57	268.99
727.91	268.54
728.24	268.07
728.57	267.61
728.90	267.20
729.23	266.66
729.56	266.21
729.89	265.72
730.22	265.23
730.55	264.75
730.89	264.30
731.22	263.92
731.55	263.50
731.88	263.06
732.21	262.62
732.54	262.20
732.87	261.81
733.20	261.44
733.53	261.05
733.86	260.68
734.19	260.28
734.52	259.89
734.85	259.55
735.18	259.16
735.51	258.79
735.84	258.39
736.17	258.04
736.50	257.63
736.83	257.41
737.16	257.10
737.49	256.77
737.82	256.43
738.15	256.08
738.48	255.75
738.81	255.42
739.14	255.10
739.47	254.80
739.80	254.48
740.13	254.16
740.46	253.80
740.79	253.47
741.12	253.14
741.45	252.84
741.78	252.48
742.11	252.20
742.44	251.87
742.77	251.60
743.10	251.29
743.43	251.01
743.75	250.63
744.08	250.47
744.41	250.20
744.74	249.93
745.07	249.66
745.40	249.42
745.73	249.21
746.06	248.93
746.39	248.65
746.71	248.37
747.04	248.10
747.37	247.89
747.70	247.64
748.03	247.38
748.36	247.17
748.68	246.92
749.01	246.66
749.34	246.46
749.67	246.20
750.00	246.04
750.33	245.87
750.65	245.65
750.98	245.30
751.31	245.09
751.64	244.86
751.97	244.73
752.29	244.49
752.62	244.22
752.95	244.00
753.28	243.82
753.60	243.61
753.93	243.46
754.26	243.26
754.59	243.06
754.91	242.86
755.24	242.65
755.57	242.49
755.90	242.32
756.22	242.10
756.55	241.90
756.88	241.70
757.20	241.49
757.53	241.32
757.86	241.16
758.19	241.02
758.51	240.90
758.84	240.65
759.17	240.49
759.49	240.35
759.82	240.24
760.15	240.13
760.47	239.98
760.80	239.77
761.13	239.60
761.45	239.47
761.78	239.37
762.11	239.23
762.43	239.09
762.76	238.95
763.08	238.84
763.41	238.75
763.74	238.64
764.06	238.50
764.39	238.34
764.71	238.26
765.04	238.13
765.37	237.98
765.69	237.89
766.02	237.78
766.34	237.65
766.67	237.50
767.00	237.37
767.32	237.32
767.65	237.29
767.97	237.16
768.30	237.07
768.62	236.92
768.95	236.84
769.27	236.73
769.60	236.63
769.92	236.53
770.25	236.40
770.57	236.31
770.90	236.24
771.22	236.14
771.55	236.01
771.87	235.88
772.20	235.76
772.52	235.77
772.85	235.77
773.17	235.69
773.50	235.63
773.82	235.53
774.15	235.40
774.47	235.24
774.80	235.19
775.12	235.07
775.45	234.99
775.77	234.89
776.09	234.81
776.42	234.73
776.74	234.65
777.07	234.56
777.39	234.42
777.72	234.32
778.04	234.24
778.36	234.18
778.69	234.13
779.01	234.07
779.33	233.88
779.66	233.69
779.98	233.59
780.31	233.51
780.63	233.49
780.95	233.45
781.28	233.36
781.60	233.30
781.92	233.23
782.25	233.17
782.57	233.10
782.89	233.04
783.22	232.99
783.54	232.89
783.86	232.84
784.19	232.82
784.51	232.77
784.83	232.71
785.16	232.63
785.48	232.57
785.80	232.47
786.12	232.45
786.45	232.41
786.77	232.38
787.09	232.32
