SpectraSuite Data File
++++++++++++++++++++++++++++++++++++
Date: Fri Feb 01 15:40:18 EST 2013
User: group
Dark Spectrum Present: No
Reference Spectrum Present: No
Number of Sampled Component Spectra: 1
Spectrometers: USB2E7196
Integration Time (usec): 35000 (USB2E7196)
Spectra Averaged: 100 (USB2E7196)
Boxcar Smoothing: 10 (USB2E7196)
Correct for Electrical Dark: No (USB2E7196)
Strobe/Lamp Enabled: No (USB2E7196)
Correct for Detector Non-linearity: No (USB2E7196)
Correct for Stray Light: No (USB2E7196)
Number of Pixels in Processed Spectrum: 2048
>>>>>Begin Processed Spectral Data<<<<<
339.09	0.00
339.48	215.25
339.86	216.70
340.24	217.57
340.63	218.87
341.01	222.77
341.39	222.20
341.78	222.60
342.16	224.50
342.54	225.36
342.93	213.52
343.31	224.31
343.69	224.84
344.07	225.29
344.46	225.71
344.84	226.10
345.22	226.29
345.60	226.54
345.99	226.77
346.37	226.90
346.75	227.02
347.13	227.04
347.52	227.09
347.90	227.16
348.28	227.14
348.66	227.20
349.05	227.14
349.43	227.15
349.81	227.17
350.19	227.19
350.57	227.22
350.96	227.27
351.34	227.32
351.72	227.41
352.10	227.50
352.48	227.58
352.87	227.66
353.25	227.71
353.63	227.76
354.01	227.81
354.39	227.89
354.77	227.94
355.15	228.07
355.54	228.10
355.92	228.11
356.30	228.21
356.68	228.32
357.06	228.44
357.44	228.50
357.82	228.59
358.20	228.65
358.58	228.71
358.97	228.77
359.35	228.83
359.73	228.89
360.11	228.96
360.49	229.00
360.87	229.03
361.25	229.09
361.63	229.16
362.01	229.19
362.39	229.21
362.77	229.23
363.15	229.22
363.53	229.28
363.91	229.31
364.29	229.32
364.67	229.23
365.05	229.23
365.43	229.24
365.81	229.26
366.19	229.30
366.57	229.37
366.95	229.38
367.33	229.39
367.71	229.37
368.09	229.38
368.47	229.38
368.85	229.38
369.23	229.39
369.61	229.33
369.99	229.36
370.37	229.35
370.75	229.40
371.13	229.37
371.51	229.32
371.89	229.28
372.27	229.27
372.65	229.26
373.03	229.22
373.41	229.15
373.78	229.08
374.16	228.97
374.54	228.88
374.92	228.82
375.30	228.78
375.68	228.69
376.06	228.61
376.44	228.56
376.82	228.47
377.19	228.40
377.57	228.38
377.95	228.26
378.33	228.17
378.71	228.02
379.09	227.99
379.47	227.92
379.84	227.85
380.22	227.75
380.60	227.66
380.98	227.61
381.36	227.57
381.73	227.48
382.11	227.45
382.49	227.39
382.87	227.30
383.25	227.23
383.62	227.29
384.00	227.21
384.38	227.17
384.76	227.15
385.13	227.12
385.51	227.04
385.89	226.98
386.27	226.94
386.64	226.91
387.02	226.85
387.40	226.80
387.78	226.74
388.15	226.73
388.53	226.68
388.91	226.65
389.29	226.61
389.66	226.58
390.04	226.59
390.42	226.55
390.79	226.54
391.17	226.50
391.55	226.39
391.92	226.38
392.30	226.39
392.68	226.35
393.05	226.32
393.43	226.29
393.81	226.30
394.18	226.26
394.56	226.27
394.94	226.30
395.31	226.27
395.69	226.31
396.06	226.29
396.44	226.35
396.82	226.36
397.19	226.42
397.57	226.47
397.95	226.50
398.32	226.55
398.70	226.59
399.07	226.65
399.45	226.68
399.82	226.75
400.20	226.77
400.58	226.84
400.95	226.87
401.33	227.00
401.70	227.13
402.08	227.27
402.45	227.33
402.83	227.41
403.20	227.54
403.58	227.68
403.95	227.81
404.33	227.90
404.71	228.00
405.08	228.19
405.46	228.30
405.83	228.41
406.21	228.54
406.58	228.72
406.96	228.92
407.33	229.11
407.70	229.29
408.08	229.59
408.45	229.82
408.83	230.08
409.20	230.27
409.58	230.48
409.95	230.73
410.33	231.00
410.70	231.28
411.08	231.62
411.45	231.92
411.82	232.26
412.20	232.63
412.57	233.06
412.95	233.38
413.32	233.81
413.69	234.24
414.07	234.70
414.44	235.17
414.82	235.63
415.19	236.18
415.56	236.74
415.94	237.29
416.31	237.93
416.68	238.59
417.06	239.35
417.43	240.03
417.81	240.78
418.18	241.59
418.55	242.44
418.93	243.28
419.30	244.17
419.67	245.12
420.04	246.08
420.42	247.11
420.79	248.26
421.16	249.42
421.54	250.64
421.91	251.84
422.28	253.09
422.66	254.45
423.03	255.78
423.40	257.17
423.77	258.57
424.15	260.00
424.52	261.46
424.89	263.06
425.26	264.63
425.64	266.08
426.01	267.68
426.38	269.35
426.75	271.05
427.13	272.79
427.50	274.61
427.87	276.52
428.24	278.38
428.61	280.13
428.99	282.06
429.36	284.14
429.73	286.25
430.10	288.25
430.47	290.31
430.85	292.39
431.22	294.63
431.59	297.04
431.96	299.35
432.33	301.85
432.70	304.23
433.08	306.99
433.45	309.61
433.82	312.24
434.19	315.08
434.56	317.86
434.93	320.49
435.30	323.06
435.68	325.97
436.05	328.80
436.42	331.61
436.79	334.16
437.16	336.87
437.53	339.67
437.90	342.52
438.27	345.28
438.64	348.14
439.01	350.66
439.38	352.87
439.75	354.98
440.13	357.48
440.50	359.80
440.87	361.65
441.24	363.61
441.61	365.72
441.98	367.27
442.35	369.07
442.72	370.93
443.09	372.74
443.46	373.67
443.83	374.22
444.20	374.68
444.57	375.42
444.94	375.70
445.31	376.03
445.68	376.31
446.05	376.30
446.42	375.89
446.79	375.47
447.16	374.99
447.53	374.65
447.90	373.44
448.27	372.26
448.64	370.66
449.01	369.53
449.37	367.54
449.74	365.63
450.11	363.37
450.48	360.86
450.85	358.31
451.22	356.18
451.59	354.17
451.96	352.25
452.33	349.68
452.70	347.28
453.07	344.43
453.43	341.54
453.80	338.80
454.17	336.15
454.54	333.60
454.91	330.83
455.28	328.14
455.65	325.64
456.02	323.17
456.38	321.05
456.75	318.39
457.12	316.13
457.49	313.88
457.86	311.74
458.23	309.91
458.59	307.89
458.96	305.80
459.33	303.98
459.70	302.09
460.07	300.57
460.43	298.90
460.80	297.30
461.17	295.86
461.54	294.39
461.91	292.97
462.27	291.55
462.64	290.35
463.01	289.05
463.38	287.81
463.74	286.44
464.11	285.25
464.48	284.22
464.85	283.17
465.21	282.30
465.58	281.35
465.95	280.25
466.32	279.35
466.68	278.46
467.05	277.58
467.42	276.74
467.78	275.86
468.15	274.95
468.52	274.30
468.88	273.47
469.25	272.70
469.62	272.10
469.98	271.40
470.35	270.82
470.72	270.20
471.08	269.54
471.45	269.08
471.82	268.55
472.18	267.99
472.55	267.56
472.92	267.09
473.28	266.67
473.65	266.27
474.02	265.85
474.38	265.53
474.75	265.18
475.11	264.84
475.48	264.59
475.85	264.43
476.21	264.21
476.58	264.08
476.94	263.95
477.31	263.74
477.67	263.64
478.04	263.50
478.41	263.48
478.77	263.50
479.14	263.43
479.50	263.47
479.87	263.51
480.23	263.55
480.60	263.60
480.96	263.67
481.33	263.83
481.69	264.01
482.06	264.18
482.42	264.38
482.79	264.62
483.15	264.92
483.52	265.25
483.88	265.60
484.25	265.94
484.61	266.36
484.98	266.86
485.34	267.38
485.71	267.95
486.07	268.55
486.44	269.09
486.80	269.73
487.17	270.45
487.53	271.26
487.90	272.14
488.26	273.09
488.62	274.09
488.99	275.08
489.35	276.07
489.72	277.19
490.08	278.37
490.44	279.60
490.81	280.95
491.17	282.30
491.54	283.78
491.90	285.29
492.26	286.89
492.63	288.61
492.99	290.41
493.36	292.31
493.72	294.30
494.08	296.40
494.45	298.68
494.81	301.02
495.17	303.43
495.54	305.97
495.90	308.60
496.26	311.38
496.63	314.32
496.99	317.47
497.35	320.72
497.72	324.12
498.08	327.67
498.44	331.31
498.80	335.23
499.17	339.28
499.53	343.43
499.89	347.80
500.26	352.25
500.62	356.89
500.98	361.80
501.34	366.86
501.71	372.24
502.07	377.66
502.43	383.26
502.79	389.12
503.16	395.17
503.52	401.44
503.88	407.86
504.24	414.50
504.60	421.38
504.97	428.51
505.33	435.88
505.69	443.55
506.05	451.31
506.41	459.21
506.78	467.33
507.14	475.84
507.50	484.58
507.86	493.64
508.22	502.85
508.59	512.10
508.95	521.73
509.31	531.56
509.67	541.72
510.03	551.98
510.39	562.52
510.75	573.39
511.12	584.38
511.48	595.67
511.84	607.17
512.20	618.71
512.56	630.68
512.92	642.85
513.28	655.22
513.64	667.73
514.00	680.40
514.37	693.42
514.73	706.55
515.09	719.64
515.45	733.01
515.81	746.58
516.17	760.64
516.53	774.77
516.89	788.89
517.25	803.06
517.61	817.59
517.97	832.09
518.33	846.58
518.69	861.43
519.05	876.44
519.41	891.62
519.77	907.21
520.13	922.73
520.49	938.06
520.85	953.59
521.21	969.35
521.57	985.69
521.93	1001.42
522.29	1017.80
522.65	1034.03
523.01	1050.33
523.37	1066.48
523.73	1082.69
524.09	1098.83
524.45	1115.18
524.81	1131.80
525.17	1148.57
525.53	1165.49
525.89	1182.28
526.25	1199.01
526.61	1215.44
526.97	1232.18
527.33	1248.64
527.68	1265.31
528.04	1281.92
528.40	1298.36
528.76	1315.42
529.12	1331.98
529.48	1348.91
529.84	1364.89
530.20	1381.63
530.56	1398.61
530.91	1416.06
531.27	1432.76
531.63	1449.18
531.99	1465.84
532.35	1481.73
532.71	1497.52
533.07	1513.81
533.42	1529.80
533.78	1545.83
534.14	1562.17
534.50	1577.51
534.86	1593.43
535.21	1608.47
535.57	1624.34
535.93	1639.96
536.29	1654.65
536.65	1669.66
537.00	1684.46
537.36	1699.84
537.72	1714.19
538.08	1728.45
538.44	1742.16
538.79	1756.08
539.15	1769.81
539.51	1783.51
539.87	1797.86
540.22	1811.83
540.58	1825.56
540.94	1838.89
541.29	1851.94
541.65	1864.62
542.01	1877.84
542.37	1890.20
542.72	1902.65
543.08	1914.36
543.44	1926.71
543.79	1938.08
544.15	1949.09
544.51	1960.68
544.87	1971.63
545.22	1982.47
545.58	1992.71
545.94	2002.41
546.29	2012.29
546.65	2022.12
547.01	2031.26
547.36	2040.08
547.72	2048.36
548.07	2056.27
548.43	2064.45
548.79	2072.46
549.14	2079.87
549.50	2087.27
549.86	2095.00
550.21	2102.31
550.57	2109.53
550.92	2116.07
551.28	2123.09
551.64	2130.18
551.99	2136.61
552.35	2142.80
552.70	2148.91
553.06	2154.85
553.41	2161.21
553.77	2167.19
554.13	2173.39
554.48	2179.65
554.84	2185.04
555.19	2190.38
555.55	2195.41
555.90	2199.85
556.26	2204.58
556.61	2209.40
556.97	2213.59
557.32	2217.57
557.68	2221.77
558.03	2226.11
558.39	2229.89
558.74	2234.66
559.10	2238.48
559.45	2242.10
559.81	2246.28
560.16	2250.19
560.52	2253.59
560.87	2257.04
561.23	2259.73
561.58	2262.57
561.94	2264.99
562.29	2267.38
562.64	2270.18
563.00	2272.90
563.35	2276.38
563.71	2279.60
564.06	2282.82
564.42	2285.75
564.77	2288.32
565.12	2290.37
565.48	2292.29
565.83	2294.07
566.19	2295.31
566.54	2296.12
566.89	2297.27
567.25	2297.95
567.60	2299.23
567.96	2300.87
568.31	2301.81
568.66	2302.85
569.02	2303.44
569.37	2303.82
569.72	2304.72
570.08	2304.85
570.43	2304.83
570.78	2304.14
571.14	2302.62
571.49	2301.25
571.84	2300.83
572.20	2299.65
572.55	2298.77
572.90	2297.26
573.26	2295.92
573.61	2294.14
573.96	2292.46
574.31	2289.51
574.67	2286.43
575.02	2282.77
575.37	2279.31
575.72	2275.34
576.08	2272.03
576.43	2268.65
576.78	2264.89
577.13	2261.60
577.49	2258.48
577.84	2254.88
578.19	2251.23
578.54	2247.41
578.90	2243.13
579.25	2237.53
579.60	2232.46
579.95	2227.36
580.30	2222.21
580.66	2216.98
581.01	2211.88
581.36	2206.93
581.71	2202.76
582.06	2198.21
582.42	2193.64
582.77	2188.39
583.12	2183.84
583.47	2178.98
583.82	2173.84
584.17	2168.51
584.53	2162.99
584.88	2157.27
585.23	2151.52
585.58	2146.02
585.93	2140.67
586.28	2135.96
586.63	2130.93
586.98	2125.76
587.34	2121.10
587.69	2116.17
588.04	2110.77
588.39	2105.21
588.74	2098.80
589.09	2092.51
589.44	2085.70
589.79	2079.76
590.14	2074.02
590.49	2067.38
590.84	2061.01
591.19	2055.09
591.54	2048.73
591.89	2041.24
592.25	2034.36
592.60	2027.02
592.95	2019.40
593.30	2011.95
593.65	2004.30
594.00	1997.21
594.35	1990.03
594.70	1981.98
595.05	1974.68
595.40	1967.38
595.75	1959.78
596.10	1953.40
596.45	1946.73
596.80	1940.66
597.15	1934.01
597.50	1926.97
597.85	1920.68
598.19	1913.99
598.54	1906.74
598.89	1900.09
599.24	1894.21
599.59	1887.42
599.94	1881.38
600.29	1874.97
600.64	1868.44
600.99	1860.91
601.34	1854.02
601.69	1847.07
602.04	1840.06
602.39	1832.64
602.74	1825.92
603.08	1819.14
603.43	1812.47
603.78	1805.08
604.13	1797.73
604.48	1790.37
604.83	1783.52
605.18	1776.24
605.53	1768.24
605.87	1760.26
606.22	1753.04
606.57	1745.14
606.92	1737.89
607.27	1730.50
607.62	1723.64
607.96	1716.24
608.31	1709.54
608.66	1701.89
609.01	1694.38
609.36	1686.83
609.70	1678.86
610.05	1670.72
610.40	1662.99
610.75	1654.64
611.10	1646.94
611.44	1638.57
611.79	1630.66
612.14	1621.95
612.49	1612.93
612.83	1604.55
613.18	1596.48
613.53	1588.34
613.88	1579.85
614.22	1571.53
614.57	1562.95
614.92	1554.83
615.27	1547.29
615.61	1539.06
615.96	1531.14
616.31	1523.46
616.65	1516.02
617.00	1508.54
617.35	1500.90
617.70	1492.59
618.04	1484.05
618.39	1475.92
618.74	1468.27
619.08	1459.79
619.43	1452.31
619.78	1445.36
620.12	1438.20
620.47	1430.58
620.82	1422.44
621.16	1415.10
621.51	1407.63
621.85	1400.08
622.20	1391.63
622.55	1383.26
622.89	1375.34
623.24	1367.68
623.59	1360.26
623.93	1352.82
624.28	1345.61
624.62	1337.96
624.97	1330.89
625.32	1324.24
625.66	1317.23
626.01	1310.11
626.35	1302.69
626.70	1294.83
627.04	1287.11
627.39	1279.32
627.73	1272.02
628.08	1265.06
628.43	1257.61
628.77	1250.07
629.12	1242.48
629.46	1235.30
629.81	1227.94
630.15	1220.72
630.50	1213.29
630.84	1205.09
631.19	1197.25
631.53	1189.64
631.88	1182.13
632.22	1174.51
632.57	1167.18
632.91	1159.55
633.26	1152.03
633.60	1144.75
633.95	1137.70
634.29	1130.68
634.64	1124.00
634.98	1116.61
635.32	1109.39
635.67	1102.86
636.01	1096.20
636.36	1089.42
636.70	1082.91
637.05	1076.28
637.39	1069.87
637.73	1063.39
638.08	1057.58
638.42	1051.49
638.77	1044.99
639.11	1038.51
639.45	1032.04
639.80	1025.34
640.14	1018.91
640.49	1012.43
640.83	1006.13
641.17	999.79
641.52	993.42
641.86	986.99
642.20	981.12
642.55	974.91
642.89	968.50
643.23	962.08
643.58	956.34
643.92	950.12
644.26	944.04
644.61	938.03
644.95	931.98
645.29	925.36
645.64	918.68
645.98	912.44
646.32	906.61
646.66	900.56
647.01	894.74
647.35	889.14
647.69	883.29
648.04	877.77
648.38	871.98
648.72	865.98
649.06	859.91
649.41	853.98
649.75	847.98
650.09	841.99
650.43	836.12
650.78	830.00
651.12	824.03
651.46	818.34
651.80	812.61
652.14	807.24
652.49	801.80
652.83	796.58
653.17	790.87
653.51	785.14
653.85	779.86
654.20	774.15
654.54	768.07
654.88	762.42
655.22	756.51
655.56	750.91
655.90	745.52
656.25	740.34
656.59	735.06
656.93	730.03
657.27	724.82
657.61	719.48
657.95	714.30
658.29	709.28
658.64	704.04
658.98	698.69
659.32	693.19
659.66	688.03
660.00	682.69
660.34	677.79
660.68	672.86
661.02	667.73
661.36	663.13
661.70	658.69
662.05	654.36
662.39	649.99
662.73	645.51
663.07	641.14
663.41	636.63
663.75	632.08
664.09	627.52
664.43	623.14
664.77	618.95
665.11	614.73
665.45	610.58
665.79	606.50
666.13	602.35
666.47	598.24
666.81	594.06
667.15	590.02
667.49	586.08
667.83	582.31
668.17	578.37
668.51	574.21
668.85	570.17
669.19	566.30
669.53	562.49
669.87	558.59
670.21	554.91
670.55	551.32
670.89	547.88
671.23	544.44
671.57	540.89
671.91	537.38
672.25	533.88
672.58	530.32
672.92	526.96
673.26	523.79
673.60	520.68
673.94	517.54
674.28	514.62
674.62	511.65
674.96	508.52
675.30	505.62
675.64	502.78
675.97	500.01
676.31	497.07
676.65	494.14
676.99	491.45
677.33	488.53
677.67	485.68
678.01	482.67
678.34	479.67
678.68	476.83
679.02	474.00
679.36	471.26
679.70	468.56
680.04	465.76
680.37	462.87
680.71	460.07
681.05	457.47
681.39	454.74
681.73	452.12
682.06	449.61
682.40	447.07
682.74	444.53
683.08	442.00
683.42	439.48
683.75	437.00
684.09	434.49
684.43	432.02
684.77	429.53
685.10	427.16
685.44	424.89
685.78	422.57
686.12	420.38
686.45	418.06
686.79	415.73
687.13	413.57
687.46	411.44
687.80	409.33
688.14	407.15
688.48	405.17
688.81	402.91
689.15	400.72
689.49	398.55
689.82	396.44
690.16	394.39
690.50	392.43
690.83	390.49
691.17	388.48
691.51	386.63
691.84	384.83
692.18	382.91
692.52	380.90
692.85	379.04
693.19	377.13
693.52	375.32
693.86	373.61
694.20	371.84
694.53	370.01
694.87	368.16
695.21	366.40
695.54	364.53
695.88	362.90
696.21	361.18
696.55	359.53
696.88	357.87
697.22	356.19
697.56	354.61
697.89	352.95
698.23	351.37
698.56	349.77
698.90	348.19
699.23	346.61
699.57	345.07
699.90	343.55
700.24	342.02
700.58	340.51
700.91	338.97
701.25	337.50
701.58	336.20
701.92	334.84
702.25	333.42
702.59	332.10
702.92	330.75
703.26	329.48
703.59	328.22
703.93	327.02
704.26	325.82
704.60	324.50
704.93	323.23
705.26	321.99
705.60	320.79
705.93	319.65
706.27	318.60
706.60	317.56
706.94	316.42
707.27	315.31
707.61	314.25
707.94	313.23
708.27	312.10
708.61	311.00
708.94	310.00
709.28	309.02
709.61	307.99
709.94	307.03
710.28	305.97
710.61	305.02
710.95	303.92
711.28	302.96
711.61	301.98
711.95	301.02
712.28	300.07
712.61	299.06
712.95	298.10
713.28	297.20
713.61	296.32
713.95	295.45
714.28	294.59
714.61	293.71
714.95	292.82
715.28	291.99
715.61	291.09
715.95	290.20
716.28	289.30
716.61	288.48
716.95	287.62
717.28	286.90
717.61	286.09
717.94	285.36
718.28	284.51
718.61	283.79
718.94	283.09
719.27	282.43
719.61	281.80
719.94	281.15
720.27	280.44
720.60	279.74
720.94	279.12
721.27	278.51
721.60	277.96
721.93	277.40
722.27	276.84
722.60	276.30
722.93	275.77
723.26	275.22
723.59	274.68
723.93	274.13
724.26	273.59
724.59	273.05
724.92	272.54
725.25	272.05
725.59	271.53
725.92	271.07
726.25	270.53
726.58	270.04
726.91	269.51
727.24	269.01
727.57	268.54
727.91	268.05
728.24	267.58
728.57	267.08
728.90	266.59
729.23	266.08
729.56	265.68
729.89	265.22
730.22	264.81
730.55	264.31
730.89	263.91
731.22	263.44
731.55	262.98
731.88	262.59
732.21	262.19
732.54	261.75
732.87	261.30
733.20	260.91
733.53	260.52
733.86	260.16
734.19	259.78
734.52	259.45
734.85	259.12
735.18	258.73
735.51	258.34
735.84	257.99
736.17	257.65
736.50	257.27
736.83	257.01
737.16	256.66
737.49	256.35
737.82	255.96
738.15	255.64
738.48	255.34
738.81	254.97
739.14	254.61
739.47	254.32
739.80	254.03
740.13	253.74
740.46	253.42
740.79	253.07
741.12	252.73
741.45	252.36
741.78	252.03
742.11	251.73
742.44	251.44
742.77	251.16
743.10	250.87
743.43	250.54
743.75	250.16
744.08	249.99
744.41	249.73
744.74	249.45
745.07	249.19
745.40	248.93
745.73	248.73
746.06	248.48
746.39	248.24
746.71	247.97
747.04	247.67
747.37	247.41
747.70	247.20
748.03	246.95
748.36	246.72
748.68	246.45
749.01	246.15
749.34	245.91
749.67	245.68
750.00	245.48
750.33	245.34
750.65	245.08
750.98	244.74
751.31	244.53
751.64	244.35
751.97	244.19
752.29	243.98
752.62	243.71
752.95	243.49
753.28	243.26
753.60	243.03
753.93	242.86
754.26	242.69
754.59	242.41
754.91	242.22
755.24	242.03
755.57	241.86
755.90	241.73
756.22	241.54
756.55	241.32
756.88	241.09
757.20	240.87
757.53	240.71
757.86	240.55
758.19	240.41
758.51	240.20
758.84	239.97
759.17	239.82
759.49	239.68
759.82	239.56
760.15	239.41
760.47	239.24
760.80	239.07
761.13	238.92
761.45	238.82
761.78	238.71
762.11	238.58
762.43	238.43
762.76	238.29
763.08	238.19
763.41	238.06
763.74	237.94
764.06	237.76
764.39	237.63
764.71	237.47
765.04	237.27
765.37	237.15
765.69	237.02
766.02	236.89
766.34	236.75
766.67	236.64
767.00	236.54
767.32	236.54
767.65	236.51
767.97	236.40
768.30	236.28
768.62	236.15
768.95	236.01
769.27	235.90
769.60	235.82
769.92	235.70
770.25	235.56
770.57	235.43
770.90	235.38
771.22	235.26
771.55	235.20
771.87	235.15
772.20	235.06
772.52	235.06
772.85	235.07
773.17	234.99
773.50	234.88
773.82	234.78
774.15	234.63
774.47	234.46
774.80	234.37
775.12	234.29
775.45	234.19
775.77	234.13
776.09	234.07
776.42	233.97
776.74	233.89
777.07	233.83
777.39	233.81
777.72	233.69
778.04	233.64
778.36	233.57
778.69	233.52
779.01	233.48
779.33	233.31
779.66	233.17
779.98	233.11
780.31	233.04
780.63	233.02
780.95	232.97
781.28	232.86
781.60	232.75
781.92	232.70
782.25	232.66
782.57	232.59
782.89	232.51
783.22	232.41
783.54	232.32
783.86	232.30
784.19	232.19
784.51	232.16
784.83	232.09
785.16	232.05
785.48	231.97
785.80	231.90
786.12	231.86
786.45	231.81
786.77	231.75
787.09	231.68
