SpectraSuite Data File
++++++++++++++++++++++++++++++++++++
Date: Fri Feb 01 15:53:25 EST 2013
User: group
Dark Spectrum Present: No
Reference Spectrum Present: No
Number of Sampled Component Spectra: 1
Spectrometers: USB2E7196
Integration Time (usec): 35000 (USB2E7196)
Spectra Averaged: 100 (USB2E7196)
Boxcar Smoothing: 10 (USB2E7196)
Correct for Electrical Dark: No (USB2E7196)
Strobe/Lamp Enabled: No (USB2E7196)
Correct for Detector Non-linearity: No (USB2E7196)
Correct for Stray Light: No (USB2E7196)
Number of Pixels in Processed Spectrum: 2048
>>>>>Begin Processed Spectral Data<<<<<
339.09	0.00
339.48	215.18
339.86	216.31
340.24	217.25
340.63	219.77
341.01	221.82
341.39	221.24
341.78	223.17
342.16	224.34
342.54	224.50
342.93	213.05
343.31	223.80
343.69	224.34
344.07	224.79
344.46	225.25
344.84	225.59
345.22	225.83
345.60	226.09
345.99	226.25
346.37	226.36
346.75	226.48
347.13	226.58
347.52	226.65
347.90	226.71
348.28	226.74
348.66	226.82
349.05	226.80
349.43	226.85
349.81	226.90
350.19	226.95
350.57	227.01
350.96	227.08
351.34	227.17
351.72	227.24
352.10	227.36
352.48	227.39
352.87	227.43
353.25	227.49
353.63	227.56
354.01	227.63
354.39	227.73
354.77	227.79
355.15	227.93
355.54	228.00
355.92	228.04
356.30	228.12
356.68	228.21
357.06	228.30
357.44	228.34
357.82	228.41
358.20	228.50
358.58	228.56
358.97	228.62
359.35	228.73
359.73	228.81
360.11	228.84
360.49	228.94
360.87	228.99
361.25	229.06
361.63	229.12
362.01	229.17
362.39	229.15
362.77	229.20
363.15	229.21
363.53	229.21
363.91	229.24
364.29	229.25
364.67	229.20
365.05	229.22
365.43	229.23
365.81	229.28
366.19	229.28
366.57	229.31
366.95	229.30
367.33	229.23
367.71	229.23
368.09	229.23
368.47	229.20
368.85	229.19
369.23	229.19
369.61	229.15
369.99	229.13
370.37	229.13
370.75	229.16
371.13	229.06
371.51	229.03
371.89	229.01
372.27	228.99
372.65	228.93
373.03	228.84
373.41	228.79
373.78	228.69
374.16	228.58
374.54	228.50
374.92	228.43
375.30	228.37
375.68	228.22
376.06	228.17
376.44	228.08
376.82	228.03
377.19	227.94
377.57	227.85
377.95	227.79
378.33	227.71
378.71	227.55
379.09	227.53
379.47	227.47
379.84	227.35
380.22	227.26
380.60	227.19
380.98	227.14
381.36	227.06
381.73	226.96
382.11	226.94
382.49	226.87
382.87	226.84
383.25	226.80
383.62	226.89
384.00	226.81
384.38	226.76
384.76	226.72
385.13	226.70
385.51	226.66
385.89	226.57
386.27	226.55
386.64	226.53
387.02	226.47
387.40	226.41
387.78	226.41
388.15	226.34
388.53	226.31
388.91	226.25
389.29	226.22
389.66	226.20
390.04	226.14
390.42	226.15
390.79	226.12
391.17	226.08
391.55	225.94
391.92	225.91
392.30	225.92
392.68	225.91
393.05	225.90
393.43	225.91
393.81	225.93
394.18	225.91
394.56	225.94
394.94	225.99
395.31	226.04
395.69	226.08
396.06	226.13
396.44	226.14
396.82	226.21
397.19	226.29
397.57	226.35
397.95	226.40
398.32	226.41
398.70	226.45
399.07	226.52
399.45	226.61
399.82	226.70
400.20	226.74
400.58	226.81
400.95	226.85
401.33	226.97
401.70	227.16
402.08	227.24
402.45	227.31
402.83	227.41
403.20	227.48
403.58	227.57
403.95	227.72
404.33	227.89
404.71	228.01
405.08	228.22
405.46	228.37
405.83	228.54
406.21	228.69
406.58	228.87
406.96	229.06
407.33	229.22
407.70	229.41
408.08	229.72
408.45	229.95
408.83	230.17
409.20	230.36
409.58	230.47
409.95	230.75
410.33	231.00
410.70	231.26
411.08	231.55
411.45	231.86
411.82	232.15
412.20	232.53
412.57	232.96
412.95	233.23
413.32	233.64
413.69	234.01
414.07	234.47
414.44	234.90
414.82	235.33
415.19	235.85
415.56	236.39
415.94	236.92
416.31	237.53
416.68	238.17
417.06	238.89
417.43	239.62
417.81	240.38
418.18	241.19
418.55	242.00
418.93	242.89
419.30	243.77
419.67	244.72
420.04	245.62
420.42	246.59
420.79	247.84
421.16	249.04
421.54	250.28
421.91	251.50
422.28	252.80
422.66	254.15
423.03	255.47
423.40	256.83
423.77	258.24
424.15	259.69
424.52	261.16
424.89	262.77
425.26	264.29
425.64	265.71
426.01	267.31
426.38	268.97
426.75	270.64
427.13	272.38
427.50	274.20
427.87	276.08
428.24	277.97
428.61	279.64
428.99	281.53
429.36	283.62
429.73	285.66
430.10	287.67
430.47	289.72
430.85	291.84
431.22	294.07
431.59	296.46
431.96	298.70
432.33	301.22
432.70	303.60
433.08	306.43
433.45	309.13
433.82	311.73
434.19	314.64
434.56	317.47
434.93	320.08
435.30	322.74
435.68	325.65
436.05	328.46
436.42	331.24
436.79	333.78
437.16	336.49
437.53	339.33
437.90	342.15
438.27	344.98
438.64	347.83
439.01	350.40
439.38	352.63
439.75	354.82
440.13	357.28
440.50	359.59
440.87	361.49
441.24	363.41
441.61	365.57
441.98	367.04
442.35	368.80
442.72	370.67
443.09	372.44
443.46	373.40
443.83	373.95
444.20	374.49
444.57	375.30
444.94	375.57
445.31	375.87
445.68	376.24
446.05	376.25
446.42	375.84
446.79	375.46
447.16	375.02
447.53	374.67
447.90	373.48
448.27	372.31
448.64	370.69
449.01	369.49
449.37	367.56
449.74	365.68
450.11	363.44
450.48	361.00
450.85	358.48
451.22	356.35
451.59	354.35
451.96	352.37
452.33	349.76
452.70	347.39
453.07	344.59
453.43	341.65
453.80	338.87
454.17	336.21
454.54	333.63
454.91	330.90
455.28	328.22
455.65	325.78
456.02	323.34
456.38	321.18
456.75	318.56
457.12	316.28
457.49	314.03
457.86	311.90
458.23	309.99
458.59	307.90
458.96	305.79
459.33	303.93
459.70	302.11
460.07	300.62
460.43	298.91
460.80	297.30
461.17	295.85
461.54	294.38
461.91	292.92
462.27	291.50
462.64	290.24
463.01	288.86
463.38	287.56
463.74	286.20
464.11	285.05
464.48	284.00
464.85	282.88
465.21	282.03
465.58	281.09
465.95	280.03
466.32	279.14
466.68	278.25
467.05	277.35
467.42	276.45
467.78	275.51
468.15	274.66
468.52	273.96
468.88	273.13
469.25	272.34
469.62	271.77
469.98	271.10
470.35	270.52
470.72	269.89
471.08	269.20
471.45	268.65
471.82	268.09
472.18	267.48
472.55	267.09
472.92	266.57
473.28	266.11
473.65	265.67
474.02	265.24
474.38	264.88
474.75	264.56
475.11	264.22
475.48	263.99
475.85	263.74
476.21	263.51
476.58	263.29
476.94	263.16
477.31	262.98
477.67	262.83
478.04	262.67
478.41	262.65
478.77	262.73
479.14	262.71
479.50	262.73
479.87	262.80
480.23	262.85
480.60	262.95
480.96	263.05
481.33	263.24
481.69	263.46
482.06	263.67
482.42	263.88
482.79	264.13
483.15	264.42
483.52	264.84
483.88	265.22
484.25	265.65
484.61	266.07
484.98	266.50
485.34	267.04
485.71	267.64
486.07	268.24
486.44	268.82
486.80	269.50
487.17	270.27
487.53	271.13
487.90	271.99
488.26	272.90
488.62	273.90
488.99	274.89
489.35	275.95
489.72	277.07
490.08	278.27
490.44	279.50
490.81	280.84
491.17	282.15
491.54	283.61
491.90	285.13
492.26	286.79
492.63	288.54
492.99	290.36
493.36	292.28
493.72	294.34
494.08	296.41
494.45	298.68
494.81	301.05
495.17	303.41
495.54	305.97
495.90	308.69
496.26	311.53
496.63	314.50
496.99	317.58
497.35	320.86
497.72	324.27
498.08	327.78
498.44	331.45
498.80	335.37
499.17	339.41
499.53	343.56
499.89	347.93
500.26	352.40
500.62	357.00
500.98	361.92
501.34	367.00
501.71	372.35
502.07	377.78
502.43	383.38
502.79	389.26
503.16	395.32
503.52	401.60
503.88	407.92
504.24	414.52
504.60	421.45
504.97	428.58
505.33	435.84
505.69	443.56
506.05	451.33
506.41	459.26
506.78	467.37
507.14	475.87
507.50	484.62
507.86	493.69
508.22	502.94
508.59	512.19
508.95	521.78
509.31	531.54
509.67	541.61
510.03	551.90
510.39	562.45
510.75	573.22
511.12	584.08
511.48	595.38
511.84	606.83
512.20	618.33
512.56	630.23
512.92	642.49
513.28	654.88
513.64	667.41
514.00	680.07
514.37	693.08
514.73	706.13
515.09	719.13
515.45	732.48
515.81	746.11
516.17	760.08
516.53	774.12
516.89	788.38
517.25	802.49
517.61	816.90
517.97	831.30
518.33	845.74
518.69	860.52
519.05	875.45
519.41	890.61
519.77	906.20
520.13	921.71
520.49	937.11
520.85	952.45
521.21	968.19
521.57	984.50
521.93	1000.27
522.29	1016.72
522.65	1032.90
523.01	1049.02
523.37	1064.96
523.73	1081.13
524.09	1097.31
524.45	1113.57
524.81	1130.34
525.17	1147.22
525.53	1164.11
525.89	1180.98
526.25	1197.77
526.61	1214.18
526.97	1230.95
527.33	1247.29
527.68	1263.85
528.04	1280.27
528.40	1296.94
528.76	1313.93
529.12	1330.54
529.48	1347.27
529.84	1363.28
530.20	1380.03
530.56	1397.10
530.91	1414.46
531.27	1431.20
531.63	1447.64
531.99	1464.25
532.35	1480.17
532.71	1495.80
533.07	1512.12
533.42	1528.06
533.78	1544.17
534.14	1560.45
534.50	1575.81
534.86	1591.72
535.21	1606.87
535.57	1622.81
535.93	1638.37
536.29	1653.20
536.65	1668.07
537.00	1682.98
537.36	1698.21
537.72	1712.61
538.08	1726.91
538.44	1740.70
538.79	1754.55
539.15	1768.26
539.51	1782.02
539.87	1796.31
540.22	1810.29
540.58	1824.03
540.94	1837.38
541.29	1850.22
541.65	1862.83
542.01	1876.04
542.37	1888.30
542.72	1900.70
543.08	1912.41
543.44	1924.58
543.79	1935.70
544.15	1946.81
544.51	1958.48
544.87	1969.46
545.22	1980.24
545.58	1990.46
545.94	2000.26
546.29	2010.15
546.65	2019.89
547.01	2028.96
547.36	2037.60
547.72	2045.99
548.07	2053.67
548.43	2061.64
548.79	2069.73
549.14	2077.38
549.50	2084.60
549.86	2092.35
550.21	2099.61
550.57	2106.88
550.92	2113.42
551.28	2120.32
551.64	2127.31
551.99	2133.59
552.35	2139.70
552.70	2145.96
553.06	2151.97
553.41	2158.28
553.77	2164.20
554.13	2170.25
554.48	2176.46
554.84	2181.80
555.19	2187.04
555.55	2192.20
555.90	2196.76
556.26	2201.49
556.61	2206.15
556.97	2210.45
557.32	2214.52
557.68	2218.75
558.03	2222.99
558.39	2226.79
558.74	2231.56
559.10	2235.45
559.45	2239.27
559.81	2243.54
560.16	2247.34
560.52	2250.61
560.87	2254.07
561.23	2256.82
561.58	2259.83
561.94	2262.40
562.29	2264.91
562.64	2267.52
563.00	2270.29
563.35	2273.73
563.71	2276.89
564.06	2280.10
564.42	2283.01
564.77	2285.50
565.12	2287.74
565.48	2289.53
565.83	2291.38
566.19	2292.70
566.54	2293.58
566.89	2294.60
567.25	2295.12
567.60	2296.39
567.96	2298.01
568.31	2298.90
568.66	2299.97
569.02	2300.46
569.37	2300.68
569.72	2301.49
570.08	2301.60
570.43	2301.45
570.78	2300.97
571.14	2299.54
571.49	2298.19
571.84	2297.90
572.20	2296.83
572.55	2295.87
572.90	2294.35
573.26	2293.00
573.61	2291.27
573.96	2289.45
574.31	2286.45
574.67	2283.52
575.02	2279.87
575.37	2276.54
575.72	2272.63
576.08	2269.25
576.43	2266.00
576.78	2262.35
577.13	2259.30
577.49	2256.38
577.84	2252.97
578.19	2249.34
578.54	2245.60
578.90	2241.31
579.25	2235.73
579.60	2230.71
579.95	2225.58
580.30	2220.65
580.66	2215.41
581.01	2210.52
581.36	2205.57
581.71	2201.41
582.06	2196.92
582.42	2192.47
582.77	2187.27
583.12	2182.72
583.47	2178.01
583.82	2172.92
584.17	2167.80
584.53	2162.20
584.88	2156.54
585.23	2150.75
585.58	2145.13
585.93	2139.74
586.28	2135.05
586.63	2129.94
586.98	2124.87
587.34	2120.23
587.69	2115.39
588.04	2110.04
588.39	2104.30
588.74	2097.87
589.09	2091.66
589.44	2084.92
589.79	2079.02
590.14	2073.41
590.49	2066.87
590.84	2060.51
591.19	2054.48
591.54	2047.90
591.89	2040.53
592.25	2033.61
592.60	2026.39
592.95	2018.83
593.30	2011.35
593.65	2003.79
594.00	1996.82
594.35	1989.52
594.70	1981.45
595.05	1974.09
595.40	1966.95
595.75	1959.54
596.10	1953.45
596.45	1946.83
596.80	1940.63
597.15	1933.87
597.50	1926.66
597.85	1920.16
598.19	1913.44
598.54	1906.34
598.89	1899.74
599.24	1893.81
599.59	1887.11
599.94	1880.98
600.29	1874.52
600.64	1868.09
600.99	1860.58
601.34	1853.72
601.69	1846.88
602.04	1839.96
602.39	1832.66
602.74	1825.74
603.08	1819.02
603.43	1812.23
603.78	1804.85
604.13	1797.69
604.48	1790.26
604.83	1783.35
605.18	1776.35
605.53	1768.42
605.87	1760.48
606.22	1753.22
606.57	1745.27
606.92	1738.11
607.27	1730.92
607.62	1724.01
607.96	1716.60
608.31	1710.03
608.66	1702.48
609.01	1694.86
609.36	1687.37
609.70	1679.37
610.05	1671.38
610.40	1663.47
610.75	1655.09
611.10	1647.39
611.44	1638.92
611.79	1631.11
612.14	1622.48
612.49	1613.34
612.83	1604.97
613.18	1596.89
613.53	1588.87
613.88	1580.35
614.22	1571.93
614.57	1563.28
614.92	1555.28
615.27	1547.73
615.61	1539.39
615.96	1531.32
616.31	1523.76
616.65	1516.41
617.00	1508.87
617.35	1501.20
617.70	1492.97
618.04	1484.50
618.39	1476.34
618.74	1468.81
619.08	1460.49
619.43	1452.96
619.78	1446.10
620.12	1438.88
620.47	1431.27
620.82	1423.13
621.16	1415.71
621.51	1408.11
621.85	1400.48
622.20	1392.01
622.55	1383.71
622.89	1375.81
623.24	1368.25
623.59	1360.84
623.93	1353.17
624.28	1345.97
624.62	1338.34
624.97	1331.28
625.32	1324.56
625.66	1317.56
626.01	1310.36
626.35	1302.83
626.70	1295.06
627.04	1287.28
627.39	1279.60
627.73	1272.21
628.08	1265.33
628.43	1258.06
628.77	1250.66
629.12	1243.16
629.46	1236.00
629.81	1228.67
630.15	1221.49
630.50	1213.96
630.84	1205.78
631.19	1197.93
631.53	1190.30
631.88	1182.82
632.22	1175.17
632.57	1167.84
632.91	1160.34
633.26	1152.86
633.60	1145.61
633.95	1138.59
634.29	1131.64
634.64	1124.91
634.98	1117.54
635.32	1110.32
635.67	1103.72
636.01	1097.16
636.36	1090.34
636.70	1083.81
637.05	1077.26
637.39	1070.84
637.73	1064.28
638.08	1058.38
638.42	1052.43
638.77	1046.08
639.11	1039.44
639.45	1033.01
639.80	1026.35
640.14	1019.94
640.49	1013.44
640.83	1007.00
641.17	1000.59
641.52	994.16
641.86	987.70
642.20	981.85
642.55	975.47
642.89	968.99
643.23	962.40
643.58	956.58
643.92	950.29
644.26	944.08
644.61	938.00
644.95	931.96
645.29	925.28
645.64	918.39
645.98	912.05
646.32	906.24
646.66	900.17
647.01	894.36
647.35	888.50
647.69	882.66
648.04	877.19
648.38	871.43
648.72	865.42
649.06	859.33
649.41	853.43
649.75	847.51
650.09	841.61
650.43	835.91
650.78	829.86
651.12	823.92
651.46	818.24
651.80	812.40
652.14	807.10
652.49	801.76
652.83	796.69
653.17	790.95
653.51	785.23
653.85	779.87
654.20	774.24
654.54	768.26
654.88	762.55
655.22	756.69
655.56	751.08
655.90	745.75
656.25	740.49
656.59	735.18
656.93	730.03
657.27	724.85
657.61	719.36
657.95	714.21
658.29	709.22
658.64	703.93
658.98	698.72
659.32	693.21
659.66	687.97
660.00	682.74
660.34	677.85
660.68	672.93
661.02	667.91
661.36	663.20
661.70	658.72
662.05	654.36
662.39	650.04
662.73	645.55
663.07	641.14
663.41	636.72
663.75	632.27
664.09	627.76
664.43	623.35
664.77	619.25
665.11	615.02
665.45	610.85
665.79	606.82
666.13	602.70
666.47	598.69
666.81	594.64
667.15	590.48
667.49	586.53
667.83	582.83
668.17	578.89
668.51	574.78
668.85	570.77
669.19	566.90
669.53	563.01
669.87	559.14
670.21	555.43
670.55	551.81
670.89	548.34
671.23	544.96
671.57	541.45
671.91	537.94
672.25	534.42
672.58	530.93
672.92	527.55
673.26	524.35
673.60	521.21
673.94	518.07
674.28	515.12
674.62	512.25
674.96	509.06
675.30	506.15
675.64	503.26
675.97	500.52
676.31	497.66
676.65	494.75
676.99	492.02
677.33	489.11
677.67	486.26
678.01	483.20
678.34	480.14
678.68	477.26
679.02	474.41
679.36	471.67
679.70	468.94
680.04	466.13
680.37	463.27
680.71	460.41
681.05	457.75
681.39	455.05
681.73	452.34
682.06	449.80
682.40	447.23
682.74	444.68
683.08	442.09
683.42	439.46
683.75	436.94
684.09	434.35
684.43	431.86
684.77	429.41
685.10	427.08
685.44	424.81
685.78	422.52
686.12	420.23
686.45	417.95
686.79	415.66
687.13	413.42
687.46	411.23
687.80	409.14
688.14	406.94
688.48	404.82
688.81	402.55
689.15	400.38
689.49	398.28
689.82	396.21
690.16	394.18
690.50	392.25
690.83	390.33
691.17	388.38
691.51	386.49
691.84	384.64
692.18	382.72
692.52	380.69
692.85	378.76
693.19	376.93
693.52	375.16
693.86	373.30
694.20	371.59
694.53	369.81
694.87	367.96
695.21	366.13
695.54	364.35
695.88	362.65
696.21	360.90
696.55	359.16
696.88	357.47
697.22	355.79
697.56	354.14
697.89	352.49
698.23	350.89
698.56	349.24
698.90	347.63
699.23	345.98
699.57	344.46
699.90	342.93
700.24	341.36
700.58	339.82
700.91	338.36
701.25	336.90
701.58	335.53
701.92	334.13
702.25	332.78
702.59	331.42
702.92	330.10
703.26	328.81
703.59	327.55
703.93	326.35
704.26	325.14
704.60	323.86
704.93	322.60
705.26	321.34
705.60	320.25
705.93	319.12
706.27	318.10
706.60	317.04
706.94	315.96
707.27	314.82
707.61	313.74
707.94	312.73
708.27	311.65
708.61	310.54
708.94	309.57
709.28	308.59
709.61	307.62
709.94	306.65
710.28	305.67
710.61	304.71
710.95	303.66
711.28	302.72
711.61	301.76
711.95	300.80
712.28	299.86
712.61	298.82
712.95	297.87
713.28	296.96
713.61	296.07
713.95	295.17
714.28	294.35
714.61	293.49
714.95	292.66
715.28	291.77
715.61	290.92
715.95	290.11
716.28	289.26
716.61	288.44
716.95	287.66
717.28	286.92
717.61	286.09
717.94	285.35
718.28	284.56
718.61	283.89
718.94	283.20
719.27	282.54
719.61	281.95
719.94	281.29
720.27	280.58
720.60	279.90
720.94	279.28
721.27	278.65
721.60	278.04
721.93	277.40
722.27	276.91
722.60	276.36
722.93	275.73
723.26	275.20
723.59	274.59
723.93	274.03
724.26	273.44
724.59	272.90
724.92	272.32
725.25	271.81
725.59	271.24
725.92	270.76
726.25	270.27
726.58	269.76
726.91	269.32
727.24	268.84
727.57	268.42
727.91	267.93
728.24	267.50
728.57	267.04
728.90	266.59
729.23	266.03
729.56	265.62
729.89	265.17
730.22	264.66
730.55	264.25
730.89	263.80
731.22	263.38
731.55	262.99
731.88	262.60
732.21	262.18
732.54	261.80
732.87	261.39
733.20	260.98
733.53	260.59
733.86	260.12
734.19	259.71
734.52	259.30
734.85	258.96
735.18	258.53
735.51	258.15
735.84	257.76
736.17	257.45
736.50	257.01
736.83	256.76
737.16	256.42
737.49	256.05
737.82	255.71
738.15	255.39
738.48	255.04
738.81	254.73
739.14	254.40
739.47	254.06
739.80	253.74
740.13	253.48
740.46	253.15
740.79	252.88
741.12	252.61
741.45	252.30
741.78	251.97
742.11	251.71
742.44	251.38
742.77	251.14
743.10	250.84
743.43	250.58
743.75	250.21
744.08	250.09
744.41	249.83
744.74	249.54
745.07	249.24
745.40	249.00
745.73	248.74
746.06	248.46
746.39	248.23
746.71	247.96
747.04	247.64
747.37	247.37
747.70	247.08
748.03	246.81
748.36	246.59
748.68	246.35
749.01	246.06
749.34	245.84
749.67	245.57
750.00	245.32
750.33	245.16
750.65	244.97
750.98	244.62
751.31	244.42
751.64	244.23
751.97	244.07
752.29	243.87
752.62	243.63
752.95	243.42
753.28	243.18
753.60	242.99
753.93	242.85
754.26	242.67
754.59	242.51
754.91	242.30
755.24	242.08
755.57	241.90
755.90	241.75
756.22	241.58
756.55	241.39
756.88	241.21
757.20	240.98
757.53	240.73
757.86	240.56
758.19	240.40
758.51	240.21
758.84	240.00
759.17	239.81
759.49	239.66
759.82	239.54
760.15	239.41
760.47	239.22
760.80	239.05
761.13	238.92
761.45	238.74
761.78	238.58
762.11	238.46
762.43	238.30
762.76	238.17
763.08	238.04
763.41	237.95
763.74	237.80
764.06	237.63
764.39	237.53
764.71	237.34
765.04	237.20
765.37	237.08
765.69	236.92
766.02	236.79
766.34	236.65
766.67	236.50
767.00	236.39
767.32	236.29
767.65	236.21
767.97	236.07
768.30	235.97
768.62	235.89
768.95	235.74
769.27	235.61
769.60	235.45
769.92	235.32
770.25	235.13
770.57	235.01
770.90	234.90
771.22	234.81
771.55	234.74
771.87	234.61
772.20	234.53
772.52	234.54
772.85	234.57
773.17	234.51
773.50	234.39
773.82	234.27
774.15	234.17
774.47	234.02
774.80	233.94
775.12	233.86
775.45	233.78
775.77	233.73
776.09	233.67
776.42	233.64
776.74	233.63
777.07	233.60
777.39	233.52
777.72	233.47
778.04	233.39
778.36	233.33
778.69	233.29
779.01	233.22
779.33	233.06
779.66	232.94
779.98	232.84
780.31	232.78
780.63	232.76
780.95	232.70
781.28	232.64
781.60	232.60
781.92	232.52
782.25	232.46
782.57	232.39
782.89	232.32
783.22	232.27
783.54	232.17
783.86	232.10
784.19	232.06
784.51	232.02
784.83	231.97
785.16	231.92
785.48	231.89
785.80	231.86
786.12	231.85
786.45	231.76
786.77	231.75
787.09	231.71
