SpectraSuite Data File
++++++++++++++++++++++++++++++++++++
Date: Fri Feb 01 17:31:05 EST 2013
User: group
Dark Spectrum Present: No
Reference Spectrum Present: No
Number of Sampled Component Spectra: 1
Spectrometers: USB2E7196
Integration Time (usec): 35000 (USB2E7196)
Spectra Averaged: 100 (USB2E7196)
Boxcar Smoothing: 10 (USB2E7196)
Correct for Electrical Dark: No (USB2E7196)
Strobe/Lamp Enabled: No (USB2E7196)
Correct for Detector Non-linearity: No (USB2E7196)
Correct for Stray Light: No (USB2E7196)
Number of Pixels in Processed Spectrum: 2048
>>>>>Begin Processed Spectral Data<<<<<
339.09	0.00
339.48	212.95
339.86	214.47
340.24	216.08
340.63	217.27
341.01	220.23
341.39	219.55
341.78	220.84
342.16	221.98
342.54	222.91
342.93	211.40
343.31	222.11
343.69	222.66
344.07	223.13
344.46	223.55
344.84	223.93
345.22	224.19
345.60	224.45
345.99	224.69
346.37	224.84
346.75	224.98
347.13	225.08
347.52	225.14
347.90	225.18
348.28	225.21
348.66	225.25
349.05	225.26
349.43	225.33
349.81	225.39
350.19	225.41
350.57	225.49
350.96	225.55
351.34	225.61
351.72	225.70
352.10	225.77
352.48	225.86
352.87	225.92
353.25	225.94
353.63	226.02
354.01	226.05
354.39	226.14
354.77	226.19
355.15	226.29
355.54	226.34
355.92	226.41
356.30	226.48
356.68	226.60
357.06	226.69
357.44	226.74
357.82	226.78
358.20	226.86
358.58	226.89
358.97	226.96
359.35	227.01
359.73	227.11
360.11	227.19
360.49	227.22
360.87	227.27
361.25	227.33
361.63	227.42
362.01	227.49
362.39	227.47
362.77	227.49
363.15	227.49
363.53	227.54
363.91	227.54
364.29	227.55
364.67	227.44
365.05	227.42
365.43	227.41
365.81	227.44
366.19	227.48
366.57	227.51
366.95	227.45
367.33	227.42
367.71	227.38
368.09	227.35
368.47	227.34
368.85	227.30
369.23	227.28
369.61	227.20
369.99	227.17
370.37	227.17
370.75	227.21
371.13	227.13
371.51	227.05
371.89	227.00
372.27	226.95
372.65	226.94
373.03	226.88
373.41	226.81
373.78	226.75
374.16	226.65
374.54	226.54
374.92	226.52
375.30	226.46
375.68	226.35
376.06	226.31
376.44	226.21
376.82	226.13
377.19	226.08
377.57	225.98
377.95	225.87
378.33	225.78
378.71	225.65
379.09	225.60
379.47	225.55
379.84	225.50
380.22	225.42
380.60	225.30
380.98	225.23
381.36	225.17
381.73	225.08
382.11	225.06
382.49	225.02
382.87	224.93
383.25	224.90
383.62	224.97
384.00	224.87
384.38	224.83
384.76	224.81
385.13	224.76
385.51	224.75
385.89	224.70
386.27	224.69
386.64	224.63
387.02	224.57
387.40	224.54
387.78	224.51
388.15	224.49
388.53	224.50
388.91	224.52
389.29	224.49
389.66	224.49
390.04	224.42
390.42	224.41
390.79	224.39
391.17	224.36
391.55	224.25
391.92	224.28
392.30	224.29
392.68	224.26
393.05	224.28
393.43	224.33
393.81	224.36
394.18	224.34
394.56	224.36
394.94	224.43
395.31	224.45
395.69	224.51
396.06	224.54
396.44	224.61
396.82	224.62
397.19	224.70
397.57	224.77
397.95	224.88
398.32	224.89
398.70	224.98
399.07	225.07
399.45	225.12
399.82	225.19
400.20	225.25
400.58	225.36
400.95	225.37
401.33	225.43
401.70	225.55
402.08	225.67
402.45	225.77
402.83	225.89
403.20	225.97
403.58	226.07
403.95	226.18
404.33	226.28
404.71	226.41
405.08	226.59
405.46	226.69
405.83	226.80
406.21	226.97
406.58	227.12
406.96	227.27
407.33	227.46
407.70	227.62
408.08	227.90
408.45	228.10
408.83	228.38
409.20	228.57
409.58	228.75
409.95	229.01
410.33	229.30
410.70	229.52
411.08	229.85
411.45	230.17
411.82	230.48
412.20	230.85
412.57	231.30
412.95	231.59
413.32	232.01
413.69	232.42
414.07	232.86
414.44	233.40
414.82	233.91
415.19	234.48
415.56	235.05
415.94	235.62
416.31	236.29
416.68	236.91
417.06	237.64
417.43	238.33
417.81	239.08
418.18	239.87
418.55	240.79
418.93	241.68
419.30	242.61
419.67	243.60
420.04	244.58
420.42	245.59
420.79	246.85
421.16	248.05
421.54	249.28
421.91	250.53
422.28	251.78
422.66	253.11
423.03	254.42
423.40	255.80
423.77	257.23
424.15	258.70
424.52	260.25
424.89	261.94
425.26	263.61
425.64	265.14
426.01	266.80
426.38	268.49
426.75	270.24
427.13	272.03
427.50	273.90
427.87	275.84
428.24	277.79
428.61	279.58
428.99	281.57
429.36	283.76
429.73	285.87
430.10	287.99
430.47	290.20
430.85	292.44
431.22	294.76
431.59	297.22
431.96	299.56
432.33	302.19
432.70	304.65
433.08	307.57
433.45	310.35
433.82	313.07
434.19	316.06
434.56	319.01
434.93	321.75
435.30	324.54
435.68	327.60
436.05	330.59
436.42	333.45
436.79	336.13
437.16	338.95
437.53	341.89
437.90	344.81
438.27	347.66
438.64	350.58
439.01	353.31
439.38	355.67
439.75	357.95
440.13	360.49
440.50	362.92
440.87	364.81
441.24	366.80
441.61	369.09
441.98	370.73
442.35	372.58
442.72	374.55
443.09	376.42
443.46	377.43
443.83	377.99
444.20	378.57
444.57	379.43
444.94	379.79
445.31	380.23
445.68	380.63
446.05	380.75
446.42	380.42
446.79	380.02
447.16	379.58
447.53	379.26
447.90	378.15
448.27	377.02
448.64	375.41
449.01	374.32
449.37	372.27
449.74	370.27
450.11	367.96
450.48	365.41
450.85	362.77
451.22	360.60
451.59	358.55
451.96	356.58
452.33	353.88
452.70	351.39
453.07	348.37
453.43	345.37
453.80	342.43
454.17	339.61
454.54	336.99
454.91	334.17
455.28	331.39
455.65	328.72
456.02	326.16
456.38	323.92
456.75	321.08
457.12	318.70
457.49	316.34
457.86	314.10
458.23	312.14
458.59	310.01
458.96	307.80
459.33	305.83
459.70	303.86
460.07	302.30
460.43	300.54
460.80	298.91
461.17	297.40
461.54	295.88
461.91	294.39
462.27	292.88
462.64	291.56
463.01	290.13
463.38	288.82
463.74	287.33
464.11	286.12
464.48	285.06
464.85	283.94
465.21	283.07
465.58	282.05
465.95	280.89
466.32	279.93
466.68	279.05
467.05	278.10
467.42	277.16
467.78	276.20
468.15	275.26
468.52	274.57
468.88	273.67
469.25	272.84
469.62	272.16
469.98	271.47
470.35	270.81
470.72	270.18
471.08	269.48
471.45	268.92
471.82	268.35
472.18	267.76
472.55	267.29
472.92	266.72
473.28	266.25
473.65	265.83
474.02	265.38
474.38	264.94
474.75	264.62
475.11	264.26
475.48	263.96
475.85	263.75
476.21	263.47
476.58	263.24
476.94	263.09
477.31	262.95
477.67	262.79
478.04	262.67
478.41	262.63
478.77	262.68
479.14	262.66
479.50	262.65
479.87	262.70
480.23	262.77
480.60	262.83
480.96	262.92
481.33	263.10
481.69	263.30
482.06	263.49
482.42	263.66
482.79	263.92
483.15	264.23
483.52	264.57
483.88	264.95
484.25	265.39
484.61	265.81
484.98	266.26
485.34	266.79
485.71	267.41
486.07	267.99
486.44	268.54
486.80	269.22
487.17	269.96
487.53	270.75
487.90	271.59
488.26	272.54
488.62	273.56
488.99	274.50
489.35	275.54
489.72	276.70
490.08	277.91
490.44	279.11
490.81	280.46
491.17	281.81
491.54	283.29
491.90	284.78
492.26	286.43
492.63	288.16
492.99	289.93
493.36	291.77
493.72	293.82
494.08	295.94
494.45	298.16
494.81	300.49
495.17	302.92
495.54	305.49
495.90	308.17
496.26	310.94
496.63	313.92
496.99	317.00
497.35	320.20
497.72	323.64
498.08	327.16
498.44	330.77
498.80	334.66
499.17	338.63
499.53	342.82
499.89	347.17
500.26	351.57
500.62	356.16
500.98	361.09
501.34	366.07
501.71	371.31
502.07	376.74
502.43	382.31
502.79	388.04
503.16	394.06
503.52	400.18
503.88	406.50
504.24	413.06
504.60	419.86
504.97	426.88
505.33	434.09
505.69	441.72
506.05	449.42
506.41	457.14
506.78	465.16
507.14	473.42
507.50	481.90
507.86	490.75
508.22	499.79
508.59	508.81
508.95	518.18
509.31	527.83
509.67	537.63
510.03	547.73
510.39	558.02
510.75	568.51
511.12	579.23
511.48	590.26
511.84	601.44
512.20	612.66
512.56	624.36
512.92	636.19
513.28	648.17
513.64	660.32
514.00	672.71
514.37	685.36
514.73	698.07
515.09	710.92
515.45	723.90
515.81	737.20
516.17	750.82
516.53	764.66
516.89	778.43
517.25	792.33
517.61	806.30
517.97	820.38
518.33	834.46
518.69	848.80
519.05	863.31
519.41	877.99
519.77	893.12
520.13	908.14
520.49	923.06
520.85	937.94
521.21	953.06
521.57	968.89
521.93	984.18
522.29	1000.02
522.65	1015.72
523.01	1031.39
523.37	1046.78
523.73	1062.33
524.09	1077.90
524.45	1093.67
524.81	1109.77
525.17	1126.02
525.53	1142.34
525.89	1158.65
526.25	1175.06
526.61	1190.91
526.97	1207.22
527.33	1223.13
527.68	1239.15
528.04	1255.24
528.40	1271.41
528.76	1288.03
529.12	1304.01
529.48	1320.51
529.84	1336.06
530.20	1352.14
530.56	1368.62
530.91	1385.69
531.27	1402.16
531.63	1418.13
531.99	1434.21
532.35	1449.81
532.71	1465.27
533.07	1481.14
533.42	1496.67
533.78	1512.24
534.14	1528.18
534.50	1543.16
534.86	1558.67
535.21	1573.45
535.57	1588.89
535.93	1603.87
536.29	1618.43
536.65	1633.25
537.00	1647.56
537.36	1662.72
537.72	1676.86
538.08	1691.10
538.44	1704.69
538.79	1718.40
539.15	1731.73
539.51	1745.31
539.87	1759.28
540.22	1772.92
540.58	1786.43
540.94	1799.44
541.29	1812.11
541.65	1824.64
542.01	1837.57
542.37	1849.76
542.72	1862.08
543.08	1873.92
543.44	1886.50
543.79	1897.77
544.15	1908.65
544.51	1920.17
544.87	1930.99
545.22	1941.89
545.58	1952.12
545.94	1961.86
546.29	1971.66
546.65	1981.66
547.01	1991.11
547.36	1999.93
547.72	2008.45
548.07	2016.62
548.43	2024.90
548.79	2032.98
549.14	2040.62
549.50	2048.16
549.86	2055.94
550.21	2063.47
550.57	2070.80
550.92	2077.50
551.28	2084.84
551.64	2092.19
551.99	2098.89
552.35	2105.36
552.70	2111.85
553.06	2118.17
553.41	2124.68
553.77	2130.87
554.13	2137.31
554.48	2143.67
554.84	2149.70
555.19	2155.18
555.55	2160.66
555.90	2165.54
556.26	2170.87
556.61	2176.07
556.97	2180.76
557.32	2185.28
557.68	2189.70
558.03	2194.28
558.39	2198.27
558.74	2203.05
559.10	2207.29
559.45	2211.35
559.81	2215.87
560.16	2219.99
560.52	2223.57
560.87	2227.35
561.23	2230.46
561.58	2233.65
561.94	2236.51
562.29	2238.99
562.64	2242.27
563.00	2245.16
563.35	2249.01
563.71	2252.52
564.06	2255.95
564.42	2259.24
564.77	2262.25
565.12	2265.16
565.48	2267.52
565.83	2269.89
566.19	2271.71
566.54	2272.94
566.89	2274.47
567.25	2275.55
567.60	2277.17
567.96	2279.26
568.31	2280.57
568.66	2282.15
569.02	2283.12
569.37	2283.77
569.72	2285.16
570.08	2285.58
570.43	2286.10
570.78	2286.07
571.14	2285.01
571.49	2283.99
571.84	2284.01
572.20	2283.41
572.55	2282.68
572.90	2281.38
573.26	2280.22
573.61	2278.78
573.96	2277.60
574.31	2275.24
574.67	2272.78
575.02	2269.67
575.37	2266.57
575.72	2263.29
576.08	2260.21
576.43	2257.33
576.78	2254.24
577.13	2251.35
577.49	2248.57
577.84	2245.39
578.19	2241.90
578.54	2238.68
578.90	2235.02
579.25	2229.88
579.60	2225.12
579.95	2220.42
580.30	2215.86
580.66	2211.29
581.01	2206.58
581.36	2202.01
581.71	2198.12
582.06	2193.97
582.42	2189.92
582.77	2185.10
583.12	2180.91
583.47	2176.64
583.82	2172.04
584.17	2167.06
584.53	2161.87
584.88	2156.67
585.23	2151.28
585.58	2146.14
585.93	2140.77
586.28	2136.14
586.63	2131.43
586.98	2126.66
587.34	2122.29
587.69	2117.61
588.04	2112.71
588.39	2107.54
588.74	2101.16
589.09	2095.26
589.44	2088.82
589.79	2082.82
590.14	2077.33
590.49	2070.90
590.84	2064.74
591.19	2058.84
591.54	2052.59
591.89	2045.63
592.25	2039.21
592.60	2032.27
592.95	2024.97
593.30	2018.13
593.65	2010.82
594.00	2003.85
594.35	1996.72
594.70	1988.82
595.05	1981.95
595.40	1974.60
595.75	1967.15
596.10	1961.27
596.45	1954.72
596.80	1948.64
597.15	1942.27
597.50	1935.66
597.85	1929.29
598.19	1922.71
598.54	1915.84
598.89	1909.31
599.24	1903.49
599.59	1896.87
599.94	1890.59
600.29	1884.38
600.64	1877.74
600.99	1870.51
601.34	1863.79
601.69	1856.96
602.04	1850.21
602.39	1842.89
602.74	1836.20
603.08	1829.59
603.43	1822.82
603.78	1815.52
604.13	1808.38
604.48	1801.32
604.83	1794.30
605.18	1787.62
605.53	1779.83
605.87	1771.95
606.22	1764.83
606.57	1756.88
606.92	1749.39
607.27	1742.47
607.62	1735.61
607.96	1728.38
608.31	1721.86
608.66	1714.41
609.01	1707.04
609.36	1699.53
609.70	1691.50
610.05	1683.55
610.40	1675.78
610.75	1667.54
611.10	1659.90
611.44	1651.36
611.79	1643.26
612.14	1634.62
612.49	1625.25
612.83	1616.70
613.18	1608.35
613.53	1600.14
613.88	1591.59
614.22	1583.35
614.57	1574.50
614.92	1566.38
615.27	1558.83
615.61	1550.39
615.96	1542.14
616.31	1534.34
616.65	1526.88
617.00	1519.30
617.35	1511.42
617.70	1503.21
618.04	1494.68
618.39	1486.32
618.74	1478.81
619.08	1470.32
619.43	1462.62
619.78	1455.57
620.12	1448.45
620.47	1440.79
620.82	1432.46
621.16	1424.89
621.51	1417.17
621.85	1409.51
622.20	1400.88
622.55	1392.32
622.89	1384.33
623.24	1376.61
623.59	1368.96
623.93	1361.31
624.28	1353.95
624.62	1346.42
624.97	1339.04
625.32	1332.09
625.66	1324.97
626.01	1317.66
626.35	1310.36
626.70	1302.50
627.04	1294.75
627.39	1286.80
627.73	1279.51
628.08	1272.55
628.43	1265.22
628.77	1257.77
629.12	1250.11
629.46	1242.94
629.81	1235.46
630.15	1228.11
630.50	1220.68
630.84	1212.58
631.19	1204.56
631.53	1196.93
631.88	1189.19
632.22	1181.51
632.57	1174.11
632.91	1166.48
633.26	1158.93
633.60	1151.28
633.95	1144.07
634.29	1136.95
634.64	1130.21
634.98	1122.72
635.32	1115.55
635.67	1108.79
636.01	1102.16
636.36	1095.36
636.70	1088.64
637.05	1082.06
637.39	1075.59
637.73	1069.01
638.08	1063.02
638.42	1056.94
638.77	1050.48
639.11	1043.95
639.45	1037.49
639.80	1030.83
640.14	1024.42
640.49	1017.84
640.83	1011.46
641.17	1005.28
641.52	998.81
641.86	992.22
642.20	986.36
642.55	979.89
642.89	973.45
643.23	966.74
643.58	960.93
643.92	954.77
644.26	948.73
644.61	942.62
644.95	936.59
645.29	930.08
645.64	923.31
645.98	916.82
646.32	910.92
646.66	904.98
647.01	899.13
647.35	893.44
647.69	887.54
648.04	881.99
648.38	876.13
648.72	870.27
649.06	864.27
649.41	858.27
649.75	852.31
650.09	846.40
650.43	840.70
650.78	834.54
651.12	828.52
651.46	822.66
651.80	816.98
652.14	811.54
652.49	806.07
652.83	800.91
653.17	795.41
653.51	789.69
653.85	784.10
654.20	778.51
654.54	772.44
654.88	766.67
655.22	760.77
655.56	754.96
655.90	749.41
656.25	744.16
656.59	738.79
656.93	733.66
657.27	728.43
657.61	722.93
657.95	717.80
658.29	712.73
658.64	707.49
658.98	702.09
659.32	696.57
659.66	691.35
660.00	686.10
660.34	681.04
660.68	676.14
661.02	671.18
661.36	666.36
661.70	661.86
662.05	657.52
662.39	653.15
662.73	648.69
663.07	644.33
663.41	639.86
663.75	635.38
664.09	630.79
664.43	626.39
664.77	622.23
665.11	617.94
665.45	613.81
665.79	609.73
666.13	605.60
666.47	601.53
666.81	597.38
667.15	593.16
667.49	589.25
667.83	585.33
668.17	581.33
668.51	577.28
668.85	573.25
669.19	569.35
669.53	565.58
669.87	561.72
670.21	557.97
670.55	554.29
670.89	550.81
671.23	547.41
671.57	543.89
671.91	540.36
672.25	536.81
672.58	533.26
672.92	529.76
673.26	526.50
673.60	523.27
673.94	520.15
674.28	517.21
674.62	514.24
674.96	511.15
675.30	508.25
675.64	505.30
675.97	502.45
676.31	499.59
676.65	496.67
676.99	493.99
677.33	491.07
677.67	488.30
678.01	485.27
678.34	482.28
678.68	479.37
679.02	476.55
679.36	473.80
679.70	471.08
680.04	468.36
680.37	465.57
680.71	462.76
681.05	460.09
681.39	457.26
681.73	454.56
682.06	452.04
682.40	449.46
682.74	446.88
683.08	444.25
683.42	441.57
683.75	438.96
684.09	436.34
684.43	433.86
684.77	431.27
685.10	428.90
685.44	426.51
685.78	424.15
686.12	421.82
686.45	419.47
686.79	417.12
687.13	414.89
687.46	412.64
687.80	410.45
688.14	408.20
688.48	406.18
688.81	403.88
689.15	401.64
689.49	399.46
689.82	397.36
690.16	395.27
690.50	393.32
690.83	391.42
691.17	389.38
691.51	387.43
691.84	385.62
692.18	383.66
692.52	381.73
692.85	379.79
693.19	377.91
693.52	376.02
693.86	374.17
694.20	372.35
694.53	370.56
694.87	368.72
695.21	366.91
695.54	365.03
695.88	363.27
696.21	361.50
696.55	359.79
696.88	358.07
697.22	356.38
697.56	354.71
697.89	353.04
698.23	351.45
698.56	349.84
698.90	348.21
699.23	346.58
699.57	344.99
699.90	343.45
700.24	341.89
700.58	340.37
700.91	338.83
701.25	337.37
701.58	336.00
701.92	334.62
702.25	333.30
702.59	331.93
702.92	330.62
703.26	329.32
703.59	328.02
703.93	326.83
704.26	325.60
704.60	324.28
704.93	322.97
705.26	321.71
705.60	320.51
705.93	319.33
706.27	318.26
706.60	317.17
706.94	316.07
707.27	314.94
707.61	313.85
707.94	312.83
708.27	311.73
708.61	310.64
708.94	309.58
709.28	308.53
709.61	307.56
709.94	306.62
710.28	305.63
710.61	304.67
710.95	303.56
711.28	302.66
711.61	301.72
711.95	300.83
712.28	299.86
712.61	298.93
712.95	297.96
713.28	297.06
713.61	296.13
713.95	295.23
714.28	294.37
714.61	293.49
714.95	292.63
715.28	291.77
715.61	290.87
715.95	289.99
716.28	289.09
716.61	288.23
716.95	287.35
717.28	286.55
717.61	285.70
717.94	284.98
718.28	284.12
718.61	283.38
718.94	282.64
719.27	281.97
719.61	281.25
719.94	280.57
720.27	279.83
720.60	279.17
720.94	278.49
721.27	277.83
721.60	277.27
721.93	276.65
722.27	276.07
722.60	275.51
722.93	274.94
723.26	274.37
723.59	273.80
723.93	273.24
724.26	272.66
724.59	272.12
724.92	271.55
725.25	271.06
725.59	270.50
725.92	270.00
726.25	269.48
726.58	268.99
726.91	268.51
727.24	268.01
727.57	267.52
727.91	267.00
728.24	266.54
728.57	265.98
728.90	265.50
729.23	264.96
729.56	264.51
729.89	264.04
730.22	263.57
730.55	263.05
730.89	262.58
731.22	262.12
731.55	261.67
731.88	261.24
732.21	260.77
732.54	260.35
732.87	259.89
733.20	259.46
733.53	259.03
733.86	258.63
734.19	258.24
734.52	257.86
734.85	257.56
735.18	257.15
735.51	256.83
735.84	256.47
736.17	256.10
736.50	255.67
736.83	255.43
737.16	255.09
737.49	254.80
737.82	254.49
738.15	254.18
738.48	253.82
738.81	253.47
739.14	253.13
739.47	252.83
739.80	252.51
740.13	252.23
740.46	251.90
740.79	251.58
741.12	251.26
741.45	250.94
741.78	250.61
742.11	250.32
742.44	250.00
742.77	249.70
743.10	249.43
743.43	249.14
743.75	248.73
744.08	248.61
744.41	248.33
744.74	248.04
745.07	247.77
745.40	247.52
745.73	247.31
746.06	247.07
746.39	246.78
746.71	246.54
747.04	246.27
747.37	246.01
747.70	245.79
748.03	245.60
748.36	245.40
748.68	245.16
749.01	244.91
749.34	244.69
749.67	244.46
750.00	244.22
750.33	244.08
750.65	243.86
750.98	243.48
751.31	243.29
751.64	243.08
751.97	242.91
752.29	242.70
752.62	242.40
752.95	242.19
753.28	241.97
753.60	241.77
753.93	241.58
754.26	241.42
754.59	241.17
754.91	240.91
755.24	240.70
755.57	240.49
755.90	240.33
756.22	240.10
756.55	239.86
756.88	239.67
757.20	239.45
757.53	239.25
757.86	239.06
758.19	238.84
758.51	238.68
758.84	238.45
759.17	238.25
759.49	238.09
759.82	237.96
760.15	237.82
760.47	237.60
760.80	237.41
761.13	237.23
761.45	237.05
761.78	236.87
762.11	236.69
762.43	236.52
762.76	236.35
763.08	236.20
763.41	236.09
763.74	235.94
764.06	235.79
764.39	235.67
764.71	235.51
765.04	235.40
765.37	235.26
765.69	235.11
766.02	234.98
766.34	234.86
766.67	234.68
767.00	234.55
767.32	234.50
767.65	234.45
767.97	234.31
768.30	234.20
768.62	234.10
768.95	233.97
769.27	233.86
769.60	233.77
769.92	233.67
770.25	233.52
770.57	233.40
770.90	233.28
771.22	233.17
771.55	233.10
771.87	232.99
772.20	232.91
772.52	232.93
772.85	232.97
773.17	232.89
773.50	232.79
773.82	232.71
774.15	232.57
774.47	232.42
774.80	232.34
775.12	232.26
775.45	232.18
775.77	232.13
776.09	232.05
776.42	231.99
776.74	231.96
777.07	231.91
777.39	231.87
777.72	231.77
778.04	231.71
778.36	231.65
778.69	231.60
779.01	231.51
779.33	231.34
779.66	231.17
779.98	231.09
780.31	231.09
780.63	231.05
780.95	231.04
781.28	230.98
781.60	230.92
781.92	230.85
782.25	230.83
782.57	230.74
782.89	230.71
783.22	230.62
783.54	230.56
783.86	230.53
784.19	230.45
784.51	230.50
784.83	230.43
785.16	230.38
785.48	230.32
785.80	230.28
786.12	230.29
786.45	230.24
786.77	230.21
787.09	230.14
