SpectraSuite Data File
++++++++++++++++++++++++++++++++++++
Date: Fri Feb 01 14:54:33 EST 2013
User: group
Dark Spectrum Present: No
Reference Spectrum Present: No
Number of Sampled Component Spectra: 1
Spectrometers: USB2E7196
Integration Time (usec): 35000 (USB2E7196)
Spectra Averaged: 100 (USB2E7196)
Boxcar Smoothing: 10 (USB2E7196)
Correct for Electrical Dark: No (USB2E7196)
Strobe/Lamp Enabled: No (USB2E7196)
Correct for Detector Non-linearity: No (USB2E7196)
Correct for Stray Light: No (USB2E7196)
Number of Pixels in Processed Spectrum: 2048
>>>>>Begin Processed Spectral Data<<<<<
339.09	0.00
339.48	215.54
339.86	216.91
340.24	218.14
340.63	219.64
341.01	222.45
341.39	222.79
341.78	223.42
342.16	224.51
342.54	225.75
342.93	213.73
343.31	224.55
343.69	225.08
344.07	225.56
344.46	225.99
344.84	226.39
345.22	226.63
345.60	226.86
345.99	227.06
346.37	227.22
346.75	227.30
347.13	227.35
347.52	227.39
347.90	227.47
348.28	227.51
348.66	227.56
349.05	227.53
349.43	227.57
349.81	227.60
350.19	227.64
350.57	227.70
350.96	227.79
351.34	227.87
351.72	227.94
352.10	228.01
352.48	228.08
352.87	228.11
353.25	228.17
353.63	228.22
354.01	228.29
354.39	228.36
354.77	228.41
355.15	228.51
355.54	228.55
355.92	228.60
356.30	228.63
356.68	228.76
357.06	228.83
357.44	228.89
357.82	228.96
358.20	229.02
358.58	229.10
358.97	229.12
359.35	229.18
359.73	229.25
360.11	229.28
360.49	229.32
360.87	229.36
361.25	229.42
361.63	229.47
362.01	229.50
362.39	229.52
362.77	229.57
363.15	229.60
363.53	229.64
363.91	229.67
364.29	229.70
364.67	229.62
365.05	229.64
365.43	229.65
365.81	229.63
366.19	229.68
366.57	229.70
366.95	229.73
367.33	229.68
367.71	229.65
368.09	229.71
368.47	229.68
368.85	229.67
369.23	229.63
369.61	229.59
369.99	229.60
370.37	229.58
370.75	229.60
371.13	229.54
371.51	229.49
371.89	229.41
372.27	229.36
372.65	229.31
373.03	229.29
373.41	229.23
373.78	229.17
374.16	229.05
374.54	228.97
374.92	228.91
375.30	228.85
375.68	228.76
376.06	228.66
376.44	228.61
376.82	228.51
377.19	228.43
377.57	228.34
377.95	228.23
378.33	228.13
378.71	227.96
379.09	227.88
379.47	227.81
379.84	227.75
380.22	227.70
380.60	227.61
380.98	227.49
381.36	227.44
381.73	227.39
382.11	227.35
382.49	227.23
382.87	227.15
383.25	227.12
383.62	227.19
384.00	227.12
384.38	227.04
384.76	227.06
385.13	227.04
385.51	227.01
385.89	226.95
386.27	226.90
386.64	226.91
387.02	226.88
387.40	226.83
387.78	226.77
388.15	226.74
388.53	226.70
388.91	226.65
389.29	226.62
389.66	226.63
390.04	226.60
390.42	226.63
390.79	226.61
391.17	226.56
391.55	226.44
391.92	226.43
392.30	226.45
392.68	226.38
393.05	226.40
393.43	226.44
393.81	226.45
394.18	226.47
394.56	226.45
394.94	226.48
395.31	226.50
395.69	226.58
396.06	226.61
396.44	226.67
396.82	226.77
397.19	226.83
397.57	226.84
397.95	226.90
398.32	226.91
398.70	226.99
399.07	227.10
399.45	227.16
399.82	227.25
400.20	227.30
400.58	227.39
400.95	227.41
401.33	227.52
401.70	227.67
402.08	227.77
402.45	227.92
402.83	228.04
403.20	228.14
403.58	228.26
403.95	228.40
404.33	228.53
404.71	228.63
405.08	228.83
405.46	228.99
405.83	229.16
406.21	229.33
406.58	229.52
406.96	229.68
407.33	229.88
407.70	230.05
408.08	230.34
408.45	230.59
408.83	230.83
409.20	231.01
409.58	231.18
409.95	231.44
410.33	231.69
410.70	231.92
411.08	232.27
411.45	232.55
411.82	232.88
412.20	233.25
412.57	233.69
412.95	233.96
413.32	234.40
413.69	234.80
414.07	235.24
414.44	235.71
414.82	236.19
415.19	236.72
415.56	237.30
415.94	237.86
416.31	238.51
416.68	239.17
417.06	239.91
417.43	240.63
417.81	241.42
418.18	242.24
418.55	243.11
418.93	243.98
419.30	244.89
419.67	245.81
420.04	246.78
420.42	247.76
420.79	248.98
421.16	250.13
421.54	251.31
421.91	252.53
422.28	253.74
422.66	255.11
423.03	256.43
423.40	257.76
423.77	259.15
424.15	260.59
424.52	262.04
424.89	263.65
425.26	265.19
425.64	266.65
426.01	268.23
426.38	269.87
426.75	271.51
427.13	273.28
427.50	275.09
427.87	276.94
428.24	278.81
428.61	280.55
428.99	282.46
429.36	284.54
429.73	286.64
430.10	288.67
430.47	290.67
430.85	292.82
431.22	295.09
431.59	297.46
431.96	299.65
432.33	302.19
432.70	304.53
433.08	307.35
433.45	309.96
433.82	312.58
434.19	315.50
434.56	318.34
434.93	320.96
435.30	323.57
435.68	326.47
436.05	329.32
436.42	332.10
436.79	334.62
437.16	337.31
437.53	340.13
437.90	342.96
438.27	345.72
438.64	348.48
439.01	351.04
439.38	353.29
439.75	355.45
440.13	357.91
440.50	360.28
440.87	362.10
441.24	364.08
441.61	366.27
441.98	367.75
442.35	369.55
442.72	371.41
443.09	373.23
443.46	374.21
443.83	374.77
444.20	375.26
444.57	376.08
444.94	376.42
445.31	376.75
445.68	377.10
446.05	377.16
446.42	376.80
446.79	376.38
447.16	375.90
447.53	375.59
447.90	374.42
448.27	373.25
448.64	371.64
449.01	370.47
449.37	368.46
449.74	366.55
450.11	364.26
450.48	361.77
450.85	359.21
451.22	357.03
451.59	354.99
451.96	353.05
452.33	350.44
452.70	348.03
453.07	345.15
453.43	342.27
453.80	339.52
454.17	336.88
454.54	334.31
454.91	331.63
455.28	328.96
455.65	326.49
456.02	324.06
456.38	321.91
456.75	319.23
457.12	316.96
457.49	314.75
457.86	312.57
458.23	310.72
458.59	308.74
458.96	306.67
459.33	304.82
459.70	302.97
460.07	301.46
460.43	299.79
460.80	298.18
461.17	296.73
461.54	295.24
461.91	293.78
462.27	292.37
462.64	291.12
463.01	289.74
463.38	288.42
463.74	287.03
464.11	285.88
464.48	284.86
464.85	283.75
465.21	282.87
465.58	281.95
465.95	280.82
466.32	279.87
466.68	279.02
467.05	278.11
467.42	277.20
467.78	276.27
468.15	275.36
468.52	274.68
468.88	273.84
469.25	273.06
469.62	272.45
469.98	271.74
470.35	271.08
470.72	270.51
471.08	269.88
471.45	269.35
471.82	268.80
472.18	268.19
472.55	267.75
472.92	267.20
473.28	266.74
473.65	266.30
474.02	265.86
474.38	265.45
474.75	265.15
475.11	264.83
475.48	264.53
475.85	264.29
476.21	264.04
476.58	263.81
476.94	263.62
477.31	263.43
477.67	263.28
478.04	263.19
478.41	263.10
478.77	263.12
479.14	263.02
479.50	263.02
479.87	263.08
480.23	263.15
480.60	263.21
480.96	263.29
481.33	263.48
481.69	263.64
482.06	263.82
482.42	263.99
482.79	264.20
483.15	264.53
483.52	264.90
483.88	265.26
484.25	265.62
484.61	266.05
484.98	266.49
485.34	267.04
485.71	267.58
486.07	268.17
486.44	268.72
486.80	269.41
487.17	270.13
487.53	270.92
487.90	271.73
488.26	272.64
488.62	273.59
488.99	274.51
489.35	275.54
489.72	276.62
490.08	277.80
490.44	279.02
490.81	280.31
491.17	281.66
491.54	283.14
491.90	284.67
492.26	286.26
492.63	287.98
492.99	289.71
493.36	291.61
493.72	293.61
494.08	295.70
494.45	297.92
494.81	300.26
495.17	302.64
495.54	305.22
495.90	307.88
496.26	310.69
496.63	313.68
496.99	316.81
497.35	320.05
497.72	323.47
498.08	326.96
498.44	330.60
498.80	334.49
499.17	338.47
499.53	342.59
499.89	346.93
500.26	351.38
500.62	356.05
500.98	360.98
501.34	366.01
501.71	371.33
502.07	376.71
502.43	382.29
502.79	388.12
503.16	394.14
503.52	400.42
503.88	406.70
504.24	413.32
504.60	420.18
504.97	427.29
505.33	434.63
505.69	442.29
506.05	450.05
506.41	457.90
506.78	466.05
507.14	474.55
507.50	483.30
507.86	492.35
508.22	501.50
508.59	510.68
508.95	520.26
509.31	530.01
509.67	540.09
510.03	550.40
510.39	560.94
510.75	571.71
511.12	582.62
511.48	593.96
511.84	605.42
512.20	616.95
512.56	628.94
512.92	641.04
513.28	653.36
513.64	665.85
514.00	678.51
514.37	691.37
514.73	704.36
515.09	717.45
515.45	730.69
515.81	744.21
516.17	758.21
516.53	772.38
516.89	786.56
517.25	800.77
517.61	815.17
517.97	829.63
518.33	844.13
518.69	858.98
519.05	874.06
519.41	889.18
519.77	904.73
520.13	920.21
520.49	935.65
520.85	951.15
521.21	966.88
521.57	983.17
521.93	999.02
522.29	1015.51
522.65	1031.71
523.01	1047.98
523.37	1064.12
523.73	1080.30
524.09	1096.41
524.45	1112.82
524.81	1129.61
525.17	1146.52
525.53	1163.53
525.89	1180.38
526.25	1197.19
526.61	1213.67
526.97	1230.54
527.33	1247.06
527.68	1263.65
528.04	1280.11
528.40	1296.84
528.76	1313.97
529.12	1330.64
529.48	1347.69
529.84	1363.80
530.20	1380.72
530.56	1397.94
530.91	1415.45
531.27	1432.37
531.63	1448.93
531.99	1465.59
532.35	1481.56
532.71	1497.50
533.07	1513.90
533.42	1529.92
533.78	1546.15
534.14	1562.42
534.50	1577.78
534.86	1593.82
535.21	1609.03
535.57	1625.17
535.93	1640.72
536.29	1655.65
536.65	1670.80
537.00	1685.55
537.36	1700.89
537.72	1715.34
538.08	1729.74
538.44	1743.71
538.79	1757.62
539.15	1771.45
539.51	1785.33
539.87	1799.74
540.22	1813.51
540.58	1827.19
540.94	1840.65
541.29	1853.64
541.65	1866.48
542.01	1879.85
542.37	1892.08
542.72	1904.72
543.08	1916.48
543.44	1928.90
543.79	1940.02
544.15	1950.97
544.51	1962.60
544.87	1973.53
545.22	1984.32
545.58	1994.59
545.94	2004.23
546.29	2014.17
546.65	2023.90
547.01	2033.09
547.36	2041.83
547.72	2050.38
548.07	2058.28
548.43	2066.42
548.79	2074.46
549.14	2081.90
549.50	2089.18
549.86	2096.97
550.21	2104.14
550.57	2111.49
550.92	2118.08
551.28	2125.17
551.64	2132.28
551.99	2138.95
552.35	2145.09
552.70	2151.25
553.06	2157.10
553.41	2163.47
553.77	2169.41
554.13	2175.57
554.48	2181.68
554.84	2187.06
555.19	2192.36
555.55	2197.47
555.90	2201.88
556.26	2206.56
556.61	2211.11
556.97	2215.19
557.32	2219.28
557.68	2223.42
558.03	2227.39
558.39	2230.95
558.74	2235.56
559.10	2239.35
559.45	2242.85
559.81	2247.29
560.16	2251.01
560.52	2254.16
560.87	2257.51
561.23	2260.06
561.58	2262.86
561.94	2265.20
562.29	2267.63
562.64	2270.13
563.00	2272.86
563.35	2276.34
563.71	2279.38
564.06	2282.64
564.42	2285.51
564.77	2287.83
565.12	2289.98
565.48	2291.69
565.83	2293.37
566.19	2294.60
566.54	2295.39
566.89	2296.29
567.25	2296.62
567.60	2297.88
567.96	2299.31
568.31	2299.99
568.66	2300.85
569.02	2301.24
569.37	2301.49
569.72	2302.08
570.08	2301.99
570.43	2301.60
570.78	2300.59
571.14	2298.93
571.49	2297.55
571.84	2296.96
572.20	2295.57
572.55	2294.19
572.90	2292.58
573.26	2291.06
573.61	2289.11
573.96	2287.13
574.31	2284.19
574.67	2280.90
575.02	2277.06
575.37	2273.56
575.72	2269.50
576.08	2266.09
576.43	2262.67
576.78	2258.77
577.13	2255.26
577.49	2252.07
577.84	2248.46
578.19	2244.67
578.54	2240.71
578.90	2236.19
579.25	2230.54
579.60	2225.41
579.95	2220.34
580.30	2215.18
580.66	2209.80
581.01	2204.70
581.36	2199.50
581.71	2194.89
582.06	2190.29
582.42	2185.47
582.77	2180.23
583.12	2175.51
583.47	2170.59
583.82	2165.34
584.17	2159.82
584.53	2154.20
584.88	2148.30
585.23	2142.33
585.58	2136.78
585.93	2131.18
586.28	2126.33
586.63	2121.14
586.98	2115.91
587.34	2111.10
587.69	2105.96
588.04	2100.53
588.39	2094.66
588.74	2088.25
589.09	2082.06
589.44	2075.09
589.79	2069.19
590.14	2063.45
590.49	2056.76
590.84	2050.16
591.19	2043.98
591.54	2037.49
591.89	2030.03
592.25	2023.10
592.60	2015.85
592.95	2008.18
593.30	2000.74
593.65	1992.92
594.00	1985.67
594.35	1978.39
594.70	1970.19
595.05	1962.85
595.40	1955.55
595.75	1948.08
596.10	1941.68
596.45	1934.85
596.80	1928.67
597.15	1921.79
597.50	1914.54
597.85	1908.15
598.19	1901.44
598.54	1894.30
598.89	1887.58
599.24	1881.58
599.59	1874.86
599.94	1868.58
600.29	1862.20
600.64	1855.54
600.99	1848.01
601.34	1841.22
601.69	1834.29
602.04	1827.46
602.39	1820.16
602.74	1813.36
603.08	1806.51
603.43	1799.83
603.78	1792.49
604.13	1785.12
604.48	1777.78
604.83	1770.82
605.18	1763.72
605.53	1755.74
605.87	1747.70
606.22	1740.56
606.57	1732.80
606.92	1725.55
607.27	1718.34
607.62	1711.29
607.96	1704.09
608.31	1697.61
608.66	1690.03
609.01	1682.57
609.36	1675.02
609.70	1667.05
610.05	1658.92
610.40	1651.37
610.75	1643.05
611.10	1635.46
611.44	1627.22
611.79	1619.41
612.14	1610.87
612.49	1601.91
612.83	1593.66
613.18	1585.63
613.53	1577.55
613.88	1569.04
614.22	1560.82
614.57	1552.22
614.92	1544.30
615.27	1536.78
615.61	1528.42
615.96	1520.45
616.31	1512.78
616.65	1505.47
617.00	1497.97
617.35	1490.41
617.70	1481.99
618.04	1473.49
618.39	1465.27
618.74	1457.81
619.08	1449.52
619.43	1441.93
619.78	1434.98
620.12	1427.83
620.47	1420.41
620.82	1412.34
621.16	1404.90
621.51	1397.39
621.85	1390.00
622.20	1381.57
622.55	1373.31
622.89	1365.59
623.24	1357.98
623.59	1350.67
623.93	1343.09
624.28	1335.93
624.62	1328.48
624.97	1321.42
625.32	1314.82
625.66	1307.90
626.01	1300.63
626.35	1293.26
626.70	1285.61
627.04	1277.96
627.39	1270.33
627.73	1262.97
628.08	1256.05
628.43	1248.85
628.77	1241.50
629.12	1233.86
629.46	1226.73
629.81	1219.38
630.15	1212.23
630.50	1204.92
630.84	1196.68
631.19	1188.97
631.53	1181.55
631.88	1174.08
632.22	1166.55
632.57	1159.28
632.91	1151.88
633.26	1144.60
633.60	1137.27
633.95	1130.26
634.29	1123.29
634.64	1116.57
634.98	1109.24
635.32	1102.25
635.67	1095.69
636.01	1089.15
636.36	1082.45
636.70	1076.07
637.05	1069.54
637.39	1063.09
637.73	1056.71
638.08	1050.94
638.42	1045.00
638.77	1038.57
639.11	1031.99
639.45	1025.70
639.80	1019.05
640.14	1012.59
640.49	1006.18
640.83	999.98
641.17	993.77
641.52	987.50
641.86	981.25
642.20	975.57
642.55	969.33
642.89	962.88
643.23	956.46
643.58	950.77
643.92	944.61
644.26	938.59
644.61	932.64
644.95	926.58
645.29	920.12
645.64	913.41
645.98	907.10
646.32	901.44
646.66	895.42
647.01	889.68
647.35	884.02
647.69	878.20
648.04	872.80
648.38	867.21
648.72	861.26
649.06	855.17
649.41	849.25
649.75	843.24
650.09	837.39
650.43	831.51
650.78	825.37
651.12	819.44
651.46	813.82
651.80	808.03
652.14	802.72
652.49	797.37
652.83	792.21
653.17	786.55
653.51	780.72
653.85	775.40
654.20	769.81
654.54	763.90
654.88	758.26
655.22	752.36
655.56	746.55
655.90	741.18
656.25	735.99
656.59	730.67
656.93	725.60
657.27	720.48
657.61	715.16
657.95	710.14
658.29	705.13
658.64	699.90
658.98	694.69
659.32	689.22
659.66	684.00
660.00	678.73
660.34	673.92
660.68	669.15
661.02	664.18
661.36	659.50
661.70	655.08
662.05	650.75
662.39	646.40
662.73	642.03
663.07	637.62
663.41	633.16
663.75	628.64
664.09	624.16
664.43	619.80
664.77	615.73
665.11	611.47
665.45	607.43
665.79	603.35
666.13	599.30
666.47	595.25
666.81	591.16
667.15	587.09
667.49	583.18
667.83	579.44
668.17	575.53
668.51	571.51
668.85	567.47
669.19	563.63
669.53	559.84
669.87	556.00
670.21	552.39
670.55	548.81
670.89	545.51
671.23	542.10
671.57	538.61
671.91	535.09
672.25	531.65
672.58	528.07
672.92	524.70
673.26	521.54
673.60	518.44
673.94	515.38
674.28	512.47
674.62	509.61
674.96	506.44
675.30	503.49
675.64	500.62
675.97	497.91
676.31	495.06
676.65	492.13
676.99	489.44
677.33	486.58
677.67	483.73
678.01	480.70
678.34	477.72
678.68	474.90
679.02	472.07
679.36	469.41
679.70	466.78
680.04	464.07
680.37	461.21
680.71	458.44
681.05	455.85
681.39	453.24
681.73	450.60
682.06	448.14
682.40	445.66
682.74	443.12
683.08	440.61
683.42	438.03
683.75	435.60
684.09	433.09
684.43	430.65
684.77	428.25
685.10	426.02
685.44	423.80
685.78	421.54
686.12	419.39
686.45	417.10
686.79	414.81
687.13	412.68
687.46	410.58
687.80	408.49
688.14	406.34
688.48	404.27
688.81	401.98
689.15	399.86
689.49	397.75
689.82	395.76
690.16	393.69
690.50	391.79
690.83	389.90
691.17	388.00
691.51	386.13
691.84	384.39
692.18	382.41
692.52	380.41
692.85	378.49
693.19	376.64
693.52	374.83
693.86	373.05
694.20	371.28
694.53	369.49
694.87	367.63
695.21	365.84
695.54	364.10
695.88	362.47
696.21	360.77
696.55	359.12
696.88	357.43
697.22	355.79
697.56	354.17
697.89	352.51
698.23	350.88
698.56	349.29
698.90	347.67
699.23	346.04
699.57	344.51
699.90	342.98
700.24	341.38
700.58	339.86
700.91	338.35
701.25	336.91
701.58	335.54
701.92	334.22
702.25	332.83
702.59	331.41
702.92	330.06
703.26	328.77
703.59	327.49
703.93	326.33
704.26	325.08
704.60	323.79
704.93	322.50
705.26	321.20
705.60	320.04
705.93	318.92
706.27	317.90
706.60	316.86
706.94	315.81
707.27	314.73
707.61	313.66
707.94	312.64
708.27	311.54
708.61	310.49
708.94	309.46
709.28	308.49
709.61	307.53
709.94	306.61
710.28	305.58
710.61	304.59
710.95	303.52
711.28	302.60
711.61	301.64
711.95	300.75
712.28	299.81
712.61	298.83
712.95	297.88
713.28	296.99
713.61	296.08
713.95	295.18
714.28	294.33
714.61	293.45
714.95	292.62
715.28	291.80
715.61	290.95
715.95	290.14
716.28	289.28
716.61	288.47
716.95	287.66
717.28	286.92
717.61	286.14
717.94	285.41
718.28	284.64
718.61	283.99
718.94	283.29
719.27	282.67
719.61	282.06
719.94	281.40
720.27	280.72
720.60	280.09
720.94	279.46
721.27	278.91
721.60	278.39
721.93	277.79
722.27	277.22
722.60	276.65
722.93	276.04
723.26	275.56
723.59	275.01
723.93	274.48
724.26	273.95
724.59	273.46
724.92	272.93
725.25	272.49
725.59	271.93
725.92	271.46
726.25	270.98
726.58	270.48
726.91	269.99
727.24	269.52
727.57	269.07
727.91	268.56
728.24	268.09
728.57	267.62
728.90	267.21
729.23	266.73
729.56	266.32
729.89	265.91
730.22	265.40
730.55	264.94
730.89	264.47
731.22	264.05
731.55	263.60
731.88	263.17
732.21	262.72
732.54	262.31
732.87	261.85
733.20	261.42
733.53	261.05
733.86	260.68
734.19	260.31
734.52	259.92
734.85	259.67
735.18	259.28
735.51	258.92
735.84	258.49
736.17	258.14
736.50	257.76
736.83	257.48
737.16	257.18
737.49	256.89
737.82	256.53
738.15	256.19
738.48	255.83
738.81	255.53
739.14	255.21
739.47	254.86
739.80	254.59
740.13	254.29
740.46	253.94
740.79	253.66
741.12	253.31
741.45	253.00
741.78	252.61
742.11	252.29
742.44	251.94
742.77	251.69
743.10	251.37
743.43	251.06
743.75	250.69
744.08	250.54
744.41	250.21
744.74	249.95
745.07	249.63
745.40	249.39
745.73	249.15
746.06	248.84
746.39	248.63
746.71	248.33
747.04	248.06
747.37	247.80
747.70	247.52
748.03	247.24
748.36	247.00
748.68	246.80
749.01	246.54
749.34	246.31
749.67	246.07
750.00	245.83
750.33	245.65
750.65	245.42
750.98	245.04
751.31	244.80
751.64	244.59
751.97	244.43
752.29	244.20
752.62	243.92
752.95	243.71
753.28	243.46
753.60	243.25
753.93	243.07
754.26	242.89
754.59	242.65
754.91	242.47
755.24	242.26
755.57	242.06
755.90	241.87
756.22	241.66
756.55	241.46
756.88	241.27
757.20	241.05
757.53	240.87
757.86	240.75
758.19	240.61
758.51	240.47
758.84	240.28
759.17	240.10
759.49	239.96
759.82	239.82
760.15	239.67
760.47	239.52
760.80	239.38
761.13	239.25
761.45	239.09
761.78	238.96
762.11	238.87
762.43	238.72
762.76	238.59
763.08	238.47
763.41	238.34
763.74	238.25
764.06	238.11
764.39	237.95
764.71	237.79
765.04	237.67
765.37	237.52
765.69	237.41
766.02	237.28
766.34	237.15
766.67	237.02
767.00	236.95
767.32	236.90
767.65	236.84
767.97	236.71
768.30	236.61
768.62	236.47
768.95	236.35
769.27	236.24
769.60	236.17
769.92	236.06
770.25	235.98
770.57	235.85
770.90	235.77
771.22	235.72
771.55	235.65
771.87	235.56
772.20	235.47
772.52	235.46
772.85	235.50
773.17	235.42
773.50	235.31
773.82	235.19
774.15	235.04
774.47	234.86
774.80	234.79
775.12	234.75
775.45	234.70
775.77	234.60
776.09	234.54
776.42	234.48
776.74	234.43
777.07	234.32
777.39	234.24
777.72	234.15
778.04	234.04
778.36	233.98
778.69	233.91
779.01	233.84
779.33	233.69
779.66	233.52
779.98	233.46
780.31	233.43
780.63	233.38
780.95	233.36
781.28	233.32
781.60	233.25
781.92	233.12
782.25	233.05
782.57	232.98
782.89	232.90
783.22	232.77
783.54	232.68
783.86	232.65
784.19	232.60
784.51	232.58
784.83	232.52
785.16	232.44
785.48	232.37
785.80	232.28
786.12	232.24
786.45	232.17
786.77	232.14
787.09	232.05
