SpectraSuite Data File
++++++++++++++++++++++++++++++++++++
Date: Fri Feb 01 14:55:49 EST 2013
User: group
Dark Spectrum Present: No
Reference Spectrum Present: No
Number of Sampled Component Spectra: 1
Spectrometers: USB2E7196
Integration Time (usec): 35000 (USB2E7196)
Spectra Averaged: 100 (USB2E7196)
Boxcar Smoothing: 10 (USB2E7196)
Correct for Electrical Dark: No (USB2E7196)
Strobe/Lamp Enabled: No (USB2E7196)
Correct for Detector Non-linearity: No (USB2E7196)
Correct for Stray Light: No (USB2E7196)
Number of Pixels in Processed Spectrum: 2048
>>>>>Begin Processed Spectral Data<<<<<
339.09	0.00
339.48	215.09
339.86	216.88
340.24	218.68
340.63	218.94
341.01	222.23
341.39	221.82
341.78	223.89
342.16	224.74
342.54	225.57
342.93	213.70
343.31	224.52
343.69	225.08
344.07	225.55
344.46	225.96
344.84	226.36
345.22	226.59
345.60	226.88
345.99	227.05
346.37	227.20
346.75	227.30
347.13	227.35
347.52	227.43
347.90	227.48
348.28	227.47
348.66	227.53
349.05	227.53
349.43	227.56
349.81	227.59
350.19	227.65
350.57	227.70
350.96	227.78
351.34	227.82
351.72	227.92
352.10	228.03
352.48	228.08
352.87	228.15
353.25	228.22
353.63	228.27
354.01	228.32
354.39	228.39
354.77	228.45
355.15	228.57
355.54	228.59
355.92	228.63
356.30	228.73
356.68	228.84
357.06	228.91
357.44	228.97
357.82	229.06
358.20	229.12
358.58	229.14
358.97	229.20
359.35	229.29
359.73	229.34
360.11	229.35
360.49	229.40
360.87	229.44
361.25	229.50
361.63	229.53
362.01	229.62
362.39	229.61
362.77	229.65
363.15	229.67
363.53	229.70
363.91	229.71
364.29	229.68
364.67	229.60
365.05	229.60
365.43	229.65
365.81	229.65
366.19	229.67
366.57	229.71
366.95	229.67
367.33	229.63
367.71	229.58
368.09	229.60
368.47	229.56
368.85	229.54
369.23	229.52
369.61	229.47
369.99	229.42
370.37	229.40
370.75	229.38
371.13	229.31
371.51	229.25
371.89	229.23
372.27	229.19
372.65	229.15
373.03	229.11
373.41	228.99
373.78	228.89
374.16	228.77
374.54	228.67
374.92	228.60
375.30	228.52
375.68	228.43
376.06	228.32
376.44	228.25
376.82	228.19
377.19	228.13
377.57	228.06
377.95	227.93
378.33	227.83
378.71	227.70
379.09	227.64
379.47	227.57
379.84	227.46
380.22	227.36
380.60	227.26
380.98	227.16
381.36	227.08
381.73	227.01
382.11	226.96
382.49	226.89
382.87	226.78
383.25	226.75
383.62	226.77
384.00	226.73
384.38	226.69
384.76	226.62
385.13	226.59
385.51	226.56
385.89	226.50
386.27	226.48
386.64	226.45
387.02	226.39
387.40	226.32
387.78	226.30
388.15	226.30
388.53	226.29
388.91	226.28
389.29	226.27
389.66	226.27
390.04	226.26
390.42	226.29
390.79	226.32
391.17	226.28
391.55	226.21
391.92	226.19
392.30	226.22
392.68	226.19
393.05	226.18
393.43	226.20
393.81	226.25
394.18	226.24
394.56	226.26
394.94	226.30
395.31	226.38
395.69	226.46
396.06	226.52
396.44	226.54
396.82	226.62
397.19	226.72
397.57	226.75
397.95	226.82
398.32	226.83
398.70	226.91
399.07	227.02
399.45	227.07
399.82	227.14
400.20	227.21
400.58	227.31
400.95	227.36
401.33	227.47
401.70	227.64
402.08	227.75
402.45	227.86
402.83	228.00
403.20	228.09
403.58	228.19
403.95	228.31
404.33	228.46
404.71	228.58
405.08	228.77
405.46	228.92
405.83	229.08
406.21	229.24
406.58	229.43
406.96	229.59
407.33	229.78
407.70	230.01
408.08	230.29
408.45	230.52
408.83	230.81
409.20	231.02
409.58	231.20
409.95	231.49
410.33	231.79
410.70	232.04
411.08	232.37
411.45	232.67
411.82	233.01
412.20	233.38
412.57	233.79
412.95	234.11
413.32	234.54
413.69	234.95
414.07	235.41
414.44	235.88
414.82	236.37
415.19	236.91
415.56	237.47
415.94	237.99
416.31	238.61
416.68	239.21
417.06	239.95
417.43	240.62
417.81	241.36
418.18	242.15
418.55	242.96
418.93	243.82
419.30	244.71
419.67	245.64
420.04	246.61
420.42	247.60
420.79	248.76
421.16	249.92
421.54	251.12
421.91	252.37
422.28	253.62
422.66	254.95
423.03	256.29
423.40	257.60
423.77	259.03
424.15	260.42
424.52	261.87
424.89	263.45
425.26	264.99
425.64	266.44
426.01	268.02
426.38	269.64
426.75	271.29
427.13	273.01
427.50	274.78
427.87	276.67
428.24	278.54
428.61	280.29
428.99	282.23
429.36	284.34
429.73	286.36
430.10	288.35
430.47	290.39
430.85	292.49
431.22	294.72
431.59	297.05
431.96	299.36
432.33	301.85
432.70	304.25
433.08	307.06
433.45	309.72
433.82	312.33
434.19	315.25
434.56	318.15
434.93	320.84
435.30	323.46
435.68	326.36
436.05	329.18
436.42	331.96
436.79	334.48
437.16	337.18
437.53	340.04
437.90	342.86
438.27	345.64
438.64	348.47
439.01	351.08
439.38	353.34
439.75	355.49
440.13	357.99
440.50	360.29
440.87	362.17
441.24	364.14
441.61	366.28
441.98	367.79
442.35	369.55
442.72	371.41
443.09	373.22
443.46	374.18
443.83	374.76
444.20	375.27
444.57	376.12
444.94	376.40
445.31	376.69
445.68	377.06
446.05	377.12
446.42	376.74
446.79	376.29
447.16	375.87
447.53	375.55
447.90	374.42
448.27	373.28
448.64	371.64
449.01	370.46
449.37	368.49
449.74	366.60
450.11	364.31
450.48	361.79
450.85	359.29
451.22	357.13
451.59	355.11
451.96	353.16
452.33	350.54
452.70	348.19
453.07	345.36
453.43	342.42
453.80	339.64
454.17	336.95
454.54	334.40
454.91	331.68
455.28	328.96
455.65	326.46
456.02	324.02
456.38	321.94
456.75	319.27
457.12	316.98
457.49	314.73
457.86	312.58
458.23	310.71
458.59	308.64
458.96	306.56
459.33	304.69
459.70	302.81
460.07	301.31
460.43	299.53
460.80	297.91
461.17	296.45
461.54	294.95
461.91	293.56
462.27	292.13
462.64	290.88
463.01	289.57
463.38	288.25
463.74	286.86
464.11	285.68
464.48	284.65
464.85	283.56
465.21	282.67
465.58	281.71
465.95	280.60
466.32	279.68
466.68	278.79
467.05	277.90
467.42	276.98
467.78	276.03
468.15	275.16
468.52	274.49
468.88	273.65
469.25	272.87
469.62	272.19
469.98	271.50
470.35	270.83
470.72	270.21
471.08	269.56
471.45	268.99
471.82	268.41
472.18	267.83
472.55	267.35
472.92	266.86
473.28	266.39
473.65	265.92
474.02	265.46
474.38	265.09
474.75	264.74
475.11	264.43
475.48	264.15
475.85	263.90
476.21	263.67
476.58	263.49
476.94	263.37
477.31	263.20
477.67	263.01
478.04	262.89
478.41	262.82
478.77	262.84
479.14	262.80
479.50	262.84
479.87	262.89
480.23	263.02
480.60	263.05
480.96	263.15
481.33	263.40
481.69	263.55
482.06	263.74
482.42	263.93
482.79	264.14
483.15	264.45
483.52	264.82
483.88	265.18
484.25	265.54
484.61	265.92
484.98	266.38
485.34	266.97
485.71	267.55
486.07	268.13
486.44	268.70
486.80	269.40
487.17	270.07
487.53	270.86
487.90	271.70
488.26	272.66
488.62	273.63
488.99	274.58
489.35	275.63
489.72	276.75
490.08	277.92
490.44	279.20
490.81	280.51
491.17	281.92
491.54	283.37
491.90	284.90
492.26	286.53
492.63	288.22
492.99	289.98
493.36	291.85
493.72	293.89
494.08	295.95
494.45	298.14
494.81	300.55
495.17	302.98
495.54	305.50
495.90	308.17
496.26	310.94
496.63	313.84
496.99	316.96
497.35	320.18
497.72	323.56
498.08	327.02
498.44	330.67
498.80	334.53
499.17	338.53
499.53	342.65
499.89	346.96
500.26	351.47
500.62	356.06
500.98	361.01
501.34	366.07
501.71	371.39
502.07	376.83
502.43	382.41
502.79	388.12
503.16	394.17
503.52	400.41
503.88	406.77
504.24	413.37
504.60	420.21
504.97	427.29
505.33	434.60
505.69	442.28
506.05	450.02
506.41	457.88
506.78	466.03
507.14	474.52
507.50	483.26
507.86	492.20
508.22	501.32
508.59	510.50
508.95	520.04
509.31	529.83
509.67	539.90
510.03	550.07
510.39	560.65
510.75	571.44
511.12	582.31
511.48	593.64
511.84	605.09
512.20	616.54
512.56	628.44
512.92	640.62
513.28	652.90
513.64	665.36
514.00	678.06
514.37	690.94
514.73	703.84
515.09	716.88
515.45	730.29
515.81	743.95
516.17	757.92
516.53	772.07
516.89	786.29
517.25	800.48
517.61	814.98
517.97	829.46
518.33	843.90
518.69	858.77
519.05	873.76
519.41	889.02
519.77	904.67
520.13	920.22
520.49	935.63
520.85	951.12
521.21	966.86
521.57	983.25
521.93	999.19
522.29	1015.75
522.65	1032.08
523.01	1048.34
523.37	1064.51
523.73	1080.81
524.09	1097.00
524.45	1113.34
524.81	1130.06
525.17	1146.96
525.53	1163.93
525.89	1180.87
526.25	1197.68
526.61	1214.13
526.97	1230.94
527.33	1247.47
527.68	1264.22
528.04	1280.80
528.40	1297.56
528.76	1314.69
529.12	1331.28
529.48	1348.11
529.84	1364.21
530.20	1380.95
530.56	1398.00
530.91	1415.43
531.27	1432.14
531.63	1448.72
531.99	1465.36
532.35	1481.37
532.71	1497.27
533.07	1513.61
533.42	1529.62
533.78	1545.79
534.14	1562.14
534.50	1577.61
534.86	1593.55
535.21	1608.62
535.57	1624.70
535.93	1640.27
536.29	1655.16
536.65	1670.29
537.00	1685.16
537.36	1700.64
537.72	1715.16
538.08	1729.63
538.44	1743.64
538.79	1757.72
539.15	1771.41
539.51	1785.31
539.87	1799.87
540.22	1813.70
540.58	1827.59
540.94	1840.98
541.29	1853.95
541.65	1866.67
542.01	1879.89
542.37	1892.32
542.72	1904.96
543.08	1916.75
543.44	1929.21
543.79	1940.56
544.15	1951.64
544.51	1963.31
544.87	1974.29
545.22	1985.19
545.58	1995.42
545.94	2005.02
546.29	2015.00
546.65	2024.82
547.01	2034.11
547.36	2042.83
547.72	2051.30
548.07	2059.10
548.43	2067.31
548.79	2075.38
549.14	2082.92
549.50	2090.34
549.86	2098.03
550.21	2105.19
550.57	2112.40
550.92	2118.90
551.28	2125.95
551.64	2132.98
551.99	2139.51
552.35	2145.61
552.70	2151.73
553.06	2157.75
553.41	2164.08
553.77	2170.05
554.13	2176.18
554.48	2182.20
554.84	2187.42
555.19	2192.71
555.55	2197.74
555.90	2202.04
556.26	2206.79
556.61	2211.53
556.97	2215.60
557.32	2219.81
557.68	2223.95
558.03	2228.11
558.39	2231.81
558.74	2236.35
559.10	2240.12
559.45	2243.68
559.81	2247.84
560.16	2251.59
560.52	2254.65
560.87	2258.10
561.23	2260.51
561.58	2263.44
561.94	2265.86
562.29	2268.29
562.64	2270.83
563.00	2273.63
563.35	2277.25
563.71	2280.37
564.06	2283.47
564.42	2286.40
564.77	2288.64
565.12	2290.70
565.48	2292.55
565.83	2294.27
566.19	2295.39
566.54	2296.28
566.89	2297.36
567.25	2297.77
567.60	2298.92
567.96	2300.49
568.31	2301.14
568.66	2302.27
569.02	2302.63
569.37	2302.85
569.72	2303.41
570.08	2303.51
570.43	2303.32
570.78	2302.34
571.14	2300.55
571.49	2299.08
571.84	2298.43
572.20	2297.11
572.55	2296.00
572.90	2294.30
573.26	2292.76
573.61	2290.95
573.96	2288.93
574.31	2285.74
574.67	2282.64
575.02	2278.71
575.37	2275.17
575.72	2271.27
576.08	2267.78
576.43	2264.27
576.78	2260.39
577.13	2257.19
577.49	2253.96
577.84	2250.29
578.19	2246.56
578.54	2242.72
578.90	2238.30
579.25	2232.59
579.60	2227.44
579.95	2222.29
580.30	2217.08
580.66	2211.69
581.01	2206.70
581.36	2201.63
581.71	2197.10
582.06	2192.51
582.42	2187.95
582.77	2182.64
583.12	2177.77
583.47	2172.78
583.82	2167.59
584.17	2162.27
584.53	2156.72
584.88	2150.92
585.23	2144.96
585.58	2139.39
585.93	2133.87
586.28	2129.08
586.63	2123.83
586.98	2118.62
587.34	2113.77
587.69	2108.74
588.04	2103.45
588.39	2097.49
588.74	2090.86
589.09	2084.72
589.44	2077.84
589.79	2071.85
590.14	2066.02
590.49	2059.48
590.84	2052.92
591.19	2046.79
591.54	2040.23
591.89	2032.52
592.25	2025.47
592.60	2018.12
592.95	2010.32
593.30	2002.75
593.65	1994.93
594.00	1987.93
594.35	1980.67
594.70	1972.52
595.05	1965.05
595.40	1957.56
595.75	1950.05
596.10	1943.71
596.45	1936.74
596.80	1930.54
597.15	1923.66
597.50	1916.39
597.85	1909.89
598.19	1903.23
598.54	1896.13
598.89	1889.34
599.24	1883.48
599.59	1876.70
599.94	1870.45
600.29	1864.15
600.64	1857.72
600.99	1850.10
601.34	1843.21
601.69	1836.22
602.04	1829.24
602.39	1821.88
602.74	1815.09
603.08	1808.34
603.43	1801.57
603.78	1794.32
604.13	1786.99
604.48	1779.68
604.83	1772.97
605.18	1765.91
605.53	1757.91
605.87	1749.76
606.22	1742.65
606.57	1734.71
606.92	1727.46
607.27	1720.24
607.62	1713.25
607.96	1705.82
608.31	1699.32
608.66	1691.65
609.01	1684.04
609.36	1676.64
609.70	1668.83
610.05	1660.69
610.40	1652.94
610.75	1644.62
611.10	1637.07
611.44	1628.76
611.79	1620.91
612.14	1612.24
612.49	1603.20
612.83	1594.73
613.18	1586.73
613.53	1578.61
613.88	1570.23
614.22	1562.04
614.57	1553.60
614.92	1545.58
615.27	1538.05
615.61	1529.68
615.96	1521.79
616.31	1514.25
616.65	1506.89
617.00	1499.22
617.35	1491.63
617.70	1483.30
618.04	1474.96
618.39	1466.76
618.74	1459.17
619.08	1450.91
619.43	1443.34
619.78	1436.36
620.12	1429.33
620.47	1421.73
620.82	1413.63
621.16	1406.10
621.51	1398.51
621.85	1390.87
622.20	1382.48
622.55	1374.34
622.89	1366.68
623.24	1359.11
623.59	1351.66
623.93	1344.18
624.28	1337.06
624.62	1329.58
624.97	1322.50
625.32	1315.76
625.66	1308.78
626.01	1301.59
626.35	1294.24
626.70	1286.59
627.04	1279.00
627.39	1271.36
627.73	1263.95
628.08	1257.00
628.43	1249.74
628.77	1242.42
629.12	1234.91
629.46	1227.72
629.81	1220.33
630.15	1213.12
630.50	1205.77
630.84	1197.68
631.19	1189.88
631.53	1182.49
631.88	1175.14
632.22	1167.63
632.57	1160.39
632.91	1152.93
633.26	1145.65
633.60	1138.31
633.95	1131.28
634.29	1124.33
634.64	1117.64
634.98	1110.50
635.32	1103.50
635.67	1097.10
636.01	1090.48
636.36	1083.70
636.70	1077.31
637.05	1070.70
637.39	1064.36
637.73	1057.91
638.08	1052.17
638.42	1046.14
638.77	1039.66
639.11	1033.01
639.45	1026.63
639.80	1020.03
640.14	1013.58
640.49	1007.03
640.83	1000.83
641.17	994.64
641.52	988.33
641.86	982.06
642.20	976.28
642.55	970.04
642.89	963.52
643.23	957.08
643.58	951.31
643.92	945.10
644.26	939.14
644.61	933.15
644.95	927.17
645.29	920.52
645.64	913.79
645.98	907.55
646.32	901.75
646.66	895.80
647.01	890.04
647.35	884.43
647.69	878.69
648.04	873.15
648.38	867.38
648.72	861.41
649.06	855.28
649.41	849.38
649.75	843.35
650.09	837.36
650.43	831.57
650.78	825.52
651.12	819.64
651.46	813.91
651.80	808.14
652.14	802.70
652.49	797.39
652.83	792.28
653.17	786.53
653.51	780.83
653.85	775.43
654.20	769.78
654.54	763.86
654.88	758.18
655.22	752.29
655.56	746.61
655.90	741.16
656.25	735.99
656.59	730.71
656.93	725.68
657.27	720.64
657.61	715.21
657.95	710.09
658.29	705.02
658.64	699.89
658.98	694.67
659.32	689.27
659.66	684.11
660.00	678.85
660.34	674.05
660.68	669.22
661.02	664.28
661.36	659.55
661.70	655.06
662.05	650.75
662.39	646.44
662.73	642.03
663.07	637.74
663.41	633.27
663.75	628.82
664.09	624.29
664.43	620.00
664.77	615.92
665.11	611.70
665.45	607.64
665.79	603.52
666.13	599.37
666.47	595.35
666.81	591.20
667.15	587.14
667.49	583.24
667.83	579.44
668.17	575.51
668.51	571.51
668.85	567.59
669.19	563.73
669.53	559.96
669.87	556.13
670.21	552.43
670.55	548.84
670.89	545.39
671.23	541.98
671.57	538.47
671.91	535.01
672.25	531.65
672.58	528.10
672.92	524.74
673.26	521.62
673.60	518.48
673.94	515.45
674.28	512.61
674.62	509.72
674.96	506.67
675.30	503.77
675.64	500.86
675.97	498.07
676.31	495.23
676.65	492.30
676.99	489.64
677.33	486.80
677.67	484.02
678.01	481.09
678.34	478.15
678.68	475.33
679.02	472.51
679.36	469.74
679.70	467.12
680.04	464.40
680.37	461.51
680.71	458.82
681.05	456.26
681.39	453.54
681.73	450.89
682.06	448.38
682.40	445.88
682.74	443.45
683.08	440.95
683.42	438.43
683.75	435.96
684.09	433.44
684.43	430.99
684.77	428.52
685.10	426.17
685.44	423.86
685.78	421.59
686.12	419.43
686.45	417.20
686.79	414.88
687.13	412.71
687.46	410.64
687.80	408.46
688.14	406.29
688.48	404.23
688.81	402.01
689.15	399.88
689.49	397.76
689.82	395.67
690.16	393.56
690.50	391.65
690.83	389.75
691.17	387.80
691.51	385.96
691.84	384.16
692.18	382.28
692.52	380.37
692.85	378.38
693.19	376.48
693.52	374.62
693.86	372.88
694.20	371.15
694.53	369.36
694.87	367.54
695.21	365.71
695.54	363.93
695.88	362.22
696.21	360.49
696.55	358.82
696.88	357.16
697.22	355.56
697.56	353.93
697.89	352.25
698.23	350.62
698.56	349.00
698.90	347.39
699.23	345.71
699.57	344.16
699.90	342.69
700.24	341.16
700.58	339.65
700.91	338.10
701.25	336.67
701.58	335.31
701.92	333.92
702.25	332.56
702.59	331.19
702.92	329.86
703.26	328.56
703.59	327.26
703.93	326.08
704.26	324.83
704.60	323.52
704.93	322.28
705.26	321.08
705.60	319.90
705.93	318.74
706.27	317.73
706.60	316.65
706.94	315.60
707.27	314.48
707.61	313.45
707.94	312.44
708.27	311.31
708.61	310.24
708.94	309.25
709.28	308.26
709.61	307.32
709.94	306.39
710.28	305.38
710.61	304.43
710.95	303.38
711.28	302.49
711.61	301.54
711.95	300.62
712.28	299.65
712.61	298.68
712.95	297.76
713.28	296.86
713.61	295.96
713.95	295.07
714.28	294.27
714.61	293.39
714.95	292.56
715.28	291.70
715.61	290.83
715.95	289.98
716.28	289.18
716.61	288.36
716.95	287.56
717.28	286.84
717.61	286.07
717.94	285.34
718.28	284.53
718.61	283.86
718.94	283.17
719.27	282.54
719.61	281.90
719.94	281.26
720.27	280.60
720.60	279.95
720.94	279.36
721.27	278.76
721.60	278.22
721.93	277.69
722.27	277.16
722.60	276.63
722.93	276.08
723.26	275.50
723.59	274.95
723.93	274.45
724.26	273.90
724.59	273.38
724.92	272.84
725.25	272.38
725.59	271.89
725.92	271.40
726.25	270.91
726.58	270.44
726.91	269.99
727.24	269.49
727.57	269.03
727.91	268.53
728.24	268.04
728.57	267.54
728.90	267.07
729.23	266.59
729.56	266.16
729.89	265.71
730.22	265.26
730.55	264.80
730.89	264.36
731.22	263.93
731.55	263.51
731.88	263.08
732.21	262.65
732.54	262.17
732.87	261.74
733.20	261.32
733.53	260.92
733.86	260.53
734.19	260.16
734.52	259.80
734.85	259.48
735.18	259.08
735.51	258.74
735.84	258.36
736.17	257.99
736.50	257.60
736.83	257.35
737.16	256.99
737.49	256.65
737.82	256.25
738.15	255.92
738.48	255.55
738.81	255.23
739.14	254.90
739.47	254.61
739.80	254.33
740.13	254.03
740.46	253.67
740.79	253.33
741.12	253.03
741.45	252.71
741.78	252.36
742.11	252.09
742.44	251.75
742.77	251.47
743.10	251.19
743.43	250.86
743.75	250.49
744.08	250.34
744.41	250.07
744.74	249.81
745.07	249.53
745.40	249.30
745.73	249.07
746.06	248.74
746.39	248.50
746.71	248.22
747.04	247.93
747.37	247.71
747.70	247.44
748.03	247.17
748.36	246.97
748.68	246.74
749.01	246.45
749.34	246.23
749.67	246.00
750.00	245.77
750.33	245.63
750.65	245.41
750.98	245.09
751.31	244.88
751.64	244.69
751.97	244.54
752.29	244.29
752.62	244.06
752.95	243.88
753.28	243.63
753.60	243.39
753.93	243.22
754.26	243.03
754.59	242.82
754.91	242.62
755.24	242.38
755.57	242.20
755.90	242.02
756.22	241.84
756.55	241.62
756.88	241.43
757.20	241.21
757.53	240.99
757.86	240.81
758.19	240.63
758.51	240.42
758.84	240.21
759.17	240.07
759.49	239.89
759.82	239.80
760.15	239.64
760.47	239.53
760.80	239.33
761.13	239.21
761.45	239.05
761.78	238.89
762.11	238.73
762.43	238.57
762.76	238.44
763.08	238.30
763.41	238.19
763.74	238.07
764.06	237.89
764.39	237.78
764.71	237.65
765.04	237.53
765.37	237.43
765.69	237.30
766.02	237.16
766.34	237.02
766.67	236.87
767.00	236.78
767.32	236.72
767.65	236.68
767.97	236.54
768.30	236.47
768.62	236.39
768.95	236.32
769.27	236.24
769.60	236.14
769.92	236.02
770.25	235.93
770.57	235.84
770.90	235.78
771.22	235.67
771.55	235.55
771.87	235.46
772.20	235.35
772.52	235.30
772.85	235.34
773.17	235.25
773.50	235.14
773.82	235.05
774.15	234.90
774.47	234.74
774.80	234.64
775.12	234.54
775.45	234.45
775.77	234.34
776.09	234.25
776.42	234.16
776.74	234.07
777.07	233.91
777.39	233.82
777.72	233.72
778.04	233.65
778.36	233.64
778.69	233.56
779.01	233.51
779.33	233.39
779.66	233.21
779.98	233.16
780.31	233.11
780.63	233.09
780.95	233.06
781.28	233.01
781.60	232.95
781.92	232.88
782.25	232.79
782.57	232.75
782.89	232.68
783.22	232.64
783.54	232.60
783.86	232.60
784.19	232.55
784.51	232.51
784.83	232.46
785.16	232.36
785.48	232.29
785.80	232.23
786.12	232.19
786.45	232.15
786.77	232.10
787.09	232.06
