SpectraSuite Data File
++++++++++++++++++++++++++++++++++++
Date: Fri Feb 01 18:13:50 EST 2013
User: group
Dark Spectrum Present: No
Reference Spectrum Present: No
Number of Sampled Component Spectra: 1
Spectrometers: USB2E7196
Integration Time (usec): 35000 (USB2E7196)
Spectra Averaged: 100 (USB2E7196)
Boxcar Smoothing: 10 (USB2E7196)
Correct for Electrical Dark: No (USB2E7196)
Strobe/Lamp Enabled: No (USB2E7196)
Correct for Detector Non-linearity: No (USB2E7196)
Correct for Stray Light: No (USB2E7196)
Number of Pixels in Processed Spectrum: 2048
>>>>>Begin Processed Spectral Data<<<<<
339.09	0.00
339.48	213.36
339.86	214.69
340.24	215.79
340.63	217.51
341.01	220.86
341.39	220.20
341.78	221.43
342.16	222.98
342.54	223.28
342.93	211.72
343.31	222.41
343.69	222.97
344.07	223.42
344.46	223.86
344.84	224.24
345.22	224.51
345.60	224.77
345.99	224.96
346.37	225.09
346.75	225.21
347.13	225.28
347.52	225.31
347.90	225.38
348.28	225.44
348.66	225.47
349.05	225.49
349.43	225.56
349.81	225.62
350.19	225.67
350.57	225.74
350.96	225.81
351.34	225.92
351.72	226.02
352.10	226.13
352.48	226.20
352.87	226.24
353.25	226.27
353.63	226.33
354.01	226.40
354.39	226.49
354.77	226.57
355.15	226.67
355.54	226.76
355.92	226.81
356.30	226.90
356.68	227.05
357.06	227.13
357.44	227.15
357.82	227.23
358.20	227.30
358.58	227.37
358.97	227.45
359.35	227.50
359.73	227.53
360.11	227.60
360.49	227.67
360.87	227.75
361.25	227.78
361.63	227.85
362.01	227.90
362.39	227.92
362.77	227.93
363.15	227.93
363.53	227.92
363.91	227.94
364.29	227.94
364.67	227.84
365.05	227.82
365.43	227.87
365.81	227.91
366.19	227.97
366.57	227.96
366.95	227.97
367.33	227.95
367.71	227.97
368.09	227.94
368.47	227.91
368.85	227.85
369.23	227.86
369.61	227.79
369.99	227.80
370.37	227.75
370.75	227.77
371.13	227.72
371.51	227.70
371.89	227.67
372.27	227.62
372.65	227.59
373.03	227.55
373.41	227.47
373.78	227.37
374.16	227.25
374.54	227.20
374.92	227.09
375.30	227.05
375.68	226.93
376.06	226.90
376.44	226.84
376.82	226.79
377.19	226.74
377.57	226.68
377.95	226.59
378.33	226.54
378.71	226.39
379.09	226.34
379.47	226.27
379.84	226.18
380.22	226.10
380.60	226.01
380.98	225.96
381.36	225.91
381.73	225.86
382.11	225.82
382.49	225.76
382.87	225.70
383.25	225.64
383.62	225.74
384.00	225.66
384.38	225.59
384.76	225.55
385.13	225.51
385.51	225.50
385.89	225.42
386.27	225.38
386.64	225.39
387.02	225.35
387.40	225.35
387.78	225.32
388.15	225.30
388.53	225.27
388.91	225.25
389.29	225.23
389.66	225.23
390.04	225.19
390.42	225.19
390.79	225.20
391.17	225.20
391.55	225.08
391.92	225.07
392.30	225.09
392.68	225.09
393.05	225.10
393.43	225.12
393.81	225.16
394.18	225.17
394.56	225.17
394.94	225.21
395.31	225.19
395.69	225.25
396.06	225.31
396.44	225.36
396.82	225.37
397.19	225.48
397.57	225.53
397.95	225.59
398.32	225.58
398.70	225.62
399.07	225.69
399.45	225.75
399.82	225.81
400.20	225.89
400.58	225.96
400.95	225.97
401.33	226.04
401.70	226.20
402.08	226.29
402.45	226.37
402.83	226.50
403.20	226.61
403.58	226.73
403.95	226.86
404.33	227.03
404.71	227.16
405.08	227.32
405.46	227.46
405.83	227.64
406.21	227.87
406.58	228.10
406.96	228.28
407.33	228.48
407.70	228.75
408.08	229.06
408.45	229.32
408.83	229.62
409.20	229.88
409.58	230.11
409.95	230.46
410.33	230.82
410.70	231.15
411.08	231.54
411.45	231.92
411.82	232.35
412.20	232.78
412.57	233.34
412.95	233.77
413.32	234.30
413.69	234.89
414.07	235.47
414.44	236.07
414.82	236.71
415.19	237.45
415.56	238.19
415.94	238.96
416.31	239.89
416.68	240.76
417.06	241.81
417.43	242.73
417.81	243.77
418.18	244.85
418.55	246.02
418.93	247.24
419.30	248.48
419.67	249.79
420.04	251.09
420.42	252.48
420.79	254.11
421.16	255.74
421.54	257.37
421.91	259.07
422.28	260.89
422.66	262.76
423.03	264.56
423.40	266.44
423.77	268.39
424.15	270.38
424.52	272.49
424.89	274.71
425.26	276.86
425.64	278.89
426.01	281.18
426.38	283.49
426.75	285.84
427.13	288.27
427.50	290.81
427.87	293.52
428.24	296.13
428.61	298.60
428.99	301.32
429.36	304.31
429.73	307.24
430.10	310.06
430.47	313.01
430.85	316.00
431.22	319.17
431.59	322.53
431.96	325.68
432.33	329.18
432.70	332.51
433.08	336.49
433.45	340.19
433.82	343.86
434.19	347.96
434.56	351.93
434.93	355.70
435.30	359.42
435.68	363.48
436.05	367.53
436.42	371.50
436.79	375.03
437.16	378.82
437.53	382.78
437.90	386.70
438.27	390.58
438.64	394.57
439.01	398.24
439.38	401.41
439.75	404.51
440.13	408.03
440.50	411.36
440.87	413.96
441.24	416.77
441.61	419.82
441.98	421.92
442.35	424.49
442.72	427.11
443.09	429.61
443.46	431.05
443.83	431.85
444.20	432.59
444.57	433.79
444.94	434.18
445.31	434.71
445.68	435.20
446.05	435.28
446.42	434.79
446.79	434.18
447.16	433.59
447.53	433.11
447.90	431.48
448.27	429.84
448.64	427.65
449.01	426.03
449.37	423.24
449.74	420.53
450.11	417.31
450.48	413.86
450.85	410.28
451.22	407.24
451.59	404.36
451.96	401.62
452.33	397.95
452.70	394.65
453.07	390.65
453.43	386.58
453.80	382.73
454.17	378.93
454.54	375.34
454.91	371.45
455.28	367.70
455.65	364.17
456.02	360.66
456.38	357.64
456.75	353.88
457.12	350.72
457.49	347.62
457.86	344.54
458.23	341.87
458.59	338.99
458.96	336.04
459.33	333.40
459.70	330.69
460.07	328.50
460.43	326.05
460.80	323.73
461.17	321.70
461.54	319.52
461.91	317.53
462.27	315.44
462.64	313.65
463.01	311.68
463.38	309.81
463.74	307.89
464.11	306.25
464.48	304.74
464.85	303.13
465.21	301.90
465.58	300.59
465.95	299.02
466.32	297.76
466.68	296.43
467.05	295.15
467.42	293.91
467.78	292.64
468.15	291.39
468.52	290.43
468.88	289.20
469.25	288.11
469.62	287.15
469.98	286.23
470.35	285.33
470.72	284.46
471.08	283.54
471.45	282.75
471.82	281.93
472.18	281.10
472.55	280.43
472.92	279.64
473.28	278.98
473.65	278.33
474.02	277.65
474.38	277.10
474.75	276.63
475.11	276.10
475.48	275.65
475.85	275.29
476.21	274.90
476.58	274.59
476.94	274.29
477.31	274.02
477.67	273.75
478.04	273.50
478.41	273.39
478.77	273.35
479.14	273.20
479.50	273.14
479.87	273.13
480.23	273.15
480.60	273.16
480.96	273.18
481.33	273.32
481.69	273.47
482.06	273.62
482.42	273.76
482.79	273.97
483.15	274.26
483.52	274.64
483.88	274.98
484.25	275.34
484.61	275.77
484.98	276.22
485.34	276.78
485.71	277.38
486.07	277.97
486.44	278.53
486.80	279.24
487.17	279.94
487.53	280.77
487.90	281.63
488.26	282.59
488.62	283.64
488.99	284.70
489.35	285.80
489.72	286.95
490.08	288.26
490.44	289.56
490.81	290.98
491.17	292.39
491.54	293.96
491.90	295.58
492.26	297.31
492.63	299.15
492.99	301.01
493.36	303.05
493.72	305.22
494.08	307.49
494.45	309.91
494.81	312.44
495.17	315.07
495.54	317.85
495.90	320.79
496.26	323.77
496.63	326.89
496.99	330.27
497.35	333.77
497.72	337.41
498.08	341.20
498.44	345.12
498.80	349.31
499.17	353.63
499.53	358.12
499.89	362.86
500.26	367.68
500.62	372.73
500.98	378.05
501.34	383.54
501.71	389.23
502.07	395.08
502.43	401.14
502.79	407.36
503.16	413.91
503.52	420.62
503.88	427.52
504.24	434.65
504.60	441.99
504.97	449.70
505.33	457.55
505.69	465.86
506.05	474.27
506.41	482.79
506.78	491.60
507.14	500.71
507.50	510.11
507.86	519.82
508.22	529.75
508.59	539.70
508.95	550.02
509.31	560.63
509.67	571.56
510.03	582.70
510.39	594.26
510.75	605.94
511.12	617.78
511.48	630.06
511.84	642.58
512.20	655.08
512.56	668.03
512.92	681.28
513.28	694.80
513.64	708.47
514.00	722.29
514.37	736.45
514.73	750.75
515.09	765.01
515.45	779.58
515.81	794.39
516.17	809.74
516.53	825.39
516.89	841.08
517.25	856.65
517.61	872.54
517.97	888.44
518.33	904.37
518.69	920.64
519.05	937.22
519.41	953.97
519.77	971.21
520.13	988.37
520.49	1005.55
520.85	1022.47
521.21	1039.93
521.57	1058.01
521.93	1075.55
522.29	1093.72
522.65	1111.90
523.01	1129.91
523.37	1147.88
523.73	1165.99
524.09	1183.92
524.45	1202.13
524.81	1220.81
525.17	1239.55
525.53	1258.42
525.89	1277.32
526.25	1296.30
526.61	1314.75
526.97	1333.65
527.33	1352.22
527.68	1370.93
528.04	1389.45
528.40	1408.23
528.76	1427.51
529.12	1446.35
529.48	1465.62
529.84	1483.94
530.20	1502.85
530.56	1522.20
530.91	1542.13
531.27	1561.23
531.63	1580.06
531.99	1599.10
532.35	1617.54
532.71	1636.00
533.07	1654.71
533.42	1673.13
533.78	1691.70
534.14	1710.58
534.50	1728.43
534.86	1746.90
535.21	1764.68
535.57	1783.22
535.93	1801.35
536.29	1818.79
536.65	1836.45
537.00	1853.62
537.36	1871.62
537.72	1888.66
538.08	1905.85
538.44	1921.96
538.79	1938.47
539.15	1954.61
539.51	1970.99
539.87	1987.84
540.22	2004.00
540.58	2020.50
540.94	2036.34
541.29	2051.77
541.65	2067.05
542.01	2082.71
542.37	2097.64
542.72	2112.66
543.08	2127.11
543.44	2142.26
543.79	2155.91
544.15	2169.30
544.51	2183.51
544.87	2196.97
545.22	2210.52
545.58	2223.24
545.94	2235.62
546.29	2248.02
546.65	2260.44
547.01	2272.13
547.36	2283.29
547.72	2294.21
548.07	2304.50
548.43	2315.02
548.79	2325.30
549.14	2335.25
549.50	2344.96
549.86	2354.77
550.21	2364.26
550.57	2373.72
550.92	2382.67
551.28	2392.04
551.64	2401.55
551.99	2410.43
552.35	2418.65
552.70	2426.85
553.06	2434.96
553.41	2443.59
553.77	2451.56
554.13	2459.77
554.48	2468.09
554.84	2475.74
555.19	2483.16
555.55	2490.37
555.90	2496.84
556.26	2504.01
556.61	2510.38
556.97	2516.72
557.32	2522.74
557.68	2528.70
558.03	2534.94
558.39	2540.13
558.74	2546.65
559.10	2552.29
559.45	2557.48
559.81	2563.62
560.16	2569.09
560.52	2574.06
560.87	2579.00
561.23	2583.29
561.58	2587.71
561.94	2591.57
562.29	2595.13
562.64	2599.37
563.00	2603.20
563.35	2608.28
563.71	2612.61
564.06	2617.41
564.42	2621.80
564.77	2625.91
565.12	2629.63
565.48	2632.81
565.83	2636.10
566.19	2638.73
566.54	2640.66
566.89	2643.08
567.25	2644.65
567.60	2647.04
567.96	2649.84
568.31	2651.78
568.66	2654.11
569.02	2655.78
569.37	2657.15
569.72	2659.40
570.08	2660.44
570.43	2661.30
570.78	2661.65
571.14	2660.79
571.49	2660.03
571.84	2660.31
572.20	2659.88
572.55	2659.52
572.90	2658.29
573.26	2657.40
573.61	2655.91
573.96	2654.76
574.31	2652.04
574.67	2649.37
575.02	2645.91
575.37	2642.69
575.72	2638.96
576.08	2635.47
576.43	2632.14
576.78	2628.62
577.13	2625.29
577.49	2622.10
577.84	2618.81
578.19	2614.83
578.54	2611.23
578.90	2606.95
579.25	2600.88
579.60	2595.48
579.95	2590.07
580.30	2584.77
580.66	2579.16
581.01	2573.75
581.36	2568.24
581.71	2563.83
582.06	2559.04
582.42	2554.27
582.77	2548.70
583.12	2543.88
583.47	2539.08
583.82	2533.68
584.17	2527.77
584.53	2521.71
584.88	2515.69
585.23	2509.22
585.58	2503.15
585.93	2497.04
586.28	2491.62
586.63	2486.23
586.98	2480.62
587.34	2475.38
587.69	2469.90
588.04	2464.00
588.39	2457.83
588.74	2450.57
589.09	2443.56
589.44	2435.93
589.79	2428.96
590.14	2422.37
590.49	2414.74
590.84	2407.19
591.19	2400.23
591.54	2392.84
591.89	2384.50
592.25	2376.70
592.60	2368.43
592.95	2359.73
593.30	2351.21
593.65	2342.48
594.00	2334.24
594.35	2325.73
594.70	2316.23
595.05	2308.01
595.40	2299.70
595.75	2290.85
596.10	2283.66
596.45	2275.80
596.80	2268.62
597.15	2260.94
597.50	2252.69
597.85	2245.03
598.19	2237.40
598.54	2229.25
598.89	2221.37
599.24	2214.38
599.59	2206.53
599.94	2199.15
600.29	2191.69
600.64	2183.86
600.99	2175.15
601.34	2167.04
601.69	2158.78
602.04	2150.92
602.39	2142.06
602.74	2133.76
603.08	2125.73
603.43	2117.65
603.78	2108.88
604.13	2100.24
604.48	2091.56
604.83	2083.30
605.18	2075.17
605.53	2065.60
605.87	2056.01
606.22	2047.34
606.57	2037.80
606.92	2028.83
607.27	2020.34
607.62	2012.09
607.96	2003.45
608.31	1995.46
608.66	1986.32
609.01	1977.41
609.36	1968.29
609.70	1958.82
610.05	1949.25
610.40	1940.18
610.75	1930.30
611.10	1921.13
611.44	1910.96
611.79	1901.39
612.14	1891.03
612.49	1879.94
612.83	1869.74
613.18	1859.95
613.53	1850.29
613.88	1839.98
614.22	1830.05
614.57	1819.56
614.92	1809.91
615.27	1800.93
615.61	1790.95
615.96	1781.37
616.31	1772.17
616.65	1763.13
617.00	1753.96
617.35	1744.74
617.70	1734.71
618.04	1724.40
618.39	1714.49
618.74	1705.47
619.08	1695.54
619.43	1686.41
619.78	1678.05
620.12	1669.46
620.47	1660.47
620.82	1650.46
621.16	1641.44
621.51	1632.09
621.85	1622.90
622.20	1612.53
622.55	1602.33
622.89	1592.94
623.24	1583.55
623.59	1574.48
623.93	1565.44
624.28	1556.56
624.62	1547.38
624.97	1538.70
625.32	1530.42
625.66	1521.92
626.01	1513.35
626.35	1504.36
626.70	1494.92
627.04	1485.77
627.39	1476.35
627.73	1467.45
628.08	1459.14
628.43	1450.48
628.77	1441.79
629.12	1432.73
629.46	1424.28
629.81	1415.34
630.15	1406.57
630.50	1397.77
630.84	1387.96
631.19	1378.41
631.53	1369.47
631.88	1360.52
632.22	1351.29
632.57	1342.56
632.91	1333.44
633.26	1324.40
633.60	1315.49
633.95	1306.99
634.29	1298.32
634.64	1290.35
634.98	1281.36
635.32	1272.92
635.67	1264.91
636.01	1256.93
636.36	1248.73
636.70	1240.75
637.05	1232.78
637.39	1224.95
637.73	1217.16
638.08	1210.13
638.42	1202.94
638.77	1195.14
639.11	1187.13
639.45	1179.37
639.80	1171.43
640.14	1163.91
640.49	1156.17
640.83	1148.63
641.17	1141.16
641.52	1133.66
641.86	1125.85
642.20	1118.84
642.55	1111.13
642.89	1103.47
643.23	1095.63
643.58	1088.73
643.92	1081.44
644.26	1074.31
644.61	1067.12
644.95	1059.93
645.29	1052.06
645.64	1044.09
645.98	1036.56
646.32	1029.57
646.66	1022.51
647.01	1015.63
647.35	1008.79
647.69	1001.83
648.04	995.20
648.38	988.39
648.72	981.37
649.06	974.26
649.41	967.32
649.75	960.33
650.09	953.26
650.43	946.47
650.78	939.22
651.12	932.09
651.46	925.33
651.80	918.61
652.14	912.21
652.49	905.92
652.83	899.79
653.17	893.13
653.51	886.48
653.85	880.07
654.20	873.46
654.54	866.38
654.88	859.49
655.22	852.50
655.56	845.65
655.90	839.04
656.25	832.87
656.59	826.45
656.93	820.36
657.27	814.22
657.61	807.72
657.95	801.68
658.29	795.67
658.64	789.35
658.98	782.99
659.32	776.55
659.66	770.31
660.00	764.12
660.34	758.21
660.68	752.37
661.02	746.43
661.36	740.79
661.70	735.41
662.05	730.29
662.39	725.25
662.73	720.08
663.07	714.93
663.41	709.65
663.75	704.48
664.09	699.14
664.43	693.98
664.77	689.22
665.11	684.22
665.45	679.30
665.79	674.57
666.13	669.75
666.47	664.96
666.81	660.13
667.15	655.26
667.49	650.68
667.83	646.16
668.17	641.57
668.51	636.80
668.85	632.06
669.19	627.51
669.53	623.05
669.87	618.50
670.21	614.11
670.55	609.75
670.89	605.67
671.23	601.69
671.57	597.56
671.91	593.37
672.25	589.23
672.58	585.08
672.92	581.06
673.26	577.32
673.60	573.57
673.94	569.91
674.28	566.42
674.62	562.97
674.96	559.34
675.30	555.98
675.64	552.50
675.97	549.21
676.31	545.82
676.65	542.35
676.99	539.15
677.33	535.78
677.67	532.52
678.01	528.97
678.34	525.50
678.68	522.09
679.02	518.78
679.36	515.46
679.70	512.25
680.04	509.05
680.37	505.67
680.71	502.38
681.05	499.30
681.39	496.11
681.73	492.97
682.06	490.00
682.40	486.98
682.74	484.05
683.08	481.07
683.42	478.01
683.75	475.06
684.09	472.00
684.43	469.11
684.77	466.19
685.10	463.34
685.44	460.57
685.78	457.87
686.12	455.18
686.45	452.49
686.79	449.79
687.13	447.14
687.46	444.59
687.80	441.93
688.14	439.21
688.48	436.78
688.81	434.11
689.15	431.47
689.49	428.82
689.82	426.32
690.16	423.84
690.50	421.55
690.83	419.21
691.17	416.90
691.51	414.63
691.84	412.45
692.18	410.22
692.52	407.93
692.85	405.58
693.19	403.35
693.52	401.17
693.86	398.97
694.20	396.85
694.53	394.76
694.87	392.61
695.21	390.50
695.54	388.34
695.88	386.31
696.21	384.30
696.55	382.31
696.88	380.34
697.22	378.31
697.56	376.34
697.89	374.39
698.23	372.43
698.56	370.57
698.90	368.70
699.23	366.77
699.57	364.87
699.90	363.05
700.24	361.20
700.58	359.40
700.91	357.66
701.25	355.94
701.58	354.29
701.92	352.67
702.25	351.04
702.59	349.38
702.92	347.79
703.26	346.26
703.59	344.81
703.93	343.37
704.26	341.94
704.60	340.45
704.93	339.01
705.26	337.52
705.60	336.08
705.93	334.70
706.27	333.46
706.60	332.20
706.94	330.93
707.27	329.61
707.61	328.34
707.94	327.17
708.27	325.87
708.61	324.54
708.94	323.36
709.28	322.23
709.61	321.10
709.94	320.00
710.28	318.79
710.61	317.60
710.95	316.31
711.28	315.23
711.61	314.10
711.95	312.98
712.28	311.90
712.61	310.77
712.95	309.58
713.28	308.54
713.61	307.49
713.95	306.47
714.28	305.46
714.61	304.46
714.95	303.39
715.28	302.41
715.61	301.42
715.95	300.37
716.28	299.32
716.61	298.33
716.95	297.32
717.28	296.44
717.61	295.52
717.94	294.65
718.28	293.72
718.61	292.87
718.94	292.03
719.27	291.24
719.61	290.48
719.94	289.71
720.27	288.89
720.60	288.09
720.94	287.32
721.27	286.63
721.60	285.93
721.93	285.22
722.27	284.53
722.60	283.83
722.93	283.19
723.26	282.55
723.59	281.85
723.93	281.23
724.26	280.55
724.59	279.86
724.92	279.21
725.25	278.61
725.59	277.94
725.92	277.35
726.25	276.72
726.58	276.15
726.91	275.58
727.24	275.00
727.57	274.44
727.91	273.82
728.24	273.27
728.57	272.61
728.90	272.09
729.23	271.51
729.56	270.98
729.89	270.43
730.22	269.83
730.55	269.31
730.89	268.75
731.22	268.21
731.55	267.70
731.88	267.18
732.21	266.65
732.54	266.17
732.87	265.64
733.20	265.18
733.53	264.70
733.86	264.25
734.19	263.74
734.52	263.28
734.85	262.92
735.18	262.40
735.51	262.01
735.84	261.56
736.17	261.12
736.50	260.66
736.83	260.33
737.16	260.02
737.49	259.63
737.82	259.21
738.15	258.81
738.48	258.40
738.81	258.07
739.14	257.68
739.47	257.31
739.80	256.99
740.13	256.61
740.46	256.21
740.79	255.84
741.12	255.50
741.45	255.16
741.78	254.75
742.11	254.44
742.44	254.07
742.77	253.77
743.10	253.41
743.43	253.09
743.75	252.67
744.08	252.43
744.41	252.11
744.74	251.85
745.07	251.50
745.40	251.23
745.73	250.91
746.06	250.58
746.39	250.28
746.71	249.95
747.04	249.61
747.37	249.32
747.70	249.06
748.03	248.76
748.36	248.48
748.68	248.21
749.01	247.95
749.34	247.70
749.67	247.41
750.00	247.18
750.33	246.97
750.65	246.71
750.98	246.33
751.31	246.04
751.64	245.76
751.97	245.62
752.29	245.38
752.62	245.08
752.95	244.81
753.28	244.58
753.60	244.31
753.93	244.11
754.26	243.89
754.59	243.62
754.91	243.37
755.24	243.15
755.57	242.90
755.90	242.67
756.22	242.42
756.55	242.17
756.88	241.94
757.20	241.68
757.53	241.47
757.86	241.27
758.19	241.10
758.51	240.90
758.84	240.62
759.17	240.42
759.49	240.23
759.82	240.10
760.15	239.92
760.47	239.77
760.80	239.57
761.13	239.39
761.45	239.20
761.78	239.02
762.11	238.81
762.43	238.65
762.76	238.48
763.08	238.35
763.41	238.19
763.74	237.99
764.06	237.82
764.39	237.65
764.71	237.47
765.04	237.29
765.37	237.13
765.69	236.97
766.02	236.79
766.34	236.66
766.67	236.49
767.00	236.34
767.32	236.25
767.65	236.17
767.97	236.03
768.30	235.88
768.62	235.71
768.95	235.58
769.27	235.44
769.60	235.31
769.92	235.15
770.25	235.02
770.57	234.89
770.90	234.76
771.22	234.66
771.55	234.54
771.87	234.42
772.20	234.29
772.52	234.27
772.85	234.30
773.17	234.17
773.50	234.05
773.82	233.92
774.15	233.73
774.47	233.53
774.80	233.43
775.12	233.33
775.45	233.26
775.77	233.15
776.09	233.03
776.42	232.94
776.74	232.89
777.07	232.79
777.39	232.69
777.72	232.59
778.04	232.50
778.36	232.42
778.69	232.35
779.01	232.31
779.33	232.14
779.66	231.92
779.98	231.87
780.31	231.83
780.63	231.78
780.95	231.74
781.28	231.68
781.60	231.59
781.92	231.55
782.25	231.48
782.57	231.47
782.89	231.44
783.22	231.34
783.54	231.26
783.86	231.20
784.19	231.19
784.51	231.19
784.83	231.10
785.16	231.01
785.48	230.94
785.80	230.87
786.12	230.84
786.45	230.82
