SpectraSuite Data File
++++++++++++++++++++++++++++++++++++
Date: Fri Feb 01 17:46:02 EST 2013
User: group
Dark Spectrum Present: No
Reference Spectrum Present: No
Number of Sampled Component Spectra: 1
Spectrometers: USB2E7196
Integration Time (usec): 35000 (USB2E7196)
Spectra Averaged: 100 (USB2E7196)
Boxcar Smoothing: 10 (USB2E7196)
Correct for Electrical Dark: No (USB2E7196)
Strobe/Lamp Enabled: No (USB2E7196)
Correct for Detector Non-linearity: No (USB2E7196)
Correct for Stray Light: No (USB2E7196)
Number of Pixels in Processed Spectrum: 2048
>>>>>Begin Processed Spectral Data<<<<<
339.09	0.00
339.48	212.80
339.86	214.33
340.24	215.63
340.63	217.04
341.01	219.45
341.39	219.72
341.78	220.36
342.16	221.76
342.54	222.56
342.93	211.08
343.31	221.75
343.69	222.28
344.07	222.75
344.46	223.20
344.84	223.54
345.22	223.79
345.60	224.00
345.99	224.22
346.37	224.39
346.75	224.49
347.13	224.56
347.52	224.65
347.90	224.70
348.28	224.70
348.66	224.74
349.05	224.73
349.43	224.75
349.81	224.75
350.19	224.82
350.57	224.88
350.96	224.93
351.34	225.02
351.72	225.10
352.10	225.17
352.48	225.19
352.87	225.29
353.25	225.33
353.63	225.43
354.01	225.47
354.39	225.52
354.77	225.61
355.15	225.68
355.54	225.72
355.92	225.76
356.30	225.83
356.68	225.96
357.06	226.04
357.44	226.07
357.82	226.13
358.20	226.20
358.58	226.22
358.97	226.26
359.35	226.35
359.73	226.44
360.11	226.51
360.49	226.56
360.87	226.62
361.25	226.72
361.63	226.77
362.01	226.85
362.39	226.90
362.77	226.93
363.15	226.98
363.53	227.04
363.91	227.09
364.29	227.10
364.67	227.06
365.05	227.09
365.43	227.15
365.81	227.20
366.19	227.25
366.57	227.31
366.95	227.35
367.33	227.31
367.71	227.31
368.09	227.33
368.47	227.33
368.85	227.33
369.23	227.30
369.61	227.27
369.99	227.28
370.37	227.27
370.75	227.32
371.13	227.28
371.51	227.22
371.89	227.21
372.27	227.17
372.65	227.13
373.03	227.13
373.41	227.08
373.78	227.02
374.16	226.92
374.54	226.85
374.92	226.80
375.30	226.76
375.68	226.68
376.06	226.62
376.44	226.57
376.82	226.51
377.19	226.45
377.57	226.40
377.95	226.30
378.33	226.22
378.71	226.10
379.09	226.05
379.47	225.99
379.84	225.90
380.22	225.84
380.60	225.78
380.98	225.67
381.36	225.63
381.73	225.57
382.11	225.52
382.49	225.48
382.87	225.40
383.25	225.32
383.62	225.38
384.00	225.32
384.38	225.27
384.76	225.25
385.13	225.25
385.51	225.20
385.89	225.13
386.27	225.10
386.64	225.04
387.02	224.96
387.40	224.94
387.78	224.94
388.15	224.91
388.53	224.85
388.91	224.80
389.29	224.75
389.66	224.74
390.04	224.73
390.42	224.72
390.79	224.70
391.17	224.65
391.55	224.53
391.92	224.49
392.30	224.47
392.68	224.41
393.05	224.39
393.43	224.38
393.81	224.40
394.18	224.39
394.56	224.43
394.94	224.47
395.31	224.46
395.69	224.48
396.06	224.50
396.44	224.54
396.82	224.59
397.19	224.66
397.57	224.69
397.95	224.74
398.32	224.76
398.70	224.83
399.07	224.95
399.45	224.99
399.82	225.09
400.20	225.16
400.58	225.23
400.95	225.24
401.33	225.34
401.70	225.51
402.08	225.60
402.45	225.68
402.83	225.80
403.20	225.90
403.58	226.02
403.95	226.17
404.33	226.28
404.71	226.40
405.08	226.60
405.46	226.73
405.83	226.90
406.21	227.06
406.58	227.23
406.96	227.39
407.33	227.59
407.70	227.76
408.08	228.04
408.45	228.29
408.83	228.59
409.20	228.80
409.58	228.97
409.95	229.27
410.33	229.59
410.70	229.89
411.08	230.25
411.45	230.61
411.82	230.97
412.20	231.44
412.57	231.95
412.95	232.30
413.32	232.80
413.69	233.30
414.07	233.82
414.44	234.42
414.82	235.01
415.19	235.70
415.56	236.42
415.94	237.10
416.31	237.89
416.68	238.66
417.06	239.53
417.43	240.42
417.81	241.36
418.18	242.33
418.55	243.35
418.93	244.43
419.30	245.54
419.67	246.68
420.04	247.85
420.42	249.10
420.79	250.54
421.16	251.98
421.54	253.43
421.91	254.97
422.28	256.57
422.66	258.22
423.03	259.87
423.40	261.55
423.77	263.33
424.15	265.10
424.52	267.02
424.89	269.10
425.26	271.04
425.64	272.89
426.01	274.85
426.38	276.98
426.75	279.10
427.13	281.30
427.50	283.63
427.87	286.03
428.24	288.36
428.61	290.60
428.99	293.06
429.36	295.74
429.73	298.32
430.10	300.85
430.47	303.45
430.85	306.12
431.22	308.97
431.59	311.97
431.96	314.81
432.33	317.94
432.70	320.95
433.08	324.52
433.45	327.87
433.82	331.22
434.19	334.89
434.56	338.44
434.93	341.78
435.30	345.07
435.68	348.74
436.05	352.34
436.42	355.86
436.79	359.12
437.16	362.55
437.53	366.16
437.90	369.78
438.27	373.23
438.64	376.80
439.01	380.02
439.38	382.88
439.75	385.66
440.13	388.80
440.50	391.76
440.87	394.13
441.24	396.61
441.61	399.39
441.98	401.28
442.35	403.56
442.72	405.93
443.09	408.27
443.46	409.53
443.83	410.28
444.20	410.97
444.57	412.02
444.94	412.39
445.31	412.83
445.68	413.18
446.05	413.31
446.42	412.86
446.79	412.38
447.16	411.84
447.53	411.43
447.90	410.02
448.27	408.54
448.64	406.51
449.01	405.04
449.37	402.52
449.74	400.06
450.11	397.22
450.48	394.14
450.85	390.86
451.22	388.16
451.59	385.60
451.96	383.13
452.33	379.80
452.70	376.86
453.07	373.28
453.43	369.69
453.80	366.22
454.17	362.85
454.54	359.62
454.91	356.20
455.28	352.81
455.65	349.62
456.02	346.50
456.38	343.79
456.75	340.43
457.12	337.61
457.49	334.84
457.86	332.11
458.23	329.73
458.59	327.19
458.96	324.55
459.33	322.21
459.70	319.82
460.07	317.92
460.43	315.70
460.80	313.64
461.17	311.80
461.54	309.88
461.91	308.09
462.27	306.22
462.64	304.61
463.01	302.92
463.38	301.26
463.74	299.58
464.11	298.10
464.48	296.83
464.85	295.40
465.21	294.31
465.58	293.13
465.95	291.74
466.32	290.58
466.68	289.44
467.05	288.32
467.42	287.21
467.78	286.03
468.15	284.88
468.52	284.04
468.88	282.97
469.25	281.97
469.62	281.13
469.98	280.30
470.35	279.51
470.72	278.70
471.08	277.88
471.45	277.20
471.82	276.49
472.18	275.71
472.55	275.16
472.92	274.48
473.28	273.89
473.65	273.32
474.02	272.77
474.38	272.27
474.75	271.83
475.11	271.37
475.48	271.02
475.85	270.72
476.21	270.40
476.58	270.14
476.94	269.93
477.31	269.67
477.67	269.42
478.04	269.21
478.41	269.10
478.77	269.04
479.14	268.86
479.50	268.83
479.87	268.82
480.23	268.83
480.60	268.85
480.96	268.90
481.33	269.04
481.69	269.19
482.06	269.32
482.42	269.46
482.79	269.69
483.15	269.96
483.52	270.32
483.88	270.64
484.25	271.02
484.61	271.37
484.98	271.83
485.34	272.38
485.71	272.97
486.07	273.59
486.44	274.13
486.80	274.84
487.17	275.54
487.53	276.39
487.90	277.25
488.26	278.19
488.62	279.17
488.99	280.17
489.35	281.20
489.72	282.35
490.08	283.61
490.44	284.84
490.81	286.16
491.17	287.54
491.54	289.02
491.90	290.56
492.26	292.28
492.63	294.05
492.99	295.88
493.36	297.83
493.72	299.93
494.08	302.13
494.45	304.44
494.81	306.86
495.17	309.37
495.54	312.05
495.90	314.83
496.26	317.72
496.63	320.78
496.99	324.03
497.35	327.43
497.72	330.97
498.08	334.64
498.44	338.45
498.80	342.48
499.17	346.72
499.53	351.12
499.89	355.68
500.26	360.35
500.62	365.24
500.98	370.42
501.34	375.71
501.71	381.28
502.07	387.00
502.43	392.91
502.79	398.96
503.16	405.26
503.52	411.81
503.88	418.48
504.24	425.41
504.60	432.61
504.97	440.00
505.33	447.62
505.69	455.71
506.05	463.86
506.41	472.19
506.78	480.69
507.14	489.47
507.50	498.55
507.86	508.03
508.22	517.63
508.59	527.23
508.95	537.23
509.31	547.48
509.67	558.05
510.03	568.84
510.39	579.92
510.75	591.24
511.12	602.72
511.48	614.67
511.84	626.64
512.20	638.68
512.56	651.23
512.92	663.94
513.28	676.84
513.64	689.88
514.00	703.22
514.37	716.80
514.73	730.53
515.09	744.22
515.45	758.17
515.81	772.47
516.17	787.24
516.53	802.06
516.89	817.02
517.25	831.90
517.61	847.11
517.97	862.45
518.33	877.72
518.69	893.23
519.05	908.99
519.41	925.12
519.77	941.53
520.13	957.89
520.49	974.36
520.85	990.67
521.21	1007.43
521.57	1024.64
521.93	1041.42
522.29	1058.84
522.65	1076.31
523.01	1093.46
523.37	1110.59
523.73	1127.81
524.09	1145.15
524.45	1162.46
524.81	1180.26
525.17	1198.03
525.53	1215.95
525.89	1233.95
526.25	1252.04
526.61	1269.60
526.97	1287.53
527.33	1305.33
527.68	1323.12
528.04	1340.71
528.40	1358.47
528.76	1376.85
529.12	1394.67
529.48	1412.96
529.84	1430.16
530.20	1447.95
530.56	1466.29
530.91	1485.05
531.27	1503.19
531.63	1520.86
531.99	1538.86
532.35	1556.34
532.71	1573.72
533.07	1591.53
533.42	1608.91
533.78	1626.53
534.14	1644.24
534.50	1661.17
534.86	1678.45
535.21	1695.19
535.57	1712.58
535.93	1729.70
536.29	1746.05
536.65	1762.72
537.00	1778.92
537.36	1796.11
537.72	1812.25
538.08	1828.28
538.44	1843.62
538.79	1859.03
539.15	1874.24
539.51	1889.58
539.87	1905.41
540.22	1920.80
540.58	1936.13
540.94	1950.84
541.29	1965.06
541.65	1979.35
542.01	1994.00
542.37	2008.01
542.72	2021.99
543.08	2035.65
543.44	2049.79
543.79	2062.68
544.15	2075.25
544.51	2088.45
544.87	2100.76
545.22	2113.19
545.58	2125.14
545.94	2136.54
546.29	2148.15
546.65	2159.93
547.01	2170.84
547.36	2181.16
547.72	2191.31
548.07	2200.80
548.43	2210.80
548.79	2220.36
549.14	2229.66
549.50	2238.58
549.86	2247.63
550.21	2256.59
550.57	2265.23
550.92	2273.34
551.28	2281.89
551.64	2290.55
551.99	2298.68
552.35	2306.56
552.70	2314.22
553.06	2321.62
553.41	2329.44
553.77	2336.76
554.13	2344.07
554.48	2351.65
554.84	2358.72
555.19	2365.26
555.55	2371.95
555.90	2377.82
556.26	2384.35
556.61	2390.26
556.97	2395.99
557.32	2401.60
557.68	2407.00
558.03	2412.34
558.39	2417.20
558.74	2423.19
559.10	2428.22
559.45	2433.06
559.81	2438.25
560.16	2443.39
560.52	2447.85
560.87	2452.40
561.23	2456.14
561.58	2460.16
561.94	2463.81
562.29	2467.04
562.64	2471.09
563.00	2474.48
563.35	2478.89
563.71	2483.01
564.06	2487.25
564.42	2491.27
564.77	2494.85
565.12	2498.49
565.48	2501.66
565.83	2504.68
566.19	2507.01
566.54	2508.73
566.89	2510.85
567.25	2512.54
567.60	2514.44
567.96	2517.14
568.31	2518.89
568.66	2520.88
569.02	2522.31
569.37	2523.30
569.72	2525.08
570.08	2525.82
570.43	2526.56
570.78	2526.80
571.14	2525.82
571.49	2524.87
571.84	2524.95
572.20	2524.41
572.55	2523.53
572.90	2522.26
573.26	2521.22
573.61	2519.49
573.96	2518.35
574.31	2515.55
574.67	2512.87
575.02	2509.62
575.37	2506.27
575.72	2502.70
576.08	2499.48
576.43	2496.20
576.78	2492.87
577.13	2489.57
577.49	2486.39
577.84	2483.11
578.19	2479.27
578.54	2475.77
578.90	2471.86
579.25	2466.17
579.60	2461.23
579.95	2456.34
580.30	2451.18
580.66	2445.88
581.01	2440.97
581.36	2435.78
581.71	2431.71
582.06	2427.17
582.42	2422.66
582.77	2417.28
583.12	2412.48
583.47	2407.79
583.82	2402.75
584.17	2397.27
584.53	2391.72
584.88	2385.94
585.23	2379.83
585.58	2374.09
585.93	2368.23
586.28	2362.95
586.63	2357.81
586.98	2352.31
587.34	2347.08
587.69	2341.71
588.04	2336.31
588.39	2330.29
588.74	2323.32
589.09	2316.72
589.44	2309.42
589.79	2302.67
590.14	2296.48
590.49	2289.28
590.84	2282.11
591.19	2275.46
591.54	2268.30
591.89	2260.39
592.25	2253.08
592.60	2245.38
592.95	2237.28
593.30	2229.25
593.65	2220.92
594.00	2212.97
594.35	2204.97
594.70	2196.05
595.05	2188.62
595.40	2180.35
595.75	2172.03
596.10	2165.28
596.45	2157.73
596.80	2150.91
597.15	2143.77
597.50	2136.38
597.85	2129.30
598.19	2122.09
598.54	2114.57
598.89	2107.22
599.24	2100.59
599.59	2093.30
599.94	2086.30
600.29	2079.21
600.64	2071.90
600.99	2063.89
601.34	2056.43
601.69	2048.52
602.04	2041.07
602.39	2032.74
602.74	2025.22
603.08	2017.86
603.43	2010.26
603.78	2002.24
604.13	1994.04
604.48	1986.03
604.83	1978.22
605.18	1970.62
605.53	1961.82
605.87	1952.71
606.22	1944.48
606.57	1935.57
606.92	1926.99
607.27	1919.06
607.62	1911.29
607.96	1903.17
608.31	1895.90
608.66	1887.37
609.01	1879.14
609.36	1870.76
609.70	1861.78
610.05	1852.72
610.40	1844.12
610.75	1834.87
611.10	1826.17
611.44	1816.60
611.79	1807.45
612.14	1797.58
612.49	1787.20
612.83	1777.69
613.18	1768.37
613.53	1759.40
613.88	1749.76
614.22	1740.60
614.57	1730.66
614.92	1721.58
615.27	1713.28
615.61	1703.74
615.96	1694.59
616.31	1685.74
616.65	1677.14
617.00	1668.57
617.35	1659.84
617.70	1650.28
618.04	1640.65
618.39	1631.25
618.74	1622.78
619.08	1613.40
619.43	1604.71
619.78	1596.80
620.12	1588.67
620.47	1580.20
620.82	1570.81
621.16	1562.27
621.51	1553.45
621.85	1544.83
622.20	1535.17
622.55	1525.53
622.89	1516.51
623.24	1507.82
623.59	1499.40
623.93	1490.94
624.28	1482.64
624.62	1474.12
624.97	1465.95
625.32	1458.14
625.66	1450.08
626.01	1442.04
626.35	1433.80
626.70	1425.06
627.04	1416.30
627.39	1407.39
627.73	1398.92
628.08	1391.05
628.43	1382.96
628.77	1374.85
629.12	1366.37
629.46	1358.18
629.81	1349.43
630.15	1341.21
630.50	1332.77
630.84	1323.54
631.19	1314.41
631.53	1305.77
631.88	1297.16
632.22	1288.56
632.57	1280.20
632.91	1271.77
633.26	1263.34
633.60	1254.80
633.95	1246.59
634.29	1238.54
634.64	1230.87
634.98	1222.67
635.32	1214.68
635.67	1207.18
636.01	1199.55
636.36	1191.98
636.70	1184.59
637.05	1177.35
637.39	1170.12
637.73	1162.95
638.08	1156.27
638.42	1149.61
638.77	1142.36
639.11	1135.05
639.45	1127.90
639.80	1120.48
640.14	1113.33
640.49	1105.94
640.83	1098.86
641.17	1091.97
641.52	1084.92
641.86	1077.76
642.20	1071.15
642.55	1064.01
642.89	1056.67
643.23	1049.29
643.58	1042.63
643.92	1035.71
644.26	1029.06
644.61	1022.22
644.95	1015.35
645.29	1008.03
645.64	1000.44
645.98	993.35
646.32	986.57
646.66	979.77
647.01	973.24
647.35	966.76
647.69	960.17
648.04	953.95
648.38	947.50
648.72	940.84
649.06	934.10
649.41	927.46
649.75	920.79
650.09	914.17
650.43	907.68
650.78	900.77
651.12	894.09
651.46	887.65
651.80	881.30
652.14	875.29
652.49	869.33
652.83	863.59
653.17	857.34
653.51	851.16
653.85	845.02
654.20	838.74
654.54	832.03
654.88	825.62
655.22	819.04
655.56	812.59
655.90	806.39
656.25	800.47
656.59	794.46
656.93	788.72
657.27	782.95
657.61	776.88
657.95	771.17
658.29	765.49
658.64	759.52
658.98	753.52
659.32	747.34
659.66	741.48
660.00	735.55
660.34	729.97
660.68	724.37
661.02	718.79
661.36	713.54
661.70	708.55
662.05	703.73
662.39	698.91
662.73	693.92
663.07	689.10
663.41	684.18
663.75	679.24
664.09	674.18
664.43	669.31
664.77	664.78
665.11	660.14
665.45	655.52
665.79	651.03
666.13	646.52
666.47	641.98
666.81	637.41
667.15	632.78
667.49	628.41
667.83	624.09
668.17	619.72
668.51	615.20
668.85	610.60
669.19	606.24
669.53	601.92
669.87	597.69
670.21	593.47
670.55	589.39
670.89	585.50
671.23	581.68
671.57	577.68
671.91	573.72
672.25	569.70
672.58	565.78
672.92	561.87
673.26	558.19
673.60	554.68
673.94	551.20
674.28	547.92
674.62	544.68
674.96	541.37
675.30	538.16
675.64	534.94
675.97	531.90
676.31	528.67
676.65	525.48
676.99	522.44
677.33	519.25
677.67	516.09
678.01	512.73
678.34	509.45
678.68	506.24
679.02	503.13
679.36	500.06
679.70	496.98
680.04	493.94
680.37	490.81
680.71	487.64
681.05	484.69
681.39	481.68
681.73	478.67
682.06	475.78
682.40	472.91
682.74	470.01
683.08	467.13
683.42	464.22
683.75	461.35
684.09	458.44
684.43	455.63
684.77	452.89
685.10	450.24
685.44	447.61
685.78	445.04
686.12	442.47
686.45	439.87
686.79	437.37
687.13	434.83
687.46	432.38
687.80	429.93
688.14	427.36
688.48	425.08
688.81	422.60
689.15	420.18
689.49	417.73
689.82	415.40
690.16	413.00
690.50	410.75
690.83	408.56
691.17	406.31
691.51	404.23
691.84	402.13
692.18	400.00
692.52	397.85
692.85	395.68
693.19	393.56
693.52	391.55
693.86	389.43
694.20	387.45
694.53	385.44
694.87	383.42
695.21	381.41
695.54	379.33
695.88	377.36
696.21	375.37
696.55	373.51
696.88	371.65
697.22	369.79
697.56	367.98
697.89	366.16
698.23	364.41
698.56	362.53
698.90	360.75
699.23	358.90
699.57	357.11
699.90	355.32
700.24	353.55
700.58	351.84
700.91	350.21
701.25	348.58
701.58	347.04
701.92	345.49
702.25	344.00
702.59	342.47
702.92	341.02
703.26	339.60
703.59	338.14
703.93	336.79
704.26	335.44
704.60	334.04
704.93	332.63
705.26	331.24
705.60	329.97
705.93	328.67
706.27	327.54
706.60	326.37
706.94	325.17
707.27	323.91
707.61	322.65
707.94	321.48
708.27	320.25
708.61	319.06
708.94	317.94
709.28	316.81
709.61	315.72
709.94	314.62
710.28	313.46
710.61	312.36
710.95	311.15
711.28	310.09
711.61	309.00
711.95	307.95
712.28	306.86
712.61	305.71
712.95	304.64
713.28	303.61
713.61	302.55
713.95	301.55
714.28	300.63
714.61	299.69
714.95	298.74
715.28	297.80
715.61	296.78
715.95	295.80
716.28	294.85
716.61	293.92
716.95	292.99
717.28	292.13
717.61	291.28
717.94	290.47
718.28	289.59
718.61	288.75
718.94	287.96
719.27	287.21
719.61	286.51
719.94	285.79
720.27	284.99
720.60	284.27
720.94	283.57
721.27	282.90
721.60	282.26
721.93	281.59
722.27	280.98
722.60	280.37
722.93	279.75
723.26	279.15
723.59	278.53
723.93	277.90
724.26	277.33
724.59	276.67
724.92	276.04
725.25	275.45
725.59	274.87
725.92	274.30
726.25	273.72
726.58	273.12
726.91	272.55
727.24	271.99
727.57	271.43
727.91	270.86
728.24	270.31
728.57	269.74
728.90	269.20
729.23	268.64
729.56	268.17
729.89	267.62
730.22	267.06
730.55	266.53
730.89	266.02
731.22	265.52
731.55	265.01
731.88	264.53
732.21	264.06
732.54	263.58
732.87	263.11
733.20	262.67
733.53	262.25
733.86	261.81
734.19	261.40
734.52	261.02
734.85	260.65
735.18	260.17
735.51	259.79
735.84	259.38
736.17	258.98
736.50	258.51
736.83	258.25
737.16	257.87
737.49	257.49
737.82	257.11
738.15	256.73
738.48	256.36
738.81	256.02
739.14	255.66
739.47	255.30
739.80	254.97
740.13	254.60
740.46	254.28
740.79	253.90
741.12	253.55
741.45	253.18
741.78	252.82
742.11	252.55
742.44	252.16
742.77	251.83
743.10	251.51
743.43	251.21
743.75	250.77
744.08	250.61
744.41	250.34
744.74	250.02
745.07	249.72
745.40	249.44
745.73	249.18
746.06	248.86
746.39	248.56
746.71	248.24
747.04	247.95
747.37	247.65
747.70	247.38
748.03	247.11
748.36	246.82
748.68	246.55
749.01	246.23
749.34	245.99
749.67	245.75
750.00	245.49
750.33	245.29
750.65	245.04
750.98	244.66
751.31	244.38
751.64	244.17
751.97	243.96
752.29	243.71
752.62	243.42
752.95	243.17
753.28	242.95
753.60	242.75
753.93	242.54
754.26	242.30
754.59	242.05
754.91	241.85
755.24	241.66
755.57	241.43
755.90	241.25
756.22	241.04
756.55	240.79
756.88	240.57
757.20	240.31
757.53	240.13
757.86	239.93
758.19	239.75
758.51	239.54
758.84	239.32
759.17	239.14
759.49	238.94
759.82	238.83
760.15	238.69
760.47	238.51
760.80	238.34
761.13	238.17
761.45	238.02
761.78	237.82
762.11	237.67
762.43	237.52
762.76	237.32
763.08	237.18
763.41	237.06
763.74	236.93
764.06	236.79
764.39	236.64
764.71	236.48
765.04	236.30
765.37	236.15
765.69	236.00
766.02	235.90
766.34	235.80
766.67	235.62
767.00	235.49
767.32	235.45
767.65	235.40
767.97	235.29
768.30	235.18
768.62	235.06
768.95	234.91
769.27	234.81
769.60	234.74
769.92	234.60
770.25	234.47
770.57	234.36
770.90	234.23
771.22	234.11
771.55	234.02
771.87	233.92
772.20	233.83
772.52	233.80
772.85	233.79
773.17	233.66
773.50	233.56
773.82	233.45
774.15	233.27
774.47	233.09
774.80	232.97
775.12	232.90
775.45	232.82
775.77	232.75
776.09	232.66
776.42	232.57
776.74	232.49
777.07	232.40
777.39	232.28
777.72	232.22
778.04	232.12
778.36	232.03
778.69	231.95
779.01	231.88
779.33	231.70
779.66	231.48
779.98	231.42
780.31	231.35
780.63	231.27
780.95	231.21
781.28	231.14
781.60	231.08
781.92	230.99
782.25	230.90
782.57	230.83
782.89	230.77
783.22	230.67
783.54	230.59
783.86	230.54
784.19	230.45
784.51	230.41
784.83	230.36
785.16	230.31
785.48	230.27
785.80	230.19
786.12	230.16
786.45	230.12
786.77	230.06
