SpectraSuite Data File
++++++++++++++++++++++++++++++++++++
Date: Fri Feb 01 18:16:31 EST 2013
User: group
Dark Spectrum Present: No
Reference Spectrum Present: No
Number of Sampled Component Spectra: 1
Spectrometers: USB2E7196
Integration Time (usec): 35000 (USB2E7196)
Spectra Averaged: 100 (USB2E7196)
Boxcar Smoothing: 10 (USB2E7196)
Correct for Electrical Dark: No (USB2E7196)
Strobe/Lamp Enabled: No (USB2E7196)
Correct for Detector Non-linearity: No (USB2E7196)
Correct for Stray Light: No (USB2E7196)
Number of Pixels in Processed Spectrum: 2048
>>>>>Begin Processed Spectral Data<<<<<
339.09	0.00
339.48	212.67
339.86	214.47
340.24	215.76
340.63	217.25
341.01	220.25
341.39	219.84
341.78	221.62
342.16	222.15
342.54	222.59
342.93	211.42
343.31	222.08
343.69	222.62
344.07	223.06
344.46	223.49
344.84	223.86
345.22	224.09
345.60	224.36
345.99	224.52
346.37	224.68
346.75	224.80
347.13	224.88
347.52	224.96
347.90	225.04
348.28	225.11
348.66	225.15
349.05	225.15
349.43	225.21
349.81	225.27
350.19	225.32
350.57	225.36
350.96	225.42
351.34	225.54
351.72	225.64
352.10	225.78
352.48	225.85
352.87	225.93
353.25	226.00
353.63	226.03
354.01	226.14
354.39	226.24
354.77	226.31
355.15	226.39
355.54	226.46
355.92	226.51
356.30	226.59
356.68	226.75
357.06	226.88
357.44	226.94
357.82	226.97
358.20	227.08
358.58	227.15
358.97	227.22
359.35	227.33
359.73	227.40
360.11	227.44
360.49	227.52
360.87	227.58
361.25	227.65
361.63	227.77
362.01	227.80
362.39	227.83
362.77	227.90
363.15	227.91
363.53	227.98
363.91	228.05
364.29	228.03
364.67	227.95
365.05	227.96
365.43	227.98
365.81	228.03
366.19	228.02
366.57	228.06
366.95	228.07
367.33	228.03
367.71	228.05
368.09	228.10
368.47	228.09
368.85	228.06
369.23	228.04
369.61	228.00
369.99	228.01
370.37	228.01
370.75	228.04
371.13	228.02
371.51	227.94
371.89	227.89
372.27	227.89
372.65	227.90
373.03	227.83
373.41	227.78
373.78	227.72
374.16	227.64
374.54	227.54
374.92	227.47
375.30	227.43
375.68	227.34
376.06	227.25
376.44	227.18
376.82	227.14
377.19	227.06
377.57	227.01
377.95	226.92
378.33	226.83
378.71	226.69
379.09	226.64
379.47	226.61
379.84	226.53
380.22	226.43
380.60	226.33
380.98	226.28
381.36	226.21
381.73	226.13
382.11	226.11
382.49	226.05
382.87	226.00
383.25	225.93
383.62	225.99
384.00	225.91
384.38	225.86
384.76	225.82
385.13	225.81
385.51	225.70
385.89	225.60
386.27	225.54
386.64	225.51
387.02	225.42
387.40	225.36
387.78	225.29
388.15	225.25
388.53	225.21
388.91	225.20
389.29	225.19
389.66	225.17
390.04	225.11
390.42	225.13
390.79	225.11
391.17	225.10
391.55	225.00
391.92	224.99
392.30	224.98
392.68	224.98
393.05	224.99
393.43	225.01
393.81	225.06
394.18	225.06
394.56	225.05
394.94	225.14
395.31	225.17
395.69	225.23
396.06	225.29
396.44	225.33
396.82	225.30
397.19	225.37
397.57	225.41
397.95	225.45
398.32	225.45
398.70	225.47
399.07	225.55
399.45	225.57
399.82	225.60
400.20	225.65
400.58	225.72
400.95	225.74
401.33	225.85
401.70	225.99
402.08	226.07
402.45	226.17
402.83	226.24
403.20	226.36
403.58	226.46
403.95	226.59
404.33	226.75
404.71	226.90
405.08	227.07
405.46	227.21
405.83	227.43
406.21	227.62
406.58	227.87
406.96	228.05
407.33	228.28
407.70	228.55
408.08	228.87
408.45	229.12
408.83	229.45
409.20	229.73
409.58	229.97
409.95	230.30
410.33	230.68
410.70	231.03
411.08	231.42
411.45	231.81
411.82	232.23
412.20	232.69
412.57	233.23
412.95	233.64
413.32	234.19
413.69	234.69
414.07	235.29
414.44	235.88
414.82	236.55
415.19	237.27
415.56	238.04
415.94	238.82
416.31	239.70
416.68	240.55
417.06	241.52
417.43	242.48
417.81	243.57
418.18	244.62
418.55	245.78
418.93	247.01
419.30	248.25
419.67	249.54
420.04	250.89
420.42	252.29
420.79	253.94
421.16	255.60
421.54	257.26
421.91	258.93
422.28	260.69
422.66	262.51
423.03	264.33
423.40	266.17
423.77	268.11
424.15	270.13
424.52	272.25
424.89	274.50
425.26	276.66
425.64	278.72
426.01	280.97
426.38	283.26
426.75	285.59
427.13	288.03
427.50	290.57
427.87	293.21
428.24	295.82
428.61	298.29
428.99	300.94
429.36	303.90
429.73	306.83
430.10	309.73
430.47	312.69
430.85	315.68
431.22	318.85
431.59	322.23
431.96	325.41
432.33	328.83
432.70	332.16
433.08	336.12
433.45	339.79
433.82	343.47
434.19	347.57
434.56	351.54
434.93	355.31
435.30	358.97
435.68	363.09
436.05	367.09
436.42	371.07
436.79	374.70
437.16	378.57
437.53	382.52
437.90	386.52
438.27	390.38
438.64	394.44
439.01	398.12
439.38	401.34
439.75	404.42
440.13	408.04
440.50	411.38
440.87	414.04
441.24	416.83
441.61	419.91
441.98	421.98
442.35	424.53
442.72	427.17
443.09	429.74
443.46	431.10
443.83	431.99
444.20	432.70
444.57	433.89
444.94	434.23
445.31	434.76
445.68	435.21
446.05	435.32
446.42	434.73
446.79	434.16
447.16	433.47
447.53	433.00
447.90	431.29
448.27	429.65
448.64	427.41
449.01	425.78
449.37	423.01
449.74	420.41
450.11	417.21
450.48	413.72
450.85	410.21
451.22	407.18
451.59	404.28
451.96	401.53
452.33	397.81
452.70	394.52
453.07	390.54
453.43	386.49
453.80	382.57
454.17	378.85
454.54	375.23
454.91	371.42
455.28	367.62
455.65	364.17
456.02	360.66
456.38	357.63
456.75	353.88
457.12	350.68
457.49	347.51
457.86	344.44
458.23	341.80
458.59	338.92
458.96	336.00
459.33	333.36
459.70	330.74
460.07	328.61
460.43	326.12
460.80	323.77
461.17	321.68
461.54	319.55
461.91	317.49
462.27	315.44
462.64	313.66
463.01	311.74
463.38	309.85
463.74	307.94
464.11	306.24
464.48	304.75
464.85	303.16
465.21	301.92
465.58	300.61
465.95	299.02
466.32	297.66
466.68	296.34
467.05	295.10
467.42	293.77
467.78	292.49
468.15	291.28
468.52	290.33
468.88	289.10
469.25	288.02
469.62	287.07
469.98	286.08
470.35	285.14
470.72	284.32
471.08	283.41
471.45	282.63
471.82	281.80
472.18	280.98
472.55	280.32
472.92	279.52
473.28	278.88
473.65	278.22
474.02	277.61
474.38	277.10
474.75	276.56
475.11	276.04
475.48	275.61
475.85	275.22
476.21	274.84
476.58	274.53
476.94	274.27
477.31	274.00
477.67	273.75
478.04	273.54
478.41	273.32
478.77	273.25
479.14	273.10
479.50	273.10
479.87	273.05
480.23	273.11
480.60	273.11
480.96	273.10
481.33	273.29
481.69	273.40
482.06	273.51
482.42	273.67
482.79	273.92
483.15	274.20
483.52	274.59
483.88	274.94
484.25	275.31
484.61	275.70
484.98	276.13
485.34	276.67
485.71	277.26
486.07	277.91
486.44	278.50
486.80	279.18
487.17	279.89
487.53	280.77
487.90	281.62
488.26	282.62
488.62	283.65
488.99	284.65
489.35	285.74
489.72	286.92
490.08	288.18
490.44	289.47
490.81	290.89
491.17	292.31
491.54	293.89
491.90	295.55
492.26	297.31
492.63	299.17
492.99	301.03
493.36	303.07
493.72	305.26
494.08	307.51
494.45	309.94
494.81	312.46
495.17	315.01
495.54	317.76
495.90	320.60
496.26	323.58
496.63	326.74
496.99	330.07
497.35	333.59
497.72	337.24
498.08	341.03
498.44	344.94
498.80	349.14
499.17	353.50
499.53	357.90
499.89	362.66
500.26	367.44
500.62	372.48
500.98	377.80
501.34	383.19
501.71	388.92
502.07	394.78
502.43	400.83
502.79	407.14
503.16	413.69
503.52	420.44
503.88	427.37
504.24	434.48
504.60	441.94
504.97	449.58
505.33	457.45
505.69	465.73
506.05	474.09
506.41	482.60
506.78	491.36
507.14	500.52
507.50	509.87
507.86	519.63
508.22	529.63
508.59	539.56
508.95	549.94
509.31	560.55
509.67	571.50
510.03	582.64
510.39	594.07
510.75	605.74
511.12	617.62
511.48	629.89
511.84	642.40
512.20	654.95
512.56	668.02
512.92	681.35
513.28	694.79
513.64	708.37
514.00	722.32
514.37	736.52
514.73	750.89
515.09	765.23
515.45	779.81
515.81	794.68
516.17	810.09
516.53	825.62
516.89	841.22
517.25	856.83
517.61	872.76
517.97	888.71
518.33	904.57
518.69	920.88
519.05	937.43
519.41	954.18
519.77	971.36
520.13	988.43
520.49	1005.47
520.85	1022.51
521.21	1039.95
521.57	1057.92
521.93	1075.45
522.29	1093.55
522.65	1111.68
523.01	1129.77
523.37	1147.70
523.73	1165.77
524.09	1183.82
524.45	1202.09
524.81	1220.64
525.17	1239.35
525.53	1258.29
525.89	1277.34
526.25	1296.40
526.61	1314.76
526.97	1333.62
527.33	1352.20
527.68	1370.89
528.04	1389.53
528.40	1408.37
528.76	1427.69
529.12	1446.53
529.48	1465.76
529.84	1484.13
530.20	1502.95
530.56	1522.36
530.91	1542.21
531.27	1561.36
531.63	1580.11
531.99	1598.99
532.35	1617.34
532.71	1635.76
533.07	1654.54
533.42	1672.98
533.78	1691.43
534.14	1710.38
534.50	1728.27
534.86	1746.73
535.21	1764.41
535.57	1782.87
535.93	1800.93
536.29	1818.33
536.65	1835.90
537.00	1852.99
537.36	1870.89
537.72	1888.05
538.08	1905.11
538.44	1921.39
538.79	1937.88
539.15	1954.05
539.51	1970.33
539.87	1987.50
540.22	2003.88
540.58	2020.33
540.94	2036.20
541.29	2051.82
541.65	2067.21
542.01	2083.06
542.37	2097.97
542.72	2113.02
543.08	2127.45
543.44	2142.59
543.79	2156.26
544.15	2169.91
544.51	2184.27
544.87	2197.78
545.22	2211.25
545.58	2223.93
545.94	2236.20
546.29	2248.52
546.65	2261.17
547.01	2273.04
547.36	2284.05
547.72	2294.94
548.07	2305.16
548.43	2315.75
548.79	2325.91
549.14	2335.63
549.50	2345.17
549.86	2355.01
550.21	2364.69
550.57	2374.16
550.92	2382.93
551.28	2392.49
551.64	2401.76
551.99	2410.50
552.35	2418.92
552.70	2427.14
553.06	2435.36
553.41	2443.94
553.77	2452.08
554.13	2460.14
554.48	2468.56
554.84	2476.16
555.19	2483.46
555.55	2490.62
555.90	2496.96
556.26	2504.10
556.61	2510.75
556.97	2517.10
557.32	2523.21
557.68	2529.16
558.03	2535.41
558.39	2540.91
558.74	2547.42
559.10	2553.10
559.45	2558.63
559.81	2564.55
560.16	2570.02
560.52	2574.81
560.87	2579.73
561.23	2583.92
561.58	2588.45
561.94	2592.54
562.29	2596.44
562.64	2600.75
563.00	2604.87
563.35	2610.02
563.71	2614.50
564.06	2619.30
564.42	2623.61
564.77	2627.57
565.12	2631.25
565.48	2634.53
565.83	2637.77
566.19	2640.27
566.54	2642.33
566.89	2644.62
567.25	2646.48
567.60	2649.17
567.96	2652.20
568.31	2654.27
568.66	2656.64
569.02	2658.20
569.37	2659.42
569.72	2661.23
570.08	2662.21
570.43	2663.05
570.78	2663.27
571.14	2662.23
571.49	2661.41
571.84	2661.81
572.20	2661.40
572.55	2661.08
572.90	2659.86
573.26	2658.97
573.61	2657.62
573.96	2656.42
574.31	2653.74
574.67	2651.03
575.02	2647.62
575.37	2644.31
575.72	2640.51
576.08	2637.07
576.43	2633.80
576.78	2630.19
577.13	2627.07
577.49	2623.96
577.84	2620.45
578.19	2616.54
578.54	2613.08
578.90	2608.76
579.25	2602.83
579.60	2597.61
579.95	2592.11
580.30	2586.81
580.66	2581.24
581.01	2576.06
581.36	2570.66
581.71	2566.16
582.06	2561.30
582.42	2556.25
582.77	2550.57
583.12	2545.79
583.47	2540.89
583.82	2535.50
584.17	2529.61
584.53	2523.49
584.88	2517.40
585.23	2511.08
585.58	2505.11
585.93	2498.99
586.28	2493.76
586.63	2488.14
586.98	2482.41
587.34	2477.33
587.69	2471.76
588.04	2465.82
588.39	2459.34
588.74	2451.95
589.09	2444.96
589.44	2437.13
589.79	2430.24
590.14	2423.75
590.49	2416.10
590.84	2408.55
591.19	2401.59
591.54	2394.21
591.89	2385.93
592.25	2378.17
592.60	2369.70
592.95	2360.96
593.30	2352.44
593.65	2343.64
594.00	2335.66
594.35	2327.19
594.70	2317.77
595.05	2309.55
595.40	2301.12
595.75	2292.37
596.10	2285.17
596.45	2277.26
596.80	2270.14
597.15	2262.50
597.50	2254.31
597.85	2246.66
598.19	2239.05
598.54	2230.81
598.89	2222.96
599.24	2215.82
599.59	2207.82
599.94	2200.57
600.29	2193.08
600.64	2185.30
600.99	2176.57
601.34	2168.28
601.69	2159.94
602.04	2151.82
602.39	2143.03
602.74	2134.82
603.08	2126.74
603.43	2118.69
603.78	2109.93
604.13	2101.31
604.48	2092.63
604.83	2084.42
605.18	2076.18
605.53	2066.69
605.87	2057.17
606.22	2048.41
606.57	2038.92
606.92	2030.06
607.27	2021.45
607.62	2013.18
607.96	2004.35
608.31	1996.38
608.66	1987.23
609.01	1978.32
609.36	1969.22
609.70	1959.60
610.05	1949.93
610.40	1940.75
610.75	1930.76
611.10	1921.55
611.44	1911.42
611.79	1901.75
612.14	1891.32
612.49	1880.31
612.83	1870.14
613.18	1860.19
613.53	1850.57
613.88	1840.43
614.22	1830.39
614.57	1820.04
614.92	1810.27
615.27	1801.33
615.61	1791.26
615.96	1781.71
616.31	1772.50
616.65	1763.74
617.00	1754.77
617.35	1745.61
617.70	1735.71
618.04	1725.63
618.39	1715.69
618.74	1706.58
619.08	1696.64
619.43	1687.32
619.78	1678.97
620.12	1670.43
620.47	1661.51
620.82	1651.70
621.16	1642.49
621.51	1633.28
621.85	1624.06
622.20	1613.82
622.55	1603.54
622.89	1593.99
623.24	1584.66
623.59	1575.62
623.93	1566.36
624.28	1557.50
624.62	1548.41
624.97	1539.65
625.32	1531.32
625.66	1522.99
626.01	1514.27
626.35	1505.31
626.70	1496.00
627.04	1486.69
627.39	1477.23
627.73	1468.16
628.08	1459.83
628.43	1451.28
628.77	1442.55
629.12	1433.43
629.46	1424.86
629.81	1415.92
630.15	1407.14
630.50	1398.22
630.84	1388.33
631.19	1378.80
631.53	1369.71
631.88	1360.50
632.22	1351.32
632.57	1342.48
632.91	1333.27
633.26	1324.46
633.60	1315.58
633.95	1307.03
634.29	1298.48
634.64	1290.47
634.98	1281.67
635.32	1272.98
635.67	1264.94
636.01	1256.93
636.36	1248.76
636.70	1240.87
637.05	1233.14
637.39	1225.44
637.73	1217.64
638.08	1210.61
638.42	1203.37
638.77	1195.68
639.11	1187.97
639.45	1180.31
639.80	1172.44
640.14	1164.84
640.49	1157.02
640.83	1149.44
641.17	1142.04
641.52	1134.47
641.86	1126.67
642.20	1119.70
642.55	1112.14
642.89	1104.45
643.23	1096.64
643.58	1089.83
643.92	1082.47
644.26	1075.19
644.61	1068.00
644.95	1060.80
645.29	1052.98
645.64	1045.01
645.98	1037.46
646.32	1030.35
646.66	1023.20
647.01	1016.28
647.35	1009.43
647.69	1002.47
648.04	995.96
648.38	989.09
648.72	982.06
649.06	974.93
649.41	967.90
649.75	960.83
650.09	953.82
650.43	946.99
650.78	939.67
651.12	932.63
651.46	925.82
651.80	919.02
652.14	912.57
652.49	906.24
652.83	900.11
653.17	893.45
653.51	886.73
653.85	880.31
654.20	873.62
654.54	866.52
654.88	859.65
655.22	852.63
655.56	845.86
655.90	839.36
656.25	833.14
656.59	826.84
656.93	820.87
657.27	814.71
657.61	808.28
657.95	802.18
658.29	796.19
658.64	790.00
658.98	783.72
659.32	777.38
659.66	771.18
660.00	764.92
660.34	758.99
660.68	753.22
661.02	747.21
661.36	741.66
661.70	736.35
662.05	731.20
662.39	726.06
662.73	720.79
663.07	715.65
663.41	710.36
663.75	705.12
664.09	699.68
664.43	694.51
664.77	689.64
665.11	684.62
665.45	679.71
665.79	674.89
666.13	670.09
666.47	665.25
666.81	660.44
667.15	655.55
667.49	650.91
667.83	646.30
668.17	641.72
668.51	636.89
668.85	632.15
669.19	627.61
669.53	623.10
669.87	618.56
670.21	614.18
670.55	609.91
670.89	605.75
671.23	601.73
671.57	597.58
671.91	593.35
672.25	589.26
672.58	585.14
672.92	581.10
673.26	577.31
673.60	573.56
673.94	569.83
674.28	566.38
674.62	562.93
674.96	559.37
675.30	555.94
675.64	552.43
675.97	549.15
676.31	545.76
676.65	542.33
676.99	539.14
677.33	535.76
677.67	532.40
678.01	528.85
678.34	525.34
678.68	521.90
679.02	518.56
679.36	515.29
679.70	512.05
680.04	508.85
680.37	505.49
680.71	502.19
681.05	499.11
681.39	495.94
681.73	492.80
682.06	489.82
682.40	486.80
682.74	483.87
683.08	480.85
683.42	477.78
683.75	474.77
684.09	471.77
684.43	468.88
684.77	466.02
685.10	463.24
685.44	460.49
685.78	457.78
686.12	455.17
686.45	452.39
686.79	449.63
687.13	446.99
687.46	444.44
687.80	441.90
688.14	439.22
688.48	436.76
688.81	434.12
689.15	431.49
689.49	428.94
689.82	426.44
690.16	423.98
690.50	421.67
690.83	419.42
691.17	417.04
691.51	414.73
691.84	412.47
692.18	410.16
692.52	407.84
692.85	405.58
693.19	403.35
693.52	401.21
693.86	399.08
694.20	396.98
694.53	394.80
694.87	392.55
695.21	390.43
695.54	388.26
695.88	386.20
696.21	384.15
696.55	382.18
696.88	380.19
697.22	378.18
697.56	376.24
697.89	374.25
698.23	372.35
698.56	370.46
698.90	368.63
699.23	366.72
699.57	364.88
699.90	363.05
700.24	361.22
700.58	359.43
700.91	357.65
701.25	355.91
701.58	354.29
701.92	352.68
702.25	351.12
702.59	349.56
702.92	347.99
703.26	346.50
703.59	344.97
703.93	343.56
704.26	342.15
704.60	340.63
704.93	339.15
705.26	337.67
705.60	336.22
705.93	334.84
706.27	333.63
706.60	332.38
706.94	331.06
707.27	329.71
707.61	328.41
707.94	327.21
708.27	325.92
708.61	324.60
708.94	323.44
709.28	322.23
709.61	321.03
709.94	319.92
710.28	318.72
710.61	317.55
710.95	316.27
711.28	315.11
711.61	313.97
711.95	312.87
712.28	311.74
712.61	310.63
712.95	309.47
713.28	308.38
713.61	307.33
713.95	306.32
714.28	305.29
714.61	304.29
714.95	303.27
715.28	302.29
715.61	301.30
715.95	300.30
716.28	299.24
716.61	298.24
716.95	297.19
717.28	296.32
717.61	295.37
717.94	294.54
718.28	293.61
718.61	292.78
718.94	291.99
719.27	291.20
719.61	290.41
719.94	289.62
720.27	288.80
720.60	287.99
720.94	287.25
721.27	286.56
721.60	285.86
721.93	285.11
722.27	284.44
722.60	283.78
722.93	283.05
723.26	282.47
723.59	281.80
723.93	281.25
724.26	280.55
724.59	279.92
724.92	279.28
725.25	278.73
725.59	278.08
725.92	277.43
726.25	276.83
726.58	276.25
726.91	275.71
727.24	275.11
727.57	274.55
727.91	273.92
728.24	273.36
728.57	272.77
728.90	272.26
729.23	271.66
729.56	271.11
729.89	270.60
730.22	270.00
730.55	269.48
730.89	268.92
731.22	268.42
731.55	267.92
731.88	267.42
732.21	266.89
732.54	266.40
732.87	265.94
733.20	265.48
733.53	265.02
733.86	264.56
734.19	264.12
734.52	263.66
734.85	263.31
735.18	262.84
735.51	262.42
735.84	261.99
736.17	261.57
736.50	261.13
736.83	260.80
737.16	260.42
737.49	260.04
737.82	259.61
738.15	259.18
738.48	258.79
738.81	258.40
739.14	258.00
739.47	257.63
739.80	257.23
740.13	256.86
740.46	256.48
740.79	256.11
741.12	255.77
741.45	255.44
741.78	255.04
742.11	254.69
742.44	254.31
742.77	253.97
743.10	253.62
743.43	253.28
743.75	252.86
744.08	252.66
744.41	252.35
744.74	252.03
745.07	251.71
745.40	251.41
745.73	251.12
746.06	250.79
746.39	250.49
746.71	250.16
747.04	249.83
747.37	249.53
747.70	249.21
748.03	248.87
748.36	248.55
748.68	248.27
749.01	247.99
749.34	247.72
749.67	247.42
750.00	247.14
750.33	246.93
750.65	246.68
750.98	246.28
751.31	245.98
751.64	245.74
751.97	245.55
752.29	245.27
752.62	244.95
752.95	244.72
753.28	244.48
753.60	244.26
753.93	244.06
754.26	243.82
754.59	243.59
754.91	243.36
755.24	243.09
755.57	242.86
755.90	242.62
756.22	242.40
756.55	242.17
756.88	241.94
757.20	241.71
757.53	241.47
757.86	241.25
758.19	241.08
758.51	240.90
758.84	240.64
759.17	240.42
759.49	240.27
759.82	240.10
760.15	239.90
760.47	239.72
760.80	239.51
761.13	239.35
761.45	239.16
761.78	238.99
762.11	238.85
762.43	238.66
762.76	238.51
763.08	238.35
763.41	238.24
763.74	238.07
764.06	237.89
764.39	237.74
764.71	237.58
765.04	237.39
765.37	237.20
765.69	237.08
766.02	236.95
766.34	236.79
766.67	236.64
767.00	236.50
767.32	236.41
767.65	236.37
767.97	236.22
768.30	236.10
768.62	235.96
768.95	235.81
769.27	235.66
769.60	235.53
769.92	235.40
770.25	235.23
770.57	235.12
770.90	234.97
771.22	234.83
771.55	234.70
771.87	234.61
772.20	234.50
772.52	234.45
772.85	234.47
773.17	234.37
773.50	234.27
773.82	234.13
774.15	233.96
774.47	233.74
774.80	233.63
775.12	233.52
775.45	233.40
775.77	233.31
776.09	233.23
776.42	233.16
776.74	233.13
777.07	233.06
777.39	232.99
777.72	232.91
778.04	232.84
778.36	232.78
778.69	232.72
779.01	232.65
779.33	232.51
779.66	232.29
779.98	232.22
780.31	232.12
780.63	232.13
780.95	232.10
781.28	232.05
781.60	231.97
781.92	231.92
782.25	231.84
782.57	231.78
782.89	231.72
783.22	231.63
783.54	231.50
783.86	231.41
784.19	231.32
784.51	231.27
784.83	231.21
785.16	231.11
785.48	231.00
785.80	230.96
786.12	230.91
786.45	230.85
