SpectraSuite Data File
++++++++++++++++++++++++++++++++++++
Date: Fri Feb 01 14:49:30 EST 2013
User: group
Dark Spectrum Present: No
Reference Spectrum Present: No
Number of Sampled Component Spectra: 1
Spectrometers: USB2E7196
Integration Time (usec): 35000 (USB2E7196)
Spectra Averaged: 100 (USB2E7196)
Boxcar Smoothing: 10 (USB2E7196)
Correct for Electrical Dark: No (USB2E7196)
Strobe/Lamp Enabled: No (USB2E7196)
Correct for Detector Non-linearity: No (USB2E7196)
Correct for Stray Light: No (USB2E7196)
Number of Pixels in Processed Spectrum: 2048
>>>>>Begin Processed Spectral Data<<<<<
339.09	0.00
339.48	215.67
339.86	216.66
340.24	218.85
340.63	220.09
341.01	222.75
341.39	222.94
341.78	223.70
342.16	224.93
342.54	225.41
342.93	214.01
343.31	224.82
343.69	225.39
344.07	225.88
344.46	226.28
344.84	226.64
345.22	226.87
345.60	227.10
345.99	227.32
346.37	227.46
346.75	227.58
347.13	227.65
347.52	227.70
347.90	227.77
348.28	227.79
348.66	227.83
349.05	227.86
349.43	227.90
349.81	227.93
350.19	227.95
350.57	227.97
350.96	228.03
351.34	228.13
351.72	228.21
352.10	228.30
352.48	228.43
352.87	228.51
353.25	228.59
353.63	228.65
354.01	228.71
354.39	228.80
354.77	228.85
355.15	228.94
355.54	229.00
355.92	229.03
356.30	229.14
356.68	229.28
357.06	229.34
357.44	229.37
357.82	229.43
358.20	229.52
358.58	229.56
358.97	229.65
359.35	229.73
359.73	229.80
360.11	229.85
360.49	229.83
360.87	229.86
361.25	229.95
361.63	230.03
362.01	230.05
362.39	230.04
362.77	230.10
363.15	230.15
363.53	230.17
363.91	230.18
364.29	230.22
364.67	230.13
365.05	230.15
365.43	230.18
365.81	230.22
366.19	230.26
366.57	230.31
366.95	230.25
367.33	230.19
367.71	230.15
368.09	230.14
368.47	230.12
368.85	230.07
369.23	230.00
369.61	229.94
369.99	229.93
370.37	229.91
370.75	229.90
371.13	229.83
371.51	229.78
371.89	229.73
372.27	229.70
372.65	229.66
373.03	229.60
373.41	229.54
373.78	229.46
374.16	229.35
374.54	229.27
374.92	229.22
375.30	229.13
375.68	229.03
376.06	228.98
376.44	228.92
376.82	228.87
377.19	228.79
377.57	228.70
377.95	228.59
378.33	228.52
378.71	228.37
379.09	228.30
379.47	228.20
379.84	228.13
380.22	227.99
380.60	227.86
380.98	227.78
381.36	227.66
381.73	227.53
382.11	227.45
382.49	227.34
382.87	227.25
383.25	227.21
383.62	227.25
384.00	227.16
384.38	227.06
384.76	227.02
385.13	227.01
385.51	226.95
385.89	226.88
386.27	226.83
386.64	226.80
387.02	226.73
387.40	226.69
387.78	226.64
388.15	226.62
388.53	226.59
388.91	226.56
389.29	226.55
389.66	226.59
390.04	226.55
390.42	226.56
390.79	226.58
391.17	226.54
391.55	226.46
391.92	226.44
392.30	226.48
392.68	226.47
393.05	226.47
393.43	226.47
393.81	226.53
394.18	226.53
394.56	226.57
394.94	226.61
395.31	226.64
395.69	226.75
396.06	226.83
396.44	226.88
396.82	226.96
397.19	227.05
397.57	227.08
397.95	227.20
398.32	227.23
398.70	227.30
399.07	227.40
399.45	227.47
399.82	227.58
400.20	227.65
400.58	227.75
400.95	227.82
401.33	227.99
401.70	228.15
402.08	228.27
402.45	228.40
402.83	228.53
403.20	228.66
403.58	228.74
403.95	228.86
404.33	229.04
404.71	229.17
405.08	229.40
405.46	229.55
405.83	229.68
406.21	229.87
406.58	230.07
406.96	230.26
407.33	230.45
407.70	230.64
408.08	230.91
408.45	231.15
408.83	231.38
409.20	231.58
409.58	231.75
409.95	232.02
410.33	232.27
410.70	232.56
411.08	232.88
411.45	233.19
411.82	233.50
412.20	233.86
412.57	234.28
412.95	234.55
413.32	234.99
413.69	235.45
414.07	235.86
414.44	236.29
414.82	236.78
415.19	237.31
415.56	237.87
415.94	238.40
416.31	239.02
416.68	239.66
417.06	240.37
417.43	241.03
417.81	241.78
418.18	242.57
418.55	243.39
418.93	244.26
419.30	245.16
419.67	246.08
420.04	247.03
420.42	247.99
420.79	249.18
421.16	250.30
421.54	251.45
421.91	252.69
422.28	253.98
422.66	255.26
423.03	256.57
423.40	257.90
423.77	259.30
424.15	260.68
424.52	262.13
424.89	263.68
425.26	265.25
425.64	266.68
426.01	268.27
426.38	269.92
426.75	271.55
427.13	273.23
427.50	275.00
427.87	276.83
428.24	278.69
428.61	280.43
428.99	282.33
429.36	284.42
429.73	286.46
430.10	288.44
430.47	290.50
430.85	292.57
431.22	294.79
431.59	297.13
431.96	299.38
432.33	301.85
432.70	304.24
433.08	307.03
433.45	309.67
433.82	312.26
434.19	315.13
434.56	317.94
434.93	320.64
435.30	323.28
435.68	326.17
436.05	328.98
436.42	331.70
436.79	334.25
437.16	336.95
437.53	339.80
437.90	342.67
438.27	345.41
438.64	348.21
439.01	350.80
439.38	353.07
439.75	355.27
440.13	357.76
440.50	360.10
440.87	361.90
441.24	363.85
441.61	366.01
441.98	367.47
442.35	369.23
442.72	371.04
443.09	372.83
443.46	373.82
443.83	374.44
444.20	374.97
444.57	375.78
444.94	376.04
445.31	376.33
445.68	376.63
446.05	376.69
446.42	376.35
446.79	375.91
447.16	375.46
447.53	375.17
447.90	374.03
448.27	372.90
448.64	371.33
449.01	370.17
449.37	368.21
449.74	366.32
450.11	364.13
450.48	361.71
450.85	359.21
451.22	357.10
451.59	355.09
451.96	353.18
452.33	350.56
452.70	348.24
453.07	345.44
453.43	342.54
453.80	339.81
454.17	337.15
454.54	334.66
454.91	331.95
455.28	329.25
455.65	326.76
456.02	324.33
456.38	322.22
456.75	319.59
457.12	317.32
457.49	315.17
457.86	313.01
458.23	311.12
458.59	309.07
458.96	306.96
459.33	305.11
459.70	303.25
460.07	301.79
460.43	300.03
460.80	298.43
461.17	297.01
461.54	295.53
461.91	294.07
462.27	292.58
462.64	291.30
463.01	289.91
463.38	288.63
463.74	287.26
464.11	286.09
464.48	285.06
464.85	283.96
465.21	283.04
465.58	282.12
465.95	281.06
466.32	280.13
466.68	279.22
467.05	278.31
467.42	277.36
467.78	276.42
468.15	275.58
468.52	274.90
468.88	274.00
469.25	273.21
469.62	272.62
469.98	271.96
470.35	271.35
470.72	270.74
471.08	270.06
471.45	269.47
471.82	268.87
472.18	268.26
472.55	267.84
472.92	267.30
473.28	266.81
473.65	266.31
474.02	265.86
474.38	265.53
474.75	265.15
475.11	264.84
475.48	264.57
475.85	264.33
476.21	264.06
476.58	263.90
476.94	263.73
477.31	263.53
477.67	263.36
478.04	263.24
478.41	263.21
478.77	263.25
479.14	263.16
479.50	263.20
479.87	263.24
480.23	263.29
480.60	263.37
480.96	263.44
481.33	263.66
481.69	263.86
482.06	263.99
482.42	264.21
482.79	264.44
483.15	264.74
483.52	265.09
483.88	265.42
484.25	265.78
484.61	266.19
484.98	266.62
485.34	267.17
485.71	267.75
486.07	268.30
486.44	268.84
486.80	269.55
487.17	270.28
487.53	271.08
487.90	271.93
488.26	272.84
488.62	273.83
488.99	274.75
489.35	275.78
489.72	276.91
490.08	278.07
490.44	279.33
490.81	280.66
491.17	282.00
491.54	283.48
491.90	285.01
492.26	286.62
492.63	288.38
492.99	290.13
493.36	292.04
493.72	294.09
494.08	296.21
494.45	298.43
494.81	300.76
495.17	303.17
495.54	305.72
495.90	308.35
496.26	311.13
496.63	314.08
496.99	317.15
497.35	320.31
497.72	323.69
498.08	327.19
498.44	330.77
498.80	334.65
499.17	338.69
499.53	342.80
499.89	347.16
500.26	351.66
500.62	356.32
500.98	361.21
501.34	366.25
501.71	371.49
502.07	376.92
502.43	382.48
502.79	388.31
503.16	394.31
503.52	400.54
503.88	406.92
504.24	413.49
504.60	420.31
504.97	427.41
505.33	434.71
505.69	442.29
506.05	450.10
506.41	457.90
506.78	465.98
507.14	474.39
507.50	483.11
507.86	492.02
508.22	501.15
508.59	510.24
508.95	519.78
509.31	529.56
509.67	539.64
510.03	549.90
510.39	560.32
510.75	571.12
511.12	582.01
511.48	593.23
511.84	604.62
512.20	616.14
512.56	628.06
512.92	640.20
513.28	652.51
513.64	664.96
514.00	677.66
514.37	690.48
514.73	703.46
515.09	716.38
515.45	729.61
515.81	743.17
516.17	757.25
516.53	771.36
516.89	785.44
517.25	799.54
517.61	813.98
517.97	828.42
518.33	842.78
518.69	857.58
519.05	872.53
519.41	887.67
519.77	903.22
520.13	918.56
520.49	933.89
520.85	949.39
521.21	965.01
521.57	981.19
521.93	997.08
522.29	1013.59
522.65	1029.83
523.01	1046.15
523.37	1062.33
523.73	1078.55
524.09	1094.63
524.45	1111.15
524.81	1127.86
525.17	1144.69
525.53	1161.71
525.89	1178.65
526.25	1195.47
526.61	1211.85
526.97	1228.70
527.33	1245.15
527.68	1261.93
528.04	1278.53
528.40	1295.10
528.76	1312.19
529.12	1328.82
529.48	1345.72
529.84	1361.74
530.20	1378.59
530.56	1395.65
530.91	1412.92
531.27	1429.62
531.63	1446.19
531.99	1462.68
532.35	1478.60
532.71	1494.53
533.07	1510.85
533.42	1526.69
533.78	1542.83
534.14	1559.24
534.50	1574.50
534.86	1590.42
535.21	1605.60
535.57	1621.53
535.93	1637.22
536.29	1652.10
536.65	1667.36
537.00	1682.22
537.36	1697.56
537.72	1712.07
538.08	1726.49
538.44	1740.45
538.79	1754.50
539.15	1768.28
539.51	1782.10
539.87	1796.63
540.22	1810.40
540.58	1824.07
540.94	1837.51
541.29	1850.47
541.65	1863.25
542.01	1876.60
542.37	1888.99
542.72	1901.47
543.08	1913.28
543.44	1925.68
543.79	1937.02
544.15	1947.94
544.51	1959.47
544.87	1970.41
545.22	1981.25
545.58	1991.55
545.94	2001.36
546.29	2011.13
546.65	2020.78
547.01	2030.09
547.36	2038.71
547.72	2047.14
548.07	2055.07
548.43	2063.27
548.79	2071.22
549.14	2078.68
549.50	2086.08
549.86	2093.73
550.21	2100.99
550.57	2108.15
550.92	2114.65
551.28	2121.80
551.64	2128.83
551.99	2135.23
552.35	2141.41
552.70	2147.38
553.06	2153.24
553.41	2159.48
553.77	2165.51
554.13	2171.48
554.48	2177.45
554.84	2182.82
555.19	2187.93
555.55	2192.92
555.90	2197.30
556.26	2202.10
556.61	2206.68
556.97	2210.77
557.32	2214.75
557.68	2218.65
558.03	2222.78
558.39	2226.37
558.74	2230.70
559.10	2234.28
559.45	2237.84
559.81	2241.96
560.16	2245.65
560.52	2248.67
560.87	2251.94
561.23	2254.23
561.58	2257.09
561.94	2259.42
562.29	2261.69
562.64	2264.39
563.00	2266.93
563.35	2270.17
563.71	2273.00
564.06	2275.90
564.42	2278.64
564.77	2280.93
565.12	2283.15
565.48	2284.65
565.83	2286.26
566.19	2287.24
566.54	2288.14
566.89	2289.14
567.25	2289.34
567.60	2290.52
567.96	2291.92
568.31	2292.31
568.66	2293.40
569.02	2293.75
569.37	2293.78
569.72	2294.35
570.08	2294.14
570.43	2293.91
570.78	2292.94
571.14	2291.08
571.49	2289.52
571.84	2288.99
572.20	2287.72
572.55	2286.33
572.90	2284.59
573.26	2282.81
573.61	2280.90
573.96	2278.82
574.31	2275.56
574.67	2272.41
575.02	2268.31
575.37	2264.71
575.72	2260.69
576.08	2257.04
576.43	2253.42
576.78	2249.63
577.13	2246.16
577.49	2242.81
577.84	2238.94
578.19	2235.11
578.54	2231.30
578.90	2226.93
579.25	2221.10
579.60	2215.87
579.95	2210.72
580.30	2205.59
580.66	2200.27
581.01	2195.09
581.36	2189.93
581.71	2185.57
582.06	2180.84
582.42	2176.26
582.77	2170.86
583.12	2166.00
583.47	2161.09
583.82	2156.07
584.17	2150.64
584.53	2144.95
584.88	2139.16
585.23	2133.31
585.58	2127.67
585.93	2122.07
586.28	2117.12
586.63	2111.94
586.98	2106.66
587.34	2101.92
587.69	2096.79
588.04	2091.37
588.39	2085.70
588.74	2079.14
589.09	2072.83
589.44	2066.04
589.79	2059.90
590.14	2054.01
590.49	2047.53
590.84	2040.76
591.19	2034.38
591.54	2027.77
591.89	2020.48
592.25	2013.56
592.60	2006.33
592.95	1998.61
593.30	1991.29
593.65	1983.43
594.00	1976.27
594.35	1968.85
594.70	1960.46
595.05	1953.18
595.40	1945.94
595.75	1938.23
596.10	1931.97
596.45	1925.12
596.80	1918.82
597.15	1912.10
597.50	1905.07
597.85	1898.56
598.19	1892.09
598.54	1885.16
598.89	1878.65
599.24	1872.56
599.59	1865.81
599.94	1859.49
600.29	1853.16
600.64	1846.40
600.99	1839.13
601.34	1832.09
601.69	1825.19
602.04	1818.43
602.39	1811.17
602.74	1804.29
603.08	1797.59
603.43	1790.93
603.78	1783.75
604.13	1776.53
604.48	1769.32
604.83	1762.45
605.18	1755.47
605.53	1747.51
605.87	1739.33
606.22	1732.02
606.57	1724.06
606.92	1716.81
607.27	1709.63
607.62	1702.77
607.96	1695.73
608.31	1689.13
608.66	1681.63
609.01	1674.20
609.36	1666.72
609.70	1658.76
610.05	1650.86
610.40	1643.41
610.75	1635.03
611.10	1627.31
611.44	1619.10
611.79	1611.14
612.14	1602.56
612.49	1593.52
612.83	1585.32
613.18	1577.42
613.53	1569.38
613.88	1561.02
614.22	1552.93
614.57	1544.43
614.92	1536.58
615.27	1529.01
615.61	1520.77
615.96	1512.87
616.31	1505.33
616.65	1498.09
617.00	1490.60
617.35	1482.83
617.70	1474.44
618.04	1466.03
618.39	1457.89
618.74	1450.33
619.08	1442.10
619.43	1434.63
619.78	1427.87
620.12	1420.76
620.47	1413.31
620.82	1405.30
621.16	1397.97
621.51	1390.31
621.85	1382.84
622.20	1374.47
622.55	1366.40
622.89	1358.69
623.24	1351.22
623.59	1343.95
623.93	1336.49
624.28	1329.45
624.62	1322.07
624.97	1314.89
625.32	1308.18
625.66	1301.31
626.01	1294.35
626.35	1287.12
626.70	1279.54
627.04	1272.06
627.39	1264.35
627.73	1257.03
628.08	1250.21
628.43	1243.11
628.77	1235.90
629.12	1228.51
629.46	1221.34
629.81	1213.97
630.15	1206.95
630.50	1199.75
630.84	1191.69
631.19	1183.89
631.53	1176.47
631.88	1169.16
632.22	1161.89
632.57	1154.89
632.91	1147.51
633.26	1140.14
633.60	1132.82
633.95	1125.98
634.29	1118.94
634.64	1112.37
634.98	1105.17
635.32	1098.24
635.67	1091.72
636.01	1085.26
636.36	1078.53
636.70	1072.23
637.05	1065.83
637.39	1059.46
637.73	1053.05
638.08	1047.26
638.42	1041.34
638.77	1035.03
639.11	1028.53
639.45	1022.22
639.80	1015.51
640.14	1009.27
640.49	1002.89
640.83	996.76
641.17	990.58
641.52	984.31
641.86	978.01
642.20	972.32
642.55	965.99
642.89	959.62
643.23	953.15
643.58	947.56
643.92	941.35
644.26	935.30
644.61	929.31
644.95	923.34
645.29	916.85
645.64	910.24
645.98	904.00
646.32	898.21
646.66	892.26
647.01	886.64
647.35	881.00
647.69	875.22
648.04	869.68
648.38	863.89
648.72	858.00
649.06	852.02
649.41	846.14
649.75	840.23
650.09	834.34
650.43	828.57
650.78	822.38
651.12	816.44
651.46	810.73
651.80	805.04
652.14	799.68
652.49	794.38
652.83	789.24
653.17	783.63
653.51	778.00
653.85	772.61
654.20	767.01
654.54	760.93
654.88	755.28
655.22	749.47
655.56	743.85
655.90	738.41
656.25	733.18
656.59	727.85
656.93	722.84
657.27	717.75
657.61	712.37
657.95	707.37
658.29	702.35
658.64	697.18
658.98	691.95
659.32	686.55
659.66	681.36
660.00	676.15
660.34	671.24
660.68	666.38
661.02	661.39
661.36	656.76
661.70	652.42
662.05	648.08
662.39	643.86
662.73	639.48
663.07	635.18
663.41	630.81
663.75	626.38
664.09	621.86
664.43	617.52
664.77	613.56
665.11	609.32
665.45	605.32
665.79	601.32
666.13	597.31
666.47	593.28
666.81	589.22
667.15	585.17
667.49	581.33
667.83	577.62
668.17	573.81
668.51	569.82
668.85	565.90
669.19	562.12
669.53	558.38
669.87	554.60
670.21	550.98
670.55	547.39
670.89	544.11
671.23	540.74
671.57	537.28
671.91	533.80
672.25	530.47
672.58	527.08
672.92	523.77
673.26	520.61
673.60	517.57
673.94	514.48
674.28	511.60
674.62	508.71
674.96	505.62
675.30	502.72
675.64	499.88
675.97	497.14
676.31	494.38
676.65	491.48
676.99	488.80
677.33	485.98
677.67	483.22
678.01	480.21
678.34	477.36
678.68	474.56
679.02	471.87
679.36	469.09
679.70	466.36
680.04	463.64
680.37	460.82
680.71	458.03
681.05	455.51
681.39	452.88
681.73	450.27
682.06	447.81
682.40	445.31
682.74	442.81
683.08	440.29
683.42	437.66
683.75	435.22
684.09	432.74
684.43	430.34
684.77	427.93
685.10	425.60
685.44	423.30
685.78	421.04
686.12	418.75
686.45	416.54
686.79	414.34
687.13	412.21
687.46	410.08
687.80	407.97
688.14	405.72
688.48	403.69
688.81	401.52
689.15	399.37
689.49	397.28
689.82	395.19
690.16	393.14
690.50	391.24
690.83	389.31
691.17	387.32
691.51	385.42
691.84	383.60
692.18	381.68
692.52	379.69
692.85	377.76
693.19	375.91
693.52	374.07
693.86	372.24
694.20	370.48
694.53	368.75
694.87	366.94
695.21	365.17
695.54	363.36
695.88	361.63
696.21	359.92
696.55	358.26
696.88	356.58
697.22	354.91
697.56	353.28
697.89	351.60
698.23	349.99
698.56	348.37
698.90	346.77
699.23	345.16
699.57	343.62
699.90	342.15
700.24	340.60
700.58	339.08
700.91	337.57
701.25	336.09
701.58	334.74
701.92	333.38
702.25	332.04
702.59	330.72
702.92	329.42
703.26	328.13
703.59	326.82
703.93	325.61
704.26	324.43
704.60	323.16
704.93	321.92
705.26	320.71
705.60	319.57
705.93	318.46
706.27	317.50
706.60	316.49
706.94	315.39
707.27	314.26
707.61	313.20
707.94	312.20
708.27	311.13
708.61	310.03
708.94	309.05
709.28	308.09
709.61	307.12
709.94	306.17
710.28	305.16
710.61	304.20
710.95	303.19
711.28	302.31
711.61	301.41
711.95	300.53
712.28	299.60
712.61	298.61
712.95	297.71
713.28	296.79
713.61	295.91
713.95	295.07
714.28	294.29
714.61	293.45
714.95	292.64
715.28	291.79
715.61	290.98
715.95	290.12
716.28	289.30
716.61	288.47
716.95	287.70
717.28	287.02
717.61	286.31
717.94	285.59
718.28	284.78
718.61	284.05
718.94	283.39
719.27	282.76
719.61	282.15
719.94	281.46
720.27	280.77
720.60	280.11
720.94	279.47
721.27	278.89
721.60	278.33
721.93	277.74
722.27	277.24
722.60	276.68
722.93	276.12
723.26	275.61
723.59	275.06
723.93	274.52
724.26	273.95
724.59	273.39
724.92	272.90
725.25	272.40
725.59	271.92
725.92	271.43
726.25	270.94
726.58	270.46
726.91	269.98
727.24	269.55
727.57	269.11
727.91	268.63
728.24	268.17
728.57	267.68
728.90	267.22
729.23	266.73
729.56	266.34
729.89	265.89
730.22	265.37
730.55	264.92
730.89	264.50
731.22	264.07
731.55	263.63
731.88	263.18
732.21	262.77
732.54	262.31
732.87	261.85
733.20	261.49
733.53	261.10
733.86	260.74
734.19	260.31
734.52	259.92
734.85	259.59
735.18	259.12
735.51	258.75
735.84	258.39
736.17	258.04
736.50	257.60
736.83	257.40
737.16	257.07
737.49	256.70
737.82	256.34
738.15	255.98
738.48	255.63
738.81	255.33
739.14	255.00
739.47	254.68
739.80	254.40
740.13	254.03
740.46	253.67
740.79	253.31
741.12	252.96
741.45	252.61
741.78	252.28
742.11	252.03
742.44	251.71
742.77	251.38
743.10	251.06
743.43	250.77
743.75	250.36
744.08	250.19
744.41	249.94
744.74	249.71
745.07	249.44
745.40	249.20
745.73	248.93
746.06	248.64
746.39	248.37
746.71	248.10
747.04	247.88
747.37	247.66
747.70	247.44
748.03	247.24
748.36	247.05
748.68	246.82
749.01	246.55
749.34	246.37
749.67	246.16
750.00	245.97
750.33	245.79
750.65	245.59
750.98	245.27
751.31	245.08
751.64	244.84
751.97	244.66
752.29	244.45
752.62	244.21
752.95	244.03
753.28	243.86
753.60	243.67
753.93	243.48
754.26	243.29
754.59	243.10
754.91	242.86
755.24	242.68
755.57	242.49
755.90	242.34
756.22	242.14
756.55	241.98
756.88	241.81
757.20	241.61
757.53	241.41
757.86	241.27
758.19	241.14
758.51	241.00
758.84	240.83
759.17	240.69
759.49	240.58
759.82	240.48
760.15	240.37
760.47	240.22
760.80	240.05
761.13	239.95
761.45	239.80
761.78	239.71
762.11	239.55
762.43	239.42
762.76	239.30
763.08	239.18
763.41	239.04
763.74	238.91
764.06	238.76
764.39	238.63
764.71	238.51
765.04	238.37
765.37	238.23
765.69	238.10
766.02	237.97
766.34	237.81
766.67	237.63
767.00	237.51
767.32	237.45
767.65	237.40
767.97	237.26
768.30	237.15
768.62	237.05
768.95	236.94
769.27	236.82
769.60	236.68
769.92	236.53
770.25	236.40
770.57	236.25
770.90	236.15
771.22	236.06
771.55	235.94
771.87	235.82
772.20	235.69
772.52	235.65
772.85	235.66
773.17	235.57
773.50	235.48
773.82	235.36
774.15	235.23
774.47	235.09
774.80	235.00
775.12	234.89
775.45	234.77
775.77	234.68
776.09	234.61
776.42	234.52
776.74	234.48
777.07	234.39
777.39	234.32
777.72	234.23
778.04	234.15
778.36	234.07
778.69	234.01
779.01	233.95
779.33	233.82
779.66	233.66
779.98	233.58
780.31	233.51
780.63	233.47
780.95	233.39
781.28	233.32
781.60	233.24
781.92	233.19
782.25	233.14
782.57	233.08
782.89	233.01
783.22	232.96
783.54	232.86
783.86	232.83
784.19	232.78
784.51	232.75
784.83	232.69
785.16	232.62
785.48	232.59
785.80	232.56
786.12	232.54
786.45	232.45
786.77	232.42
787.09	232.36
