SpectraSuite Data File
++++++++++++++++++++++++++++++++++++
Date: Fri Feb 01 15:58:52 EST 2013
User: group
Dark Spectrum Present: No
Reference Spectrum Present: No
Number of Sampled Component Spectra: 1
Spectrometers: USB2E7196
Integration Time (usec): 35000 (USB2E7196)
Spectra Averaged: 100 (USB2E7196)
Boxcar Smoothing: 10 (USB2E7196)
Correct for Electrical Dark: No (USB2E7196)
Strobe/Lamp Enabled: No (USB2E7196)
Correct for Detector Non-linearity: No (USB2E7196)
Correct for Stray Light: No (USB2E7196)
Number of Pixels in Processed Spectrum: 2048
>>>>>Begin Processed Spectral Data<<<<<
339.09	0.00
339.48	214.94
339.86	216.24
340.24	217.51
340.63	219.38
341.01	222.03
341.39	221.56
341.78	222.96
342.16	224.79
342.54	224.60
342.93	213.12
343.31	223.91
343.69	224.44
344.07	224.90
344.46	225.33
344.84	225.71
345.22	225.94
345.60	226.22
345.99	226.42
346.37	226.54
346.75	226.62
347.13	226.69
347.52	226.79
347.90	226.86
348.28	226.90
348.66	226.94
349.05	226.95
349.43	227.00
349.81	227.06
350.19	227.08
350.57	227.15
350.96	227.26
351.34	227.34
351.72	227.45
352.10	227.55
352.48	227.63
352.87	227.69
353.25	227.75
353.63	227.79
354.01	227.85
354.39	227.90
354.77	228.00
355.15	228.14
355.54	228.15
355.92	228.17
356.30	228.24
356.68	228.38
357.06	228.46
357.44	228.51
357.82	228.56
358.20	228.66
358.58	228.73
358.97	228.78
359.35	228.84
359.73	228.89
360.11	228.94
360.49	228.99
360.87	229.04
361.25	229.09
361.63	229.16
362.01	229.19
362.39	229.23
362.77	229.27
363.15	229.25
363.53	229.29
363.91	229.34
364.29	229.35
364.67	229.27
365.05	229.29
365.43	229.29
365.81	229.32
366.19	229.36
366.57	229.38
366.95	229.37
367.33	229.37
367.71	229.36
368.09	229.37
368.47	229.36
368.85	229.34
369.23	229.36
369.61	229.32
369.99	229.31
370.37	229.28
370.75	229.31
371.13	229.26
371.51	229.21
371.89	229.17
372.27	229.11
372.65	229.05
373.03	229.00
373.41	228.95
373.78	228.90
374.16	228.75
374.54	228.66
374.92	228.59
375.30	228.49
375.68	228.40
376.06	228.33
376.44	228.25
376.82	228.18
377.19	228.10
377.57	228.04
377.95	227.98
378.33	227.92
378.71	227.79
379.09	227.74
379.47	227.71
379.84	227.62
380.22	227.56
380.60	227.52
380.98	227.44
381.36	227.37
381.73	227.29
382.11	227.27
382.49	227.20
382.87	227.13
383.25	227.06
383.62	227.10
384.00	227.01
384.38	226.98
384.76	226.94
385.13	226.87
385.51	226.80
385.89	226.71
386.27	226.67
386.64	226.62
387.02	226.57
387.40	226.53
387.78	226.51
388.15	226.47
388.53	226.42
388.91	226.40
389.29	226.37
389.66	226.36
390.04	226.33
390.42	226.33
390.79	226.32
391.17	226.29
391.55	226.21
391.92	226.20
392.30	226.15
392.68	226.14
393.05	226.19
393.43	226.22
393.81	226.24
394.18	226.21
394.56	226.21
394.94	226.23
395.31	226.24
395.69	226.27
396.06	226.32
396.44	226.33
396.82	226.36
397.19	226.44
397.57	226.47
397.95	226.51
398.32	226.54
398.70	226.61
399.07	226.69
399.45	226.72
399.82	226.80
400.20	226.88
400.58	226.92
400.95	226.97
401.33	227.03
401.70	227.15
402.08	227.26
402.45	227.39
402.83	227.50
403.20	227.60
403.58	227.70
403.95	227.84
404.33	228.02
404.71	228.17
405.08	228.34
405.46	228.50
405.83	228.63
406.21	228.78
406.58	228.95
406.96	229.14
407.33	229.32
407.70	229.51
408.08	229.80
408.45	230.05
408.83	230.26
409.20	230.48
409.58	230.66
409.95	230.91
410.33	231.18
410.70	231.42
411.08	231.71
411.45	232.01
411.82	232.30
412.20	232.63
412.57	233.04
412.95	233.30
413.32	233.70
413.69	234.15
414.07	234.58
414.44	235.05
414.82	235.54
415.19	236.10
415.56	236.62
415.94	237.16
416.31	237.80
416.68	238.41
417.06	239.15
417.43	239.87
417.81	240.65
418.18	241.46
418.55	242.32
418.93	243.19
419.30	244.10
419.67	245.05
420.04	246.01
420.42	246.96
420.79	248.19
421.16	249.28
421.54	250.47
421.91	251.73
422.28	252.97
422.66	254.29
423.03	255.58
423.40	256.92
423.77	258.35
424.15	259.75
424.52	261.23
424.89	262.86
425.26	264.39
425.64	265.81
426.01	267.37
426.38	269.01
426.75	270.69
427.13	272.41
427.50	274.18
427.87	276.05
428.24	277.95
428.61	279.61
428.99	281.60
429.36	283.66
429.73	285.68
430.10	287.68
430.47	289.70
430.85	291.83
431.22	294.08
431.59	296.43
431.96	298.68
432.33	301.14
432.70	303.50
433.08	306.34
433.45	308.97
433.82	311.61
434.19	314.51
434.56	317.37
434.93	320.04
435.30	322.71
435.68	325.58
436.05	328.39
436.42	331.23
436.79	333.79
437.16	336.50
437.53	339.33
437.90	342.15
438.27	344.89
438.64	347.69
439.01	350.29
439.38	352.50
439.75	354.67
440.13	357.16
440.50	359.46
440.87	361.27
441.24	363.21
441.61	365.33
441.98	366.76
442.35	368.50
442.72	370.35
443.09	372.12
443.46	373.15
443.83	373.76
444.20	374.25
444.57	374.99
444.94	375.29
445.31	375.59
445.68	375.95
446.05	376.05
446.42	375.68
446.79	375.26
447.16	374.79
447.53	374.46
447.90	373.33
448.27	372.16
448.64	370.60
449.01	369.50
449.37	367.52
449.74	365.69
450.11	363.44
450.48	360.99
450.85	358.47
451.22	356.33
451.59	354.27
451.96	352.33
452.33	349.76
452.70	347.41
453.07	344.58
453.43	341.65
453.80	338.84
454.17	336.13
454.54	333.57
454.91	330.87
455.28	328.24
455.65	325.76
456.02	323.33
456.38	321.17
456.75	318.54
457.12	316.30
457.49	314.06
457.86	311.90
458.23	310.02
458.59	307.97
458.96	305.82
459.33	303.98
459.70	302.15
460.07	300.66
460.43	298.94
460.80	297.34
461.17	295.95
461.54	294.48
461.91	293.09
462.27	291.65
462.64	290.40
463.01	289.03
463.38	287.72
463.74	286.34
464.11	285.17
464.48	284.14
464.85	283.09
465.21	282.21
465.58	281.27
465.95	280.17
466.32	279.28
466.68	278.42
467.05	277.53
467.42	276.62
467.78	275.71
468.15	274.84
468.52	274.19
468.88	273.33
469.25	272.59
469.62	271.99
469.98	271.38
470.35	270.73
470.72	270.14
471.08	269.49
471.45	269.00
471.82	268.48
472.18	267.85
472.55	267.38
472.92	266.85
473.28	266.40
473.65	265.96
474.02	265.51
474.38	265.14
474.75	264.82
475.11	264.45
475.48	264.18
475.85	263.97
476.21	263.73
476.58	263.54
476.94	263.38
477.31	263.20
477.67	263.00
478.04	262.92
478.41	262.85
478.77	262.88
479.14	262.83
479.50	262.84
479.87	262.96
480.23	263.03
480.60	263.13
480.96	263.20
481.33	263.40
481.69	263.62
482.06	263.84
482.42	264.05
482.79	264.33
483.15	264.65
483.52	264.99
483.88	265.37
484.25	265.73
484.61	266.17
484.98	266.59
485.34	267.16
485.71	267.78
486.07	268.35
486.44	268.90
486.80	269.60
487.17	270.33
487.53	271.11
487.90	271.95
488.26	272.86
488.62	273.89
488.99	274.87
489.35	275.92
489.72	277.03
490.08	278.25
490.44	279.49
490.81	280.78
491.17	282.11
491.54	283.60
491.90	285.15
492.26	286.76
492.63	288.52
492.99	290.30
493.36	292.16
493.72	294.28
494.08	296.40
494.45	298.64
494.81	301.00
495.17	303.44
495.54	306.00
495.90	308.70
496.26	311.48
496.63	314.43
496.99	317.52
497.35	320.82
497.72	324.21
498.08	327.73
498.44	331.40
498.80	335.37
499.17	339.39
499.53	343.59
499.89	347.96
500.26	352.50
500.62	357.16
500.98	362.14
501.34	367.18
501.71	372.51
502.07	377.93
502.43	383.56
502.79	389.43
503.16	395.47
503.52	401.68
503.88	408.09
504.24	414.69
504.60	421.56
504.97	428.65
505.33	435.96
505.69	443.68
506.05	451.52
506.41	459.37
506.78	467.54
507.14	476.00
507.50	484.70
507.86	493.68
508.22	502.95
508.59	512.12
508.95	521.74
509.31	531.62
509.67	541.76
510.03	552.07
510.39	562.58
510.75	573.40
511.12	584.44
511.48	595.76
511.84	607.30
512.20	618.87
512.56	630.87
512.92	643.00
513.28	655.30
513.64	667.79
514.00	680.53
514.37	693.47
514.73	706.54
515.09	719.59
515.45	732.89
515.81	746.40
516.17	760.45
516.53	774.60
516.89	788.74
517.25	802.85
517.61	817.26
517.97	831.73
518.33	846.10
518.69	860.78
519.05	875.75
519.41	890.84
519.77	906.35
520.13	921.75
520.49	937.15
520.85	952.64
521.21	968.27
521.57	984.47
521.93	1000.19
522.29	1016.65
522.65	1032.86
523.01	1049.12
523.37	1065.15
523.73	1081.20
524.09	1097.09
524.45	1113.40
524.81	1130.10
525.17	1146.82
525.53	1163.65
525.89	1180.56
526.25	1197.45
526.61	1213.77
526.97	1230.49
527.33	1246.88
527.68	1263.38
528.04	1279.89
528.40	1296.44
528.76	1313.55
529.12	1330.19
529.48	1347.03
529.84	1362.93
530.20	1379.68
530.56	1396.58
530.91	1414.03
531.27	1430.81
531.63	1447.37
531.99	1463.75
532.35	1479.59
532.71	1495.47
533.07	1511.75
533.42	1527.55
533.78	1543.52
534.14	1559.83
534.50	1575.14
534.86	1591.15
535.21	1606.35
535.57	1622.25
535.93	1637.69
536.29	1652.42
536.65	1667.35
537.00	1682.12
537.36	1697.36
537.72	1711.78
538.08	1726.20
538.44	1739.82
538.79	1753.62
539.15	1767.23
539.51	1781.11
539.87	1795.37
540.22	1809.00
540.58	1822.65
540.94	1836.16
541.29	1849.00
541.65	1861.64
542.01	1874.88
542.37	1887.09
542.72	1899.48
543.08	1911.22
543.44	1923.55
543.79	1934.62
544.15	1945.68
544.51	1957.08
544.87	1968.01
545.22	1978.62
545.58	1988.68
545.94	1998.41
546.29	2008.30
546.65	2018.17
547.01	2027.27
547.36	2035.98
547.72	2044.42
548.07	2052.34
548.43	2060.52
548.79	2068.55
549.14	2076.04
549.50	2083.24
549.86	2090.88
550.21	2098.06
550.57	2105.18
550.92	2111.78
551.28	2118.94
551.64	2125.91
551.99	2132.37
552.35	2138.53
552.70	2144.77
553.06	2150.85
553.41	2157.32
553.77	2163.38
554.13	2169.51
554.48	2175.75
554.84	2181.33
555.19	2186.71
555.55	2191.78
555.90	2196.01
556.26	2200.94
556.61	2205.62
556.97	2209.93
557.32	2214.10
557.68	2218.29
558.03	2222.63
558.39	2226.35
558.74	2230.98
559.10	2234.97
559.45	2238.80
559.81	2243.08
560.16	2247.06
560.52	2250.28
560.87	2253.67
561.23	2256.38
561.58	2259.28
561.94	2261.70
562.29	2264.13
562.64	2266.80
563.00	2269.48
563.35	2273.03
563.71	2276.15
564.06	2279.39
564.42	2282.19
564.77	2284.53
565.12	2286.85
565.48	2288.75
565.83	2290.52
566.19	2291.84
566.54	2292.69
566.89	2293.82
567.25	2294.37
567.60	2295.54
567.96	2297.26
568.31	2298.08
568.66	2299.21
569.02	2299.83
569.37	2300.22
569.72	2300.90
570.08	2301.10
570.43	2301.13
570.78	2300.54
571.14	2298.96
571.49	2297.70
571.84	2297.55
572.20	2296.49
572.55	2295.55
572.90	2294.13
573.26	2292.73
573.61	2291.08
573.96	2289.33
574.31	2286.44
574.67	2283.55
575.02	2280.08
575.37	2276.74
575.72	2272.97
576.08	2269.55
576.43	2266.22
576.78	2262.49
577.13	2259.43
577.49	2256.32
577.84	2252.90
578.19	2249.33
578.54	2245.70
578.90	2241.34
579.25	2235.82
579.60	2230.94
579.95	2226.00
580.30	2220.97
580.66	2215.86
581.01	2210.90
581.36	2205.96
581.71	2201.82
582.06	2197.29
582.42	2192.72
582.77	2187.46
583.12	2182.90
583.47	2178.20
583.82	2173.18
584.17	2167.91
584.53	2162.37
584.88	2156.87
585.23	2151.00
585.58	2145.31
585.93	2139.75
586.28	2135.19
586.63	2130.05
586.98	2125.04
587.34	2120.18
587.69	2115.23
588.04	2110.02
588.39	2104.27
588.74	2097.86
589.09	2091.65
589.44	2084.94
589.79	2078.90
590.14	2073.34
590.49	2066.81
590.84	2060.41
591.19	2054.44
591.54	2048.10
591.89	2040.73
592.25	2033.67
592.60	2026.29
592.95	2018.82
593.30	2011.55
593.65	2003.83
594.00	1996.78
594.35	1989.52
594.70	1981.49
595.05	1974.27
595.40	1966.93
595.75	1959.54
596.10	1953.30
596.45	1946.58
596.80	1940.42
597.15	1933.79
597.50	1926.48
597.85	1920.10
598.19	1913.44
598.54	1906.19
598.89	1899.50
599.24	1893.66
599.59	1887.09
599.94	1881.15
600.29	1874.81
600.64	1868.34
600.99	1860.97
601.34	1854.16
601.69	1847.21
602.04	1840.32
602.39	1832.91
602.74	1826.06
603.08	1819.26
603.43	1812.47
603.78	1805.09
604.13	1797.81
604.48	1790.50
604.83	1783.76
605.18	1776.68
605.53	1768.76
605.87	1760.95
606.22	1753.73
606.57	1745.75
606.92	1738.46
607.27	1731.18
607.62	1724.33
607.96	1716.96
608.31	1710.19
608.66	1702.56
609.01	1694.98
609.36	1687.48
609.70	1679.48
610.05	1671.52
610.40	1663.79
610.75	1655.45
611.10	1647.85
611.44	1639.47
611.79	1631.64
612.14	1622.94
612.49	1613.82
612.83	1605.43
613.18	1597.22
613.53	1589.15
613.88	1580.58
614.22	1572.26
614.57	1563.65
614.92	1555.59
615.27	1548.07
615.61	1539.78
615.96	1531.89
616.31	1524.18
616.65	1516.78
617.00	1509.16
617.35	1501.54
617.70	1493.26
618.04	1484.82
618.39	1476.58
618.74	1469.06
619.08	1460.69
619.43	1453.21
619.78	1446.38
620.12	1439.08
620.47	1431.57
620.82	1423.38
621.16	1416.04
621.51	1408.40
621.85	1400.90
622.20	1392.32
622.55	1384.01
622.89	1376.29
623.24	1368.62
623.59	1361.26
623.93	1353.82
624.28	1346.68
624.62	1339.05
624.97	1331.87
625.32	1325.16
625.66	1318.18
626.01	1311.00
626.35	1303.46
626.70	1295.69
627.04	1287.90
627.39	1280.26
627.73	1272.89
628.08	1265.97
628.43	1258.61
628.77	1251.26
629.12	1243.67
629.46	1236.47
629.81	1229.07
630.15	1221.80
630.50	1214.37
630.84	1206.15
631.19	1198.25
631.53	1190.68
631.88	1183.14
632.22	1175.54
632.57	1168.23
632.91	1160.71
633.26	1153.21
633.60	1145.79
633.95	1138.66
634.29	1131.64
634.64	1124.91
634.98	1117.45
635.32	1110.26
635.67	1103.69
636.01	1096.99
636.36	1090.11
636.70	1083.59
637.05	1076.93
637.39	1070.49
637.73	1063.91
638.08	1058.07
638.42	1052.04
638.77	1045.58
639.11	1038.93
639.45	1032.52
639.80	1025.79
640.14	1019.23
640.49	1012.67
640.83	1006.40
641.17	1000.08
641.52	993.73
641.86	987.25
642.20	981.43
642.55	975.13
642.89	968.69
643.23	962.24
643.58	956.48
643.92	950.32
644.26	944.22
644.61	938.11
644.95	932.04
645.29	925.40
645.64	918.56
645.98	912.24
646.32	906.45
646.66	900.43
647.01	894.65
647.35	889.01
647.69	883.20
648.04	877.70
648.38	871.91
648.72	865.80
649.06	859.67
649.41	853.91
649.75	847.99
650.09	842.06
650.43	836.29
650.78	830.16
651.12	824.18
651.46	818.44
651.80	812.74
652.14	807.39
652.49	802.02
652.83	796.90
653.17	791.15
653.51	785.39
653.85	780.02
654.20	774.35
654.54	768.37
654.88	762.63
655.22	756.69
655.56	751.13
655.90	745.79
656.25	740.65
656.59	735.19
656.93	730.10
657.27	724.91
657.61	719.44
657.95	714.41
658.29	709.36
658.64	704.17
658.98	698.87
659.32	693.45
659.66	688.29
660.00	682.90
660.34	678.06
660.68	673.18
661.02	668.15
661.36	663.51
661.70	658.95
662.05	654.60
662.39	650.36
662.73	645.90
663.07	641.48
663.41	637.00
663.75	632.51
664.09	627.98
664.43	623.55
664.77	619.46
665.11	615.21
665.45	611.16
665.79	607.10
666.13	603.03
666.47	598.96
666.81	594.82
667.15	590.73
667.49	586.87
667.83	583.08
668.17	579.14
668.51	575.02
668.85	571.03
669.19	567.27
669.53	563.40
669.87	559.48
670.21	555.83
670.55	552.17
670.89	548.79
671.23	545.35
671.57	541.85
671.91	538.27
672.25	534.75
672.58	531.10
672.92	527.65
673.26	524.42
673.60	521.22
673.94	518.09
674.28	515.24
674.62	512.24
674.96	509.08
675.30	506.15
675.64	503.15
675.97	500.41
676.31	497.47
676.65	494.55
676.99	491.83
677.33	488.92
677.67	486.14
678.01	483.04
678.34	480.02
678.68	477.12
679.02	474.32
679.36	471.54
679.70	468.82
680.04	466.09
680.37	463.23
680.71	460.42
681.05	457.83
681.39	455.10
681.73	452.47
682.06	449.98
682.40	447.43
682.74	444.90
683.08	442.36
683.42	439.75
683.75	437.28
684.09	434.73
684.43	432.27
684.77	429.76
685.10	427.40
685.44	425.13
685.78	422.88
686.12	420.57
686.45	418.31
686.79	416.04
687.13	413.82
687.46	411.66
687.80	409.50
688.14	407.22
688.48	405.13
688.81	402.86
689.15	400.68
689.49	398.54
689.82	396.49
690.16	394.38
690.50	392.44
690.83	390.43
691.17	388.44
691.51	386.50
691.84	384.65
692.18	382.71
692.52	380.71
692.85	378.73
693.19	376.90
693.52	375.07
693.86	373.27
694.20	371.51
694.53	369.70
694.87	367.89
695.21	366.11
695.54	364.29
695.88	362.57
696.21	360.88
696.55	359.18
696.88	357.56
697.22	355.93
697.56	354.32
697.89	352.70
698.23	351.07
698.56	349.50
698.90	347.94
699.23	346.33
699.57	344.83
699.90	343.37
700.24	341.80
700.58	340.27
700.91	338.75
701.25	337.32
701.58	335.99
701.92	334.62
702.25	333.27
702.59	331.95
702.92	330.63
703.26	329.31
703.59	328.03
703.93	326.85
704.26	325.60
704.60	324.27
704.93	322.98
705.26	321.78
705.60	320.58
705.93	319.41
706.27	318.37
706.60	317.26
706.94	316.18
707.27	315.07
707.61	314.00
707.94	313.02
708.27	311.92
708.61	310.85
708.94	309.84
709.28	308.83
709.61	307.84
709.94	306.89
710.28	305.90
710.61	304.92
710.95	303.80
711.28	302.91
711.61	302.03
711.95	301.12
712.28	300.18
712.61	299.22
712.95	298.29
713.28	297.39
713.61	296.51
713.95	295.61
714.28	294.76
714.61	293.88
714.95	293.03
715.28	292.18
715.61	291.24
715.95	290.39
716.28	289.53
716.61	288.73
716.95	287.92
717.28	287.17
717.61	286.42
717.94	285.68
718.28	284.83
718.61	284.08
718.94	283.38
719.27	282.69
719.61	282.04
719.94	281.33
720.27	280.65
720.60	279.96
720.94	279.32
721.27	278.74
721.60	278.18
721.93	277.57
722.27	277.02
722.60	276.48
722.93	275.91
723.26	275.39
723.59	274.81
723.93	274.25
724.26	273.65
724.59	273.05
724.92	272.53
725.25	272.06
725.59	271.53
725.92	271.01
726.25	270.53
726.58	270.04
726.91	269.57
727.24	269.09
727.57	268.62
727.91	268.07
728.24	267.56
728.57	267.02
728.90	266.56
729.23	266.09
729.56	265.64
729.89	265.21
730.22	264.71
730.55	264.22
730.89	263.78
731.22	263.38
731.55	262.95
731.88	262.52
732.21	262.08
732.54	261.67
732.87	261.29
733.20	260.87
733.53	260.50
733.86	260.10
734.19	259.69
734.52	259.32
734.85	259.04
735.18	258.64
735.51	258.30
735.84	257.94
736.17	257.59
736.50	257.19
736.83	256.92
737.16	256.61
737.49	256.29
737.82	255.95
738.15	255.61
738.48	255.26
738.81	254.94
739.14	254.59
739.47	254.28
739.80	253.92
740.13	253.61
740.46	253.27
740.79	252.96
741.12	252.67
741.45	252.36
741.78	252.01
742.11	251.77
742.44	251.44
742.77	251.17
743.10	250.86
743.43	250.58
743.75	250.20
744.08	250.02
744.41	249.77
744.74	249.47
745.07	249.18
745.40	248.93
745.73	248.70
746.06	248.45
746.39	248.18
746.71	247.95
747.04	247.67
747.37	247.44
747.70	247.21
748.03	246.96
748.36	246.75
748.68	246.54
749.01	246.26
749.34	246.07
749.67	245.83
750.00	245.61
750.33	245.47
750.65	245.25
750.98	244.93
751.31	244.67
751.64	244.49
751.97	244.34
752.29	244.16
752.62	243.90
752.95	243.69
753.28	243.47
753.60	243.24
753.93	243.07
754.26	242.87
754.59	242.62
754.91	242.42
755.24	242.21
755.57	242.01
755.90	241.83
756.22	241.65
756.55	241.46
756.88	241.26
757.20	240.99
757.53	240.76
757.86	240.61
758.19	240.46
758.51	240.27
758.84	240.05
759.17	239.86
759.49	239.70
759.82	239.57
760.15	239.40
760.47	239.27
760.80	239.10
761.13	238.96
761.45	238.81
761.78	238.67
762.11	238.51
762.43	238.34
762.76	238.16
763.08	238.03
763.41	237.91
763.74	237.77
764.06	237.62
764.39	237.52
764.71	237.37
765.04	237.28
765.37	237.17
765.69	237.03
766.02	236.90
766.34	236.80
766.67	236.66
767.00	236.56
767.32	236.49
767.65	236.42
767.97	236.29
768.30	236.20
768.62	236.08
768.95	235.92
769.27	235.80
769.60	235.72
769.92	235.58
770.25	235.46
770.57	235.32
770.90	235.20
771.22	235.07
771.55	234.94
771.87	234.78
772.20	234.66
772.52	234.68
772.85	234.70
773.17	234.59
773.50	234.50
773.82	234.38
774.15	234.23
774.47	234.06
774.80	233.95
775.12	233.83
775.45	233.71
775.77	233.67
776.09	233.61
776.42	233.51
776.74	233.45
777.07	233.33
777.39	233.30
777.72	233.25
778.04	233.19
778.36	233.13
778.69	233.09
779.01	233.05
779.33	232.87
779.66	232.71
779.98	232.63
780.31	232.57
780.63	232.56
780.95	232.53
781.28	232.53
781.60	232.48
781.92	232.44
782.25	232.41
782.57	232.32
782.89	232.23
783.22	232.17
783.54	232.11
783.86	232.06
784.19	231.97
784.51	231.94
784.83	231.88
785.16	231.84
785.48	231.77
785.80	231.70
786.12	231.70
786.45	231.63
786.77	231.60
787.09	231.53
