SpectraSuite Data File
++++++++++++++++++++++++++++++++++++
Date: Fri Feb 01 16:16:39 EST 2013
User: group
Dark Spectrum Present: No
Reference Spectrum Present: No
Number of Sampled Component Spectra: 1
Spectrometers: USB2E7196
Integration Time (usec): 35000 (USB2E7196)
Spectra Averaged: 100 (USB2E7196)
Boxcar Smoothing: 10 (USB2E7196)
Correct for Electrical Dark: No (USB2E7196)
Strobe/Lamp Enabled: No (USB2E7196)
Correct for Detector Non-linearity: No (USB2E7196)
Correct for Stray Light: No (USB2E7196)
Number of Pixels in Processed Spectrum: 2048
>>>>>Begin Processed Spectral Data<<<<<
339.09	0.00
339.48	213.77
339.86	215.26
340.24	216.32
340.63	218.20
341.01	220.68
341.39	220.60
341.78	221.99
342.16	223.01
342.54	223.47
342.93	212.17
343.31	222.91
343.69	223.45
344.07	223.90
344.46	224.36
344.84	224.73
345.22	224.98
345.60	225.25
345.99	225.45
346.37	225.60
346.75	225.72
347.13	225.82
347.52	225.89
347.90	225.93
348.28	225.95
348.66	226.00
349.05	225.99
349.43	226.08
349.81	226.10
350.19	226.17
350.57	226.24
350.96	226.36
351.34	226.44
351.72	226.57
352.10	226.69
352.48	226.77
352.87	226.85
353.25	226.92
353.63	227.03
354.01	227.09
354.39	227.17
354.77	227.26
355.15	227.36
355.54	227.44
355.92	227.53
356.30	227.59
356.68	227.69
357.06	227.79
357.44	227.81
357.82	227.87
358.20	227.96
358.58	227.98
358.97	228.02
359.35	228.10
359.73	228.11
360.11	228.17
360.49	228.22
360.87	228.24
361.25	228.31
361.63	228.31
362.01	228.36
362.39	228.38
362.77	228.42
363.15	228.45
363.53	228.44
363.91	228.41
364.29	228.42
364.67	228.39
365.05	228.37
365.43	228.42
365.81	228.44
366.19	228.46
366.57	228.49
366.95	228.51
367.33	228.50
367.71	228.50
368.09	228.50
368.47	228.48
368.85	228.48
369.23	228.46
369.61	228.43
369.99	228.42
370.37	228.42
370.75	228.42
371.13	228.38
371.51	228.33
371.89	228.31
372.27	228.30
372.65	228.25
373.03	228.22
373.41	228.15
373.78	228.07
374.16	228.00
374.54	227.91
374.92	227.84
375.30	227.76
375.68	227.69
376.06	227.64
376.44	227.56
376.82	227.49
377.19	227.41
377.57	227.36
377.95	227.28
378.33	227.20
378.71	227.07
379.09	227.02
379.47	226.98
379.84	226.92
380.22	226.86
380.60	226.78
380.98	226.74
381.36	226.65
381.73	226.60
382.11	226.56
382.49	226.53
382.87	226.47
383.25	226.42
383.62	226.48
384.00	226.39
384.38	226.35
384.76	226.33
385.13	226.32
385.51	226.29
385.89	226.25
386.27	226.21
386.64	226.20
387.02	226.13
387.40	226.08
387.78	226.06
388.15	226.07
388.53	226.03
388.91	226.00
389.29	226.00
389.66	226.01
390.04	225.97
390.42	225.97
390.79	225.97
391.17	225.93
391.55	225.84
391.92	225.88
392.30	225.89
392.68	225.87
393.05	225.87
393.43	225.84
393.81	225.85
394.18	225.83
394.56	225.87
394.94	225.93
395.31	225.93
395.69	226.01
396.06	226.01
396.44	226.04
396.82	226.05
397.19	226.14
397.57	226.16
397.95	226.22
398.32	226.24
398.70	226.31
399.07	226.42
399.45	226.48
399.82	226.53
400.20	226.56
400.58	226.60
400.95	226.65
401.33	226.74
401.70	226.90
402.08	227.02
402.45	227.08
402.83	227.17
403.20	227.29
403.58	227.34
403.95	227.44
404.33	227.57
404.71	227.73
405.08	227.90
405.46	228.02
405.83	228.14
406.21	228.26
406.58	228.40
406.96	228.53
407.33	228.68
407.70	228.85
408.08	229.16
408.45	229.42
408.83	229.63
409.20	229.85
409.58	229.97
409.95	230.23
410.33	230.51
410.70	230.74
411.08	231.02
411.45	231.31
411.82	231.61
412.20	231.95
412.57	232.32
412.95	232.57
413.32	232.97
413.69	233.39
414.07	233.83
414.44	234.29
414.82	234.74
415.19	235.26
415.56	235.80
415.94	236.33
416.31	236.96
416.68	237.58
417.06	238.29
417.43	239.00
417.81	239.73
418.18	240.50
418.55	241.35
418.93	242.21
419.30	243.11
419.67	244.04
420.04	245.01
420.42	245.96
420.79	247.15
421.16	248.28
421.54	249.46
421.91	250.69
422.28	251.95
422.66	253.28
423.03	254.59
423.40	255.91
423.77	257.27
424.15	258.66
424.52	260.15
424.89	261.78
425.26	263.32
425.64	264.80
426.01	266.36
426.38	268.01
426.75	269.69
427.13	271.44
427.50	273.28
427.87	275.14
428.24	277.02
428.61	278.80
428.99	280.74
429.36	282.82
429.73	284.88
430.10	286.88
430.47	288.94
430.85	291.05
431.22	293.32
431.59	295.72
431.96	297.97
432.33	300.45
432.70	302.80
433.08	305.59
433.45	308.24
433.82	310.88
434.19	313.78
434.56	316.61
434.93	319.25
435.30	321.86
435.68	324.76
436.05	327.65
436.42	330.40
436.79	332.96
437.16	335.68
437.53	338.53
437.90	341.35
438.27	344.14
438.64	347.00
439.01	349.59
439.38	351.83
439.75	353.99
440.13	356.50
440.50	358.82
440.87	360.72
441.24	362.66
441.61	364.79
441.98	366.28
442.35	368.05
442.72	369.86
443.09	371.69
443.46	372.67
443.83	373.22
444.20	373.75
444.57	374.55
444.94	374.82
445.31	375.20
445.68	375.58
446.05	375.65
446.42	375.26
446.79	374.80
447.16	374.34
447.53	374.01
447.90	372.80
448.27	371.62
448.64	369.99
449.01	368.83
449.37	366.89
449.74	365.00
450.11	362.74
450.48	360.27
450.85	357.70
451.22	355.59
451.59	353.58
451.96	351.66
452.33	349.05
452.70	346.74
453.07	343.86
453.43	340.93
453.80	338.15
454.17	335.47
454.54	332.96
454.91	330.24
455.28	327.57
455.65	325.09
456.02	322.65
456.38	320.47
456.75	317.82
457.12	315.54
457.49	313.30
457.86	311.16
458.23	309.33
458.59	307.30
458.96	305.19
459.33	303.31
459.70	301.39
460.07	299.90
460.43	298.16
460.80	296.53
461.17	295.07
461.54	293.51
461.91	292.06
462.27	290.62
462.64	289.38
463.01	288.05
463.38	286.82
463.74	285.48
464.11	284.35
464.48	283.38
464.85	282.25
465.21	281.36
465.58	280.46
465.95	279.33
466.32	278.44
466.68	277.51
467.05	276.64
467.42	275.78
467.78	274.86
468.15	273.99
468.52	273.31
468.88	272.51
469.25	271.80
469.62	271.20
469.98	270.53
470.35	269.92
470.72	269.33
471.08	268.64
471.45	268.11
471.82	267.58
472.18	266.94
472.55	266.53
472.92	266.05
473.28	265.59
473.65	265.15
474.02	264.71
474.38	264.35
474.75	264.03
475.11	263.69
475.48	263.44
475.85	263.20
476.21	262.99
476.58	262.80
476.94	262.68
477.31	262.53
477.67	262.37
478.04	262.25
478.41	262.17
478.77	262.26
479.14	262.24
479.50	262.26
479.87	262.35
480.23	262.45
480.60	262.53
480.96	262.65
481.33	262.91
481.69	263.16
482.06	263.37
482.42	263.57
482.79	263.86
483.15	264.21
483.52	264.56
483.88	264.93
484.25	265.36
484.61	265.77
484.98	266.17
485.34	266.75
485.71	267.35
486.07	267.96
486.44	268.50
486.80	269.18
487.17	269.91
487.53	270.76
487.90	271.61
488.26	272.56
488.62	273.53
488.99	274.48
489.35	275.50
489.72	276.65
490.08	277.84
490.44	279.07
490.81	280.39
491.17	281.78
491.54	283.29
491.90	284.77
492.26	286.40
492.63	288.19
492.99	289.96
493.36	291.85
493.72	293.90
494.08	296.05
494.45	298.28
494.81	300.60
495.17	303.00
495.54	305.62
495.90	308.29
496.26	311.07
496.63	314.08
496.99	317.16
497.35	320.43
497.72	323.86
498.08	327.41
498.44	331.09
498.80	334.98
499.17	338.99
499.53	343.24
499.89	347.65
500.26	352.17
500.62	356.89
500.98	361.89
501.34	366.97
501.71	372.25
502.07	377.72
502.43	383.40
502.79	389.23
503.16	395.28
503.52	401.60
503.88	408.03
504.24	414.67
504.60	421.57
504.97	428.73
505.33	436.07
505.69	443.80
506.05	451.57
506.41	459.57
506.78	467.74
507.14	476.16
507.50	484.84
507.86	493.84
508.22	503.06
508.59	512.22
508.95	521.79
509.31	531.70
509.67	541.78
510.03	552.08
510.39	562.64
510.75	573.44
511.12	584.35
511.48	595.70
511.84	607.09
512.20	618.55
512.56	630.49
512.92	642.69
513.28	654.99
513.64	667.48
514.00	680.13
514.37	693.08
514.73	706.19
515.09	719.28
515.45	732.61
515.81	746.13
516.17	760.11
516.53	774.23
516.89	788.31
517.25	802.49
517.61	816.99
517.97	831.43
518.33	845.83
518.69	860.46
519.05	875.37
519.41	890.54
519.77	906.16
520.13	921.57
520.49	936.91
520.85	952.33
521.21	967.99
521.57	984.16
521.93	999.94
522.29	1016.19
522.65	1032.39
523.01	1048.46
523.37	1064.54
523.73	1080.80
524.09	1096.84
524.45	1113.11
524.81	1129.68
525.17	1146.31
525.53	1163.26
525.89	1180.14
526.25	1197.07
526.61	1213.48
526.97	1230.25
527.33	1246.58
527.68	1263.18
528.04	1279.64
528.40	1296.06
528.76	1313.12
529.12	1329.67
529.48	1346.42
529.84	1362.52
530.20	1379.23
530.56	1396.21
530.91	1413.49
531.27	1430.06
531.63	1446.44
531.99	1462.91
532.35	1478.87
532.71	1494.64
533.07	1510.74
533.42	1526.52
533.78	1542.51
534.14	1558.77
534.50	1573.97
534.86	1589.87
535.21	1604.94
535.57	1620.78
535.93	1636.33
536.29	1650.95
536.65	1665.91
537.00	1680.68
537.36	1695.96
537.72	1710.34
538.08	1724.76
538.44	1738.39
538.79	1752.27
539.15	1765.85
539.51	1779.54
539.87	1793.97
540.22	1807.81
540.58	1821.52
540.94	1834.84
541.29	1847.67
541.65	1860.29
542.01	1873.53
542.37	1885.82
542.72	1898.18
543.08	1909.85
543.44	1922.13
543.79	1933.46
544.15	1944.33
544.51	1955.75
544.87	1966.58
545.22	1977.33
545.58	1987.46
545.94	1997.31
546.29	2007.14
546.65	2016.97
547.01	2026.19
547.36	2034.73
547.72	2043.19
548.07	2050.99
548.43	2059.15
548.79	2067.05
549.14	2074.41
549.50	2081.56
549.86	2089.24
550.21	2096.57
550.57	2103.74
550.92	2110.30
551.28	2117.31
551.64	2124.41
551.99	2131.02
552.35	2137.14
552.70	2143.18
553.06	2149.12
553.41	2155.48
553.77	2161.46
554.13	2167.45
554.48	2173.66
554.84	2179.16
555.19	2184.25
555.55	2189.43
555.90	2193.84
556.26	2198.72
556.61	2203.52
556.97	2207.80
557.32	2211.78
557.68	2215.92
558.03	2220.24
558.39	2224.03
558.74	2228.60
559.10	2232.47
559.45	2236.06
559.81	2240.31
560.16	2244.27
560.52	2247.44
560.87	2250.77
561.23	2253.41
561.58	2256.46
561.94	2258.88
562.29	2261.14
562.64	2263.88
563.00	2266.44
563.35	2269.90
563.71	2273.08
564.06	2276.30
564.42	2279.25
564.77	2281.77
565.12	2284.03
565.48	2285.89
565.83	2287.82
566.19	2289.18
566.54	2290.09
566.89	2291.26
567.25	2291.90
567.60	2293.08
567.96	2294.98
568.31	2295.87
568.66	2297.05
569.02	2297.78
569.37	2298.09
569.72	2299.08
570.08	2299.27
570.43	2299.38
570.78	2298.82
571.14	2297.30
571.49	2295.91
571.84	2295.66
572.20	2294.76
572.55	2293.75
572.90	2292.24
573.26	2290.71
573.61	2289.05
573.96	2287.28
574.31	2284.46
574.67	2281.61
575.02	2278.04
575.37	2274.55
575.72	2270.90
576.08	2267.58
576.43	2264.19
576.78	2260.68
577.13	2257.49
577.49	2254.42
577.84	2250.82
578.19	2247.21
578.54	2243.65
578.90	2239.55
579.25	2233.96
579.60	2228.97
579.95	2223.98
580.30	2218.97
580.66	2213.84
581.01	2209.04
581.36	2204.50
581.71	2200.19
582.06	2195.65
582.42	2191.30
582.77	2186.26
583.12	2181.73
583.47	2177.08
583.82	2172.15
584.17	2166.93
584.53	2161.50
584.88	2155.91
585.23	2150.39
585.58	2144.89
585.93	2139.51
586.28	2134.76
586.63	2129.79
586.98	2124.83
587.34	2120.16
587.69	2115.40
588.04	2110.19
588.39	2104.45
588.74	2097.87
589.09	2091.82
589.44	2085.12
589.79	2079.05
590.14	2073.35
590.49	2066.65
590.84	2060.30
591.19	2054.32
591.54	2047.90
591.89	2040.53
592.25	2033.77
592.60	2026.56
592.95	2019.12
593.30	2011.73
593.65	2004.11
594.00	1997.06
594.35	1989.85
594.70	1981.86
595.05	1974.72
595.40	1967.49
595.75	1959.89
596.10	1953.72
596.45	1947.08
596.80	1940.97
597.15	1934.53
597.50	1927.59
597.85	1921.21
598.19	1914.64
598.54	1907.52
598.89	1900.95
599.24	1895.14
599.59	1888.55
599.94	1882.26
600.29	1876.03
600.64	1869.47
600.99	1862.25
601.34	1855.53
601.69	1848.43
602.04	1841.49
602.39	1834.12
602.74	1827.33
603.08	1820.62
603.43	1813.87
603.78	1806.52
604.13	1799.20
604.48	1791.87
604.83	1784.97
605.18	1778.10
605.53	1770.05
605.87	1762.04
606.22	1754.77
606.57	1746.79
606.92	1739.42
607.27	1732.33
607.62	1725.21
607.96	1718.05
608.31	1711.34
608.66	1703.65
609.01	1696.12
609.36	1688.64
609.70	1680.63
610.05	1672.61
610.40	1665.00
610.75	1656.60
611.10	1648.88
611.44	1640.51
611.79	1632.43
612.14	1623.75
612.49	1614.46
612.83	1606.09
613.18	1598.02
613.53	1589.92
613.88	1581.34
614.22	1573.07
614.57	1564.35
614.92	1556.33
615.27	1548.73
615.61	1540.38
615.96	1532.39
616.31	1524.78
616.65	1517.46
617.00	1509.79
617.35	1502.03
617.70	1493.66
618.04	1485.18
618.39	1477.02
618.74	1469.38
619.08	1461.10
619.43	1453.45
619.78	1446.63
620.12	1439.45
620.47	1431.96
620.82	1423.77
621.16	1416.36
621.51	1408.81
621.85	1401.28
622.20	1392.80
622.55	1384.39
622.89	1376.52
623.24	1368.91
623.59	1361.53
623.93	1353.94
624.28	1346.80
624.62	1339.37
624.97	1332.14
625.32	1325.35
625.66	1318.44
626.01	1311.37
626.35	1303.98
626.70	1296.16
627.04	1288.41
627.39	1280.64
627.73	1273.19
628.08	1266.29
628.43	1259.11
628.77	1251.66
629.12	1244.13
629.46	1237.04
629.81	1229.61
630.15	1222.40
630.50	1214.91
630.84	1206.65
631.19	1198.68
631.53	1191.22
631.88	1183.61
632.22	1176.04
632.57	1168.78
632.91	1161.13
633.26	1153.55
633.60	1146.12
633.95	1139.02
634.29	1131.91
634.64	1125.17
634.98	1117.72
635.32	1110.47
635.67	1103.82
636.01	1097.22
636.36	1090.27
636.70	1083.62
637.05	1077.03
637.39	1070.50
637.73	1064.05
638.08	1058.20
638.42	1052.21
638.77	1045.72
639.11	1039.11
639.45	1032.76
639.80	1025.99
640.14	1019.55
640.49	1013.13
640.83	1006.82
641.17	1000.57
641.52	994.24
641.86	987.78
642.20	982.03
642.55	975.70
642.89	969.21
643.23	962.59
643.58	956.96
643.92	950.83
644.26	944.71
644.61	938.68
644.95	932.67
645.29	926.01
645.64	919.25
645.98	912.80
646.32	906.95
646.66	900.91
647.01	895.25
647.35	889.50
647.69	883.56
648.04	878.03
648.38	872.27
648.72	866.28
649.06	860.16
649.41	854.24
649.75	848.31
650.09	842.32
650.43	836.50
650.78	830.23
651.12	824.23
651.46	818.55
651.80	812.79
652.14	807.24
652.49	801.94
652.83	796.85
653.17	791.23
653.51	785.50
653.85	780.14
654.20	774.43
654.54	768.40
654.88	762.69
655.22	756.68
655.56	750.98
655.90	745.54
656.25	740.33
656.59	734.91
656.93	729.82
657.27	724.67
657.61	719.31
657.95	714.21
658.29	709.12
658.64	703.82
658.98	698.51
659.32	693.14
659.66	687.91
660.00	682.50
660.34	677.61
660.68	672.71
661.02	667.59
661.36	662.81
661.70	658.35
662.05	654.03
662.39	649.77
662.73	645.34
663.07	640.98
663.41	636.56
663.75	632.07
664.09	627.46
664.43	623.05
664.77	618.88
665.11	614.69
665.45	610.56
665.79	606.62
666.13	602.46
666.47	598.37
666.81	594.16
667.15	590.10
667.49	586.15
667.83	582.33
668.17	578.43
668.51	574.37
668.85	570.34
669.19	566.46
669.53	562.64
669.87	558.81
670.21	555.05
670.55	551.39
670.89	548.00
671.23	544.59
671.57	541.09
671.91	537.59
672.25	534.05
672.58	530.50
672.92	527.03
673.26	523.90
673.60	520.72
673.94	517.61
674.28	514.68
674.62	511.75
674.96	508.58
675.30	505.65
675.64	502.70
675.97	499.92
676.31	497.06
676.65	494.13
676.99	491.38
677.33	488.57
677.67	485.77
678.01	482.72
678.34	479.79
678.68	476.90
679.02	474.04
679.36	471.24
679.70	468.53
680.04	465.76
680.37	462.96
680.71	460.18
681.05	457.61
681.39	454.86
681.73	452.18
682.06	449.71
682.40	447.14
682.74	444.61
683.08	442.06
683.42	439.47
683.75	437.00
684.09	434.43
684.43	431.95
684.77	429.45
685.10	427.10
685.44	424.76
685.78	422.46
686.12	420.26
686.45	417.99
686.79	415.69
687.13	413.49
687.46	411.32
687.80	409.17
688.14	406.96
688.48	404.92
688.81	402.68
689.15	400.56
689.49	398.44
689.82	396.38
690.16	394.32
690.50	392.34
690.83	390.38
691.17	388.37
691.51	386.41
691.84	384.60
692.18	382.68
692.52	380.71
692.85	378.79
693.19	376.86
693.52	375.03
693.86	373.21
694.20	371.43
694.53	369.57
694.87	367.69
695.21	365.89
695.54	364.06
695.88	362.33
696.21	360.60
696.55	358.95
696.88	357.28
697.22	355.58
697.56	353.99
697.89	352.31
698.23	350.74
698.56	349.17
698.90	347.58
699.23	345.94
699.57	344.40
699.90	342.86
700.24	341.34
700.58	339.82
700.91	338.32
701.25	336.86
701.58	335.53
701.92	334.22
702.25	332.80
702.59	331.38
702.92	330.02
703.26	328.71
703.59	327.39
703.93	326.23
704.26	325.00
704.60	323.68
704.93	322.44
705.26	321.17
705.60	319.97
705.93	318.81
706.27	317.80
706.60	316.76
706.94	315.66
707.27	314.52
707.61	313.45
707.94	312.41
708.27	311.29
708.61	310.18
708.94	309.14
709.28	308.17
709.61	307.21
709.94	306.27
710.28	305.25
710.61	304.27
710.95	303.13
711.28	302.23
711.61	301.28
711.95	300.38
712.28	299.47
712.61	298.52
712.95	297.59
713.28	296.67
713.61	295.72
713.95	294.86
714.28	294.00
714.61	293.15
714.95	292.30
715.28	291.46
715.61	290.57
715.95	289.71
716.28	288.86
716.61	288.05
716.95	287.24
717.28	286.49
717.61	285.72
717.94	285.02
718.28	284.21
718.61	283.46
718.94	282.71
719.27	282.05
719.61	281.39
719.94	280.74
720.27	280.03
720.60	279.40
720.94	278.76
721.27	278.20
721.60	277.58
721.93	277.00
722.27	276.45
722.60	275.89
722.93	275.33
723.26	274.77
723.59	274.20
723.93	273.65
724.26	273.08
724.59	272.49
724.92	271.97
725.25	271.49
725.59	271.00
725.92	270.48
726.25	269.96
726.58	269.44
726.91	268.95
727.24	268.46
727.57	267.95
727.91	267.40
728.24	266.90
728.57	266.43
728.90	266.01
729.23	265.50
729.56	265.10
729.89	264.63
730.22	264.15
730.55	263.68
730.89	263.24
731.22	262.82
731.55	262.41
731.88	261.97
732.21	261.52
732.54	261.07
732.87	260.65
733.20	260.22
733.53	259.85
733.86	259.46
734.19	259.07
734.52	258.69
734.85	258.41
735.18	258.02
735.51	257.67
735.84	257.29
736.17	256.95
736.50	256.53
736.83	256.30
737.16	255.95
737.49	255.64
737.82	255.27
738.15	254.95
738.48	254.64
738.81	254.30
739.14	253.94
739.47	253.63
739.80	253.34
740.13	253.03
740.46	252.69
740.79	252.35
741.12	252.04
741.45	251.73
741.78	251.38
742.11	251.10
742.44	250.76
742.77	250.44
743.10	250.12
743.43	249.83
743.75	249.43
744.08	249.32
744.41	249.04
744.74	248.77
745.07	248.46
745.40	248.18
745.73	247.92
746.06	247.65
746.39	247.38
746.71	247.11
747.04	246.83
747.37	246.58
747.70	246.34
748.03	246.09
748.36	245.85
748.68	245.61
749.01	245.34
749.34	245.13
749.67	244.93
750.00	244.71
750.33	244.55
750.65	244.36
750.98	243.99
751.31	243.74
751.64	243.54
751.97	243.41
752.29	243.21
752.62	242.99
752.95	242.78
753.28	242.57
753.60	242.38
753.93	242.22
754.26	242.02
754.59	241.80
754.91	241.59
755.24	241.39
755.57	241.18
755.90	241.01
756.22	240.82
756.55	240.59
756.88	240.42
757.20	240.18
757.53	239.99
757.86	239.80
758.19	239.63
758.51	239.43
758.84	239.20
759.17	239.03
759.49	238.86
759.82	238.76
760.15	238.62
760.47	238.43
760.80	238.28
761.13	238.16
761.45	237.99
761.78	237.84
762.11	237.72
762.43	237.60
762.76	237.45
763.08	237.32
763.41	237.20
763.74	237.11
764.06	236.95
764.39	236.81
764.71	236.70
765.04	236.58
765.37	236.46
765.69	236.32
766.02	236.17
766.34	236.06
766.67	235.88
767.00	235.76
767.32	235.72
767.65	235.67
767.97	235.57
768.30	235.47
768.62	235.35
768.95	235.22
769.27	235.10
769.60	235.02
769.92	234.92
770.25	234.79
770.57	234.63
770.90	234.55
771.22	234.44
771.55	234.37
771.87	234.29
772.20	234.24
772.52	234.25
772.85	234.29
773.17	234.20
773.50	234.12
773.82	234.05
774.15	233.93
774.47	233.78
774.80	233.67
775.12	233.59
775.45	233.54
775.77	233.47
776.09	233.40
776.42	233.32
776.74	233.27
777.07	233.18
777.39	233.08
777.72	233.01
778.04	232.96
778.36	232.89
778.69	232.83
779.01	232.73
779.33	232.58
779.66	232.44
779.98	232.38
780.31	232.34
780.63	232.30
780.95	232.23
781.28	232.18
781.60	232.10
781.92	232.04
782.25	231.97
782.57	231.94
782.89	231.87
783.22	231.81
783.54	231.74
783.86	231.70
784.19	231.66
784.51	231.64
784.83	231.57
785.16	231.47
785.48	231.44
785.80	231.36
786.12	231.34
786.45	231.24
786.77	231.20
787.09	231.14
