SpectraSuite Data File
++++++++++++++++++++++++++++++++++++
Date: Fri Feb 01 16:17:19 EST 2013
User: group
Dark Spectrum Present: No
Reference Spectrum Present: No
Number of Sampled Component Spectra: 1
Spectrometers: USB2E7196
Integration Time (usec): 35000 (USB2E7196)
Spectra Averaged: 100 (USB2E7196)
Boxcar Smoothing: 10 (USB2E7196)
Correct for Electrical Dark: No (USB2E7196)
Strobe/Lamp Enabled: No (USB2E7196)
Correct for Detector Non-linearity: No (USB2E7196)
Correct for Stray Light: No (USB2E7196)
Number of Pixels in Processed Spectrum: 2048
>>>>>Begin Processed Spectral Data<<<<<
339.09	0.00
339.48	213.97
339.86	215.18
340.24	216.76
340.63	218.50
341.01	221.21
341.39	221.02
341.78	222.12
342.16	223.55
342.54	224.46
342.93	212.40
343.31	223.15
343.69	223.70
344.07	224.16
344.46	224.62
344.84	224.98
345.22	225.21
345.60	225.44
345.99	225.65
346.37	225.79
346.75	225.87
347.13	225.94
347.52	226.03
347.90	226.11
348.28	226.16
348.66	226.21
349.05	226.20
349.43	226.25
349.81	226.30
350.19	226.36
350.57	226.43
350.96	226.54
351.34	226.62
351.72	226.73
352.10	226.85
352.48	226.91
352.87	226.98
353.25	227.06
353.63	227.13
354.01	227.18
354.39	227.24
354.77	227.31
355.15	227.41
355.54	227.43
355.92	227.49
356.30	227.55
356.68	227.68
357.06	227.75
357.44	227.80
357.82	227.87
358.20	227.92
358.58	227.94
358.97	227.98
359.35	228.02
359.73	228.06
360.11	228.10
360.49	228.14
360.87	228.19
361.25	228.24
361.63	228.33
362.01	228.39
362.39	228.44
362.77	228.46
363.15	228.49
363.53	228.53
363.91	228.55
364.29	228.60
364.67	228.50
365.05	228.53
365.43	228.54
365.81	228.54
366.19	228.59
366.57	228.67
366.95	228.64
367.33	228.60
367.71	228.57
368.09	228.57
368.47	228.53
368.85	228.53
369.23	228.51
369.61	228.42
369.99	228.42
370.37	228.39
370.75	228.38
371.13	228.29
371.51	228.23
371.89	228.20
372.27	228.13
372.65	228.07
373.03	228.02
373.41	227.96
373.78	227.89
374.16	227.77
374.54	227.69
374.92	227.65
375.30	227.63
375.68	227.55
376.06	227.53
376.44	227.45
376.82	227.37
377.19	227.30
377.57	227.25
377.95	227.15
378.33	227.05
378.71	226.96
379.09	226.93
379.47	226.87
379.84	226.79
380.22	226.72
380.60	226.67
380.98	226.60
381.36	226.54
381.73	226.48
382.11	226.46
382.49	226.38
382.87	226.29
383.25	226.19
383.62	226.25
384.00	226.15
384.38	226.09
384.76	226.04
385.13	226.00
385.51	225.96
385.89	225.87
386.27	225.84
386.64	225.82
387.02	225.77
387.40	225.72
387.78	225.66
388.15	225.64
388.53	225.60
388.91	225.58
389.29	225.52
389.66	225.52
390.04	225.50
390.42	225.48
390.79	225.49
391.17	225.51
391.55	225.39
391.92	225.39
392.30	225.44
392.68	225.42
393.05	225.41
393.43	225.38
393.81	225.42
394.18	225.43
394.56	225.43
394.94	225.50
395.31	225.52
395.69	225.59
396.06	225.62
396.44	225.69
396.82	225.72
397.19	225.81
397.57	225.83
397.95	225.88
398.32	225.92
398.70	225.96
399.07	226.04
399.45	226.11
399.82	226.18
400.20	226.21
400.58	226.30
400.95	226.37
401.33	226.49
401.70	226.63
402.08	226.73
402.45	226.82
402.83	226.92
403.20	227.02
403.58	227.10
403.95	227.23
404.33	227.30
404.71	227.43
405.08	227.58
405.46	227.71
405.83	227.84
406.21	227.99
406.58	228.16
406.96	228.31
407.33	228.49
407.70	228.68
408.08	228.98
408.45	229.17
408.83	229.40
409.20	229.59
409.58	229.76
409.95	230.05
410.33	230.31
410.70	230.56
411.08	230.89
411.45	231.19
411.82	231.48
412.20	231.84
412.57	232.25
412.95	232.59
413.32	233.00
413.69	233.40
414.07	233.82
414.44	234.26
414.82	234.72
415.19	235.24
415.56	235.78
415.94	236.27
416.31	236.92
416.68	237.50
417.06	238.18
417.43	238.89
417.81	239.61
418.18	240.39
418.55	241.20
418.93	242.03
419.30	242.89
419.67	243.81
420.04	244.77
420.42	245.74
420.79	246.92
421.16	248.07
421.54	249.27
421.91	250.50
422.28	251.76
422.66	253.08
423.03	254.37
423.40	255.69
423.77	257.12
424.15	258.55
424.52	260.07
424.89	261.68
425.26	263.23
425.64	264.67
426.01	266.26
426.38	267.90
426.75	269.58
427.13	271.31
427.50	273.14
427.87	275.01
428.24	276.84
428.61	278.56
428.99	280.49
429.36	282.57
429.73	284.60
430.10	286.61
430.47	288.66
430.85	290.79
431.22	293.04
431.59	295.43
431.96	297.66
432.33	300.14
432.70	302.50
433.08	305.28
433.45	307.94
433.82	310.51
434.19	313.43
434.56	316.24
434.93	318.89
435.30	321.46
435.68	324.40
436.05	327.28
436.42	330.06
436.79	332.57
437.16	335.24
437.53	338.08
437.90	340.88
438.27	343.59
438.64	346.40
439.01	348.99
439.38	351.18
439.75	353.34
440.13	355.79
440.50	358.17
440.87	360.01
441.24	361.94
441.61	364.09
441.98	365.53
442.35	367.30
442.72	369.14
443.09	371.01
443.46	371.95
443.83	372.49
444.20	373.01
444.57	373.83
444.94	374.17
445.31	374.55
445.68	374.91
446.05	375.04
446.42	374.69
446.79	374.25
447.16	373.80
447.53	373.52
447.90	372.38
448.27	371.23
448.64	369.64
449.01	368.53
449.37	366.60
449.74	364.76
450.11	362.56
450.48	360.13
450.85	357.58
451.22	355.47
451.59	353.46
451.96	351.50
452.33	348.93
452.70	346.53
453.07	343.67
453.43	340.79
453.80	338.02
454.17	335.37
454.54	332.83
454.91	330.17
455.28	327.47
455.65	324.96
456.02	322.53
456.38	320.39
456.75	317.75
457.12	315.46
457.49	313.22
457.86	311.01
458.23	309.14
458.59	307.11
458.96	305.04
459.33	303.20
459.70	301.35
460.07	299.85
460.43	298.13
460.80	296.47
461.17	295.04
461.54	293.56
461.91	292.13
462.27	290.68
462.64	289.43
463.01	288.08
463.38	286.82
463.74	285.43
464.11	284.26
464.48	283.22
464.85	282.13
465.21	281.27
465.58	280.37
465.95	279.26
466.32	278.36
466.68	277.41
467.05	276.51
467.42	275.64
467.78	274.72
468.15	273.85
468.52	273.24
468.88	272.37
469.25	271.61
469.62	270.95
469.98	270.25
470.35	269.60
470.72	269.01
471.08	268.35
471.45	267.83
471.82	267.30
472.18	266.67
472.55	266.26
472.92	265.75
473.28	265.30
473.65	264.87
474.02	264.41
474.38	264.09
474.75	263.76
475.11	263.41
475.48	263.14
475.85	262.95
476.21	262.70
476.58	262.55
476.94	262.40
477.31	262.26
477.67	262.16
478.04	262.07
478.41	262.03
478.77	262.10
479.14	262.07
479.50	262.09
479.87	262.20
480.23	262.27
480.60	262.36
480.96	262.49
481.33	262.72
481.69	262.96
482.06	263.15
482.42	263.37
482.79	263.67
483.15	264.00
483.52	264.37
483.88	264.75
484.25	265.13
484.61	265.58
484.98	266.10
485.34	266.66
485.71	267.28
486.07	267.88
486.44	268.40
486.80	269.11
487.17	269.89
487.53	270.73
487.90	271.60
488.26	272.56
488.62	273.50
488.99	274.50
489.35	275.54
489.72	276.72
490.08	277.90
490.44	279.18
490.81	280.53
491.17	281.89
491.54	283.37
491.90	284.92
492.26	286.53
492.63	288.24
492.99	290.04
493.36	291.95
493.72	294.02
494.08	296.17
494.45	298.42
494.81	300.76
495.17	303.22
495.54	305.79
495.90	308.42
496.26	311.27
496.63	314.21
496.99	317.34
497.35	320.58
497.72	324.03
498.08	327.50
498.44	331.18
498.80	335.12
499.17	339.18
499.53	343.36
499.89	347.79
500.26	352.27
500.62	356.97
500.98	361.87
501.34	366.92
501.71	372.24
502.07	377.66
502.43	383.31
502.79	389.09
503.16	395.19
503.52	401.50
503.88	407.92
504.24	414.59
504.60	421.41
504.97	428.54
505.33	435.87
505.69	443.60
506.05	451.39
506.41	459.25
506.78	467.41
507.14	475.88
507.50	484.62
507.86	493.68
508.22	502.82
508.59	512.09
508.95	521.64
509.31	531.50
509.67	541.64
510.03	551.94
510.39	562.51
510.75	573.22
511.12	584.17
511.48	595.47
511.84	606.94
512.20	618.54
512.56	630.43
512.92	642.61
513.28	654.88
513.64	667.35
514.00	680.04
514.37	692.97
514.73	706.03
515.09	719.06
515.45	732.38
515.81	745.93
516.17	759.92
516.53	774.02
516.89	788.21
517.25	802.31
517.61	816.72
517.97	831.12
518.33	845.61
518.69	860.32
519.05	875.26
519.41	890.41
519.77	905.83
520.13	921.30
520.49	936.78
520.85	952.34
521.21	967.96
521.57	984.15
521.93	999.79
522.29	1016.06
522.65	1032.27
523.01	1048.43
523.37	1064.47
523.73	1080.57
524.09	1096.70
524.45	1112.93
524.81	1129.64
525.17	1146.37
525.53	1163.28
525.89	1180.17
526.25	1196.98
526.61	1213.38
526.97	1230.05
527.33	1246.58
527.68	1263.12
528.04	1279.39
528.40	1295.83
528.76	1312.81
529.12	1329.27
529.48	1346.14
529.84	1362.15
530.20	1378.74
530.56	1395.61
530.91	1412.99
531.27	1429.62
531.63	1446.05
531.99	1462.53
532.35	1478.29
532.71	1494.25
533.07	1510.41
533.42	1526.23
533.78	1542.21
534.14	1558.47
534.50	1573.82
534.86	1589.49
535.21	1604.62
535.57	1620.58
535.93	1635.99
536.29	1650.85
536.65	1665.92
537.00	1680.68
537.36	1695.93
537.72	1710.41
538.08	1724.81
538.44	1738.54
538.79	1752.41
539.15	1765.89
539.51	1779.58
539.87	1793.89
540.22	1807.28
540.58	1821.07
540.94	1834.23
541.29	1847.00
541.65	1859.62
542.01	1872.78
542.37	1885.19
542.72	1897.54
543.08	1909.20
543.44	1921.51
543.79	1932.73
544.15	1943.85
544.51	1955.34
544.87	1966.33
545.22	1977.09
545.58	1987.18
545.94	1996.77
546.29	2006.48
546.65	2016.37
547.01	2025.66
547.36	2034.46
547.72	2042.95
548.07	2050.66
548.43	2058.92
548.79	2067.01
549.14	2074.45
549.50	2081.67
549.86	2089.35
550.21	2096.72
550.57	2103.86
550.92	2110.38
551.28	2117.37
551.64	2124.27
551.99	2130.81
552.35	2136.80
552.70	2142.93
553.06	2148.93
553.41	2155.41
553.77	2161.44
554.13	2167.42
554.48	2173.59
554.84	2178.96
555.19	2184.39
555.55	2189.62
555.90	2194.13
556.26	2198.89
556.61	2203.49
556.97	2207.68
557.32	2211.64
557.68	2215.76
558.03	2219.97
558.39	2223.74
558.74	2228.41
559.10	2232.13
559.45	2235.70
559.81	2240.01
560.16	2243.84
560.52	2247.08
560.87	2250.50
561.23	2253.40
561.58	2256.52
561.94	2258.86
562.29	2261.26
562.64	2263.94
563.00	2266.62
563.35	2270.02
563.71	2273.11
564.06	2276.56
564.42	2279.45
564.77	2282.16
565.12	2284.43
565.48	2286.45
565.83	2288.37
566.19	2289.65
566.54	2290.59
566.89	2291.77
567.25	2292.52
567.60	2293.76
567.96	2295.51
568.31	2296.36
568.66	2297.38
569.02	2297.94
569.37	2298.32
569.72	2299.13
570.08	2299.17
570.43	2299.09
570.78	2298.50
571.14	2297.08
571.49	2295.55
571.84	2295.34
572.20	2294.23
572.55	2293.15
572.90	2291.56
573.26	2290.25
573.61	2288.62
573.96	2287.28
574.31	2284.42
574.67	2281.39
575.02	2277.91
575.37	2274.58
575.72	2270.91
576.08	2267.54
576.43	2264.15
576.78	2260.53
577.13	2257.57
577.49	2254.63
577.84	2251.30
578.19	2247.50
578.54	2243.97
578.90	2239.88
579.25	2234.45
579.60	2229.40
579.95	2224.43
580.30	2219.46
580.66	2214.29
581.01	2209.39
581.36	2204.32
581.71	2200.20
582.06	2195.81
582.42	2191.42
582.77	2186.08
583.12	2181.50
583.47	2176.95
583.82	2172.10
584.17	2166.86
584.53	2161.33
584.88	2155.76
585.23	2149.94
585.58	2144.69
585.93	2139.17
586.28	2134.47
586.63	2129.41
586.98	2124.56
587.34	2119.86
587.69	2115.10
588.04	2109.80
588.39	2104.14
588.74	2097.70
589.09	2091.55
589.44	2084.85
589.79	2078.86
590.14	2073.39
590.49	2066.72
590.84	2060.37
591.19	2054.43
591.54	2048.02
591.89	2040.76
592.25	2033.97
592.60	2026.82
592.95	2019.24
593.30	2012.06
593.65	2004.43
594.00	1997.38
594.35	1990.01
594.70	1982.05
595.05	1974.81
595.40	1967.66
595.75	1960.26
596.10	1954.02
596.45	1947.36
596.80	1941.28
597.15	1934.77
597.50	1927.72
597.85	1921.24
598.19	1914.54
598.54	1907.32
598.89	1900.77
599.24	1894.85
599.59	1888.16
599.94	1882.00
600.29	1875.71
600.64	1869.10
600.99	1861.74
601.34	1854.94
601.69	1848.07
602.04	1841.20
602.39	1833.83
602.74	1826.87
603.08	1820.04
603.43	1813.28
603.78	1805.96
604.13	1798.69
604.48	1791.21
604.83	1784.21
605.18	1777.36
605.53	1769.35
605.87	1761.42
606.22	1754.15
606.57	1746.26
606.92	1738.92
607.27	1731.73
607.62	1724.73
607.96	1717.37
608.31	1710.75
608.66	1703.10
609.01	1695.54
609.36	1687.95
609.70	1679.91
610.05	1671.96
610.40	1664.31
610.75	1655.93
611.10	1648.22
611.44	1639.68
611.79	1631.79
612.14	1623.22
612.49	1614.11
612.83	1605.77
613.18	1597.58
613.53	1589.50
613.88	1580.70
614.22	1572.41
614.57	1563.74
614.92	1555.78
615.27	1548.30
615.61	1539.94
615.96	1532.02
616.31	1524.40
616.65	1517.10
617.00	1509.60
617.35	1501.95
617.70	1493.56
618.04	1485.18
618.39	1476.96
618.74	1469.47
619.08	1461.06
619.43	1453.53
619.78	1446.60
620.12	1439.38
620.47	1431.95
620.82	1423.82
621.16	1416.57
621.51	1408.94
621.85	1401.41
622.20	1392.88
622.55	1384.54
622.89	1376.75
623.24	1369.07
623.59	1361.54
623.93	1353.99
624.28	1346.86
624.62	1339.32
624.97	1332.21
625.32	1325.41
625.66	1318.40
626.01	1311.17
626.35	1303.78
626.70	1295.98
627.04	1288.37
627.39	1280.63
627.73	1273.27
628.08	1266.47
628.43	1259.12
628.77	1251.80
629.12	1244.21
629.46	1237.10
629.81	1229.63
630.15	1222.30
630.50	1214.86
630.84	1206.74
631.19	1198.76
631.53	1191.15
631.88	1183.60
632.22	1175.96
632.57	1168.68
632.91	1161.15
633.26	1153.84
633.60	1146.53
633.95	1139.41
634.29	1132.26
634.64	1125.60
634.98	1118.23
635.32	1110.93
635.67	1104.33
636.01	1097.66
636.36	1090.77
636.70	1084.17
637.05	1077.53
637.39	1071.17
637.73	1064.65
638.08	1058.74
638.42	1052.79
638.77	1046.42
639.11	1039.80
639.45	1033.44
639.80	1026.77
640.14	1020.39
640.49	1013.71
640.83	1007.33
641.17	1001.10
641.52	994.76
641.86	988.18
642.20	982.20
642.55	975.88
642.89	969.28
643.23	962.70
643.58	957.06
643.92	950.86
644.26	944.97
644.61	938.86
644.95	932.85
645.29	926.26
645.64	919.50
645.98	913.13
646.32	907.28
646.66	901.14
647.01	895.22
647.35	889.43
647.69	883.64
648.04	878.07
648.38	872.26
648.72	866.21
649.06	860.15
649.41	854.31
649.75	848.27
650.09	842.42
650.43	836.66
650.78	830.39
651.12	824.34
651.46	818.52
651.80	812.73
652.14	807.33
652.49	802.03
652.83	796.95
653.17	791.18
653.51	785.44
653.85	780.11
654.20	774.50
654.54	768.50
654.88	762.73
655.22	756.89
655.56	751.18
655.90	745.72
656.25	740.52
656.59	735.16
656.93	730.15
657.27	724.97
657.61	719.51
657.95	714.40
658.29	709.33
658.64	704.06
658.98	698.79
659.32	693.36
659.66	688.00
660.00	682.59
660.34	677.69
660.68	672.82
661.02	667.74
661.36	663.11
661.70	658.58
662.05	654.22
662.39	649.90
662.73	645.44
663.07	641.05
663.41	636.65
663.75	632.16
664.09	627.54
664.43	623.17
664.77	619.06
665.11	614.85
665.45	610.74
665.79	606.73
666.13	602.60
666.47	598.46
666.81	594.43
667.15	590.33
667.49	586.41
667.83	582.53
668.17	578.62
668.51	574.52
668.85	570.54
669.19	566.72
669.53	562.90
669.87	559.06
670.21	555.38
670.55	551.66
670.89	548.23
671.23	544.82
671.57	541.32
671.91	537.79
672.25	534.24
672.58	530.74
672.92	527.31
673.26	524.17
673.60	521.00
673.94	517.85
674.28	514.92
674.62	511.96
674.96	508.91
675.30	505.95
675.64	502.97
675.97	500.18
676.31	497.26
676.65	494.29
676.99	491.54
677.33	488.66
677.67	485.88
678.01	482.85
678.34	479.89
678.68	477.01
679.02	474.24
679.36	471.54
679.70	468.81
680.04	466.04
680.37	463.09
680.71	460.27
681.05	457.63
681.39	454.90
681.73	452.22
682.06	449.62
682.40	447.07
682.74	444.58
683.08	442.03
683.42	439.47
683.75	436.95
684.09	434.41
684.43	431.92
684.77	429.46
685.10	427.09
685.44	424.76
685.78	422.42
686.12	420.10
686.45	417.76
686.79	415.44
687.13	413.25
687.46	411.13
687.80	408.99
688.14	406.77
688.48	404.69
688.81	402.47
689.15	400.34
689.49	398.20
689.82	396.10
690.16	393.98
690.50	392.02
690.83	390.04
691.17	388.06
691.51	386.17
691.84	384.33
692.18	382.39
692.52	380.38
692.85	378.46
693.19	376.61
693.52	374.74
693.86	372.99
694.20	371.18
694.53	369.36
694.87	367.48
695.21	365.69
695.54	363.88
695.88	362.10
696.21	360.36
696.55	358.67
696.88	356.96
697.22	355.30
697.56	353.65
697.89	352.04
698.23	350.41
698.56	348.82
698.90	347.17
699.23	345.53
699.57	344.00
699.90	342.45
700.24	340.88
700.58	339.36
700.91	337.80
701.25	336.35
701.58	334.99
701.92	333.62
702.25	332.26
702.59	330.87
702.92	329.60
703.26	328.25
703.59	326.99
703.93	325.84
704.26	324.59
704.60	323.28
704.93	321.94
705.26	320.72
705.60	319.54
705.93	318.39
706.27	317.32
706.60	316.27
706.94	315.21
707.27	314.09
707.61	313.02
707.94	311.98
708.27	310.89
708.61	309.83
708.94	308.82
709.28	307.82
709.61	306.87
709.94	305.91
710.28	304.96
710.61	303.97
710.95	302.87
711.28	302.01
711.61	301.09
711.95	300.21
712.28	299.24
712.61	298.26
712.95	297.37
713.28	296.50
713.61	295.62
713.95	294.76
714.28	293.91
714.61	293.07
714.95	292.25
715.28	291.40
715.61	290.51
715.95	289.69
716.28	288.81
716.61	287.99
716.95	287.18
717.28	286.40
717.61	285.64
717.94	284.90
718.28	284.07
718.61	283.34
718.94	282.66
719.27	282.02
719.61	281.36
719.94	280.68
720.27	279.96
720.60	279.27
720.94	278.58
721.27	277.98
721.60	277.41
721.93	276.82
722.27	276.24
722.60	275.66
722.93	275.09
723.26	274.62
723.59	274.07
723.93	273.48
724.26	272.91
724.59	272.34
724.92	271.80
725.25	271.28
725.59	270.77
725.92	270.27
726.25	269.75
726.58	269.23
726.91	268.74
727.24	268.29
727.57	267.81
727.91	267.32
728.24	266.88
728.57	266.40
728.90	265.93
729.23	265.43
729.56	265.02
729.89	264.54
730.22	264.07
730.55	263.55
730.89	263.12
731.22	262.66
731.55	262.20
731.88	261.76
732.21	261.32
732.54	260.89
732.87	260.43
733.20	260.01
733.53	259.61
733.86	259.21
734.19	258.79
734.52	258.44
734.85	258.14
735.18	257.72
735.51	257.35
735.84	257.01
736.17	256.68
736.50	256.29
736.83	256.04
737.16	255.69
737.49	255.36
737.82	255.01
738.15	254.70
738.48	254.39
738.81	254.09
739.14	253.78
739.47	253.46
739.80	253.16
740.13	252.89
740.46	252.61
740.79	252.30
741.12	252.00
741.45	251.67
741.78	251.31
742.11	251.03
742.44	250.68
742.77	250.39
743.10	250.09
743.43	249.79
743.75	249.45
744.08	249.30
744.41	249.06
744.74	248.81
745.07	248.48
745.40	248.27
745.73	248.02
746.06	247.76
746.39	247.51
746.71	247.24
747.04	246.96
747.37	246.68
747.70	246.44
748.03	246.20
748.36	246.02
748.68	245.81
749.01	245.58
749.34	245.37
749.67	245.15
750.00	244.90
750.33	244.79
750.65	244.56
750.98	244.21
751.31	244.03
751.64	243.81
751.97	243.69
752.29	243.44
752.62	243.21
752.95	243.00
753.28	242.78
753.60	242.57
753.93	242.41
754.26	242.20
754.59	241.97
754.91	241.77
755.24	241.53
755.57	241.28
755.90	241.06
756.22	240.85
756.55	240.63
756.88	240.45
757.20	240.16
757.53	239.95
757.86	239.73
758.19	239.52
758.51	239.38
758.84	239.16
759.17	239.00
759.49	238.81
759.82	238.66
760.15	238.48
760.47	238.35
760.80	238.15
761.13	238.03
761.45	237.86
761.78	237.72
762.11	237.57
762.43	237.47
762.76	237.35
763.08	237.18
763.41	237.02
763.74	236.88
764.06	236.74
764.39	236.58
764.71	236.43
765.04	236.26
765.37	236.10
765.69	235.96
766.02	235.82
766.34	235.73
766.67	235.56
767.00	235.50
767.32	235.46
767.65	235.38
767.97	235.25
768.30	235.14
768.62	235.04
768.95	234.93
769.27	234.83
769.60	234.71
769.92	234.60
770.25	234.53
770.57	234.42
770.90	234.30
771.22	234.23
771.55	234.16
771.87	234.10
772.20	234.01
772.52	234.01
772.85	234.04
773.17	233.89
773.50	233.80
773.82	233.68
774.15	233.49
774.47	233.39
774.80	233.27
775.12	233.21
775.45	233.11
775.77	233.03
776.09	232.93
776.42	232.87
776.74	232.86
777.07	232.77
777.39	232.73
777.72	232.70
778.04	232.64
778.36	232.56
778.69	232.51
779.01	232.47
779.33	232.30
779.66	232.15
779.98	232.12
780.31	232.09
780.63	232.07
780.95	232.05
781.28	231.99
781.60	231.98
781.92	231.89
782.25	231.86
782.57	231.77
782.89	231.73
783.22	231.68
783.54	231.62
783.86	231.54
784.19	231.48
784.51	231.46
784.83	231.39
785.16	231.32
785.48	231.27
785.80	231.21
786.12	231.18
786.45	231.14
786.77	231.11
787.09	231.05
