SpectraSuite Data File
++++++++++++++++++++++++++++++++++++
Date: Fri Feb 01 15:28:24 EST 2013
User: group
Dark Spectrum Present: No
Reference Spectrum Present: No
Number of Sampled Component Spectra: 1
Spectrometers: USB2E7196
Integration Time (usec): 35000 (USB2E7196)
Spectra Averaged: 100 (USB2E7196)
Boxcar Smoothing: 10 (USB2E7196)
Correct for Electrical Dark: No (USB2E7196)
Strobe/Lamp Enabled: No (USB2E7196)
Correct for Detector Non-linearity: No (USB2E7196)
Correct for Stray Light: No (USB2E7196)
Number of Pixels in Processed Spectrum: 2048
>>>>>Begin Processed Spectral Data<<<<<
339.09	0.00
339.48	215.20
339.86	216.76
340.24	217.69
340.63	219.73
341.01	222.62
341.39	221.87
341.78	223.21
342.16	224.38
342.54	224.95
342.93	213.39
343.31	224.18
343.69	224.72
344.07	225.17
344.46	225.60
344.84	225.95
345.22	226.18
345.60	226.43
345.99	226.63
346.37	226.77
346.75	226.87
347.13	226.92
347.52	226.95
347.90	227.05
348.28	227.08
348.66	227.13
349.05	227.11
349.43	227.10
349.81	227.16
350.19	227.22
350.57	227.27
350.96	227.35
351.34	227.42
351.72	227.47
352.10	227.55
352.48	227.62
352.87	227.67
353.25	227.71
353.63	227.78
354.01	227.81
354.39	227.89
354.77	227.97
355.15	228.08
355.54	228.15
355.92	228.20
356.30	228.27
356.68	228.41
357.06	228.48
357.44	228.55
357.82	228.60
358.20	228.67
358.58	228.72
358.97	228.77
359.35	228.85
359.73	228.93
360.11	229.01
360.49	229.06
360.87	229.12
361.25	229.17
361.63	229.22
362.01	229.28
362.39	229.32
362.77	229.36
363.15	229.34
363.53	229.38
363.91	229.39
364.29	229.40
364.67	229.35
365.05	229.39
365.43	229.41
365.81	229.42
366.19	229.48
366.57	229.54
366.95	229.54
367.33	229.52
367.71	229.47
368.09	229.45
368.47	229.46
368.85	229.44
369.23	229.43
369.61	229.36
369.99	229.39
370.37	229.37
370.75	229.37
371.13	229.31
371.51	229.23
371.89	229.20
372.27	229.15
372.65	229.06
373.03	229.00
373.41	228.93
373.78	228.86
374.16	228.75
374.54	228.66
374.92	228.59
375.30	228.50
375.68	228.46
376.06	228.40
376.44	228.32
376.82	228.23
377.19	228.18
377.57	228.15
377.95	228.04
378.33	227.94
378.71	227.81
379.09	227.77
379.47	227.71
379.84	227.63
380.22	227.55
380.60	227.50
380.98	227.41
381.36	227.37
381.73	227.33
382.11	227.25
382.49	227.19
382.87	227.10
383.25	227.09
383.62	227.13
384.00	227.05
384.38	226.97
384.76	226.97
385.13	226.91
385.51	226.85
385.89	226.77
386.27	226.72
386.64	226.72
387.02	226.66
387.40	226.65
387.78	226.59
388.15	226.57
388.53	226.52
388.91	226.51
389.29	226.46
389.66	226.38
390.04	226.36
390.42	226.33
390.79	226.33
391.17	226.28
391.55	226.15
391.92	226.15
392.30	226.19
392.68	226.12
393.05	226.13
393.43	226.16
393.81	226.19
394.18	226.19
394.56	226.18
394.94	226.24
395.31	226.25
395.69	226.34
396.06	226.36
396.44	226.40
396.82	226.45
397.19	226.51
397.57	226.58
397.95	226.68
398.32	226.73
398.70	226.78
399.07	226.88
399.45	226.96
399.82	227.00
400.20	227.04
400.58	227.14
400.95	227.20
401.33	227.31
401.70	227.44
402.08	227.57
402.45	227.66
402.83	227.79
403.20	227.93
403.58	228.04
403.95	228.19
404.33	228.33
404.71	228.44
405.08	228.64
405.46	228.78
405.83	228.92
406.21	229.08
406.58	229.27
406.96	229.44
407.33	229.64
407.70	229.87
408.08	230.17
408.45	230.40
408.83	230.64
409.20	230.82
409.58	231.02
409.95	231.27
410.33	231.55
410.70	231.77
411.08	232.05
411.45	232.36
411.82	232.70
412.20	233.05
412.57	233.49
412.95	233.83
413.32	234.26
413.69	234.65
414.07	235.09
414.44	235.57
414.82	236.03
415.19	236.58
415.56	237.12
415.94	237.64
416.31	238.29
416.68	238.93
417.06	239.69
417.43	240.39
417.81	241.13
418.18	241.92
418.55	242.79
418.93	243.66
419.30	244.53
419.67	245.44
420.04	246.40
420.42	247.41
420.79	248.54
421.16	249.67
421.54	250.89
421.91	252.12
422.28	253.39
422.66	254.74
423.03	256.01
423.40	257.33
423.77	258.78
424.15	260.19
424.52	261.68
424.89	263.22
425.26	264.80
425.64	266.26
426.01	267.83
426.38	269.45
426.75	271.14
427.13	272.87
427.50	274.67
427.87	276.55
428.24	278.37
428.61	280.15
428.99	282.09
429.36	284.15
429.73	286.21
430.10	288.18
430.47	290.21
430.85	292.33
431.22	294.61
431.59	296.97
431.96	299.20
432.33	301.64
432.70	303.99
433.08	306.79
433.45	309.43
433.82	312.07
434.19	314.99
434.56	317.81
434.93	320.44
435.30	323.09
435.68	325.98
436.05	328.85
436.42	331.63
436.79	334.16
437.16	336.87
437.53	339.68
437.90	342.54
438.27	345.28
438.64	348.14
439.01	350.71
439.38	352.95
439.75	355.14
440.13	357.68
440.50	360.08
440.87	361.93
441.24	363.87
441.61	366.01
441.98	367.49
442.35	369.27
442.72	371.18
443.09	372.94
443.46	373.90
443.83	374.48
444.20	374.98
444.57	375.82
444.94	376.12
445.31	376.50
445.68	376.85
446.05	376.93
446.42	376.50
446.79	376.09
447.16	375.65
447.53	375.35
447.90	374.13
448.27	372.96
448.64	371.38
449.01	370.24
449.37	368.29
449.74	366.38
450.11	364.10
450.48	361.60
450.85	359.08
451.22	356.99
451.59	354.92
451.96	352.99
452.33	350.41
452.70	348.01
453.07	345.16
453.43	342.23
453.80	339.48
454.17	336.83
454.54	334.29
454.91	331.56
455.28	328.86
455.65	326.39
456.02	323.96
456.38	321.79
456.75	319.14
457.12	316.87
457.49	314.66
457.86	312.50
458.23	310.66
458.59	308.65
458.96	306.52
459.33	304.70
459.70	302.85
460.07	301.30
460.43	299.64
460.80	297.99
461.17	296.56
461.54	295.02
461.91	293.59
462.27	292.16
462.64	290.92
463.01	289.55
463.38	288.27
463.74	286.87
464.11	285.75
464.48	284.72
464.85	283.61
465.21	282.73
465.58	281.82
465.95	280.71
466.32	279.78
466.68	278.91
467.05	278.00
467.42	277.11
467.78	276.20
468.15	275.28
468.52	274.64
468.88	273.78
469.25	273.02
469.62	272.39
469.98	271.67
470.35	271.05
470.72	270.45
471.08	269.78
471.45	269.23
471.82	268.65
472.18	268.04
472.55	267.60
472.92	267.06
473.28	266.58
473.65	266.13
474.02	265.67
474.38	265.26
474.75	264.94
475.11	264.57
475.48	264.31
475.85	264.09
476.21	263.83
476.58	263.62
476.94	263.50
477.31	263.34
477.67	263.21
478.04	263.02
478.41	262.94
478.77	262.96
479.14	262.91
479.50	262.93
479.87	262.98
480.23	263.05
480.60	263.12
480.96	263.19
481.33	263.41
481.69	263.62
482.06	263.84
482.42	264.01
482.79	264.26
483.15	264.54
483.52	264.92
483.88	265.30
484.25	265.68
484.61	266.06
484.98	266.49
485.34	267.01
485.71	267.61
486.07	268.24
486.44	268.79
486.80	269.46
487.17	270.19
487.53	270.99
487.90	271.82
488.26	272.76
488.62	273.72
488.99	274.67
489.35	275.69
489.72	276.81
490.08	278.04
490.44	279.27
490.81	280.61
491.17	281.94
491.54	283.42
491.90	284.95
492.26	286.60
492.63	288.34
492.99	290.15
493.36	292.02
493.72	294.04
494.08	296.19
494.45	298.46
494.81	300.81
495.17	303.26
495.54	305.84
495.90	308.52
496.26	311.36
496.63	314.34
496.99	317.44
497.35	320.71
497.72	324.09
498.08	327.64
498.44	331.32
498.80	335.25
499.17	339.27
499.53	343.48
499.89	347.85
500.26	352.40
500.62	357.07
500.98	362.10
501.34	367.19
501.71	372.52
502.07	377.94
502.43	383.58
502.79	389.40
503.16	395.47
503.52	401.76
503.88	408.20
504.24	414.88
504.60	421.83
504.97	428.96
505.33	436.29
505.69	444.03
506.05	451.79
506.41	459.73
506.78	467.91
507.14	476.33
507.50	485.10
507.86	494.13
508.22	503.36
508.59	512.59
508.95	522.22
509.31	532.08
509.67	542.17
510.03	552.40
510.39	562.98
510.75	573.80
511.12	584.78
511.48	596.07
511.84	607.46
512.20	618.95
512.56	630.95
512.92	643.16
513.28	655.49
513.64	668.01
514.00	680.69
514.37	693.68
514.73	706.78
515.09	719.82
515.45	733.14
515.81	746.73
516.17	760.74
516.53	774.83
516.89	788.92
517.25	803.28
517.61	817.81
517.97	832.25
518.33	846.75
518.69	861.54
519.05	876.62
519.41	891.84
519.77	907.47
520.13	922.93
520.49	938.36
520.85	953.80
521.21	969.52
521.57	985.82
521.93	1001.65
522.29	1018.11
522.65	1034.33
523.01	1050.53
523.37	1066.62
523.73	1082.85
524.09	1098.99
524.45	1115.41
524.81	1131.94
525.17	1148.84
525.53	1165.85
525.89	1182.78
526.25	1199.60
526.61	1216.03
526.97	1232.83
527.33	1249.28
527.68	1265.93
528.04	1282.57
528.40	1299.24
528.76	1316.42
529.12	1332.98
529.48	1349.93
529.84	1366.07
530.20	1382.87
530.56	1399.99
530.91	1417.36
531.27	1434.17
531.63	1450.68
531.99	1467.42
532.35	1483.59
532.71	1499.40
533.07	1515.67
533.42	1531.57
533.78	1547.67
534.14	1563.98
534.50	1579.33
534.86	1595.25
535.21	1610.42
535.57	1626.42
535.93	1641.90
536.29	1656.70
536.65	1671.96
537.00	1686.80
537.36	1702.12
537.72	1716.61
538.08	1730.97
538.44	1744.84
538.79	1758.68
539.15	1772.46
539.51	1786.23
539.87	1800.53
540.22	1814.37
540.58	1828.11
540.94	1841.56
541.29	1854.42
541.65	1867.11
542.01	1880.49
542.37	1892.78
542.72	1905.42
543.08	1917.16
543.44	1929.59
543.79	1940.86
544.15	1951.77
544.51	1963.24
544.87	1974.22
545.22	1985.18
545.58	1995.53
545.94	2005.33
546.29	2015.31
546.65	2025.26
547.01	2034.42
547.36	2043.21
547.72	2051.66
548.07	2059.71
548.43	2067.96
548.79	2076.18
549.14	2083.80
549.50	2091.21
549.86	2099.08
550.21	2106.27
550.57	2113.50
550.92	2120.28
551.28	2127.41
551.64	2134.46
551.99	2141.13
552.35	2147.33
552.70	2153.49
553.06	2159.49
553.41	2165.89
553.77	2172.08
554.13	2178.14
554.48	2184.29
554.84	2189.69
555.19	2195.10
555.55	2200.17
555.90	2204.61
556.26	2209.38
556.61	2214.07
556.97	2218.32
557.32	2222.50
557.68	2226.68
558.03	2230.97
558.39	2234.68
558.74	2239.28
559.10	2243.24
559.45	2246.81
559.81	2250.99
560.16	2254.78
560.52	2257.98
560.87	2261.30
561.23	2263.82
561.58	2266.75
561.94	2269.23
562.29	2271.65
562.64	2274.30
563.00	2276.88
563.35	2280.39
563.71	2283.57
564.06	2286.76
564.42	2289.53
564.77	2291.94
565.12	2294.12
565.48	2295.99
565.83	2297.72
566.19	2299.05
566.54	2300.05
566.89	2301.33
567.25	2302.10
567.60	2303.50
567.96	2305.13
568.31	2306.10
568.66	2307.17
569.02	2307.71
569.37	2307.98
569.72	2308.77
570.08	2308.94
570.43	2309.00
570.78	2308.29
571.14	2306.65
571.49	2305.35
571.84	2305.02
572.20	2303.80
572.55	2302.78
572.90	2301.08
573.26	2299.66
573.61	2297.93
573.96	2295.97
574.31	2292.86
574.67	2289.67
575.02	2285.96
575.37	2282.58
575.72	2278.61
576.08	2275.26
576.43	2271.85
576.78	2268.14
577.13	2264.99
577.49	2261.71
577.84	2258.21
578.19	2254.29
578.54	2250.61
578.90	2246.19
579.25	2240.56
579.60	2235.64
579.95	2230.53
580.30	2225.45
580.66	2220.20
581.01	2215.10
581.36	2210.18
581.71	2205.84
582.06	2201.35
582.42	2196.69
582.77	2191.15
583.12	2186.54
583.47	2181.60
583.82	2176.46
584.17	2171.19
584.53	2165.50
584.88	2159.77
585.23	2153.68
585.58	2148.27
585.93	2142.92
586.28	2138.13
586.63	2132.84
586.98	2127.64
587.34	2122.97
587.69	2118.15
588.04	2112.81
588.39	2107.09
588.74	2100.46
589.09	2094.25
589.44	2087.32
589.79	2081.17
590.14	2075.60
590.49	2068.94
590.84	2062.59
591.19	2056.56
591.54	2050.00
591.89	2042.55
592.25	2035.70
592.60	2028.63
592.95	2020.95
593.30	2013.44
593.65	2005.81
594.00	1998.86
594.35	1991.49
594.70	1983.17
595.05	1975.72
595.40	1968.46
595.75	1960.94
596.10	1954.62
596.45	1947.83
596.80	1941.53
597.15	1934.91
597.50	1927.75
597.85	1921.36
598.19	1914.62
598.54	1907.45
598.89	1900.88
599.24	1895.01
599.59	1888.33
599.94	1882.07
600.29	1875.76
600.64	1869.17
600.99	1861.66
601.34	1854.68
601.69	1847.72
602.04	1841.03
602.39	1833.71
602.74	1826.84
603.08	1820.14
603.43	1813.47
603.78	1806.17
604.13	1798.98
604.48	1791.74
604.83	1784.92
605.18	1777.83
605.53	1769.67
605.87	1761.61
606.22	1754.18
606.57	1746.06
606.92	1738.66
607.27	1731.38
607.62	1724.32
607.96	1716.90
608.31	1710.20
608.66	1702.63
609.01	1695.05
609.36	1687.30
609.70	1679.18
610.05	1670.92
610.40	1663.05
610.75	1654.52
611.10	1646.82
611.44	1638.49
611.79	1630.39
612.14	1621.65
612.49	1612.53
612.83	1604.34
613.18	1596.21
613.53	1588.14
613.88	1579.79
614.22	1571.53
614.57	1563.08
614.92	1555.14
615.27	1547.59
615.61	1539.31
615.96	1531.20
616.31	1523.56
616.65	1516.24
617.00	1508.78
617.35	1501.24
617.70	1492.87
618.04	1484.53
618.39	1476.29
618.74	1468.59
619.08	1460.34
619.43	1452.72
619.78	1445.83
620.12	1438.69
620.47	1431.21
620.82	1423.16
621.16	1415.68
621.51	1408.09
621.85	1400.34
622.20	1391.74
622.55	1383.39
622.89	1375.62
623.24	1368.08
623.59	1360.72
623.93	1353.16
624.28	1345.87
624.62	1338.24
624.97	1331.13
625.32	1324.43
625.66	1317.42
626.01	1310.27
626.35	1302.67
626.70	1295.02
627.04	1287.21
627.39	1279.31
627.73	1271.93
628.08	1265.03
628.43	1257.65
628.77	1250.23
629.12	1242.58
629.46	1235.41
629.81	1227.94
630.15	1220.63
630.50	1213.21
630.84	1204.94
631.19	1197.05
631.53	1189.56
631.88	1182.03
632.22	1174.38
632.57	1167.04
632.91	1159.44
633.26	1151.97
633.60	1144.69
633.95	1137.71
634.29	1130.73
634.64	1124.09
634.98	1116.66
635.32	1109.46
635.67	1102.93
636.01	1096.31
636.36	1089.53
636.70	1083.03
637.05	1076.55
637.39	1070.07
637.73	1063.54
638.08	1057.77
638.42	1051.86
638.77	1045.40
639.11	1038.84
639.45	1032.49
639.80	1025.77
640.14	1019.35
640.49	1012.90
640.83	1006.65
641.17	1000.25
641.52	993.95
641.86	987.49
642.20	981.68
642.55	975.35
642.89	968.77
643.23	962.25
643.58	956.52
643.92	950.28
644.26	944.16
644.61	938.19
644.95	932.13
645.29	925.45
645.64	918.64
645.98	912.23
646.32	906.38
646.66	900.33
647.01	894.52
647.35	888.83
647.69	882.95
648.04	877.35
648.38	871.59
648.72	865.49
649.06	859.47
649.41	853.62
649.75	847.55
650.09	841.64
650.43	835.82
650.78	829.64
651.12	823.74
651.46	818.00
651.80	812.21
652.14	806.84
652.49	801.38
652.83	796.20
653.17	790.57
653.51	784.76
653.85	779.38
654.20	773.73
654.54	767.70
654.88	761.96
655.22	756.04
655.56	750.23
655.90	744.78
656.25	739.49
656.59	734.07
656.93	729.07
657.27	723.94
657.61	718.55
657.95	713.39
658.29	708.23
658.64	703.03
658.98	697.67
659.32	692.21
659.66	687.11
660.00	681.72
660.34	676.81
660.68	671.97
661.02	666.91
661.36	662.26
661.70	657.84
662.05	653.58
662.39	649.37
662.73	645.05
663.07	640.72
663.41	636.24
663.75	631.75
664.09	627.20
664.43	622.87
664.77	618.74
665.11	614.60
665.45	610.57
665.79	606.48
666.13	602.33
666.47	598.34
666.81	594.13
667.15	590.08
667.49	586.21
667.83	582.41
668.17	578.54
668.51	574.41
668.85	570.39
669.19	566.47
669.53	562.60
669.87	558.69
670.21	554.98
670.55	551.40
670.89	547.98
671.23	544.56
671.57	541.00
671.91	537.46
672.25	533.98
672.58	530.44
672.92	527.07
673.26	523.97
673.60	520.72
673.94	517.69
674.28	514.88
674.62	511.88
674.96	508.76
675.30	505.77
675.64	502.87
675.97	500.11
676.31	497.25
676.65	494.29
676.99	491.61
677.33	488.74
677.67	485.88
678.01	482.85
678.34	479.89
678.68	477.03
679.02	474.22
679.36	471.42
679.70	468.71
680.04	465.99
680.37	463.09
680.71	460.32
681.05	457.69
681.39	454.92
681.73	452.30
682.06	449.77
682.40	447.18
682.74	444.67
683.08	442.09
683.42	439.50
683.75	437.06
684.09	434.49
684.43	432.03
684.77	429.57
685.10	427.22
685.44	424.94
685.78	422.67
686.12	420.39
686.45	418.14
686.79	415.80
687.13	413.59
687.46	411.46
687.80	409.30
688.14	407.09
688.48	405.05
688.81	402.78
689.15	400.70
689.49	398.61
689.82	396.57
690.16	394.54
690.50	392.59
690.83	390.58
691.17	388.58
691.51	386.70
691.84	384.85
692.18	382.94
692.52	380.95
692.85	378.99
693.19	377.14
693.52	375.30
693.86	373.53
694.20	371.75
694.53	369.98
694.87	368.16
695.21	366.35
695.54	364.48
695.88	362.76
696.21	361.02
696.55	359.34
696.88	357.61
697.22	355.89
697.56	354.28
697.89	352.67
698.23	351.09
698.56	349.45
698.90	347.86
699.23	346.19
699.57	344.63
699.90	343.10
700.24	341.53
700.58	340.00
700.91	338.50
701.25	337.01
701.58	335.60
701.92	334.23
702.25	332.86
702.59	331.53
702.92	330.23
703.26	328.91
703.59	327.63
703.93	326.48
704.26	325.24
704.60	323.90
704.93	322.61
705.26	321.39
705.60	320.24
705.93	319.08
706.27	318.08
706.60	316.97
706.94	315.89
707.27	314.80
707.61	313.74
707.94	312.70
708.27	311.64
708.61	310.58
708.94	309.59
709.28	308.66
709.61	307.68
709.94	306.77
710.28	305.76
710.61	304.82
710.95	303.79
711.28	302.91
711.61	301.98
711.95	301.08
712.28	300.14
712.61	299.17
712.95	298.27
713.28	297.34
713.61	296.49
713.95	295.60
714.28	294.79
714.61	293.95
714.95	293.09
715.28	292.27
715.61	291.42
715.95	290.55
716.28	289.62
716.61	288.79
716.95	287.90
717.28	287.18
717.61	286.39
717.94	285.66
718.28	284.85
718.61	284.15
718.94	283.46
719.27	282.79
719.61	282.12
719.94	281.47
720.27	280.75
720.60	280.09
720.94	279.43
721.27	278.81
721.60	278.23
721.93	277.66
722.27	277.11
722.60	276.53
722.93	276.01
723.26	275.53
723.59	274.99
723.93	274.49
724.26	273.92
724.59	273.36
724.92	272.81
725.25	272.32
725.59	271.80
725.92	271.31
726.25	270.76
726.58	270.28
726.91	269.79
727.24	269.35
727.57	268.85
727.91	268.37
728.24	267.88
728.57	267.38
728.90	266.92
729.23	266.41
729.56	265.98
729.89	265.46
730.22	264.96
730.55	264.47
730.89	264.02
731.22	263.58
731.55	263.13
731.88	262.70
732.21	262.26
732.54	261.83
732.87	261.33
733.20	260.97
733.53	260.56
733.86	260.18
734.19	259.78
734.52	259.40
734.85	259.06
735.18	258.64
735.51	258.29
735.84	257.91
736.17	257.53
736.50	257.12
736.83	256.90
737.16	256.55
737.49	256.22
737.82	255.88
738.15	255.58
738.48	255.26
738.81	254.93
739.14	254.59
739.47	254.26
739.80	254.00
740.13	253.68
740.46	253.37
740.79	253.05
741.12	252.70
741.45	252.42
741.78	252.13
742.11	251.85
742.44	251.52
742.77	251.24
743.10	250.94
743.43	250.65
743.75	250.24
744.08	250.09
744.41	249.81
744.74	249.54
745.07	249.24
745.40	248.98
745.73	248.78
746.06	248.53
746.39	248.26
746.71	248.00
747.04	247.76
747.37	247.50
747.70	247.25
748.03	247.02
748.36	246.72
748.68	246.50
749.01	246.25
749.34	246.02
749.67	245.81
750.00	245.61
750.33	245.44
750.65	245.26
750.98	244.96
751.31	244.78
751.64	244.54
751.97	244.38
752.29	244.16
752.62	243.88
752.95	243.66
753.28	243.46
753.60	243.27
753.93	243.09
754.26	242.87
754.59	242.67
754.91	242.47
755.24	242.33
755.57	242.09
755.90	241.93
756.22	241.76
756.55	241.55
756.88	241.36
757.20	241.16
757.53	240.98
757.86	240.80
758.19	240.63
758.51	240.46
758.84	240.24
759.17	240.07
759.49	239.94
759.82	239.81
760.15	239.65
760.47	239.46
760.80	239.28
761.13	239.18
761.45	239.02
761.78	238.91
762.11	238.74
762.43	238.61
762.76	238.46
763.08	238.32
763.41	238.18
763.74	238.06
764.06	237.90
764.39	237.75
764.71	237.60
765.04	237.44
765.37	237.32
765.69	237.19
766.02	237.07
766.34	236.95
766.67	236.81
767.00	236.72
767.32	236.65
767.65	236.57
767.97	236.42
768.30	236.32
768.62	236.18
768.95	236.06
769.27	235.96
769.60	235.84
769.92	235.72
770.25	235.58
770.57	235.44
770.90	235.35
771.22	235.24
771.55	235.14
771.87	235.09
772.20	234.98
772.52	234.99
772.85	235.02
773.17	234.91
773.50	234.81
773.82	234.70
774.15	234.59
774.47	234.45
774.80	234.36
775.12	234.25
775.45	234.14
775.77	234.10
776.09	234.01
776.42	233.95
776.74	233.92
777.07	233.85
777.39	233.81
777.72	233.74
778.04	233.71
778.36	233.64
778.69	233.52
779.01	233.50
779.33	233.34
779.66	233.16
779.98	233.08
780.31	233.01
780.63	233.04
780.95	233.01
781.28	232.96
781.60	232.91
781.92	232.85
782.25	232.82
782.57	232.72
782.89	232.66
783.22	232.56
783.54	232.48
783.86	232.44
784.19	232.36
784.51	232.29
784.83	232.21
785.16	232.15
785.48	232.11
785.80	232.01
786.12	231.97
786.45	231.90
786.77	231.88
787.09	231.85
