SpectraSuite Data File
++++++++++++++++++++++++++++++++++++
Date: Fri Feb 01 15:05:09 EST 2013
User: group
Dark Spectrum Present: No
Reference Spectrum Present: No
Number of Sampled Component Spectra: 1
Spectrometers: USB2E7196
Integration Time (usec): 35000 (USB2E7196)
Spectra Averaged: 100 (USB2E7196)
Boxcar Smoothing: 10 (USB2E7196)
Correct for Electrical Dark: No (USB2E7196)
Strobe/Lamp Enabled: No (USB2E7196)
Correct for Detector Non-linearity: No (USB2E7196)
Correct for Stray Light: No (USB2E7196)
Number of Pixels in Processed Spectrum: 2048
>>>>>Begin Processed Spectral Data<<<<<
339.09	0.00
339.48	215.17
339.86	216.76
340.24	218.33
340.63	219.51
341.01	222.09
341.39	221.81
341.78	223.81
342.16	224.37
342.54	225.09
342.93	213.54
343.31	224.34
343.69	224.90
344.07	225.33
344.46	225.75
344.84	226.13
345.22	226.36
345.60	226.65
345.99	226.84
346.37	226.97
346.75	227.08
347.13	227.13
347.52	227.17
347.90	227.20
348.28	227.26
348.66	227.31
349.05	227.30
349.43	227.32
349.81	227.39
350.19	227.43
350.57	227.47
350.96	227.49
351.34	227.57
351.72	227.62
352.10	227.75
352.48	227.81
352.87	227.86
353.25	227.95
353.63	227.99
354.01	228.01
354.39	228.09
354.77	228.15
355.15	228.28
355.54	228.34
355.92	228.40
356.30	228.45
356.68	228.59
357.06	228.64
357.44	228.72
357.82	228.78
358.20	228.83
358.58	228.90
358.97	228.98
359.35	229.02
359.73	229.08
360.11	229.12
360.49	229.16
360.87	229.17
361.25	229.24
361.63	229.29
362.01	229.34
362.39	229.39
362.77	229.43
363.15	229.42
363.53	229.42
363.91	229.44
364.29	229.48
364.67	229.38
365.05	229.44
365.43	229.42
365.81	229.44
366.19	229.47
366.57	229.52
366.95	229.52
367.33	229.50
367.71	229.51
368.09	229.50
368.47	229.47
368.85	229.45
369.23	229.41
369.61	229.37
369.99	229.37
370.37	229.33
370.75	229.34
371.13	229.28
371.51	229.24
371.89	229.22
372.27	229.16
372.65	229.10
373.03	229.04
373.41	228.97
373.78	228.91
374.16	228.82
374.54	228.76
374.92	228.67
375.30	228.63
375.68	228.53
376.06	228.49
376.44	228.43
376.82	228.38
377.19	228.30
377.57	228.22
377.95	228.13
378.33	228.04
378.71	227.92
379.09	227.83
379.47	227.77
379.84	227.66
380.22	227.56
380.60	227.44
380.98	227.36
381.36	227.31
381.73	227.23
382.11	227.18
382.49	227.08
382.87	227.02
383.25	226.93
383.62	226.99
384.00	226.90
384.38	226.84
384.76	226.84
385.13	226.82
385.51	226.74
385.89	226.71
386.27	226.64
386.64	226.61
387.02	226.55
387.40	226.48
387.78	226.47
388.15	226.45
388.53	226.45
388.91	226.42
389.29	226.41
389.66	226.41
390.04	226.39
390.42	226.37
390.79	226.35
391.17	226.37
391.55	226.24
391.92	226.25
392.30	226.24
392.68	226.21
393.05	226.20
393.43	226.25
393.81	226.25
394.18	226.25
394.56	226.27
394.94	226.38
395.31	226.41
395.69	226.47
396.06	226.54
396.44	226.59
396.82	226.61
397.19	226.64
397.57	226.68
397.95	226.74
398.32	226.80
398.70	226.89
399.07	226.97
399.45	227.03
399.82	227.06
400.20	227.12
400.58	227.20
400.95	227.24
401.33	227.35
401.70	227.51
402.08	227.62
402.45	227.72
402.83	227.82
403.20	227.97
403.58	228.07
403.95	228.16
404.33	228.31
404.71	228.47
405.08	228.68
405.46	228.81
405.83	228.96
406.21	229.09
406.58	229.22
406.96	229.40
407.33	229.61
407.70	229.82
408.08	230.11
408.45	230.34
408.83	230.58
409.20	230.80
409.58	230.95
409.95	231.22
410.33	231.51
410.70	231.72
411.08	232.05
411.45	232.38
411.82	232.72
412.20	233.05
412.57	233.47
412.95	233.77
413.32	234.17
413.69	234.57
414.07	235.03
414.44	235.51
414.82	235.97
415.19	236.49
415.56	237.03
415.94	237.55
416.31	238.19
416.68	238.82
417.06	239.54
417.43	240.25
417.81	241.06
418.18	241.82
418.55	242.67
418.93	243.50
419.30	244.37
419.67	245.30
420.04	246.27
420.42	247.27
420.79	248.48
421.16	249.63
421.54	250.84
421.91	252.07
422.28	253.33
422.66	254.68
423.03	256.03
423.40	257.39
423.77	258.83
424.15	260.25
424.52	261.71
424.89	263.30
425.26	264.81
425.64	266.22
426.01	267.84
426.38	269.52
426.75	271.19
427.13	272.90
427.50	274.70
427.87	276.56
428.24	278.41
428.61	280.11
428.99	282.09
429.36	284.20
429.73	286.25
430.10	288.28
430.47	290.36
430.85	292.46
431.22	294.71
431.59	297.10
431.96	299.34
432.33	301.88
432.70	304.28
433.08	307.13
433.45	309.77
433.82	312.36
434.19	315.30
434.56	318.11
434.93	320.81
435.30	323.44
435.68	326.39
436.05	329.21
436.42	331.98
436.79	334.45
437.16	337.16
437.53	339.98
437.90	342.81
438.27	345.53
438.64	348.35
439.01	350.97
439.38	353.18
439.75	355.31
440.13	357.81
440.50	360.11
440.87	361.95
441.24	363.90
441.61	366.07
441.98	367.52
442.35	369.34
442.72	371.20
443.09	373.02
443.46	374.00
443.83	374.59
444.20	375.13
444.57	376.03
444.94	376.35
445.31	376.73
445.68	377.11
446.05	377.21
446.42	376.81
446.79	376.32
447.16	375.88
447.53	375.57
447.90	374.41
448.27	373.28
448.64	371.72
449.01	370.59
449.37	368.63
449.74	366.73
450.11	364.49
450.48	362.01
450.85	359.45
451.22	357.29
451.59	355.27
451.96	353.36
452.33	350.73
452.70	348.31
453.07	345.47
453.43	342.55
453.80	339.80
454.17	337.14
454.54	334.62
454.91	331.90
455.28	329.24
455.65	326.73
456.02	324.24
456.38	322.11
456.75	319.40
457.12	317.10
457.49	314.84
457.86	312.63
458.23	310.79
458.59	308.74
458.96	306.64
459.33	304.80
459.70	302.92
460.07	301.39
460.43	299.65
460.80	298.02
461.17	296.60
461.54	295.14
461.91	293.72
462.27	292.24
462.64	290.97
463.01	289.61
463.38	288.32
463.74	286.93
464.11	285.72
464.48	284.75
464.85	283.66
465.21	282.80
465.58	281.88
465.95	280.75
466.32	279.88
466.68	278.97
467.05	278.02
467.42	277.12
467.78	276.17
468.15	275.29
468.52	274.62
468.88	273.70
469.25	272.87
469.62	272.24
469.98	271.57
470.35	270.97
470.72	270.39
471.08	269.73
471.45	269.18
471.82	268.65
472.18	268.01
472.55	267.58
472.92	267.02
473.28	266.53
473.65	266.07
474.02	265.60
474.38	265.19
474.75	264.89
475.11	264.54
475.48	264.28
475.85	264.07
476.21	263.81
476.58	263.62
476.94	263.42
477.31	263.22
477.67	263.08
478.04	262.90
478.41	262.79
478.77	262.80
479.14	262.78
479.50	262.76
479.87	262.84
480.23	262.90
480.60	263.01
480.96	263.13
481.33	263.31
481.69	263.49
482.06	263.73
482.42	263.91
482.79	264.18
483.15	264.46
483.52	264.82
483.88	265.15
484.25	265.53
484.61	266.00
484.98	266.44
485.34	267.01
485.71	267.62
486.07	268.24
486.44	268.82
486.80	269.49
487.17	270.26
487.53	271.06
487.90	271.86
488.26	272.78
488.62	273.79
488.99	274.80
489.35	275.83
489.72	276.97
490.08	278.12
490.44	279.32
490.81	280.68
491.17	282.00
491.54	283.50
491.90	285.05
492.26	286.69
492.63	288.40
492.99	290.17
493.36	292.07
493.72	294.11
494.08	296.23
494.45	298.51
494.81	300.81
495.17	303.22
495.54	305.78
495.90	308.42
496.26	311.18
496.63	314.10
496.99	317.21
497.35	320.44
497.72	323.86
498.08	327.37
498.44	331.04
498.80	334.98
499.17	338.97
499.53	343.09
499.89	347.43
500.26	351.93
500.62	356.57
500.98	361.49
501.34	366.56
501.71	371.81
502.07	377.17
502.43	382.75
502.79	388.60
503.16	394.66
503.52	400.91
503.88	407.34
504.24	413.98
504.60	420.84
504.97	427.92
505.33	435.22
505.69	442.91
506.05	450.61
506.41	458.45
506.78	466.58
507.14	475.02
507.50	483.72
507.86	492.76
508.22	501.92
508.59	511.11
508.95	520.65
509.31	530.43
509.67	540.57
510.03	550.84
510.39	561.26
510.75	572.11
511.12	583.02
511.48	594.28
511.84	605.72
512.20	617.22
512.56	629.17
512.92	641.39
513.28	653.73
513.64	666.27
514.00	678.97
514.37	691.94
514.73	704.98
515.09	718.02
515.45	731.23
515.81	744.76
516.17	758.71
516.53	772.87
516.89	787.06
517.25	801.21
517.61	815.71
517.97	830.26
518.33	844.55
518.69	859.37
519.05	874.44
519.41	889.57
519.77	905.23
520.13	920.72
520.49	936.10
520.85	951.51
521.21	967.26
521.57	983.59
521.93	999.42
522.29	1015.95
522.65	1032.26
523.01	1048.64
523.37	1064.79
523.73	1081.11
524.09	1097.25
524.45	1113.77
524.81	1130.42
525.17	1147.35
525.53	1164.33
525.89	1181.36
526.25	1198.26
526.61	1214.72
526.97	1231.52
527.33	1247.93
527.68	1264.59
528.04	1281.08
528.40	1297.91
528.76	1315.00
529.12	1331.61
529.48	1348.51
529.84	1364.54
530.20	1381.33
530.56	1398.43
530.91	1415.92
531.27	1432.63
531.63	1449.16
531.99	1465.75
532.35	1481.94
532.71	1497.86
533.07	1514.17
533.42	1530.06
533.78	1546.10
534.14	1562.38
534.50	1577.82
534.86	1593.80
535.21	1609.06
535.57	1625.11
535.93	1640.60
536.29	1655.54
536.65	1670.69
537.00	1685.57
537.36	1700.99
537.72	1715.60
538.08	1730.03
538.44	1743.90
538.79	1757.98
539.15	1771.82
539.51	1785.59
539.87	1799.92
540.22	1813.73
540.58	1827.68
540.94	1841.36
541.29	1854.47
541.65	1867.34
542.01	1880.83
542.37	1893.29
542.72	1905.84
543.08	1917.67
543.44	1930.28
543.79	1941.51
544.15	1952.61
544.51	1964.26
544.87	1975.20
545.22	1985.95
545.58	1996.25
545.94	2006.08
546.29	2016.00
546.65	2025.71
547.01	2035.00
547.36	2043.84
547.72	2052.27
548.07	2060.12
548.43	2068.17
548.79	2076.21
549.14	2083.62
549.50	2090.88
549.86	2098.60
550.21	2105.99
550.57	2113.19
550.92	2119.56
551.28	2126.65
551.64	2133.72
551.99	2140.34
552.35	2146.48
552.70	2152.57
553.06	2158.35
553.41	2164.73
553.77	2170.75
554.13	2176.96
554.48	2183.14
554.84	2188.49
555.19	2193.68
555.55	2198.83
555.90	2203.32
556.26	2208.10
556.61	2212.95
556.97	2217.09
557.32	2221.11
557.68	2225.14
558.03	2229.42
558.39	2233.34
558.74	2237.87
559.10	2241.73
559.45	2245.25
559.81	2249.69
560.16	2253.62
560.52	2256.91
560.87	2260.26
561.23	2262.80
561.58	2265.62
561.94	2268.00
562.29	2270.32
562.64	2273.20
563.00	2275.63
563.35	2279.09
563.71	2282.13
564.06	2285.12
564.42	2287.86
564.77	2290.42
565.12	2292.53
565.48	2294.28
565.83	2295.88
566.19	2297.15
566.54	2297.98
566.89	2298.92
567.25	2299.44
567.60	2300.58
567.96	2302.10
568.31	2302.74
568.66	2303.58
569.02	2304.19
569.37	2304.39
569.72	2305.10
570.08	2304.92
570.43	2304.76
570.78	2303.88
571.14	2302.27
571.49	2300.71
571.84	2300.27
572.20	2298.92
572.55	2297.77
572.90	2296.21
573.26	2294.60
573.61	2292.83
573.96	2290.81
574.31	2287.84
574.67	2284.54
575.02	2280.85
575.37	2277.36
575.72	2273.48
576.08	2270.26
576.43	2266.76
576.78	2262.93
577.13	2259.72
577.49	2256.63
577.84	2253.14
578.19	2249.46
578.54	2245.56
578.90	2241.29
579.25	2235.69
579.60	2230.61
579.95	2225.45
580.30	2220.27
580.66	2215.02
581.01	2209.96
581.36	2205.00
581.71	2200.71
582.06	2196.24
582.42	2191.59
582.77	2186.42
583.12	2181.75
583.47	2176.70
583.82	2171.46
584.17	2166.07
584.53	2160.34
584.88	2154.58
585.23	2148.60
585.58	2142.97
585.93	2137.48
586.28	2132.60
586.63	2127.44
586.98	2122.19
587.34	2117.47
587.69	2112.48
588.04	2107.11
588.39	2101.27
588.74	2094.77
589.09	2088.43
589.44	2081.40
589.79	2075.28
590.14	2069.43
590.49	2062.79
590.84	2056.42
591.19	2050.42
591.54	2043.98
591.89	2036.55
592.25	2029.58
592.60	2022.32
592.95	2014.51
593.30	2007.06
593.65	1999.42
594.00	1992.33
594.35	1984.99
594.70	1976.81
595.05	1969.36
595.40	1962.06
595.75	1954.51
596.10	1948.09
596.45	1941.07
596.80	1934.98
597.15	1928.19
597.50	1920.95
597.85	1914.54
598.19	1907.69
598.54	1900.49
598.89	1893.88
599.24	1887.92
599.59	1881.19
599.94	1875.08
600.29	1868.86
600.64	1862.41
600.99	1854.88
601.34	1847.99
601.69	1840.96
602.04	1833.93
602.39	1826.59
602.74	1819.67
603.08	1812.95
603.43	1806.22
603.78	1799.03
604.13	1791.79
604.48	1784.43
604.83	1777.73
605.18	1770.40
605.53	1762.50
605.87	1754.40
606.22	1747.13
606.57	1739.22
606.92	1731.82
607.27	1724.48
607.62	1717.48
607.96	1710.15
608.31	1703.60
608.66	1695.95
609.01	1688.43
609.36	1680.95
609.70	1673.02
610.05	1664.99
610.40	1657.27
610.75	1649.04
611.10	1641.34
611.44	1632.86
611.79	1624.98
612.14	1616.12
612.49	1607.20
612.83	1599.03
613.18	1591.02
613.53	1582.88
613.88	1574.33
614.22	1566.22
614.57	1557.71
614.92	1549.74
615.27	1542.11
615.61	1533.79
615.96	1525.74
616.31	1518.20
616.65	1510.89
617.00	1503.43
617.35	1495.78
617.70	1487.30
618.04	1478.74
618.39	1470.63
618.74	1463.06
619.08	1454.74
619.43	1447.26
619.78	1440.38
620.12	1433.05
620.47	1425.51
620.82	1417.42
621.16	1410.05
621.51	1402.46
621.85	1394.80
622.20	1386.29
622.55	1378.03
622.89	1370.19
623.24	1362.61
623.59	1355.29
623.93	1347.67
624.28	1340.34
624.62	1332.78
624.97	1325.76
625.32	1319.04
625.66	1312.03
626.01	1304.92
626.35	1297.57
626.70	1289.88
627.04	1282.14
627.39	1274.50
627.73	1267.08
628.08	1260.13
628.43	1252.82
628.77	1245.36
629.12	1237.79
629.46	1230.63
629.81	1223.23
630.15	1216.09
630.50	1208.70
630.84	1200.50
631.19	1192.77
631.53	1185.40
631.88	1177.93
632.22	1170.39
632.57	1163.17
632.91	1155.69
633.26	1148.26
633.60	1140.96
633.95	1134.00
634.29	1127.13
634.64	1120.45
634.98	1113.19
635.32	1106.05
635.67	1099.58
636.01	1093.09
636.36	1086.38
636.70	1079.90
637.05	1073.33
637.39	1066.89
637.73	1060.51
638.08	1054.65
638.42	1048.74
638.77	1042.23
639.11	1035.60
639.45	1029.23
639.80	1022.54
640.14	1016.11
640.49	1009.61
640.83	1003.38
641.17	997.10
641.52	990.72
641.86	984.28
642.20	978.42
642.55	972.20
642.89	965.68
643.23	959.13
643.58	953.31
643.92	947.11
644.26	941.02
644.61	934.97
644.95	928.93
645.29	922.32
645.64	915.47
645.98	909.23
646.32	903.53
646.66	897.51
647.01	891.72
647.35	886.06
647.69	880.28
648.04	874.81
648.38	869.03
648.72	863.03
649.06	856.98
649.41	851.10
649.75	845.09
650.09	839.21
650.43	833.36
650.78	827.23
651.12	821.32
651.46	815.69
651.80	809.97
652.14	804.59
652.49	799.35
652.83	794.28
653.17	788.52
653.51	782.78
653.85	777.40
654.20	771.79
654.54	765.82
654.88	760.12
655.22	754.22
655.56	748.55
655.90	743.07
656.25	737.88
656.59	732.60
656.93	727.53
657.27	722.38
657.61	717.04
657.95	712.01
658.29	706.92
658.64	701.75
658.98	696.50
659.32	691.04
659.66	685.80
660.00	680.44
660.34	675.53
660.68	670.65
661.02	665.59
661.36	660.93
661.70	656.48
662.05	652.05
662.39	647.72
662.73	643.28
663.07	638.99
663.41	634.49
663.75	629.98
664.09	625.48
664.43	621.08
664.77	616.97
665.11	612.79
665.45	608.66
665.79	604.57
666.13	600.39
666.47	596.36
666.81	592.17
667.15	588.17
667.49	584.36
667.83	580.53
668.17	576.64
668.51	572.52
668.85	568.50
669.19	564.71
669.53	560.85
669.87	556.97
670.21	553.28
670.55	549.74
670.89	546.28
671.23	542.86
671.57	539.38
671.91	535.88
672.25	532.38
672.58	528.92
672.92	525.52
673.26	522.42
673.60	519.35
673.94	516.28
674.28	513.32
674.62	510.38
674.96	507.30
675.30	504.45
675.64	501.54
675.97	498.86
676.31	496.00
676.65	493.06
676.99	490.35
677.33	487.49
677.67	484.70
678.01	481.71
678.34	478.78
678.68	475.94
679.02	473.11
679.36	470.35
679.70	467.67
680.04	464.92
680.37	462.06
680.71	459.23
681.05	456.63
681.39	453.98
681.73	451.31
682.06	448.84
682.40	446.28
682.74	443.79
683.08	441.22
683.42	438.69
683.75	436.23
684.09	433.70
684.43	431.20
684.77	428.68
685.10	426.40
685.44	424.09
685.78	421.81
686.12	419.63
686.45	417.39
686.79	415.10
687.13	412.87
687.46	410.74
687.80	408.60
688.14	406.40
688.48	404.33
688.81	402.13
689.15	399.97
689.49	397.83
689.82	395.78
690.16	393.71
690.50	391.68
690.83	389.75
691.17	387.83
691.51	385.99
691.84	384.18
692.18	382.21
692.52	380.25
692.85	378.35
693.19	376.44
693.52	374.61
693.86	372.80
694.20	371.07
694.53	369.27
694.87	367.47
695.21	365.68
695.54	363.87
695.88	362.18
696.21	360.46
696.55	358.82
696.88	357.13
697.22	355.45
697.56	353.87
697.89	352.23
698.23	350.61
698.56	349.01
698.90	347.46
699.23	345.86
699.57	344.31
699.90	342.77
700.24	341.27
700.58	339.74
700.91	338.27
701.25	336.82
701.58	335.45
701.92	334.06
702.25	332.71
702.59	331.35
702.92	330.00
703.26	328.72
703.59	327.45
703.93	326.29
704.26	325.09
704.60	323.83
704.93	322.56
705.26	321.38
705.60	320.24
705.93	319.09
706.27	318.02
706.60	316.98
706.94	315.93
707.27	314.79
707.61	313.74
707.94	312.77
708.27	311.70
708.61	310.63
708.94	309.63
709.28	308.66
709.61	307.71
709.94	306.81
710.28	305.80
710.61	304.78
710.95	303.70
711.28	302.79
711.61	301.83
711.95	300.93
712.28	299.93
712.61	298.95
712.95	298.01
713.28	297.17
713.61	296.27
713.95	295.39
714.28	294.57
714.61	293.74
714.95	292.86
715.28	292.02
715.61	291.14
715.95	290.29
716.28	289.41
716.61	288.58
716.95	287.77
717.28	287.04
717.61	286.33
717.94	285.59
718.28	284.80
718.61	284.08
718.94	283.42
719.27	282.80
719.61	282.17
719.94	281.54
720.27	280.80
720.60	280.12
720.94	279.52
721.27	278.91
721.60	278.31
721.93	277.72
722.27	277.16
722.60	276.64
722.93	276.09
723.26	275.57
723.59	275.02
723.93	274.47
724.26	273.90
724.59	273.31
724.92	272.80
725.25	272.32
725.59	271.81
725.92	271.30
726.25	270.76
726.58	270.23
726.91	269.72
727.24	269.28
727.57	268.86
727.91	268.30
728.24	267.85
728.57	267.35
728.90	266.91
729.23	266.42
729.56	266.02
729.89	265.54
730.22	265.05
730.55	264.59
730.89	264.12
731.22	263.68
731.55	263.28
731.88	262.86
732.21	262.41
732.54	261.97
732.87	261.52
733.20	261.13
733.53	260.77
733.86	260.39
734.19	259.99
734.52	259.59
734.85	259.30
735.18	258.87
735.51	258.51
735.84	258.12
736.17	257.79
736.50	257.36
736.83	257.16
737.16	256.79
737.49	256.42
737.82	256.08
738.15	255.76
738.48	255.41
738.81	255.05
739.14	254.74
739.47	254.41
739.80	254.12
740.13	253.80
740.46	253.45
740.79	253.14
741.12	252.82
741.45	252.51
741.78	252.14
742.11	251.89
742.44	251.55
742.77	251.28
743.10	250.95
743.43	250.70
743.75	250.29
744.08	250.18
744.41	249.92
744.74	249.65
745.07	249.39
745.40	249.15
745.73	248.93
746.06	248.65
746.39	248.42
746.71	248.16
747.04	247.89
747.37	247.64
747.70	247.37
748.03	247.10
748.36	246.87
748.68	246.65
749.01	246.36
749.34	246.14
749.67	245.88
750.00	245.69
750.33	245.51
750.65	245.29
750.98	244.95
751.31	244.75
751.64	244.53
751.97	244.35
752.29	244.10
752.62	243.87
752.95	243.66
753.28	243.48
753.60	243.27
753.93	243.12
754.26	242.92
754.59	242.72
754.91	242.50
755.24	242.33
755.57	242.09
755.90	241.94
756.22	241.76
756.55	241.58
756.88	241.36
757.20	241.13
757.53	240.93
757.86	240.77
758.19	240.62
758.51	240.49
758.84	240.29
759.17	240.11
759.49	239.93
759.82	239.81
760.15	239.65
760.47	239.50
760.80	239.28
761.13	239.14
761.45	238.98
761.78	238.88
762.11	238.71
762.43	238.58
762.76	238.40
763.08	238.31
763.41	238.21
763.74	238.10
764.06	237.92
764.39	237.81
764.71	237.66
765.04	237.51
765.37	237.33
765.69	237.22
766.02	237.11
766.34	237.00
766.67	236.85
767.00	236.74
767.32	236.68
767.65	236.67
767.97	236.56
768.30	236.47
768.62	236.36
768.95	236.26
769.27	236.15
769.60	236.09
769.92	235.96
770.25	235.83
770.57	235.70
770.90	235.61
771.22	235.50
771.55	235.39
771.87	235.32
772.20	235.22
772.52	235.20
772.85	235.20
773.17	235.10
773.50	235.02
773.82	234.94
774.15	234.77
774.47	234.60
774.80	234.50
775.12	234.41
775.45	234.31
775.77	234.23
776.09	234.16
776.42	234.09
776.74	234.01
777.07	233.94
777.39	233.89
777.72	233.83
778.04	233.77
778.36	233.70
778.69	233.61
779.01	233.56
779.33	233.39
779.66	233.23
779.98	233.18
780.31	233.10
780.63	233.05
780.95	233.01
781.28	232.96
781.60	232.88
781.92	232.82
782.25	232.75
782.57	232.69
782.89	232.61
783.22	232.56
783.54	232.51
783.86	232.42
784.19	232.35
784.51	232.33
784.83	232.28
785.16	232.23
785.48	232.21
785.80	232.15
786.12	232.13
786.45	232.07
786.77	232.03
787.09	231.99
