SpectraSuite Data File
++++++++++++++++++++++++++++++++++++
Date: Fri Feb 01 16:17:12 EST 2013
User: group
Dark Spectrum Present: No
Reference Spectrum Present: No
Number of Sampled Component Spectra: 1
Spectrometers: USB2E7196
Integration Time (usec): 35000 (USB2E7196)
Spectra Averaged: 100 (USB2E7196)
Boxcar Smoothing: 10 (USB2E7196)
Correct for Electrical Dark: No (USB2E7196)
Strobe/Lamp Enabled: No (USB2E7196)
Correct for Detector Non-linearity: No (USB2E7196)
Correct for Stray Light: No (USB2E7196)
Number of Pixels in Processed Spectrum: 2048
>>>>>Begin Processed Spectral Data<<<<<
339.09	0.00
339.48	213.78
339.86	215.59
340.24	216.66
340.63	218.13
341.01	221.30
341.39	220.96
341.78	222.05
342.16	222.98
342.54	224.00
342.93	212.34
343.31	223.07
343.69	223.62
344.07	224.08
344.46	224.52
344.84	224.93
345.22	225.15
345.60	225.39
345.99	225.58
346.37	225.75
346.75	225.83
347.13	225.91
347.52	225.97
347.90	226.01
348.28	226.05
348.66	226.09
349.05	226.08
349.43	226.15
349.81	226.22
350.19	226.29
350.57	226.33
350.96	226.41
351.34	226.47
351.72	226.54
352.10	226.63
352.48	226.70
352.87	226.73
353.25	226.79
353.63	226.85
354.01	226.95
354.39	227.02
354.77	227.10
355.15	227.18
355.54	227.27
355.92	227.34
356.30	227.41
356.68	227.53
357.06	227.61
357.44	227.64
357.82	227.70
358.20	227.74
358.58	227.79
358.97	227.85
359.35	227.91
359.73	227.99
360.11	228.01
360.49	228.05
360.87	228.08
361.25	228.15
361.63	228.23
362.01	228.24
362.39	228.27
362.77	228.30
363.15	228.33
363.53	228.32
363.91	228.34
364.29	228.40
364.67	228.31
365.05	228.33
365.43	228.37
365.81	228.36
366.19	228.42
366.57	228.46
366.95	228.43
367.33	228.43
367.71	228.42
368.09	228.47
368.47	228.46
368.85	228.46
369.23	228.43
369.61	228.38
369.99	228.37
370.37	228.33
370.75	228.33
371.13	228.28
371.51	228.24
371.89	228.18
372.27	228.11
372.65	228.07
373.03	228.03
373.41	227.97
373.78	227.92
374.16	227.81
374.54	227.72
374.92	227.63
375.30	227.59
375.68	227.48
376.06	227.40
376.44	227.32
376.82	227.25
377.19	227.21
377.57	227.12
377.95	227.06
378.33	226.97
378.71	226.86
379.09	226.78
379.47	226.72
379.84	226.67
380.22	226.61
380.60	226.55
380.98	226.48
381.36	226.43
381.73	226.37
382.11	226.33
382.49	226.29
382.87	226.24
383.25	226.15
383.62	226.24
384.00	226.18
384.38	226.15
384.76	226.10
385.13	226.05
385.51	226.04
385.89	225.97
386.27	225.96
386.64	225.94
387.02	225.92
387.40	225.89
387.78	225.87
388.15	225.85
388.53	225.81
388.91	225.78
389.29	225.73
389.66	225.73
390.04	225.67
390.42	225.64
390.79	225.62
391.17	225.63
391.55	225.48
391.92	225.49
392.30	225.52
392.68	225.51
393.05	225.51
393.43	225.51
393.81	225.53
394.18	225.53
394.56	225.54
394.94	225.56
395.31	225.58
395.69	225.61
396.06	225.64
396.44	225.66
396.82	225.67
397.19	225.75
397.57	225.75
397.95	225.83
398.32	225.83
398.70	225.92
399.07	225.98
399.45	226.06
399.82	226.07
400.20	226.08
400.58	226.17
400.95	226.21
401.33	226.31
401.70	226.45
402.08	226.53
402.45	226.63
402.83	226.75
403.20	226.85
403.58	226.95
403.95	227.09
404.33	227.22
404.71	227.37
405.08	227.54
405.46	227.70
405.83	227.84
406.21	228.01
406.58	228.17
406.96	228.33
407.33	228.51
407.70	228.76
408.08	229.07
408.45	229.28
408.83	229.49
409.20	229.69
409.58	229.87
409.95	230.12
410.33	230.37
410.70	230.61
411.08	230.95
411.45	231.25
411.82	231.55
412.20	231.91
412.57	232.32
412.95	232.59
413.32	233.00
413.69	233.40
414.07	233.84
414.44	234.30
414.82	234.79
415.19	235.33
415.56	235.88
415.94	236.40
416.31	237.02
416.68	237.65
417.06	238.41
417.43	239.08
417.81	239.87
418.18	240.67
418.55	241.50
418.93	242.34
419.30	243.22
419.67	244.14
420.04	245.13
420.42	246.08
420.79	247.29
421.16	248.44
421.54	249.66
421.91	250.91
422.28	252.15
422.66	253.48
423.03	254.80
423.40	256.12
423.77	257.54
424.15	258.98
424.52	260.45
424.89	262.04
425.26	263.59
425.64	265.01
426.01	266.63
426.38	268.31
426.75	269.97
427.13	271.69
427.50	273.53
427.87	275.38
428.24	277.25
428.61	278.96
428.99	280.91
429.36	282.97
429.73	285.00
430.10	287.04
430.47	289.08
430.85	291.21
431.22	293.40
431.59	295.75
431.96	298.00
432.33	300.49
432.70	302.89
433.08	305.65
433.45	308.30
433.82	310.88
434.19	313.74
434.56	316.58
434.93	319.25
435.30	321.83
435.68	324.67
436.05	327.53
436.42	330.37
436.79	332.88
437.16	335.54
437.53	338.38
437.90	341.15
438.27	343.92
438.64	346.71
439.01	349.32
439.38	351.58
439.75	353.72
440.13	356.19
440.50	358.50
440.87	360.41
441.24	362.34
441.61	364.52
441.98	366.00
442.35	367.77
442.72	369.61
443.09	371.47
443.46	372.51
443.83	373.07
444.20	373.56
444.57	374.40
444.94	374.71
445.31	375.02
445.68	375.40
446.05	375.44
446.42	375.05
446.79	374.65
447.16	374.20
447.53	373.91
447.90	372.75
448.27	371.58
448.64	369.96
449.01	368.83
449.37	366.85
449.74	364.96
450.11	362.70
450.48	360.22
450.85	357.61
451.22	355.47
451.59	353.45
451.96	351.49
452.33	348.90
452.70	346.54
453.07	343.79
453.43	340.86
453.80	338.09
454.17	335.44
454.54	332.88
454.91	330.12
455.28	327.42
455.65	324.94
456.02	322.46
456.38	320.34
456.75	317.65
457.12	315.35
457.49	313.12
457.86	310.98
458.23	309.14
458.59	307.12
458.96	305.04
459.33	303.18
459.70	301.30
460.07	299.79
460.43	298.07
460.80	296.41
461.17	294.99
461.54	293.52
461.91	292.10
462.27	290.65
462.64	289.43
463.01	288.07
463.38	286.80
463.74	285.44
464.11	284.26
464.48	283.28
464.85	282.19
465.21	281.34
465.58	280.39
465.95	279.27
466.32	278.39
466.68	277.45
467.05	276.56
467.42	275.69
467.78	274.76
468.15	273.86
468.52	273.17
468.88	272.32
469.25	271.56
469.62	270.93
469.98	270.28
470.35	269.66
470.72	269.09
471.08	268.47
471.45	267.98
471.82	267.45
472.18	266.87
472.55	266.47
472.92	265.94
473.28	265.55
473.65	265.09
474.02	264.64
474.38	264.32
474.75	263.99
475.11	263.65
475.48	263.40
475.85	263.19
476.21	263.00
476.58	262.81
476.94	262.69
477.31	262.54
477.67	262.42
478.04	262.28
478.41	262.26
478.77	262.26
479.14	262.18
479.50	262.19
479.87	262.27
480.23	262.33
480.60	262.41
480.96	262.46
481.33	262.72
481.69	262.96
482.06	263.12
482.42	263.34
482.79	263.60
483.15	263.94
483.52	264.34
483.88	264.70
484.25	265.09
484.61	265.50
484.98	265.96
485.34	266.52
485.71	267.14
486.07	267.72
486.44	268.33
486.80	269.04
487.17	269.79
487.53	270.57
487.90	271.42
488.26	272.37
488.62	273.37
488.99	274.36
489.35	275.39
489.72	276.55
490.08	277.73
490.44	278.98
490.81	280.31
491.17	281.69
491.54	283.14
491.90	284.68
492.26	286.34
492.63	288.08
492.99	289.84
493.36	291.77
493.72	293.83
494.08	295.95
494.45	298.20
494.81	300.59
495.17	303.01
495.54	305.59
495.90	308.29
496.26	311.11
496.63	314.08
496.99	317.19
497.35	320.44
497.72	323.84
498.08	327.35
498.44	331.06
498.80	334.97
499.17	339.00
499.53	343.19
499.89	347.54
500.26	352.06
500.62	356.73
500.98	361.71
501.34	366.77
501.71	372.08
502.07	377.53
502.43	383.11
502.79	388.98
503.16	395.01
503.52	401.28
503.88	407.67
504.24	414.29
504.60	421.19
504.97	428.34
505.33	435.75
505.69	443.50
506.05	451.24
506.41	459.12
506.78	467.31
507.14	475.79
507.50	484.50
507.86	493.49
508.22	502.69
508.59	511.86
508.95	521.44
509.31	531.23
509.67	541.34
510.03	551.74
510.39	562.31
510.75	573.18
511.12	584.09
511.48	595.44
511.84	606.86
512.20	618.35
512.56	630.27
512.92	642.47
513.28	654.77
513.64	667.32
514.00	680.02
514.37	693.01
514.73	706.01
515.09	719.10
515.45	732.44
515.81	745.97
516.17	759.96
516.53	774.11
516.89	788.28
517.25	802.50
517.61	816.78
517.97	831.17
518.33	845.54
518.69	860.29
519.05	875.20
519.41	890.41
519.77	905.89
520.13	921.29
520.49	936.51
520.85	951.86
521.21	967.49
521.57	983.77
521.93	999.41
522.29	1015.82
522.65	1031.99
523.01	1048.14
523.37	1064.21
523.73	1080.38
524.09	1096.42
524.45	1112.70
524.81	1129.26
525.17	1146.05
525.53	1162.93
525.89	1179.79
526.25	1196.62
526.61	1212.96
526.97	1229.57
527.33	1246.05
527.68	1262.68
528.04	1279.22
528.40	1295.76
528.76	1312.80
529.12	1329.25
529.48	1346.08
529.84	1362.01
530.20	1378.73
530.56	1395.72
530.91	1413.13
531.27	1429.88
531.63	1446.23
531.99	1462.71
532.35	1478.55
532.71	1494.37
533.07	1510.56
533.42	1526.39
533.78	1542.38
534.14	1558.60
534.50	1573.99
534.86	1589.80
535.21	1604.88
535.57	1620.75
535.93	1636.22
536.29	1650.92
536.65	1666.00
537.00	1680.77
537.36	1696.09
537.72	1710.47
538.08	1724.80
538.44	1738.42
538.79	1752.13
539.15	1765.73
539.51	1779.46
539.87	1793.77
540.22	1807.42
540.58	1821.17
540.94	1834.40
541.29	1847.17
541.65	1859.82
542.01	1872.94
542.37	1885.22
542.72	1897.65
543.08	1909.30
543.44	1921.54
543.79	1932.76
544.15	1943.61
544.51	1955.11
544.87	1965.88
545.22	1976.64
545.58	1986.88
545.94	1996.63
546.29	2006.46
546.65	2016.36
547.01	2025.50
547.36	2034.09
547.72	2042.59
548.07	2050.32
548.43	2058.52
548.79	2066.62
549.14	2074.05
549.50	2081.31
549.86	2088.87
550.21	2096.12
550.57	2103.21
550.92	2109.77
551.28	2116.70
551.64	2123.74
551.99	2130.30
552.35	2136.56
552.70	2142.73
553.06	2148.58
553.41	2154.98
553.77	2160.89
554.13	2166.89
554.48	2173.03
554.84	2178.56
555.19	2183.89
555.55	2189.07
555.90	2193.41
556.26	2198.24
556.61	2203.08
556.97	2207.42
557.32	2211.58
557.68	2215.63
558.03	2219.99
558.39	2223.80
558.74	2228.55
559.10	2232.43
559.45	2235.99
559.81	2240.25
560.16	2244.06
560.52	2247.21
560.87	2250.40
561.23	2253.27
561.58	2256.31
561.94	2258.90
562.29	2261.15
562.64	2263.82
563.00	2266.43
563.35	2269.94
563.71	2273.06
564.06	2276.18
564.42	2279.08
564.77	2281.57
565.12	2283.90
565.48	2285.83
565.83	2287.84
566.19	2288.97
566.54	2289.90
566.89	2291.10
567.25	2291.77
567.60	2292.99
567.96	2294.81
568.31	2295.76
568.66	2296.85
569.02	2297.22
569.37	2297.50
569.72	2298.54
570.08	2298.73
570.43	2298.73
570.78	2298.26
571.14	2296.72
571.49	2295.55
571.84	2295.24
572.20	2294.25
572.55	2293.20
572.90	2291.69
573.26	2290.08
573.61	2288.46
573.96	2286.83
574.31	2283.92
574.67	2280.91
575.02	2277.45
575.37	2274.17
575.72	2270.57
576.08	2267.18
576.43	2264.05
576.78	2260.56
577.13	2257.46
577.49	2254.17
577.84	2250.73
578.19	2247.13
578.54	2243.60
578.90	2239.36
579.25	2233.77
579.60	2228.77
579.95	2223.75
580.30	2218.77
580.66	2213.72
581.01	2209.00
581.36	2204.11
581.71	2199.86
582.06	2195.46
582.42	2191.06
582.77	2185.86
583.12	2181.11
583.47	2176.51
583.82	2171.63
584.17	2166.43
584.53	2160.92
584.88	2155.43
585.23	2149.68
585.58	2144.21
585.93	2138.74
586.28	2133.95
586.63	2128.98
586.98	2123.96
587.34	2119.36
587.69	2114.40
588.04	2109.24
588.39	2103.55
588.74	2097.04
589.09	2090.95
589.44	2084.24
589.79	2078.12
590.14	2072.42
590.49	2065.99
590.84	2059.57
591.19	2053.49
591.54	2046.94
591.89	2039.60
592.25	2032.95
592.60	2025.70
592.95	2018.02
593.30	2010.73
593.65	2003.16
594.00	1996.13
594.35	1988.90
594.70	1981.00
595.05	1973.98
595.40	1966.78
595.75	1959.32
596.10	1953.20
596.45	1946.59
596.80	1940.36
597.15	1933.75
597.50	1926.76
597.85	1920.36
598.19	1913.78
598.54	1906.64
598.89	1900.11
599.24	1894.24
599.59	1887.47
599.94	1881.39
600.29	1875.24
600.64	1868.62
600.99	1861.14
601.34	1854.32
601.69	1847.38
602.04	1840.50
602.39	1833.17
602.74	1826.35
603.08	1819.52
603.43	1812.76
603.78	1805.36
604.13	1798.23
604.48	1790.96
604.83	1784.11
605.18	1777.11
605.53	1769.15
605.87	1761.31
606.22	1753.93
606.57	1746.01
606.92	1738.61
607.27	1731.60
607.62	1724.64
607.96	1717.34
608.31	1710.89
608.66	1703.30
609.01	1695.81
609.36	1688.24
609.70	1680.06
610.05	1671.98
610.40	1664.29
610.75	1656.04
611.10	1648.46
611.44	1639.99
611.79	1631.93
612.14	1623.26
612.49	1614.14
612.83	1605.78
613.18	1597.57
613.53	1589.64
613.88	1581.10
614.22	1572.85
614.57	1564.11
614.92	1556.13
615.27	1548.78
615.61	1540.37
615.96	1532.22
616.31	1524.55
616.65	1517.21
617.00	1509.72
617.35	1502.02
617.70	1493.75
618.04	1485.17
618.39	1476.91
618.74	1469.29
619.08	1461.04
619.43	1453.36
619.78	1446.49
620.12	1439.29
620.47	1431.80
620.82	1423.57
621.16	1416.09
621.51	1408.54
621.85	1400.96
622.20	1392.34
622.55	1383.85
622.89	1376.07
623.24	1368.62
623.59	1361.16
623.93	1353.52
624.28	1346.31
624.62	1338.73
624.97	1331.55
625.32	1324.81
625.66	1317.80
626.01	1310.68
626.35	1303.22
626.70	1295.50
627.04	1287.76
627.39	1280.00
627.73	1272.56
628.08	1265.73
628.43	1258.47
628.77	1251.14
629.12	1243.56
629.46	1236.48
629.81	1228.99
630.15	1221.83
630.50	1214.35
630.84	1206.16
631.19	1198.17
631.53	1190.61
631.88	1183.12
632.22	1175.46
632.57	1168.13
632.91	1160.55
633.26	1153.07
633.60	1145.67
633.95	1138.59
634.29	1131.44
634.64	1124.70
634.98	1117.31
635.32	1110.08
635.67	1103.50
636.01	1096.87
636.36	1090.05
636.70	1083.38
637.05	1076.84
637.39	1070.29
637.73	1063.82
638.08	1057.99
638.42	1052.10
638.77	1045.73
639.11	1039.16
639.45	1032.75
639.80	1026.09
640.14	1019.77
640.49	1013.25
640.83	1007.02
641.17	1000.78
641.52	994.48
641.86	988.01
642.20	982.15
642.55	975.86
642.89	969.39
643.23	962.80
643.58	957.00
643.92	950.79
644.26	944.71
644.61	938.55
644.95	932.53
645.29	925.99
645.64	919.20
645.98	912.85
646.32	906.92
646.66	900.91
647.01	895.14
647.35	889.36
647.69	883.54
648.04	878.01
648.38	872.28
648.72	866.33
649.06	860.27
649.41	854.41
649.75	848.38
650.09	842.48
650.43	836.70
650.78	830.58
651.12	824.71
651.46	818.94
651.80	813.31
652.14	807.84
652.49	802.46
652.83	797.28
653.17	791.64
653.51	785.90
653.85	780.50
654.20	774.86
654.54	768.88
654.88	763.11
655.22	757.16
655.56	751.50
655.90	746.04
656.25	740.84
656.59	735.43
656.93	730.37
657.27	725.22
657.61	719.79
657.95	714.66
658.29	709.60
658.64	704.39
658.98	699.03
659.32	693.60
659.66	688.36
660.00	683.11
660.34	678.17
660.68	673.28
661.02	668.23
661.36	663.50
661.70	658.96
662.05	654.62
662.39	650.29
662.73	645.74
663.07	641.31
663.41	636.79
663.75	632.35
664.09	627.77
664.43	623.34
664.77	619.11
665.11	614.88
665.45	610.71
665.79	606.62
666.13	602.48
666.47	598.34
666.81	594.19
667.15	589.99
667.49	585.99
667.83	582.10
668.17	578.06
668.51	574.01
668.85	570.00
669.19	566.15
669.53	562.32
669.87	558.49
670.21	554.78
670.55	551.16
670.89	547.71
671.23	544.24
671.57	540.73
671.91	537.26
672.25	533.75
672.58	530.21
672.92	526.76
673.26	523.62
673.60	520.45
673.94	517.30
674.28	514.43
674.62	511.50
674.96	508.43
675.30	505.61
675.64	502.59
675.97	499.79
676.31	496.93
676.65	494.01
676.99	491.23
677.33	488.35
677.67	485.50
678.01	482.44
678.34	479.50
678.68	476.59
679.02	473.80
679.36	470.99
679.70	468.28
680.04	465.57
680.37	462.63
680.71	459.88
681.05	457.32
681.39	454.58
681.73	451.92
682.06	449.43
682.40	446.89
682.74	444.39
683.08	441.83
683.42	439.22
683.75	436.69
684.09	434.11
684.43	431.68
684.77	429.25
685.10	426.91
685.44	424.57
685.78	422.31
686.12	420.02
686.45	417.76
686.79	415.44
687.13	413.26
687.46	411.13
687.80	408.97
688.14	406.71
688.48	404.69
688.81	402.45
689.15	400.29
689.49	398.15
689.82	396.06
690.16	393.97
690.50	391.98
690.83	390.03
691.17	388.06
691.51	386.16
691.84	384.30
692.18	382.37
692.52	380.39
692.85	378.45
693.19	376.55
693.52	374.70
693.86	372.91
694.20	371.09
694.53	369.27
694.87	367.43
695.21	365.66
695.54	363.80
695.88	362.05
696.21	360.36
696.55	358.68
696.88	357.00
697.22	355.32
697.56	353.69
697.89	352.01
698.23	350.43
698.56	348.80
698.90	347.21
699.23	345.57
699.57	344.04
699.90	342.51
700.24	340.98
700.58	339.44
700.91	337.94
701.25	336.48
701.58	335.15
701.92	333.76
702.25	332.38
702.59	331.01
702.92	329.71
703.26	328.35
703.59	327.04
703.93	325.85
704.26	324.62
704.60	323.31
704.93	322.05
705.26	320.79
705.60	319.61
705.93	318.46
706.27	317.43
706.60	316.34
706.94	315.22
707.27	314.11
707.61	313.09
707.94	312.06
708.27	311.02
708.61	309.93
708.94	308.98
709.28	308.01
709.61	307.06
709.94	306.12
710.28	305.13
710.61	304.17
710.95	303.09
711.28	302.20
711.61	301.31
711.95	300.42
712.28	299.52
712.61	298.54
712.95	297.59
713.28	296.69
713.61	295.82
713.95	294.94
714.28	294.10
714.61	293.25
714.95	292.42
715.28	291.55
715.61	290.67
715.95	289.78
716.28	288.91
716.61	288.07
716.95	287.26
717.28	286.50
717.61	285.74
717.94	285.04
718.28	284.23
718.61	283.49
718.94	282.81
719.27	282.15
719.61	281.52
719.94	280.87
720.27	280.15
720.60	279.51
720.94	278.90
721.27	278.31
721.60	277.72
721.93	277.12
722.27	276.55
722.60	276.02
722.93	275.47
723.26	274.94
723.59	274.38
723.93	273.82
724.26	273.26
724.59	272.70
724.92	272.16
725.25	271.69
725.59	271.18
725.92	270.64
726.25	270.12
726.58	269.59
726.91	269.11
727.24	268.61
727.57	268.12
727.91	267.58
728.24	267.11
728.57	266.60
728.90	266.13
729.23	265.63
729.56	265.20
729.89	264.70
730.22	264.17
730.55	263.70
730.89	263.25
731.22	262.80
731.55	262.35
731.88	261.92
732.21	261.45
732.54	261.00
732.87	260.60
733.20	260.18
733.53	259.84
733.86	259.43
734.19	259.04
734.52	258.67
734.85	258.40
735.18	257.95
735.51	257.61
735.84	257.24
736.17	256.86
736.50	256.44
736.83	256.19
737.16	255.87
737.49	255.55
737.82	255.19
738.15	254.85
738.48	254.51
738.81	254.15
739.14	253.81
739.47	253.48
739.80	253.17
740.13	252.85
740.46	252.49
740.79	252.19
741.12	251.88
741.45	251.58
741.78	251.17
742.11	250.93
742.44	250.56
742.77	250.27
743.10	249.99
743.43	249.68
743.75	249.28
744.08	249.13
744.41	248.85
744.74	248.55
745.07	248.26
745.40	248.00
745.73	247.75
746.06	247.45
746.39	247.19
746.71	246.91
747.04	246.62
747.37	246.35
747.70	246.10
748.03	245.86
748.36	245.61
748.68	245.39
749.01	245.13
749.34	244.93
749.67	244.66
750.00	244.45
750.33	244.31
750.65	244.12
750.98	243.78
751.31	243.58
751.64	243.41
751.97	243.30
752.29	243.08
752.62	242.86
752.95	242.71
753.28	242.51
753.60	242.30
753.93	242.14
754.26	241.95
754.59	241.72
754.91	241.53
755.24	241.31
755.57	241.13
755.90	240.97
756.22	240.77
756.55	240.62
756.88	240.44
757.20	240.20
757.53	240.00
757.86	239.85
758.19	239.67
758.51	239.50
758.84	239.25
759.17	239.10
759.49	238.93
759.82	238.79
760.15	238.65
760.47	238.53
760.80	238.39
761.13	238.24
761.45	238.09
761.78	237.94
762.11	237.84
762.43	237.67
762.76	237.54
763.08	237.42
763.41	237.28
763.74	237.15
764.06	237.01
764.39	236.88
764.71	236.72
765.04	236.60
765.37	236.45
765.69	236.34
766.02	236.20
766.34	236.10
766.67	235.95
767.00	235.85
767.32	235.78
767.65	235.71
767.97	235.61
768.30	235.52
768.62	235.41
768.95	235.26
769.27	235.15
769.60	235.02
769.92	234.90
770.25	234.79
770.57	234.66
770.90	234.54
771.22	234.45
771.55	234.35
771.87	234.24
772.20	234.15
772.52	234.14
772.85	234.17
773.17	234.08
773.50	234.00
773.82	233.91
774.15	233.74
774.47	233.59
774.80	233.49
775.12	233.36
775.45	233.28
775.77	233.21
776.09	233.15
776.42	233.06
776.74	233.01
777.07	232.91
777.39	232.82
777.72	232.73
778.04	232.63
778.36	232.54
778.69	232.46
779.01	232.41
779.33	232.24
779.66	232.06
779.98	231.95
780.31	231.87
780.63	231.82
780.95	231.80
781.28	231.74
781.60	231.66
781.92	231.59
782.25	231.55
782.57	231.48
782.89	231.41
783.22	231.31
783.54	231.19
783.86	231.14
784.19	231.10
784.51	231.09
784.83	231.05
785.16	231.01
785.48	230.92
785.80	230.84
786.12	230.79
786.45	230.74
786.77	230.70
787.09	230.64
