SpectraSuite Data File
++++++++++++++++++++++++++++++++++++
Date: Fri Feb 01 16:03:46 EST 2013
User: group
Dark Spectrum Present: No
Reference Spectrum Present: No
Number of Sampled Component Spectra: 1
Spectrometers: USB2E7196
Integration Time (usec): 35000 (USB2E7196)
Spectra Averaged: 100 (USB2E7196)
Boxcar Smoothing: 10 (USB2E7196)
Correct for Electrical Dark: No (USB2E7196)
Strobe/Lamp Enabled: No (USB2E7196)
Correct for Detector Non-linearity: No (USB2E7196)
Correct for Stray Light: No (USB2E7196)
Number of Pixels in Processed Spectrum: 2048
>>>>>Begin Processed Spectral Data<<<<<
339.09	0.00
339.48	215.24
339.86	216.14
340.24	218.11
340.63	218.39
341.01	222.07
341.39	221.86
341.78	222.60
342.16	224.33
342.54	224.62
342.93	213.21
343.31	223.98
343.69	224.49
344.07	224.96
344.46	225.36
344.84	225.77
345.22	226.01
345.60	226.28
345.99	226.50
346.37	226.62
346.75	226.71
347.13	226.76
347.52	226.80
347.90	226.86
348.28	226.87
348.66	226.91
349.05	226.93
349.43	226.95
349.81	226.98
350.19	227.00
350.57	227.05
350.96	227.16
351.34	227.24
351.72	227.35
352.10	227.43
352.48	227.50
352.87	227.56
353.25	227.63
353.63	227.64
354.01	227.70
354.39	227.79
354.77	227.85
355.15	227.95
355.54	227.99
355.92	228.05
356.30	228.10
356.68	228.20
357.06	228.25
357.44	228.28
357.82	228.37
358.20	228.45
358.58	228.51
358.97	228.56
359.35	228.66
359.73	228.70
360.11	228.75
360.49	228.79
360.87	228.83
361.25	228.85
361.63	228.92
362.01	228.97
362.39	228.99
362.77	229.06
363.15	229.08
363.53	229.10
363.91	229.12
364.29	229.18
364.67	229.10
365.05	229.09
365.43	229.13
365.81	229.12
366.19	229.14
366.57	229.17
366.95	229.17
367.33	229.13
367.71	229.09
368.09	229.11
368.47	229.08
368.85	229.05
369.23	229.05
369.61	229.00
369.99	229.02
370.37	228.99
370.75	229.02
371.13	228.96
371.51	228.94
371.89	228.89
372.27	228.87
372.65	228.85
373.03	228.78
373.41	228.72
373.78	228.68
374.16	228.59
374.54	228.52
374.92	228.44
375.30	228.36
375.68	228.32
376.06	228.27
376.44	228.23
376.82	228.16
377.19	228.11
377.57	228.05
377.95	227.95
378.33	227.89
378.71	227.75
379.09	227.70
379.47	227.64
379.84	227.59
380.22	227.47
380.60	227.37
380.98	227.36
381.36	227.30
381.73	227.20
382.11	227.11
382.49	227.06
382.87	226.98
383.25	226.93
383.62	226.98
384.00	226.88
384.38	226.80
384.76	226.77
385.13	226.72
385.51	226.67
385.89	226.60
386.27	226.53
386.64	226.51
387.02	226.43
387.40	226.40
387.78	226.36
388.15	226.37
388.53	226.34
388.91	226.27
389.29	226.24
389.66	226.25
390.04	226.30
390.42	226.31
390.79	226.31
391.17	226.30
391.55	226.16
391.92	226.19
392.30	226.21
392.68	226.19
393.05	226.21
393.43	226.22
393.81	226.26
394.18	226.26
394.56	226.24
394.94	226.31
395.31	226.31
395.69	226.34
396.06	226.36
396.44	226.41
396.82	226.44
397.19	226.53
397.57	226.58
397.95	226.56
398.32	226.54
398.70	226.60
399.07	226.69
399.45	226.75
399.82	226.77
400.20	226.80
400.58	226.86
400.95	226.89
401.33	226.95
401.70	227.05
402.08	227.18
402.45	227.33
402.83	227.41
403.20	227.53
403.58	227.61
403.95	227.71
404.33	227.85
404.71	227.97
405.08	228.15
405.46	228.27
405.83	228.47
406.21	228.65
406.58	228.82
406.96	228.98
407.33	229.17
407.70	229.40
408.08	229.67
408.45	229.88
408.83	230.14
409.20	230.39
409.58	230.59
409.95	230.81
410.33	231.05
410.70	231.32
411.08	231.61
411.45	231.91
411.82	232.23
412.20	232.55
412.57	233.01
412.95	233.31
413.32	233.70
413.69	234.06
414.07	234.50
414.44	234.94
414.82	235.40
415.19	235.94
415.56	236.47
415.94	237.04
416.31	237.71
416.68	238.34
417.06	239.05
417.43	239.73
417.81	240.50
418.18	241.26
418.55	242.09
418.93	242.97
419.30	243.88
419.67	244.84
420.04	245.80
420.42	246.74
420.79	247.88
421.16	249.06
421.54	250.27
421.91	251.47
422.28	252.73
422.66	254.10
423.03	255.39
423.40	256.73
423.77	258.15
424.15	259.55
424.52	261.00
424.89	262.62
425.26	264.15
425.64	265.64
426.01	267.27
426.38	268.88
426.75	270.49
427.13	272.23
427.50	274.01
427.87	275.88
428.24	277.77
428.61	279.53
428.99	281.49
429.36	283.61
429.73	285.66
430.10	287.70
430.47	289.75
430.85	291.93
431.22	294.17
431.59	296.53
431.96	298.74
432.33	301.21
432.70	303.57
433.08	306.41
433.45	309.02
433.82	311.61
434.19	314.54
434.56	317.39
434.93	320.04
435.30	322.67
435.68	325.58
436.05	328.45
436.42	331.27
436.79	333.79
437.16	336.47
437.53	339.35
437.90	342.12
438.27	344.86
438.64	347.62
439.01	350.21
439.38	352.47
439.75	354.65
440.13	357.16
440.50	359.50
440.87	361.30
441.24	363.21
441.61	365.35
441.98	366.82
442.35	368.61
442.72	370.42
443.09	372.24
443.46	373.18
443.83	373.67
444.20	374.13
444.57	374.95
444.94	375.24
445.31	375.53
445.68	375.90
446.05	376.00
446.42	375.67
446.79	375.24
447.16	374.80
447.53	374.49
447.90	373.35
448.27	372.21
448.64	370.64
449.01	369.54
449.37	367.56
449.74	365.67
450.11	363.41
450.48	360.96
450.85	358.40
451.22	356.28
451.59	354.27
451.96	352.32
452.33	349.68
452.70	347.32
453.07	344.50
453.43	341.61
453.80	338.79
454.17	336.10
454.54	333.53
454.91	330.78
455.28	328.12
455.65	325.62
456.02	323.16
456.38	321.01
456.75	318.33
457.12	316.10
457.49	313.89
457.86	311.72
458.23	309.87
458.59	307.86
458.96	305.79
459.33	303.95
459.70	302.10
460.07	300.58
460.43	298.87
460.80	297.27
461.17	295.79
461.54	294.29
461.91	292.84
462.27	291.38
462.64	290.12
463.01	288.73
463.38	287.41
463.74	286.06
464.11	284.90
464.48	283.89
464.85	282.78
465.21	281.93
465.58	281.04
465.95	279.94
466.32	279.04
466.68	278.15
467.05	277.26
467.42	276.40
467.78	275.48
468.15	274.62
468.52	273.92
468.88	273.09
469.25	272.35
469.62	271.76
469.98	271.10
470.35	270.50
470.72	269.92
471.08	269.29
471.45	268.73
471.82	268.18
472.18	267.56
472.55	267.13
472.92	266.60
473.28	266.16
473.65	265.71
474.02	265.24
474.38	264.85
474.75	264.53
475.11	264.19
475.48	263.95
475.85	263.72
476.21	263.54
476.58	263.35
476.94	263.20
477.31	263.02
477.67	262.87
478.04	262.79
478.41	262.72
478.77	262.78
479.14	262.73
479.50	262.74
479.87	262.85
480.23	262.93
480.60	262.96
480.96	263.09
481.33	263.29
481.69	263.48
482.06	263.70
482.42	263.89
482.79	264.12
483.15	264.47
483.52	264.85
483.88	265.15
484.25	265.52
484.61	265.96
484.98	266.40
485.34	266.97
485.71	267.52
486.07	268.21
486.44	268.76
486.80	269.49
487.17	270.22
487.53	271.04
487.90	271.93
488.26	272.91
488.62	273.83
488.99	274.87
489.35	275.95
489.72	277.07
490.08	278.31
490.44	279.58
490.81	280.86
491.17	282.20
491.54	283.69
491.90	285.26
492.26	286.94
492.63	288.71
492.99	290.50
493.36	292.41
493.72	294.41
494.08	296.50
494.45	298.72
494.81	301.10
495.17	303.53
495.54	306.07
495.90	308.74
496.26	311.61
496.63	314.57
496.99	317.66
497.35	320.93
497.72	324.37
498.08	327.88
498.44	331.58
498.80	335.52
499.17	339.58
499.53	343.78
499.89	348.08
500.26	352.59
500.62	357.30
500.98	362.30
501.34	367.40
501.71	372.74
502.07	378.19
502.43	383.81
502.79	389.63
503.16	395.71
503.52	402.06
503.88	408.45
504.24	415.07
504.60	421.97
504.97	429.09
505.33	436.40
505.69	444.11
506.05	451.90
506.41	459.78
506.78	467.94
507.14	476.37
507.50	485.15
507.86	494.17
508.22	503.29
508.59	512.51
508.95	522.07
509.31	531.94
509.67	542.08
510.03	552.40
510.39	563.00
510.75	573.82
511.12	584.75
511.48	596.05
511.84	607.45
512.20	618.96
512.56	630.91
512.92	643.07
513.28	655.50
513.64	667.94
514.00	680.69
514.37	693.70
514.73	706.75
515.09	719.77
515.45	733.05
515.81	746.66
516.17	760.62
516.53	774.64
516.89	788.83
517.25	802.97
517.61	817.32
517.97	831.71
518.33	846.09
518.69	860.87
519.05	875.88
519.41	891.02
519.77	906.58
520.13	922.00
520.49	937.38
520.85	952.67
521.21	968.43
521.57	984.56
521.93	1000.23
522.29	1016.60
522.65	1032.81
523.01	1049.05
523.37	1065.07
523.73	1081.22
524.09	1097.28
524.45	1113.50
524.81	1130.02
525.17	1146.85
525.53	1163.70
525.89	1180.59
526.25	1197.40
526.61	1213.67
526.97	1230.42
527.33	1246.88
527.68	1263.47
528.04	1279.84
528.40	1296.43
528.76	1313.30
529.12	1329.91
529.48	1346.73
529.84	1362.72
530.20	1379.38
530.56	1396.38
530.91	1413.77
531.27	1430.35
531.63	1446.96
531.99	1463.47
532.35	1479.51
532.71	1495.43
533.07	1511.71
533.42	1527.52
533.78	1543.39
534.14	1559.68
534.50	1574.96
534.86	1590.76
535.21	1605.90
535.57	1621.94
535.93	1637.36
536.29	1652.11
536.65	1667.10
537.00	1681.85
537.36	1697.09
537.72	1711.55
538.08	1725.72
538.44	1739.42
538.79	1753.42
539.15	1766.93
539.51	1780.65
539.87	1795.03
540.22	1808.68
540.58	1822.24
540.94	1835.58
541.29	1848.55
541.65	1861.22
542.01	1874.40
542.37	1886.76
542.72	1899.18
543.08	1910.84
543.44	1923.26
543.79	1934.54
544.15	1945.45
544.51	1957.05
544.87	1967.98
545.22	1978.73
545.58	1989.05
545.94	1998.79
546.29	2008.71
546.65	2018.57
547.01	2027.79
547.36	2036.53
547.72	2045.01
548.07	2052.87
548.43	2061.02
548.79	2068.97
549.14	2076.42
549.50	2083.65
549.86	2091.20
550.21	2098.45
550.57	2105.44
550.92	2112.02
551.28	2119.08
551.64	2126.25
551.99	2132.70
552.35	2138.82
552.70	2145.02
553.06	2150.98
553.41	2157.30
553.77	2163.23
554.13	2169.33
554.48	2175.44
554.84	2180.81
555.19	2185.96
555.55	2191.15
555.90	2195.56
556.26	2200.49
556.61	2205.32
556.97	2209.68
557.32	2213.82
557.68	2218.06
558.03	2222.57
558.39	2226.33
558.74	2231.05
559.10	2234.93
559.45	2238.64
559.81	2242.94
560.16	2246.83
560.52	2250.05
560.87	2253.48
561.23	2256.15
561.58	2259.11
561.94	2261.73
562.29	2264.02
562.64	2266.71
563.00	2269.38
563.35	2272.95
563.71	2276.04
564.06	2279.27
564.42	2282.14
564.77	2284.75
565.12	2286.97
565.48	2288.78
565.83	2290.58
566.19	2291.81
566.54	2292.69
566.89	2293.74
567.25	2294.35
567.60	2295.58
567.96	2297.34
568.31	2298.26
568.66	2299.47
569.02	2299.93
569.37	2300.22
569.72	2301.12
570.08	2301.34
570.43	2301.43
570.78	2300.94
571.14	2299.37
571.49	2297.97
571.84	2297.77
572.20	2296.64
572.55	2295.56
572.90	2293.98
573.26	2292.55
573.61	2290.86
573.96	2289.14
574.31	2286.33
574.67	2283.22
575.02	2279.73
575.37	2276.38
575.72	2272.53
576.08	2269.18
576.43	2265.95
576.78	2262.26
577.13	2259.16
577.49	2256.05
577.84	2252.53
578.19	2248.76
578.54	2245.14
578.90	2240.97
579.25	2235.36
579.60	2230.29
579.95	2225.35
580.30	2220.42
580.66	2215.45
581.01	2210.51
581.36	2205.52
581.71	2201.31
582.06	2197.01
582.42	2192.44
582.77	2187.12
583.12	2182.70
583.47	2177.95
583.82	2172.98
584.17	2167.72
584.53	2162.18
584.88	2156.67
585.23	2150.82
585.58	2145.27
585.93	2139.90
586.28	2135.09
586.63	2130.05
586.98	2125.22
587.34	2120.44
587.69	2115.58
588.04	2110.27
588.39	2104.63
588.74	2098.34
589.09	2092.22
589.44	2085.43
589.79	2079.60
590.14	2074.15
590.49	2067.45
590.84	2061.10
591.19	2055.08
591.54	2048.77
591.89	2041.34
592.25	2034.55
592.60	2027.44
592.95	2019.93
593.30	2012.50
593.65	2004.87
594.00	1997.88
594.35	1990.52
594.70	1982.61
595.05	1975.45
595.40	1968.11
595.75	1960.68
596.10	1954.43
596.45	1947.56
596.80	1941.41
597.15	1934.63
597.50	1927.40
597.85	1921.06
598.19	1914.33
598.54	1907.15
598.89	1900.49
599.24	1894.68
599.59	1887.84
599.94	1881.68
600.29	1875.34
600.64	1868.84
600.99	1861.46
601.34	1854.64
601.69	1847.65
602.04	1840.60
602.39	1833.14
602.74	1826.30
603.08	1819.58
603.43	1812.80
603.78	1805.44
604.13	1798.32
604.48	1790.89
604.83	1784.14
605.18	1777.04
605.53	1769.00
605.87	1761.08
606.22	1753.77
606.57	1745.84
606.92	1738.63
607.27	1731.43
607.62	1724.56
607.96	1717.29
608.31	1710.71
608.66	1703.16
609.01	1695.66
609.36	1688.18
609.70	1680.16
610.05	1672.15
610.40	1664.40
610.75	1656.03
611.10	1648.49
611.44	1639.99
611.79	1632.15
612.14	1623.36
612.49	1614.29
612.83	1605.95
613.18	1597.89
613.53	1589.80
613.88	1581.26
614.22	1572.91
614.57	1564.31
614.92	1556.20
615.27	1548.56
615.61	1540.19
615.96	1532.06
616.31	1524.40
616.65	1517.13
617.00	1509.58
617.35	1501.93
617.70	1493.55
618.04	1485.02
618.39	1476.73
618.74	1469.10
619.08	1460.75
619.43	1453.22
619.78	1446.35
620.12	1439.18
620.47	1431.55
620.82	1423.34
621.16	1415.92
621.51	1408.35
621.85	1400.77
622.20	1392.22
622.55	1383.88
622.89	1376.07
623.24	1368.40
623.59	1361.07
623.93	1353.48
624.28	1346.24
624.62	1338.69
624.97	1331.49
625.32	1324.90
625.66	1318.02
626.01	1310.93
626.35	1303.51
626.70	1295.73
627.04	1287.98
627.39	1280.23
627.73	1272.84
628.08	1265.94
628.43	1258.60
628.77	1251.31
629.12	1243.68
629.46	1236.53
629.81	1229.11
630.15	1221.77
630.50	1214.33
630.84	1206.06
631.19	1198.16
631.53	1190.71
631.88	1183.08
632.22	1175.52
632.57	1168.09
632.91	1160.53
633.26	1153.04
633.60	1145.65
633.95	1138.59
634.29	1131.54
634.64	1124.84
634.98	1117.49
635.32	1110.32
635.67	1103.78
636.01	1097.09
636.36	1090.28
636.70	1083.74
637.05	1077.25
637.39	1070.87
637.73	1064.43
638.08	1058.54
638.42	1052.62
638.77	1046.11
639.11	1039.53
639.45	1033.10
639.80	1026.48
640.14	1020.07
640.49	1013.57
640.83	1007.22
641.17	1000.84
641.52	994.49
641.86	987.98
642.20	982.03
642.55	975.68
642.89	969.16
643.23	962.67
643.58	956.92
643.92	950.78
644.26	944.53
644.61	938.51
644.95	932.47
645.29	925.86
645.64	919.04
645.98	912.74
646.32	906.96
646.66	900.92
647.01	895.05
647.35	889.27
647.69	883.42
648.04	877.93
648.38	872.20
648.72	866.19
649.06	860.16
649.41	854.32
649.75	848.45
650.09	842.50
650.43	836.64
650.78	830.44
651.12	824.49
651.46	818.90
651.80	813.12
652.14	807.74
652.49	802.41
652.83	797.33
653.17	791.62
653.51	785.81
653.85	780.46
654.20	774.86
654.54	768.81
654.88	763.12
655.22	757.21
655.56	751.54
655.90	746.10
656.25	740.90
656.59	735.56
656.93	730.50
657.27	725.34
657.61	719.87
657.95	714.79
658.29	709.72
658.64	704.46
658.98	699.12
659.32	693.62
659.66	688.35
660.00	682.90
660.34	677.97
660.68	673.16
661.02	668.09
661.36	663.32
661.70	658.90
662.05	654.55
662.39	650.21
662.73	645.67
663.07	641.29
663.41	636.84
663.75	632.34
664.09	627.73
664.43	623.30
664.77	619.19
665.11	614.93
665.45	610.75
665.79	606.65
666.13	602.53
666.47	598.43
666.81	594.25
667.15	590.17
667.49	586.22
667.83	582.37
668.17	578.39
668.51	574.32
668.85	570.24
669.19	566.36
669.53	562.54
669.87	558.71
670.21	555.05
670.55	551.36
670.89	547.98
671.23	544.59
671.57	541.13
671.91	537.60
672.25	534.15
672.58	530.65
672.92	527.26
673.26	524.15
673.60	520.94
673.94	517.86
674.28	515.03
674.62	512.09
674.96	508.96
675.30	506.10
675.64	503.18
675.97	500.43
676.31	497.55
676.65	494.61
676.99	491.95
677.33	489.05
677.67	486.25
678.01	483.17
678.34	480.16
678.68	477.32
679.02	474.49
679.36	471.71
679.70	468.97
680.04	466.18
680.37	463.27
680.71	460.58
681.05	457.95
681.39	455.20
681.73	452.54
682.06	450.06
682.40	447.54
682.74	445.00
683.08	442.45
683.42	439.85
683.75	437.38
684.09	434.86
684.43	432.38
684.77	429.98
685.10	427.67
685.44	425.37
685.78	423.03
686.12	420.79
686.45	418.50
686.79	416.20
687.13	414.03
687.46	411.87
687.80	409.70
688.14	407.51
688.48	405.39
688.81	403.13
689.15	400.95
689.49	398.78
689.82	396.75
690.16	394.66
690.50	392.73
690.83	390.73
691.17	388.72
691.51	386.81
691.84	384.94
692.18	382.96
692.52	380.98
692.85	379.04
693.19	377.17
693.52	375.33
693.86	373.53
694.20	371.74
694.53	369.96
694.87	368.14
695.21	366.35
695.54	364.59
695.88	362.89
696.21	361.18
696.55	359.52
696.88	357.80
697.22	356.13
697.56	354.48
697.89	352.87
698.23	351.21
698.56	349.61
698.90	347.98
699.23	346.39
699.57	344.85
699.90	343.33
700.24	341.76
700.58	340.23
700.91	338.69
701.25	337.23
701.58	335.80
701.92	334.42
702.25	333.06
702.59	331.63
702.92	330.32
703.26	329.01
703.59	327.68
703.93	326.50
704.26	325.30
704.60	323.97
704.93	322.70
705.26	321.52
705.60	320.34
705.93	319.21
706.27	318.11
706.60	317.02
706.94	315.90
707.27	314.80
707.61	313.75
707.94	312.76
708.27	311.67
708.61	310.60
708.94	309.56
709.28	308.52
709.61	307.57
709.94	306.60
710.28	305.56
710.61	304.60
710.95	303.55
711.28	302.57
711.61	301.64
711.95	300.70
712.28	299.76
712.61	298.77
712.95	297.81
713.28	296.96
713.61	296.06
713.95	295.15
714.28	294.29
714.61	293.41
714.95	292.54
715.28	291.68
715.61	290.81
715.95	289.97
716.28	289.16
716.61	288.33
716.95	287.50
717.28	286.75
717.61	286.00
717.94	285.26
718.28	284.48
718.61	283.76
718.94	283.08
719.27	282.39
719.61	281.76
719.94	281.12
720.27	280.40
720.60	279.77
720.94	279.19
721.27	278.59
721.60	277.99
721.93	277.40
722.27	276.86
722.60	276.32
722.93	275.73
723.26	275.17
723.59	274.60
723.93	274.09
724.26	273.53
724.59	272.92
724.92	272.39
725.25	271.88
725.59	271.37
725.92	270.85
726.25	270.34
726.58	269.86
726.91	269.35
727.24	268.89
727.57	268.40
727.91	267.91
728.24	267.46
728.57	266.98
728.90	266.54
729.23	266.06
729.56	265.62
729.89	265.18
730.22	264.71
730.55	264.26
730.89	263.79
731.22	263.34
731.55	262.93
731.88	262.50
732.21	262.05
732.54	261.62
732.87	261.23
733.20	260.85
733.53	260.47
733.86	260.08
734.19	259.67
734.52	259.30
734.85	258.98
735.18	258.54
735.51	258.23
735.84	257.86
736.17	257.50
736.50	257.11
736.83	256.88
737.16	256.55
737.49	256.20
737.82	255.88
738.15	255.60
738.48	255.28
738.81	255.00
739.14	254.72
739.47	254.40
739.80	254.06
740.13	253.71
740.46	253.35
740.79	253.00
741.12	252.75
741.45	252.42
741.78	252.04
742.11	251.79
742.44	251.45
742.77	251.17
743.10	250.86
743.43	250.57
743.75	250.19
744.08	250.04
744.41	249.79
744.74	249.50
745.07	249.20
745.40	248.93
745.73	248.65
746.06	248.33
746.39	248.07
746.71	247.78
747.04	247.53
747.37	247.27
747.70	247.06
748.03	246.75
748.36	246.53
748.68	246.28
749.01	246.01
749.34	245.79
749.67	245.55
750.00	245.33
750.33	245.16
750.65	244.94
750.98	244.59
751.31	244.37
751.64	244.17
751.97	244.02
752.29	243.82
752.62	243.58
752.95	243.40
753.28	243.20
753.60	243.03
753.93	242.85
754.26	242.68
754.59	242.42
754.91	242.24
755.24	242.05
755.57	241.88
755.90	241.71
756.22	241.52
756.55	241.32
756.88	241.14
757.20	240.90
757.53	240.71
757.86	240.54
758.19	240.35
758.51	240.16
758.84	239.94
759.17	239.76
759.49	239.58
759.82	239.43
760.15	239.28
760.47	239.15
760.80	238.98
761.13	238.83
761.45	238.72
761.78	238.60
762.11	238.43
762.43	238.28
762.76	238.14
763.08	238.04
763.41	237.94
763.74	237.78
764.06	237.67
764.39	237.50
764.71	237.38
765.04	237.27
765.37	237.14
765.69	236.98
766.02	236.87
766.34	236.79
766.67	236.65
767.00	236.58
767.32	236.49
767.65	236.42
767.97	236.32
768.30	236.16
768.62	236.02
768.95	235.90
769.27	235.81
769.60	235.71
769.92	235.57
770.25	235.44
770.57	235.32
770.90	235.22
771.22	235.09
771.55	235.00
771.87	234.90
772.20	234.80
772.52	234.80
772.85	234.82
773.17	234.69
773.50	234.58
773.82	234.44
774.15	234.28
774.47	234.13
774.80	234.01
775.12	233.94
775.45	233.87
775.77	233.82
776.09	233.77
776.42	233.69
776.74	233.61
777.07	233.50
777.39	233.45
777.72	233.36
778.04	233.34
778.36	233.24
778.69	233.18
779.01	233.14
779.33	233.01
779.66	232.80
779.98	232.74
780.31	232.68
780.63	232.68
780.95	232.64
781.28	232.58
781.60	232.51
781.92	232.47
782.25	232.35
782.57	232.28
782.89	232.18
783.22	232.13
783.54	232.07
783.86	232.02
784.19	231.94
784.51	231.92
784.83	231.87
785.16	231.86
785.48	231.82
785.80	231.72
786.12	231.65
786.45	231.61
786.77	231.56
787.09	231.52
