SpectraSuite Data File
++++++++++++++++++++++++++++++++++++
Date: Fri Feb 01 16:02:37 EST 2013
User: group
Dark Spectrum Present: No
Reference Spectrum Present: No
Number of Sampled Component Spectra: 1
Spectrometers: USB2E7196
Integration Time (usec): 35000 (USB2E7196)
Spectra Averaged: 100 (USB2E7196)
Boxcar Smoothing: 10 (USB2E7196)
Correct for Electrical Dark: No (USB2E7196)
Strobe/Lamp Enabled: No (USB2E7196)
Correct for Detector Non-linearity: No (USB2E7196)
Correct for Stray Light: No (USB2E7196)
Number of Pixels in Processed Spectrum: 2048
>>>>>Begin Processed Spectral Data<<<<<
339.09	0.00
339.48	214.34
339.86	216.15
340.24	217.53
340.63	218.96
341.01	221.75
341.39	220.80
341.78	223.38
342.16	224.19
342.54	225.17
342.93	213.11
343.31	223.89
343.69	224.49
344.07	224.98
344.46	225.40
344.84	225.81
345.22	226.06
345.60	226.34
345.99	226.50
346.37	226.64
346.75	226.70
347.13	226.80
347.52	226.86
347.90	226.92
348.28	226.95
348.66	227.01
349.05	227.05
349.43	227.08
349.81	227.18
350.19	227.21
350.57	227.25
350.96	227.35
351.34	227.44
351.72	227.51
352.10	227.59
352.48	227.69
352.87	227.73
353.25	227.77
353.63	227.84
354.01	227.95
354.39	228.03
354.77	228.12
355.15	228.21
355.54	228.29
355.92	228.36
356.30	228.44
356.68	228.56
357.06	228.62
357.44	228.67
357.82	228.69
358.20	228.76
358.58	228.85
358.97	228.90
359.35	228.94
359.73	229.01
360.11	229.06
360.49	229.10
360.87	229.14
361.25	229.23
361.63	229.28
362.01	229.31
362.39	229.33
362.77	229.36
363.15	229.37
363.53	229.37
363.91	229.35
364.29	229.35
364.67	229.26
365.05	229.26
365.43	229.30
365.81	229.34
366.19	229.36
366.57	229.35
366.95	229.32
367.33	229.31
367.71	229.27
368.09	229.27
368.47	229.26
368.85	229.24
369.23	229.22
369.61	229.17
369.99	229.16
370.37	229.13
370.75	229.14
371.13	229.07
371.51	229.04
371.89	228.99
372.27	228.92
372.65	228.87
373.03	228.81
373.41	228.72
373.78	228.61
374.16	228.48
374.54	228.41
374.92	228.34
375.30	228.27
375.68	228.19
376.06	228.12
376.44	227.99
376.82	227.90
377.19	227.79
377.57	227.71
377.95	227.59
378.33	227.50
378.71	227.39
379.09	227.33
379.47	227.28
379.84	227.24
380.22	227.21
380.60	227.11
380.98	227.02
381.36	226.97
381.73	226.92
382.11	226.89
382.49	226.83
382.87	226.76
383.25	226.71
383.62	226.74
384.00	226.64
384.38	226.62
384.76	226.61
385.13	226.62
385.51	226.58
385.89	226.52
386.27	226.51
386.64	226.44
387.02	226.40
387.40	226.34
387.78	226.32
388.15	226.27
388.53	226.25
388.91	226.24
389.29	226.20
389.66	226.17
390.04	226.14
390.42	226.14
390.79	226.13
391.17	226.09
391.55	225.97
391.92	225.99
392.30	226.01
392.68	225.95
393.05	225.92
393.43	225.95
393.81	225.98
394.18	225.95
394.56	225.96
394.94	226.01
395.31	226.01
395.69	226.06
396.06	226.08
396.44	226.14
396.82	226.17
397.19	226.29
397.57	226.33
397.95	226.38
398.32	226.41
398.70	226.44
399.07	226.54
399.45	226.63
399.82	226.70
400.20	226.75
400.58	226.86
400.95	226.94
401.33	227.02
401.70	227.17
402.08	227.28
402.45	227.42
402.83	227.53
403.20	227.66
403.58	227.75
403.95	227.88
404.33	228.02
404.71	228.13
405.08	228.27
405.46	228.41
405.83	228.59
406.21	228.75
406.58	228.94
406.96	229.11
407.33	229.29
407.70	229.49
408.08	229.74
408.45	229.96
408.83	230.21
409.20	230.42
409.58	230.60
409.95	230.86
410.33	231.10
410.70	231.34
411.08	231.61
411.45	231.91
411.82	232.22
412.20	232.55
412.57	232.96
412.95	233.29
413.32	233.68
413.69	234.11
414.07	234.52
414.44	234.95
414.82	235.42
415.19	235.94
415.56	236.49
415.94	237.09
416.31	237.71
416.68	238.30
417.06	239.02
417.43	239.71
417.81	240.47
418.18	241.25
418.55	242.06
418.93	242.95
419.30	243.85
419.67	244.81
420.04	245.77
420.42	246.79
420.79	247.96
421.16	249.12
421.54	250.27
421.91	251.54
422.28	252.82
422.66	254.12
423.03	255.38
423.40	256.74
423.77	258.12
424.15	259.55
424.52	261.05
424.89	262.64
425.26	264.22
425.64	265.70
426.01	267.29
426.38	268.98
426.75	270.65
427.13	272.38
427.50	274.15
427.87	276.03
428.24	277.88
428.61	279.61
428.99	281.55
429.36	283.67
429.73	285.69
430.10	287.71
430.47	289.81
430.85	291.98
431.22	294.15
431.59	296.49
431.96	298.77
432.33	301.23
432.70	303.62
433.08	306.38
433.45	308.99
433.82	311.63
434.19	314.56
434.56	317.36
434.93	320.03
435.30	322.66
435.68	325.55
436.05	328.35
436.42	331.16
436.79	333.65
437.16	336.31
437.53	339.13
437.90	341.97
438.27	344.68
438.64	347.49
439.01	350.16
439.38	352.42
439.75	354.58
440.13	357.12
440.50	359.45
440.87	361.31
441.24	363.24
441.61	365.38
441.98	366.85
442.35	368.64
442.72	370.45
443.09	372.26
443.46	373.17
443.83	373.78
444.20	374.29
444.57	375.16
444.94	375.49
445.31	375.79
445.68	376.15
446.05	376.20
446.42	375.82
446.79	375.35
447.16	374.91
447.53	374.54
447.90	373.36
448.27	372.19
448.64	370.61
449.01	369.48
449.37	367.49
449.74	365.55
450.11	363.29
450.48	360.84
450.85	358.27
451.22	356.23
451.59	354.25
451.96	352.29
452.33	349.66
452.70	347.26
453.07	344.45
453.43	341.50
453.80	338.77
454.17	336.08
454.54	333.56
454.91	330.86
455.28	328.22
455.65	325.73
456.02	323.28
456.38	321.14
456.75	318.47
457.12	316.22
457.49	314.06
457.86	311.90
458.23	310.02
458.59	308.01
458.96	305.89
459.33	303.97
459.70	302.12
460.07	300.65
460.43	298.95
460.80	297.36
461.17	295.96
461.54	294.47
461.91	293.07
462.27	291.60
462.64	290.34
463.01	289.00
463.38	287.68
463.74	286.30
464.11	285.12
464.48	284.09
464.85	282.97
465.21	282.07
465.58	281.18
465.95	280.11
466.32	279.21
466.68	278.36
467.05	277.48
467.42	276.60
467.78	275.64
468.15	274.79
468.52	274.13
468.88	273.27
469.25	272.50
469.62	271.86
469.98	271.19
470.35	270.54
470.72	269.94
471.08	269.32
471.45	268.84
471.82	268.30
472.18	267.72
472.55	267.31
472.92	266.79
473.28	266.29
473.65	265.85
474.02	265.43
474.38	265.06
474.75	264.74
475.11	264.42
475.48	264.17
475.85	263.94
476.21	263.73
476.58	263.54
476.94	263.39
477.31	263.25
477.67	263.12
478.04	263.05
478.41	262.97
478.77	263.01
479.14	262.95
479.50	262.97
479.87	263.06
480.23	263.14
480.60	263.24
480.96	263.41
481.33	263.61
481.69	263.81
482.06	264.00
482.42	264.20
482.79	264.44
483.15	264.76
483.52	265.12
483.88	265.47
484.25	265.90
484.61	266.34
484.98	266.80
485.34	267.32
485.71	267.88
486.07	268.51
486.44	269.06
486.80	269.77
487.17	270.49
487.53	271.32
487.90	272.19
488.26	273.13
488.62	274.10
488.99	275.06
489.35	276.09
489.72	277.25
490.08	278.48
490.44	279.73
490.81	281.09
491.17	282.42
491.54	283.88
491.90	285.38
492.26	286.99
492.63	288.69
492.99	290.52
493.36	292.45
493.72	294.53
494.08	296.62
494.45	298.88
494.81	301.22
495.17	303.60
495.54	306.14
495.90	308.81
496.26	311.60
496.63	314.58
496.99	317.69
497.35	320.88
497.72	324.24
498.08	327.71
498.44	331.33
498.80	335.30
499.17	339.37
499.53	343.54
499.89	347.91
500.26	352.41
500.62	357.05
500.98	361.99
501.34	367.03
501.71	372.40
502.07	377.79
502.43	383.44
502.79	389.27
503.16	395.31
503.52	401.56
503.88	407.92
504.24	414.55
504.60	421.39
504.97	428.57
505.33	435.94
505.69	443.68
506.05	451.51
506.41	459.40
506.78	467.54
507.14	476.04
507.50	484.76
507.86	493.81
508.22	503.02
508.59	512.18
508.95	521.78
509.31	531.54
509.67	541.70
510.03	551.94
510.39	562.52
510.75	573.34
511.12	584.32
511.48	595.68
511.84	607.08
512.20	618.66
512.56	630.64
512.92	642.76
513.28	655.16
513.64	667.64
514.00	680.37
514.37	693.28
514.73	706.37
515.09	719.46
515.45	732.76
515.81	746.34
516.17	760.37
516.53	774.52
516.89	788.72
517.25	802.88
517.61	817.31
517.97	831.75
518.33	846.20
518.69	860.97
519.05	875.96
519.41	891.09
519.77	906.60
520.13	921.95
520.49	937.31
520.85	952.65
521.21	968.33
521.57	984.49
521.93	1000.22
522.29	1016.58
522.65	1032.79
523.01	1049.02
523.37	1065.11
523.73	1081.24
524.09	1097.31
524.45	1113.60
524.81	1130.24
525.17	1146.99
525.53	1163.89
525.89	1180.72
526.25	1197.49
526.61	1213.82
526.97	1230.61
527.33	1247.14
527.68	1263.77
528.04	1280.33
528.40	1296.92
528.76	1313.94
529.12	1330.52
529.48	1347.27
529.84	1363.24
530.20	1379.81
530.56	1396.70
530.91	1414.10
531.27	1430.81
531.63	1447.17
531.99	1463.77
532.35	1479.63
532.71	1495.51
533.07	1511.72
533.42	1527.57
533.78	1543.66
534.14	1559.88
534.50	1575.26
534.86	1591.10
535.21	1606.17
535.57	1622.01
535.93	1637.46
536.29	1652.23
536.65	1667.19
537.00	1681.98
537.36	1697.20
537.72	1711.74
538.08	1726.26
538.44	1740.03
538.79	1753.86
539.15	1767.54
539.51	1781.24
539.87	1795.65
540.22	1809.45
540.58	1823.24
540.94	1836.62
541.29	1849.38
541.65	1862.08
542.01	1875.13
542.37	1887.32
542.72	1899.74
543.08	1911.41
543.44	1923.83
543.79	1934.94
544.15	1946.07
544.51	1957.74
544.87	1968.84
545.22	1979.58
545.58	1989.57
545.94	1999.24
546.29	2009.10
546.65	2018.86
547.01	2028.02
547.36	2036.72
547.72	2045.14
548.07	2052.93
548.43	2061.08
548.79	2069.27
549.14	2076.74
549.50	2084.04
549.86	2091.75
550.21	2099.15
550.57	2106.24
550.92	2112.69
551.28	2119.75
551.64	2126.67
551.99	2133.10
552.35	2139.05
552.70	2145.17
553.06	2151.33
553.41	2157.71
553.77	2163.78
554.13	2170.06
554.48	2176.12
554.84	2181.46
555.19	2186.64
555.55	2191.78
555.90	2196.17
556.26	2200.95
556.61	2205.70
556.97	2210.07
557.32	2214.06
557.68	2218.11
558.03	2222.48
558.39	2226.31
558.74	2230.92
559.10	2234.93
559.45	2238.54
559.81	2242.85
560.16	2246.68
560.52	2249.82
560.87	2253.18
561.23	2255.95
561.58	2258.83
561.94	2261.34
562.29	2263.70
562.64	2266.38
563.00	2268.92
563.35	2272.37
563.71	2275.40
564.06	2278.62
564.42	2281.46
564.77	2284.02
565.12	2286.23
565.48	2288.12
565.83	2289.92
566.19	2291.22
566.54	2292.11
566.89	2293.34
567.25	2294.05
567.60	2295.38
567.96	2297.00
568.31	2297.83
568.66	2298.73
569.02	2299.23
569.37	2299.65
569.72	2300.53
570.08	2300.71
570.43	2300.83
570.78	2300.33
571.14	2298.84
571.49	2297.51
571.84	2297.28
572.20	2296.22
572.55	2295.27
572.90	2293.88
573.26	2292.48
573.61	2290.97
573.96	2289.06
574.31	2286.14
574.67	2283.15
575.02	2279.69
575.37	2276.53
575.72	2272.56
576.08	2269.37
576.43	2266.16
576.78	2262.46
577.13	2259.38
577.49	2256.31
577.84	2252.85
578.19	2249.14
578.54	2245.64
578.90	2241.33
579.25	2235.77
579.60	2230.83
579.95	2225.88
580.30	2220.91
580.66	2215.87
581.01	2210.89
581.36	2206.04
581.71	2201.97
582.06	2197.63
582.42	2193.01
582.77	2187.82
583.12	2183.46
583.47	2178.66
583.82	2173.57
584.17	2168.52
584.53	2163.06
584.88	2157.56
585.23	2151.83
585.58	2146.43
585.93	2140.93
586.28	2136.27
586.63	2131.12
586.98	2126.07
587.34	2121.25
587.69	2116.36
588.04	2110.88
588.39	2105.21
588.74	2098.82
589.09	2092.51
589.44	2085.51
589.79	2079.74
590.14	2074.05
590.49	2067.44
590.84	2061.20
591.19	2055.26
591.54	2048.80
591.89	2041.32
592.25	2034.48
592.60	2027.14
592.95	2019.49
593.30	2012.19
593.65	2004.73
594.00	1997.81
594.35	1990.65
594.70	1982.69
595.05	1975.29
595.40	1968.07
595.75	1960.54
596.10	1954.26
596.45	1947.60
596.80	1941.44
597.15	1934.68
597.50	1927.54
597.85	1921.26
598.19	1914.52
598.54	1907.25
598.89	1900.54
599.24	1894.67
599.59	1887.88
599.94	1881.80
600.29	1875.49
600.64	1868.83
600.99	1861.31
601.34	1854.38
601.69	1847.56
602.04	1840.79
602.39	1833.50
602.74	1826.74
603.08	1820.11
603.43	1813.40
603.78	1806.14
604.13	1798.94
604.48	1791.45
604.83	1784.57
605.18	1777.42
605.53	1769.44
605.87	1761.51
606.22	1754.25
606.57	1746.23
606.92	1738.99
607.27	1731.79
607.62	1724.97
607.96	1717.64
608.31	1710.90
608.66	1703.36
609.01	1695.62
609.36	1687.93
609.70	1679.97
610.05	1672.00
610.40	1664.27
610.75	1655.85
611.10	1648.06
611.44	1639.66
611.79	1631.80
612.14	1623.08
612.49	1613.98
612.83	1605.59
613.18	1597.44
613.53	1589.19
613.88	1580.72
614.22	1572.45
614.57	1563.72
614.92	1555.66
615.27	1548.22
615.61	1539.84
615.96	1531.78
616.31	1524.21
616.65	1516.90
617.00	1509.38
617.35	1501.64
617.70	1493.12
618.04	1484.66
618.39	1476.48
618.74	1468.99
619.08	1460.69
619.43	1453.15
619.78	1446.24
620.12	1438.96
620.47	1431.44
620.82	1423.37
621.16	1416.08
621.51	1408.53
621.85	1401.00
622.20	1392.40
622.55	1383.97
622.89	1376.36
623.24	1368.75
623.59	1361.33
623.93	1353.78
624.28	1346.47
624.62	1338.99
624.97	1332.05
625.32	1325.36
625.66	1318.35
626.01	1311.15
626.35	1303.66
626.70	1295.89
627.04	1288.14
627.39	1280.46
627.73	1273.16
628.08	1266.36
628.43	1258.97
628.77	1251.49
629.12	1244.03
629.46	1236.88
629.81	1229.53
630.15	1222.22
630.50	1214.81
630.84	1206.57
631.19	1198.66
631.53	1191.19
631.88	1183.60
632.22	1175.84
632.57	1168.56
632.91	1161.04
633.26	1153.57
633.60	1146.32
633.95	1139.33
634.29	1132.37
634.64	1125.75
634.98	1118.32
635.32	1111.11
635.67	1104.52
636.01	1097.98
636.36	1090.96
636.70	1084.50
637.05	1077.81
637.39	1071.25
637.73	1064.60
638.08	1058.79
638.42	1052.75
638.77	1046.28
639.11	1039.62
639.45	1033.33
639.80	1026.66
640.14	1020.18
640.49	1013.63
640.83	1007.25
641.17	1000.80
641.52	994.42
641.86	987.88
642.20	981.98
642.55	975.65
642.89	969.15
643.23	962.51
643.58	956.85
643.92	950.54
644.26	944.51
644.61	938.49
644.95	932.52
645.29	925.85
645.64	919.06
645.98	912.75
646.32	906.94
646.66	900.79
647.01	894.94
647.35	889.23
647.69	883.34
648.04	877.78
648.38	872.03
648.72	865.99
649.06	859.98
649.41	854.20
649.75	848.16
650.09	842.20
650.43	836.39
650.78	830.13
651.12	824.19
651.46	818.46
651.80	812.73
652.14	807.33
652.49	801.94
652.83	796.84
653.17	791.07
653.51	785.37
653.85	780.03
654.20	774.38
654.54	768.41
654.88	762.71
655.22	756.84
655.56	751.22
655.90	745.81
656.25	740.57
656.59	735.18
656.93	730.14
657.27	724.94
657.61	719.51
657.95	714.49
658.29	709.45
658.64	704.21
658.98	698.92
659.32	693.53
659.66	688.36
660.00	682.99
660.34	678.12
660.68	673.19
661.02	668.16
661.36	663.37
661.70	658.86
662.05	654.52
662.39	650.14
662.73	645.61
663.07	641.20
663.41	636.74
663.75	632.25
664.09	627.73
664.43	623.37
664.77	619.30
665.11	615.02
665.45	610.86
665.79	606.77
666.13	602.62
666.47	598.59
666.81	594.40
667.15	590.30
667.49	586.36
667.83	582.66
668.17	578.73
668.51	574.75
668.85	570.77
669.19	566.96
669.53	563.15
669.87	559.34
670.21	555.63
670.55	552.03
670.89	548.64
671.23	545.18
671.57	541.71
671.91	538.15
672.25	534.69
672.58	531.17
672.92	527.81
673.26	524.64
673.60	521.41
673.94	518.33
674.28	515.47
674.62	512.57
674.96	509.36
675.30	506.48
675.64	503.55
675.97	500.76
676.31	497.86
676.65	494.99
676.99	492.29
677.33	489.41
677.67	486.57
678.01	483.48
678.34	480.49
678.68	477.61
679.02	474.83
679.36	472.10
679.70	469.39
680.04	466.62
680.37	463.74
680.71	460.94
681.05	458.32
681.39	455.61
681.73	452.92
682.06	450.43
682.40	447.90
682.74	445.35
683.08	442.80
683.42	440.22
683.75	437.66
684.09	435.15
684.43	432.70
684.77	430.22
685.10	427.84
685.44	425.55
685.78	423.23
686.12	420.94
686.45	418.60
686.79	416.27
687.13	414.04
687.46	411.87
687.80	409.73
688.14	407.52
688.48	405.46
688.81	403.21
689.15	401.02
689.49	398.79
689.82	396.73
690.16	394.58
690.50	392.56
690.83	390.61
691.17	388.56
691.51	386.65
691.84	384.77
692.18	382.83
692.52	380.83
692.85	378.92
693.19	377.01
693.52	375.16
693.86	373.33
694.20	371.58
694.53	369.78
694.87	367.91
695.21	366.07
695.54	364.24
695.88	362.42
696.21	360.66
696.55	359.00
696.88	357.32
697.22	355.68
697.56	354.10
697.89	352.46
698.23	350.82
698.56	349.20
698.90	347.65
699.23	345.98
699.57	344.42
699.90	342.87
700.24	341.37
700.58	339.82
700.91	338.34
701.25	336.85
701.58	335.49
701.92	334.12
702.25	332.76
702.59	331.38
702.92	330.10
703.26	328.79
703.59	327.50
703.93	326.30
704.26	325.08
704.60	323.78
704.93	322.52
705.26	321.33
705.60	320.16
705.93	318.98
706.27	317.95
706.60	316.91
706.94	315.86
707.27	314.74
707.61	313.71
707.94	312.69
708.27	311.61
708.61	310.55
708.94	309.55
709.28	308.53
709.61	307.58
709.94	306.66
710.28	305.69
710.61	304.73
710.95	303.65
711.28	302.70
711.61	301.73
711.95	300.78
712.28	299.81
712.61	298.84
712.95	297.97
713.28	297.12
713.61	296.21
713.95	295.32
714.28	294.49
714.61	293.63
714.95	292.79
715.28	291.92
715.61	291.09
715.95	290.26
716.28	289.45
716.61	288.63
716.95	287.81
717.28	287.07
717.61	286.30
717.94	285.57
718.28	284.79
718.61	284.09
718.94	283.40
719.27	282.76
719.61	282.10
719.94	281.40
720.27	280.67
720.60	280.05
720.94	279.39
721.27	278.76
721.60	278.18
721.93	277.59
722.27	277.07
722.60	276.47
722.93	275.87
723.26	275.31
723.59	274.74
723.93	274.17
724.26	273.57
724.59	273.00
724.92	272.47
725.25	271.98
725.59	271.48
725.92	270.98
726.25	270.47
726.58	269.94
726.91	269.44
727.24	268.99
727.57	268.47
727.91	267.96
728.24	267.50
728.57	267.02
728.90	266.56
729.23	266.06
729.56	265.65
729.89	265.20
730.22	264.71
730.55	264.20
730.89	263.76
731.22	263.31
731.55	262.90
731.88	262.50
732.21	262.04
732.54	261.55
732.87	261.11
733.20	260.69
733.53	260.30
733.86	259.91
734.19	259.47
734.52	259.09
734.85	258.76
735.18	258.36
735.51	258.02
735.84	257.60
736.17	257.27
736.50	256.85
736.83	256.59
737.16	256.26
737.49	255.90
737.82	255.56
738.15	255.26
738.48	254.92
738.81	254.59
739.14	254.29
739.47	253.98
739.80	253.71
740.13	253.41
740.46	253.12
740.79	252.80
741.12	252.52
741.45	252.21
741.78	251.89
742.11	251.61
742.44	251.24
742.77	250.99
743.10	250.69
743.43	250.37
743.75	250.01
744.08	249.85
744.41	249.61
744.74	249.33
745.07	249.05
745.40	248.78
745.73	248.54
746.06	248.24
746.39	247.99
746.71	247.71
747.04	247.45
747.37	247.19
747.70	246.94
748.03	246.73
748.36	246.53
748.68	246.31
749.01	246.04
749.34	245.84
749.67	245.59
750.00	245.40
750.33	245.30
750.65	245.08
750.98	244.77
751.31	244.57
751.64	244.37
751.97	244.25
752.29	244.03
752.62	243.78
752.95	243.59
753.28	243.38
753.60	243.19
753.93	243.07
754.26	242.88
754.59	242.68
754.91	242.49
755.24	242.29
755.57	242.12
755.90	241.98
756.22	241.81
756.55	241.62
756.88	241.41
757.20	241.16
757.53	240.98
757.86	240.81
758.19	240.70
758.51	240.53
758.84	240.28
759.17	240.11
759.49	239.95
759.82	239.85
760.15	239.72
760.47	239.58
760.80	239.36
761.13	239.22
761.45	239.04
761.78	238.88
762.11	238.74
762.43	238.57
762.76	238.43
763.08	238.30
763.41	238.20
763.74	238.07
764.06	237.92
764.39	237.78
764.71	237.64
765.04	237.45
765.37	237.33
765.69	237.21
766.02	237.12
766.34	236.98
766.67	236.79
767.00	236.66
767.32	236.57
767.65	236.49
767.97	236.36
768.30	236.24
768.62	236.11
768.95	235.94
769.27	235.78
769.60	235.65
769.92	235.47
770.25	235.35
770.57	235.22
770.90	235.09
771.22	234.94
771.55	234.86
771.87	234.74
772.20	234.60
772.52	234.56
772.85	234.54
773.17	234.46
773.50	234.36
773.82	234.26
774.15	234.11
774.47	233.98
774.80	233.87
775.12	233.80
775.45	233.70
775.77	233.66
776.09	233.59
776.42	233.48
776.74	233.45
777.07	233.35
777.39	233.29
777.72	233.21
778.04	233.20
778.36	233.09
778.69	233.06
779.01	232.99
779.33	232.84
779.66	232.67
779.98	232.57
780.31	232.54
780.63	232.52
780.95	232.49
781.28	232.43
781.60	232.36
781.92	232.29
782.25	232.24
782.57	232.15
782.89	232.09
783.22	232.05
783.54	231.97
783.86	231.92
784.19	231.86
784.51	231.87
784.83	231.79
785.16	231.76
785.48	231.68
785.80	231.65
786.12	231.63
786.45	231.60
786.77	231.58
787.09	231.50
