SpectraSuite Data File
++++++++++++++++++++++++++++++++++++
Date: Fri Feb 01 18:00:10 EST 2013
User: group
Dark Spectrum Present: No
Reference Spectrum Present: No
Number of Sampled Component Spectra: 1
Spectrometers: USB2E7196
Integration Time (usec): 35000 (USB2E7196)
Spectra Averaged: 100 (USB2E7196)
Boxcar Smoothing: 10 (USB2E7196)
Correct for Electrical Dark: No (USB2E7196)
Strobe/Lamp Enabled: No (USB2E7196)
Correct for Detector Non-linearity: No (USB2E7196)
Correct for Stray Light: No (USB2E7196)
Number of Pixels in Processed Spectrum: 2048
>>>>>Begin Processed Spectral Data<<<<<
339.09	0.00
339.48	212.79
339.86	214.55
340.24	215.77
340.63	216.93
341.01	219.87
341.39	220.10
341.78	221.27
342.16	222.14
342.54	223.03
342.93	211.40
343.31	222.09
343.69	222.64
344.07	223.08
344.46	223.48
344.84	223.88
345.22	224.12
345.60	224.36
345.99	224.54
346.37	224.69
346.75	224.76
347.13	224.84
347.52	224.89
347.90	224.99
348.28	225.00
348.66	225.03
349.05	225.01
349.43	225.02
349.81	225.05
350.19	225.09
350.57	225.17
350.96	225.25
351.34	225.32
351.72	225.42
352.10	225.52
352.48	225.62
352.87	225.68
353.25	225.74
353.63	225.80
354.01	225.82
354.39	225.88
354.77	226.00
355.15	226.08
355.54	226.18
355.92	226.19
356.30	226.26
356.68	226.41
357.06	226.50
357.44	226.57
357.82	226.62
358.20	226.69
358.58	226.71
358.97	226.77
359.35	226.87
359.73	226.95
360.11	226.98
360.49	227.02
360.87	227.05
361.25	227.12
361.63	227.21
362.01	227.29
362.39	227.33
362.77	227.35
363.15	227.37
363.53	227.37
363.91	227.40
364.29	227.41
364.67	227.31
365.05	227.30
365.43	227.28
365.81	227.34
366.19	227.37
366.57	227.40
366.95	227.36
367.33	227.30
367.71	227.26
368.09	227.28
368.47	227.27
368.85	227.27
369.23	227.27
369.61	227.20
369.99	227.21
370.37	227.21
370.75	227.18
371.13	227.17
371.51	227.11
371.89	227.06
372.27	227.02
372.65	227.03
373.03	227.01
373.41	226.97
373.78	226.90
374.16	226.82
374.54	226.74
374.92	226.69
375.30	226.66
375.68	226.60
376.06	226.53
376.44	226.48
376.82	226.41
377.19	226.36
377.57	226.32
377.95	226.24
378.33	226.15
378.71	226.05
379.09	225.98
379.47	225.94
379.84	225.89
380.22	225.87
380.60	225.77
380.98	225.72
381.36	225.70
381.73	225.61
382.11	225.57
382.49	225.53
382.87	225.49
383.25	225.43
383.62	225.51
384.00	225.45
384.38	225.42
384.76	225.39
385.13	225.34
385.51	225.30
385.89	225.23
386.27	225.24
386.64	225.20
387.02	225.17
387.40	225.12
387.78	225.09
388.15	225.06
388.53	225.00
388.91	224.95
389.29	224.91
389.66	224.93
390.04	224.91
390.42	224.91
390.79	224.87
391.17	224.88
391.55	224.74
391.92	224.75
392.30	224.73
392.68	224.72
393.05	224.74
393.43	224.74
393.81	224.76
394.18	224.75
394.56	224.79
394.94	224.85
395.31	224.87
395.69	224.87
396.06	224.90
396.44	224.96
396.82	224.99
397.19	225.05
397.57	225.06
397.95	225.11
398.32	225.11
398.70	225.19
399.07	225.28
399.45	225.35
399.82	225.41
400.20	225.46
400.58	225.55
400.95	225.56
401.33	225.67
401.70	225.81
402.08	225.88
402.45	225.99
402.83	226.08
403.20	226.19
403.58	226.33
403.95	226.48
404.33	226.62
404.71	226.75
405.08	226.96
405.46	227.10
405.83	227.28
406.21	227.46
406.58	227.65
406.96	227.81
407.33	228.00
407.70	228.26
408.08	228.55
408.45	228.80
408.83	229.10
409.20	229.33
409.58	229.57
409.95	229.90
410.33	230.25
410.70	230.57
411.08	230.97
411.45	231.36
411.82	231.72
412.20	232.18
412.57	232.71
412.95	233.11
413.32	233.68
413.69	234.21
414.07	234.80
414.44	235.42
414.82	236.05
415.19	236.77
415.56	237.48
415.94	238.21
416.31	239.04
416.68	239.84
417.06	240.82
417.43	241.72
417.81	242.72
418.18	243.73
418.55	244.88
418.93	246.04
419.30	247.26
419.67	248.54
420.04	249.82
420.42	251.19
420.79	252.73
421.16	254.29
421.54	255.84
421.91	257.49
422.28	259.18
422.66	260.98
423.03	262.73
423.40	264.53
423.77	266.46
424.15	268.40
424.52	270.43
424.89	272.58
425.26	274.67
425.64	276.67
426.01	278.81
426.38	281.02
426.75	283.29
427.13	285.60
427.50	288.03
427.87	290.59
428.24	293.06
428.61	295.44
428.99	297.98
429.36	300.84
429.73	303.60
430.10	306.32
430.47	309.11
430.85	311.99
431.22	314.98
431.59	318.17
431.96	321.17
432.33	324.51
432.70	327.71
433.08	331.53
433.45	335.04
433.82	338.58
434.19	342.46
434.56	346.22
434.93	349.80
435.30	353.32
435.68	357.16
436.05	361.04
436.42	364.80
436.79	368.27
437.16	371.92
437.53	375.75
437.90	379.52
438.27	383.19
438.64	386.99
439.01	390.49
439.38	393.54
439.75	396.45
440.13	399.81
440.50	402.98
440.87	405.41
441.24	408.07
441.61	410.99
441.98	413.02
442.35	415.47
442.72	418.02
443.09	420.50
443.46	421.89
443.83	422.68
444.20	423.40
444.57	424.50
444.94	424.94
445.31	425.39
445.68	425.88
446.05	426.02
446.42	425.58
446.79	425.00
447.16	424.39
447.53	423.97
447.90	422.45
448.27	420.87
448.64	418.79
449.01	417.29
449.37	414.63
449.74	412.13
450.11	409.10
450.48	405.75
450.85	402.37
451.22	399.49
451.59	396.77
451.96	394.15
452.33	390.66
452.70	387.50
453.07	383.73
453.43	379.86
453.80	376.16
454.17	372.52
454.54	369.14
454.91	365.45
455.28	361.90
455.65	358.54
456.02	355.22
456.38	352.35
456.75	348.75
457.12	345.69
457.49	342.66
457.86	339.72
458.23	337.19
458.59	334.37
458.96	331.55
459.33	329.04
459.70	326.54
460.07	324.49
460.43	322.09
460.80	319.84
461.17	317.83
461.54	315.78
461.91	313.86
462.27	311.89
462.64	310.20
463.01	308.36
463.38	306.56
463.74	304.75
464.11	303.13
464.48	301.70
464.85	300.22
465.21	299.00
465.58	297.75
465.95	296.24
466.32	295.04
466.68	293.83
467.05	292.58
467.42	291.34
467.78	290.08
468.15	288.89
468.52	287.97
468.88	286.80
469.25	285.73
469.62	284.84
469.98	283.92
470.35	283.03
470.72	282.16
471.08	281.28
471.45	280.53
471.82	279.76
472.18	278.94
472.55	278.31
472.92	277.55
473.28	276.91
473.65	276.31
474.02	275.61
474.38	275.01
474.75	274.53
475.11	274.04
475.48	273.64
475.85	273.30
476.21	272.96
476.58	272.66
476.94	272.40
477.31	272.09
477.67	271.78
478.04	271.57
478.41	271.43
478.77	271.36
479.14	271.16
479.50	271.09
479.87	271.08
480.23	271.13
480.60	271.13
480.96	271.15
481.33	271.29
481.69	271.49
482.06	271.62
482.42	271.77
482.79	271.97
483.15	272.25
483.52	272.59
483.88	272.90
484.25	273.26
484.61	273.67
484.98	274.09
485.34	274.69
485.71	275.27
486.07	275.87
486.44	276.45
486.80	277.17
487.17	277.93
487.53	278.76
487.90	279.57
488.26	280.55
488.62	281.58
488.99	282.59
489.35	283.63
489.72	284.82
490.08	286.06
490.44	287.35
490.81	288.71
491.17	290.10
491.54	291.63
491.90	293.24
492.26	294.98
492.63	296.80
492.99	298.67
493.36	300.71
493.72	302.84
494.08	305.05
494.45	307.45
494.81	309.95
495.17	312.49
495.54	315.22
495.90	318.08
496.26	321.01
496.63	324.14
496.99	327.45
497.35	330.87
497.72	334.44
498.08	338.16
498.44	342.06
498.80	346.23
499.17	350.54
499.53	354.97
499.89	359.58
500.26	364.32
500.62	369.29
500.98	374.50
501.34	379.95
501.71	385.65
502.07	391.46
502.43	397.45
502.79	403.63
503.16	410.05
503.52	416.66
503.88	423.52
504.24	430.54
504.60	437.88
504.97	445.55
505.33	453.33
505.69	461.54
506.05	469.80
506.41	478.21
506.78	486.84
507.14	495.81
507.50	505.15
507.86	514.87
508.22	524.58
508.59	534.48
508.95	544.65
509.31	555.13
509.67	565.89
510.03	576.87
510.39	588.20
510.75	599.76
511.12	611.51
511.48	623.57
511.84	635.88
512.20	648.25
512.56	660.96
512.92	674.06
513.28	687.27
513.64	700.73
514.00	714.40
514.37	728.40
514.73	742.44
515.09	756.46
515.45	770.77
515.81	785.46
516.17	800.47
516.53	815.71
516.89	830.94
517.25	846.28
517.61	861.92
517.97	877.58
518.33	893.25
518.69	909.29
519.05	925.50
519.41	941.94
519.77	958.77
520.13	975.56
520.49	992.33
520.85	1009.18
521.21	1026.27
521.57	1043.97
521.93	1061.10
522.29	1079.02
522.65	1096.75
523.01	1114.44
523.37	1132.01
523.73	1149.70
524.09	1167.42
524.45	1185.38
524.81	1203.66
525.17	1222.06
525.53	1240.65
525.89	1259.13
526.25	1277.71
526.61	1295.87
526.97	1314.43
527.33	1332.71
527.68	1351.19
528.04	1369.42
528.40	1387.75
528.76	1406.76
529.12	1425.27
529.48	1444.13
529.84	1462.05
530.20	1480.63
530.56	1499.57
530.91	1519.06
531.27	1537.85
531.63	1556.29
531.99	1574.94
532.35	1592.79
532.71	1610.74
533.07	1628.96
533.42	1646.87
533.78	1664.82
534.14	1683.21
534.50	1700.60
534.86	1718.45
535.21	1735.71
535.57	1753.71
535.93	1771.38
536.29	1788.20
536.65	1805.37
537.00	1822.24
537.36	1839.69
537.72	1856.41
538.08	1873.07
538.44	1888.89
538.79	1905.01
539.15	1920.76
539.51	1936.64
539.87	1953.36
540.22	1969.23
540.58	1985.34
540.94	2000.99
541.29	2016.19
541.65	2030.98
542.01	2046.38
542.37	2061.01
542.72	2075.67
543.08	2089.91
543.44	2104.53
543.79	2118.15
544.15	2131.31
544.51	2145.19
544.87	2158.37
545.22	2171.41
545.58	2183.81
545.94	2195.76
546.29	2207.79
546.65	2220.02
547.01	2231.51
547.36	2242.35
547.72	2253.07
548.07	2263.09
548.43	2273.27
548.79	2283.29
549.14	2292.87
549.50	2302.21
549.86	2311.83
550.21	2321.07
550.57	2330.10
550.92	2338.78
551.28	2347.62
551.64	2356.67
551.99	2365.13
552.35	2373.16
552.70	2381.16
553.06	2389.15
553.41	2397.55
553.77	2405.38
554.13	2413.15
554.48	2421.05
554.84	2428.39
555.19	2435.26
555.55	2442.09
555.90	2448.40
556.26	2455.12
556.61	2461.59
556.97	2467.75
557.32	2473.74
557.68	2479.54
558.03	2485.59
558.39	2490.66
558.74	2496.99
559.10	2502.58
559.45	2507.71
559.81	2513.59
560.16	2518.94
560.52	2523.65
560.87	2528.44
561.23	2532.48
561.58	2536.76
561.94	2540.70
562.29	2544.17
562.64	2548.37
563.00	2552.07
563.35	2557.01
563.71	2561.32
564.06	2565.81
564.42	2569.98
564.77	2573.78
565.12	2577.59
565.48	2580.61
565.83	2583.89
566.19	2586.43
566.54	2588.16
566.89	2590.25
567.25	2591.92
567.60	2594.28
567.96	2597.00
568.31	2598.79
568.66	2601.04
569.02	2602.57
569.37	2603.61
569.72	2605.56
570.08	2606.49
570.43	2607.52
570.78	2607.67
571.14	2606.79
571.49	2606.15
571.84	2606.44
572.20	2605.87
572.55	2605.20
572.90	2604.06
573.26	2603.13
573.61	2601.67
573.96	2600.52
574.31	2598.17
574.67	2595.43
575.02	2592.01
575.37	2588.61
575.72	2584.96
576.08	2581.56
576.43	2578.32
576.78	2575.10
577.13	2571.89
577.49	2568.83
577.84	2565.41
578.19	2561.64
578.54	2558.14
578.90	2553.96
579.25	2548.03
579.60	2542.82
579.95	2537.52
580.30	2532.28
580.66	2526.84
581.01	2521.52
581.36	2516.10
581.71	2511.66
582.06	2507.00
582.42	2502.33
582.77	2496.86
583.12	2492.01
583.47	2487.18
583.82	2481.81
584.17	2475.88
584.53	2470.03
584.88	2463.94
585.23	2457.75
585.58	2451.52
585.93	2445.55
586.28	2440.22
586.63	2434.77
586.98	2429.28
587.34	2424.16
587.69	2418.82
588.04	2413.15
588.39	2407.07
588.74	2400.00
589.09	2393.08
589.44	2385.56
589.79	2378.67
590.14	2372.45
590.49	2364.98
590.84	2357.66
591.19	2351.03
591.54	2343.81
591.89	2335.72
592.25	2328.12
592.60	2319.76
592.95	2311.39
593.30	2303.03
593.65	2294.31
594.00	2286.35
594.35	2277.94
594.70	2268.76
595.05	2260.68
595.40	2252.22
595.75	2243.58
596.10	2236.57
596.45	2228.83
596.80	2221.83
597.15	2214.37
597.50	2206.25
597.85	2198.97
598.19	2191.41
598.54	2183.39
598.89	2175.75
599.24	2168.86
599.59	2161.32
599.94	2154.28
600.29	2146.96
600.64	2139.21
600.99	2130.88
601.34	2122.97
601.69	2114.98
602.04	2107.23
602.39	2098.64
602.74	2090.81
603.08	2083.05
603.43	2075.17
603.78	2066.76
604.13	2058.36
604.48	2049.95
604.83	2041.94
605.18	2034.02
605.53	2024.73
605.87	2015.32
606.22	2006.90
606.57	1997.51
606.92	1988.71
607.27	1980.35
607.62	1972.43
607.96	1964.17
608.31	1956.45
608.66	1947.61
609.01	1938.77
609.36	1929.73
609.70	1920.40
610.05	1911.01
610.40	1901.99
610.75	1892.26
611.10	1883.17
611.44	1873.21
611.79	1863.74
612.14	1853.67
612.49	1842.77
612.83	1832.87
613.18	1823.28
613.53	1813.74
613.88	1803.82
614.22	1794.15
614.57	1783.92
614.92	1774.39
615.27	1765.54
615.61	1755.66
615.96	1746.20
616.31	1737.23
616.65	1728.48
617.00	1719.58
617.35	1710.44
617.70	1700.72
618.04	1690.81
618.39	1681.17
618.74	1672.28
619.08	1662.57
619.43	1653.62
619.78	1645.46
620.12	1637.07
620.47	1628.32
620.82	1618.67
621.16	1609.80
621.51	1600.78
621.85	1591.79
622.20	1581.78
622.55	1571.81
622.89	1562.56
623.24	1553.50
623.59	1544.67
623.93	1535.94
624.28	1527.39
624.62	1518.63
624.97	1510.09
625.32	1502.03
625.66	1493.73
626.01	1485.39
626.35	1476.71
626.70	1467.51
627.04	1458.40
627.39	1449.15
627.73	1440.43
628.08	1432.36
628.43	1423.85
628.77	1415.37
629.12	1406.61
629.46	1398.14
629.81	1389.34
630.15	1380.84
630.50	1372.10
630.84	1362.59
631.19	1353.12
631.53	1344.22
631.88	1335.41
632.22	1326.42
632.57	1317.78
632.91	1308.97
633.26	1300.13
633.60	1291.35
633.95	1282.93
634.29	1274.66
634.64	1266.85
634.98	1258.18
635.32	1249.77
635.67	1241.99
636.01	1234.08
636.36	1226.14
636.70	1218.50
637.05	1210.90
637.39	1203.25
637.73	1195.70
638.08	1188.73
638.42	1181.85
638.77	1174.37
639.11	1166.53
639.45	1159.09
639.80	1151.37
640.14	1143.96
640.49	1136.32
640.83	1128.96
641.17	1121.75
641.52	1114.40
641.86	1106.87
642.20	1099.99
642.55	1092.53
642.89	1085.08
643.23	1077.43
643.58	1070.73
643.92	1063.55
644.26	1056.53
644.61	1049.50
644.95	1042.49
645.29	1034.91
645.64	1026.99
645.98	1019.55
646.32	1012.73
646.66	1005.85
647.01	999.08
647.35	992.30
647.69	985.47
648.04	979.02
648.38	972.37
648.72	965.36
649.06	958.44
649.41	951.60
649.75	944.76
650.09	937.84
650.43	931.13
650.78	923.97
651.12	917.00
651.46	910.30
651.80	903.79
652.14	897.59
652.49	891.39
652.83	885.39
653.17	878.86
653.51	872.32
653.85	865.90
654.20	859.41
654.54	852.49
654.88	845.85
655.22	839.04
655.56	832.37
655.90	826.06
656.25	819.91
656.59	813.67
656.93	807.86
657.27	801.88
657.61	795.66
657.95	789.73
658.29	783.91
658.64	777.82
658.98	771.64
659.32	765.24
659.66	759.31
660.00	753.21
660.34	747.42
660.68	741.72
661.02	735.95
661.36	730.47
661.70	725.30
662.05	720.34
662.39	715.43
662.73	710.24
663.07	705.23
663.41	700.07
663.75	694.95
664.09	689.63
664.43	684.53
664.77	679.77
665.11	674.88
665.45	670.07
665.79	665.39
666.13	660.67
666.47	655.96
666.81	651.06
667.15	646.34
667.49	641.87
667.83	637.34
668.17	632.89
668.51	628.20
668.85	623.57
669.19	619.07
669.53	614.53
669.87	610.01
670.21	605.75
670.55	601.59
670.89	597.59
671.23	593.66
671.57	589.62
671.91	585.54
672.25	581.47
672.58	577.41
672.92	573.41
673.26	569.65
673.60	566.02
673.94	562.42
674.28	558.97
674.62	555.56
674.96	552.07
675.30	548.74
675.64	545.35
675.97	542.09
676.31	538.76
676.65	535.43
676.99	532.38
677.33	529.04
677.67	525.76
678.01	522.33
678.34	518.87
678.68	515.53
679.02	512.26
679.36	509.06
679.70	505.96
680.04	502.86
680.37	499.62
680.71	496.35
681.05	493.39
681.39	490.32
681.73	487.20
682.06	484.29
682.40	481.25
682.74	478.38
683.08	475.42
683.42	472.40
683.75	469.55
684.09	466.57
684.43	463.73
684.77	460.91
685.10	458.12
685.44	455.44
685.78	452.75
686.12	450.08
686.45	447.41
686.79	444.69
687.13	442.09
687.46	439.55
687.80	437.03
688.14	434.37
688.48	431.95
688.81	429.40
689.15	426.85
689.49	424.41
689.82	421.91
690.16	419.51
690.50	417.25
690.83	414.92
691.17	412.59
691.51	410.33
691.84	408.15
692.18	405.91
692.52	403.58
692.85	401.31
693.19	399.19
693.52	397.11
693.86	395.03
694.20	392.95
694.53	390.90
694.87	388.75
695.21	386.71
695.54	384.61
695.88	382.60
696.21	380.62
696.55	378.62
696.88	376.69
697.22	374.76
697.56	372.86
697.89	371.01
698.23	369.17
698.56	367.32
698.90	365.49
699.23	363.60
699.57	361.83
699.90	360.05
700.24	358.25
700.58	356.45
700.91	354.70
701.25	353.01
701.58	351.37
701.92	349.76
702.25	348.18
702.59	346.59
702.92	345.04
703.26	343.54
703.59	342.05
703.93	340.67
704.26	339.23
704.60	337.80
704.93	336.30
705.26	334.89
705.60	333.51
705.93	332.20
706.27	331.02
706.60	329.80
706.94	328.55
707.27	327.22
707.61	325.93
707.94	324.74
708.27	323.47
708.61	322.20
708.94	321.05
709.28	319.89
709.61	318.81
709.94	317.72
710.28	316.52
710.61	315.35
710.95	314.09
711.28	313.04
711.61	311.88
711.95	310.80
712.28	309.69
712.61	308.53
712.95	307.37
713.28	306.28
713.61	305.21
713.95	304.19
714.28	303.25
714.61	302.28
714.95	301.29
715.28	300.32
715.61	299.30
715.95	298.27
716.28	297.25
716.61	296.20
716.95	295.23
717.28	294.32
717.61	293.42
717.94	292.56
718.28	291.61
718.61	290.77
718.94	289.96
719.27	289.18
719.61	288.44
719.94	287.70
720.27	286.92
720.60	286.15
720.94	285.44
721.27	284.73
721.60	284.05
721.93	283.36
722.27	282.73
722.60	282.12
722.93	281.48
723.26	280.88
723.59	280.31
723.93	279.67
724.26	279.04
724.59	278.43
724.92	277.81
725.25	277.21
725.59	276.59
725.92	276.00
726.25	275.39
726.58	274.83
726.91	274.27
727.24	273.71
727.57	273.16
727.91	272.57
728.24	271.99
728.57	271.45
728.90	270.90
729.23	270.30
729.56	269.78
729.89	269.28
730.22	268.71
730.55	268.15
730.89	267.67
731.22	267.18
731.55	266.68
731.88	266.24
732.21	265.76
732.54	265.27
732.87	264.78
733.20	264.35
733.53	263.90
733.86	263.43
734.19	262.96
734.52	262.54
734.85	262.14
735.18	261.70
735.51	261.26
735.84	260.85
736.17	260.45
736.50	260.01
736.83	259.71
737.16	259.34
737.49	258.98
737.82	258.57
738.15	258.21
738.48	257.82
738.81	257.42
739.14	257.05
739.47	256.69
739.80	256.30
740.13	255.93
740.46	255.53
740.79	255.19
741.12	254.86
741.45	254.46
741.78	254.09
742.11	253.76
742.44	253.35
742.77	253.01
743.10	252.65
743.43	252.28
743.75	251.83
744.08	251.62
744.41	251.28
744.74	250.95
745.07	250.61
745.40	250.32
745.73	250.02
746.06	249.70
746.39	249.37
746.71	249.05
747.04	248.74
747.37	248.42
747.70	248.10
748.03	247.80
748.36	247.55
748.68	247.30
749.01	247.00
749.34	246.77
749.67	246.49
750.00	246.21
750.33	245.99
750.65	245.74
750.98	245.34
751.31	245.06
751.64	244.79
751.97	244.58
752.29	244.30
752.62	244.01
752.95	243.76
753.28	243.53
753.60	243.32
753.93	243.12
754.26	242.92
754.59	242.67
754.91	242.43
755.24	242.17
755.57	241.92
755.90	241.66
756.22	241.46
756.55	241.21
756.88	241.01
757.20	240.80
757.53	240.60
757.86	240.40
758.19	240.22
758.51	240.07
758.84	239.81
759.17	239.64
759.49	239.46
759.82	239.31
760.15	239.12
760.47	238.95
760.80	238.71
761.13	238.56
761.45	238.39
761.78	238.24
762.11	238.10
762.43	237.94
762.76	237.79
763.08	237.64
763.41	237.52
763.74	237.35
764.06	237.18
764.39	237.04
764.71	236.91
765.04	236.77
765.37	236.60
765.69	236.49
766.02	236.35
766.34	236.21
766.67	236.05
767.00	235.92
767.32	235.84
767.65	235.79
767.97	235.67
768.30	235.61
768.62	235.48
768.95	235.33
769.27	235.21
769.60	235.12
769.92	234.97
770.25	234.86
770.57	234.72
770.90	234.63
771.22	234.48
771.55	234.39
771.87	234.29
772.20	234.20
772.52	234.19
772.85	234.19
773.17	234.09
773.50	234.00
773.82	233.94
774.15	233.80
774.47	233.65
774.80	233.51
775.12	233.40
775.45	233.32
775.77	233.20
776.09	233.13
776.42	233.03
776.74	233.00
777.07	232.91
777.39	232.87
777.72	232.76
778.04	232.68
778.36	232.59
778.69	232.51
779.01	232.44
779.33	232.27
779.66	232.12
779.98	232.07
780.31	231.97
780.63	231.90
780.95	231.87
781.28	231.80
781.60	231.74
781.92	231.66
782.25	231.58
782.57	231.56
782.89	231.50
783.22	231.42
783.54	231.28
783.86	231.23
784.19	231.13
784.51	231.09
784.83	231.02
785.16	230.92
785.48	230.86
785.80	230.79
786.12	230.71
786.45	230.62
