SpectraSuite Data File
++++++++++++++++++++++++++++++++++++
Date: Fri Feb 01 14:50:54 EST 2013
User: group
Dark Spectrum Present: No
Reference Spectrum Present: No
Number of Sampled Component Spectra: 1
Spectrometers: USB2E7196
Integration Time (usec): 35000 (USB2E7196)
Spectra Averaged: 100 (USB2E7196)
Boxcar Smoothing: 10 (USB2E7196)
Correct for Electrical Dark: No (USB2E7196)
Strobe/Lamp Enabled: No (USB2E7196)
Correct for Detector Non-linearity: No (USB2E7196)
Correct for Stray Light: No (USB2E7196)
Number of Pixels in Processed Spectrum: 2048
>>>>>Begin Processed Spectral Data<<<<<
339.09	0.00
339.48	215.81
339.86	217.18
340.24	218.45
340.63	220.34
341.01	223.12
341.39	222.09
341.78	223.79
342.16	224.90
342.54	225.52
342.93	214.06
343.31	224.87
343.69	225.39
344.07	225.89
344.46	226.32
344.84	226.67
345.22	226.89
345.60	227.16
345.99	227.34
346.37	227.49
346.75	227.57
347.13	227.65
347.52	227.68
347.90	227.76
348.28	227.80
348.66	227.82
349.05	227.79
349.43	227.81
349.81	227.82
350.19	227.82
350.57	227.87
350.96	227.94
351.34	228.00
351.72	228.11
352.10	228.16
352.48	228.24
352.87	228.32
353.25	228.39
353.63	228.46
354.01	228.56
354.39	228.61
354.77	228.71
355.15	228.82
355.54	228.91
355.92	228.94
356.30	229.01
356.68	229.14
357.06	229.22
357.44	229.31
357.82	229.40
358.20	229.50
358.58	229.53
358.97	229.63
359.35	229.70
359.73	229.74
360.11	229.77
360.49	229.80
360.87	229.82
361.25	229.88
361.63	229.97
362.01	230.00
362.39	230.07
362.77	230.12
363.15	230.12
363.53	230.13
363.91	230.15
364.29	230.12
364.67	230.05
365.05	230.05
365.43	230.06
365.81	230.07
366.19	230.09
366.57	230.11
366.95	230.09
367.33	230.06
367.71	230.08
368.09	230.09
368.47	230.04
368.85	230.04
369.23	229.99
369.61	229.89
369.99	229.85
370.37	229.81
370.75	229.78
371.13	229.69
371.51	229.64
371.89	229.60
372.27	229.58
372.65	229.52
373.03	229.44
373.41	229.37
373.78	229.33
374.16	229.22
374.54	229.14
374.92	229.03
375.30	228.96
375.68	228.85
376.06	228.81
376.44	228.75
376.82	228.67
377.19	228.60
377.57	228.52
377.95	228.42
378.33	228.35
378.71	228.19
379.09	228.15
379.47	228.09
379.84	227.97
380.22	227.91
380.60	227.82
380.98	227.75
381.36	227.67
381.73	227.57
382.11	227.53
382.49	227.48
382.87	227.40
383.25	227.34
383.62	227.39
384.00	227.31
384.38	227.28
384.76	227.24
385.13	227.21
385.51	227.13
385.89	227.09
386.27	227.02
386.64	226.97
387.02	226.91
387.40	226.87
387.78	226.88
388.15	226.84
388.53	226.81
388.91	226.77
389.29	226.75
389.66	226.75
390.04	226.69
390.42	226.66
390.79	226.68
391.17	226.67
391.55	226.58
391.92	226.56
392.30	226.56
392.68	226.56
393.05	226.57
393.43	226.62
393.81	226.64
394.18	226.65
394.56	226.72
394.94	226.75
395.31	226.74
395.69	226.77
396.06	226.80
396.44	226.85
396.82	226.89
397.19	226.97
397.57	227.00
397.95	227.08
398.32	227.14
398.70	227.20
399.07	227.27
399.45	227.34
399.82	227.40
400.20	227.50
400.58	227.55
400.95	227.60
401.33	227.72
401.70	227.90
402.08	228.02
402.45	228.11
402.83	228.27
403.20	228.42
403.58	228.53
403.95	228.69
404.33	228.83
404.71	228.96
405.08	229.14
405.46	229.27
405.83	229.42
406.21	229.59
406.58	229.75
406.96	229.94
407.33	230.15
407.70	230.34
408.08	230.60
408.45	230.84
408.83	231.11
409.20	231.30
409.58	231.49
409.95	231.75
410.33	232.00
410.70	232.25
411.08	232.56
411.45	232.89
411.82	233.20
412.20	233.53
412.57	233.98
412.95	234.26
413.32	234.68
413.69	235.06
414.07	235.51
414.44	236.02
414.82	236.48
415.19	236.99
415.56	237.53
415.94	238.07
416.31	238.73
416.68	239.34
417.06	240.06
417.43	240.71
417.81	241.46
418.18	242.27
418.55	243.14
418.93	243.99
419.30	244.86
419.67	245.81
420.04	246.79
420.42	247.77
420.79	248.99
421.16	250.15
421.54	251.33
421.91	252.54
422.28	253.78
422.66	255.11
423.03	256.41
423.40	257.72
423.77	259.11
424.15	260.51
424.52	261.95
424.89	263.57
425.26	265.13
425.64	266.59
426.01	268.17
426.38	269.79
426.75	271.43
427.13	273.17
427.50	274.92
427.87	276.75
428.24	278.61
428.61	280.30
428.99	282.22
429.36	284.32
429.73	286.34
430.10	288.34
430.47	290.37
430.85	292.48
431.22	294.79
431.59	297.14
431.96	299.41
432.33	301.90
432.70	304.27
433.08	307.09
433.45	309.70
433.82	312.31
434.19	315.19
434.56	318.00
434.93	320.64
435.30	323.27
435.68	326.21
436.05	329.06
436.42	331.83
436.79	334.39
437.16	337.12
437.53	340.01
437.90	342.82
438.27	345.56
438.64	348.41
439.01	350.95
439.38	353.23
439.75	355.37
440.13	357.86
440.50	360.18
440.87	362.04
441.24	363.99
441.61	366.16
441.98	367.68
442.35	369.50
442.72	371.38
443.09	373.25
443.46	374.24
443.83	374.86
444.20	375.46
444.57	376.27
444.94	376.57
445.31	376.83
445.68	377.20
446.05	377.30
446.42	376.92
446.79	376.52
447.16	376.05
447.53	375.73
447.90	374.56
448.27	373.42
448.64	371.77
449.01	370.64
449.37	368.67
449.74	366.75
450.11	364.51
450.48	362.00
450.85	359.42
451.22	357.25
451.59	355.20
451.96	353.22
452.33	350.59
452.70	348.22
453.07	345.49
453.43	342.60
453.80	339.85
454.17	337.20
454.54	334.67
454.91	331.98
455.28	329.35
455.65	326.92
456.02	324.49
456.38	322.40
456.75	319.73
457.12	317.49
457.49	315.25
457.86	313.10
458.23	311.32
458.59	309.27
458.96	307.17
459.33	305.31
459.70	303.45
460.07	301.99
460.43	300.24
460.80	298.59
461.17	297.12
461.54	295.64
461.91	294.22
462.27	292.77
462.64	291.50
463.01	290.13
463.38	288.80
463.74	287.42
464.11	286.26
464.48	285.25
464.85	284.15
465.21	283.27
465.58	282.37
465.95	281.20
466.32	280.34
466.68	279.49
467.05	278.56
467.42	277.64
467.78	276.69
468.15	275.82
468.52	275.14
468.88	274.30
469.25	273.47
469.62	272.81
469.98	272.14
470.35	271.48
470.72	270.84
471.08	270.15
471.45	269.57
471.82	269.02
472.18	268.38
472.55	267.92
472.92	267.42
473.28	266.92
473.65	266.47
474.02	266.00
474.38	265.55
474.75	265.20
475.11	264.84
475.48	264.57
475.85	264.36
476.21	264.13
476.58	263.89
476.94	263.75
477.31	263.57
477.67	263.39
478.04	263.29
478.41	263.22
478.77	263.26
479.14	263.17
479.50	263.13
479.87	263.24
480.23	263.27
480.60	263.33
480.96	263.39
481.33	263.58
481.69	263.77
482.06	263.99
482.42	264.20
482.79	264.46
483.15	264.74
483.52	265.07
483.88	265.42
484.25	265.80
484.61	266.21
484.98	266.68
485.34	267.26
485.71	267.81
486.07	268.42
486.44	268.99
486.80	269.70
487.17	270.41
487.53	271.18
487.90	271.99
488.26	272.90
488.62	273.88
488.99	274.86
489.35	275.87
489.72	276.95
490.08	278.16
490.44	279.37
490.81	280.68
491.17	281.97
491.54	283.41
491.90	284.91
492.26	286.57
492.63	288.26
492.99	289.93
493.36	291.83
493.72	293.86
494.08	295.93
494.45	298.18
494.81	300.57
495.17	302.99
495.54	305.59
495.90	308.20
496.26	310.96
496.63	313.88
496.99	316.96
497.35	320.22
497.72	323.55
498.08	327.06
498.44	330.73
498.80	334.68
499.17	338.71
499.53	342.84
499.89	347.17
500.26	351.67
500.62	356.39
500.98	361.32
501.34	366.34
501.71	371.67
502.07	377.08
502.43	382.63
502.79	388.41
503.16	394.44
503.52	400.75
503.88	407.18
504.24	413.76
504.60	420.61
504.97	427.64
505.33	434.91
505.69	442.51
506.05	450.27
506.41	458.09
506.78	466.18
507.14	474.62
507.50	483.31
507.86	492.24
508.22	501.32
508.59	510.44
508.95	519.97
509.31	529.70
509.67	539.72
510.03	549.98
510.39	560.51
510.75	571.21
511.12	582.05
511.48	593.23
511.84	604.71
512.20	616.23
512.56	628.18
512.92	640.35
513.28	652.67
513.64	665.09
514.00	677.73
514.37	690.65
514.73	703.70
515.09	716.68
515.45	730.07
515.81	743.66
516.17	757.61
516.53	771.73
516.89	785.94
517.25	800.12
517.61	814.52
517.97	828.99
518.33	843.34
518.69	858.14
519.05	873.17
519.41	888.26
519.77	903.84
520.13	919.28
520.49	934.64
520.85	950.08
521.21	965.81
521.57	982.08
521.93	997.85
522.29	1014.33
522.65	1030.59
523.01	1046.70
523.37	1062.85
523.73	1079.13
524.09	1095.28
524.45	1111.54
524.81	1128.20
525.17	1145.04
525.53	1161.97
525.89	1178.99
526.25	1195.88
526.61	1212.24
526.97	1229.07
527.33	1245.61
527.68	1262.24
528.04	1278.86
528.40	1295.51
528.76	1312.67
529.12	1329.38
529.48	1346.33
529.84	1362.33
530.20	1379.05
530.56	1396.23
530.91	1413.51
531.27	1430.33
531.63	1446.86
531.99	1463.60
532.35	1479.69
532.71	1495.68
533.07	1512.06
533.42	1527.98
533.78	1544.02
534.14	1560.40
534.50	1575.78
534.86	1591.61
535.21	1606.69
535.57	1622.62
535.93	1638.20
536.29	1653.17
536.65	1668.33
537.00	1683.23
537.36	1698.45
537.72	1713.09
538.08	1727.52
538.44	1741.44
538.79	1755.39
539.15	1769.11
539.51	1782.89
539.87	1797.17
540.22	1810.86
540.58	1824.65
540.94	1838.14
541.29	1851.10
541.65	1863.83
542.01	1877.12
542.37	1889.63
542.72	1902.34
543.08	1914.18
543.44	1926.66
543.79	1937.73
544.15	1948.72
544.51	1960.16
544.87	1971.24
545.22	1982.01
545.58	1992.21
545.94	2002.04
546.29	2011.92
546.65	2021.86
547.01	2031.12
547.36	2039.94
547.72	2048.40
548.07	2056.19
548.43	2064.29
548.79	2072.34
549.14	2079.88
549.50	2087.28
549.86	2094.80
550.21	2102.00
550.57	2109.31
550.92	2115.77
551.28	2122.96
551.64	2129.97
551.99	2136.62
552.35	2142.83
552.70	2148.98
553.06	2154.93
553.41	2161.21
553.77	2167.24
554.13	2173.13
554.48	2179.12
554.84	2184.45
555.19	2189.65
555.55	2194.68
555.90	2199.07
556.26	2203.80
556.61	2208.33
556.97	2212.31
557.32	2216.29
557.68	2220.35
558.03	2224.42
558.39	2228.08
558.74	2232.45
559.10	2236.19
559.45	2239.70
559.81	2243.80
560.16	2247.42
560.52	2250.50
560.87	2253.82
561.23	2256.28
561.58	2259.00
561.94	2261.36
562.29	2263.75
562.64	2266.51
563.00	2268.95
563.35	2272.34
563.71	2275.25
564.06	2278.23
564.42	2281.06
564.77	2283.44
565.12	2285.51
565.48	2287.11
565.83	2288.68
566.19	2289.80
566.54	2290.49
566.89	2291.48
567.25	2291.78
567.60	2293.03
567.96	2294.60
568.31	2295.20
568.66	2296.07
569.02	2296.59
569.37	2296.69
569.72	2297.13
570.08	2296.93
570.43	2296.75
570.78	2295.72
571.14	2293.99
571.49	2292.52
571.84	2291.81
572.20	2290.36
572.55	2289.08
572.90	2287.20
573.26	2285.57
573.61	2283.67
573.96	2281.63
574.31	2278.32
574.67	2275.16
575.02	2271.25
575.37	2267.46
575.72	2263.40
576.08	2259.94
576.43	2256.32
576.78	2252.43
577.13	2249.08
577.49	2245.56
577.84	2241.84
578.19	2238.09
578.54	2234.27
578.90	2229.80
579.25	2224.18
579.60	2219.07
579.95	2213.85
580.30	2208.69
580.66	2203.41
581.01	2198.29
581.36	2193.18
581.71	2188.73
582.06	2184.12
582.42	2179.41
582.77	2174.03
583.12	2169.33
583.47	2164.28
583.82	2159.19
584.17	2153.95
584.53	2148.38
584.88	2142.77
585.23	2136.84
585.58	2131.20
585.93	2125.61
586.28	2120.83
586.63	2115.63
586.98	2110.50
587.34	2105.69
587.69	2100.83
588.04	2095.45
588.39	2089.74
588.74	2083.27
589.09	2077.07
589.44	2070.10
589.79	2063.94
590.14	2058.13
590.49	2051.34
590.84	2044.73
591.19	2038.46
591.54	2031.73
591.89	2024.07
592.25	2017.06
592.60	2009.71
592.95	2001.95
593.30	1994.45
593.65	1986.74
594.00	1979.51
594.35	1972.17
594.70	1963.99
595.05	1956.66
595.40	1949.31
595.75	1941.69
596.10	1935.28
596.45	1928.35
596.80	1922.01
597.15	1915.29
597.50	1908.22
597.85	1901.77
598.19	1895.11
598.54	1888.03
598.89	1881.44
599.24	1875.53
599.59	1868.97
599.94	1862.78
600.29	1856.51
600.64	1849.93
600.99	1842.36
601.34	1835.55
601.69	1828.58
602.04	1821.71
602.39	1814.32
602.74	1807.43
603.08	1800.64
603.43	1793.99
603.78	1786.84
604.13	1779.85
604.48	1772.56
604.83	1765.69
605.18	1758.76
605.53	1750.82
605.87	1742.81
606.22	1735.51
606.57	1727.70
606.92	1720.30
607.27	1713.15
607.62	1706.29
607.96	1699.12
608.31	1692.57
608.66	1684.98
609.01	1677.47
609.36	1669.94
609.70	1662.04
610.05	1654.14
610.40	1646.55
610.75	1638.14
611.10	1630.41
611.44	1622.13
611.79	1614.31
612.14	1605.75
612.49	1596.77
612.83	1588.53
613.18	1580.45
613.53	1572.57
613.88	1564.13
614.22	1555.95
614.57	1547.55
614.92	1539.60
615.27	1532.03
615.61	1523.78
615.96	1515.79
616.31	1508.40
616.65	1501.12
617.00	1493.60
617.35	1485.98
617.70	1477.54
618.04	1469.21
618.39	1461.16
618.74	1453.55
619.08	1445.29
619.43	1437.73
619.78	1430.76
620.12	1423.71
620.47	1416.29
620.82	1408.13
621.16	1400.75
621.51	1393.28
621.85	1385.71
622.20	1377.21
622.55	1369.02
622.89	1361.32
623.24	1353.89
623.59	1346.40
623.93	1339.04
624.28	1332.04
624.62	1324.65
624.97	1317.80
625.32	1311.16
625.66	1304.26
626.01	1297.12
626.35	1289.75
626.70	1282.23
627.04	1274.67
627.39	1266.90
627.73	1259.69
628.08	1252.84
628.43	1245.58
628.77	1238.25
629.12	1230.76
629.46	1223.73
629.81	1216.48
630.15	1209.37
630.50	1202.15
630.84	1194.14
631.19	1186.28
631.53	1178.77
631.88	1171.20
632.22	1163.52
632.57	1156.34
632.91	1148.91
633.26	1141.62
633.60	1134.39
633.95	1127.47
634.29	1120.50
634.64	1114.00
634.98	1106.63
635.32	1099.60
635.67	1093.25
636.01	1086.72
636.36	1079.98
636.70	1073.59
637.05	1067.08
637.39	1060.76
637.73	1054.40
638.08	1048.62
638.42	1042.73
638.77	1036.25
639.11	1029.75
639.45	1023.50
639.80	1016.91
640.14	1010.56
640.49	1004.11
640.83	997.84
641.17	991.51
641.52	985.33
641.86	979.00
642.20	973.33
642.55	967.12
642.89	960.65
643.23	954.21
643.58	948.56
643.92	942.36
644.26	936.35
644.61	930.34
644.95	924.24
645.29	917.68
645.64	911.03
645.98	904.88
646.32	899.12
646.66	893.17
647.01	887.52
647.35	881.89
647.69	876.15
648.04	870.71
648.38	865.03
648.72	858.98
649.06	852.95
649.41	847.10
649.75	841.10
650.09	835.26
650.43	829.48
650.78	823.32
651.12	817.41
651.46	811.73
651.80	806.03
652.14	800.74
652.49	795.44
652.83	790.29
653.17	784.65
653.51	778.97
653.85	773.58
654.20	767.92
654.54	761.95
654.88	756.20
655.22	750.40
655.56	744.81
655.90	739.45
656.25	734.22
656.59	728.86
656.93	723.92
657.27	718.79
657.61	713.42
657.95	708.40
658.29	703.41
658.64	698.28
658.98	693.07
659.32	687.61
659.66	682.52
660.00	677.30
660.34	672.43
660.68	667.61
661.02	662.64
661.36	657.99
661.70	653.55
662.05	649.35
662.39	645.02
662.73	640.60
663.07	636.37
663.41	631.98
663.75	627.63
664.09	623.13
664.43	618.79
664.77	614.81
665.11	610.67
665.45	606.62
665.79	602.54
666.13	598.43
666.47	594.43
666.81	590.22
667.15	586.19
667.49	582.38
667.83	578.62
668.17	574.79
668.51	570.82
668.85	566.89
669.19	563.09
669.53	559.35
669.87	555.57
670.21	551.85
670.55	548.30
670.89	544.91
671.23	541.52
671.57	538.08
671.91	534.53
672.25	531.13
672.58	527.72
672.92	524.37
673.26	521.30
673.60	518.19
673.94	515.21
674.28	512.29
674.62	509.40
674.96	506.34
675.30	503.51
675.64	500.61
675.97	497.91
676.31	495.05
676.65	492.18
676.99	489.49
677.33	486.72
677.67	483.92
678.01	480.87
678.34	477.93
678.68	475.06
679.02	472.29
679.36	469.53
679.70	466.85
680.04	464.18
680.37	461.26
680.71	458.51
681.05	455.94
681.39	453.28
681.73	450.66
682.06	448.20
682.40	445.64
682.74	443.13
683.08	440.58
683.42	438.07
683.75	435.62
684.09	433.09
684.43	430.58
684.77	428.15
685.10	425.90
685.44	423.60
685.78	421.44
686.12	419.24
686.45	416.98
686.79	414.67
687.13	412.51
687.46	410.45
687.80	408.31
688.14	406.10
688.48	404.08
688.81	401.80
689.15	399.61
689.49	397.54
689.82	395.49
690.16	393.47
690.50	391.53
690.83	389.59
691.17	387.59
691.51	385.72
691.84	383.87
692.18	381.97
692.52	380.02
692.85	378.03
693.19	376.12
693.52	374.28
693.86	372.50
694.20	370.70
694.53	368.90
694.87	367.10
695.21	365.35
695.54	363.52
695.88	361.82
696.21	360.12
696.55	358.42
696.88	356.73
697.22	355.06
697.56	353.43
697.89	351.78
698.23	350.22
698.56	348.67
698.90	347.08
699.23	345.43
699.57	343.93
699.90	342.41
700.24	340.89
700.58	339.36
700.91	337.89
701.25	336.42
701.58	335.04
701.92	333.68
702.25	332.31
702.59	330.97
702.92	329.69
703.26	328.42
703.59	327.13
703.93	325.96
704.26	324.71
704.60	323.43
704.93	322.18
705.26	320.94
705.60	319.77
705.93	318.64
706.27	317.62
706.60	316.55
706.94	315.50
707.27	314.41
707.61	313.41
707.94	312.39
708.27	311.35
708.61	310.31
708.94	309.34
709.28	308.38
709.61	307.45
709.94	306.51
710.28	305.55
710.61	304.59
710.95	303.57
711.28	302.70
711.61	301.79
711.95	300.92
712.28	300.02
712.61	299.07
712.95	298.16
713.28	297.28
713.61	296.40
713.95	295.55
714.28	294.76
714.61	293.93
714.95	293.13
715.28	292.28
715.61	291.44
715.95	290.61
716.28	289.78
716.61	288.95
716.95	288.14
717.28	287.41
717.61	286.69
717.94	285.97
718.28	285.16
718.61	284.43
718.94	283.72
719.27	283.11
719.61	282.48
719.94	281.86
720.27	281.21
720.60	280.60
720.94	279.96
721.27	279.37
721.60	278.77
721.93	278.18
722.27	277.67
722.60	277.14
722.93	276.58
723.26	276.05
723.59	275.49
723.93	274.95
724.26	274.39
724.59	273.83
724.92	273.36
725.25	272.89
725.59	272.37
725.92	271.86
726.25	271.31
726.58	270.83
726.91	270.33
727.24	269.86
727.57	269.39
727.91	268.90
728.24	268.42
728.57	267.92
728.90	267.47
729.23	266.95
729.56	266.50
729.89	266.03
730.22	265.52
730.55	265.04
730.89	264.60
731.22	264.12
731.55	263.69
731.88	263.21
732.21	262.77
732.54	262.36
732.87	261.95
733.20	261.54
733.53	261.15
733.86	260.77
734.19	260.32
734.52	259.92
734.85	259.62
735.18	259.19
735.51	258.83
735.84	258.46
736.17	258.12
736.50	257.67
736.83	257.39
737.16	257.06
737.49	256.73
737.82	256.38
738.15	256.04
738.48	255.67
738.81	255.31
739.14	254.93
739.47	254.59
739.80	254.25
740.13	253.93
740.46	253.56
740.79	253.20
741.12	252.88
741.45	252.52
741.78	252.13
742.11	251.86
742.44	251.52
742.77	251.22
743.10	250.89
743.43	250.62
743.75	250.23
744.08	250.06
744.41	249.77
744.74	249.50
745.07	249.23
745.40	249.01
745.73	248.84
746.06	248.60
746.39	248.35
746.71	248.08
747.04	247.82
747.37	247.55
747.70	247.33
748.03	247.09
748.36	246.92
748.68	246.74
749.01	246.49
749.34	246.23
749.67	246.01
750.00	245.85
750.33	245.68
750.65	245.49
750.98	245.19
751.31	244.97
751.64	244.78
751.97	244.63
752.29	244.41
752.62	244.12
752.95	243.90
753.28	243.72
753.60	243.51
753.93	243.33
754.26	243.19
754.59	242.98
754.91	242.83
755.24	242.64
755.57	242.43
755.90	242.29
756.22	242.12
756.55	241.94
756.88	241.71
757.20	241.53
757.53	241.38
757.86	241.22
758.19	241.10
758.51	240.96
758.84	240.77
759.17	240.62
759.49	240.53
759.82	240.45
760.15	240.34
760.47	240.22
760.80	240.09
761.13	239.98
761.45	239.86
761.78	239.72
762.11	239.55
762.43	239.43
762.76	239.30
763.08	239.22
763.41	239.15
763.74	239.05
764.06	238.90
764.39	238.79
764.71	238.64
765.04	238.50
765.37	238.37
765.69	238.25
766.02	238.12
766.34	237.97
766.67	237.81
767.00	237.71
767.32	237.63
767.65	237.59
767.97	237.44
768.30	237.31
768.62	237.18
768.95	237.11
769.27	236.98
769.60	236.85
769.92	236.71
770.25	236.52
770.57	236.38
770.90	236.28
771.22	236.15
771.55	236.04
771.87	235.94
772.20	235.80
772.52	235.77
772.85	235.78
773.17	235.66
773.50	235.54
773.82	235.40
774.15	235.28
774.47	235.11
774.80	234.99
775.12	234.85
775.45	234.73
775.77	234.58
776.09	234.50
776.42	234.39
776.74	234.32
777.07	234.24
777.39	234.13
777.72	234.05
778.04	233.96
778.36	233.88
778.69	233.79
779.01	233.71
779.33	233.58
779.66	233.37
779.98	233.25
780.31	233.15
780.63	233.07
780.95	232.98
781.28	232.89
781.60	232.83
781.92	232.80
782.25	232.72
782.57	232.71
782.89	232.66
783.22	232.60
783.54	232.52
783.86	232.43
784.19	232.37
784.51	232.33
784.83	232.26
785.16	232.18
785.48	232.14
785.80	232.09
786.12	232.04
786.45	231.98
786.77	231.97
787.09	231.92
