SpectraSuite Data File
++++++++++++++++++++++++++++++++++++
Date: Fri Feb 01 16:07:29 EST 2013
User: group
Dark Spectrum Present: No
Reference Spectrum Present: No
Number of Sampled Component Spectra: 1
Spectrometers: USB2E7196
Integration Time (usec): 35000 (USB2E7196)
Spectra Averaged: 100 (USB2E7196)
Boxcar Smoothing: 10 (USB2E7196)
Correct for Electrical Dark: No (USB2E7196)
Strobe/Lamp Enabled: No (USB2E7196)
Correct for Detector Non-linearity: No (USB2E7196)
Correct for Stray Light: No (USB2E7196)
Number of Pixels in Processed Spectrum: 2048
>>>>>Begin Processed Spectral Data<<<<<
339.09	0.00
339.48	215.09
339.86	216.82
340.24	217.16
340.63	219.08
341.01	221.14
341.39	221.57
341.78	223.02
342.16	224.45
342.54	224.18
342.93	212.89
343.31	223.64
343.69	224.17
344.07	224.58
344.46	225.01
344.84	225.37
345.22	225.60
345.60	225.84
345.99	226.02
346.37	226.12
346.75	226.23
347.13	226.28
347.52	226.34
347.90	226.40
348.28	226.42
348.66	226.44
349.05	226.45
349.43	226.48
349.81	226.53
350.19	226.55
350.57	226.65
350.96	226.69
351.34	226.79
351.72	226.86
352.10	226.94
352.48	227.02
352.87	227.09
353.25	227.17
353.63	227.21
354.01	227.28
354.39	227.37
354.77	227.43
355.15	227.56
355.54	227.61
355.92	227.66
356.30	227.73
356.68	227.88
357.06	227.98
357.44	228.02
357.82	228.07
358.20	228.12
358.58	228.18
358.97	228.24
359.35	228.33
359.73	228.40
360.11	228.48
360.49	228.51
360.87	228.53
361.25	228.62
361.63	228.72
362.01	228.78
362.39	228.80
362.77	228.87
363.15	228.88
363.53	228.92
363.91	228.95
364.29	229.02
364.67	228.96
365.05	228.95
365.43	229.01
365.81	229.02
366.19	229.10
366.57	229.15
366.95	229.15
367.33	229.10
367.71	229.08
368.09	229.10
368.47	229.10
368.85	229.10
369.23	229.08
369.61	229.02
369.99	229.01
370.37	229.00
370.75	229.01
371.13	228.96
371.51	228.95
371.89	228.92
372.27	228.85
372.65	228.82
373.03	228.79
373.41	228.72
373.78	228.70
374.16	228.60
374.54	228.53
374.92	228.46
375.30	228.42
375.68	228.35
376.06	228.28
376.44	228.23
376.82	228.15
377.19	228.10
377.57	228.04
377.95	227.94
378.33	227.85
378.71	227.75
379.09	227.68
379.47	227.60
379.84	227.54
380.22	227.47
380.60	227.38
380.98	227.29
381.36	227.25
381.73	227.15
382.11	227.10
382.49	227.03
382.87	226.98
383.25	226.91
383.62	226.98
384.00	226.91
384.38	226.85
384.76	226.84
385.13	226.80
385.51	226.77
385.89	226.73
386.27	226.70
386.64	226.66
387.02	226.63
387.40	226.62
387.78	226.57
388.15	226.53
388.53	226.50
388.91	226.48
389.29	226.41
389.66	226.42
390.04	226.39
390.42	226.38
390.79	226.34
391.17	226.31
391.55	226.19
391.92	226.19
392.30	226.20
392.68	226.20
393.05	226.20
393.43	226.18
393.81	226.19
394.18	226.20
394.56	226.18
394.94	226.21
395.31	226.23
395.69	226.30
396.06	226.36
396.44	226.41
396.82	226.41
397.19	226.56
397.57	226.60
397.95	226.64
398.32	226.68
398.70	226.74
399.07	226.83
399.45	226.90
399.82	226.92
400.20	226.95
400.58	227.01
400.95	227.04
401.33	227.12
401.70	227.26
402.08	227.34
402.45	227.45
402.83	227.58
403.20	227.67
403.58	227.76
403.95	227.90
404.33	228.02
404.71	228.17
405.08	228.28
405.46	228.39
405.83	228.51
406.21	228.64
406.58	228.84
406.96	228.98
407.33	229.14
407.70	229.33
408.08	229.61
408.45	229.80
408.83	230.05
409.20	230.30
409.58	230.48
409.95	230.75
410.33	231.00
410.70	231.21
411.08	231.50
411.45	231.80
411.82	232.05
412.20	232.40
412.57	232.80
412.95	233.11
413.32	233.57
413.69	234.01
414.07	234.45
414.44	234.94
414.82	235.44
415.19	236.03
415.56	236.62
415.94	237.20
416.31	237.82
416.68	238.44
417.06	239.12
417.43	239.78
417.81	240.51
418.18	241.31
418.55	242.19
418.93	243.05
419.30	243.95
419.67	244.90
420.04	245.85
420.42	246.86
420.79	248.07
421.16	249.19
421.54	250.40
421.91	251.56
422.28	252.77
422.66	254.10
423.03	255.38
423.40	256.70
423.77	258.08
424.15	259.54
424.52	261.02
424.89	262.66
425.26	264.25
425.64	265.70
426.01	267.28
426.38	268.92
426.75	270.62
427.13	272.34
427.50	274.17
427.87	276.05
428.24	277.86
428.61	279.55
428.99	281.48
429.36	283.56
429.73	285.67
430.10	287.68
430.47	289.74
430.85	291.85
431.22	294.10
431.59	296.47
431.96	298.71
432.33	301.21
432.70	303.54
433.08	306.30
433.45	308.94
433.82	311.53
434.19	314.41
434.56	317.19
434.93	319.78
435.30	322.38
435.68	325.25
436.05	328.08
436.42	330.90
436.79	333.42
437.16	336.11
437.53	338.92
437.90	341.71
438.27	344.46
438.64	347.26
439.01	349.82
439.38	352.03
439.75	354.15
440.13	356.61
440.50	358.98
440.87	360.84
441.24	362.77
441.61	364.94
441.98	366.42
442.35	368.23
442.72	370.11
443.09	371.90
443.46	372.87
443.83	373.44
444.20	373.93
444.57	374.75
444.94	375.02
445.31	375.32
445.68	375.71
446.05	375.73
446.42	375.32
446.79	374.91
447.16	374.46
447.53	374.17
447.90	372.98
448.27	371.83
448.64	370.26
449.01	369.12
449.37	367.16
449.74	365.22
450.11	362.94
450.48	360.43
450.85	357.92
451.22	355.77
451.59	353.75
451.96	351.82
452.33	349.23
452.70	346.87
453.07	344.06
453.43	341.12
453.80	338.40
454.17	335.75
454.54	333.18
454.91	330.44
455.28	327.77
455.65	325.30
456.02	322.81
456.38	320.66
456.75	318.03
457.12	315.80
457.49	313.63
457.86	311.48
458.23	309.67
458.59	307.63
458.96	305.59
459.33	303.74
459.70	301.86
460.07	300.34
460.43	298.64
460.80	297.07
461.17	295.66
461.54	294.17
461.91	292.77
462.27	291.34
462.64	290.11
463.01	288.77
463.38	287.48
463.74	286.12
464.11	284.98
464.48	283.95
464.85	282.80
465.21	281.93
465.58	280.99
465.95	279.90
466.32	279.00
466.68	278.10
467.05	277.24
467.42	276.35
467.78	275.44
468.15	274.58
468.52	273.89
468.88	273.02
469.25	272.25
469.62	271.64
469.98	270.98
470.35	270.37
470.72	269.75
471.08	269.10
471.45	268.58
471.82	268.01
472.18	267.40
472.55	266.99
472.92	266.50
473.28	266.09
473.65	265.63
474.02	265.17
474.38	264.80
474.75	264.46
475.11	264.12
475.48	263.86
475.85	263.65
476.21	263.41
476.58	263.24
476.94	263.09
477.31	262.92
477.67	262.79
478.04	262.65
478.41	262.60
478.77	262.68
479.14	262.63
479.50	262.65
479.87	262.73
480.23	262.80
480.60	262.81
480.96	262.89
481.33	263.10
481.69	263.32
482.06	263.54
482.42	263.78
482.79	264.04
483.15	264.37
483.52	264.73
483.88	265.10
484.25	265.51
484.61	265.92
484.98	266.34
485.34	266.90
485.71	267.49
486.07	268.12
486.44	268.68
486.80	269.36
487.17	270.09
487.53	270.91
487.90	271.76
488.26	272.73
488.62	273.69
488.99	274.69
489.35	275.73
489.72	276.83
490.08	277.99
490.44	279.26
490.81	280.61
491.17	281.93
491.54	283.36
491.90	284.90
492.26	286.58
492.63	288.31
492.99	290.07
493.36	291.96
493.72	294.03
494.08	296.15
494.45	298.39
494.81	300.80
495.17	303.22
495.54	305.83
495.90	308.52
496.26	311.38
496.63	314.31
496.99	317.41
497.35	320.68
497.72	324.12
498.08	327.66
498.44	331.34
498.80	335.31
499.17	339.43
499.53	343.59
499.89	348.00
500.26	352.54
500.62	357.26
500.98	362.25
501.34	367.29
501.71	372.62
502.07	378.13
502.43	383.70
502.79	389.54
503.16	395.62
503.52	401.86
503.88	408.23
504.24	414.89
504.60	421.82
504.97	428.96
505.33	436.25
505.69	443.96
506.05	451.79
506.41	459.67
506.78	467.80
507.14	476.29
507.50	485.04
507.86	494.09
508.22	503.28
508.59	512.52
508.95	522.09
509.31	531.91
509.67	542.02
510.03	552.32
510.39	562.88
510.75	573.64
511.12	584.56
511.48	595.92
511.84	607.42
512.20	618.90
512.56	630.84
512.92	643.08
513.28	655.41
513.64	667.87
514.00	680.61
514.37	693.53
514.73	706.56
515.09	719.54
515.45	732.80
515.81	746.40
516.17	760.35
516.53	774.47
516.89	788.65
517.25	802.85
517.61	817.22
517.97	831.69
518.33	846.16
518.69	860.97
519.05	875.89
519.41	891.07
519.77	906.66
520.13	922.08
520.49	937.40
520.85	952.76
521.21	968.41
521.57	984.62
521.93	1000.39
522.29	1016.78
522.65	1032.99
523.01	1049.12
523.37	1065.13
523.73	1081.33
524.09	1097.39
524.45	1113.63
524.81	1130.12
525.17	1146.91
525.53	1163.70
525.89	1180.35
526.25	1197.23
526.61	1213.59
526.97	1230.23
527.33	1246.54
527.68	1263.01
528.04	1279.42
528.40	1295.86
528.76	1312.87
529.12	1329.44
529.48	1346.20
529.84	1362.11
530.20	1378.59
530.56	1395.53
530.91	1412.78
531.27	1429.48
531.63	1445.94
531.99	1462.59
532.35	1478.55
532.71	1494.37
533.07	1510.51
533.42	1526.53
533.78	1542.35
534.14	1558.60
534.50	1573.84
534.86	1589.85
535.21	1605.00
535.57	1620.95
535.93	1636.39
536.29	1651.03
536.65	1665.99
537.00	1680.84
537.36	1696.10
537.72	1710.63
538.08	1725.00
538.44	1738.73
538.79	1752.41
539.15	1765.84
539.51	1779.40
539.87	1793.69
540.22	1807.26
540.58	1820.79
540.94	1833.88
541.29	1846.70
541.65	1859.25
542.01	1872.31
542.37	1884.39
542.72	1896.76
543.08	1908.43
543.44	1920.70
543.79	1931.92
544.15	1942.84
544.51	1954.24
544.87	1965.09
545.22	1975.90
545.58	1986.19
545.94	1996.05
546.29	2005.87
546.65	2015.77
547.01	2025.08
547.36	2033.71
547.72	2042.30
548.07	2050.36
548.43	2058.61
548.79	2066.52
549.14	2074.07
549.50	2081.46
549.86	2089.10
550.21	2096.50
550.57	2103.57
550.92	2110.30
551.28	2117.34
551.64	2124.46
551.99	2131.01
552.35	2137.20
552.70	2143.30
553.06	2149.20
553.41	2155.50
553.77	2161.51
554.13	2167.66
554.48	2173.70
554.84	2179.18
555.19	2184.45
555.55	2189.64
555.90	2194.12
556.26	2199.22
556.61	2204.02
556.97	2208.46
557.32	2212.67
557.68	2216.80
558.03	2221.04
558.39	2224.69
558.74	2229.37
559.10	2233.14
559.45	2236.88
559.81	2241.13
560.16	2244.98
560.52	2248.18
560.87	2251.48
561.23	2254.16
561.58	2256.99
561.94	2259.57
562.29	2261.94
562.64	2264.60
563.00	2267.11
563.35	2270.67
563.71	2273.80
564.06	2276.77
564.42	2279.54
564.77	2282.05
565.12	2284.45
565.48	2286.39
565.83	2288.31
566.19	2289.48
566.54	2290.39
566.89	2291.43
567.25	2292.12
567.60	2293.35
567.96	2295.18
568.31	2296.10
568.66	2297.22
569.02	2297.80
569.37	2298.02
569.72	2298.90
570.08	2299.24
570.43	2299.29
570.78	2298.67
571.14	2297.15
571.49	2295.90
571.84	2295.61
572.20	2294.47
572.55	2293.20
572.90	2291.64
573.26	2290.22
573.61	2288.69
573.96	2287.01
574.31	2284.10
574.67	2281.10
575.02	2277.59
575.37	2274.13
575.72	2270.35
576.08	2267.03
576.43	2263.70
576.78	2260.13
577.13	2256.85
577.49	2253.53
577.84	2250.07
578.19	2246.27
578.54	2242.57
578.90	2238.52
579.25	2232.92
579.60	2228.02
579.95	2223.20
580.30	2218.21
580.66	2213.06
581.01	2208.01
581.36	2203.13
581.71	2199.05
582.06	2194.71
582.42	2190.28
582.77	2185.05
583.12	2180.55
583.47	2175.93
583.82	2171.19
584.17	2165.97
584.53	2160.60
584.88	2155.04
585.23	2149.22
585.58	2143.85
585.93	2138.31
586.28	2133.44
586.63	2128.38
586.98	2123.36
587.34	2118.62
587.69	2113.79
588.04	2108.66
588.39	2103.03
588.74	2096.50
589.09	2090.28
589.44	2083.49
589.79	2077.33
590.14	2071.78
590.49	2065.31
590.84	2058.78
591.19	2052.59
591.54	2046.18
591.89	2038.88
592.25	2032.11
592.60	2025.14
592.95	2017.71
593.30	2010.47
593.65	2002.83
594.00	1995.78
594.35	1988.49
594.70	1980.23
595.05	1973.15
595.40	1965.90
595.75	1958.41
596.10	1952.28
596.45	1945.62
596.80	1939.50
597.15	1932.90
597.50	1926.04
597.85	1919.46
598.19	1912.96
598.54	1906.06
598.89	1899.34
599.24	1893.47
599.59	1886.91
599.94	1880.62
600.29	1874.14
600.64	1867.61
600.99	1860.23
601.34	1853.53
601.69	1846.60
602.04	1839.94
602.39	1832.55
602.74	1825.64
603.08	1818.96
603.43	1812.33
603.78	1804.99
604.13	1797.75
604.48	1790.59
604.83	1783.46
605.18	1776.57
605.53	1768.57
605.87	1760.37
606.22	1753.08
606.57	1745.02
606.92	1737.63
607.27	1730.53
607.62	1723.75
607.96	1716.57
608.31	1710.06
608.66	1702.36
609.01	1694.92
609.36	1687.36
609.70	1679.30
610.05	1671.31
610.40	1663.63
610.75	1655.16
611.10	1647.42
611.44	1638.92
611.79	1630.79
612.14	1622.06
612.49	1612.88
612.83	1604.51
613.18	1596.43
613.53	1588.40
613.88	1579.94
614.22	1571.63
614.57	1562.95
614.92	1554.94
615.27	1547.32
615.61	1539.01
615.96	1531.08
616.31	1523.28
616.65	1515.88
617.00	1508.38
617.35	1500.65
617.70	1492.48
618.04	1484.01
618.39	1475.86
618.74	1468.35
619.08	1460.10
619.43	1452.62
619.78	1445.79
620.12	1438.61
620.47	1431.05
620.82	1422.95
621.16	1415.47
621.51	1407.90
621.85	1400.30
622.20	1391.78
622.55	1383.42
622.89	1375.59
623.24	1367.85
623.59	1360.53
623.93	1353.05
624.28	1345.87
624.62	1338.48
624.97	1331.17
625.32	1324.20
625.66	1317.09
626.01	1309.86
626.35	1302.54
626.70	1294.84
627.04	1287.14
627.39	1279.31
627.73	1271.99
628.08	1265.01
628.43	1257.76
628.77	1250.39
629.12	1242.84
629.46	1235.59
629.81	1228.09
630.15	1220.86
630.50	1213.56
630.84	1205.36
631.19	1197.49
631.53	1189.98
631.88	1182.36
632.22	1174.75
632.57	1167.62
632.91	1160.24
633.26	1152.90
633.60	1145.46
633.95	1138.26
634.29	1131.14
634.64	1124.49
634.98	1117.17
635.32	1110.01
635.67	1103.38
636.01	1096.81
636.36	1090.07
636.70	1083.53
637.05	1077.00
637.39	1070.56
637.73	1064.09
638.08	1058.23
638.42	1052.26
638.77	1045.80
639.11	1039.30
639.45	1032.94
639.80	1026.36
640.14	1020.02
640.49	1013.49
640.83	1007.19
641.17	1001.06
641.52	994.75
641.86	988.27
642.20	982.38
642.55	976.05
642.89	969.69
643.23	963.03
643.58	957.26
643.92	951.22
644.26	945.17
644.61	938.97
644.95	932.89
645.29	926.33
645.64	919.55
645.98	913.20
646.32	907.27
646.66	901.24
647.01	895.42
647.35	889.57
647.69	883.66
648.04	878.03
648.38	872.20
648.72	866.24
649.06	860.26
649.41	854.33
649.75	848.45
650.09	842.43
650.43	836.68
650.78	830.44
651.12	824.43
651.46	818.75
651.80	813.15
652.14	807.75
652.49	802.32
652.83	797.16
653.17	791.53
653.51	785.80
653.85	780.36
654.20	774.73
654.54	768.73
654.88	762.99
655.22	757.20
655.56	751.49
655.90	745.94
656.25	740.63
656.59	735.29
656.93	730.19
657.27	725.05
657.61	719.64
657.95	714.51
658.29	709.39
658.64	704.11
658.98	698.72
659.32	693.32
659.66	688.09
660.00	682.80
660.34	677.78
660.68	672.84
661.02	667.85
661.36	663.10
661.70	658.57
662.05	654.24
662.39	649.94
662.73	645.39
663.07	641.03
663.41	636.62
663.75	632.09
664.09	627.54
664.43	623.09
664.77	618.97
665.11	614.76
665.45	610.57
665.79	606.49
666.13	602.36
666.47	598.13
666.81	594.04
667.15	589.86
667.49	585.92
667.83	582.09
668.17	578.16
668.51	574.11
668.85	570.13
669.19	566.17
669.53	562.32
669.87	558.58
670.21	554.97
670.55	551.33
670.89	547.93
671.23	544.51
671.57	541.07
671.91	537.54
672.25	534.03
672.58	530.55
672.92	527.19
673.26	524.07
673.60	521.02
673.94	517.88
674.28	515.00
674.62	512.13
674.96	509.05
675.30	506.16
675.64	503.24
675.97	500.44
676.31	497.66
676.65	494.76
676.99	492.04
677.33	489.17
677.67	486.39
678.01	483.42
678.34	480.43
678.68	477.54
679.02	474.77
679.36	472.00
679.70	469.31
680.04	466.49
680.37	463.60
680.71	460.77
681.05	458.12
681.39	455.41
681.73	452.75
682.06	450.26
682.40	447.68
682.74	445.13
683.08	442.59
683.42	439.99
683.75	437.47
684.09	434.88
684.43	432.42
684.77	429.93
685.10	427.53
685.44	425.24
685.78	422.94
686.12	420.63
686.45	418.33
686.79	416.00
687.13	413.81
687.46	411.64
687.80	409.48
688.14	407.23
688.48	405.16
688.81	402.93
689.15	400.74
689.49	398.62
689.82	396.57
690.16	394.52
690.50	392.54
690.83	390.59
691.17	388.63
691.51	386.70
691.84	384.84
692.18	382.93
692.52	380.92
692.85	378.96
693.19	377.12
693.52	375.31
693.86	373.48
694.20	371.69
694.53	369.92
694.87	368.03
695.21	366.27
695.54	364.41
695.88	362.65
696.21	360.91
696.55	359.21
696.88	357.48
697.22	355.78
697.56	354.15
697.89	352.46
698.23	350.83
698.56	349.14
698.90	347.55
699.23	345.92
699.57	344.38
699.90	342.84
700.24	341.28
700.58	339.79
700.91	338.32
701.25	336.88
701.58	335.53
701.92	334.22
702.25	332.86
702.59	331.55
702.92	330.24
703.26	328.97
703.59	327.63
703.93	326.46
704.26	325.25
704.60	323.95
704.93	322.69
705.26	321.46
705.60	320.28
705.93	319.13
706.27	318.08
706.60	317.01
706.94	315.94
707.27	314.82
707.61	313.71
707.94	312.68
708.27	311.57
708.61	310.45
708.94	309.41
709.28	308.43
709.61	307.43
709.94	306.47
710.28	305.40
710.61	304.45
710.95	303.33
711.28	302.37
711.61	301.41
711.95	300.52
712.28	299.55
712.61	298.59
712.95	297.66
713.28	296.75
713.61	295.84
713.95	294.95
714.28	294.10
714.61	293.23
714.95	292.39
715.28	291.56
715.61	290.71
715.95	289.85
716.28	288.99
716.61	288.17
716.95	287.32
717.28	286.58
717.61	285.83
717.94	285.16
718.28	284.34
718.61	283.65
718.94	282.97
719.27	282.36
719.61	281.72
719.94	281.07
720.27	280.40
720.60	279.75
720.94	279.14
721.27	278.55
721.60	277.96
721.93	277.36
722.27	276.81
722.60	276.27
722.93	275.74
723.26	275.25
723.59	274.72
723.93	274.19
724.26	273.67
724.59	273.13
724.92	272.60
725.25	272.15
725.59	271.61
725.92	271.08
726.25	270.55
726.58	270.08
726.91	269.58
727.24	269.08
727.57	268.64
727.91	268.11
728.24	267.67
728.57	267.20
728.90	266.76
729.23	266.27
729.56	265.85
729.89	265.36
730.22	264.85
730.55	264.38
730.89	263.95
731.22	263.51
731.55	263.05
731.88	262.60
732.21	262.14
732.54	261.73
732.87	261.30
733.20	260.92
733.53	260.52
733.86	260.13
734.19	259.73
734.52	259.33
734.85	259.05
735.18	258.59
735.51	258.22
735.84	257.82
736.17	257.46
736.50	257.04
736.83	256.78
737.16	256.45
737.49	256.10
737.82	255.78
738.15	255.45
738.48	255.11
738.81	254.79
739.14	254.45
739.47	254.15
739.80	253.84
740.13	253.50
740.46	253.16
740.79	252.85
741.12	252.55
741.45	252.23
741.78	251.85
742.11	251.57
742.44	251.23
742.77	250.94
743.10	250.61
743.43	250.30
743.75	249.91
744.08	249.76
744.41	249.46
744.74	249.14
745.07	248.85
745.40	248.58
745.73	248.32
746.06	248.05
746.39	247.78
746.71	247.48
747.04	247.22
747.37	246.94
747.70	246.69
748.03	246.42
748.36	246.19
748.68	245.94
749.01	245.69
749.34	245.48
749.67	245.23
750.00	245.03
750.33	244.90
750.65	244.72
750.98	244.33
751.31	244.13
751.64	243.92
751.97	243.74
752.29	243.53
752.62	243.30
752.95	243.11
753.28	242.91
753.60	242.74
753.93	242.55
754.26	242.35
754.59	242.14
754.91	241.96
755.24	241.75
755.57	241.56
755.90	241.41
756.22	241.21
756.55	240.99
756.88	240.81
757.20	240.54
757.53	240.32
757.86	240.20
758.19	240.01
758.51	239.83
758.84	239.62
759.17	239.46
759.49	239.29
759.82	239.18
760.15	239.01
760.47	238.83
760.80	238.65
761.13	238.55
761.45	238.38
761.78	238.22
762.11	238.10
762.43	238.00
762.76	237.83
763.08	237.70
763.41	237.61
763.74	237.49
764.06	237.35
764.39	237.24
764.71	237.06
765.04	236.97
765.37	236.86
765.69	236.78
766.02	236.70
766.34	236.60
766.67	236.41
767.00	236.33
767.32	236.30
767.65	236.27
767.97	236.13
768.30	236.07
768.62	235.98
768.95	235.87
769.27	235.73
769.60	235.65
769.92	235.55
770.25	235.46
770.57	235.32
770.90	235.25
771.22	235.17
771.55	235.09
771.87	235.01
772.20	234.91
772.52	234.89
772.85	234.86
773.17	234.76
773.50	234.70
773.82	234.55
774.15	234.41
774.47	234.25
774.80	234.20
775.12	234.07
775.45	233.98
775.77	233.86
776.09	233.83
776.42	233.70
776.74	233.64
777.07	233.57
777.39	233.49
777.72	233.39
778.04	233.32
778.36	233.26
778.69	233.15
779.01	233.10
779.33	232.90
779.66	232.76
779.98	232.71
780.31	232.64
780.63	232.65
780.95	232.60
781.28	232.53
781.60	232.44
781.92	232.41
782.25	232.35
782.57	232.27
782.89	232.18
783.22	232.16
783.54	232.10
783.86	232.04
784.19	231.98
784.51	231.94
784.83	231.90
785.16	231.82
785.48	231.76
785.80	231.68
786.12	231.67
786.45	231.62
786.77	231.55
787.09	231.47
