SpectraSuite Data File
++++++++++++++++++++++++++++++++++++
Date: Fri Feb 01 18:08:43 EST 2013
User: group
Dark Spectrum Present: No
Reference Spectrum Present: No
Number of Sampled Component Spectra: 1
Spectrometers: USB2E7196
Integration Time (usec): 35000 (USB2E7196)
Spectra Averaged: 100 (USB2E7196)
Boxcar Smoothing: 10 (USB2E7196)
Correct for Electrical Dark: No (USB2E7196)
Strobe/Lamp Enabled: No (USB2E7196)
Correct for Detector Non-linearity: No (USB2E7196)
Correct for Stray Light: No (USB2E7196)
Number of Pixels in Processed Spectrum: 2048
>>>>>Begin Processed Spectral Data<<<<<
339.09	0.00
339.48	212.67
339.86	214.71
340.24	216.14
340.63	217.34
341.01	220.46
341.39	220.36
341.78	221.36
342.16	222.87
342.54	222.86
342.93	211.71
343.31	222.39
343.69	222.94
344.07	223.41
344.46	223.83
344.84	224.21
345.22	224.44
345.60	224.70
345.99	224.89
346.37	225.02
346.75	225.15
347.13	225.24
347.52	225.30
347.90	225.35
348.28	225.37
348.66	225.41
349.05	225.41
349.43	225.43
349.81	225.45
350.19	225.47
350.57	225.52
350.96	225.60
351.34	225.71
351.72	225.82
352.10	225.89
352.48	225.96
352.87	226.01
353.25	226.09
353.63	226.11
354.01	226.17
354.39	226.23
354.77	226.27
355.15	226.34
355.54	226.39
355.92	226.43
356.30	226.50
356.68	226.58
357.06	226.63
357.44	226.68
357.82	226.76
358.20	226.84
358.58	226.91
358.97	226.99
359.35	227.03
359.73	227.10
360.11	227.12
360.49	227.19
360.87	227.27
361.25	227.32
361.63	227.38
362.01	227.43
362.39	227.45
362.77	227.51
363.15	227.54
363.53	227.56
363.91	227.58
364.29	227.60
364.67	227.53
365.05	227.56
365.43	227.60
365.81	227.61
366.19	227.66
366.57	227.69
366.95	227.66
367.33	227.68
367.71	227.64
368.09	227.66
368.47	227.65
368.85	227.59
369.23	227.57
369.61	227.57
369.99	227.57
370.37	227.56
370.75	227.58
371.13	227.53
371.51	227.46
371.89	227.41
372.27	227.38
372.65	227.36
373.03	227.29
373.41	227.22
373.78	227.16
374.16	227.05
374.54	226.96
374.92	226.90
375.30	226.82
375.68	226.75
376.06	226.75
376.44	226.67
376.82	226.63
377.19	226.59
377.57	226.51
377.95	226.45
378.33	226.39
378.71	226.29
379.09	226.26
379.47	226.23
379.84	226.19
380.22	226.13
380.60	226.06
380.98	226.03
381.36	225.97
381.73	225.92
382.11	225.88
382.49	225.84
382.87	225.81
383.25	225.76
383.62	225.83
384.00	225.73
384.38	225.73
384.76	225.71
385.13	225.69
385.51	225.64
385.89	225.57
386.27	225.56
386.64	225.51
387.02	225.44
387.40	225.43
387.78	225.38
388.15	225.34
388.53	225.33
388.91	225.31
389.29	225.28
389.66	225.27
390.04	225.24
390.42	225.21
390.79	225.16
391.17	225.15
391.55	225.04
391.92	225.03
392.30	225.00
392.68	224.98
393.05	224.96
393.43	224.98
393.81	224.98
394.18	224.96
394.56	224.98
394.94	225.04
395.31	225.02
395.69	225.09
396.06	225.14
396.44	225.18
396.82	225.16
397.19	225.26
397.57	225.28
397.95	225.37
398.32	225.41
398.70	225.47
399.07	225.56
399.45	225.61
399.82	225.65
400.20	225.71
400.58	225.78
400.95	225.79
401.33	225.88
401.70	226.01
402.08	226.10
402.45	226.18
402.83	226.31
403.20	226.42
403.58	226.54
403.95	226.64
404.33	226.78
404.71	226.95
405.08	227.12
405.46	227.29
405.83	227.43
406.21	227.61
406.58	227.81
406.96	227.95
407.33	228.17
407.70	228.43
408.08	228.74
408.45	228.96
408.83	229.23
409.20	229.49
409.58	229.74
409.95	230.06
410.33	230.40
410.70	230.72
411.08	231.11
411.45	231.49
411.82	231.91
412.20	232.37
412.57	232.90
412.95	233.29
413.32	233.83
413.69	234.36
414.07	234.97
414.44	235.61
414.82	236.28
415.19	237.03
415.56	237.77
415.94	238.57
416.31	239.48
416.68	240.37
417.06	241.34
417.43	242.28
417.81	243.37
418.18	244.45
418.55	245.62
418.93	246.83
419.30	248.08
419.67	249.39
420.04	250.71
420.42	252.06
420.79	253.68
421.16	255.27
421.54	256.91
421.91	258.56
422.28	260.28
422.66	262.10
423.03	263.87
423.40	265.73
423.77	267.61
424.15	269.56
424.52	271.63
424.89	273.87
425.26	276.03
425.64	278.02
426.01	280.21
426.38	282.49
426.75	284.82
427.13	287.25
427.50	289.75
427.87	292.39
428.24	295.02
428.61	297.53
428.99	300.23
429.36	303.21
429.73	306.10
430.10	308.93
430.47	311.82
430.85	314.78
431.22	317.93
431.59	321.25
431.96	324.39
432.33	327.82
432.70	331.10
433.08	334.99
433.45	338.68
433.82	342.34
434.19	346.37
434.56	350.19
434.93	353.82
435.30	357.43
435.68	361.41
436.05	365.38
436.42	369.28
436.79	372.79
437.16	376.47
437.53	380.42
437.90	384.33
438.27	388.16
438.64	392.14
439.01	395.71
439.38	398.88
439.75	401.95
440.13	405.45
440.50	408.72
440.87	411.30
441.24	414.02
441.61	417.02
441.98	419.12
442.35	421.67
442.72	424.32
443.09	426.87
443.46	428.27
443.83	429.03
444.20	429.67
444.57	430.85
444.94	431.31
445.31	431.73
445.68	432.17
446.05	432.27
446.42	431.69
446.79	431.11
447.16	430.48
447.53	430.01
447.90	428.38
448.27	426.74
448.64	424.52
449.01	422.93
449.37	420.15
449.74	417.48
450.11	414.36
450.48	410.90
450.85	407.35
451.22	404.36
451.59	401.56
451.96	398.86
452.33	395.17
452.70	391.89
453.07	387.96
453.43	383.93
453.80	380.08
454.17	376.37
454.54	372.80
454.91	368.99
455.28	365.23
455.65	361.80
456.02	358.33
456.38	355.36
456.75	351.61
457.12	348.52
457.49	345.37
457.86	342.35
458.23	339.74
458.59	336.89
458.96	333.98
459.33	331.37
459.70	328.79
460.07	326.66
460.43	324.28
460.80	321.99
461.17	319.98
461.54	317.85
461.91	315.81
462.27	313.79
462.64	312.07
463.01	310.19
463.38	308.33
463.74	306.48
464.11	304.81
464.48	303.38
464.85	301.77
465.21	300.57
465.58	299.26
465.95	297.71
466.32	296.41
466.68	295.13
467.05	293.89
467.42	292.62
467.78	291.36
468.15	290.10
468.52	289.18
468.88	287.99
469.25	286.96
469.62	286.10
469.98	285.14
470.35	284.22
470.72	283.37
471.08	282.47
471.45	281.71
471.82	280.98
472.18	280.17
472.55	279.55
472.92	278.81
473.28	278.15
473.65	277.56
474.02	276.94
474.38	276.44
474.75	275.97
475.11	275.44
475.48	275.06
475.85	274.72
476.21	274.35
476.58	274.05
476.94	273.78
477.31	273.51
477.67	273.29
478.04	273.08
478.41	272.96
478.77	272.92
479.14	272.75
479.50	272.68
479.87	272.69
480.23	272.71
480.60	272.71
480.96	272.74
481.33	272.87
481.69	273.02
482.06	273.14
482.42	273.27
482.79	273.46
483.15	273.70
483.52	274.07
483.88	274.39
484.25	274.73
484.61	275.13
484.98	275.58
485.34	276.13
485.71	276.72
486.07	277.31
486.44	277.88
486.80	278.58
487.17	279.31
487.53	280.14
487.90	281.00
488.26	281.99
488.62	283.01
488.99	284.00
489.35	285.11
489.72	286.27
490.08	287.53
490.44	288.84
490.81	290.27
491.17	291.64
491.54	293.21
491.90	294.83
492.26	296.58
492.63	298.38
492.99	300.25
493.36	302.23
493.72	304.39
494.08	306.60
494.45	308.99
494.81	311.48
495.17	314.08
495.54	316.82
495.90	319.68
496.26	322.67
496.63	325.84
496.99	329.14
497.35	332.63
497.72	336.27
498.08	340.02
498.44	343.88
498.80	348.07
499.17	352.37
499.53	356.84
499.89	361.53
500.26	366.32
500.62	371.29
500.98	376.59
501.34	381.98
501.71	387.66
502.07	393.50
502.43	399.51
502.79	405.70
503.16	412.18
503.52	418.88
503.88	425.75
504.24	432.87
504.60	440.21
504.97	447.85
505.33	455.69
505.69	464.01
506.05	472.45
506.41	480.88
506.78	489.64
507.14	498.79
507.50	508.12
507.86	517.84
508.22	527.76
508.59	537.69
508.95	548.00
509.31	558.56
509.67	569.52
510.03	580.67
510.39	592.08
510.75	603.75
511.12	615.53
511.48	627.76
511.84	640.16
512.20	652.60
512.56	665.48
512.92	678.70
513.28	692.06
513.64	705.61
514.00	719.45
514.37	733.57
514.73	747.75
515.09	762.01
515.45	776.50
515.81	791.34
516.17	806.58
516.53	822.07
516.89	837.62
517.25	853.08
517.61	868.89
517.97	884.73
518.33	900.67
518.69	916.85
519.05	933.28
519.41	949.92
519.77	967.09
520.13	984.26
520.49	1001.20
520.85	1018.21
521.21	1035.47
521.57	1053.46
521.93	1070.87
522.29	1089.01
522.65	1106.95
523.01	1124.97
523.37	1142.81
523.73	1160.91
524.09	1178.85
524.45	1196.89
524.81	1215.48
525.17	1234.06
525.53	1252.95
525.89	1271.70
526.25	1290.56
526.61	1308.91
526.97	1327.76
527.33	1346.16
527.68	1364.66
528.04	1383.20
528.40	1401.74
528.76	1421.00
529.12	1439.62
529.48	1458.72
529.84	1476.67
530.20	1495.52
530.56	1514.63
530.91	1534.33
531.27	1553.33
531.63	1571.98
531.99	1590.92
532.35	1609.09
532.71	1627.50
533.07	1646.05
533.42	1664.30
533.78	1682.79
534.14	1701.57
534.50	1719.14
534.86	1737.51
535.21	1755.15
535.57	1773.38
535.93	1791.31
536.29	1808.48
536.65	1825.97
537.00	1842.95
537.36	1860.79
537.72	1877.71
538.08	1894.58
538.44	1910.71
538.79	1926.99
539.15	1943.00
539.51	1959.06
539.87	1975.93
540.22	1992.01
540.58	2008.27
540.94	2023.84
541.29	2039.02
541.65	2054.18
542.01	2069.91
542.37	2084.71
542.72	2099.48
543.08	2113.90
543.44	2128.97
543.79	2142.60
544.15	2156.00
544.51	2170.23
544.87	2183.65
545.22	2196.95
545.58	2209.60
545.94	2221.70
546.29	2233.85
546.65	2246.16
547.01	2257.88
547.36	2268.83
547.72	2279.62
548.07	2289.70
548.43	2300.11
548.79	2310.41
549.14	2320.07
549.50	2329.52
549.86	2339.23
550.21	2348.73
550.57	2358.09
550.92	2366.60
551.28	2375.81
551.64	2385.06
551.99	2393.62
552.35	2401.85
552.70	2409.87
553.06	2417.87
553.41	2426.24
553.77	2434.28
554.13	2442.36
554.48	2450.59
554.84	2458.29
555.19	2465.26
555.55	2472.39
555.90	2478.84
556.26	2485.68
556.61	2492.25
556.97	2498.60
557.32	2504.51
557.68	2510.51
558.03	2516.48
558.39	2521.98
558.74	2528.40
559.10	2534.02
559.45	2539.38
559.81	2545.33
560.16	2550.91
560.52	2555.84
560.87	2560.85
561.23	2564.95
561.58	2569.36
561.94	2573.30
562.29	2576.85
562.64	2581.12
563.00	2585.12
563.35	2590.09
563.71	2594.70
564.06	2599.38
564.42	2603.66
564.77	2607.62
565.12	2611.25
565.48	2614.41
565.83	2617.51
566.19	2620.18
566.54	2622.03
566.89	2624.15
567.25	2625.91
567.60	2628.33
567.96	2631.26
568.31	2633.16
568.66	2635.41
569.02	2637.04
569.37	2638.48
569.72	2640.40
570.08	2641.54
570.43	2642.27
570.78	2642.69
571.14	2641.72
571.49	2640.87
571.84	2641.04
572.20	2640.56
572.55	2640.06
572.90	2638.91
573.26	2638.08
573.61	2636.57
573.96	2635.44
574.31	2632.99
574.67	2630.20
575.02	2626.52
575.37	2623.07
575.72	2619.27
576.08	2615.78
576.43	2612.40
576.78	2608.81
577.13	2605.57
577.49	2602.37
577.84	2598.96
578.19	2594.95
578.54	2591.29
578.90	2586.94
579.25	2580.97
579.60	2575.76
579.95	2570.39
580.30	2565.05
580.66	2559.53
581.01	2554.22
581.36	2548.76
581.71	2544.26
582.06	2539.57
582.42	2534.94
582.77	2529.55
583.12	2524.77
583.47	2519.91
583.82	2514.56
584.17	2508.68
584.53	2502.80
584.88	2496.65
585.23	2490.39
585.58	2484.34
585.93	2478.24
586.28	2472.94
586.63	2467.50
586.98	2461.95
587.34	2456.70
587.69	2451.38
588.04	2445.50
588.39	2439.21
588.74	2431.88
589.09	2424.82
589.44	2417.00
589.79	2410.08
590.14	2403.52
590.49	2395.95
590.84	2388.64
591.19	2381.81
591.54	2374.26
591.89	2365.87
592.25	2358.28
592.60	2349.95
592.95	2341.45
593.30	2333.06
593.65	2324.32
594.00	2316.24
594.35	2307.71
594.70	2298.52
595.05	2290.24
595.40	2281.78
595.75	2273.02
596.10	2266.09
596.45	2258.36
596.80	2251.36
597.15	2243.78
597.50	2235.69
597.85	2228.17
598.19	2220.55
598.54	2212.38
598.89	2204.75
599.24	2197.75
599.59	2189.88
599.94	2182.65
600.29	2175.14
600.64	2167.40
600.99	2158.78
601.34	2150.84
601.69	2142.73
602.04	2134.69
602.39	2126.03
602.74	2118.08
603.08	2110.20
603.43	2102.19
603.78	2093.56
604.13	2085.06
604.48	2076.52
604.83	2068.24
605.18	2060.18
605.53	2050.78
605.87	2041.18
606.22	2032.52
606.57	2023.05
606.92	2014.23
607.27	2005.78
607.62	1997.55
607.96	1988.96
608.31	1981.18
608.66	1972.07
609.01	1963.25
609.36	1954.28
609.70	1944.78
610.05	1935.24
610.40	1926.17
610.75	1916.19
611.10	1907.10
611.44	1896.95
611.79	1887.30
612.14	1877.00
612.49	1865.96
612.83	1855.83
613.18	1846.16
613.53	1836.44
613.88	1826.38
614.22	1816.55
614.57	1806.16
614.92	1796.61
615.27	1787.74
615.61	1777.81
615.96	1768.20
616.31	1758.98
616.65	1750.11
617.00	1741.09
617.35	1731.81
617.70	1722.01
618.04	1711.93
618.39	1702.09
618.74	1693.12
619.08	1683.35
619.43	1674.36
619.78	1666.13
620.12	1657.74
620.47	1648.91
620.82	1639.22
621.16	1630.24
621.51	1621.09
621.85	1611.90
622.20	1601.62
622.55	1591.49
622.89	1582.03
623.24	1572.83
623.59	1563.80
623.93	1554.73
624.28	1546.06
624.62	1537.08
624.97	1528.33
625.32	1520.20
625.66	1511.76
626.01	1503.22
626.35	1494.30
626.70	1485.00
627.04	1475.86
627.39	1466.38
627.73	1457.41
628.08	1449.24
628.43	1440.66
628.77	1432.01
629.12	1423.11
629.46	1414.69
629.81	1405.76
630.15	1397.10
630.50	1388.35
630.84	1378.68
631.19	1369.24
631.53	1360.24
631.88	1351.19
632.22	1342.20
632.57	1333.53
632.91	1324.50
633.26	1315.69
633.60	1306.84
633.95	1298.30
634.29	1289.76
634.64	1281.79
634.98	1273.15
635.32	1264.56
635.67	1256.56
636.01	1248.57
636.36	1240.54
636.70	1232.61
637.05	1224.90
637.39	1217.22
637.73	1209.44
638.08	1202.45
638.42	1195.33
638.77	1187.69
639.11	1179.99
639.45	1172.38
639.80	1164.36
640.14	1156.81
640.49	1149.06
640.83	1141.64
641.17	1134.30
641.52	1126.83
641.86	1119.14
642.20	1112.10
642.55	1104.62
642.89	1096.98
643.23	1089.18
643.58	1082.30
643.92	1075.11
644.26	1068.02
644.61	1060.79
644.95	1053.69
645.29	1045.99
645.64	1038.08
645.98	1030.56
646.32	1023.52
646.66	1016.39
647.01	1009.66
647.35	1002.97
647.69	996.02
648.04	989.41
648.38	982.54
648.72	975.51
649.06	968.53
649.41	961.60
649.75	954.68
650.09	947.67
650.43	940.91
650.78	933.69
651.12	926.68
651.46	919.92
651.80	913.23
652.14	906.87
652.49	900.57
652.83	894.49
653.17	887.92
653.51	881.26
653.85	874.86
654.20	868.29
654.54	861.17
654.88	854.46
655.22	847.61
655.56	840.94
655.90	834.60
656.25	828.44
656.59	822.14
656.93	816.11
657.27	810.15
657.61	803.83
657.95	797.83
658.29	791.86
658.64	785.56
658.98	779.43
659.32	773.04
659.66	766.95
660.00	760.72
660.34	754.86
660.68	749.17
661.02	743.36
661.36	737.77
661.70	732.54
662.05	727.37
662.39	722.27
662.73	717.04
663.07	711.94
663.41	706.71
663.75	701.47
664.09	696.11
664.43	690.94
664.77	686.16
665.11	681.10
665.45	676.24
665.79	671.50
666.13	666.65
666.47	661.86
666.81	656.97
667.15	652.15
667.49	647.57
667.83	643.02
668.17	638.40
668.51	633.69
668.85	628.91
669.19	624.42
669.53	620.07
669.87	615.60
670.21	611.19
670.55	606.86
670.89	602.89
671.23	598.91
671.57	594.79
671.91	590.58
672.25	586.51
672.58	582.31
672.92	578.31
673.26	574.54
673.60	570.84
673.94	567.18
674.28	563.78
674.62	560.33
674.96	556.71
675.30	553.26
675.64	549.86
675.97	546.65
676.31	543.30
676.65	539.87
676.99	536.71
677.33	533.31
677.67	530.06
678.01	526.50
678.34	523.03
678.68	519.70
679.02	516.49
679.36	513.27
679.70	510.21
680.04	507.02
680.37	503.76
680.71	500.49
681.05	497.42
681.39	494.25
681.73	491.15
682.06	488.24
682.40	485.32
682.74	482.29
683.08	479.32
683.42	476.27
683.75	473.28
684.09	470.23
684.43	467.36
684.77	464.50
685.10	461.70
685.44	458.95
685.78	456.22
686.12	453.50
686.45	450.81
686.79	448.04
687.13	445.42
687.46	442.85
687.80	440.32
688.14	437.68
688.48	435.27
688.81	432.65
689.15	430.10
689.49	427.53
689.82	425.08
690.16	422.60
690.50	420.28
690.83	418.02
691.17	415.67
691.51	413.45
691.84	411.22
692.18	408.98
692.52	406.66
692.85	404.34
693.19	402.13
693.52	399.96
693.86	397.83
694.20	395.71
694.53	393.56
694.87	391.32
695.21	389.23
695.54	387.06
695.88	384.98
696.21	382.96
696.55	380.94
696.88	378.95
697.22	376.96
697.56	375.02
697.89	373.06
698.23	371.19
698.56	369.27
698.90	367.40
699.23	365.46
699.57	363.64
699.90	361.88
700.24	360.08
700.58	358.31
700.91	356.51
701.25	354.81
701.58	353.20
701.92	351.62
702.25	350.06
702.59	348.47
702.92	346.92
703.26	345.34
703.59	343.86
703.93	342.45
704.26	341.06
704.60	339.62
704.93	338.11
705.26	336.66
705.60	335.29
705.93	333.93
706.27	332.74
706.60	331.47
706.94	330.18
707.27	328.85
707.61	327.60
707.94	326.43
708.27	325.19
708.61	323.91
708.94	322.71
709.28	321.50
709.61	320.40
709.94	319.29
710.28	318.13
710.61	316.98
710.95	315.73
711.28	314.61
711.61	313.47
711.95	312.44
712.28	311.33
712.61	310.21
712.95	309.08
713.28	308.00
713.61	306.99
713.95	305.97
714.28	304.97
714.61	303.97
714.95	303.00
715.28	302.00
715.61	300.97
715.95	299.99
716.28	299.02
716.61	298.00
716.95	297.01
717.28	296.17
717.61	295.27
717.94	294.42
718.28	293.48
718.61	292.59
718.94	291.78
719.27	290.98
719.61	290.18
719.94	289.44
720.27	288.62
720.60	287.82
720.94	287.05
721.27	286.34
721.60	285.60
721.93	284.90
722.27	284.22
722.60	283.60
722.93	282.94
723.26	282.31
723.59	281.66
723.93	281.03
724.26	280.34
724.59	279.66
724.92	279.01
725.25	278.43
725.59	277.84
725.92	277.18
726.25	276.56
726.58	276.00
726.91	275.41
727.24	274.84
727.57	274.29
727.91	273.74
728.24	273.16
728.57	272.59
728.90	272.00
729.23	271.42
729.56	270.89
729.89	270.30
730.22	269.68
730.55	269.10
730.89	268.55
731.22	268.01
731.55	267.51
731.88	267.00
732.21	266.47
732.54	265.93
732.87	265.43
733.20	264.95
733.53	264.51
733.86	264.04
734.19	263.57
734.52	263.09
734.85	262.67
735.18	262.18
735.51	261.78
735.84	261.36
736.17	260.96
736.50	260.50
736.83	260.19
737.16	259.80
737.49	259.41
737.82	259.01
738.15	258.61
738.48	258.21
738.81	257.83
739.14	257.43
739.47	257.10
739.80	256.74
740.13	256.41
740.46	256.00
740.79	255.60
741.12	255.22
741.45	254.89
741.78	254.48
742.11	254.18
742.44	253.74
742.77	253.38
743.10	253.02
743.43	252.64
743.75	252.19
744.08	252.02
744.41	251.71
744.74	251.41
745.07	251.09
745.40	250.80
745.73	250.54
746.06	250.26
746.39	249.97
746.71	249.67
747.04	249.33
747.37	249.03
747.70	248.76
748.03	248.49
748.36	248.20
748.68	247.95
749.01	247.65
749.34	247.43
749.67	247.18
750.00	246.96
750.33	246.82
750.65	246.60
750.98	246.20
751.31	245.97
751.64	245.71
751.97	245.50
752.29	245.24
752.62	244.91
752.95	244.67
753.28	244.39
753.60	244.18
753.93	243.98
754.26	243.77
754.59	243.54
754.91	243.27
755.24	243.04
755.57	242.84
755.90	242.60
756.22	242.39
756.55	242.14
756.88	241.87
757.20	241.59
757.53	241.33
757.86	241.14
758.19	240.92
758.51	240.73
758.84	240.50
759.17	240.31
759.49	240.11
759.82	239.97
760.15	239.76
760.47	239.57
760.80	239.36
761.13	239.20
761.45	239.00
761.78	238.86
762.11	238.69
762.43	238.51
762.76	238.35
763.08	238.18
763.41	238.04
763.74	237.90
764.06	237.72
764.39	237.60
764.71	237.45
765.04	237.29
765.37	237.12
765.69	236.95
766.02	236.79
766.34	236.67
766.67	236.48
767.00	236.39
767.32	236.28
767.65	236.22
767.97	236.04
768.30	235.93
768.62	235.77
768.95	235.64
769.27	235.46
769.60	235.36
769.92	235.21
770.25	235.04
770.57	234.91
770.90	234.79
771.22	234.64
771.55	234.50
771.87	234.39
772.20	234.26
772.52	234.25
772.85	234.26
773.17	234.14
773.50	234.02
773.82	233.84
774.15	233.66
774.47	233.44
774.80	233.36
775.12	233.23
775.45	233.12
775.77	232.98
776.09	232.90
776.42	232.78
776.74	232.71
777.07	232.62
777.39	232.50
777.72	232.37
778.04	232.31
778.36	232.22
778.69	232.13
779.01	232.05
779.33	231.88
779.66	231.69
779.98	231.59
780.31	231.51
780.63	231.53
780.95	231.48
781.28	231.43
781.60	231.33
781.92	231.30
782.25	231.20
782.57	231.15
782.89	231.08
783.22	231.00
783.54	230.93
783.86	230.91
784.19	230.86
784.51	230.85
784.83	230.74
785.16	230.68
785.48	230.64
785.80	230.57
786.12	230.51
786.45	230.46
