SpectraSuite Data File
++++++++++++++++++++++++++++++++++++
Date: Fri Feb 01 15:19:50 EST 2013
User: group
Dark Spectrum Present: No
Reference Spectrum Present: No
Number of Sampled Component Spectra: 1
Spectrometers: USB2E7196
Integration Time (usec): 35000 (USB2E7196)
Spectra Averaged: 100 (USB2E7196)
Boxcar Smoothing: 10 (USB2E7196)
Correct for Electrical Dark: No (USB2E7196)
Strobe/Lamp Enabled: No (USB2E7196)
Correct for Detector Non-linearity: No (USB2E7196)
Correct for Stray Light: No (USB2E7196)
Number of Pixels in Processed Spectrum: 2048
>>>>>Begin Processed Spectral Data<<<<<
339.09	0.00
339.48	215.54
339.86	216.12
340.24	218.05
340.63	219.22
341.01	222.52
341.39	222.11
341.78	223.00
342.16	224.10
342.54	224.80
342.93	213.21
343.31	223.99
343.69	224.49
344.07	224.97
344.46	225.35
344.84	225.74
345.22	225.95
345.60	226.20
345.99	226.40
346.37	226.55
346.75	226.65
347.13	226.71
347.52	226.77
347.90	226.85
348.28	226.91
348.66	226.94
349.05	226.98
349.43	227.07
349.81	227.10
350.19	227.17
350.57	227.24
350.96	227.30
351.34	227.38
351.72	227.48
352.10	227.59
352.48	227.69
352.87	227.75
353.25	227.79
353.63	227.84
354.01	227.89
354.39	227.97
354.77	228.07
355.15	228.19
355.54	228.26
355.92	228.30
356.30	228.40
356.68	228.52
357.06	228.59
357.44	228.60
357.82	228.70
358.20	228.76
358.58	228.82
358.97	228.92
359.35	228.98
359.73	229.08
360.11	229.13
360.49	229.16
360.87	229.18
361.25	229.27
361.63	229.34
362.01	229.42
362.39	229.44
362.77	229.48
363.15	229.50
363.53	229.51
363.91	229.56
364.29	229.56
364.67	229.49
365.05	229.51
365.43	229.53
365.81	229.54
366.19	229.58
366.57	229.62
366.95	229.64
367.33	229.63
367.71	229.57
368.09	229.59
368.47	229.58
368.85	229.56
369.23	229.53
369.61	229.48
369.99	229.46
370.37	229.44
370.75	229.44
371.13	229.40
371.51	229.33
371.89	229.27
372.27	229.22
372.65	229.21
373.03	229.17
373.41	229.11
373.78	229.04
374.16	228.93
374.54	228.84
374.92	228.73
375.30	228.66
375.68	228.62
376.06	228.54
376.44	228.48
376.82	228.42
377.19	228.36
377.57	228.28
377.95	228.16
378.33	228.06
378.71	227.95
379.09	227.86
379.47	227.81
379.84	227.73
380.22	227.61
380.60	227.50
380.98	227.37
381.36	227.31
381.73	227.20
382.11	227.15
382.49	227.05
382.87	226.98
383.25	226.92
383.62	226.94
384.00	226.86
384.38	226.79
384.76	226.76
385.13	226.75
385.51	226.69
385.89	226.62
386.27	226.58
386.64	226.52
387.02	226.48
387.40	226.40
387.78	226.37
388.15	226.35
388.53	226.33
388.91	226.32
389.29	226.30
389.66	226.30
390.04	226.26
390.42	226.29
390.79	226.28
391.17	226.29
391.55	226.17
391.92	226.16
392.30	226.19
392.68	226.18
393.05	226.16
393.43	226.16
393.81	226.18
394.18	226.20
394.56	226.23
394.94	226.27
395.31	226.33
395.69	226.39
396.06	226.44
396.44	226.47
396.82	226.51
397.19	226.57
397.57	226.62
397.95	226.69
398.32	226.74
398.70	226.82
399.07	226.85
399.45	226.96
399.82	227.04
400.20	227.08
400.58	227.14
400.95	227.20
401.33	227.35
401.70	227.53
402.08	227.66
402.45	227.75
402.83	227.88
403.20	227.98
403.58	228.10
403.95	228.25
404.33	228.43
404.71	228.58
405.08	228.75
405.46	228.92
405.83	229.08
406.21	229.19
406.58	229.34
406.96	229.56
407.33	229.72
407.70	229.92
408.08	230.18
408.45	230.46
408.83	230.70
409.20	230.91
409.58	231.09
409.95	231.33
410.33	231.66
410.70	231.91
411.08	232.22
411.45	232.52
411.82	232.81
412.20	233.13
412.57	233.57
412.95	233.87
413.32	234.28
413.69	234.69
414.07	235.16
414.44	235.65
414.82	236.12
415.19	236.67
415.56	237.24
415.94	237.81
416.31	238.39
416.68	239.00
417.06	239.74
417.43	240.43
417.81	241.20
418.18	241.96
418.55	242.80
418.93	243.68
419.30	244.58
419.67	245.54
420.04	246.52
420.42	247.51
420.79	248.68
421.16	249.82
421.54	251.03
421.91	252.24
422.28	253.50
422.66	254.81
423.03	256.09
423.40	257.43
423.77	258.85
424.15	260.35
424.52	261.86
424.89	263.50
425.26	265.00
425.64	266.40
426.01	267.94
426.38	269.61
426.75	271.32
427.13	273.04
427.50	274.84
427.87	276.72
428.24	278.56
428.61	280.33
428.99	282.27
429.36	284.35
429.73	286.43
430.10	288.40
430.47	290.46
430.85	292.57
431.22	294.75
431.59	297.09
431.96	299.29
432.33	301.76
432.70	304.10
433.08	306.97
433.45	309.64
433.82	312.26
434.19	315.14
434.56	317.93
434.93	320.54
435.30	323.16
435.68	326.05
436.05	328.90
436.42	331.71
436.79	334.24
437.16	336.93
437.53	339.76
437.90	342.61
438.27	345.41
438.64	348.29
439.01	350.90
439.38	353.16
439.75	355.35
440.13	357.90
440.50	360.21
440.87	362.07
441.24	364.04
441.61	366.23
441.98	367.70
442.35	369.48
442.72	371.41
443.09	373.25
443.46	374.24
443.83	374.80
444.20	375.25
444.57	376.08
444.94	376.40
445.31	376.71
445.68	377.07
446.05	377.07
446.42	376.71
446.79	376.30
447.16	375.81
447.53	375.43
447.90	374.21
448.27	373.03
448.64	371.43
449.01	370.27
449.37	368.28
449.74	366.36
450.11	364.12
450.48	361.64
450.85	359.08
451.22	356.91
451.59	354.90
451.96	352.96
452.33	350.37
452.70	347.97
453.07	345.17
453.43	342.27
453.80	339.53
454.17	336.81
454.54	334.27
454.91	331.57
455.28	328.92
455.65	326.44
456.02	324.00
456.38	321.85
456.75	319.15
457.12	316.89
457.49	314.73
457.86	312.55
458.23	310.66
458.59	308.61
458.96	306.54
459.33	304.70
459.70	302.85
460.07	301.37
460.43	299.66
460.80	298.03
461.17	296.59
461.54	295.12
461.91	293.70
462.27	292.25
462.64	290.97
463.01	289.61
463.38	288.28
463.74	286.93
464.11	285.78
464.48	284.75
464.85	283.68
465.21	282.80
465.58	281.91
465.95	280.77
466.32	279.84
466.68	278.92
467.05	278.00
467.42	277.15
467.78	276.17
468.15	275.28
468.52	274.58
468.88	273.71
469.25	272.93
469.62	272.28
469.98	271.61
470.35	270.97
470.72	270.40
471.08	269.77
471.45	269.20
471.82	268.66
472.18	268.09
472.55	267.64
472.92	267.06
473.28	266.55
473.65	266.11
474.02	265.71
474.38	265.34
474.75	264.99
475.11	264.57
475.48	264.31
475.85	264.07
476.21	263.88
476.58	263.69
476.94	263.52
477.31	263.34
477.67	263.16
478.04	263.03
478.41	262.92
478.77	262.94
479.14	262.87
479.50	262.85
479.87	262.87
480.23	262.93
480.60	263.02
480.96	263.12
481.33	263.35
481.69	263.51
482.06	263.67
482.42	263.85
482.79	264.12
483.15	264.44
483.52	264.80
483.88	265.12
484.25	265.49
484.61	265.88
484.98	266.33
485.34	266.92
485.71	267.51
486.07	268.13
486.44	268.70
486.80	269.42
487.17	270.12
487.53	270.97
487.90	271.83
488.26	272.71
488.62	273.70
488.99	274.66
489.35	275.70
489.72	276.84
490.08	278.09
490.44	279.31
490.81	280.62
491.17	281.97
491.54	283.43
491.90	284.96
492.26	286.59
492.63	288.36
492.99	290.10
493.36	292.00
493.72	294.03
494.08	296.14
494.45	298.37
494.81	300.70
495.17	303.09
495.54	305.65
495.90	308.30
496.26	311.13
496.63	314.06
496.99	317.16
497.35	320.45
497.72	323.85
498.08	327.39
498.44	331.07
498.80	335.01
499.17	339.07
499.53	343.25
499.89	347.66
500.26	352.14
500.62	356.82
500.98	361.80
501.34	366.88
501.71	372.24
502.07	377.66
502.43	383.32
502.79	389.19
503.16	395.24
503.52	401.60
503.88	407.97
504.24	414.61
504.60	421.59
504.97	428.70
505.33	436.01
505.69	443.69
506.05	451.48
506.41	459.38
506.78	467.50
507.14	476.00
507.50	484.69
507.86	493.65
508.22	502.87
508.59	512.06
508.95	521.65
509.31	531.44
509.67	541.54
510.03	551.84
510.39	562.36
510.75	573.19
511.12	584.17
511.48	595.49
511.84	606.95
512.20	618.43
512.56	630.42
512.92	642.63
513.28	654.91
513.64	667.41
514.00	680.14
514.37	693.22
514.73	706.28
515.09	719.35
515.45	732.78
515.81	746.30
516.17	760.33
516.53	774.50
516.89	788.75
517.25	802.96
517.61	817.38
517.97	831.87
518.33	846.36
518.69	861.13
519.05	876.21
519.41	891.47
519.77	907.04
520.13	922.48
520.49	937.81
520.85	953.41
521.21	969.13
521.57	985.33
521.93	1001.15
522.29	1017.61
522.65	1033.95
523.01	1050.14
523.37	1066.32
523.73	1082.51
524.09	1098.56
524.45	1114.86
524.81	1131.59
525.17	1148.55
525.53	1165.48
525.89	1182.39
526.25	1199.26
526.61	1215.64
526.97	1232.39
527.33	1248.89
527.68	1265.53
528.04	1282.12
528.40	1298.76
528.76	1315.93
529.12	1332.52
529.48	1349.46
529.84	1365.55
530.20	1382.28
530.56	1399.47
530.91	1416.89
531.27	1433.74
531.63	1450.34
531.99	1466.99
532.35	1483.01
532.71	1498.79
533.07	1515.20
533.42	1531.21
533.78	1547.29
534.14	1563.57
534.50	1578.95
534.86	1595.00
535.21	1610.24
535.57	1626.25
535.93	1641.84
536.29	1656.72
536.65	1671.99
537.00	1686.83
537.36	1702.16
537.72	1716.78
538.08	1731.19
538.44	1745.10
538.79	1759.15
539.15	1773.02
539.51	1786.85
539.87	1801.27
540.22	1815.22
540.58	1829.08
540.94	1842.44
541.29	1855.44
541.65	1868.45
542.01	1881.88
542.37	1894.24
542.72	1906.82
543.08	1918.62
543.44	1931.14
543.79	1942.34
544.15	1953.35
544.51	1964.80
544.87	1975.76
545.22	1986.61
545.58	1996.86
545.94	2006.73
546.29	2016.77
546.65	2026.55
547.01	2035.82
547.36	2044.63
547.72	2053.09
548.07	2060.96
548.43	2069.24
548.79	2077.42
549.14	2084.73
549.50	2092.04
549.86	2099.81
550.21	2107.25
550.57	2114.58
550.92	2121.09
551.28	2128.28
551.64	2135.39
551.99	2142.01
552.35	2148.21
552.70	2154.29
553.06	2160.15
553.41	2166.53
553.77	2172.45
554.13	2178.55
554.48	2184.79
554.84	2190.17
555.19	2195.57
555.55	2200.75
555.90	2205.14
556.26	2209.83
556.61	2214.55
556.97	2218.67
557.32	2222.76
557.68	2226.71
558.03	2231.03
558.39	2234.86
558.74	2239.39
559.10	2243.21
559.45	2246.75
559.81	2251.10
560.16	2254.89
560.52	2258.31
560.87	2261.71
561.23	2264.23
561.58	2267.23
561.94	2269.55
562.29	2271.96
562.64	2274.58
563.00	2277.07
563.35	2280.59
563.71	2283.85
564.06	2287.14
564.42	2290.09
564.77	2292.49
565.12	2294.73
565.48	2296.46
565.83	2298.15
566.19	2299.45
566.54	2300.53
566.89	2301.85
567.25	2302.34
567.60	2303.74
567.96	2305.27
568.31	2306.08
568.66	2307.18
569.02	2307.62
569.37	2308.05
569.72	2308.68
570.08	2308.76
570.43	2308.73
570.78	2308.00
571.14	2306.34
571.49	2304.95
571.84	2304.62
572.20	2303.29
572.55	2302.20
572.90	2300.58
573.26	2299.05
573.61	2297.27
573.96	2295.20
574.31	2292.06
574.67	2288.90
575.02	2285.08
575.37	2281.65
575.72	2277.44
576.08	2273.94
576.43	2270.51
576.78	2266.56
577.13	2263.57
577.49	2260.35
577.84	2256.79
578.19	2253.00
578.54	2249.21
578.90	2244.74
579.25	2239.05
579.60	2234.02
579.95	2228.99
580.30	2223.85
580.66	2218.60
581.01	2213.60
581.36	2208.65
581.71	2204.34
582.06	2199.94
582.42	2195.43
582.77	2190.01
583.12	2185.44
583.47	2180.68
583.82	2175.61
584.17	2170.32
584.53	2164.58
584.88	2158.81
585.23	2152.87
585.58	2147.51
585.93	2141.97
586.28	2137.20
586.63	2132.03
586.98	2126.95
587.34	2122.25
587.69	2117.33
588.04	2112.06
588.39	2106.31
588.74	2099.93
589.09	2093.70
589.44	2086.70
589.79	2080.53
590.14	2074.90
590.49	2068.42
590.84	2062.00
591.19	2055.88
591.54	2049.40
591.89	2041.86
592.25	2035.13
592.60	2027.91
592.95	2019.96
593.30	2012.50
593.65	2004.88
594.00	1997.70
594.35	1990.39
594.70	1982.18
595.05	1974.84
595.40	1967.64
595.75	1960.02
596.10	1953.44
596.45	1946.60
596.80	1940.42
597.15	1933.79
597.50	1926.75
597.85	1920.23
598.19	1913.41
598.54	1906.15
598.89	1899.50
599.24	1893.67
599.59	1886.66
599.94	1880.43
600.29	1874.24
600.64	1867.79
600.99	1860.30
601.34	1853.37
601.69	1846.27
602.04	1839.18
602.39	1831.81
602.74	1824.82
603.08	1818.03
603.43	1811.35
603.78	1804.04
604.13	1796.83
604.48	1789.37
604.83	1782.46
605.18	1775.39
605.53	1767.32
605.87	1759.39
606.22	1752.27
606.57	1744.29
606.92	1737.14
607.27	1729.84
607.62	1722.86
607.96	1715.37
608.31	1708.55
608.66	1701.01
609.01	1693.55
609.36	1686.02
609.70	1677.95
610.05	1669.73
610.40	1661.96
610.75	1653.68
611.10	1646.04
611.44	1637.75
611.79	1629.91
612.14	1620.99
612.49	1611.84
612.83	1603.58
613.18	1595.39
613.53	1587.10
613.88	1578.63
614.22	1570.33
614.57	1561.79
614.92	1553.60
615.27	1545.99
615.61	1537.71
615.96	1529.71
616.31	1522.05
616.65	1514.67
617.00	1507.18
617.35	1499.61
617.70	1491.24
618.04	1482.64
618.39	1474.40
618.74	1466.69
619.08	1458.30
619.43	1450.78
619.78	1443.88
620.12	1436.53
620.47	1428.94
620.82	1420.80
621.16	1413.24
621.51	1405.62
621.85	1398.00
622.20	1389.61
622.55	1381.34
622.89	1373.49
623.24	1365.84
623.59	1358.53
623.93	1351.01
624.28	1343.77
624.62	1336.19
624.97	1329.00
625.32	1322.34
625.66	1315.30
626.01	1308.00
626.35	1300.60
626.70	1293.03
627.04	1285.27
627.39	1277.59
627.73	1270.27
628.08	1263.38
628.43	1256.08
628.77	1248.72
629.12	1241.13
629.46	1233.91
629.81	1226.53
630.15	1219.35
630.50	1211.97
630.84	1203.79
631.19	1195.91
631.53	1188.40
631.88	1180.88
632.22	1173.27
632.57	1165.93
632.91	1158.40
633.26	1151.04
633.60	1143.70
633.95	1136.57
634.29	1129.62
634.64	1122.90
634.98	1115.55
635.32	1108.40
635.67	1101.89
636.01	1095.20
636.36	1088.43
636.70	1081.98
637.05	1075.42
637.39	1069.03
637.73	1062.50
638.08	1056.63
638.42	1050.69
638.77	1044.25
639.11	1037.68
639.45	1031.41
639.80	1024.82
640.14	1018.35
640.49	1011.80
640.83	1005.46
641.17	999.16
641.52	992.87
641.86	986.58
642.20	980.81
642.55	974.50
642.89	967.94
643.23	961.48
643.58	955.70
643.92	949.45
644.26	943.31
644.61	937.35
644.95	931.35
645.29	924.65
645.64	917.90
645.98	911.62
646.32	905.82
646.66	899.74
647.01	893.86
647.35	888.24
647.69	882.49
648.04	877.08
648.38	871.31
648.72	865.25
649.06	859.16
649.41	853.25
649.75	847.22
650.09	841.31
650.43	835.50
650.78	829.33
651.12	823.41
651.46	817.73
651.80	811.91
652.14	806.57
652.49	801.32
652.83	796.08
653.17	790.37
653.51	784.58
653.85	779.20
654.20	773.57
654.54	767.54
654.88	761.85
655.22	755.88
655.56	750.17
655.90	744.78
656.25	739.51
656.59	734.16
656.93	729.19
657.27	724.07
657.61	718.64
657.95	713.61
658.29	708.54
658.64	703.32
658.98	698.00
659.32	692.44
659.66	687.17
660.00	681.94
660.34	676.97
660.68	672.10
661.02	667.11
661.36	662.38
661.70	657.91
662.05	653.49
662.39	649.17
662.73	644.73
663.07	640.39
663.41	635.87
663.75	631.37
664.09	626.76
664.43	622.38
664.77	618.25
665.11	613.96
665.45	609.81
665.79	605.68
666.13	601.59
666.47	597.56
666.81	593.37
667.15	589.19
667.49	585.27
667.83	581.48
668.17	577.54
668.51	573.51
668.85	569.47
669.19	565.66
669.53	561.80
669.87	557.88
670.21	554.15
670.55	550.59
670.89	547.16
671.23	543.79
671.57	540.25
671.91	536.69
672.25	533.19
672.58	529.72
672.92	526.34
673.26	523.22
673.60	520.12
673.94	517.08
674.28	514.26
674.62	511.35
674.96	508.25
675.30	505.35
675.64	502.42
675.97	499.69
676.31	496.78
676.65	493.87
676.99	491.22
677.33	488.32
677.67	485.48
678.01	482.45
678.34	479.45
678.68	476.65
679.02	473.90
679.36	471.17
679.70	468.46
680.04	465.73
680.37	462.87
680.71	460.12
681.05	457.47
681.39	454.74
681.73	452.13
682.06	449.60
682.40	447.02
682.74	444.60
683.08	442.04
683.42	439.51
683.75	437.07
684.09	434.56
684.43	432.12
684.77	429.71
685.10	427.36
685.44	425.12
685.78	422.85
686.12	420.58
686.45	418.32
686.79	416.01
687.13	413.87
687.46	411.67
687.80	409.48
688.14	407.30
688.48	405.24
688.81	402.97
689.15	400.85
689.49	398.73
689.82	396.56
690.16	394.49
690.50	392.54
690.83	390.55
691.17	388.59
691.51	386.66
691.84	384.81
692.18	382.89
692.52	380.90
692.85	379.00
693.19	377.13
693.52	375.29
693.86	373.49
694.20	371.69
694.53	369.82
694.87	367.97
695.21	366.19
695.54	364.36
695.88	362.60
696.21	360.86
696.55	359.19
696.88	357.56
697.22	355.92
697.56	354.31
697.89	352.64
698.23	351.02
698.56	349.38
698.90	347.79
699.23	346.17
699.57	344.63
699.90	343.05
700.24	341.55
700.58	340.01
700.91	338.51
701.25	337.02
701.58	335.73
701.92	334.37
702.25	332.99
702.59	331.65
702.92	330.38
703.26	329.08
703.59	327.79
703.93	326.58
704.26	325.36
704.60	324.03
704.93	322.76
705.26	321.52
705.60	320.38
705.93	319.24
706.27	318.18
706.60	317.12
706.94	316.05
707.27	314.88
707.61	313.84
707.94	312.83
708.27	311.79
708.61	310.70
708.94	309.70
709.28	308.72
709.61	307.74
709.94	306.77
710.28	305.75
710.61	304.80
710.95	303.71
711.28	302.80
711.61	301.87
711.95	300.94
712.28	299.97
712.61	298.99
712.95	298.05
713.28	297.18
713.61	296.25
713.95	295.33
714.28	294.52
714.61	293.66
714.95	292.80
715.28	291.94
715.61	291.04
715.95	290.17
716.28	289.30
716.61	288.47
716.95	287.67
717.28	286.95
717.61	286.14
717.94	285.43
718.28	284.62
718.61	283.86
718.94	283.18
719.27	282.53
719.61	281.90
719.94	281.26
720.27	280.54
720.60	279.89
720.94	279.27
721.27	278.68
721.60	278.08
721.93	277.50
722.27	276.96
722.60	276.46
722.93	275.93
723.26	275.41
723.59	274.86
723.93	274.33
724.26	273.79
724.59	273.27
724.92	272.75
725.25	272.27
725.59	271.76
725.92	271.26
726.25	270.76
726.58	270.31
726.91	269.83
727.24	269.33
727.57	268.90
727.91	268.43
728.24	267.97
728.57	267.49
728.90	267.04
729.23	266.55
729.56	266.06
729.89	265.59
730.22	265.13
730.55	264.69
730.89	264.23
731.22	263.82
731.55	263.38
731.88	262.95
732.21	262.48
732.54	262.07
732.87	261.68
733.20	261.29
733.53	260.87
733.86	260.48
734.19	260.11
734.52	259.71
734.85	259.39
735.18	258.99
735.51	258.66
735.84	258.30
736.17	257.97
736.50	257.58
736.83	257.38
737.16	257.04
737.49	256.74
737.82	256.40
738.15	256.06
738.48	255.75
738.81	255.40
739.14	255.12
739.47	254.79
739.80	254.49
740.13	254.19
740.46	253.85
740.79	253.52
741.12	253.21
741.45	252.90
741.78	252.53
742.11	252.22
742.44	251.88
742.77	251.60
743.10	251.27
743.43	250.99
743.75	250.58
744.08	250.43
744.41	250.13
744.74	249.87
745.07	249.60
745.40	249.34
745.73	249.15
746.06	248.88
746.39	248.66
746.71	248.35
747.04	248.06
747.37	247.81
747.70	247.55
748.03	247.32
748.36	247.08
748.68	246.88
749.01	246.61
749.34	246.40
749.67	246.14
750.00	245.89
750.33	245.73
750.65	245.52
750.98	245.15
751.31	244.89
751.64	244.69
751.97	244.50
752.29	244.26
752.62	243.99
752.95	243.77
753.28	243.53
753.60	243.35
753.93	243.21
754.26	243.01
754.59	242.81
754.91	242.58
755.24	242.37
755.57	242.15
755.90	241.95
756.22	241.74
756.55	241.54
756.88	241.35
757.20	241.10
757.53	240.91
757.86	240.78
758.19	240.62
758.51	240.43
758.84	240.23
759.17	240.09
759.49	239.94
759.82	239.81
760.15	239.69
760.47	239.56
760.80	239.35
761.13	239.19
761.45	239.04
761.78	238.88
762.11	238.76
762.43	238.64
762.76	238.49
763.08	238.39
763.41	238.27
763.74	238.16
764.06	238.01
764.39	237.86
764.71	237.69
765.04	237.58
765.37	237.42
765.69	237.28
766.02	237.12
766.34	236.98
766.67	236.82
767.00	236.68
767.32	236.61
767.65	236.56
767.97	236.45
768.30	236.36
768.62	236.26
768.95	236.11
769.27	235.98
769.60	235.94
769.92	235.77
770.25	235.67
770.57	235.58
770.90	235.48
771.22	235.38
771.55	235.32
771.87	235.20
772.20	235.11
772.52	235.09
772.85	235.12
773.17	235.06
773.50	234.98
773.82	234.88
774.15	234.68
774.47	234.55
774.80	234.46
775.12	234.34
775.45	234.24
775.77	234.17
776.09	234.09
776.42	233.98
776.74	233.93
777.07	233.86
777.39	233.76
777.72	233.70
778.04	233.61
778.36	233.51
778.69	233.43
779.01	233.38
779.33	233.23
779.66	233.04
779.98	232.94
780.31	232.86
780.63	232.84
780.95	232.84
781.28	232.76
781.60	232.68
781.92	232.63
782.25	232.57
782.57	232.52
782.89	232.45
783.22	232.37
783.54	232.32
783.86	232.26
784.19	232.23
784.51	232.24
784.83	232.19
785.16	232.14
785.48	232.13
785.80	232.11
786.12	232.06
786.45	231.98
786.77	231.94
787.09	231.90
