SpectraSuite Data File
++++++++++++++++++++++++++++++++++++
Date: Fri Feb 01 16:44:26 EST 2013
User: group
Dark Spectrum Present: No
Reference Spectrum Present: No
Number of Sampled Component Spectra: 1
Spectrometers: USB2E7196
Integration Time (usec): 35000 (USB2E7196)
Spectra Averaged: 100 (USB2E7196)
Boxcar Smoothing: 10 (USB2E7196)
Correct for Electrical Dark: No (USB2E7196)
Strobe/Lamp Enabled: No (USB2E7196)
Correct for Detector Non-linearity: No (USB2E7196)
Correct for Stray Light: No (USB2E7196)
Number of Pixels in Processed Spectrum: 2048
>>>>>Begin Processed Spectral Data<<<<<
339.09	0.00
339.48	213.79
339.86	214.41
340.24	216.45
340.63	217.06
341.01	219.78
341.39	220.24
341.78	221.44
342.16	222.27
342.54	223.33
342.93	211.57
343.31	222.28
343.69	222.78
344.07	223.27
344.46	223.66
344.84	224.06
345.22	224.33
345.60	224.56
345.99	224.74
346.37	224.88
346.75	224.99
347.13	225.07
347.52	225.16
347.90	225.22
348.28	225.28
348.66	225.34
349.05	225.32
349.43	225.36
349.81	225.42
350.19	225.46
350.57	225.53
350.96	225.61
351.34	225.68
351.72	225.78
352.10	225.87
352.48	225.95
352.87	226.01
353.25	226.07
353.63	226.16
354.01	226.24
354.39	226.32
354.77	226.39
355.15	226.49
355.54	226.55
355.92	226.62
356.30	226.69
356.68	226.84
357.06	226.94
357.44	227.00
357.82	227.07
358.20	227.15
358.58	227.22
358.97	227.30
359.35	227.39
359.73	227.47
360.11	227.56
360.49	227.60
360.87	227.67
361.25	227.74
361.63	227.80
362.01	227.86
362.39	227.90
362.77	227.93
363.15	227.96
363.53	228.00
363.91	228.02
364.29	228.03
364.67	227.93
365.05	227.96
365.43	227.97
365.81	227.99
366.19	228.03
366.57	228.06
366.95	228.04
367.33	228.01
367.71	228.01
368.09	228.01
368.47	228.03
368.85	228.01
369.23	227.98
369.61	227.94
369.99	227.94
370.37	227.91
370.75	227.96
371.13	227.88
371.51	227.81
371.89	227.75
372.27	227.70
372.65	227.66
373.03	227.61
373.41	227.59
373.78	227.53
374.16	227.45
374.54	227.34
374.92	227.24
375.30	227.19
375.68	227.13
376.06	227.06
376.44	226.98
376.82	226.90
377.19	226.83
377.57	226.76
377.95	226.65
378.33	226.58
378.71	226.43
379.09	226.43
379.47	226.40
379.84	226.37
380.22	226.29
380.60	226.20
380.98	226.14
381.36	226.05
381.73	225.96
382.11	225.90
382.49	225.85
382.87	225.80
383.25	225.73
383.62	225.76
384.00	225.68
384.38	225.63
384.76	225.60
385.13	225.59
385.51	225.55
385.89	225.49
386.27	225.47
386.64	225.47
387.02	225.38
387.40	225.29
387.78	225.23
388.15	225.21
388.53	225.19
388.91	225.14
389.29	225.11
389.66	225.10
390.04	225.08
390.42	225.10
390.79	225.10
391.17	225.06
391.55	224.90
391.92	224.89
392.30	224.88
392.68	224.85
393.05	224.83
393.43	224.85
393.81	224.85
394.18	224.84
394.56	224.83
394.94	224.84
395.31	224.85
395.69	224.91
396.06	224.95
396.44	224.99
396.82	225.00
397.19	225.09
397.57	225.14
397.95	225.18
398.32	225.14
398.70	225.17
399.07	225.26
399.45	225.34
399.82	225.39
400.20	225.46
400.58	225.53
400.95	225.58
401.33	225.65
401.70	225.82
402.08	225.91
402.45	225.98
402.83	226.11
403.20	226.23
403.58	226.30
403.95	226.41
404.33	226.54
404.71	226.67
405.08	226.85
405.46	226.96
405.83	227.12
406.21	227.26
406.58	227.44
406.96	227.60
407.33	227.78
407.70	227.99
408.08	228.24
408.45	228.41
408.83	228.65
409.20	228.83
409.58	228.99
409.95	229.21
410.33	229.48
410.70	229.71
411.08	230.00
411.45	230.30
411.82	230.63
412.20	230.98
412.57	231.38
412.95	231.63
413.32	232.04
413.69	232.44
414.07	232.90
414.44	233.34
414.82	233.80
415.19	234.33
415.56	234.86
415.94	235.39
416.31	236.06
416.68	236.67
417.06	237.39
417.43	238.07
417.81	238.86
418.18	239.62
418.55	240.47
418.93	241.34
419.30	242.22
419.67	243.14
420.04	244.09
420.42	245.07
420.79	246.27
421.16	247.42
421.54	248.61
421.91	249.81
422.28	251.08
422.66	252.41
423.03	253.73
423.40	255.05
423.77	256.43
424.15	257.83
424.52	259.29
424.89	260.89
425.26	262.45
425.64	263.89
426.01	265.47
426.38	267.08
426.75	268.72
427.13	270.45
427.50	272.20
427.87	274.05
428.24	275.88
428.61	277.60
428.99	279.55
429.36	281.60
429.73	283.64
430.10	285.62
430.47	287.69
430.85	289.75
431.22	291.96
431.59	294.35
431.96	296.54
432.33	298.99
432.70	301.36
433.08	304.13
433.45	306.70
433.82	309.29
434.19	312.21
434.56	315.00
434.93	317.59
435.30	320.18
435.68	323.06
436.05	325.88
436.42	328.69
436.79	331.16
437.16	333.86
437.53	336.65
437.90	339.43
438.27	342.09
438.64	344.88
439.01	347.41
439.38	349.59
439.75	351.77
440.13	354.24
440.50	356.52
440.87	358.31
441.24	360.23
441.61	362.32
441.98	363.75
442.35	365.55
442.72	367.42
443.09	369.21
443.46	370.21
443.83	370.84
444.20	371.28
444.57	372.10
444.94	372.37
445.31	372.72
445.68	373.07
446.05	373.19
446.42	372.82
446.79	372.48
447.16	372.04
447.53	371.72
447.90	370.58
448.27	369.44
448.64	367.93
449.01	366.82
449.37	364.94
449.74	363.04
450.11	360.83
450.48	358.43
450.85	355.96
451.22	353.86
451.59	351.82
451.96	349.95
452.33	347.39
452.70	345.05
453.07	342.31
453.43	339.45
453.80	336.70
454.17	334.06
454.54	331.51
454.91	328.85
455.28	326.25
455.65	323.84
456.02	321.45
456.38	319.33
456.75	316.76
457.12	314.53
457.49	312.41
457.86	310.27
458.23	308.38
458.59	306.32
458.96	304.24
459.33	302.44
459.70	300.57
460.07	299.06
460.43	297.37
460.80	295.76
461.17	294.36
461.54	292.88
461.91	291.53
462.27	290.11
462.64	288.89
463.01	287.56
463.38	286.25
463.74	284.90
464.11	283.77
464.48	282.74
464.85	281.66
465.21	280.79
465.58	279.88
465.95	278.85
466.32	277.94
466.68	277.06
467.05	276.13
467.42	275.27
467.78	274.39
468.15	273.51
468.52	272.85
468.88	271.98
469.25	271.20
469.62	270.56
469.98	269.92
470.35	269.31
470.72	268.71
471.08	268.06
471.45	267.51
471.82	266.96
472.18	266.35
472.55	265.92
472.92	265.40
473.28	264.96
473.65	264.50
474.02	264.08
474.38	263.71
474.75	263.43
475.11	263.09
475.48	262.83
475.85	262.63
476.21	262.40
476.58	262.25
476.94	262.16
477.31	261.98
477.67	261.78
478.04	261.67
478.41	261.59
478.77	261.65
479.14	261.58
479.50	261.59
479.87	261.67
480.23	261.73
480.60	261.84
480.96	261.93
481.33	262.13
481.69	262.34
482.06	262.55
482.42	262.76
482.79	263.05
483.15	263.33
483.52	263.71
483.88	264.07
484.25	264.49
484.61	264.92
484.98	265.37
485.34	265.98
485.71	266.58
486.07	267.25
486.44	267.83
486.80	268.56
487.17	269.32
487.53	270.12
487.90	270.99
488.26	271.89
488.62	272.89
488.99	273.88
489.35	274.90
489.72	276.02
490.08	277.22
490.44	278.44
490.81	279.82
491.17	281.18
491.54	282.66
491.90	284.18
492.26	285.81
492.63	287.56
492.99	289.38
493.36	291.30
493.72	293.32
494.08	295.37
494.45	297.57
494.81	299.90
495.17	302.29
495.54	304.84
495.90	307.49
496.26	310.25
496.63	313.19
496.99	316.31
497.35	319.57
497.72	322.96
498.08	326.42
498.44	330.10
498.80	334.04
499.17	338.10
499.53	342.28
499.89	346.66
500.26	351.16
500.62	355.81
500.98	360.73
501.34	365.73
501.71	371.11
502.07	376.61
502.43	382.24
502.79	388.10
503.16	394.16
503.52	400.43
503.88	406.81
504.24	413.45
504.60	420.34
504.97	427.49
505.33	434.81
505.69	442.58
506.05	450.36
506.41	458.20
506.78	466.30
507.14	474.73
507.50	483.43
507.86	492.40
508.22	501.58
508.59	510.76
508.95	520.36
509.31	530.16
509.67	540.20
510.03	550.41
510.39	560.91
510.75	571.65
511.12	582.51
511.48	593.83
511.84	605.21
512.20	616.66
512.56	628.56
512.92	640.64
513.28	652.92
513.64	665.28
514.00	677.94
514.37	690.82
514.73	703.75
515.09	716.72
515.45	729.90
515.81	743.45
516.17	757.28
516.53	771.37
516.89	785.40
517.25	799.43
517.61	813.73
517.97	828.08
518.33	842.49
518.69	857.24
519.05	872.14
519.41	887.18
519.77	902.60
520.13	917.86
520.49	933.19
520.85	948.46
521.21	964.08
521.57	980.17
521.93	995.88
522.29	1012.16
522.65	1028.29
523.01	1044.43
523.37	1060.25
523.73	1076.27
524.09	1092.19
524.45	1108.41
524.81	1124.99
525.17	1141.74
525.53	1158.47
525.89	1175.18
526.25	1191.92
526.61	1208.16
526.97	1224.86
527.33	1241.17
527.68	1257.65
528.04	1273.94
528.40	1290.37
528.76	1307.26
529.12	1323.78
529.48	1340.48
529.84	1356.32
530.20	1372.87
530.56	1389.59
530.91	1406.93
531.27	1423.67
531.63	1440.04
531.99	1456.41
532.35	1472.23
532.71	1487.97
533.07	1504.06
533.42	1519.75
533.78	1535.59
534.14	1551.61
534.50	1566.70
534.86	1582.42
535.21	1597.48
535.57	1613.15
535.93	1628.43
536.29	1643.00
536.65	1657.80
537.00	1672.35
537.36	1687.48
537.72	1701.85
538.08	1716.15
538.44	1729.71
538.79	1743.44
539.15	1756.84
539.51	1770.32
539.87	1784.40
540.22	1797.97
540.58	1811.62
540.94	1824.69
541.29	1837.29
541.65	1849.85
542.01	1863.00
542.37	1875.29
542.72	1887.59
543.08	1899.33
543.44	1911.62
543.79	1922.76
544.15	1933.62
544.51	1945.04
544.87	1955.91
545.22	1966.52
545.58	1976.78
545.94	1986.35
546.29	1996.00
546.65	2005.75
547.01	2015.03
547.36	2023.75
547.72	2031.99
548.07	2039.78
548.43	2047.90
548.79	2055.81
549.14	2063.40
549.50	2070.50
549.86	2077.97
550.21	2085.21
550.57	2092.35
550.92	2098.77
551.28	2105.82
551.64	2112.89
551.99	2119.29
552.35	2125.47
552.70	2131.43
553.06	2137.24
553.41	2143.56
553.77	2149.50
554.13	2155.50
554.48	2161.55
554.84	2167.00
555.19	2172.34
555.55	2177.51
555.90	2181.99
556.26	2186.99
556.61	2191.43
556.97	2195.94
557.32	2200.09
557.68	2204.26
558.03	2208.47
558.39	2212.23
558.74	2216.73
559.10	2220.54
559.45	2224.25
559.81	2228.43
560.16	2232.41
560.52	2235.67
560.87	2239.08
561.23	2241.82
561.58	2244.63
561.94	2247.15
562.29	2249.40
562.64	2252.26
563.00	2254.83
563.35	2258.41
563.71	2261.56
564.06	2264.93
564.42	2267.63
564.77	2270.28
565.12	2272.63
565.48	2274.63
565.83	2276.68
566.19	2278.24
566.54	2278.99
566.89	2280.24
567.25	2280.98
567.60	2282.33
567.96	2284.25
568.31	2285.17
568.66	2286.38
569.02	2287.04
569.37	2287.50
569.72	2288.46
570.08	2288.58
570.43	2288.62
570.78	2288.10
571.14	2286.61
571.49	2285.29
571.84	2285.08
572.20	2283.97
572.55	2282.92
572.90	2281.33
573.26	2279.97
573.61	2278.18
573.96	2276.75
574.31	2273.91
574.67	2271.03
575.02	2267.54
575.37	2264.06
575.72	2260.44
576.08	2257.06
576.43	2253.93
576.78	2250.41
577.13	2247.34
577.49	2244.26
577.84	2240.83
578.19	2237.04
578.54	2233.69
578.90	2229.70
579.25	2224.22
579.60	2219.36
579.95	2214.42
580.30	2209.56
580.66	2204.45
581.01	2199.44
581.36	2194.51
581.71	2190.57
582.06	2186.29
582.42	2181.76
582.77	2176.56
583.12	2172.10
583.47	2167.58
583.82	2162.78
584.17	2157.60
584.53	2152.08
584.88	2146.52
585.23	2140.92
585.58	2135.59
585.93	2130.09
586.28	2125.31
586.63	2120.34
586.98	2115.22
587.34	2110.62
587.69	2105.72
588.04	2100.52
588.39	2095.14
588.74	2088.81
589.09	2082.57
589.44	2075.91
589.79	2069.88
590.14	2064.45
590.49	2057.97
590.84	2051.54
591.19	2045.59
591.54	2039.27
591.89	2032.22
592.25	2025.65
592.60	2018.49
592.95	2011.08
593.30	2003.71
593.65	1996.18
594.00	1989.21
594.35	1982.18
594.70	1974.19
595.05	1967.22
595.40	1960.17
595.75	1952.81
596.10	1946.80
596.45	1940.21
596.80	1934.08
597.15	1927.70
597.50	1920.80
597.85	1914.24
598.19	1907.83
598.54	1900.93
598.89	1894.32
599.24	1888.37
599.59	1881.84
599.94	1875.78
600.29	1869.48
600.64	1862.96
600.99	1855.68
601.34	1849.02
601.69	1842.05
602.04	1835.23
602.39	1827.90
602.74	1821.07
603.08	1814.28
603.43	1807.52
603.78	1800.34
604.13	1792.99
604.48	1785.81
604.83	1779.01
605.18	1772.33
605.53	1764.42
605.87	1756.42
606.22	1749.14
606.57	1741.37
606.92	1733.94
607.27	1726.94
607.62	1720.32
607.96	1713.22
608.31	1706.74
608.66	1699.23
609.01	1691.90
609.36	1684.56
609.70	1676.68
610.05	1668.65
610.40	1661.17
610.75	1652.95
611.10	1645.26
611.44	1636.95
611.79	1628.97
612.14	1620.34
612.49	1611.18
612.83	1602.83
613.18	1594.72
613.53	1586.78
613.88	1578.30
614.22	1570.17
614.57	1561.35
614.92	1553.27
615.27	1545.83
615.61	1537.46
615.96	1529.56
616.31	1521.86
616.65	1514.45
617.00	1506.87
617.35	1499.32
617.70	1490.96
618.04	1482.53
618.39	1474.30
618.74	1466.79
619.08	1458.54
619.43	1450.88
619.78	1443.96
620.12	1436.85
620.47	1429.28
620.82	1421.05
621.16	1413.59
621.51	1405.97
621.85	1398.48
622.20	1389.94
622.55	1381.50
622.89	1373.68
623.24	1365.92
623.59	1358.42
623.93	1350.83
624.28	1343.58
624.62	1336.00
624.97	1328.82
625.32	1321.97
625.66	1314.94
626.01	1307.82
626.35	1300.48
626.70	1292.73
627.04	1285.01
627.39	1277.29
627.73	1269.90
628.08	1263.05
628.43	1255.85
628.77	1248.61
629.12	1241.10
629.46	1234.07
629.81	1226.70
630.15	1219.48
630.50	1212.07
630.84	1204.04
631.19	1196.02
631.53	1188.52
631.88	1181.02
632.22	1173.39
632.57	1166.07
632.91	1158.60
633.26	1151.23
633.60	1143.74
633.95	1136.51
634.29	1129.47
634.64	1122.72
634.98	1115.38
635.32	1108.29
635.67	1101.54
636.01	1094.78
636.36	1087.97
636.70	1081.27
637.05	1074.67
637.39	1068.22
637.73	1061.69
638.08	1055.86
638.42	1050.00
638.77	1043.55
639.11	1037.02
639.45	1030.80
639.80	1024.16
640.14	1017.76
640.49	1011.24
640.83	1005.00
641.17	998.97
641.52	992.62
641.86	986.09
642.20	980.21
642.55	973.74
642.89	967.38
643.23	960.84
643.58	955.11
643.92	949.08
644.26	943.12
644.61	937.04
644.95	931.10
645.29	924.50
645.64	917.80
645.98	911.55
646.32	905.59
646.66	899.48
647.01	893.72
647.35	888.01
647.69	882.08
648.04	876.48
648.38	870.62
648.72	864.79
649.06	858.82
649.41	852.95
649.75	847.07
650.09	841.11
650.43	835.27
650.78	829.10
651.12	823.09
651.46	817.35
651.80	811.76
652.14	806.27
652.49	800.95
652.83	795.72
653.17	790.09
653.51	784.47
653.85	779.01
654.20	773.33
654.54	767.28
654.88	761.55
655.22	755.69
655.56	750.00
655.90	744.39
656.25	739.25
656.59	733.92
656.93	728.92
657.27	723.81
657.61	718.39
657.95	713.30
658.29	708.22
658.64	702.90
658.98	697.45
659.32	692.05
659.66	686.81
660.00	681.63
660.34	676.59
660.68	671.66
661.02	666.71
661.36	662.06
661.70	657.68
662.05	653.30
662.39	649.02
662.73	644.58
663.07	640.30
663.41	635.78
663.75	631.31
664.09	626.73
664.43	622.33
664.77	618.24
665.11	614.01
665.45	609.83
665.79	605.75
666.13	601.65
666.47	597.55
666.81	593.40
667.15	589.21
667.49	585.29
667.83	581.43
668.17	577.48
668.51	573.42
668.85	569.29
669.19	565.48
669.53	561.64
669.87	557.83
670.21	554.14
670.55	550.51
670.89	547.06
671.23	543.54
671.57	539.96
671.91	536.43
672.25	532.86
672.58	529.38
672.92	525.96
673.26	522.83
673.60	519.68
673.94	516.54
674.28	513.59
674.62	510.65
674.96	507.56
675.30	504.60
675.64	501.69
675.97	498.94
676.31	496.10
676.65	493.13
676.99	490.40
677.33	487.50
677.67	484.64
678.01	481.67
678.34	478.82
678.68	476.00
679.02	473.20
679.36	470.45
679.70	467.73
680.04	465.00
680.37	462.13
680.71	459.34
681.05	456.71
681.39	453.97
681.73	451.30
682.06	448.82
682.40	446.30
682.74	443.71
683.08	441.14
683.42	438.47
683.75	435.98
684.09	433.38
684.43	430.92
684.77	428.49
685.10	426.10
685.44	423.75
685.78	421.43
686.12	419.17
686.45	416.90
686.79	414.61
687.13	412.42
687.46	410.25
687.80	408.12
688.14	405.90
688.48	403.90
688.81	401.72
689.15	399.53
689.49	397.38
689.82	395.31
690.16	393.19
690.50	391.27
690.83	389.34
691.17	387.37
691.51	385.43
691.84	383.56
692.18	381.63
692.52	379.68
692.85	377.78
693.19	375.92
693.52	374.05
693.86	372.24
694.20	370.46
694.53	368.70
694.87	366.83
695.21	365.03
695.54	363.19
695.88	361.45
696.21	359.74
696.55	358.11
696.88	356.43
697.22	354.78
697.56	353.15
697.89	351.52
698.23	349.95
698.56	348.35
698.90	346.80
699.23	345.18
699.57	343.60
699.90	342.03
700.24	340.50
700.58	339.06
700.91	337.57
701.25	336.11
701.58	334.71
701.92	333.31
702.25	331.97
702.59	330.59
702.92	329.26
703.26	327.93
703.59	326.64
703.93	325.46
704.26	324.27
704.60	323.00
704.93	321.74
705.26	320.44
705.60	319.25
705.93	318.08
706.27	317.03
706.60	315.97
706.94	314.89
707.27	313.72
707.61	312.58
707.94	311.54
708.27	310.44
708.61	309.35
708.94	308.39
709.28	307.42
709.61	306.46
709.94	305.47
710.28	304.48
710.61	303.50
710.95	302.41
711.28	301.49
711.61	300.54
711.95	299.61
712.28	298.72
712.61	297.71
712.95	296.73
713.28	295.86
713.61	294.93
713.95	294.03
714.28	293.22
714.61	292.37
714.95	291.50
715.28	290.64
715.61	289.74
715.95	288.84
716.28	287.95
716.61	287.13
716.95	286.32
717.28	285.54
717.61	284.76
717.94	284.01
718.28	283.13
718.61	282.40
718.94	281.69
719.27	281.00
719.61	280.37
719.94	279.72
720.27	278.99
720.60	278.34
720.94	277.72
721.27	277.13
721.60	276.53
721.93	275.93
722.27	275.42
722.60	274.90
722.93	274.36
723.26	273.82
723.59	273.26
723.93	272.68
724.26	272.16
724.59	271.59
724.92	271.07
725.25	270.63
725.59	270.12
725.92	269.58
726.25	269.10
726.58	268.61
726.91	268.14
727.24	267.66
727.57	267.19
727.91	266.69
728.24	266.23
728.57	265.74
728.90	265.31
729.23	264.77
729.56	264.32
729.89	263.85
730.22	263.37
730.55	262.91
730.89	262.50
731.22	262.02
731.55	261.59
731.88	261.18
732.21	260.70
732.54	260.26
732.87	259.91
733.20	259.46
733.53	259.09
733.86	258.72
734.19	258.34
734.52	257.94
734.85	257.65
735.18	257.23
735.51	256.89
735.84	256.52
736.17	256.20
736.50	255.81
736.83	255.57
737.16	255.27
737.49	254.93
737.82	254.63
738.15	254.31
738.48	253.98
738.81	253.65
739.14	253.39
739.47	253.08
739.80	252.74
740.13	252.48
740.46	252.16
740.79	251.81
741.12	251.51
741.45	251.21
741.78	250.86
742.11	250.59
742.44	250.29
742.77	249.99
743.10	249.72
743.43	249.45
743.75	249.05
744.08	248.89
744.41	248.64
744.74	248.37
745.07	248.12
745.40	247.90
745.73	247.65
746.06	247.37
746.39	247.09
746.71	246.84
747.04	246.54
747.37	246.26
747.70	246.05
748.03	245.80
748.36	245.58
748.68	245.35
749.01	245.07
749.34	244.83
749.67	244.59
750.00	244.33
750.33	244.13
750.65	243.94
750.98	243.61
751.31	243.39
751.64	243.14
751.97	242.97
752.29	242.74
752.62	242.51
752.95	242.32
753.28	242.12
753.60	241.92
753.93	241.76
754.26	241.56
754.59	241.33
754.91	241.08
755.24	240.88
755.57	240.70
755.90	240.51
756.22	240.30
756.55	240.12
756.88	239.91
757.20	239.69
757.53	239.48
757.86	239.27
758.19	239.10
758.51	238.92
758.84	238.68
759.17	238.51
759.49	238.36
759.82	238.20
760.15	238.05
760.47	237.89
760.80	237.69
761.13	237.56
761.45	237.40
761.78	237.29
762.11	237.13
762.43	236.93
762.76	236.77
763.08	236.64
763.41	236.49
763.74	236.38
764.06	236.23
764.39	236.09
764.71	235.96
765.04	235.81
765.37	235.62
765.69	235.48
766.02	235.31
766.34	235.16
766.67	235.03
767.00	234.92
767.32	234.84
767.65	234.82
767.97	234.68
768.30	234.54
768.62	234.42
768.95	234.27
769.27	234.17
769.60	234.09
769.92	233.99
770.25	233.85
770.57	233.73
770.90	233.65
771.22	233.56
771.55	233.45
771.87	233.34
772.20	233.30
772.52	233.30
772.85	233.36
773.17	233.26
773.50	233.16
773.82	233.04
774.15	232.91
774.47	232.74
774.80	232.63
775.12	232.56
775.45	232.43
775.77	232.36
776.09	232.27
776.42	232.24
776.74	232.19
777.07	232.14
777.39	232.07
777.72	231.96
778.04	231.90
778.36	231.86
778.69	231.83
779.01	231.76
779.33	231.61
779.66	231.45
779.98	231.38
780.31	231.30
780.63	231.29
780.95	231.23
781.28	231.14
781.60	231.09
781.92	231.04
782.25	231.03
782.57	230.97
782.89	230.91
783.22	230.78
783.54	230.67
783.86	230.61
784.19	230.56
784.51	230.53
784.83	230.44
785.16	230.36
785.48	230.27
785.80	230.22
786.12	230.15
786.45	230.09
786.77	230.04
787.09	230.01
