SpectraSuite Data File
++++++++++++++++++++++++++++++++++++
Date: Fri Feb 01 16:48:07 EST 2013
User: group
Dark Spectrum Present: No
Reference Spectrum Present: No
Number of Sampled Component Spectra: 1
Spectrometers: USB2E7196
Integration Time (usec): 35000 (USB2E7196)
Spectra Averaged: 100 (USB2E7196)
Boxcar Smoothing: 10 (USB2E7196)
Correct for Electrical Dark: No (USB2E7196)
Strobe/Lamp Enabled: No (USB2E7196)
Correct for Detector Non-linearity: No (USB2E7196)
Correct for Stray Light: No (USB2E7196)
Number of Pixels in Processed Spectrum: 2048
>>>>>Begin Processed Spectral Data<<<<<
339.09	0.00
339.48	213.18
339.86	214.40
340.24	216.05
340.63	217.85
341.01	220.22
341.39	219.58
341.78	220.75
342.16	222.59
342.54	222.80
342.93	211.48
343.31	222.19
343.69	222.73
344.07	223.21
344.46	223.64
344.84	224.00
345.22	224.23
345.60	224.52
345.99	224.75
346.37	224.89
346.75	225.01
347.13	225.10
347.52	225.15
347.90	225.21
348.28	225.25
348.66	225.31
349.05	225.30
349.43	225.36
349.81	225.42
350.19	225.47
350.57	225.53
350.96	225.60
351.34	225.65
351.72	225.75
352.10	225.85
352.48	225.92
352.87	225.99
353.25	226.09
353.63	226.15
354.01	226.21
354.39	226.29
354.77	226.37
355.15	226.49
355.54	226.58
355.92	226.66
356.30	226.77
356.68	226.89
357.06	226.96
357.44	226.98
357.82	227.03
358.20	227.12
358.58	227.22
358.97	227.35
359.35	227.43
359.73	227.50
360.11	227.56
360.49	227.63
360.87	227.66
361.25	227.70
361.63	227.78
362.01	227.85
362.39	227.88
362.77	227.92
363.15	227.92
363.53	227.94
363.91	227.99
364.29	227.99
364.67	227.94
365.05	228.00
365.43	228.04
365.81	228.09
366.19	228.13
366.57	228.16
366.95	228.11
367.33	228.11
367.71	228.12
368.09	228.11
368.47	228.10
368.85	228.08
369.23	228.10
369.61	228.02
369.99	228.02
370.37	227.97
370.75	227.97
371.13	227.93
371.51	227.89
371.89	227.79
372.27	227.72
372.65	227.69
373.03	227.62
373.41	227.55
373.78	227.46
374.16	227.35
374.54	227.24
374.92	227.19
375.30	227.14
375.68	227.03
376.06	226.98
376.44	226.89
376.82	226.83
377.19	226.75
377.57	226.69
377.95	226.56
378.33	226.50
378.71	226.37
379.09	226.30
379.47	226.24
379.84	226.21
380.22	226.14
380.60	226.05
380.98	225.98
381.36	225.91
381.73	225.85
382.11	225.83
382.49	225.76
382.87	225.70
383.25	225.63
383.62	225.70
384.00	225.64
384.38	225.63
384.76	225.59
385.13	225.57
385.51	225.52
385.89	225.49
386.27	225.48
386.64	225.47
387.02	225.41
387.40	225.36
387.78	225.27
388.15	225.26
388.53	225.23
388.91	225.21
389.29	225.17
389.66	225.16
390.04	225.11
390.42	225.11
390.79	225.09
391.17	225.06
391.55	224.91
391.92	224.86
392.30	224.85
392.68	224.84
393.05	224.83
393.43	224.83
393.81	224.87
394.18	224.85
394.56	224.83
394.94	224.87
395.31	224.89
395.69	224.98
396.06	225.00
396.44	225.05
396.82	225.03
397.19	225.11
397.57	225.14
397.95	225.18
398.32	225.19
398.70	225.26
399.07	225.35
399.45	225.44
399.82	225.53
400.20	225.57
400.58	225.64
400.95	225.71
401.33	225.82
401.70	225.92
402.08	226.02
402.45	226.13
402.83	226.25
403.20	226.35
403.58	226.42
403.95	226.53
404.33	226.62
404.71	226.76
405.08	226.94
405.46	227.07
405.83	227.23
406.21	227.39
406.58	227.52
406.96	227.69
407.33	227.84
407.70	228.03
408.08	228.28
408.45	228.47
408.83	228.65
409.20	228.83
409.58	228.99
409.95	229.24
410.33	229.52
410.70	229.72
411.08	230.02
411.45	230.31
411.82	230.62
412.20	230.96
412.57	231.34
412.95	231.62
413.32	232.04
413.69	232.40
414.07	232.82
414.44	233.27
414.82	233.72
415.19	234.27
415.56	234.84
415.94	235.38
416.31	236.02
416.68	236.67
417.06	237.41
417.43	238.09
417.81	238.83
418.18	239.62
418.55	240.49
418.93	241.34
419.30	242.24
419.67	243.19
420.04	244.17
420.42	245.17
420.79	246.36
421.16	247.50
421.54	248.72
421.91	249.94
422.28	251.22
422.66	252.55
423.03	253.83
423.40	255.10
423.77	256.53
424.15	257.92
424.52	259.38
424.89	260.93
425.26	262.45
425.64	263.87
426.01	265.44
426.38	267.09
426.75	268.73
427.13	270.45
427.50	272.23
427.87	274.07
428.24	275.93
428.61	277.66
428.99	279.61
429.36	281.64
429.73	283.69
430.10	285.71
430.47	287.75
430.85	289.86
431.22	292.11
431.59	294.43
431.96	296.64
432.33	299.07
432.70	301.43
433.08	304.22
433.45	306.82
433.82	309.39
434.19	312.21
434.56	315.00
434.93	317.67
435.30	320.29
435.68	323.15
436.05	325.95
436.42	328.71
436.79	331.19
437.16	333.91
437.53	336.71
437.90	339.48
438.27	342.17
438.64	344.96
439.01	347.49
439.38	349.71
439.75	351.87
440.13	354.32
440.50	356.65
440.87	358.50
441.24	360.44
441.61	362.57
441.98	364.00
442.35	365.81
442.72	367.59
443.09	369.35
443.46	370.31
443.83	370.90
444.20	371.38
444.57	372.17
444.94	372.43
445.31	372.72
445.68	373.05
446.05	373.16
446.42	372.77
446.79	372.38
447.16	372.00
447.53	371.70
447.90	370.62
448.27	369.47
448.64	367.91
449.01	366.80
449.37	364.85
449.74	363.00
450.11	360.74
450.48	358.28
450.85	355.82
451.22	353.74
451.59	351.74
451.96	349.82
452.33	347.28
452.70	344.96
453.07	342.23
453.43	339.36
453.80	336.60
454.17	333.95
454.54	331.45
454.91	328.73
455.28	326.06
455.65	323.60
456.02	321.18
456.38	319.08
456.75	316.43
457.12	314.23
457.49	312.04
457.86	309.88
458.23	308.06
458.59	306.01
458.96	303.93
459.33	302.11
459.70	300.27
460.07	298.77
460.43	297.06
460.80	295.42
461.17	294.02
461.54	292.52
461.91	291.13
462.27	289.67
462.64	288.41
463.01	287.11
463.38	285.78
463.74	284.44
464.11	283.28
464.48	282.28
464.85	281.19
465.21	280.33
465.58	279.46
465.95	278.38
466.32	277.52
466.68	276.67
467.05	275.75
467.42	274.93
467.78	274.02
468.15	273.18
468.52	272.52
468.88	271.70
469.25	271.00
469.62	270.42
469.98	269.78
470.35	269.20
470.72	268.58
471.08	268.00
471.45	267.46
471.82	266.93
472.18	266.34
472.55	265.88
472.92	265.36
473.28	264.93
473.65	264.52
474.02	264.06
474.38	263.69
474.75	263.40
475.11	263.03
475.48	262.75
475.85	262.56
476.21	262.37
476.58	262.18
476.94	262.02
477.31	261.82
477.67	261.71
478.04	261.62
478.41	261.61
478.77	261.65
479.14	261.63
479.50	261.66
479.87	261.81
480.23	261.94
480.60	262.07
480.96	262.18
481.33	262.42
481.69	262.63
482.06	262.84
482.42	263.04
482.79	263.32
483.15	263.68
483.52	264.04
483.88	264.39
484.25	264.81
484.61	265.26
484.98	265.73
485.34	266.25
485.71	266.82
486.07	267.42
486.44	267.98
486.80	268.66
487.17	269.39
487.53	270.17
487.90	270.99
488.26	271.91
488.62	272.86
488.99	273.83
489.35	274.89
489.72	275.99
490.08	277.22
490.44	278.46
490.81	279.78
491.17	281.13
491.54	282.62
491.90	284.13
492.26	285.79
492.63	287.55
492.99	289.33
493.36	291.20
493.72	293.24
494.08	295.37
494.45	297.64
494.81	299.96
495.17	302.38
495.54	304.97
495.90	307.65
496.26	310.43
496.63	313.41
496.99	316.53
497.35	319.85
497.72	323.24
498.08	326.74
498.44	330.41
498.80	334.31
499.17	338.35
499.53	342.49
499.89	346.81
500.26	351.25
500.62	355.95
500.98	360.93
501.34	366.04
501.71	371.31
502.07	376.72
502.43	382.36
502.79	388.14
503.16	394.21
503.52	400.46
503.88	406.86
504.24	413.42
504.60	420.19
504.97	427.29
505.33	434.56
505.69	442.31
506.05	450.13
506.41	458.01
506.78	466.13
507.14	474.54
507.50	483.20
507.86	492.25
508.22	501.40
508.59	510.57
508.95	520.07
509.31	529.81
509.67	539.87
510.03	550.06
510.39	560.58
510.75	571.27
511.12	582.14
511.48	593.44
511.84	604.90
512.20	616.41
512.56	628.32
512.92	640.42
513.28	652.67
513.64	665.02
514.00	677.75
514.37	690.66
514.73	703.72
515.09	716.75
515.45	729.92
515.81	743.41
516.17	757.31
516.53	771.34
516.89	785.43
517.25	799.55
517.61	813.91
517.97	828.34
518.33	842.66
518.69	857.40
519.05	872.19
519.41	887.25
519.77	902.66
520.13	917.82
520.49	933.18
520.85	948.32
521.21	963.92
521.57	979.89
521.93	995.42
522.29	1011.62
522.65	1027.82
523.01	1043.95
523.37	1059.91
523.73	1075.95
524.09	1091.86
524.45	1108.05
524.81	1124.52
525.17	1141.04
525.53	1157.67
525.89	1174.48
526.25	1191.18
526.61	1207.44
526.97	1224.08
527.33	1240.50
527.68	1257.03
528.04	1273.33
528.40	1289.77
528.76	1306.59
529.12	1322.97
529.48	1339.79
529.84	1355.59
530.20	1371.95
530.56	1388.61
530.91	1405.71
531.27	1422.24
531.63	1438.48
531.99	1454.88
532.35	1470.80
532.71	1486.57
533.07	1502.69
533.42	1518.34
533.78	1534.21
534.14	1550.34
534.50	1565.41
534.86	1581.00
535.21	1596.04
535.57	1611.65
535.93	1627.04
536.29	1641.75
536.65	1656.77
537.00	1671.28
537.36	1686.45
537.72	1700.77
538.08	1715.11
538.44	1728.82
538.79	1742.60
539.15	1756.07
539.51	1769.55
539.87	1783.78
540.22	1797.31
540.58	1810.89
540.94	1823.94
541.29	1836.35
541.65	1848.83
542.01	1861.79
542.37	1873.86
542.72	1886.10
543.08	1897.84
543.44	1909.96
543.79	1921.03
544.15	1931.86
544.51	1943.30
544.87	1954.01
545.22	1964.66
545.58	1974.71
545.94	1984.50
546.29	1994.12
546.65	2003.95
547.01	2013.18
547.36	2021.56
547.72	2029.99
548.07	2037.68
548.43	2045.71
548.79	2053.66
549.14	2061.17
549.50	2068.38
549.86	2075.97
550.21	2083.01
550.57	2090.23
550.92	2096.84
551.28	2103.87
551.64	2110.76
551.99	2117.10
552.35	2123.35
552.70	2129.30
553.06	2135.23
553.41	2141.41
553.77	2147.46
554.13	2153.39
554.48	2159.45
554.84	2165.00
555.19	2170.23
555.55	2175.48
555.90	2180.09
556.26	2185.23
556.61	2189.99
556.97	2194.45
557.32	2198.70
557.68	2202.81
558.03	2206.73
558.39	2210.30
558.74	2214.92
559.10	2218.83
559.45	2222.57
559.81	2226.67
560.16	2230.73
560.52	2234.01
560.87	2237.38
561.23	2240.08
561.58	2243.01
561.94	2245.53
562.29	2247.73
562.64	2250.61
563.00	2253.10
563.35	2256.57
563.71	2259.54
564.06	2262.42
564.42	2265.41
564.77	2268.00
565.12	2270.64
565.48	2272.90
565.83	2274.91
566.19	2276.28
566.54	2277.09
566.89	2278.34
567.25	2279.27
567.60	2280.53
567.96	2282.37
568.31	2283.19
568.66	2284.28
569.02	2285.04
569.37	2285.47
569.72	2286.52
570.08	2286.71
570.43	2286.86
570.78	2286.43
571.14	2285.10
571.49	2283.94
571.84	2283.41
572.20	2282.47
572.55	2281.31
572.90	2279.65
573.26	2278.50
573.61	2276.65
573.96	2275.11
574.31	2272.31
574.67	2269.35
575.02	2265.81
575.37	2262.45
575.72	2258.79
576.08	2255.54
576.43	2252.18
576.78	2248.82
577.13	2245.60
577.49	2242.34
577.84	2239.08
578.19	2235.46
578.54	2232.01
578.90	2228.14
579.25	2222.75
579.60	2217.88
579.95	2213.10
580.30	2208.19
580.66	2203.02
581.01	2198.25
581.36	2193.50
581.71	2189.44
582.06	2185.07
582.42	2180.79
582.77	2175.70
583.12	2171.42
583.47	2167.04
583.82	2162.27
584.17	2157.08
584.53	2151.84
584.88	2146.51
585.23	2140.90
585.58	2135.55
585.93	2130.01
586.28	2125.09
586.63	2120.38
586.98	2115.23
587.34	2110.64
587.69	2105.77
588.04	2100.70
588.39	2095.16
588.74	2088.75
589.09	2082.66
589.44	2076.08
589.79	2069.89
590.14	2064.26
590.49	2057.64
590.84	2051.08
591.19	2045.13
591.54	2038.67
591.89	2031.46
592.25	2024.97
592.60	2017.75
592.95	2010.19
593.30	2003.04
593.65	1995.67
594.00	1988.48
594.35	1981.43
594.70	1973.43
595.05	1966.51
595.40	1959.32
595.75	1952.08
596.10	1946.09
596.45	1939.45
596.80	1933.31
597.15	1926.98
597.50	1920.27
597.85	1913.91
598.19	1907.52
598.54	1900.66
598.89	1894.22
599.24	1888.39
599.59	1881.79
599.94	1875.71
600.29	1869.50
600.64	1862.96
600.99	1855.58
601.34	1849.02
601.69	1841.97
602.04	1835.23
602.39	1827.96
602.74	1821.29
603.08	1814.59
603.43	1807.89
603.78	1800.71
604.13	1793.58
604.48	1786.57
604.83	1779.62
605.18	1772.96
605.53	1764.99
605.87	1757.05
606.22	1749.76
606.57	1741.93
606.92	1734.38
607.27	1727.36
607.62	1720.63
607.96	1713.51
608.31	1707.21
608.66	1699.58
609.01	1692.21
609.36	1684.83
609.70	1676.85
610.05	1668.83
610.40	1661.12
610.75	1652.96
611.10	1645.38
611.44	1636.91
611.79	1628.81
612.14	1620.26
612.49	1610.80
612.83	1602.47
613.18	1594.29
613.53	1586.25
613.88	1577.69
614.22	1569.55
614.57	1560.72
614.92	1552.63
615.27	1545.24
615.61	1536.92
615.96	1528.95
616.31	1521.36
616.65	1513.90
617.00	1506.45
617.35	1498.80
617.70	1490.71
618.04	1482.18
618.39	1473.84
618.74	1466.41
619.08	1458.18
619.43	1450.53
619.78	1443.72
620.12	1436.72
620.47	1429.20
620.82	1421.00
621.16	1413.53
621.51	1405.84
621.85	1398.27
622.20	1389.85
622.55	1381.32
622.89	1373.39
623.24	1365.69
623.59	1358.21
623.93	1350.72
624.28	1343.31
624.62	1335.83
624.97	1328.48
625.32	1321.51
625.66	1314.48
626.01	1307.32
626.35	1299.98
626.70	1292.27
627.04	1284.62
627.39	1276.70
627.73	1269.29
628.08	1262.46
628.43	1255.26
628.77	1248.04
629.12	1240.55
629.46	1233.36
629.81	1225.83
630.15	1218.57
630.50	1211.27
630.84	1203.25
631.19	1195.20
631.53	1187.75
631.88	1180.15
632.22	1172.53
632.57	1165.30
632.91	1157.80
633.26	1150.40
633.60	1142.90
633.95	1135.65
634.29	1128.59
634.64	1122.00
634.98	1114.73
635.32	1107.60
635.67	1100.99
636.01	1094.38
636.36	1087.72
636.70	1081.17
637.05	1074.80
637.39	1068.42
637.73	1061.92
638.08	1055.97
638.42	1050.08
638.77	1043.74
639.11	1037.17
639.45	1030.85
639.80	1024.33
640.14	1018.09
640.49	1011.55
640.83	1005.33
641.17	999.23
641.52	992.95
641.86	986.43
642.20	980.54
642.55	974.09
642.89	967.67
643.23	961.09
643.58	955.30
643.92	949.14
644.26	943.13
644.61	936.94
644.95	930.98
645.29	924.39
645.64	917.71
645.98	911.38
646.32	905.43
646.66	899.43
647.01	893.58
647.35	887.83
647.69	882.01
648.04	876.50
648.38	870.73
648.72	864.81
649.06	858.78
649.41	852.85
649.75	847.07
650.09	841.15
650.43	835.42
650.78	829.27
651.12	823.28
651.46	817.54
651.80	811.93
652.14	806.54
652.49	801.32
652.83	796.08
653.17	790.47
653.51	784.92
653.85	779.46
654.20	773.93
654.54	767.90
654.88	762.11
655.22	756.15
655.56	750.44
655.90	744.95
656.25	739.67
656.59	734.38
656.93	729.26
657.27	724.05
657.61	718.56
657.95	713.43
658.29	708.39
658.64	703.09
658.98	697.69
659.32	692.17
659.66	686.87
660.00	681.66
660.34	676.67
660.68	671.74
661.02	666.70
661.36	661.91
661.70	657.38
662.05	652.99
662.39	648.70
662.73	644.24
663.07	639.84
663.41	635.44
663.75	630.96
664.09	626.40
664.43	622.00
664.77	617.92
665.11	613.74
665.45	609.54
665.79	605.47
666.13	601.37
666.47	597.28
666.81	593.18
667.15	588.99
667.49	585.08
667.83	581.13
668.17	577.19
668.51	573.11
668.85	569.11
669.19	565.29
669.53	561.49
669.87	557.66
670.21	553.94
670.55	550.27
670.89	546.83
671.23	543.40
671.57	539.87
671.91	536.34
672.25	532.76
672.58	529.30
672.92	525.88
673.26	522.70
673.60	519.60
673.94	516.52
674.28	513.58
674.62	510.65
674.96	507.58
675.30	504.76
675.64	501.86
675.97	499.06
676.31	496.19
676.65	493.21
676.99	490.43
677.33	487.60
677.67	484.76
678.01	481.79
678.34	478.83
678.68	475.98
679.02	473.15
679.36	470.38
679.70	467.63
680.04	464.89
680.37	462.07
680.71	459.23
681.05	456.57
681.39	453.84
681.73	451.14
682.06	448.67
682.40	446.09
682.74	443.59
683.08	441.01
683.42	438.43
683.75	436.01
684.09	433.45
684.43	430.95
684.77	428.48
685.10	426.11
685.44	423.72
685.78	421.43
686.12	419.18
686.45	416.91
686.79	414.65
687.13	412.43
687.46	410.32
687.80	408.19
688.14	405.91
688.48	403.90
688.81	401.71
689.15	399.53
689.49	397.36
689.82	395.24
690.16	393.18
690.50	391.18
690.83	389.26
691.17	387.32
691.51	385.44
691.84	383.64
692.18	381.71
692.52	379.79
692.85	377.87
693.19	375.99
693.52	374.15
693.86	372.31
694.20	370.55
694.53	368.74
694.87	366.87
695.21	365.10
695.54	363.27
695.88	361.48
696.21	359.74
696.55	358.05
696.88	356.37
697.22	354.69
697.56	353.08
697.89	351.38
698.23	349.76
698.56	348.13
698.90	346.56
699.23	344.92
699.57	343.38
699.90	341.87
700.24	340.30
700.58	338.81
700.91	337.31
701.25	335.87
701.58	334.48
701.92	333.11
702.25	331.77
702.59	330.43
702.92	329.13
703.26	327.83
703.59	326.56
703.93	325.35
704.26	324.13
704.60	322.85
704.93	321.58
705.26	320.33
705.60	319.15
705.93	317.97
706.27	316.94
706.60	315.88
706.94	314.74
707.27	313.60
707.61	312.52
707.94	311.50
708.27	310.36
708.61	309.30
708.94	308.32
709.28	307.32
709.61	306.33
709.94	305.37
710.28	304.35
710.61	303.35
710.95	302.30
711.28	301.41
711.61	300.47
711.95	299.57
712.28	298.64
712.61	297.68
712.95	296.73
713.28	295.82
713.61	294.89
713.95	294.05
714.28	293.24
714.61	292.35
714.95	291.52
715.28	290.69
715.61	289.80
715.95	288.92
716.28	288.06
716.61	287.20
716.95	286.35
717.28	285.61
717.61	284.82
717.94	284.07
718.28	283.23
718.61	282.47
718.94	281.72
719.27	281.06
719.61	280.44
719.94	279.78
720.27	279.09
720.60	278.44
720.94	277.79
721.27	277.19
721.60	276.61
721.93	276.01
722.27	275.47
722.60	274.90
722.93	274.34
723.26	273.79
723.59	273.25
723.93	272.74
724.26	272.19
724.59	271.65
724.92	271.10
725.25	270.58
725.59	270.06
725.92	269.59
726.25	269.06
726.58	268.54
726.91	268.08
727.24	267.58
727.57	267.11
727.91	266.59
728.24	266.10
728.57	265.62
728.90	265.15
729.23	264.65
729.56	264.28
729.89	263.81
730.22	263.33
730.55	262.86
730.89	262.47
731.22	262.02
731.55	261.63
731.88	261.24
732.21	260.87
732.54	260.47
732.87	260.05
733.20	259.66
733.53	259.28
733.86	258.88
734.19	258.49
734.52	258.15
734.85	257.85
735.18	257.47
735.51	257.13
735.84	256.78
736.17	256.44
736.50	255.99
736.83	255.77
737.16	255.47
737.49	255.17
737.82	254.81
738.15	254.50
738.48	254.11
738.81	253.79
739.14	253.45
739.47	253.14
739.80	252.85
740.13	252.54
740.46	252.23
740.79	251.89
741.12	251.58
741.45	251.28
741.78	250.96
742.11	250.67
742.44	250.32
742.77	249.99
743.10	249.67
743.43	249.38
743.75	249.02
744.08	248.85
744.41	248.54
744.74	248.25
745.07	247.95
745.40	247.74
745.73	247.49
746.06	247.22
746.39	246.96
746.71	246.68
747.04	246.40
747.37	246.16
747.70	245.95
748.03	245.69
748.36	245.42
748.68	245.15
749.01	244.92
749.34	244.73
749.67	244.54
750.00	244.32
750.33	244.15
750.65	243.92
750.98	243.57
751.31	243.33
751.64	243.15
751.97	243.00
752.29	242.76
752.62	242.49
752.95	242.27
753.28	242.00
753.60	241.77
753.93	241.59
754.26	241.34
754.59	241.10
754.91	240.89
755.24	240.70
755.57	240.51
755.90	240.28
756.22	240.04
756.55	239.82
756.88	239.62
757.20	239.37
757.53	239.15
757.86	238.95
758.19	238.79
758.51	238.58
758.84	238.32
759.17	238.16
759.49	238.03
759.82	237.91
760.15	237.77
760.47	237.63
760.80	237.44
761.13	237.32
761.45	237.15
761.78	236.99
762.11	236.84
762.43	236.70
762.76	236.58
763.08	236.45
763.41	236.31
763.74	236.16
764.06	235.99
764.39	235.84
764.71	235.72
765.04	235.58
765.37	235.42
765.69	235.31
766.02	235.16
766.34	234.97
766.67	234.82
767.00	234.73
767.32	234.68
767.65	234.64
767.97	234.50
768.30	234.39
768.62	234.31
768.95	234.20
769.27	234.10
769.60	233.99
769.92	233.88
770.25	233.77
770.57	233.69
770.90	233.61
771.22	233.54
771.55	233.44
771.87	233.39
772.20	233.34
772.52	233.31
772.85	233.34
773.17	233.27
773.50	233.15
773.82	233.03
774.15	232.87
774.47	232.72
774.80	232.61
775.12	232.54
775.45	232.41
775.77	232.31
776.09	232.22
776.42	232.15
776.74	232.14
777.07	232.10
777.39	232.02
777.72	231.96
778.04	231.89
778.36	231.84
778.69	231.79
779.01	231.74
779.33	231.60
779.66	231.44
779.98	231.42
780.31	231.38
780.63	231.36
780.95	231.33
781.28	231.29
781.60	231.25
781.92	231.21
782.25	231.19
782.57	231.17
782.89	231.14
783.22	231.10
783.54	231.02
783.86	230.96
784.19	230.91
784.51	230.87
784.83	230.82
785.16	230.75
785.48	230.62
785.80	230.58
786.12	230.52
786.45	230.46
786.77	230.40
787.09	230.39
