SpectraSuite Data File
++++++++++++++++++++++++++++++++++++
Date: Fri Feb 01 16:24:05 EST 2013
User: group
Dark Spectrum Present: No
Reference Spectrum Present: No
Number of Sampled Component Spectra: 1
Spectrometers: USB2E7196
Integration Time (usec): 35000 (USB2E7196)
Spectra Averaged: 100 (USB2E7196)
Boxcar Smoothing: 10 (USB2E7196)
Correct for Electrical Dark: No (USB2E7196)
Strobe/Lamp Enabled: No (USB2E7196)
Correct for Detector Non-linearity: No (USB2E7196)
Correct for Stray Light: No (USB2E7196)
Number of Pixels in Processed Spectrum: 2048
>>>>>Begin Processed Spectral Data<<<<<
339.09	0.00
339.48	213.97
339.86	215.37
340.24	217.43
340.63	217.97
341.01	220.93
341.39	220.70
341.78	222.05
342.16	223.60
342.54	223.97
342.93	212.35
343.31	223.09
343.69	223.65
344.07	224.15
344.46	224.56
344.84	224.95
345.22	225.22
345.60	225.48
345.99	225.69
346.37	225.80
346.75	225.94
347.13	226.03
347.52	226.10
347.90	226.15
348.28	226.18
348.66	226.22
349.05	226.25
349.43	226.29
349.81	226.30
350.19	226.36
350.57	226.45
350.96	226.52
351.34	226.62
351.72	226.69
352.10	226.77
352.48	226.82
352.87	226.87
353.25	226.93
353.63	227.00
354.01	227.08
354.39	227.21
354.77	227.28
355.15	227.36
355.54	227.41
355.92	227.45
356.30	227.51
356.68	227.66
357.06	227.71
357.44	227.76
357.82	227.83
358.20	227.87
358.58	227.91
358.97	227.99
359.35	228.06
359.73	228.15
360.11	228.19
360.49	228.26
360.87	228.29
361.25	228.34
361.63	228.41
362.01	228.44
362.39	228.46
362.77	228.48
363.15	228.52
363.53	228.55
363.91	228.58
364.29	228.63
364.67	228.53
365.05	228.57
365.43	228.58
365.81	228.64
366.19	228.72
366.57	228.76
366.95	228.74
367.33	228.68
367.71	228.63
368.09	228.62
368.47	228.61
368.85	228.59
369.23	228.60
369.61	228.55
369.99	228.56
370.37	228.51
370.75	228.51
371.13	228.43
371.51	228.37
371.89	228.32
372.27	228.27
372.65	228.22
373.03	228.16
373.41	228.09
373.78	227.99
374.16	227.88
374.54	227.79
374.92	227.69
375.30	227.63
375.68	227.54
376.06	227.50
376.44	227.42
376.82	227.37
377.19	227.27
377.57	227.18
377.95	227.08
378.33	226.99
378.71	226.86
379.09	226.82
379.47	226.79
379.84	226.69
380.22	226.62
380.60	226.56
380.98	226.49
381.36	226.43
381.73	226.38
382.11	226.31
382.49	226.27
382.87	226.23
383.25	226.19
383.62	226.29
384.00	226.19
384.38	226.14
384.76	226.11
385.13	226.11
385.51	226.07
385.89	226.00
386.27	225.97
386.64	225.93
387.02	225.89
387.40	225.81
387.78	225.83
388.15	225.79
388.53	225.74
388.91	225.73
389.29	225.70
389.66	225.69
390.04	225.68
390.42	225.64
390.79	225.66
391.17	225.63
391.55	225.47
391.92	225.50
392.30	225.51
392.68	225.49
393.05	225.46
393.43	225.52
393.81	225.53
394.18	225.57
394.56	225.59
394.94	225.63
395.31	225.68
395.69	225.70
396.06	225.74
396.44	225.78
396.82	225.79
397.19	225.85
397.57	225.87
397.95	225.92
398.32	225.93
398.70	225.96
399.07	226.06
399.45	226.15
399.82	226.19
400.20	226.27
400.58	226.32
400.95	226.37
401.33	226.43
401.70	226.58
402.08	226.65
402.45	226.72
402.83	226.83
403.20	226.92
403.58	227.05
403.95	227.15
404.33	227.27
404.71	227.40
405.08	227.60
405.46	227.77
405.83	227.94
406.21	228.09
406.58	228.24
406.96	228.38
407.33	228.56
407.70	228.76
408.08	228.99
408.45	229.23
408.83	229.46
409.20	229.67
409.58	229.86
409.95	230.10
410.33	230.38
410.70	230.64
411.08	230.92
411.45	231.19
411.82	231.51
412.20	231.86
412.57	232.28
412.95	232.55
413.32	232.95
413.69	233.30
414.07	233.77
414.44	234.24
414.82	234.72
415.19	235.25
415.56	235.81
415.94	236.35
416.31	236.95
416.68	237.56
417.06	238.24
417.43	238.90
417.81	239.66
418.18	240.44
418.55	241.23
418.93	242.10
419.30	242.99
419.67	243.93
420.04	244.92
420.42	245.88
420.79	247.04
421.16	248.17
421.54	249.39
421.91	250.60
422.28	251.87
422.66	253.19
423.03	254.49
423.40	255.78
423.77	257.18
424.15	258.62
424.52	260.14
424.89	261.75
425.26	263.28
425.64	264.74
426.01	266.34
426.38	268.02
426.75	269.74
427.13	271.48
427.50	273.28
427.87	275.15
428.24	277.01
428.61	278.78
428.99	280.71
429.36	282.81
429.73	284.86
430.10	286.83
430.47	288.88
430.85	290.95
431.22	293.21
431.59	295.60
431.96	297.84
432.33	300.26
432.70	302.64
433.08	305.45
433.45	308.07
433.82	310.66
434.19	313.53
434.56	316.31
434.93	318.93
435.30	321.56
435.68	324.41
436.05	327.24
436.42	329.98
436.79	332.54
437.16	335.21
437.53	338.05
437.90	340.92
438.27	343.65
438.64	346.51
439.01	349.10
439.38	351.34
439.75	353.49
440.13	355.99
440.50	358.30
440.87	360.16
441.24	362.14
441.61	364.26
441.98	365.74
442.35	367.53
442.72	369.40
443.09	371.19
443.46	372.18
443.83	372.76
444.20	373.30
444.57	374.07
444.94	374.36
445.31	374.65
445.68	374.98
446.05	375.08
446.42	374.73
446.79	374.32
447.16	373.86
447.53	373.52
447.90	372.38
448.27	371.23
448.64	369.66
449.01	368.47
449.37	366.56
449.74	364.64
450.11	362.42
450.48	359.95
450.85	357.40
451.22	355.25
451.59	353.22
451.96	351.32
452.33	348.77
452.70	346.47
453.07	343.68
453.43	340.78
453.80	338.01
454.17	335.29
454.54	332.74
454.91	330.03
455.28	327.39
455.65	324.93
456.02	322.52
456.38	320.38
456.75	317.75
457.12	315.50
457.49	313.27
457.86	311.08
458.23	309.26
458.59	307.26
458.96	305.23
459.33	303.40
459.70	301.50
460.07	299.99
460.43	298.25
460.80	296.66
461.17	295.21
461.54	293.73
461.91	292.32
462.27	290.89
462.64	289.61
463.01	288.28
463.38	286.97
463.74	285.59
464.11	284.43
464.48	283.44
464.85	282.35
465.21	281.54
465.58	280.63
465.95	279.51
466.32	278.58
466.68	277.62
467.05	276.75
467.42	275.88
467.78	274.92
468.15	274.04
468.52	273.38
468.88	272.55
469.25	271.77
469.62	271.18
469.98	270.52
470.35	269.94
470.72	269.35
471.08	268.70
471.45	268.17
471.82	267.63
472.18	267.03
472.55	266.56
472.92	266.05
473.28	265.58
473.65	265.15
474.02	264.73
474.38	264.41
474.75	264.07
475.11	263.71
475.48	263.49
475.85	263.27
476.21	263.04
476.58	262.83
476.94	262.73
477.31	262.56
477.67	262.41
478.04	262.30
478.41	262.22
478.77	262.20
479.14	262.15
479.50	262.15
479.87	262.20
480.23	262.33
480.60	262.37
480.96	262.50
481.33	262.71
481.69	262.88
482.06	263.08
482.42	263.30
482.79	263.57
483.15	263.89
483.52	264.25
483.88	264.62
484.25	265.05
484.61	265.42
484.98	265.89
485.34	266.48
485.71	267.03
486.07	267.66
486.44	268.26
486.80	268.96
487.17	269.71
487.53	270.55
487.90	271.41
488.26	272.34
488.62	273.31
488.99	274.28
489.35	275.37
489.72	276.50
490.08	277.67
490.44	278.93
490.81	280.26
491.17	281.64
491.54	283.11
491.90	284.65
492.26	286.30
492.63	288.02
492.99	289.76
493.36	291.67
493.72	293.73
494.08	295.83
494.45	298.10
494.81	300.43
495.17	302.87
495.54	305.43
495.90	308.11
496.26	310.89
496.63	313.89
496.99	317.01
497.35	320.31
497.72	323.69
498.08	327.21
498.44	330.88
498.80	334.79
499.17	338.81
499.53	342.94
499.89	347.34
500.26	351.86
500.62	356.55
500.98	361.51
501.34	366.62
501.71	372.00
502.07	377.45
502.43	383.14
502.79	388.94
503.16	395.00
503.52	401.33
503.88	407.79
504.24	414.39
504.60	421.29
504.97	428.40
505.33	435.78
505.69	443.51
506.05	451.27
506.41	459.19
506.78	467.39
507.14	475.87
507.50	484.57
507.86	493.58
508.22	502.75
508.59	511.91
508.95	521.44
509.31	531.24
509.67	541.36
510.03	551.65
510.39	562.24
510.75	573.02
511.12	583.91
511.48	595.18
511.84	606.64
512.20	618.10
512.56	630.05
512.92	642.23
513.28	654.51
513.64	667.00
514.00	679.61
514.37	692.54
514.73	705.54
515.09	718.61
515.45	731.95
515.81	745.58
516.17	759.63
516.53	773.80
516.89	788.00
517.25	802.08
517.61	816.43
517.97	830.92
518.33	845.31
518.69	860.06
519.05	874.97
519.41	890.12
519.77	905.69
520.13	921.15
520.49	936.46
520.85	951.92
521.21	967.57
521.57	983.85
521.93	999.55
522.29	1015.98
522.65	1032.19
523.01	1048.32
523.37	1064.43
523.73	1080.51
524.09	1096.47
524.45	1112.62
524.81	1129.23
525.17	1145.94
525.53	1162.76
525.89	1179.60
526.25	1196.39
526.61	1212.64
526.97	1229.38
527.33	1245.79
527.68	1262.23
528.04	1278.75
528.40	1295.23
528.76	1312.25
529.12	1328.77
529.48	1345.55
529.84	1361.42
530.20	1377.99
530.56	1395.00
530.91	1412.20
531.27	1428.88
531.63	1445.45
531.99	1461.98
532.35	1477.81
532.71	1493.73
533.07	1509.84
533.42	1525.64
533.78	1541.54
534.14	1557.85
534.50	1572.95
534.86	1588.75
535.21	1603.90
535.57	1619.65
535.93	1635.12
536.29	1649.84
536.65	1664.68
537.00	1679.45
537.36	1694.74
537.72	1709.18
538.08	1723.43
538.44	1737.13
538.79	1750.93
539.15	1764.35
539.51	1778.06
539.87	1792.42
540.22	1805.92
540.58	1819.60
540.94	1832.83
541.29	1845.77
541.65	1858.36
542.01	1871.57
542.37	1883.74
542.72	1896.06
543.08	1907.70
543.44	1919.94
543.79	1931.14
544.15	1942.19
544.51	1953.68
544.87	1964.53
545.22	1975.14
545.58	1985.28
545.94	1994.96
546.29	2004.74
546.65	2014.62
547.01	2023.80
547.36	2032.43
547.72	2040.94
548.07	2048.71
548.43	2056.97
548.79	2064.90
549.14	2072.45
549.50	2079.81
549.86	2087.49
550.21	2094.70
550.57	2101.90
550.92	2108.44
551.28	2115.51
551.64	2122.44
551.99	2128.79
552.35	2134.94
552.70	2141.18
553.06	2147.12
553.41	2153.54
553.77	2159.57
554.13	2165.53
554.48	2171.68
554.84	2177.07
555.19	2182.38
555.55	2187.61
555.90	2191.92
556.26	2196.82
556.61	2201.50
556.97	2205.66
557.32	2209.71
557.68	2213.84
558.03	2218.10
558.39	2221.73
558.74	2226.20
559.10	2230.26
559.45	2234.01
559.81	2238.25
560.16	2242.17
560.52	2245.42
560.87	2248.71
561.23	2251.46
561.58	2254.58
561.94	2257.05
562.29	2259.36
562.64	2261.98
563.00	2264.55
563.35	2268.15
563.71	2271.16
564.06	2274.34
564.42	2277.25
564.77	2279.73
565.12	2281.96
565.48	2284.02
565.83	2286.01
566.19	2287.37
566.54	2288.16
566.89	2289.40
567.25	2290.10
567.60	2291.28
567.96	2293.05
568.31	2293.82
568.66	2294.97
569.02	2295.51
569.37	2295.81
569.72	2296.74
570.08	2297.01
570.43	2297.10
570.78	2296.46
571.14	2295.07
571.49	2293.84
571.84	2293.62
572.20	2292.73
572.55	2291.92
572.90	2290.31
573.26	2288.99
573.61	2287.50
573.96	2285.82
574.31	2282.93
574.67	2279.97
575.02	2276.45
575.37	2273.11
575.72	2269.45
576.08	2265.94
576.43	2262.65
576.78	2259.09
577.13	2255.99
577.49	2252.93
577.84	2249.45
578.19	2245.86
578.54	2242.27
578.90	2238.12
579.25	2232.65
579.60	2227.66
579.95	2222.57
580.30	2217.59
580.66	2212.25
581.01	2207.14
581.36	2202.23
581.71	2198.00
582.06	2193.61
582.42	2189.14
582.77	2183.92
583.12	2179.48
583.47	2174.95
583.82	2169.99
584.17	2164.78
584.53	2159.34
584.88	2153.65
585.23	2147.83
585.58	2142.48
585.93	2137.19
586.28	2132.41
586.63	2127.34
586.98	2122.25
587.34	2117.64
587.69	2112.86
588.04	2107.77
588.39	2102.32
588.74	2095.95
589.09	2089.98
589.44	2083.21
589.79	2077.25
590.14	2071.73
590.49	2065.17
590.84	2058.80
591.19	2052.81
591.54	2046.51
591.89	2039.37
592.25	2032.68
592.60	2025.53
592.95	2017.96
593.30	2010.50
593.65	2002.96
594.00	1996.00
594.35	1988.91
594.70	1980.91
595.05	1973.83
595.40	1966.68
595.75	1959.16
596.10	1952.99
596.45	1946.15
596.80	1940.10
597.15	1933.59
597.50	1926.51
597.85	1920.14
598.19	1913.52
598.54	1906.32
598.89	1899.68
599.24	1893.68
599.59	1887.10
599.94	1880.97
600.29	1874.55
600.64	1867.97
600.99	1860.66
601.34	1853.89
601.69	1846.88
602.04	1840.18
602.39	1832.75
602.74	1825.88
603.08	1819.12
603.43	1812.46
603.78	1805.29
604.13	1798.03
604.48	1790.74
604.83	1783.87
605.18	1776.85
605.53	1768.83
605.87	1760.92
606.22	1753.77
606.57	1745.89
606.92	1738.50
607.27	1731.43
607.62	1724.68
607.96	1717.54
608.31	1711.00
608.66	1703.32
609.01	1695.85
609.36	1688.21
609.70	1680.22
610.05	1672.29
610.40	1664.59
610.75	1656.23
611.10	1648.55
611.44	1640.10
611.79	1632.06
612.14	1623.46
612.49	1614.40
612.83	1606.08
613.18	1597.87
613.53	1589.64
613.88	1580.98
614.22	1572.64
614.57	1563.95
614.92	1555.87
615.27	1548.27
615.61	1539.79
615.96	1531.76
616.31	1524.08
616.65	1516.72
617.00	1509.18
617.35	1501.48
617.70	1493.26
618.04	1484.77
618.39	1476.49
618.74	1469.01
619.08	1460.68
619.43	1453.15
619.78	1446.21
620.12	1439.02
620.47	1431.63
620.82	1423.48
621.16	1416.09
621.51	1408.71
621.85	1401.19
622.20	1392.65
622.55	1384.28
622.89	1376.43
623.24	1368.85
623.59	1361.44
623.93	1353.90
624.28	1346.67
624.62	1339.05
624.97	1331.88
625.32	1325.11
625.66	1318.11
626.01	1310.90
626.35	1303.52
626.70	1295.65
627.04	1287.91
627.39	1280.13
627.73	1272.76
628.08	1265.98
628.43	1258.67
628.77	1251.19
629.12	1243.69
629.46	1236.55
629.81	1229.17
630.15	1221.92
630.50	1214.48
630.84	1206.36
631.19	1198.42
631.53	1190.86
631.88	1183.41
632.22	1175.70
632.57	1168.29
632.91	1160.75
633.26	1153.38
633.60	1145.93
633.95	1138.80
634.29	1131.73
634.64	1125.06
634.98	1117.65
635.32	1110.32
635.67	1103.70
636.01	1096.99
636.36	1090.03
636.70	1083.43
637.05	1076.83
637.39	1070.38
637.73	1063.94
638.08	1058.08
638.42	1052.00
638.77	1045.59
639.11	1038.92
639.45	1032.54
639.80	1025.91
640.14	1019.49
640.49	1012.86
640.83	1006.59
641.17	1000.34
641.52	994.04
641.86	987.55
642.20	981.74
642.55	975.45
642.89	969.09
643.23	962.57
643.58	956.88
643.92	950.70
644.26	944.60
644.61	938.59
644.95	932.52
645.29	925.86
645.64	919.21
645.98	912.85
646.32	906.98
646.66	900.88
647.01	895.15
647.35	889.40
647.69	883.55
648.04	878.06
648.38	872.29
648.72	866.28
649.06	860.23
649.41	854.32
649.75	848.43
650.09	842.47
650.43	836.75
650.78	830.59
651.12	824.63
651.46	818.90
651.80	813.11
652.14	807.67
652.49	802.31
652.83	797.16
653.17	791.49
653.51	785.78
653.85	780.43
654.20	774.76
654.54	768.82
654.88	763.18
655.22	757.30
655.56	751.62
655.90	746.17
656.25	740.93
656.59	735.58
656.93	730.43
657.27	725.24
657.61	719.75
657.95	714.63
658.29	709.55
658.64	704.33
658.98	699.00
659.32	693.62
659.66	688.45
660.00	683.00
660.34	678.09
660.68	673.17
661.02	668.22
661.36	663.52
661.70	658.95
662.05	654.56
662.39	650.19
662.73	645.70
663.07	641.27
663.41	636.79
663.75	632.29
664.09	627.73
664.43	623.33
664.77	619.23
665.11	615.01
665.45	610.89
665.79	606.77
666.13	602.74
666.47	598.60
666.81	594.41
667.15	590.34
667.49	586.41
667.83	582.60
668.17	578.63
668.51	574.52
668.85	570.44
669.19	566.51
669.53	562.72
669.87	558.86
670.21	555.17
670.55	551.54
670.89	548.13
671.23	544.68
671.57	541.16
671.91	537.60
672.25	534.05
672.58	530.50
672.92	527.04
673.26	523.80
673.60	520.58
673.94	517.44
674.28	514.56
674.62	511.55
674.96	508.49
675.30	505.61
675.64	502.67
675.97	499.96
676.31	497.14
676.65	494.16
676.99	491.45
677.33	488.62
677.67	485.86
678.01	482.81
678.34	479.90
678.68	477.00
679.02	474.18
679.36	471.39
679.70	468.70
680.04	466.01
680.37	463.11
680.71	460.36
681.05	457.71
681.39	454.98
681.73	452.34
682.06	449.77
682.40	447.18
682.74	444.64
683.08	442.10
683.42	439.50
683.75	437.01
684.09	434.46
684.43	431.94
684.77	429.44
685.10	427.08
685.44	424.72
685.78	422.45
686.12	420.18
686.45	417.89
686.79	415.58
687.13	413.40
687.46	411.29
687.80	409.15
688.14	406.99
688.48	404.89
688.81	402.63
689.15	400.48
689.49	398.32
689.82	396.26
690.16	394.15
690.50	392.22
690.83	390.26
691.17	388.33
691.51	386.48
691.84	384.66
692.18	382.71
692.52	380.76
692.85	378.86
693.19	377.02
693.52	375.19
693.86	373.35
694.20	371.55
694.53	369.73
694.87	367.85
695.21	366.04
695.54	364.28
695.88	362.56
696.21	360.84
696.55	359.20
696.88	357.52
697.22	355.88
697.56	354.20
697.89	352.57
698.23	350.92
698.56	349.32
698.90	347.72
699.23	346.06
699.57	344.47
699.90	342.91
700.24	341.33
700.58	339.80
700.91	338.33
701.25	336.89
701.58	335.50
701.92	334.16
702.25	332.77
702.59	331.36
702.92	330.04
703.26	328.73
703.59	327.43
703.93	326.25
704.26	324.99
704.60	323.70
704.93	322.41
705.26	321.17
705.60	319.98
705.93	318.79
706.27	317.74
706.60	316.69
706.94	315.62
707.27	314.47
707.61	313.39
707.94	312.35
708.27	311.18
708.61	310.10
708.94	309.08
709.28	308.08
709.61	307.12
709.94	306.18
710.28	305.15
710.61	304.11
710.95	303.02
711.28	302.10
711.61	301.17
711.95	300.21
712.28	299.24
712.61	298.26
712.95	297.32
713.28	296.44
713.61	295.51
713.95	294.64
714.28	293.81
714.61	292.96
714.95	292.12
715.28	291.31
715.61	290.46
715.95	289.64
716.28	288.79
716.61	287.98
716.95	287.14
717.28	286.44
717.61	285.64
717.94	284.91
718.28	284.10
718.61	283.37
718.94	282.72
719.27	282.07
719.61	281.42
719.94	280.76
720.27	280.06
720.60	279.40
720.94	278.74
721.27	278.13
721.60	277.52
721.93	276.92
722.27	276.35
722.60	275.77
722.93	275.18
723.26	274.63
723.59	274.02
723.93	273.49
724.26	272.89
724.59	272.38
724.92	271.83
725.25	271.35
725.59	270.81
725.92	270.28
726.25	269.75
726.58	269.24
726.91	268.79
727.24	268.30
727.57	267.85
727.91	267.38
728.24	266.90
728.57	266.43
728.90	265.99
729.23	265.51
729.56	265.07
729.89	264.59
730.22	264.15
730.55	263.70
730.89	263.24
731.22	262.80
731.55	262.40
731.88	261.98
732.21	261.53
732.54	261.12
732.87	260.73
733.20	260.36
733.53	259.97
733.86	259.57
734.19	259.21
734.52	258.84
734.85	258.51
735.18	258.16
735.51	257.83
735.84	257.43
736.17	257.09
736.50	256.71
736.83	256.50
737.16	256.14
737.49	255.82
737.82	255.49
738.15	255.15
738.48	254.81
738.81	254.49
739.14	254.19
739.47	253.86
739.80	253.52
740.13	253.21
740.46	252.88
740.79	252.57
741.12	252.26
741.45	251.93
741.78	251.61
742.11	251.28
742.44	250.89
742.77	250.62
743.10	250.31
743.43	250.02
743.75	249.62
744.08	249.45
744.41	249.14
744.74	248.85
745.07	248.57
745.40	248.32
745.73	248.08
746.06	247.77
746.39	247.49
746.71	247.23
747.04	246.97
747.37	246.69
747.70	246.41
748.03	246.13
748.36	245.89
748.68	245.65
749.01	245.41
749.34	245.21
749.67	244.96
750.00	244.74
750.33	244.57
750.65	244.32
750.98	243.99
751.31	243.79
751.64	243.59
751.97	243.42
752.29	243.21
752.62	242.93
752.95	242.70
753.28	242.53
753.60	242.32
753.93	242.13
754.26	241.93
754.59	241.73
754.91	241.50
755.24	241.27
755.57	241.04
755.90	240.84
756.22	240.65
756.55	240.45
756.88	240.22
757.20	239.98
757.53	239.81
757.86	239.65
758.19	239.49
758.51	239.30
758.84	239.07
759.17	238.89
759.49	238.73
759.82	238.63
760.15	238.46
760.47	238.32
760.80	238.14
761.13	238.00
761.45	237.83
761.78	237.72
762.11	237.56
762.43	237.44
762.76	237.30
763.08	237.18
763.41	237.04
763.74	236.90
764.06	236.76
764.39	236.63
764.71	236.50
765.04	236.35
765.37	236.24
765.69	236.10
766.02	235.99
766.34	235.86
766.67	235.70
767.00	235.59
767.32	235.50
767.65	235.46
767.97	235.33
768.30	235.24
768.62	235.11
768.95	234.98
769.27	234.89
769.60	234.80
769.92	234.66
770.25	234.58
770.57	234.52
770.90	234.40
771.22	234.26
771.55	234.19
771.87	234.10
772.20	233.98
772.52	234.00
772.85	234.00
773.17	233.92
773.50	233.82
773.82	233.75
774.15	233.62
774.47	233.46
774.80	233.38
775.12	233.32
775.45	233.28
775.77	233.25
776.09	233.16
776.42	233.07
776.74	233.07
777.07	233.00
777.39	232.93
777.72	232.86
778.04	232.80
778.36	232.74
778.69	232.67
779.01	232.63
779.33	232.47
779.66	232.30
779.98	232.22
780.31	232.14
780.63	232.11
780.95	232.08
781.28	232.01
781.60	231.95
781.92	231.87
782.25	231.80
782.57	231.74
782.89	231.64
783.22	231.59
783.54	231.46
783.86	231.41
784.19	231.33
784.51	231.29
784.83	231.24
785.16	231.18
785.48	231.15
785.80	231.07
786.12	231.03
786.45	230.99
786.77	230.97
787.09	230.93
