SpectraSuite Data File
++++++++++++++++++++++++++++++++++++
Date: Fri Feb 01 15:57:03 EST 2013
User: group
Dark Spectrum Present: No
Reference Spectrum Present: No
Number of Sampled Component Spectra: 1
Spectrometers: USB2E7196
Integration Time (usec): 35000 (USB2E7196)
Spectra Averaged: 100 (USB2E7196)
Boxcar Smoothing: 10 (USB2E7196)
Correct for Electrical Dark: No (USB2E7196)
Strobe/Lamp Enabled: No (USB2E7196)
Correct for Detector Non-linearity: No (USB2E7196)
Correct for Stray Light: No (USB2E7196)
Number of Pixels in Processed Spectrum: 2048
>>>>>Begin Processed Spectral Data<<<<<
339.09	0.00
339.48	214.21
339.86	216.26
340.24	217.43
340.63	219.05
341.01	222.01
341.39	221.25
341.78	223.06
342.16	224.37
342.54	224.60
342.93	213.14
343.31	223.92
343.69	224.50
344.07	224.96
344.46	225.41
344.84	225.81
345.22	226.05
345.60	226.34
345.99	226.52
346.37	226.63
346.75	226.74
347.13	226.84
347.52	226.89
347.90	226.98
348.28	227.01
348.66	227.05
349.05	227.04
349.43	227.08
349.81	227.14
350.19	227.22
350.57	227.27
350.96	227.30
351.34	227.38
351.72	227.47
352.10	227.56
352.48	227.63
352.87	227.65
353.25	227.72
353.63	227.79
354.01	227.89
354.39	227.98
354.77	228.06
355.15	228.15
355.54	228.20
355.92	228.22
356.30	228.27
356.68	228.39
357.06	228.52
357.44	228.59
357.82	228.65
358.20	228.72
358.58	228.82
358.97	228.92
359.35	228.99
359.73	229.06
360.11	229.10
360.49	229.13
360.87	229.17
361.25	229.22
361.63	229.28
362.01	229.30
362.39	229.35
362.77	229.42
363.15	229.44
363.53	229.47
363.91	229.52
364.29	229.58
364.67	229.53
365.05	229.50
365.43	229.52
365.81	229.53
366.19	229.58
366.57	229.58
366.95	229.56
367.33	229.53
367.71	229.53
368.09	229.56
368.47	229.57
368.85	229.58
369.23	229.57
369.61	229.50
369.99	229.50
370.37	229.46
370.75	229.43
371.13	229.36
371.51	229.29
371.89	229.25
372.27	229.17
372.65	229.12
373.03	229.09
373.41	229.02
373.78	228.97
374.16	228.83
374.54	228.73
374.92	228.66
375.30	228.57
375.68	228.46
376.06	228.40
376.44	228.34
376.82	228.28
377.19	228.22
377.57	228.16
377.95	228.07
378.33	227.98
378.71	227.88
379.09	227.83
379.47	227.78
379.84	227.69
380.22	227.66
380.60	227.56
380.98	227.46
381.36	227.41
381.73	227.31
382.11	227.25
382.49	227.16
382.87	227.10
383.25	227.06
383.62	227.13
384.00	227.04
384.38	226.99
384.76	226.96
385.13	226.93
385.51	226.84
385.89	226.78
386.27	226.78
386.64	226.74
387.02	226.69
387.40	226.64
387.78	226.58
388.15	226.51
388.53	226.49
388.91	226.43
389.29	226.40
389.66	226.37
390.04	226.36
390.42	226.42
390.79	226.36
391.17	226.36
391.55	226.19
391.92	226.20
392.30	226.17
392.68	226.11
393.05	226.13
393.43	226.14
393.81	226.14
394.18	226.11
394.56	226.13
394.94	226.19
395.31	226.24
395.69	226.32
396.06	226.38
396.44	226.39
396.82	226.44
397.19	226.53
397.57	226.57
397.95	226.63
398.32	226.65
398.70	226.74
399.07	226.82
399.45	226.90
399.82	226.94
400.20	227.03
400.58	227.12
400.95	227.15
401.33	227.27
401.70	227.41
402.08	227.54
402.45	227.61
402.83	227.71
403.20	227.80
403.58	227.89
403.95	228.03
404.33	228.15
404.71	228.29
405.08	228.46
405.46	228.59
405.83	228.75
406.21	228.91
406.58	229.09
406.96	229.24
407.33	229.43
407.70	229.61
408.08	229.88
408.45	230.10
408.83	230.32
409.20	230.52
409.58	230.72
409.95	230.97
410.33	231.26
410.70	231.52
411.08	231.78
411.45	232.09
411.82	232.37
412.20	232.77
412.57	233.18
412.95	233.47
413.32	233.87
413.69	234.28
414.07	234.72
414.44	235.20
414.82	235.68
415.19	236.22
415.56	236.78
415.94	237.32
416.31	237.93
416.68	238.60
417.06	239.33
417.43	239.99
417.81	240.73
418.18	241.52
418.55	242.36
418.93	243.26
419.30	244.18
419.67	245.11
420.04	246.06
420.42	247.07
420.79	248.25
421.16	249.43
421.54	250.61
421.91	251.79
422.28	253.00
422.66	254.35
423.03	255.64
423.40	256.98
423.77	258.36
424.15	259.83
424.52	261.30
424.89	262.91
425.26	264.48
425.64	265.93
426.01	267.51
426.38	269.17
426.75	270.80
427.13	272.52
427.50	274.31
427.87	276.18
428.24	278.00
428.61	279.76
428.99	281.69
429.36	283.79
429.73	285.87
430.10	287.91
430.47	289.94
430.85	292.11
431.22	294.34
431.59	296.72
431.96	298.93
432.33	301.41
432.70	303.77
433.08	306.59
433.45	309.20
433.82	311.81
434.19	314.67
434.56	317.52
434.93	320.11
435.30	322.73
435.68	325.58
436.05	328.41
436.42	331.15
436.79	333.67
437.16	336.33
437.53	339.14
437.90	341.93
438.27	344.65
438.64	347.42
439.01	349.98
439.38	352.25
439.75	354.43
440.13	356.92
440.50	359.23
440.87	361.06
441.24	363.04
441.61	365.24
441.98	366.71
442.35	368.46
442.72	370.38
443.09	372.16
443.46	373.14
443.83	373.73
444.20	374.23
444.57	375.03
444.94	375.36
445.31	375.69
445.68	376.04
446.05	376.14
446.42	375.75
446.79	375.34
447.16	374.84
447.53	374.52
447.90	373.35
448.27	372.20
448.64	370.61
449.01	369.49
449.37	367.51
449.74	365.65
450.11	363.45
450.48	360.95
450.85	358.43
451.22	356.35
451.59	354.35
451.96	352.48
452.33	349.93
452.70	347.55
453.07	344.72
453.43	341.83
453.80	339.12
454.17	336.49
454.54	334.00
454.91	331.31
455.28	328.65
455.65	326.15
456.02	323.70
456.38	321.57
456.75	318.91
457.12	316.60
457.49	314.37
457.86	312.22
458.23	310.36
458.59	308.33
458.96	306.23
459.33	304.41
459.70	302.50
460.07	301.01
460.43	299.32
460.80	297.74
461.17	296.31
461.54	294.78
461.91	293.36
462.27	291.91
462.64	290.66
463.01	289.32
463.38	288.03
463.74	286.69
464.11	285.49
464.48	284.45
464.85	283.37
465.21	282.49
465.58	281.55
465.95	280.48
466.32	279.56
466.68	278.69
467.05	277.78
467.42	276.93
467.78	275.97
468.15	275.08
468.52	274.46
468.88	273.59
469.25	272.78
469.62	272.12
469.98	271.42
470.35	270.80
470.72	270.15
471.08	269.49
471.45	268.96
471.82	268.45
472.18	267.89
472.55	267.46
472.92	266.92
473.28	266.45
473.65	266.03
474.02	265.59
474.38	265.21
474.75	264.82
475.11	264.47
475.48	264.20
475.85	264.00
476.21	263.70
476.58	263.52
476.94	263.42
477.31	263.23
477.67	263.09
478.04	262.99
478.41	262.95
478.77	263.01
479.14	262.94
479.50	262.91
479.87	262.94
480.23	263.02
480.60	263.10
480.96	263.20
481.33	263.37
481.69	263.59
482.06	263.73
482.42	263.97
482.79	264.26
483.15	264.54
483.52	264.88
483.88	265.25
484.25	265.64
484.61	266.07
484.98	266.53
485.34	267.12
485.71	267.70
486.07	268.27
486.44	268.87
486.80	269.55
487.17	270.31
487.53	271.14
487.90	271.99
488.26	272.90
488.62	273.87
488.99	274.82
489.35	275.83
489.72	277.00
490.08	278.18
490.44	279.36
490.81	280.71
491.17	282.08
491.54	283.57
491.90	285.10
492.26	286.72
492.63	288.47
492.99	290.23
493.36	292.09
493.72	294.19
494.08	296.25
494.45	298.44
494.81	300.82
495.17	303.26
495.54	305.82
495.90	308.51
496.26	311.31
496.63	314.34
496.99	317.47
497.35	320.71
497.72	324.14
498.08	327.67
498.44	331.34
498.80	335.27
499.17	339.29
499.53	343.46
499.89	347.82
500.26	352.30
500.62	356.94
500.98	361.93
501.34	366.99
501.71	372.33
502.07	377.84
502.43	383.45
502.79	389.29
503.16	395.40
503.52	401.68
503.88	408.11
504.24	414.73
504.60	421.64
504.97	428.79
505.33	436.13
505.69	443.92
506.05	451.76
506.41	459.67
506.78	467.83
507.14	476.30
507.50	485.04
507.86	494.08
508.22	503.33
508.59	512.54
508.95	522.16
509.31	531.93
509.67	542.08
510.03	552.38
510.39	562.88
510.75	573.63
511.12	584.60
511.48	595.90
511.84	607.30
512.20	618.81
512.56	630.75
512.92	642.98
513.28	655.28
513.64	667.72
514.00	680.35
514.37	693.28
514.73	706.30
515.09	719.31
515.45	732.61
515.81	746.13
516.17	760.12
516.53	774.19
516.89	788.31
517.25	802.40
517.61	816.85
517.97	831.33
518.33	845.79
518.69	860.50
519.05	875.46
519.41	890.64
519.77	906.11
520.13	921.60
520.49	936.89
520.85	952.33
521.21	968.03
521.57	984.29
521.93	1000.03
522.29	1016.52
522.65	1032.81
523.01	1048.98
523.37	1065.03
523.73	1081.17
524.09	1097.16
524.45	1113.58
524.81	1130.20
525.17	1146.95
525.53	1163.83
525.89	1180.61
526.25	1197.37
526.61	1213.78
526.97	1230.56
527.33	1247.04
527.68	1263.68
528.04	1280.15
528.40	1296.65
528.76	1313.60
529.12	1330.16
529.48	1347.04
529.84	1362.94
530.20	1379.51
530.56	1396.60
530.91	1413.91
531.27	1430.58
531.63	1447.15
531.99	1463.73
532.35	1479.53
532.71	1495.39
533.07	1511.59
533.42	1527.53
533.78	1543.63
534.14	1559.76
534.50	1574.99
534.86	1590.90
535.21	1605.95
535.57	1621.80
535.93	1637.31
536.29	1652.04
536.65	1667.03
537.00	1681.76
537.36	1696.99
537.72	1711.58
538.08	1725.84
538.44	1739.56
538.79	1753.33
539.15	1766.88
539.51	1780.51
539.87	1794.84
540.22	1808.62
540.58	1822.43
540.94	1835.53
541.29	1848.34
541.65	1861.05
542.01	1874.27
542.37	1886.43
542.72	1898.81
543.08	1910.54
543.44	1922.85
543.79	1933.99
544.15	1944.95
544.51	1956.59
544.87	1967.58
545.22	1978.28
545.58	1988.44
545.94	1998.35
546.29	2008.25
546.65	2018.13
547.01	2027.41
547.36	2036.27
547.72	2044.65
548.07	2052.28
548.43	2060.51
548.79	2068.53
549.14	2076.02
549.50	2083.33
549.86	2091.01
550.21	2098.35
550.57	2105.60
550.92	2112.09
551.28	2119.28
551.64	2126.32
551.99	2132.65
552.35	2138.86
552.70	2144.90
553.06	2150.94
553.41	2157.18
553.77	2163.28
554.13	2169.43
554.48	2175.54
554.84	2180.95
555.19	2186.16
555.55	2191.35
555.90	2195.97
556.26	2200.77
556.61	2205.60
556.97	2209.90
557.32	2214.15
557.68	2218.24
558.03	2222.48
558.39	2226.29
558.74	2230.95
559.10	2234.90
559.45	2238.60
559.81	2242.84
560.16	2246.72
560.52	2249.95
560.87	2253.46
561.23	2256.08
561.58	2258.90
561.94	2261.39
562.29	2263.82
562.64	2266.48
563.00	2269.15
563.35	2272.63
563.71	2275.96
564.06	2279.14
564.42	2282.04
564.77	2284.42
565.12	2286.72
565.48	2288.58
565.83	2290.38
566.19	2291.64
566.54	2292.52
566.89	2293.64
567.25	2294.16
567.60	2295.48
567.96	2297.18
568.31	2297.86
568.66	2299.02
569.02	2299.60
569.37	2300.00
569.72	2300.73
570.08	2300.89
570.43	2300.93
570.78	2300.32
571.14	2298.63
571.49	2297.24
571.84	2296.84
572.20	2295.82
572.55	2294.73
572.90	2293.26
573.26	2291.93
573.61	2290.25
573.96	2288.56
574.31	2285.68
574.67	2282.72
575.02	2279.10
575.37	2275.80
575.72	2272.16
576.08	2268.83
576.43	2265.64
576.78	2261.84
577.13	2258.69
577.49	2255.51
577.84	2251.96
578.19	2248.33
578.54	2244.73
578.90	2240.45
579.25	2234.94
579.60	2229.84
579.95	2224.84
580.30	2219.89
580.66	2214.74
581.01	2209.86
581.36	2204.90
581.71	2200.75
582.06	2196.22
582.42	2191.82
582.77	2186.56
583.12	2181.94
583.47	2177.19
583.82	2172.08
584.17	2166.95
584.53	2161.47
584.88	2155.96
585.23	2150.28
585.58	2144.57
585.93	2139.09
586.28	2134.43
586.63	2129.41
586.98	2124.49
587.34	2119.80
587.69	2114.82
588.04	2109.53
588.39	2103.86
588.74	2097.45
589.09	2091.20
589.44	2084.46
589.79	2078.52
590.14	2072.88
590.49	2066.35
590.84	2060.02
591.19	2054.10
591.54	2047.62
591.89	2040.29
592.25	2033.48
592.60	2026.25
592.95	2018.85
593.30	2011.57
593.65	2003.91
594.00	1996.91
594.35	1989.66
594.70	1981.47
595.05	1974.31
595.40	1967.08
595.75	1959.51
596.10	1953.26
596.45	1946.61
596.80	1940.50
597.15	1933.89
597.50	1926.70
597.85	1920.17
598.19	1913.49
598.54	1906.26
598.89	1899.69
599.24	1893.82
599.59	1887.08
599.94	1880.93
600.29	1874.51
600.64	1867.86
600.99	1860.49
601.34	1853.64
601.69	1846.70
602.04	1840.01
602.39	1832.64
602.74	1825.70
603.08	1818.88
603.43	1812.12
603.78	1804.82
604.13	1797.62
604.48	1790.12
604.83	1783.29
605.18	1776.30
605.53	1768.26
605.87	1760.25
606.22	1752.95
606.57	1744.94
606.92	1737.82
607.27	1730.56
607.62	1723.62
607.96	1716.37
608.31	1709.65
608.66	1702.01
609.01	1694.36
609.36	1686.76
609.70	1678.71
610.05	1670.74
610.40	1663.09
610.75	1654.75
611.10	1647.08
611.44	1638.57
611.79	1630.65
612.14	1622.10
612.49	1613.04
612.83	1604.68
613.18	1596.58
613.53	1588.58
613.88	1580.08
614.22	1571.79
614.57	1563.34
614.92	1555.29
615.27	1547.71
615.61	1539.37
615.96	1531.28
616.31	1523.75
616.65	1516.31
617.00	1508.85
617.35	1501.21
617.70	1493.02
618.04	1484.57
618.39	1476.32
618.74	1468.86
619.08	1460.52
619.43	1452.85
619.78	1445.90
620.12	1438.63
620.47	1431.06
620.82	1422.74
621.16	1415.40
621.51	1407.71
621.85	1399.97
622.20	1391.51
622.55	1383.11
622.89	1375.40
623.24	1367.81
623.59	1360.41
623.93	1352.98
624.28	1345.69
624.62	1338.14
624.97	1330.85
625.32	1324.06
625.66	1317.10
626.01	1309.86
626.35	1302.50
626.70	1294.79
627.04	1287.09
627.39	1279.47
627.73	1272.12
628.08	1265.32
628.43	1257.90
628.77	1250.50
629.12	1242.95
629.46	1235.87
629.81	1228.49
630.15	1221.26
630.50	1213.78
630.84	1205.53
631.19	1197.69
631.53	1190.17
631.88	1182.67
632.22	1175.05
632.57	1167.72
632.91	1160.21
633.26	1152.77
633.60	1145.33
633.95	1138.28
634.29	1131.23
634.64	1124.55
634.98	1117.16
635.32	1109.98
635.67	1103.43
636.01	1096.86
636.36	1090.04
636.70	1083.48
637.05	1076.95
637.39	1070.46
637.73	1063.99
638.08	1058.12
638.42	1051.98
638.77	1045.51
639.11	1038.82
639.45	1032.39
639.80	1025.76
640.14	1019.29
640.49	1012.77
640.83	1006.51
641.17	1000.09
641.52	993.67
641.86	987.09
642.20	981.32
642.55	974.98
642.89	968.54
643.23	961.97
643.58	956.21
643.92	949.99
644.26	943.90
644.61	937.87
644.95	931.84
645.29	925.23
645.64	918.44
645.98	912.15
646.32	906.37
646.66	900.36
647.01	894.55
647.35	888.88
647.69	883.02
648.04	877.47
648.38	871.73
648.72	865.79
649.06	859.84
649.41	853.91
649.75	847.95
650.09	841.96
650.43	836.17
650.78	830.01
651.12	824.05
651.46	818.31
651.80	812.53
652.14	807.17
652.49	801.86
652.83	796.77
653.17	791.00
653.51	785.20
653.85	779.80
654.20	774.13
654.54	768.05
654.88	762.32
655.22	756.43
655.56	750.80
655.90	745.39
656.25	740.13
656.59	734.84
656.93	729.76
657.27	724.57
657.61	719.14
657.95	714.03
658.29	708.94
658.64	703.71
658.98	698.46
659.32	693.00
659.66	687.72
660.00	682.38
660.34	677.49
660.68	672.67
661.02	667.68
661.36	663.02
661.70	658.49
662.05	654.13
662.39	649.77
662.73	645.33
663.07	640.95
663.41	636.49
663.75	631.96
664.09	627.36
664.43	623.05
664.77	618.91
665.11	614.66
665.45	610.55
665.79	606.45
666.13	602.35
666.47	598.26
666.81	594.15
667.15	590.04
667.49	586.12
667.83	582.29
668.17	578.38
668.51	574.30
668.85	570.30
669.19	566.50
669.53	562.67
669.87	558.72
670.21	555.01
670.55	551.38
670.89	547.94
671.23	544.51
671.57	540.93
671.91	537.38
672.25	533.94
672.58	530.44
672.92	527.06
673.26	523.87
673.60	520.67
673.94	517.54
674.28	514.66
674.62	511.71
674.96	508.59
675.30	505.67
675.64	502.76
675.97	500.05
676.31	497.14
676.65	494.25
676.99	491.59
677.33	488.74
677.67	485.89
678.01	482.88
678.34	479.93
678.68	477.07
679.02	474.29
679.36	471.48
679.70	468.71
680.04	465.99
680.37	463.13
680.71	460.39
681.05	457.76
681.39	455.00
681.73	452.38
682.06	449.88
682.40	447.32
682.74	444.81
683.08	442.26
683.42	439.71
683.75	437.25
684.09	434.73
684.43	432.23
684.77	429.82
685.10	427.46
685.44	425.18
685.78	422.86
686.12	420.58
686.45	418.36
686.79	416.09
687.13	413.87
687.46	411.63
687.80	409.49
688.14	407.26
688.48	405.27
688.81	403.02
689.15	400.86
689.49	398.71
689.82	396.59
690.16	394.52
690.50	392.53
690.83	390.56
691.17	388.55
691.51	386.68
691.84	384.84
692.18	382.93
692.52	380.94
692.85	379.03
693.19	377.17
693.52	375.31
693.86	373.50
694.20	371.75
694.53	370.00
694.87	368.16
695.21	366.42
695.54	364.61
695.88	362.87
696.21	361.14
696.55	359.46
696.88	357.77
697.22	356.09
697.56	354.46
697.89	352.76
698.23	351.19
698.56	349.58
698.90	347.97
699.23	346.31
699.57	344.76
699.90	343.23
700.24	341.72
700.58	340.17
700.91	338.66
701.25	337.20
701.58	335.85
701.92	334.50
702.25	333.07
702.59	331.70
702.92	330.35
703.26	329.08
703.59	327.81
703.93	326.63
704.26	325.37
704.60	324.06
704.93	322.82
705.26	321.58
705.60	320.38
705.93	319.23
706.27	318.19
706.60	317.13
706.94	316.06
707.27	314.88
707.61	313.81
707.94	312.79
708.27	311.69
708.61	310.58
708.94	309.55
709.28	308.58
709.61	307.60
709.94	306.68
710.28	305.63
710.61	304.62
710.95	303.53
711.28	302.61
711.61	301.70
711.95	300.75
712.28	299.78
712.61	298.78
712.95	297.83
713.28	296.93
713.61	296.02
713.95	295.13
714.28	294.35
714.61	293.50
714.95	292.64
715.28	291.78
715.61	290.90
715.95	290.02
716.28	289.17
716.61	288.35
716.95	287.56
717.28	286.83
717.61	286.07
717.94	285.37
718.28	284.58
718.61	283.86
718.94	283.16
719.27	282.48
719.61	281.91
719.94	281.25
720.27	280.54
720.60	279.88
720.94	279.23
721.27	278.58
721.60	277.99
721.93	277.41
722.27	276.84
722.60	276.30
722.93	275.74
723.26	275.20
723.59	274.61
723.93	274.00
724.26	273.45
724.59	272.87
724.92	272.31
725.25	271.81
725.59	271.31
725.92	270.83
726.25	270.32
726.58	269.76
726.91	269.24
727.24	268.76
727.57	268.29
727.91	267.80
728.24	267.33
728.57	266.89
728.90	266.47
729.23	266.01
729.56	265.59
729.89	265.14
730.22	264.66
730.55	264.20
730.89	263.79
731.22	263.32
731.55	262.91
731.88	262.52
732.21	262.07
732.54	261.59
732.87	261.15
733.20	260.78
733.53	260.40
733.86	260.05
734.19	259.67
734.52	259.30
734.85	258.97
735.18	258.56
735.51	258.15
735.84	257.78
736.17	257.41
736.50	257.02
736.83	256.79
737.16	256.45
737.49	256.11
737.82	255.79
738.15	255.48
738.48	255.13
738.81	254.79
739.14	254.48
739.47	254.16
739.80	253.88
740.13	253.52
740.46	253.21
740.79	252.87
741.12	252.56
741.45	252.26
741.78	251.95
742.11	251.69
742.44	251.33
742.77	251.02
743.10	250.71
743.43	250.43
743.75	250.06
744.08	249.93
744.41	249.68
744.74	249.37
745.07	249.09
745.40	248.86
745.73	248.62
746.06	248.33
746.39	248.10
746.71	247.79
747.04	247.53
747.37	247.26
747.70	247.03
748.03	246.79
748.36	246.54
748.68	246.29
749.01	246.03
749.34	245.84
749.67	245.62
750.00	245.42
750.33	245.24
750.65	245.01
750.98	244.69
751.31	244.46
751.64	244.26
751.97	244.09
752.29	243.85
752.62	243.62
752.95	243.42
753.28	243.21
753.60	243.04
753.93	242.93
754.26	242.71
754.59	242.44
754.91	242.23
755.24	242.01
755.57	241.83
755.90	241.65
756.22	241.44
756.55	241.24
756.88	241.01
757.20	240.72
757.53	240.48
757.86	240.29
758.19	240.11
758.51	239.92
758.84	239.72
759.17	239.59
759.49	239.43
759.82	239.32
760.15	239.15
760.47	238.99
760.80	238.76
761.13	238.67
761.45	238.55
761.78	238.42
762.11	238.28
762.43	238.11
762.76	237.98
763.08	237.84
763.41	237.71
763.74	237.60
764.06	237.51
764.39	237.39
764.71	237.25
765.04	237.15
765.37	237.04
765.69	236.91
766.02	236.74
766.34	236.59
766.67	236.44
767.00	236.36
767.32	236.29
767.65	236.28
767.97	236.16
768.30	236.05
768.62	235.97
768.95	235.89
769.27	235.79
769.60	235.69
769.92	235.56
770.25	235.48
770.57	235.39
770.90	235.29
771.22	235.20
771.55	235.14
771.87	235.05
772.20	234.96
772.52	234.99
772.85	235.04
773.17	234.95
773.50	234.84
773.82	234.72
774.15	234.57
774.47	234.43
774.80	234.31
775.12	234.22
775.45	234.14
775.77	234.05
776.09	233.98
776.42	233.92
776.74	233.91
777.07	233.83
777.39	233.77
777.72	233.70
778.04	233.65
778.36	233.59
778.69	233.52
779.01	233.46
779.33	233.28
779.66	233.11
779.98	233.06
780.31	233.04
780.63	233.04
780.95	233.00
781.28	232.89
781.60	232.87
781.92	232.79
782.25	232.71
782.57	232.65
782.89	232.56
783.22	232.52
783.54	232.41
783.86	232.33
784.19	232.26
784.51	232.20
784.83	232.17
785.16	232.10
785.48	232.05
785.80	231.99
786.12	231.97
786.45	231.92
786.77	231.91
787.09	231.82
