SpectraSuite Data File
++++++++++++++++++++++++++++++++++++
Date: Fri Feb 01 15:55:47 EST 2013
User: group
Dark Spectrum Present: No
Reference Spectrum Present: No
Number of Sampled Component Spectra: 1
Spectrometers: USB2E7196
Integration Time (usec): 35000 (USB2E7196)
Spectra Averaged: 100 (USB2E7196)
Boxcar Smoothing: 10 (USB2E7196)
Correct for Electrical Dark: No (USB2E7196)
Strobe/Lamp Enabled: No (USB2E7196)
Correct for Detector Non-linearity: No (USB2E7196)
Correct for Stray Light: No (USB2E7196)
Number of Pixels in Processed Spectrum: 2048
>>>>>Begin Processed Spectral Data<<<<<
339.09	0.00
339.48	214.70
339.86	216.07
340.24	217.81
340.63	219.34
341.01	222.29
341.39	222.21
341.78	223.07
342.16	224.51
342.54	225.38
342.93	213.29
343.31	224.08
343.69	224.65
344.07	225.12
344.46	225.53
344.84	225.88
345.22	226.11
345.60	226.33
345.99	226.51
346.37	226.62
346.75	226.68
347.13	226.74
347.52	226.76
347.90	226.83
348.28	226.83
348.66	226.90
349.05	226.89
349.43	226.96
349.81	227.00
350.19	227.03
350.57	227.10
350.96	227.16
351.34	227.22
351.72	227.27
352.10	227.36
352.48	227.42
352.87	227.51
353.25	227.57
353.63	227.61
354.01	227.68
354.39	227.73
354.77	227.82
355.15	227.88
355.54	227.95
355.92	227.98
356.30	228.04
356.68	228.16
357.06	228.24
357.44	228.29
357.82	228.33
358.20	228.41
358.58	228.46
358.97	228.51
359.35	228.58
359.73	228.66
360.11	228.72
360.49	228.78
360.87	228.82
361.25	228.88
361.63	228.97
362.01	229.02
362.39	229.07
362.77	229.11
363.15	229.16
363.53	229.19
363.91	229.21
364.29	229.26
364.67	229.17
365.05	229.17
365.43	229.19
365.81	229.21
366.19	229.22
366.57	229.27
366.95	229.26
367.33	229.23
367.71	229.21
368.09	229.23
368.47	229.20
368.85	229.12
369.23	229.11
369.61	229.04
369.99	229.03
370.37	229.02
370.75	229.02
371.13	229.00
371.51	228.94
371.89	228.91
372.27	228.86
372.65	228.84
373.03	228.77
373.41	228.72
373.78	228.65
374.16	228.57
374.54	228.50
374.92	228.42
375.30	228.34
375.68	228.26
376.06	228.19
376.44	228.11
376.82	228.08
377.19	228.02
377.57	227.94
377.95	227.85
378.33	227.77
378.71	227.66
379.09	227.58
379.47	227.52
379.84	227.45
380.22	227.39
380.60	227.29
380.98	227.26
381.36	227.21
381.73	227.13
382.11	227.06
382.49	227.00
382.87	226.94
383.25	226.88
383.62	226.96
384.00	226.88
384.38	226.84
384.76	226.81
385.13	226.76
385.51	226.74
385.89	226.67
386.27	226.59
386.64	226.59
387.02	226.53
387.40	226.51
387.78	226.47
388.15	226.41
388.53	226.37
388.91	226.33
389.29	226.29
389.66	226.30
390.04	226.29
390.42	226.28
390.79	226.26
391.17	226.28
391.55	226.17
391.92	226.16
392.30	226.18
392.68	226.15
393.05	226.18
393.43	226.18
393.81	226.20
394.18	226.23
394.56	226.21
394.94	226.26
395.31	226.27
395.69	226.33
396.06	226.39
396.44	226.45
396.82	226.49
397.19	226.58
397.57	226.60
397.95	226.64
398.32	226.64
398.70	226.70
399.07	226.77
399.45	226.83
399.82	226.91
400.20	226.97
400.58	227.04
400.95	227.05
401.33	227.15
401.70	227.28
402.08	227.39
402.45	227.49
402.83	227.60
403.20	227.69
403.58	227.77
403.95	227.92
404.33	228.04
404.71	228.14
405.08	228.30
405.46	228.42
405.83	228.59
406.21	228.80
406.58	228.96
406.96	229.12
407.33	229.28
407.70	229.48
408.08	229.73
408.45	229.98
408.83	230.23
409.20	230.45
409.58	230.64
409.95	230.91
410.33	231.17
410.70	231.40
411.08	231.68
411.45	232.01
411.82	232.28
412.20	232.62
412.57	233.05
412.95	233.36
413.32	233.78
413.69	234.16
414.07	234.57
414.44	235.02
414.82	235.51
415.19	236.09
415.56	236.61
415.94	237.15
416.31	237.76
416.68	238.38
417.06	239.09
417.43	239.81
417.81	240.58
418.18	241.37
418.55	242.22
418.93	243.09
419.30	244.00
419.67	244.95
420.04	245.91
420.42	246.86
420.79	248.04
421.16	249.16
421.54	250.35
421.91	251.55
422.28	252.83
422.66	254.14
423.03	255.46
423.40	256.80
423.77	258.23
424.15	259.68
424.52	261.18
424.89	262.80
425.26	264.32
425.64	265.73
426.01	267.34
426.38	269.00
426.75	270.66
427.13	272.38
427.50	274.20
427.87	276.05
428.24	277.92
428.61	279.64
428.99	281.63
429.36	283.74
429.73	285.80
430.10	287.79
430.47	289.86
430.85	291.96
431.22	294.22
431.59	296.57
431.96	298.81
432.33	301.23
432.70	303.59
433.08	306.37
433.45	309.05
433.82	311.64
434.19	314.54
434.56	317.38
434.93	320.05
435.30	322.67
435.68	325.57
436.05	328.43
436.42	331.27
436.79	333.76
437.16	336.46
437.53	339.28
437.90	342.14
438.27	344.82
438.64	347.60
439.01	350.15
439.38	352.39
439.75	354.53
440.13	357.05
440.50	359.37
440.87	361.23
441.24	363.11
441.61	365.25
441.98	366.70
442.35	368.49
442.72	370.32
443.09	372.15
443.46	373.18
443.83	373.80
444.20	374.25
444.57	375.09
444.94	375.40
445.31	375.77
445.68	376.07
446.05	376.14
446.42	375.78
446.79	375.36
447.16	374.89
447.53	374.59
447.90	373.41
448.27	372.24
448.64	370.65
449.01	369.56
449.37	367.58
449.74	365.72
450.11	363.46
450.48	360.96
450.85	358.36
451.22	356.14
451.59	354.04
451.96	352.10
452.33	349.52
452.70	347.12
453.07	344.27
453.43	341.36
453.80	338.64
454.17	336.00
454.54	333.45
454.91	330.76
455.28	328.08
455.65	325.61
456.02	323.20
456.38	321.05
456.75	318.37
457.12	316.11
457.49	313.86
457.86	311.70
458.23	309.85
458.59	307.79
458.96	305.75
459.33	303.93
459.70	302.08
460.07	300.55
460.43	298.84
460.80	297.23
461.17	295.82
461.54	294.30
461.91	292.84
462.27	291.38
462.64	290.13
463.01	288.80
463.38	287.53
463.74	286.16
464.11	285.01
464.48	283.99
464.85	282.88
465.21	282.02
465.58	281.08
465.95	280.00
466.32	279.13
466.68	278.26
467.05	277.35
467.42	276.47
467.78	275.53
468.15	274.67
468.52	274.02
468.88	273.17
469.25	272.41
469.62	271.80
469.98	271.15
470.35	270.50
470.72	269.92
471.08	269.27
471.45	268.74
471.82	268.22
472.18	267.60
472.55	267.21
472.92	266.72
473.28	266.30
473.65	265.86
474.02	265.43
474.38	265.04
474.75	264.72
475.11	264.40
475.48	264.18
475.85	263.95
476.21	263.68
476.58	263.49
476.94	263.35
477.31	263.16
477.67	263.04
478.04	262.94
478.41	262.88
478.77	262.91
479.14	262.86
479.50	262.85
479.87	262.97
480.23	263.07
480.60	263.15
480.96	263.24
481.33	263.43
481.69	263.61
482.06	263.85
482.42	264.07
482.79	264.33
483.15	264.61
483.52	264.99
483.88	265.37
484.25	265.79
484.61	266.20
484.98	266.68
485.34	267.23
485.71	267.85
486.07	268.44
486.44	269.03
486.80	269.72
487.17	270.46
487.53	271.24
487.90	272.09
488.26	273.03
488.62	274.01
488.99	274.99
489.35	276.05
489.72	277.16
490.08	278.36
490.44	279.60
490.81	280.94
491.17	282.33
491.54	283.78
491.90	285.31
492.26	287.00
492.63	288.72
492.99	290.47
493.36	292.34
493.72	294.38
494.08	296.45
494.45	298.67
494.81	301.04
495.17	303.49
495.54	306.05
495.90	308.71
496.26	311.51
496.63	314.47
496.99	317.57
497.35	320.83
497.72	324.20
498.08	327.68
498.44	331.34
498.80	335.27
499.17	339.31
499.53	343.51
499.89	347.83
500.26	352.34
500.62	357.06
500.98	362.00
501.34	367.10
501.71	372.40
502.07	377.88
502.43	383.46
502.79	389.27
503.16	395.33
503.52	401.61
503.88	408.02
504.24	414.67
504.60	421.57
504.97	428.73
505.33	436.05
505.69	443.77
506.05	451.53
506.41	459.38
506.78	467.58
507.14	475.96
507.50	484.76
507.86	493.77
508.22	502.98
508.59	512.23
508.95	521.85
509.31	531.68
509.67	541.78
510.03	552.08
510.39	562.63
510.75	573.40
511.12	584.27
511.48	595.52
511.84	607.01
512.20	618.52
512.56	630.37
512.92	642.54
513.28	654.84
513.64	667.34
514.00	680.08
514.37	692.99
514.73	706.12
515.09	719.05
515.45	732.34
515.81	745.93
516.17	759.91
516.53	773.95
516.89	788.12
517.25	802.29
517.61	816.68
517.97	831.13
518.33	845.57
518.69	860.41
519.05	875.39
519.41	890.47
519.77	906.01
520.13	921.43
520.49	936.88
520.85	952.43
521.21	968.16
521.57	984.37
521.93	1000.05
522.29	1016.47
522.65	1032.71
523.01	1048.89
523.37	1064.87
523.73	1081.02
524.09	1097.12
524.45	1113.47
524.81	1130.08
525.17	1146.92
525.53	1163.84
525.89	1180.72
526.25	1197.45
526.61	1213.88
526.97	1230.61
527.33	1246.98
527.68	1263.66
528.04	1280.06
528.40	1296.60
528.76	1313.61
529.12	1330.19
529.48	1347.15
529.84	1363.19
530.20	1379.80
530.56	1396.86
530.91	1414.24
531.27	1431.00
531.63	1447.45
531.99	1463.98
532.35	1479.89
532.71	1495.65
533.07	1511.95
533.42	1527.81
533.78	1543.95
534.14	1560.25
534.50	1575.57
534.86	1591.57
535.21	1606.61
535.57	1622.59
535.93	1638.09
536.29	1652.85
536.65	1667.88
537.00	1682.57
537.36	1697.68
537.72	1712.03
538.08	1726.48
538.44	1740.29
538.79	1754.10
539.15	1767.65
539.51	1781.34
539.87	1795.72
540.22	1809.48
540.58	1823.17
540.94	1836.44
541.29	1849.34
541.65	1861.93
542.01	1875.20
542.37	1887.44
542.72	1900.06
543.08	1911.74
543.44	1923.94
543.79	1935.18
544.15	1946.20
544.51	1957.74
544.87	1968.71
545.22	1979.74
545.58	1989.88
545.94	1999.59
546.29	2009.36
546.65	2019.29
547.01	2028.59
547.36	2037.18
547.72	2045.64
548.07	2053.35
548.43	2061.57
548.79	2069.57
549.14	2077.05
549.50	2084.24
549.86	2091.78
550.21	2098.94
550.57	2106.21
550.92	2112.76
551.28	2119.74
551.64	2126.59
551.99	2132.97
552.35	2139.21
552.70	2145.35
553.06	2151.33
553.41	2157.66
553.77	2163.68
554.13	2169.84
554.48	2175.90
554.84	2181.36
555.19	2186.73
555.55	2191.94
555.90	2196.30
556.26	2201.06
556.61	2205.87
556.97	2210.26
557.32	2214.42
557.68	2218.57
558.03	2222.69
558.39	2226.51
558.74	2231.10
559.10	2235.07
559.45	2238.85
559.81	2243.23
560.16	2247.03
560.52	2250.16
560.87	2253.54
561.23	2256.24
561.58	2259.08
561.94	2261.65
562.29	2264.08
562.64	2266.76
563.00	2269.32
563.35	2272.83
563.71	2275.90
564.06	2279.08
564.42	2281.84
564.77	2284.40
565.12	2286.58
565.48	2288.44
565.83	2290.32
566.19	2291.68
566.54	2292.72
566.89	2293.81
567.25	2294.20
567.60	2295.52
567.96	2297.19
568.31	2298.07
568.66	2299.22
569.02	2299.78
569.37	2300.10
569.72	2301.04
570.08	2301.10
570.43	2301.19
570.78	2300.63
571.14	2299.10
571.49	2297.80
571.84	2297.57
572.20	2296.51
572.55	2295.66
572.90	2294.10
573.26	2292.71
573.61	2291.04
573.96	2289.23
574.31	2286.33
574.67	2283.34
575.02	2279.78
575.37	2276.29
575.72	2272.51
576.08	2269.13
576.43	2265.84
576.78	2262.06
577.13	2258.87
577.49	2255.74
577.84	2252.31
578.19	2248.75
578.54	2245.43
578.90	2241.17
579.25	2235.54
579.60	2230.51
579.95	2225.40
580.30	2220.35
580.66	2215.16
581.01	2210.24
581.36	2205.27
581.71	2201.11
582.06	2196.63
582.42	2192.04
582.77	2186.97
583.12	2182.37
583.47	2177.71
583.82	2172.73
584.17	2167.57
584.53	2161.91
584.88	2156.40
585.23	2150.75
585.58	2145.10
585.93	2139.39
586.28	2134.62
586.63	2129.63
586.98	2124.61
587.34	2120.05
587.69	2115.32
588.04	2110.05
588.39	2104.42
588.74	2098.00
589.09	2091.78
589.44	2085.09
589.79	2079.19
590.14	2073.70
590.49	2067.22
590.84	2060.85
591.19	2054.78
591.54	2048.36
591.89	2041.04
592.25	2034.24
592.60	2026.84
592.95	2019.27
593.30	2011.94
593.65	2004.42
594.00	1997.31
594.35	1989.99
594.70	1981.79
595.05	1974.45
595.40	1967.17
595.75	1959.55
596.10	1953.20
596.45	1946.43
596.80	1940.30
597.15	1933.48
597.50	1926.29
597.85	1919.82
598.19	1913.12
598.54	1905.96
598.89	1899.16
599.24	1893.30
599.59	1886.48
599.94	1880.25
600.29	1873.93
600.64	1867.35
600.99	1859.84
601.34	1852.97
601.69	1846.03
602.04	1839.11
602.39	1831.83
602.74	1825.05
603.08	1818.29
603.43	1811.62
603.78	1804.44
604.13	1797.21
604.48	1790.02
604.83	1782.97
605.18	1775.89
605.53	1767.97
605.87	1760.02
606.22	1752.96
606.57	1745.04
606.92	1737.73
607.27	1730.56
607.62	1723.56
607.96	1716.26
608.31	1709.72
608.66	1702.11
609.01	1694.68
609.36	1687.13
609.70	1679.09
610.05	1670.99
610.40	1663.32
610.75	1654.93
611.10	1647.16
611.44	1638.70
611.79	1630.72
612.14	1622.17
612.49	1613.12
612.83	1604.68
613.18	1596.54
613.53	1588.46
613.88	1579.88
614.22	1571.68
614.57	1563.09
614.92	1555.15
615.27	1547.61
615.61	1539.18
615.96	1531.25
616.31	1523.53
616.65	1516.18
617.00	1508.68
617.35	1500.98
617.70	1492.63
618.04	1484.16
618.39	1475.96
618.74	1468.32
619.08	1459.94
619.43	1452.38
619.78	1445.54
620.12	1438.40
620.47	1430.91
620.82	1422.59
621.16	1415.26
621.51	1407.70
621.85	1400.20
622.20	1391.75
622.55	1383.39
622.89	1375.58
623.24	1367.95
623.59	1360.49
623.93	1353.02
624.28	1345.82
624.62	1338.38
624.97	1331.27
625.32	1324.55
625.66	1317.61
626.01	1310.53
626.35	1303.13
626.70	1295.37
627.04	1287.50
627.39	1279.65
627.73	1272.17
628.08	1265.29
628.43	1257.81
628.77	1250.43
629.12	1242.74
629.46	1235.51
629.81	1228.21
630.15	1220.95
630.50	1213.58
630.84	1205.36
631.19	1197.39
631.53	1189.87
631.88	1182.20
632.22	1174.53
632.57	1167.25
632.91	1159.63
633.26	1152.16
633.60	1144.78
633.95	1137.75
634.29	1130.74
634.64	1124.09
634.98	1116.80
635.32	1109.74
635.67	1103.30
636.01	1096.61
636.36	1089.84
636.70	1083.31
637.05	1076.57
637.39	1070.18
637.73	1063.61
638.08	1057.81
638.42	1051.76
638.77	1045.28
639.11	1038.68
639.45	1032.33
639.80	1025.71
640.14	1019.32
640.49	1012.74
640.83	1006.40
641.17	1000.09
641.52	993.75
641.86	987.33
642.20	981.38
642.55	975.05
642.89	968.50
643.23	961.93
643.58	956.13
643.92	949.96
644.26	943.89
644.61	937.84
644.95	931.78
645.29	925.22
645.64	918.53
645.98	912.19
646.32	906.50
646.66	900.35
647.01	894.52
647.35	888.78
647.69	882.97
648.04	877.50
648.38	871.72
648.72	865.65
649.06	859.59
649.41	853.76
649.75	847.75
650.09	841.86
650.43	836.11
650.78	830.04
651.12	824.05
651.46	818.40
651.80	812.62
652.14	807.25
652.49	801.85
652.83	796.72
653.17	791.02
653.51	785.23
653.85	779.96
654.20	774.31
654.54	768.36
654.88	762.67
655.22	756.82
655.56	751.16
655.90	745.84
656.25	740.59
656.59	735.27
656.93	730.19
657.27	724.95
657.61	719.57
657.95	714.45
658.29	709.38
658.64	704.13
658.98	698.84
659.32	693.44
659.66	688.25
660.00	682.91
660.34	678.04
660.68	673.13
661.02	668.06
661.36	663.29
661.70	658.84
662.05	654.51
662.39	650.23
662.73	645.75
663.07	641.33
663.41	636.86
663.75	632.33
664.09	627.73
664.43	623.36
664.77	619.18
665.11	614.93
665.45	610.84
665.79	606.78
666.13	602.65
666.47	598.54
666.81	594.36
667.15	590.28
667.49	586.33
667.83	582.54
668.17	578.64
668.51	574.65
668.85	570.56
669.19	566.76
669.53	562.86
669.87	558.96
670.21	555.28
670.55	551.68
670.89	548.25
671.23	544.88
671.57	541.40
671.91	537.83
672.25	534.30
672.58	530.76
672.92	527.30
673.26	524.17
673.60	521.04
673.94	517.98
674.28	515.03
674.62	512.09
674.96	508.94
675.30	506.02
675.64	503.04
675.97	500.28
676.31	497.31
676.65	494.34
676.99	491.64
677.33	488.75
677.67	485.94
678.01	482.90
678.34	479.93
678.68	477.07
679.02	474.28
679.36	471.58
679.70	468.85
680.04	466.13
680.37	463.20
680.71	460.40
681.05	457.73
681.39	455.06
681.73	452.38
682.06	449.85
682.40	447.30
682.74	444.86
683.08	442.30
683.42	439.76
683.75	437.28
684.09	434.67
684.43	432.18
684.77	429.71
685.10	427.36
685.44	425.06
685.78	422.77
686.12	420.51
686.45	418.19
686.79	415.89
687.13	413.65
687.46	411.52
687.80	409.38
688.14	407.17
688.48	405.07
688.81	402.82
689.15	400.69
689.49	398.50
689.82	396.35
690.16	394.27
690.50	392.26
690.83	390.33
691.17	388.39
691.51	386.51
691.84	384.63
692.18	382.73
692.52	380.75
692.85	378.79
693.19	376.87
693.52	375.05
693.86	373.24
694.20	371.52
694.53	369.69
694.87	367.84
695.21	366.06
695.54	364.25
695.88	362.53
696.21	360.80
696.55	359.18
696.88	357.49
697.22	355.83
697.56	354.19
697.89	352.51
698.23	350.91
698.56	349.31
698.90	347.74
699.23	346.11
699.57	344.56
699.90	343.03
700.24	341.54
700.58	339.97
700.91	338.46
701.25	336.98
701.58	335.65
701.92	334.29
702.25	332.89
702.59	331.52
702.92	330.22
703.26	328.89
703.59	327.60
703.93	326.46
704.26	325.23
704.60	323.96
704.93	322.73
705.26	321.49
705.60	320.30
705.93	319.10
706.27	318.05
706.60	317.00
706.94	315.91
707.27	314.80
707.61	313.78
707.94	312.75
708.27	311.67
708.61	310.58
708.94	309.58
709.28	308.60
709.61	307.65
709.94	306.71
710.28	305.70
710.61	304.70
710.95	303.60
711.28	302.72
711.61	301.78
711.95	300.84
712.28	299.88
712.61	298.93
712.95	298.04
713.28	297.19
713.61	296.30
713.95	295.42
714.28	294.59
714.61	293.70
714.95	292.88
715.28	292.03
715.61	291.18
715.95	290.33
716.28	289.47
716.61	288.65
716.95	287.80
717.28	287.06
717.61	286.35
717.94	285.60
718.28	284.79
718.61	284.06
718.94	283.38
719.27	282.72
719.61	282.07
719.94	281.42
720.27	280.69
720.60	280.02
720.94	279.40
721.27	278.78
721.60	278.20
721.93	277.59
722.27	277.03
722.60	276.45
722.93	275.85
723.26	275.32
723.59	274.73
723.93	274.20
724.26	273.61
724.59	273.04
724.92	272.49
725.25	271.97
725.59	271.46
725.92	270.93
726.25	270.43
726.58	269.96
726.91	269.45
727.24	268.99
727.57	268.51
727.91	268.04
728.24	267.54
728.57	267.04
728.90	266.58
729.23	266.09
729.56	265.69
729.89	265.25
730.22	264.75
730.55	264.33
730.89	263.87
731.22	263.45
731.55	263.02
731.88	262.59
732.21	262.18
732.54	261.70
732.87	261.31
733.20	260.92
733.53	260.50
733.86	260.12
734.19	259.68
734.52	259.33
734.85	259.03
735.18	258.65
735.51	258.27
735.84	257.93
736.17	257.58
736.50	257.12
736.83	256.88
737.16	256.58
737.49	256.20
737.82	255.87
738.15	255.53
738.48	255.21
738.81	254.88
739.14	254.59
739.47	254.34
739.80	254.02
740.13	253.75
740.46	253.42
740.79	253.07
741.12	252.78
741.45	252.45
741.78	252.08
742.11	251.80
742.44	251.51
742.77	251.19
743.10	250.89
743.43	250.62
743.75	250.26
744.08	250.12
744.41	249.88
744.74	249.58
745.07	249.34
745.40	249.08
745.73	248.86
746.06	248.54
746.39	248.27
746.71	247.99
747.04	247.71
747.37	247.46
747.70	247.25
748.03	246.99
748.36	246.78
748.68	246.53
749.01	246.27
749.34	246.03
749.67	245.80
750.00	245.56
750.33	245.40
750.65	245.15
750.98	244.77
751.31	244.56
751.64	244.37
751.97	244.19
752.29	243.96
752.62	243.68
752.95	243.47
753.28	243.23
753.60	243.03
753.93	242.83
754.26	242.62
754.59	242.38
754.91	242.20
755.24	241.93
755.57	241.73
755.90	241.59
756.22	241.41
756.55	241.21
756.88	241.05
757.20	240.81
757.53	240.64
757.86	240.49
758.19	240.34
758.51	240.15
758.84	239.92
759.17	239.75
759.49	239.61
759.82	239.52
760.15	239.40
760.47	239.22
760.80	239.07
761.13	238.97
761.45	238.82
761.78	238.68
762.11	238.58
762.43	238.46
762.76	238.30
763.08	238.17
763.41	238.03
763.74	237.88
764.06	237.70
764.39	237.55
764.71	237.39
765.04	237.25
765.37	237.13
765.69	237.01
766.02	236.87
766.34	236.78
766.67	236.61
767.00	236.51
767.32	236.43
767.65	236.36
767.97	236.20
768.30	236.09
768.62	235.99
768.95	235.87
769.27	235.75
769.60	235.64
769.92	235.52
770.25	235.42
770.57	235.30
770.90	235.27
771.22	235.15
771.55	235.07
771.87	234.94
772.20	234.85
772.52	234.83
772.85	234.88
773.17	234.72
773.50	234.62
773.82	234.50
774.15	234.36
774.47	234.21
774.80	234.14
775.12	234.04
775.45	233.91
775.77	233.83
776.09	233.74
776.42	233.64
776.74	233.61
777.07	233.52
777.39	233.46
777.72	233.35
778.04	233.31
778.36	233.21
778.69	233.15
779.01	233.10
779.33	232.96
779.66	232.77
779.98	232.73
780.31	232.67
780.63	232.64
780.95	232.60
781.28	232.53
781.60	232.45
781.92	232.40
782.25	232.38
782.57	232.30
782.89	232.23
783.22	232.19
783.54	232.09
783.86	232.03
784.19	231.94
784.51	231.92
784.83	231.84
785.16	231.79
785.48	231.74
785.80	231.69
786.12	231.63
786.45	231.58
786.77	231.54
787.09	231.48
