SpectraSuite Data File
++++++++++++++++++++++++++++++++++++
Date: Fri Feb 01 15:38:18 EST 2013
User: group
Dark Spectrum Present: No
Reference Spectrum Present: No
Number of Sampled Component Spectra: 1
Spectrometers: USB2E7196
Integration Time (usec): 35000 (USB2E7196)
Spectra Averaged: 100 (USB2E7196)
Boxcar Smoothing: 10 (USB2E7196)
Correct for Electrical Dark: No (USB2E7196)
Strobe/Lamp Enabled: No (USB2E7196)
Correct for Detector Non-linearity: No (USB2E7196)
Correct for Stray Light: No (USB2E7196)
Number of Pixels in Processed Spectrum: 2048
>>>>>Begin Processed Spectral Data<<<<<
339.09	0.00
339.48	215.20
339.86	216.55
340.24	217.76
340.63	218.71
341.01	222.10
341.39	222.12
341.78	223.64
342.16	224.12
342.54	224.78
342.93	213.30
343.31	224.09
343.69	224.62
344.07	225.07
344.46	225.49
344.84	225.89
345.22	226.12
345.60	226.34
345.99	226.52
346.37	226.66
346.75	226.77
347.13	226.81
347.52	226.86
347.90	226.92
348.28	226.93
348.66	226.98
349.05	226.97
349.43	227.03
349.81	227.05
350.19	227.09
350.57	227.16
350.96	227.25
351.34	227.34
351.72	227.41
352.10	227.53
352.48	227.59
352.87	227.65
353.25	227.73
353.63	227.81
354.01	227.88
354.39	227.92
354.77	227.98
355.15	228.09
355.54	228.14
355.92	228.19
356.30	228.27
356.68	228.40
357.06	228.46
357.44	228.49
357.82	228.54
358.20	228.62
358.58	228.67
358.97	228.72
359.35	228.78
359.73	228.88
360.11	228.89
360.49	228.95
360.87	228.99
361.25	229.01
361.63	229.08
362.01	229.12
362.39	229.19
362.77	229.25
363.15	229.27
363.53	229.27
363.91	229.26
364.29	229.30
364.67	229.23
365.05	229.25
365.43	229.28
365.81	229.32
366.19	229.36
366.57	229.43
366.95	229.41
367.33	229.36
367.71	229.33
368.09	229.35
368.47	229.36
368.85	229.31
369.23	229.31
369.61	229.25
369.99	229.24
370.37	229.22
370.75	229.24
371.13	229.15
371.51	229.12
371.89	229.10
372.27	229.05
372.65	229.02
373.03	228.97
373.41	228.94
373.78	228.87
374.16	228.75
374.54	228.65
374.92	228.58
375.30	228.53
375.68	228.43
376.06	228.37
376.44	228.27
376.82	228.25
377.19	228.20
377.57	228.14
377.95	228.04
378.33	227.95
378.71	227.83
379.09	227.80
379.47	227.73
379.84	227.66
380.22	227.57
380.60	227.46
380.98	227.40
381.36	227.31
381.73	227.23
382.11	227.19
382.49	227.12
382.87	227.07
383.25	227.03
383.62	227.11
384.00	227.01
384.38	226.99
384.76	226.95
385.13	226.95
385.51	226.87
385.89	226.84
386.27	226.76
386.64	226.71
387.02	226.64
387.40	226.59
387.78	226.56
388.15	226.53
388.53	226.51
388.91	226.46
389.29	226.41
389.66	226.40
390.04	226.36
390.42	226.39
390.79	226.38
391.17	226.36
391.55	226.24
391.92	226.23
392.30	226.22
392.68	226.17
393.05	226.13
393.43	226.14
393.81	226.12
394.18	226.15
394.56	226.15
394.94	226.19
395.31	226.22
395.69	226.26
396.06	226.31
396.44	226.35
396.82	226.42
397.19	226.53
397.57	226.55
397.95	226.63
398.32	226.63
398.70	226.70
399.07	226.76
399.45	226.81
399.82	226.90
400.20	226.96
400.58	227.05
400.95	227.09
401.33	227.17
401.70	227.33
402.08	227.44
402.45	227.56
402.83	227.68
403.20	227.82
403.58	227.94
403.95	228.08
404.33	228.23
404.71	228.33
405.08	228.47
405.46	228.68
405.83	228.82
406.21	228.98
406.58	229.14
406.96	229.34
407.33	229.54
407.70	229.76
408.08	230.06
408.45	230.29
408.83	230.58
409.20	230.78
409.58	231.00
409.95	231.24
410.33	231.51
410.70	231.78
411.08	232.06
411.45	232.34
411.82	232.63
412.20	232.97
412.57	233.37
412.95	233.67
413.32	234.07
413.69	234.47
414.07	234.92
414.44	235.37
414.82	235.85
415.19	236.37
415.56	236.91
415.94	237.42
416.31	238.05
416.68	238.64
417.06	239.38
417.43	240.02
417.81	240.81
418.18	241.59
418.55	242.43
418.93	243.30
419.30	244.20
419.67	245.14
420.04	246.11
420.42	247.11
420.79	248.29
421.16	249.42
421.54	250.62
421.91	251.84
422.28	253.10
422.66	254.37
423.03	255.69
423.40	257.04
423.77	258.47
424.15	259.91
424.52	261.42
424.89	263.02
425.26	264.60
425.64	266.04
426.01	267.63
426.38	269.27
426.75	270.97
427.13	272.66
427.50	274.47
427.87	276.33
428.24	278.21
428.61	279.95
428.99	281.86
429.36	283.94
429.73	285.98
430.10	287.98
430.47	290.05
430.85	292.21
431.22	294.43
431.59	296.77
431.96	298.99
432.33	301.46
432.70	303.80
433.08	306.62
433.45	309.24
433.82	311.83
434.19	314.70
434.56	317.51
434.93	320.19
435.30	322.81
435.68	325.73
436.05	328.54
436.42	331.33
436.79	333.86
437.16	336.54
437.53	339.42
437.90	342.29
438.27	345.03
438.64	347.82
439.01	350.38
439.38	352.68
439.75	354.86
440.13	357.33
440.50	359.69
440.87	361.52
441.24	363.45
441.61	365.64
441.98	367.11
442.35	368.88
442.72	370.76
443.09	372.55
443.46	373.50
443.83	374.11
444.20	374.64
444.57	375.50
444.94	375.84
445.31	376.16
445.68	376.47
446.05	376.57
446.42	376.16
446.79	375.75
447.16	375.21
447.53	374.92
447.90	373.79
448.27	372.63
448.64	371.07
449.01	369.95
449.37	368.00
449.74	366.11
450.11	363.90
450.48	361.41
450.85	358.86
451.22	356.75
451.59	354.73
451.96	352.76
452.33	350.18
452.70	347.78
453.07	344.95
453.43	342.04
453.80	339.25
454.17	336.60
454.54	334.07
454.91	331.42
455.28	328.72
455.65	326.25
456.02	323.82
456.38	321.67
456.75	319.02
457.12	316.76
457.49	314.58
457.86	312.41
458.23	310.60
458.59	308.62
458.96	306.55
459.33	304.73
459.70	302.95
460.07	301.43
460.43	299.70
460.80	298.10
461.17	296.70
461.54	295.25
461.91	293.85
462.27	292.42
462.64	291.16
463.01	289.83
463.38	288.53
463.74	287.16
464.11	285.96
464.48	284.91
464.85	283.78
465.21	282.90
465.58	281.97
465.95	280.83
466.32	279.90
466.68	278.97
467.05	278.01
467.42	277.06
467.78	276.13
468.15	275.24
468.52	274.54
468.88	273.66
469.25	272.87
469.62	272.21
469.98	271.55
470.35	270.95
470.72	270.28
471.08	269.62
471.45	269.08
471.82	268.55
472.18	267.97
472.55	267.50
472.92	266.96
473.28	266.49
473.65	266.02
474.02	265.58
474.38	265.21
474.75	264.89
475.11	264.56
475.48	264.26
475.85	264.04
476.21	263.84
476.58	263.63
476.94	263.48
477.31	263.32
477.67	263.16
478.04	263.05
478.41	263.02
478.77	263.07
479.14	262.98
479.50	262.99
479.87	263.09
480.23	263.20
480.60	263.23
480.96	263.30
481.33	263.54
481.69	263.72
482.06	263.89
482.42	264.08
482.79	264.35
483.15	264.66
483.52	265.04
483.88	265.35
484.25	265.74
484.61	266.12
484.98	266.56
485.34	267.09
485.71	267.66
486.07	268.23
486.44	268.76
486.80	269.49
487.17	270.23
487.53	271.00
487.90	271.85
488.26	272.80
488.62	273.81
488.99	274.75
489.35	275.78
489.72	276.91
490.08	278.14
490.44	279.35
490.81	280.72
491.17	282.07
491.54	283.58
491.90	285.11
492.26	286.81
492.63	288.53
492.99	290.30
493.36	292.17
493.72	294.26
494.08	296.40
494.45	298.60
494.81	300.96
495.17	303.38
495.54	305.92
495.90	308.62
496.26	311.44
496.63	314.41
496.99	317.52
497.35	320.80
497.72	324.18
498.08	327.69
498.44	331.36
498.80	335.29
499.17	339.32
499.53	343.56
499.89	347.94
500.26	352.44
500.62	357.13
500.98	362.12
501.34	367.19
501.71	372.52
502.07	377.94
502.43	383.52
502.79	389.36
503.16	395.41
503.52	401.68
503.88	408.07
504.24	414.79
504.60	421.70
504.97	428.83
505.33	436.15
505.69	443.89
506.05	451.66
506.41	459.60
506.78	467.77
507.14	476.19
507.50	484.91
507.86	493.95
508.22	503.11
508.59	512.31
508.95	521.89
509.31	531.63
509.67	541.76
510.03	552.10
510.39	562.70
510.75	573.52
511.12	584.51
511.48	595.81
511.84	607.19
512.20	618.70
512.56	630.64
512.92	642.86
513.28	655.19
513.64	667.71
514.00	680.31
514.37	693.26
514.73	706.32
515.09	719.32
515.45	732.59
515.81	746.20
516.17	760.19
516.53	774.33
516.89	788.59
517.25	802.80
517.61	817.19
517.97	831.61
518.33	846.03
518.69	860.77
519.05	875.74
519.41	890.94
519.77	906.57
520.13	922.11
520.49	937.43
520.85	952.89
521.21	968.62
521.57	984.93
521.93	1000.75
522.29	1017.17
522.65	1033.42
523.01	1049.70
523.37	1065.78
523.73	1081.97
524.09	1098.02
524.45	1114.33
524.81	1131.01
525.17	1147.99
525.53	1164.94
525.89	1181.83
526.25	1198.70
526.61	1215.16
526.97	1231.93
527.33	1248.37
527.68	1264.95
528.04	1281.41
528.40	1298.09
528.76	1315.20
529.12	1331.80
529.48	1348.57
529.84	1364.61
530.20	1381.17
530.56	1398.26
530.91	1415.64
531.27	1432.54
531.63	1448.97
531.99	1465.54
532.35	1481.53
532.71	1497.25
533.07	1513.47
533.42	1529.37
533.78	1545.31
534.14	1561.64
534.50	1576.99
534.86	1592.84
535.21	1608.00
535.57	1624.08
535.93	1639.61
536.29	1654.29
536.65	1669.34
537.00	1684.22
537.36	1699.60
537.72	1714.24
538.08	1728.58
538.44	1742.44
538.79	1756.34
539.15	1770.11
539.51	1783.89
539.87	1798.28
540.22	1812.08
540.58	1825.95
540.94	1839.42
541.29	1852.45
541.65	1865.10
542.01	1878.52
542.37	1890.89
542.72	1903.30
543.08	1915.01
543.44	1927.32
543.79	1938.63
544.15	1949.64
544.51	1961.19
544.87	1972.15
545.22	1982.93
545.58	1993.15
545.94	2002.92
546.29	2012.75
546.65	2022.65
547.01	2031.75
547.36	2040.43
547.72	2048.95
548.07	2056.64
548.43	2064.84
548.79	2072.83
549.14	2080.38
549.50	2087.52
549.86	2095.19
550.21	2102.54
550.57	2109.74
550.92	2116.24
551.28	2123.36
551.64	2130.31
551.99	2136.73
552.35	2142.85
552.70	2149.09
553.06	2155.11
553.41	2161.55
553.77	2167.48
554.13	2173.60
554.48	2179.92
554.84	2185.33
555.19	2190.53
555.55	2195.83
555.90	2200.27
556.26	2205.07
556.61	2209.98
556.97	2214.22
557.32	2218.50
557.68	2222.71
558.03	2226.99
558.39	2230.92
558.74	2235.52
559.10	2239.52
559.45	2243.18
559.81	2247.47
560.16	2251.28
560.52	2254.63
560.87	2257.99
561.23	2260.74
561.58	2263.76
561.94	2266.23
562.29	2268.65
562.64	2271.39
563.00	2274.02
563.35	2277.54
563.71	2280.82
564.06	2283.79
564.42	2286.71
564.77	2289.03
565.12	2291.20
565.48	2293.04
565.83	2294.77
566.19	2295.99
566.54	2296.93
566.89	2298.19
567.25	2298.72
567.60	2299.98
567.96	2301.52
568.31	2302.34
568.66	2303.47
569.02	2303.80
569.37	2304.12
569.72	2304.87
570.08	2304.97
570.43	2304.94
570.78	2304.37
571.14	2302.90
571.49	2301.57
571.84	2301.25
572.20	2300.00
572.55	2298.90
572.90	2297.47
573.26	2296.05
573.61	2294.39
573.96	2292.49
574.31	2289.56
574.67	2286.53
575.02	2282.93
575.37	2279.61
575.72	2275.65
576.08	2272.19
576.43	2268.91
576.78	2265.10
577.13	2262.03
577.49	2258.95
577.84	2255.27
578.19	2251.32
578.54	2247.41
578.90	2243.13
579.25	2237.42
579.60	2232.48
579.95	2227.60
580.30	2222.47
580.66	2217.23
581.01	2212.28
581.36	2207.39
581.71	2202.98
582.06	2198.38
582.42	2193.76
582.77	2188.32
583.12	2183.84
583.47	2179.15
583.82	2174.04
584.17	2168.87
584.53	2163.26
584.88	2157.58
585.23	2151.90
585.58	2146.46
585.93	2141.12
586.28	2136.51
586.63	2131.50
586.98	2126.41
587.34	2121.63
587.69	2116.71
588.04	2111.37
588.39	2105.47
588.74	2098.96
589.09	2092.88
589.44	2086.21
589.79	2080.28
590.14	2074.76
590.49	2068.15
590.84	2061.60
591.19	2055.66
591.54	2049.20
591.89	2041.77
592.25	2034.90
592.60	2027.72
592.95	2020.16
593.30	2012.78
593.65	2004.96
594.00	1997.98
594.35	1990.78
594.70	1982.56
595.05	1975.28
595.40	1968.10
595.75	1960.74
596.10	1954.51
596.45	1947.61
596.80	1941.45
597.15	1934.67
597.50	1927.50
597.85	1921.03
598.19	1914.42
598.54	1907.20
598.89	1900.42
599.24	1894.56
599.59	1887.90
599.94	1881.64
600.29	1875.29
600.64	1868.61
600.99	1861.20
601.34	1854.29
601.69	1847.24
602.04	1840.50
602.39	1833.10
602.74	1826.16
603.08	1819.40
603.43	1812.74
603.78	1805.45
604.13	1798.03
604.48	1790.77
604.83	1783.85
605.18	1776.85
605.53	1768.82
605.87	1760.76
606.22	1753.60
606.57	1745.67
606.92	1738.33
607.27	1731.15
607.62	1724.11
607.96	1716.84
608.31	1710.24
608.66	1702.47
609.01	1694.93
609.36	1687.21
609.70	1679.29
610.05	1671.18
610.40	1663.45
610.75	1655.07
611.10	1647.45
611.44	1639.22
611.79	1631.29
612.14	1622.56
612.49	1613.33
612.83	1605.00
613.18	1596.90
613.53	1588.80
613.88	1580.21
614.22	1571.83
614.57	1563.10
614.92	1555.11
615.27	1547.37
615.61	1539.02
615.96	1531.16
616.31	1523.46
616.65	1516.10
617.00	1508.47
617.35	1500.85
617.70	1492.41
618.04	1483.89
618.39	1475.69
618.74	1467.96
619.08	1459.61
619.43	1452.01
619.78	1445.23
620.12	1437.95
620.47	1430.40
620.82	1422.29
621.16	1414.91
621.51	1407.38
621.85	1399.84
622.20	1391.25
622.55	1382.99
622.89	1375.10
623.24	1367.40
623.59	1360.13
623.93	1352.65
624.28	1345.51
624.62	1337.91
624.97	1330.86
625.32	1324.20
625.66	1317.10
626.01	1309.92
626.35	1302.49
626.70	1294.88
627.04	1287.01
627.39	1279.31
627.73	1271.96
628.08	1264.97
628.43	1257.53
628.77	1250.06
629.12	1242.45
629.46	1235.33
629.81	1227.96
630.15	1220.78
630.50	1213.39
630.84	1205.12
631.19	1197.27
631.53	1189.76
631.88	1182.18
632.22	1174.51
632.57	1167.16
632.91	1159.70
633.26	1152.34
633.60	1144.97
633.95	1137.81
634.29	1130.84
634.64	1124.18
634.98	1116.76
635.32	1109.62
635.67	1103.12
636.01	1096.58
636.36	1089.81
636.70	1083.32
637.05	1076.76
637.39	1070.27
637.73	1063.70
638.08	1057.84
638.42	1051.78
638.77	1045.25
639.11	1038.73
639.45	1032.30
639.80	1025.56
640.14	1019.14
640.49	1012.61
640.83	1006.25
641.17	999.96
641.52	993.56
641.86	987.04
642.20	981.24
642.55	974.93
642.89	968.39
643.23	961.85
643.58	956.09
643.92	949.89
644.26	943.78
644.61	937.79
644.95	931.77
645.29	925.12
645.64	918.36
645.98	912.05
646.32	906.26
646.66	900.31
647.01	894.54
647.35	888.83
647.69	882.98
648.04	877.49
648.38	871.76
648.72	865.69
649.06	859.64
649.41	853.73
649.75	847.73
650.09	841.84
650.43	836.10
650.78	829.95
651.12	824.00
651.46	818.34
651.80	812.51
652.14	807.13
652.49	801.77
652.83	796.63
653.17	790.86
653.51	785.13
653.85	779.69
654.20	774.04
654.54	768.02
654.88	762.27
655.22	756.36
655.56	750.67
655.90	745.35
656.25	740.10
656.59	734.78
656.93	729.71
657.27	724.54
657.61	719.09
657.95	713.99
658.29	708.87
658.64	703.54
658.98	698.27
659.32	692.83
659.66	687.64
660.00	682.24
660.34	677.39
660.68	672.46
661.02	667.43
661.36	662.64
661.70	658.15
662.05	653.89
662.39	649.55
662.73	645.06
663.07	640.62
663.41	636.15
663.75	631.67
664.09	627.14
664.43	622.70
664.77	618.53
665.11	614.25
665.45	610.15
665.79	606.11
666.13	601.99
666.47	597.91
666.81	593.72
667.15	589.65
667.49	585.78
667.83	581.99
668.17	578.07
668.51	574.08
668.85	570.06
669.19	566.21
669.53	562.37
669.87	558.59
670.21	554.91
670.55	551.32
670.89	547.85
671.23	544.37
671.57	540.89
671.91	537.37
672.25	533.89
672.58	530.37
672.92	527.01
673.26	523.82
673.60	520.61
673.94	517.54
674.28	514.69
674.62	511.67
674.96	508.56
675.30	505.68
675.64	502.77
675.97	500.05
676.31	497.13
676.65	494.20
676.99	491.45
677.33	488.61
677.67	485.77
678.01	482.76
678.34	479.86
678.68	477.01
679.02	474.16
679.36	471.39
679.70	468.68
680.04	465.91
680.37	463.05
680.71	460.28
681.05	457.61
681.39	454.87
681.73	452.26
682.06	449.73
682.40	447.19
682.74	444.65
683.08	442.08
683.42	439.51
683.75	437.03
684.09	434.41
684.43	431.96
684.77	429.52
685.10	427.15
685.44	424.82
685.78	422.49
686.12	420.31
686.45	418.08
686.79	415.80
687.13	413.60
687.46	411.47
687.80	409.36
688.14	407.15
688.48	405.10
688.81	402.81
689.15	400.66
689.49	398.51
689.82	396.41
690.16	394.28
690.50	392.29
690.83	390.35
691.17	388.43
691.51	386.51
691.84	384.66
692.18	382.76
692.52	380.73
692.85	378.87
693.19	376.99
693.52	375.15
693.86	373.28
694.20	371.46
694.53	369.67
694.87	367.80
695.21	366.06
695.54	364.23
695.88	362.52
696.21	360.78
696.55	359.08
696.88	357.41
697.22	355.78
697.56	354.19
697.89	352.49
698.23	350.85
698.56	349.24
698.90	347.61
699.23	345.96
699.57	344.46
699.90	342.90
700.24	341.32
700.58	339.79
700.91	338.31
701.25	336.87
701.58	335.47
701.92	334.14
702.25	332.78
702.59	331.39
702.92	330.07
703.26	328.74
703.59	327.44
703.93	326.26
704.26	325.03
704.60	323.69
704.93	322.50
705.26	321.21
705.60	320.03
705.93	318.86
706.27	317.80
706.60	316.71
706.94	315.62
707.27	314.49
707.61	313.40
707.94	312.39
708.27	311.33
708.61	310.27
708.94	309.22
709.28	308.20
709.61	307.29
709.94	306.38
710.28	305.40
710.61	304.44
710.95	303.40
711.28	302.47
711.61	301.56
711.95	300.64
712.28	299.71
712.61	298.74
712.95	297.86
713.28	297.00
713.61	296.13
713.95	295.24
714.28	294.39
714.61	293.56
714.95	292.70
715.28	291.86
715.61	291.01
715.95	290.22
716.28	289.39
716.61	288.54
716.95	287.73
717.28	287.05
717.61	286.29
717.94	285.54
718.28	284.75
718.61	284.06
718.94	283.35
719.27	282.76
719.61	282.13
719.94	281.49
720.27	280.81
720.60	280.16
720.94	279.56
721.27	279.04
721.60	278.45
721.93	277.82
722.27	277.28
722.60	276.72
722.93	276.12
723.26	275.60
723.59	275.05
723.93	274.51
724.26	273.89
724.59	273.33
724.92	272.81
725.25	272.30
725.59	271.79
725.92	271.30
726.25	270.79
726.58	270.26
726.91	269.74
727.24	269.27
727.57	268.79
727.91	268.30
728.24	267.80
728.57	267.31
728.90	266.88
729.23	266.37
729.56	265.95
729.89	265.49
730.22	265.00
730.55	264.53
730.89	264.06
731.22	263.61
731.55	263.16
731.88	262.75
732.21	262.27
732.54	261.79
732.87	261.35
733.20	260.97
733.53	260.62
733.86	260.22
734.19	259.80
734.52	259.45
734.85	259.11
735.18	258.69
735.51	258.36
735.84	257.96
736.17	257.62
736.50	257.15
736.83	256.90
737.16	256.56
737.49	256.20
737.82	255.84
738.15	255.52
738.48	255.18
738.81	254.84
739.14	254.52
739.47	254.22
739.80	253.91
740.13	253.55
740.46	253.19
740.79	252.87
741.12	252.57
741.45	252.22
741.78	251.89
742.11	251.61
742.44	251.26
742.77	250.99
743.10	250.66
743.43	250.41
743.75	250.01
744.08	249.83
744.41	249.59
744.74	249.34
745.07	249.09
745.40	248.88
745.73	248.63
746.06	248.40
746.39	248.15
746.71	247.90
747.04	247.62
747.37	247.37
747.70	247.15
748.03	246.89
748.36	246.69
748.68	246.41
749.01	246.15
749.34	245.94
749.67	245.71
750.00	245.53
750.33	245.36
750.65	245.17
750.98	244.87
751.31	244.64
751.64	244.45
751.97	244.24
752.29	244.03
752.62	243.80
752.95	243.57
753.28	243.35
753.60	243.13
753.93	242.97
754.26	242.78
754.59	242.54
754.91	242.34
755.24	242.16
755.57	241.99
755.90	241.80
756.22	241.60
756.55	241.41
756.88	241.22
757.20	240.98
757.53	240.82
757.86	240.69
758.19	240.52
758.51	240.34
758.84	240.17
759.17	239.99
759.49	239.87
759.82	239.76
760.15	239.62
760.47	239.50
760.80	239.32
761.13	239.23
761.45	239.09
761.78	238.95
762.11	238.79
762.43	238.67
762.76	238.55
763.08	238.48
763.41	238.37
763.74	238.25
764.06	238.13
764.39	237.97
764.71	237.80
765.04	237.68
765.37	237.58
765.69	237.45
766.02	237.32
766.34	237.17
766.67	237.02
767.00	236.93
767.32	236.85
767.65	236.84
767.97	236.71
768.30	236.62
768.62	236.50
768.95	236.41
769.27	236.25
769.60	236.18
769.92	236.04
770.25	235.88
770.57	235.76
770.90	235.66
771.22	235.54
771.55	235.44
771.87	235.34
772.20	235.21
772.52	235.21
772.85	235.22
773.17	235.12
773.50	234.99
773.82	234.89
774.15	234.77
774.47	234.57
774.80	234.46
775.12	234.37
775.45	234.31
775.77	234.24
776.09	234.20
776.42	234.11
776.74	234.03
777.07	233.97
777.39	233.88
777.72	233.81
778.04	233.75
778.36	233.66
778.69	233.59
779.01	233.55
779.33	233.40
779.66	233.22
779.98	233.16
780.31	233.12
780.63	233.07
780.95	232.99
781.28	232.94
781.60	232.89
781.92	232.81
782.25	232.71
782.57	232.60
782.89	232.50
783.22	232.43
783.54	232.36
783.86	232.28
784.19	232.23
784.51	232.21
784.83	232.13
785.16	232.09
785.48	232.04
785.80	231.96
786.12	231.90
786.45	231.85
786.77	231.80
787.09	231.76
