SpectraSuite Data File
++++++++++++++++++++++++++++++++++++
Date: Fri Feb 01 16:09:10 EST 2013
User: group
Dark Spectrum Present: No
Reference Spectrum Present: No
Number of Sampled Component Spectra: 1
Spectrometers: USB2E7196
Integration Time (usec): 35000 (USB2E7196)
Spectra Averaged: 100 (USB2E7196)
Boxcar Smoothing: 10 (USB2E7196)
Correct for Electrical Dark: No (USB2E7196)
Strobe/Lamp Enabled: No (USB2E7196)
Correct for Detector Non-linearity: No (USB2E7196)
Correct for Stray Light: No (USB2E7196)
Number of Pixels in Processed Spectrum: 2048
>>>>>Begin Processed Spectral Data<<<<<
339.09	0.00
339.48	214.36
339.86	215.93
340.24	217.63
340.63	218.77
341.01	221.73
341.39	221.38
341.78	222.86
342.16	224.11
342.54	224.53
342.93	212.84
343.31	223.60
343.69	224.16
344.07	224.63
344.46	225.02
344.84	225.39
345.22	225.62
345.60	225.88
345.99	226.06
346.37	226.19
346.75	226.25
347.13	226.32
347.52	226.37
347.90	226.47
348.28	226.54
348.66	226.55
349.05	226.54
349.43	226.56
349.81	226.62
350.19	226.67
350.57	226.75
350.96	226.85
351.34	226.95
351.72	227.02
352.10	227.13
352.48	227.22
352.87	227.30
353.25	227.34
353.63	227.38
354.01	227.45
354.39	227.54
354.77	227.64
355.15	227.73
355.54	227.79
355.92	227.83
356.30	227.91
356.68	228.07
357.06	228.19
357.44	228.28
357.82	228.34
358.20	228.42
358.58	228.51
358.97	228.57
359.35	228.62
359.73	228.71
360.11	228.76
360.49	228.82
360.87	228.85
361.25	228.97
361.63	229.04
362.01	229.11
362.39	229.11
362.77	229.15
363.15	229.21
363.53	229.25
363.91	229.29
364.29	229.30
364.67	229.21
365.05	229.21
365.43	229.24
365.81	229.27
366.19	229.29
366.57	229.31
366.95	229.30
367.33	229.29
367.71	229.27
368.09	229.27
368.47	229.27
368.85	229.23
369.23	229.20
369.61	229.16
369.99	229.17
370.37	229.16
370.75	229.17
371.13	229.10
371.51	229.03
371.89	228.97
372.27	228.92
372.65	228.90
373.03	228.83
373.41	228.75
373.78	228.67
374.16	228.57
374.54	228.45
374.92	228.37
375.30	228.32
375.68	228.23
376.06	228.15
376.44	228.06
376.82	228.03
377.19	227.97
377.57	227.89
377.95	227.79
378.33	227.68
378.71	227.59
379.09	227.52
379.47	227.48
379.84	227.39
380.22	227.33
380.60	227.23
380.98	227.18
381.36	227.09
381.73	227.02
382.11	227.00
382.49	226.93
382.87	226.88
383.25	226.77
383.62	226.83
384.00	226.77
384.38	226.69
384.76	226.63
385.13	226.61
385.51	226.59
385.89	226.50
386.27	226.46
386.64	226.43
387.02	226.38
387.40	226.32
387.78	226.29
388.15	226.26
388.53	226.24
388.91	226.18
389.29	226.19
389.66	226.18
390.04	226.11
390.42	226.15
390.79	226.13
391.17	226.17
391.55	226.07
391.92	226.06
392.30	226.10
392.68	226.09
393.05	226.04
393.43	226.02
393.81	226.04
394.18	226.05
394.56	226.02
394.94	226.05
395.31	226.06
395.69	226.11
396.06	226.11
396.44	226.12
396.82	226.15
397.19	226.23
397.57	226.24
397.95	226.28
398.32	226.26
398.70	226.33
399.07	226.39
399.45	226.43
399.82	226.50
400.20	226.55
400.58	226.60
400.95	226.65
401.33	226.75
401.70	226.91
402.08	227.00
402.45	227.10
402.83	227.21
403.20	227.32
403.58	227.41
403.95	227.58
404.33	227.73
404.71	227.86
405.08	228.04
405.46	228.20
405.83	228.36
406.21	228.53
406.58	228.72
406.96	228.85
407.33	229.03
407.70	229.25
408.08	229.50
408.45	229.75
408.83	230.00
409.20	230.21
409.58	230.39
409.95	230.70
410.33	231.01
410.70	231.27
411.08	231.60
411.45	231.89
411.82	232.17
412.20	232.51
412.57	232.92
412.95	233.19
413.32	233.58
413.69	233.99
414.07	234.44
414.44	234.88
414.82	235.38
415.19	235.89
415.56	236.43
415.94	236.95
416.31	237.59
416.68	238.21
417.06	238.88
417.43	239.59
417.81	240.32
418.18	241.07
418.55	241.89
418.93	242.73
419.30	243.62
419.67	244.56
420.04	245.52
420.42	246.51
420.79	247.68
421.16	248.83
421.54	250.03
421.91	251.24
422.28	252.48
422.66	253.81
423.03	255.12
423.40	256.44
423.77	257.87
424.15	259.24
424.52	260.74
424.89	262.38
425.26	263.88
425.64	265.31
426.01	266.92
426.38	268.58
426.75	270.25
427.13	271.97
427.50	273.80
427.87	275.67
428.24	277.50
428.61	279.23
428.99	281.17
429.36	283.25
429.73	285.30
430.10	287.33
430.47	289.39
430.85	291.51
431.22	293.74
431.59	296.13
431.96	298.40
432.33	300.85
432.70	303.19
433.08	306.02
433.45	308.64
433.82	311.19
434.19	314.03
434.56	316.86
434.93	319.55
435.30	322.13
435.68	325.00
436.05	327.87
436.42	330.66
436.79	333.18
437.16	335.87
437.53	338.68
437.90	341.49
438.27	344.20
438.64	347.03
439.01	349.58
439.38	351.80
439.75	353.92
440.13	356.42
440.50	358.79
440.87	360.61
441.24	362.60
441.61	364.78
441.98	366.31
442.35	368.05
442.72	369.87
443.09	371.70
443.46	372.68
443.83	373.20
444.20	373.72
444.57	374.53
444.94	374.81
445.31	375.13
445.68	375.49
446.05	375.59
446.42	375.20
446.79	374.83
447.16	374.35
447.53	374.08
447.90	372.88
448.27	371.66
448.64	370.12
449.01	368.95
449.37	366.96
449.74	365.06
450.11	362.83
450.48	360.41
450.85	357.88
451.22	355.77
451.59	353.83
451.96	351.90
452.33	349.28
452.70	346.92
453.07	344.13
453.43	341.20
453.80	338.44
454.17	335.74
454.54	333.17
454.91	330.51
455.28	327.78
455.65	325.32
456.02	322.93
456.38	320.77
456.75	318.10
457.12	315.87
457.49	313.61
457.86	311.44
458.23	309.54
458.59	307.48
458.96	305.35
459.33	303.49
459.70	301.62
460.07	300.16
460.43	298.46
460.80	296.83
461.17	295.43
461.54	293.93
461.91	292.55
462.27	291.10
462.64	289.83
463.01	288.53
463.38	287.26
463.74	285.90
464.11	284.74
464.48	283.73
464.85	282.63
465.21	281.80
465.58	280.88
465.95	279.81
466.32	278.92
466.68	278.03
467.05	277.12
467.42	276.24
467.78	275.32
468.15	274.44
468.52	273.82
468.88	272.96
469.25	272.19
469.62	271.54
469.98	270.90
470.35	270.29
470.72	269.67
471.08	269.01
471.45	268.46
471.82	267.90
472.18	267.31
472.55	266.91
472.92	266.39
473.28	265.95
473.65	265.52
474.02	265.07
474.38	264.72
474.75	264.40
475.11	264.05
475.48	263.79
475.85	263.56
476.21	263.29
476.58	263.09
476.94	262.94
477.31	262.77
477.67	262.61
478.04	262.49
478.41	262.45
478.77	262.49
479.14	262.42
479.50	262.45
479.87	262.56
480.23	262.63
480.60	262.72
480.96	262.81
481.33	263.03
481.69	263.24
482.06	263.45
482.42	263.65
482.79	263.90
483.15	264.22
483.52	264.62
483.88	265.02
484.25	265.37
484.61	265.77
484.98	266.26
485.34	266.82
485.71	267.43
486.07	268.01
486.44	268.58
486.80	269.32
487.17	270.06
487.53	270.85
487.90	271.65
488.26	272.57
488.62	273.58
488.99	274.55
489.35	275.58
489.72	276.69
490.08	277.89
490.44	279.14
490.81	280.45
491.17	281.81
491.54	283.27
491.90	284.84
492.26	286.55
492.63	288.30
492.99	290.06
493.36	291.95
493.72	294.02
494.08	296.17
494.45	298.39
494.81	300.77
495.17	303.22
495.54	305.82
495.90	308.50
496.26	311.29
496.63	314.25
496.99	317.41
497.35	320.67
497.72	324.10
498.08	327.68
498.44	331.33
498.80	335.22
499.17	339.32
499.53	343.54
499.89	347.91
500.26	352.43
500.62	357.16
500.98	362.10
501.34	367.20
501.71	372.51
502.07	377.97
502.43	383.58
502.79	389.42
503.16	395.48
503.52	401.78
503.88	408.16
504.24	414.80
504.60	421.67
504.97	428.81
505.33	436.11
505.69	443.78
506.05	451.58
506.41	459.49
506.78	467.63
507.14	476.07
507.50	484.82
507.86	493.80
508.22	502.99
508.59	512.24
508.95	521.80
509.31	531.63
509.67	541.75
510.03	552.04
510.39	562.64
510.75	573.47
511.12	584.40
511.48	595.69
511.84	607.14
512.20	618.59
512.56	630.52
512.92	642.76
513.28	655.06
513.64	667.59
514.00	680.33
514.37	693.24
514.73	706.29
515.09	719.27
515.45	732.58
515.81	746.18
516.17	760.20
516.53	774.32
516.89	788.41
517.25	802.55
517.61	817.05
517.97	831.51
518.33	845.88
518.69	860.63
519.05	875.63
519.41	890.75
519.77	906.37
520.13	921.79
520.49	937.10
520.85	952.55
521.21	968.23
521.57	984.45
521.93	1000.24
522.29	1016.62
522.65	1032.80
523.01	1048.88
523.37	1064.88
523.73	1081.00
524.09	1097.02
524.45	1113.39
524.81	1129.97
525.17	1146.57
525.53	1163.38
525.89	1180.21
526.25	1197.02
526.61	1213.38
526.97	1230.10
527.33	1246.54
527.68	1263.09
528.04	1279.50
528.40	1296.09
528.76	1313.02
529.12	1329.55
529.48	1346.31
529.84	1362.21
530.20	1378.88
530.56	1395.89
530.91	1413.23
531.27	1429.84
531.63	1446.37
531.99	1462.75
532.35	1478.58
532.71	1494.55
533.07	1510.69
533.42	1526.57
533.78	1542.58
534.14	1558.79
534.50	1574.02
534.86	1589.72
535.21	1604.88
535.57	1620.76
535.93	1636.06
536.29	1650.79
536.65	1665.70
537.00	1680.38
537.36	1695.55
537.72	1709.89
538.08	1724.27
538.44	1737.91
538.79	1751.64
539.15	1765.07
539.51	1778.83
539.87	1793.12
540.22	1806.66
540.58	1820.48
540.94	1833.58
541.29	1846.38
541.65	1858.92
542.01	1872.09
542.37	1884.35
542.72	1896.69
543.08	1908.24
543.44	1920.54
543.79	1931.75
544.15	1942.79
544.51	1954.30
544.87	1965.27
545.22	1976.17
545.58	1986.39
545.94	1996.21
546.29	2006.18
546.65	2016.15
547.01	2025.28
547.36	2033.97
547.72	2042.45
548.07	2050.23
548.43	2058.46
548.79	2066.40
549.14	2073.96
549.50	2081.23
549.86	2088.84
550.21	2096.14
550.57	2103.46
550.92	2110.02
551.28	2116.96
551.64	2123.95
551.99	2130.61
552.35	2136.78
552.70	2143.00
553.06	2148.89
553.41	2155.19
553.77	2161.13
554.13	2167.20
554.48	2173.43
554.84	2178.98
555.19	2184.26
555.55	2189.36
555.90	2193.88
556.26	2198.81
556.61	2203.53
556.97	2208.03
557.32	2212.27
557.68	2216.31
558.03	2220.66
558.39	2224.43
558.74	2229.16
559.10	2232.94
559.45	2236.56
559.81	2240.92
560.16	2244.59
560.52	2247.85
560.87	2251.40
561.23	2254.15
561.58	2257.02
561.94	2259.45
562.29	2261.74
562.64	2264.51
563.00	2267.15
563.35	2270.66
563.71	2273.82
564.06	2277.04
564.42	2279.89
564.77	2282.46
565.12	2284.95
565.48	2286.90
565.83	2288.79
566.19	2290.02
566.54	2290.97
566.89	2292.04
567.25	2292.52
567.60	2293.91
567.96	2295.59
568.31	2296.24
568.66	2297.41
569.02	2298.07
569.37	2298.44
569.72	2299.40
570.08	2299.53
570.43	2299.54
570.78	2299.07
571.14	2297.57
571.49	2296.27
571.84	2295.80
572.20	2294.72
572.55	2293.64
572.90	2292.12
573.26	2290.75
573.61	2289.18
573.96	2287.55
574.31	2284.65
574.67	2281.73
575.02	2278.25
575.37	2274.83
575.72	2271.09
576.08	2267.63
576.43	2264.22
576.78	2260.51
577.13	2257.37
577.49	2254.21
577.84	2250.59
578.19	2246.83
578.54	2243.17
578.90	2239.02
579.25	2233.60
579.60	2228.56
579.95	2223.49
580.30	2218.39
580.66	2213.09
581.01	2208.12
581.36	2203.23
581.71	2199.06
582.06	2194.72
582.42	2190.11
582.77	2185.06
583.12	2180.52
583.47	2175.95
583.82	2171.03
584.17	2165.89
584.53	2160.33
584.88	2154.78
585.23	2149.16
585.58	2143.61
585.93	2138.07
586.28	2133.25
586.63	2128.21
586.98	2123.06
587.34	2118.48
587.69	2113.74
588.04	2108.73
588.39	2103.13
588.74	2096.64
589.09	2090.56
589.44	2083.80
589.79	2077.79
590.14	2072.17
590.49	2065.64
590.84	2059.16
591.19	2053.03
591.54	2046.70
591.89	2039.39
592.25	2032.69
592.60	2025.62
592.95	2018.16
593.30	2010.93
593.65	2003.33
594.00	1996.35
594.35	1989.15
594.70	1981.07
595.05	1973.84
595.40	1966.50
595.75	1959.13
596.10	1952.96
596.45	1946.23
596.80	1940.14
597.15	1933.69
597.50	1926.58
597.85	1920.25
598.19	1913.59
598.54	1906.55
598.89	1899.90
599.24	1894.12
599.59	1887.43
599.94	1881.24
600.29	1874.86
600.64	1868.25
600.99	1860.81
601.34	1853.87
601.69	1847.09
602.04	1840.30
602.39	1832.94
602.74	1826.22
603.08	1819.42
603.43	1812.69
603.78	1805.49
604.13	1798.11
604.48	1790.74
604.83	1783.82
605.18	1776.82
605.53	1768.94
605.87	1761.06
606.22	1753.84
606.57	1745.84
606.92	1738.51
607.27	1731.26
607.62	1724.37
607.96	1717.18
608.31	1710.70
608.66	1703.14
609.01	1695.58
609.36	1687.97
609.70	1679.92
610.05	1671.73
610.40	1664.01
610.75	1655.76
611.10	1647.95
611.44	1639.53
611.79	1631.59
612.14	1623.01
612.49	1613.84
612.83	1605.30
613.18	1597.07
613.53	1588.90
613.88	1580.34
614.22	1572.00
614.57	1563.34
614.92	1555.32
615.27	1547.73
615.61	1539.22
615.96	1531.16
616.31	1523.51
616.65	1516.12
617.00	1508.58
617.35	1500.94
617.70	1492.62
618.04	1484.05
618.39	1475.89
618.74	1468.26
619.08	1459.86
619.43	1452.22
619.78	1445.32
620.12	1438.26
620.47	1430.88
620.82	1422.75
621.16	1415.30
621.51	1407.72
621.85	1400.17
622.20	1391.66
622.55	1383.31
622.89	1375.55
623.24	1367.97
623.59	1360.47
623.93	1352.92
624.28	1345.67
624.62	1338.12
624.97	1330.92
625.32	1324.21
625.66	1317.08
626.01	1309.99
626.35	1302.57
626.70	1294.77
627.04	1286.96
627.39	1279.18
627.73	1271.71
628.08	1264.80
628.43	1257.54
628.77	1250.18
629.12	1242.57
629.46	1235.48
629.81	1228.03
630.15	1220.83
630.50	1213.39
630.84	1205.28
631.19	1197.30
631.53	1189.86
631.88	1182.37
632.22	1174.82
632.57	1167.47
632.91	1159.99
633.26	1152.58
633.60	1145.20
633.95	1138.11
634.29	1131.12
634.64	1124.46
634.98	1117.07
635.32	1109.86
635.67	1103.24
636.01	1096.59
636.36	1089.84
636.70	1083.16
637.05	1076.62
637.39	1070.18
637.73	1063.76
638.08	1057.79
638.42	1051.87
638.77	1045.45
639.11	1038.89
639.45	1032.42
639.80	1025.76
640.14	1019.44
640.49	1012.90
640.83	1006.66
641.17	1000.45
641.52	994.14
641.86	987.58
642.20	981.67
642.55	975.40
642.89	969.01
643.23	962.46
643.58	956.74
643.92	950.63
644.26	944.53
644.61	938.49
644.95	932.44
645.29	925.92
645.64	919.17
645.98	912.72
646.32	906.83
646.66	900.85
647.01	895.08
647.35	889.34
647.69	883.48
648.04	877.91
648.38	872.13
648.72	866.08
649.06	860.18
649.41	854.39
649.75	848.44
650.09	842.52
650.43	836.77
650.78	830.59
651.12	824.61
651.46	818.83
651.80	813.14
652.14	807.78
652.49	802.40
652.83	797.19
653.17	791.55
653.51	785.88
653.85	780.47
654.20	774.77
654.54	768.70
654.88	762.98
655.22	757.03
655.56	751.34
655.90	745.96
656.25	740.67
656.59	735.24
656.93	730.16
657.27	724.96
657.61	719.55
657.95	714.39
658.29	709.34
658.64	704.13
658.98	698.77
659.32	693.25
659.66	688.00
660.00	682.72
660.34	677.75
660.68	672.77
661.02	667.71
661.36	662.95
661.70	658.47
662.05	654.07
662.39	649.77
662.73	645.29
663.07	640.92
663.41	636.44
663.75	632.02
664.09	627.46
664.43	623.04
664.77	618.87
665.11	614.64
665.45	610.51
665.79	606.46
666.13	602.28
666.47	598.18
666.81	594.14
667.15	590.05
667.49	586.16
667.83	582.40
668.17	578.54
668.51	574.54
668.85	570.50
669.19	566.67
669.53	562.81
669.87	558.96
670.21	555.23
670.55	551.64
670.89	548.14
671.23	544.71
671.57	541.17
671.91	537.66
672.25	534.17
672.58	530.69
672.92	527.29
673.26	524.15
673.60	520.99
673.94	517.86
674.28	514.93
674.62	511.96
674.96	508.79
675.30	505.84
675.64	502.86
675.97	500.07
676.31	497.21
676.65	494.32
676.99	491.65
677.33	488.79
677.67	485.92
678.01	482.94
678.34	479.95
678.68	477.10
679.02	474.29
679.36	471.52
679.70	468.75
680.04	466.01
680.37	463.15
680.71	460.39
681.05	457.84
681.39	455.16
681.73	452.55
682.06	450.08
682.40	447.56
682.74	445.10
683.08	442.59
683.42	439.96
683.75	437.46
684.09	434.88
684.43	432.46
684.77	430.04
685.10	427.71
685.44	425.42
685.78	423.08
686.12	420.79
686.45	418.52
686.79	416.18
687.13	413.99
687.46	411.80
687.80	409.63
688.14	407.36
688.48	405.32
688.81	403.09
689.15	400.92
689.49	398.73
689.82	396.62
690.16	394.52
690.50	392.60
690.83	390.66
691.17	388.66
691.51	386.70
691.84	384.82
692.18	382.81
692.52	380.81
692.85	378.91
693.19	377.08
693.52	375.20
693.86	373.41
694.20	371.60
694.53	369.79
694.87	368.00
695.21	366.17
695.54	364.33
695.88	362.54
696.21	360.79
696.55	359.15
696.88	357.43
697.22	355.76
697.56	354.13
697.89	352.49
698.23	350.88
698.56	349.28
698.90	347.71
699.23	346.07
699.57	344.51
699.90	343.00
700.24	341.40
700.58	339.86
700.91	338.36
701.25	336.89
701.58	335.51
701.92	334.11
702.25	332.70
702.59	331.28
702.92	329.95
703.26	328.63
703.59	327.28
703.93	326.14
704.26	324.88
704.60	323.58
704.93	322.28
705.26	321.03
705.60	319.83
705.93	318.67
706.27	317.69
706.60	316.64
706.94	315.53
707.27	314.42
707.61	313.37
707.94	312.34
708.27	311.26
708.61	310.17
708.94	309.16
709.28	308.22
709.61	307.26
709.94	306.30
710.28	305.30
710.61	304.36
710.95	303.27
711.28	302.38
711.61	301.43
711.95	300.52
712.28	299.57
712.61	298.61
712.95	297.69
713.28	296.80
713.61	295.92
713.95	295.06
714.28	294.24
714.61	293.42
714.95	292.59
715.28	291.76
715.61	290.95
715.95	290.09
716.28	289.24
716.61	288.43
716.95	287.66
717.28	286.90
717.61	286.15
717.94	285.43
718.28	284.64
718.61	283.96
718.94	283.30
719.27	282.70
719.61	282.09
719.94	281.45
720.27	280.78
720.60	280.10
720.94	279.48
721.27	278.89
721.60	278.29
721.93	277.72
722.27	277.19
722.60	276.64
722.93	276.09
723.26	275.57
723.59	275.02
723.93	274.46
724.26	273.90
724.59	273.32
724.92	272.77
725.25	272.28
725.59	271.74
725.92	271.21
726.25	270.67
726.58	270.18
726.91	269.67
727.24	269.15
727.57	268.73
727.91	268.23
728.24	267.76
728.57	267.26
728.90	266.80
729.23	266.29
729.56	265.86
729.89	265.37
730.22	264.88
730.55	264.45
730.89	264.00
731.22	263.57
731.55	263.15
731.88	262.74
732.21	262.29
732.54	261.86
732.87	261.44
733.20	261.08
733.53	260.66
733.86	260.31
734.19	259.92
734.52	259.50
734.85	259.14
735.18	258.69
735.51	258.34
735.84	257.96
736.17	257.62
736.50	257.21
736.83	256.95
737.16	256.60
737.49	256.24
737.82	255.88
738.15	255.55
738.48	255.23
738.81	254.88
739.14	254.56
739.47	254.24
739.80	253.91
740.13	253.54
740.46	253.22
740.79	252.85
741.12	252.55
741.45	252.20
741.78	251.84
742.11	251.60
742.44	251.25
742.77	250.94
743.10	250.62
743.43	250.32
743.75	249.94
744.08	249.78
744.41	249.45
744.74	249.20
745.07	248.94
745.40	248.67
745.73	248.43
746.06	248.18
746.39	247.89
746.71	247.63
747.04	247.35
747.37	247.05
747.70	246.78
748.03	246.50
748.36	246.32
748.68	246.09
749.01	245.80
749.34	245.60
749.67	245.36
750.00	245.15
750.33	244.98
750.65	244.77
750.98	244.44
751.31	244.23
751.64	244.01
751.97	243.83
752.29	243.59
752.62	243.35
752.95	243.14
753.28	242.92
753.60	242.72
753.93	242.56
754.26	242.38
754.59	242.17
754.91	241.99
755.24	241.75
755.57	241.55
755.90	241.39
756.22	241.17
756.55	240.98
756.88	240.77
757.20	240.53
757.53	240.31
757.86	240.13
758.19	240.00
758.51	239.82
758.84	239.63
759.17	239.48
759.49	239.30
759.82	239.17
760.15	239.05
760.47	238.91
760.80	238.76
761.13	238.65
761.45	238.51
761.78	238.36
762.11	238.25
762.43	238.12
762.76	237.96
763.08	237.86
763.41	237.73
763.74	237.60
764.06	237.48
764.39	237.38
764.71	237.23
765.04	237.10
765.37	236.96
765.69	236.82
766.02	236.69
766.34	236.59
766.67	236.42
767.00	236.31
767.32	236.24
767.65	236.17
767.97	236.05
768.30	235.93
768.62	235.79
768.95	235.64
769.27	235.54
769.60	235.48
769.92	235.32
770.25	235.20
770.57	235.07
770.90	234.95
771.22	234.83
771.55	234.77
771.87	234.68
772.20	234.58
772.52	234.58
772.85	234.61
773.17	234.51
773.50	234.41
773.82	234.30
774.15	234.15
774.47	233.97
774.80	233.87
775.12	233.81
775.45	233.70
775.77	233.67
776.09	233.57
776.42	233.47
776.74	233.45
777.07	233.36
777.39	233.27
777.72	233.22
778.04	233.17
778.36	233.08
778.69	233.01
779.01	232.97
779.33	232.78
779.66	232.59
779.98	232.50
780.31	232.42
780.63	232.38
780.95	232.31
781.28	232.25
781.60	232.15
781.92	232.07
782.25	232.06
782.57	231.96
782.89	231.91
783.22	231.82
783.54	231.73
783.86	231.69
784.19	231.66
784.51	231.59
784.83	231.51
785.16	231.42
785.48	231.36
785.80	231.28
786.12	231.27
786.45	231.21
786.77	231.20
787.09	231.19
