SpectraSuite Data File
++++++++++++++++++++++++++++++++++++
Date: Fri Feb 01 17:38:44 EST 2013
User: group
Dark Spectrum Present: No
Reference Spectrum Present: No
Number of Sampled Component Spectra: 1
Spectrometers: USB2E7196
Integration Time (usec): 35000 (USB2E7196)
Spectra Averaged: 100 (USB2E7196)
Boxcar Smoothing: 10 (USB2E7196)
Correct for Electrical Dark: No (USB2E7196)
Strobe/Lamp Enabled: No (USB2E7196)
Correct for Detector Non-linearity: No (USB2E7196)
Correct for Stray Light: No (USB2E7196)
Number of Pixels in Processed Spectrum: 2048
>>>>>Begin Processed Spectral Data<<<<<
339.09	0.00
339.48	213.14
339.86	214.30
340.24	215.38
340.63	216.84
341.01	219.93
341.39	220.22
341.78	220.97
342.16	221.96
342.54	222.94
342.93	211.46
343.31	222.16
343.69	222.68
344.07	223.14
344.46	223.56
344.84	223.94
345.22	224.18
345.60	224.42
345.99	224.61
346.37	224.78
346.75	224.88
347.13	224.95
347.52	224.96
347.90	225.04
348.28	225.07
348.66	225.13
349.05	225.10
349.43	225.13
349.81	225.16
350.19	225.19
350.57	225.21
350.96	225.30
351.34	225.39
351.72	225.51
352.10	225.60
352.48	225.71
352.87	225.78
353.25	225.84
353.63	225.88
354.01	225.97
354.39	226.05
354.77	226.10
355.15	226.18
355.54	226.27
355.92	226.30
356.30	226.33
356.68	226.47
357.06	226.56
357.44	226.65
357.82	226.70
358.20	226.78
358.58	226.84
358.97	226.92
359.35	226.96
359.73	227.02
360.11	227.07
360.49	227.12
360.87	227.19
361.25	227.25
361.63	227.34
362.01	227.37
362.39	227.39
362.77	227.45
363.15	227.47
363.53	227.46
363.91	227.48
364.29	227.52
364.67	227.42
365.05	227.46
365.43	227.45
365.81	227.47
366.19	227.53
366.57	227.55
366.95	227.54
367.33	227.53
367.71	227.54
368.09	227.56
368.47	227.55
368.85	227.51
369.23	227.51
369.61	227.46
369.99	227.46
370.37	227.41
370.75	227.45
371.13	227.40
371.51	227.39
371.89	227.37
372.27	227.36
372.65	227.34
373.03	227.29
373.41	227.23
373.78	227.18
374.16	227.07
374.54	227.03
374.92	226.93
375.30	226.87
375.68	226.77
376.06	226.70
376.44	226.62
376.82	226.57
377.19	226.51
377.57	226.43
377.95	226.36
378.33	226.31
378.71	226.16
379.09	226.10
379.47	226.06
379.84	225.97
380.22	225.90
380.60	225.85
380.98	225.76
381.36	225.68
381.73	225.59
382.11	225.54
382.49	225.47
382.87	225.41
383.25	225.37
383.62	225.42
384.00	225.36
384.38	225.32
384.76	225.30
385.13	225.31
385.51	225.24
385.89	225.16
386.27	225.15
386.64	225.11
387.02	225.09
387.40	225.02
387.78	224.99
388.15	224.94
388.53	224.88
388.91	224.88
389.29	224.84
389.66	224.84
390.04	224.81
390.42	224.82
390.79	224.80
391.17	224.79
391.55	224.69
391.92	224.67
392.30	224.68
392.68	224.64
393.05	224.61
393.43	224.65
393.81	224.67
394.18	224.63
394.56	224.68
394.94	224.71
395.31	224.74
395.69	224.77
396.06	224.78
396.44	224.79
396.82	224.82
397.19	224.92
397.57	224.95
397.95	224.99
398.32	224.97
398.70	225.04
399.07	225.07
399.45	225.12
399.82	225.16
400.20	225.22
400.58	225.28
400.95	225.30
401.33	225.35
401.70	225.47
402.08	225.54
402.45	225.58
402.83	225.68
403.20	225.79
403.58	225.85
403.95	225.97
404.33	226.08
404.71	226.16
405.08	226.33
405.46	226.43
405.83	226.60
406.21	226.74
406.58	226.87
406.96	227.02
407.33	227.17
407.70	227.37
408.08	227.61
408.45	227.77
408.83	227.99
409.20	228.22
409.58	228.40
409.95	228.68
410.33	228.96
410.70	229.18
411.08	229.45
411.45	229.79
411.82	230.10
412.20	230.48
412.57	230.92
412.95	231.20
413.32	231.61
413.69	231.96
414.07	232.44
414.44	232.90
414.82	233.42
415.19	233.98
415.56	234.58
415.94	235.11
416.31	235.77
416.68	236.41
417.06	237.15
417.43	237.88
417.81	238.64
418.18	239.45
418.55	240.31
418.93	241.23
419.30	242.15
419.67	243.15
420.04	244.14
420.42	245.15
420.79	246.37
421.16	247.58
421.54	248.84
421.91	250.06
422.28	251.40
422.66	252.77
423.03	254.12
423.40	255.50
423.77	256.98
424.15	258.50
424.52	260.05
424.89	261.74
425.26	263.34
425.64	264.92
426.01	266.58
426.38	268.33
426.75	270.06
427.13	271.86
427.50	273.77
427.87	275.74
428.24	277.73
428.61	279.56
428.99	281.59
429.36	283.85
429.73	286.02
430.10	288.13
430.47	290.33
430.85	292.54
431.22	294.89
431.59	297.35
431.96	299.71
432.33	302.33
432.70	304.80
433.08	307.76
433.45	310.48
433.82	313.24
434.19	316.24
434.56	319.19
434.93	321.94
435.30	324.61
435.68	327.59
436.05	330.54
436.42	333.48
436.79	336.07
437.16	338.84
437.53	341.82
437.90	344.71
438.27	347.57
438.64	350.52
439.01	353.21
439.38	355.60
439.75	357.86
440.13	360.45
440.50	362.89
440.87	364.82
441.24	366.86
441.61	369.09
441.98	370.65
442.35	372.52
442.72	374.52
443.09	376.45
443.46	377.55
443.83	378.16
444.20	378.72
444.57	379.68
444.94	380.01
445.31	380.40
445.68	380.80
446.05	380.91
446.42	380.56
446.79	380.11
447.16	379.66
447.53	379.36
447.90	378.17
448.27	377.02
448.64	375.38
449.01	374.22
449.37	372.19
449.74	370.25
450.11	367.91
450.48	365.31
450.85	362.68
451.22	360.48
451.59	358.39
451.96	356.37
452.33	353.63
452.70	351.16
453.07	348.21
453.43	345.22
453.80	342.35
454.17	339.54
454.54	336.89
454.91	334.07
455.28	331.25
455.65	328.66
456.02	326.06
456.38	323.83
456.75	321.02
457.12	318.68
457.49	316.36
457.86	314.16
458.23	312.24
458.59	310.13
458.96	307.92
459.33	305.99
459.70	304.04
460.07	302.47
460.43	300.68
460.80	298.98
461.17	297.47
461.54	295.87
461.91	294.40
462.27	292.94
462.64	291.62
463.01	290.25
463.38	288.95
463.74	287.56
464.11	286.34
464.48	285.27
464.85	284.10
465.21	283.19
465.58	282.16
465.95	281.02
466.32	280.08
466.68	279.11
467.05	278.16
467.42	277.21
467.78	276.25
468.15	275.37
468.52	274.71
468.88	273.86
469.25	273.10
469.62	272.44
469.98	271.73
470.35	271.06
470.72	270.43
471.08	269.72
471.45	269.14
471.82	268.61
472.18	268.00
472.55	267.55
472.92	266.99
473.28	266.56
473.65	266.12
474.02	265.67
474.38	265.30
474.75	264.96
475.11	264.62
475.48	264.36
475.85	264.08
476.21	263.83
476.58	263.59
476.94	263.42
477.31	263.26
477.67	263.09
478.04	263.01
478.41	262.95
478.77	263.00
479.14	262.94
479.50	262.92
479.87	263.00
480.23	263.13
480.60	263.21
480.96	263.27
481.33	263.48
481.69	263.67
482.06	263.86
482.42	264.06
482.79	264.29
483.15	264.58
483.52	264.99
483.88	265.31
484.25	265.70
484.61	266.10
484.98	266.55
485.34	267.12
485.71	267.68
486.07	268.23
486.44	268.77
486.80	269.43
487.17	270.14
487.53	270.95
487.90	271.78
488.26	272.74
488.62	273.70
488.99	274.65
489.35	275.69
489.72	276.82
490.08	278.00
490.44	279.22
490.81	280.54
491.17	281.85
491.54	283.34
491.90	284.86
492.26	286.46
492.63	288.19
492.99	289.94
493.36	291.80
493.72	293.83
494.08	295.91
494.45	298.16
494.81	300.49
495.17	302.91
495.54	305.42
495.90	308.01
496.26	310.81
496.63	313.75
496.99	316.84
497.35	320.05
497.72	323.40
498.08	326.87
498.44	330.50
498.80	334.37
499.17	338.37
499.53	342.50
499.89	346.83
500.26	351.24
500.62	355.84
500.98	360.72
501.34	365.75
501.71	370.98
502.07	376.29
502.43	381.81
502.79	387.55
503.16	393.54
503.52	399.78
503.88	406.03
504.24	412.55
504.60	419.28
504.97	426.26
505.33	433.41
505.69	441.00
506.05	448.63
506.41	456.30
506.78	464.29
507.14	472.56
507.50	481.05
507.86	489.91
508.22	498.91
508.59	507.96
508.95	517.30
509.31	526.94
509.67	536.89
510.03	546.94
510.39	557.23
510.75	567.69
511.12	578.31
511.48	589.31
511.84	600.42
512.20	611.60
512.56	623.26
512.92	635.17
513.28	647.19
513.64	659.23
514.00	671.66
514.37	684.21
514.73	696.87
515.09	709.52
515.45	722.40
515.81	735.53
516.17	748.98
516.53	762.62
516.89	776.34
517.25	789.99
517.61	803.96
517.97	817.90
518.33	831.91
518.69	846.18
519.05	860.64
519.41	875.38
519.77	890.34
520.13	905.29
520.49	920.29
520.85	935.08
521.21	950.33
521.57	965.97
521.93	981.20
522.29	996.99
522.65	1012.82
523.01	1028.44
523.37	1044.02
523.73	1059.66
524.09	1075.22
524.45	1090.85
524.81	1107.00
525.17	1123.24
525.53	1139.55
525.89	1155.83
526.25	1172.17
526.61	1188.08
526.97	1204.25
527.33	1220.30
527.68	1236.23
528.04	1252.05
528.40	1268.01
528.76	1284.57
529.12	1300.68
529.48	1317.05
529.84	1332.64
530.20	1348.62
530.56	1365.08
530.91	1381.90
531.27	1398.23
531.63	1414.10
531.99	1430.23
532.35	1445.69
532.71	1461.16
533.07	1476.98
533.42	1492.49
533.78	1508.09
534.14	1524.02
534.50	1539.05
534.86	1554.48
535.21	1569.41
535.57	1584.92
535.93	1600.01
536.29	1614.36
536.65	1629.00
537.00	1643.35
537.36	1658.25
537.72	1672.47
538.08	1686.52
538.44	1700.00
538.79	1713.68
539.15	1727.01
539.51	1740.47
539.87	1754.51
540.22	1767.87
540.58	1781.38
540.94	1794.32
541.29	1806.75
541.65	1819.04
542.01	1831.94
542.37	1844.12
542.72	1856.35
543.08	1868.04
543.44	1880.27
543.79	1891.58
544.15	1902.54
544.51	1914.06
544.87	1924.84
545.22	1935.60
545.58	1945.92
545.94	1955.78
546.29	1965.66
546.65	1975.72
547.01	1985.22
547.36	1994.11
547.72	2002.80
548.07	2010.93
548.43	2019.23
548.79	2027.40
549.14	2035.25
549.50	2042.71
549.86	2050.43
550.21	2057.94
550.57	2065.40
550.92	2072.39
551.28	2079.44
551.64	2086.72
551.99	2093.44
552.35	2100.02
552.70	2106.42
553.06	2112.74
553.41	2119.27
553.77	2125.30
554.13	2131.61
554.48	2137.87
554.84	2143.98
555.19	2149.43
555.55	2154.85
555.90	2159.70
556.26	2165.23
556.61	2170.17
556.97	2174.96
557.32	2179.62
557.68	2184.09
558.03	2188.50
558.39	2192.40
558.74	2197.44
559.10	2201.72
559.45	2205.76
559.81	2210.27
560.16	2214.52
560.52	2218.08
560.87	2221.84
561.23	2225.06
561.58	2228.11
561.94	2231.10
562.29	2233.33
562.64	2236.77
563.00	2239.66
563.35	2243.51
563.71	2246.89
564.06	2250.48
564.42	2253.65
564.77	2256.62
565.12	2259.56
565.48	2262.17
565.83	2264.72
566.19	2266.65
566.54	2267.73
566.89	2269.51
567.25	2270.71
567.60	2272.34
567.96	2274.57
568.31	2275.92
568.66	2277.54
569.02	2278.89
569.37	2279.69
569.72	2281.12
570.08	2281.67
570.43	2282.11
570.78	2282.19
571.14	2281.19
571.49	2280.16
571.84	2280.15
572.20	2279.38
572.55	2278.49
572.90	2277.12
573.26	2276.11
573.61	2274.41
573.96	2273.54
574.31	2270.89
574.67	2268.43
575.02	2265.21
575.37	2262.12
575.72	2258.83
576.08	2255.60
576.43	2252.49
576.78	2249.34
577.13	2246.47
577.49	2243.36
577.84	2240.48
578.19	2236.91
578.54	2233.77
578.90	2230.38
579.25	2225.36
579.60	2220.93
579.95	2216.44
580.30	2211.86
580.66	2207.12
581.01	2202.86
581.36	2198.00
581.71	2194.37
582.06	2190.29
582.42	2186.47
582.77	2181.61
583.12	2177.35
583.47	2173.45
583.82	2169.04
584.17	2164.12
584.53	2159.06
584.88	2154.09
585.23	2148.71
585.58	2143.61
585.93	2138.38
586.28	2133.43
586.63	2128.76
586.98	2123.96
587.34	2119.49
587.69	2114.85
588.04	2109.93
588.39	2104.52
588.74	2098.17
589.09	2092.10
589.44	2085.56
589.79	2079.36
590.14	2073.93
590.49	2067.52
590.84	2060.96
591.19	2055.03
591.54	2048.71
591.89	2041.60
592.25	2035.11
592.60	2028.12
592.95	2020.81
593.30	2013.79
593.65	2006.49
594.00	1999.60
594.35	1992.46
594.70	1984.44
595.05	1977.73
595.40	1970.57
595.75	1963.34
596.10	1957.66
596.45	1951.34
596.80	1945.36
597.15	1939.25
597.50	1932.62
597.85	1926.36
598.19	1920.08
598.54	1913.37
598.89	1906.97
599.24	1901.30
599.59	1894.84
599.94	1888.54
600.29	1882.43
600.64	1875.81
600.99	1868.75
601.34	1862.08
601.69	1855.18
602.04	1848.70
602.39	1841.28
602.74	1834.50
603.08	1827.88
603.43	1821.04
603.78	1813.68
604.13	1806.48
604.48	1799.39
604.83	1792.53
605.18	1785.90
605.53	1778.08
605.87	1770.12
606.22	1762.77
606.57	1754.80
606.92	1747.14
607.27	1740.18
607.62	1733.35
607.96	1726.27
608.31	1719.79
608.66	1712.28
609.01	1704.86
609.36	1697.38
609.70	1689.42
610.05	1681.41
610.40	1673.74
610.75	1665.63
611.10	1658.11
611.44	1649.60
611.79	1641.43
612.14	1632.80
612.49	1623.50
612.83	1614.94
613.18	1606.63
613.53	1598.72
613.88	1590.12
614.22	1582.04
614.57	1573.39
614.92	1565.19
615.27	1557.66
615.61	1549.18
615.96	1541.11
616.31	1533.35
616.65	1525.87
617.00	1518.40
617.35	1510.62
617.70	1502.17
618.04	1493.62
618.39	1485.14
618.74	1477.60
619.08	1469.17
619.43	1461.40
619.78	1454.26
620.12	1447.14
620.47	1439.72
620.82	1431.28
621.16	1423.68
621.51	1415.85
621.85	1408.02
622.20	1399.57
622.55	1390.99
622.89	1383.09
623.24	1375.22
623.59	1367.62
623.93	1359.95
624.28	1352.46
624.62	1344.98
624.97	1337.76
625.32	1330.72
625.66	1323.59
626.01	1316.31
626.35	1309.07
626.70	1301.20
627.04	1293.64
627.39	1285.76
627.73	1278.22
628.08	1271.26
628.43	1264.09
628.77	1256.87
629.12	1249.34
629.46	1242.08
629.81	1234.48
630.15	1227.07
630.50	1219.65
630.84	1211.53
631.19	1203.40
631.53	1195.80
631.88	1188.08
632.22	1180.38
632.57	1172.99
632.91	1165.33
633.26	1157.88
633.60	1150.24
633.95	1143.01
634.29	1135.65
634.64	1128.85
634.98	1121.46
635.32	1114.28
635.67	1107.51
636.01	1100.63
636.36	1093.83
636.70	1087.19
637.05	1080.67
637.39	1074.27
637.73	1067.79
638.08	1061.92
638.42	1056.01
638.77	1049.54
639.11	1043.09
639.45	1036.70
639.80	1030.15
640.14	1023.86
640.49	1017.32
640.83	1010.97
641.17	1004.78
641.52	998.60
641.86	992.07
642.20	986.16
642.55	979.64
642.89	973.19
643.23	966.59
643.58	960.75
643.92	954.55
644.26	948.51
644.61	942.39
644.95	936.31
645.29	929.60
645.64	922.73
645.98	916.39
646.32	910.21
646.66	904.11
647.01	898.17
647.35	892.43
647.69	886.48
648.04	880.88
648.38	875.11
648.72	869.11
649.06	863.09
649.41	857.10
649.75	851.41
650.09	845.44
650.43	839.67
650.78	833.48
651.12	827.49
651.46	821.66
651.80	816.04
652.14	810.64
652.49	805.33
652.83	800.15
653.17	794.56
653.51	789.03
653.85	783.57
654.20	777.99
654.54	771.95
654.88	766.22
655.22	760.31
655.56	754.49
655.90	748.92
656.25	743.63
656.59	738.33
656.93	733.06
657.27	727.91
657.61	722.42
657.95	717.29
658.29	712.19
658.64	706.84
658.98	701.30
659.32	695.69
659.66	690.47
660.00	685.28
660.34	680.22
660.68	675.27
661.02	670.17
661.36	665.46
661.70	660.93
662.05	656.56
662.39	652.32
662.73	647.89
663.07	643.54
663.41	639.13
663.75	634.62
664.09	630.02
664.43	625.68
664.77	621.63
665.11	617.41
665.45	613.25
665.79	609.29
666.13	605.21
666.47	601.17
666.81	597.02
667.15	592.82
667.49	588.86
667.83	584.94
668.17	581.02
668.51	576.94
668.85	572.93
669.19	569.01
669.53	565.16
669.87	561.35
670.21	557.63
670.55	553.95
670.89	550.53
671.23	547.19
671.57	543.60
671.91	540.12
672.25	536.54
672.58	533.02
672.92	529.50
673.26	526.34
673.60	523.13
673.94	520.04
674.28	517.07
674.62	514.14
674.96	511.08
675.30	508.26
675.64	505.41
675.97	502.60
676.31	499.80
676.65	496.86
676.99	494.08
677.33	491.21
677.67	488.39
678.01	485.36
678.34	482.42
678.68	479.48
679.02	476.54
679.36	473.75
679.70	470.97
680.04	468.27
680.37	465.49
680.71	462.78
681.05	460.11
681.39	457.43
681.73	454.69
682.06	452.16
682.40	449.59
682.74	446.97
683.08	444.40
683.42	441.74
683.75	439.15
684.09	436.56
684.43	434.06
684.77	431.54
685.10	429.16
685.44	426.72
685.78	424.44
686.12	422.22
686.45	419.94
686.79	417.67
687.13	415.47
687.46	413.19
687.80	410.93
688.14	408.66
688.48	406.58
688.81	404.42
689.15	402.23
689.49	399.99
689.82	397.85
690.16	395.65
690.50	393.68
690.83	391.77
691.17	389.76
691.51	387.82
691.84	385.97
692.18	383.99
692.52	382.08
692.85	380.11
693.19	378.20
693.52	376.37
693.86	374.51
694.20	372.67
694.53	370.84
694.87	368.95
695.21	367.07
695.54	365.20
695.88	363.39
696.21	361.63
696.55	359.92
696.88	358.22
697.22	356.57
697.56	354.90
697.89	353.22
698.23	351.64
698.56	349.98
698.90	348.37
699.23	346.76
699.57	345.14
699.90	343.56
700.24	341.91
700.58	340.34
700.91	338.83
701.25	337.34
701.58	335.96
701.92	334.62
702.25	333.26
702.59	331.84
702.92	330.53
703.26	329.17
703.59	327.87
703.93	326.68
704.26	325.47
704.60	324.17
704.93	322.88
705.26	321.61
705.60	320.39
705.93	319.16
706.27	318.06
706.60	317.04
706.94	315.93
707.27	314.80
707.61	313.71
707.94	312.64
708.27	311.50
708.61	310.35
708.94	309.31
709.28	308.31
709.61	307.38
709.94	306.38
710.28	305.37
710.61	304.35
710.95	303.22
711.28	302.25
711.61	301.28
711.95	300.36
712.28	299.43
712.61	298.47
712.95	297.52
713.28	296.58
713.61	295.59
713.95	294.75
714.28	293.96
714.61	293.11
714.95	292.25
715.28	291.44
715.61	290.58
715.95	289.71
716.28	288.85
716.61	287.97
716.95	287.13
717.28	286.37
717.61	285.63
717.94	284.92
718.28	284.11
718.61	283.36
718.94	282.65
719.27	281.95
719.61	281.32
719.94	280.68
720.27	280.00
720.60	279.37
720.94	278.74
721.27	278.07
721.60	277.43
721.93	276.81
722.27	276.27
722.60	275.71
722.93	275.12
723.26	274.56
723.59	274.01
723.93	273.49
724.26	272.92
724.59	272.32
724.92	271.78
725.25	271.27
725.59	270.73
725.92	270.22
726.25	269.65
726.58	269.10
726.91	268.57
727.24	268.11
727.57	267.58
727.91	267.04
728.24	266.61
728.57	266.14
728.90	265.70
729.23	265.16
729.56	264.75
729.89	264.27
730.22	263.80
730.55	263.28
730.89	262.81
731.22	262.39
731.55	261.95
731.88	261.49
732.21	261.03
732.54	260.62
732.87	260.20
733.20	259.80
733.53	259.41
733.86	259.02
734.19	258.58
734.52	258.22
734.85	257.90
735.18	257.48
735.51	257.10
735.84	256.71
736.17	256.38
736.50	255.94
736.83	255.73
737.16	255.38
737.49	255.08
737.82	254.68
738.15	254.30
738.48	253.94
738.81	253.61
739.14	253.30
739.47	252.98
739.80	252.62
740.13	252.31
740.46	251.99
740.79	251.62
741.12	251.30
741.45	250.94
741.78	250.56
742.11	250.23
742.44	249.89
742.77	249.58
743.10	249.27
743.43	248.94
743.75	248.51
744.08	248.36
744.41	248.08
744.74	247.82
745.07	247.54
745.40	247.31
745.73	247.06
746.06	246.77
746.39	246.47
746.71	246.19
747.04	245.88
747.37	245.60
747.70	245.37
748.03	245.13
748.36	244.89
748.68	244.65
749.01	244.41
749.34	244.15
749.67	243.93
750.00	243.71
750.33	243.53
750.65	243.32
750.98	242.98
751.31	242.73
751.64	242.50
751.97	242.33
752.29	242.06
752.62	241.79
752.95	241.59
753.28	241.36
753.60	241.19
753.93	241.02
754.26	240.82
754.59	240.61
754.91	240.39
755.24	240.23
755.57	240.06
755.90	239.89
756.22	239.71
756.55	239.50
756.88	239.31
757.20	239.05
757.53	238.88
757.86	238.68
758.19	238.53
758.51	238.35
758.84	238.13
759.17	237.99
759.49	237.87
759.82	237.75
760.15	237.63
760.47	237.48
760.80	237.32
761.13	237.22
761.45	237.07
761.78	236.92
762.11	236.79
762.43	236.62
762.76	236.45
763.08	236.34
763.41	236.26
763.74	236.11
764.06	236.01
764.39	235.85
764.71	235.74
765.04	235.60
765.37	235.49
765.69	235.37
766.02	235.25
766.34	235.12
766.67	234.94
767.00	234.84
767.32	234.75
767.65	234.72
767.97	234.61
768.30	234.49
768.62	234.40
768.95	234.30
769.27	234.21
769.60	234.13
769.92	234.01
770.25	233.84
770.57	233.74
770.90	233.64
771.22	233.59
771.55	233.47
771.87	233.40
772.20	233.30
772.52	233.32
772.85	233.33
773.17	233.25
773.50	233.15
773.82	233.04
774.15	232.90
774.47	232.71
774.80	232.57
775.12	232.51
775.45	232.42
775.77	232.31
776.09	232.21
776.42	232.11
776.74	232.03
777.07	231.96
777.39	231.89
777.72	231.83
778.04	231.72
778.36	231.66
778.69	231.56
779.01	231.52
779.33	231.34
779.66	231.17
779.98	231.06
780.31	231.01
780.63	230.98
780.95	230.96
781.28	230.91
781.60	230.85
781.92	230.75
782.25	230.68
782.57	230.59
782.89	230.49
783.22	230.43
783.54	230.36
783.86	230.32
784.19	230.27
784.51	230.22
784.83	230.16
785.16	230.10
785.48	230.07
785.80	229.99
786.12	229.97
786.45	229.91
786.77	229.86
787.09	229.82
