SpectraSuite Data File
++++++++++++++++++++++++++++++++++++
Date: Fri Feb 01 17:53:41 EST 2013
User: group
Dark Spectrum Present: No
Reference Spectrum Present: No
Number of Sampled Component Spectra: 1
Spectrometers: USB2E7196
Integration Time (usec): 35000 (USB2E7196)
Spectra Averaged: 100 (USB2E7196)
Boxcar Smoothing: 10 (USB2E7196)
Correct for Electrical Dark: No (USB2E7196)
Strobe/Lamp Enabled: No (USB2E7196)
Correct for Detector Non-linearity: No (USB2E7196)
Correct for Stray Light: No (USB2E7196)
Number of Pixels in Processed Spectrum: 2048
>>>>>Begin Processed Spectral Data<<<<<
339.09	0.00
339.48	212.06
339.86	214.14
340.24	215.23
340.63	216.53
341.01	219.64
341.39	219.23
341.78	220.83
342.16	221.84
342.54	222.32
342.93	210.82
343.31	221.48
343.69	222.06
344.07	222.49
344.46	222.91
344.84	223.30
345.22	223.53
345.60	223.79
345.99	223.98
346.37	224.11
346.75	224.22
347.13	224.27
347.52	224.34
347.90	224.45
348.28	224.51
348.66	224.55
349.05	224.58
349.43	224.59
349.81	224.64
350.19	224.68
350.57	224.74
350.96	224.84
351.34	224.90
351.72	224.98
352.10	225.12
352.48	225.21
352.87	225.27
353.25	225.35
353.63	225.42
354.01	225.47
354.39	225.56
354.77	225.66
355.15	225.80
355.54	225.88
355.92	225.93
356.30	226.02
356.68	226.18
357.06	226.26
357.44	226.36
357.82	226.43
358.20	226.52
358.58	226.58
358.97	226.59
359.35	226.72
359.73	226.79
360.11	226.85
360.49	226.88
360.87	226.96
361.25	227.01
361.63	227.10
362.01	227.18
362.39	227.24
362.77	227.27
363.15	227.27
363.53	227.31
363.91	227.33
364.29	227.35
364.67	227.24
365.05	227.27
365.43	227.29
365.81	227.33
366.19	227.36
366.57	227.40
366.95	227.41
367.33	227.39
367.71	227.37
368.09	227.40
368.47	227.41
368.85	227.38
369.23	227.38
369.61	227.28
369.99	227.27
370.37	227.24
370.75	227.27
371.13	227.22
371.51	227.13
371.89	227.10
372.27	227.08
372.65	227.04
373.03	226.98
373.41	226.91
373.78	226.84
374.16	226.78
374.54	226.69
374.92	226.65
375.30	226.59
375.68	226.53
376.06	226.42
376.44	226.35
376.82	226.25
377.19	226.20
377.57	226.16
377.95	226.05
378.33	225.98
378.71	225.85
379.09	225.81
379.47	225.80
379.84	225.71
380.22	225.62
380.60	225.58
380.98	225.52
381.36	225.44
381.73	225.36
382.11	225.33
382.49	225.29
382.87	225.24
383.25	225.18
383.62	225.24
384.00	225.20
384.38	225.15
384.76	225.15
385.13	225.14
385.51	225.09
385.89	225.03
386.27	224.98
386.64	224.99
387.02	224.93
387.40	224.87
387.78	224.83
388.15	224.81
388.53	224.76
388.91	224.73
389.29	224.69
389.66	224.66
390.04	224.61
390.42	224.60
390.79	224.57
391.17	224.53
391.55	224.40
391.92	224.40
392.30	224.42
392.68	224.42
393.05	224.40
393.43	224.41
393.81	224.43
394.18	224.41
394.56	224.39
394.94	224.42
395.31	224.45
395.69	224.49
396.06	224.53
396.44	224.56
396.82	224.60
397.19	224.71
397.57	224.77
397.95	224.81
398.32	224.81
398.70	224.86
399.07	224.93
399.45	224.99
399.82	225.04
400.20	225.11
400.58	225.14
400.95	225.16
401.33	225.27
401.70	225.41
402.08	225.54
402.45	225.65
402.83	225.80
403.20	225.92
403.58	226.03
403.95	226.15
404.33	226.30
404.71	226.42
405.08	226.58
405.46	226.71
405.83	226.85
406.21	227.01
406.58	227.20
406.96	227.42
407.33	227.60
407.70	227.81
408.08	228.10
408.45	228.35
408.83	228.65
409.20	228.90
409.58	229.12
409.95	229.43
410.33	229.75
410.70	230.04
411.08	230.42
411.45	230.77
411.82	231.19
412.20	231.64
412.57	232.16
412.95	232.57
413.32	233.11
413.69	233.65
414.07	234.26
414.44	234.85
414.82	235.48
415.19	236.23
415.56	236.96
415.94	237.69
416.31	238.52
416.68	239.30
417.06	240.26
417.43	241.14
417.81	242.16
418.18	243.16
418.55	244.26
418.93	245.41
419.30	246.63
419.67	247.86
420.04	249.12
420.42	250.43
420.79	252.00
421.16	253.51
421.54	255.11
421.91	256.69
422.28	258.38
422.66	260.15
423.03	261.86
423.40	263.64
423.77	265.50
424.15	267.45
424.52	269.44
424.89	271.56
425.26	273.66
425.64	275.55
426.01	277.68
426.38	279.89
426.75	282.12
427.13	284.39
427.50	286.77
427.87	289.25
428.24	291.76
428.61	294.03
428.99	296.64
429.36	299.43
429.73	302.17
430.10	304.86
430.47	307.58
430.85	310.43
431.22	313.38
431.59	316.51
431.96	319.46
432.33	322.75
432.70	325.94
433.08	329.67
433.45	333.20
433.82	336.65
434.19	340.47
434.56	344.15
434.93	347.69
435.30	351.16
435.68	355.01
436.05	358.77
436.42	362.52
436.79	365.83
437.16	369.40
437.53	373.21
437.90	376.92
438.27	380.54
438.64	384.30
439.01	387.74
439.38	390.69
439.75	393.58
440.13	396.94
440.50	399.99
440.87	402.42
441.24	404.98
441.61	407.86
441.98	409.91
442.35	412.32
442.72	414.77
443.09	417.17
443.46	418.49
443.83	419.28
444.20	420.01
444.57	421.17
444.94	421.57
445.31	421.99
445.68	422.42
446.05	422.60
446.42	422.08
446.79	421.56
447.16	421.01
447.53	420.59
447.90	419.03
448.27	417.49
448.64	415.41
449.01	413.93
449.37	411.35
449.74	408.83
450.11	405.84
450.48	402.57
450.85	399.23
451.22	396.41
451.59	393.69
451.96	391.10
452.33	387.61
452.70	384.50
453.07	380.79
453.43	377.00
453.80	373.28
454.17	369.76
454.54	366.41
454.91	362.82
455.28	359.28
455.65	356.00
456.02	352.73
456.38	349.89
456.75	346.37
457.12	343.36
457.49	340.38
457.86	337.57
458.23	335.10
458.59	332.38
458.96	329.60
459.33	327.15
459.70	324.62
460.07	322.62
460.43	320.27
460.80	318.06
461.17	316.11
461.54	314.10
461.91	312.19
462.27	310.23
462.64	308.56
463.01	306.71
463.38	304.94
463.74	303.17
464.11	301.61
464.48	300.25
464.85	298.81
465.21	297.63
465.58	296.34
465.95	294.90
466.32	293.68
466.68	292.45
467.05	291.22
467.42	290.02
467.78	288.78
468.15	287.60
468.52	286.75
468.88	285.62
469.25	284.60
469.62	283.70
469.98	282.79
470.35	281.93
470.72	281.14
471.08	280.26
471.45	279.48
471.82	278.76
472.18	277.90
472.55	277.28
472.92	276.55
473.28	275.94
473.65	275.31
474.02	274.71
474.38	274.21
474.75	273.78
475.11	273.27
475.48	272.90
475.85	272.56
476.21	272.17
476.58	271.90
476.94	271.63
477.31	271.36
477.67	271.09
478.04	270.88
478.41	270.76
478.77	270.74
479.14	270.62
479.50	270.54
479.87	270.55
480.23	270.56
480.60	270.56
480.96	270.56
481.33	270.67
481.69	270.81
482.06	270.96
482.42	271.10
482.79	271.37
483.15	271.62
483.52	271.97
483.88	272.29
484.25	272.64
484.61	273.03
484.98	273.49
485.34	274.03
485.71	274.58
486.07	275.14
486.44	275.68
486.80	276.40
487.17	277.13
487.53	277.95
487.90	278.82
488.26	279.79
488.62	280.79
488.99	281.82
489.35	282.88
489.72	284.03
490.08	285.29
490.44	286.52
490.81	287.93
491.17	289.38
491.54	290.91
491.90	292.48
492.26	294.21
492.63	295.96
492.99	297.83
493.36	299.81
493.72	301.95
494.08	304.12
494.45	306.44
494.81	308.88
495.17	311.44
495.54	314.11
495.90	316.90
496.26	319.88
496.63	322.97
496.99	326.26
497.35	329.73
497.72	333.28
498.08	337.00
498.44	340.85
498.80	344.93
499.17	349.21
499.53	353.59
499.89	358.22
500.26	363.04
500.62	367.95
500.98	373.21
501.34	378.56
501.71	384.18
502.07	389.96
502.43	395.94
502.79	402.09
503.16	408.51
503.52	415.16
503.88	421.89
504.24	428.93
504.60	436.18
504.97	443.67
505.33	451.39
505.69	459.55
506.05	467.78
506.41	476.13
506.78	484.80
507.14	493.78
507.50	503.02
507.86	512.51
508.22	522.30
508.59	532.06
508.95	542.29
509.31	552.77
509.67	563.46
510.03	574.42
510.39	585.66
510.75	597.16
511.12	608.81
511.48	620.86
511.84	633.05
512.20	645.33
512.56	658.13
512.92	671.17
513.28	684.42
513.64	697.82
514.00	711.42
514.37	725.26
514.73	739.22
515.09	753.18
515.45	767.45
515.81	781.91
516.17	796.88
516.53	812.00
516.89	827.19
517.25	842.43
517.61	857.94
517.97	873.47
518.33	889.08
518.69	904.99
519.05	921.13
519.41	937.53
519.77	954.34
520.13	971.05
520.49	987.70
520.85	1004.30
521.21	1021.19
521.57	1038.92
521.93	1056.05
522.29	1073.80
522.65	1091.55
523.01	1109.24
523.37	1126.81
523.73	1144.44
524.09	1162.09
524.45	1179.90
524.81	1198.12
525.17	1216.49
525.53	1235.00
525.89	1253.54
526.25	1271.97
526.61	1289.95
526.97	1308.36
527.33	1326.59
527.68	1344.82
528.04	1362.98
528.40	1381.35
528.76	1400.17
529.12	1418.41
529.48	1437.11
529.84	1454.91
530.20	1473.23
530.56	1492.04
530.91	1511.35
531.27	1530.01
531.63	1548.32
531.99	1566.77
532.35	1584.63
532.71	1602.44
533.07	1620.61
533.42	1638.50
533.78	1656.61
534.14	1674.82
534.50	1692.16
534.86	1709.90
535.21	1727.11
535.57	1745.12
535.93	1762.49
536.29	1779.28
536.65	1796.21
537.00	1812.82
537.36	1830.33
537.72	1846.88
538.08	1863.46
538.44	1879.34
538.79	1895.33
539.15	1910.89
539.51	1926.60
539.87	1943.12
540.22	1958.70
540.58	1974.49
540.94	1989.61
541.29	2004.46
541.65	2019.28
542.01	2034.65
542.37	2049.13
542.72	2063.52
543.08	2077.41
543.44	2091.98
543.79	2105.41
544.15	2118.49
544.51	2132.31
544.87	2145.24
545.22	2158.23
545.58	2170.42
545.94	2182.11
546.29	2194.00
546.65	2206.06
547.01	2217.46
547.36	2228.07
547.72	2238.75
548.07	2248.62
548.43	2258.82
548.79	2268.62
549.14	2278.26
549.50	2287.25
549.86	2296.65
550.21	2305.76
550.57	2314.82
550.92	2323.32
551.28	2332.19
551.64	2341.26
551.99	2349.53
552.35	2357.63
552.70	2365.46
553.06	2373.34
553.41	2381.53
553.77	2389.21
554.13	2396.97
554.48	2404.93
554.84	2412.33
555.19	2419.05
555.55	2425.99
555.90	2432.12
556.26	2438.94
556.61	2445.14
556.97	2451.37
557.32	2457.12
557.68	2463.08
558.03	2468.80
558.39	2473.81
558.74	2480.01
559.10	2485.29
559.45	2490.28
559.81	2495.90
560.16	2501.29
560.52	2505.85
560.87	2510.45
561.23	2514.49
561.58	2518.69
561.94	2522.41
562.29	2525.75
562.64	2530.02
563.00	2533.86
563.35	2538.68
563.71	2543.05
564.06	2547.42
564.42	2551.38
564.77	2555.25
565.12	2558.73
565.48	2561.87
565.83	2565.04
566.19	2567.55
566.54	2569.47
566.89	2571.87
567.25	2573.60
567.60	2575.73
567.96	2578.54
568.31	2580.57
568.66	2582.53
569.02	2583.96
569.37	2585.24
569.72	2587.13
570.08	2588.12
570.43	2588.84
570.78	2589.09
571.14	2588.11
571.49	2587.29
571.84	2587.40
572.20	2586.81
572.55	2586.10
572.90	2584.85
573.26	2584.04
573.61	2582.51
573.96	2581.33
574.31	2578.66
574.67	2575.82
575.02	2572.42
575.37	2569.02
575.72	2565.34
576.08	2562.07
576.43	2558.86
576.78	2555.32
577.13	2552.00
577.49	2548.71
577.84	2545.25
578.19	2541.28
578.54	2537.71
578.90	2533.63
579.25	2528.00
579.60	2522.88
579.95	2517.92
580.30	2512.63
580.66	2507.14
581.01	2501.71
581.36	2496.30
581.71	2491.94
582.06	2487.35
582.42	2482.72
582.77	2477.23
583.12	2472.35
583.47	2467.58
583.82	2462.34
584.17	2456.60
584.53	2450.74
584.88	2444.61
585.23	2438.53
585.58	2432.59
585.93	2426.63
586.28	2421.23
586.63	2415.80
586.98	2410.14
587.34	2404.74
587.69	2399.47
588.04	2393.76
588.39	2387.90
588.74	2380.78
589.09	2373.96
589.44	2366.50
589.79	2359.70
590.14	2353.39
590.49	2345.98
590.84	2338.75
591.19	2332.06
591.54	2324.89
591.89	2316.86
592.25	2309.63
592.60	2301.46
592.95	2293.16
593.30	2284.78
593.65	2276.16
594.00	2268.11
594.35	2260.05
594.70	2250.97
595.05	2243.12
595.40	2234.89
595.75	2226.43
596.10	2219.53
596.45	2212.06
596.80	2204.99
597.15	2197.62
597.50	2189.87
597.85	2182.50
598.19	2174.96
598.54	2167.09
598.89	2159.57
599.24	2152.62
599.59	2145.12
599.94	2137.96
600.29	2130.66
600.64	2123.11
600.99	2114.89
601.34	2107.24
601.69	2099.08
602.04	2091.33
602.39	2082.69
602.74	2074.74
603.08	2067.10
603.43	2059.25
603.78	2050.69
604.13	2042.38
604.48	2034.12
604.83	2026.06
605.18	2018.37
605.53	2009.33
605.87	1999.92
606.22	1991.41
606.57	1982.39
606.92	1973.48
607.27	1965.29
607.62	1957.30
607.96	1949.01
608.31	1941.48
608.66	1932.58
609.01	1924.14
609.36	1915.50
609.70	1906.39
610.05	1897.19
610.40	1888.07
610.75	1878.49
611.10	1869.65
611.44	1859.69
611.79	1850.21
612.14	1840.20
612.49	1829.38
612.83	1819.40
613.18	1809.90
613.53	1800.52
613.88	1790.61
614.22	1781.08
614.57	1770.86
614.92	1761.47
615.27	1752.79
615.61	1743.08
615.96	1733.81
616.31	1724.75
616.65	1716.10
617.00	1707.19
617.35	1698.18
617.70	1688.59
618.04	1678.73
618.39	1668.96
618.74	1660.20
619.08	1650.43
619.43	1641.51
619.78	1633.38
620.12	1625.22
620.47	1616.45
620.82	1606.90
621.16	1598.12
621.51	1589.13
621.85	1580.28
622.20	1570.31
622.55	1560.41
622.89	1551.09
623.24	1542.01
623.59	1533.18
623.93	1524.30
624.28	1515.77
624.62	1506.98
624.97	1498.57
625.32	1490.49
625.66	1482.30
626.01	1474.02
626.35	1465.55
626.70	1456.47
627.04	1447.48
627.39	1438.34
627.73	1429.69
628.08	1421.58
628.43	1413.22
628.77	1404.80
629.12	1396.04
629.46	1387.71
629.81	1378.98
630.15	1370.58
630.50	1362.05
630.84	1352.66
631.19	1343.33
631.53	1334.51
631.88	1325.66
632.22	1316.87
632.57	1308.36
632.91	1299.61
633.26	1290.88
633.60	1282.13
633.95	1273.77
634.29	1265.49
634.64	1257.63
634.98	1249.12
635.32	1240.79
635.67	1232.95
636.01	1225.24
636.36	1217.43
636.70	1209.76
637.05	1202.18
637.39	1194.70
637.73	1187.17
638.08	1180.29
638.42	1173.40
638.77	1165.97
639.11	1158.42
639.45	1150.97
639.80	1143.27
640.14	1135.85
640.49	1128.45
640.83	1121.13
641.17	1114.02
641.52	1106.73
641.86	1099.15
642.20	1092.38
642.55	1085.04
642.89	1077.62
643.23	1069.93
643.58	1063.19
643.92	1056.14
644.26	1049.27
644.61	1042.15
644.95	1035.20
645.29	1027.62
645.64	1019.89
645.98	1012.54
646.32	1005.59
646.66	998.63
647.01	992.01
647.35	985.47
647.69	978.65
648.04	972.18
648.38	965.45
648.72	958.66
649.06	951.83
649.41	944.98
649.75	938.26
650.09	931.53
650.43	924.94
650.78	917.87
651.12	910.98
651.46	904.30
651.80	897.90
652.14	891.66
652.49	885.55
652.83	879.50
653.17	873.14
653.51	866.83
653.85	860.68
654.20	854.30
654.54	847.36
654.88	840.76
655.22	834.06
655.56	827.59
655.90	821.28
656.25	815.26
656.59	809.10
656.93	803.26
657.27	797.28
657.61	791.00
657.95	785.13
658.29	779.31
658.64	773.28
658.98	767.02
659.32	760.75
659.66	754.77
660.00	748.80
660.34	743.07
660.68	737.34
661.02	731.50
661.36	726.00
661.70	720.91
662.05	715.91
662.39	711.03
662.73	705.83
663.07	700.72
663.41	695.66
663.75	690.61
664.09	685.35
664.43	680.26
664.77	675.65
665.11	670.81
665.45	666.07
665.79	661.39
666.13	656.77
666.47	652.08
666.81	647.37
667.15	642.61
667.49	638.12
667.83	633.68
668.17	629.20
668.51	624.66
668.85	620.00
669.19	615.58
669.53	611.18
669.87	606.83
670.21	602.58
670.55	598.33
670.89	594.36
671.23	590.43
671.57	586.45
671.91	582.35
672.25	578.27
672.58	574.26
672.92	570.39
673.26	566.73
673.60	563.15
673.94	559.54
674.28	556.16
674.62	552.78
674.96	549.27
675.30	545.90
675.64	542.54
675.97	539.33
676.31	536.05
676.65	532.72
676.99	529.59
677.33	526.37
677.67	523.15
678.01	519.67
678.34	516.31
678.68	512.92
679.02	509.70
679.36	506.58
679.70	503.49
680.04	500.35
680.37	497.11
680.71	493.84
681.05	490.82
681.39	487.80
681.73	484.73
682.06	481.85
682.40	478.94
682.74	475.95
683.08	472.98
683.42	469.98
683.75	467.11
684.09	464.13
684.43	461.31
684.77	458.52
685.10	455.82
685.44	453.16
685.78	450.56
686.12	447.98
686.45	445.34
686.79	442.66
687.13	440.12
687.46	437.58
687.80	435.10
688.14	432.52
688.48	430.12
688.81	427.59
689.15	425.06
689.49	422.60
689.82	420.19
690.16	417.86
690.50	415.59
690.83	413.36
691.17	411.14
691.51	408.95
691.84	406.84
692.18	404.67
692.52	402.36
692.85	400.11
693.19	397.93
693.52	395.83
693.86	393.75
694.20	391.67
694.53	389.62
694.87	387.51
695.21	385.45
695.54	383.30
695.88	381.28
696.21	379.27
696.55	377.32
696.88	375.43
697.22	373.49
697.56	371.62
697.89	369.70
698.23	367.83
698.56	365.96
698.90	364.11
699.23	362.25
699.57	360.50
699.90	358.74
700.24	356.99
700.58	355.24
700.91	353.55
701.25	351.88
701.58	350.33
701.92	348.76
702.25	347.20
702.59	345.68
702.92	344.19
703.26	342.75
703.59	341.31
703.93	339.91
704.26	338.53
704.60	337.06
704.93	335.61
705.26	334.22
705.60	332.80
705.93	331.46
706.27	330.22
706.60	329.02
706.94	327.78
707.27	326.45
707.61	325.20
707.94	324.02
708.27	322.77
708.61	321.50
708.94	320.31
709.28	319.21
709.61	318.08
709.94	316.96
710.28	315.76
710.61	314.60
710.95	313.39
711.28	312.29
711.61	311.20
711.95	310.16
712.28	309.09
712.61	308.06
712.95	306.98
713.28	305.94
713.61	304.88
713.95	303.89
714.28	302.96
714.61	301.98
714.95	300.99
715.28	300.01
715.61	299.01
715.95	298.05
716.28	297.00
716.61	296.01
716.95	295.07
717.28	294.20
717.61	293.33
717.94	292.47
718.28	291.57
718.61	290.73
718.94	289.90
719.27	289.08
719.61	288.32
719.94	287.56
720.27	286.74
720.60	285.99
720.94	285.26
721.27	284.55
721.60	283.90
721.93	283.19
722.27	282.56
722.60	281.92
722.93	281.23
723.26	280.66
723.59	280.07
723.93	279.40
724.26	278.79
724.59	278.13
724.92	277.48
725.25	276.88
725.59	276.29
725.92	275.67
726.25	275.09
726.58	274.48
726.91	273.92
727.24	273.38
727.57	272.81
727.91	272.18
728.24	271.63
728.57	271.04
728.90	270.54
729.23	269.97
729.56	269.45
729.89	268.90
730.22	268.33
730.55	267.75
730.89	267.27
731.22	266.69
731.55	266.19
731.88	265.70
732.21	265.18
732.54	264.65
732.87	264.16
733.20	263.68
733.53	263.25
733.86	262.79
734.19	262.35
734.52	261.93
734.85	261.58
735.18	261.09
735.51	260.69
735.84	260.22
736.17	259.81
736.50	259.34
736.83	259.06
737.16	258.66
737.49	258.27
737.82	257.85
738.15	257.50
738.48	257.12
738.81	256.72
739.14	256.34
739.47	256.01
739.80	255.67
740.13	255.30
740.46	254.89
740.79	254.51
741.12	254.14
741.45	253.77
741.78	253.37
742.11	253.07
742.44	252.68
742.77	252.34
743.10	251.99
743.43	251.67
743.75	251.23
744.08	251.04
744.41	250.74
744.74	250.43
745.07	250.12
745.40	249.80
745.73	249.56
746.06	249.26
746.39	248.95
746.71	248.68
747.04	248.38
747.37	248.11
747.70	247.85
748.03	247.56
748.36	247.29
748.68	247.01
749.01	246.69
749.34	246.45
749.67	246.22
750.00	245.96
750.33	245.79
750.65	245.54
750.98	245.16
751.31	244.89
751.64	244.67
751.97	244.46
752.29	244.23
752.62	243.93
752.95	243.71
753.28	243.46
753.60	243.20
753.93	242.98
754.26	242.76
754.59	242.52
754.91	242.28
755.24	242.07
755.57	241.85
755.90	241.67
756.22	241.43
756.55	241.23
756.88	240.99
757.20	240.71
757.53	240.52
757.86	240.34
758.19	240.15
758.51	239.92
758.84	239.69
759.17	239.54
759.49	239.35
759.82	239.21
760.15	239.06
760.47	238.89
760.80	238.72
761.13	238.56
761.45	238.37
761.78	238.20
762.11	238.01
762.43	237.83
762.76	237.66
763.08	237.54
763.41	237.37
763.74	237.26
764.06	237.09
764.39	236.92
764.71	236.77
765.04	236.64
765.37	236.47
765.69	236.32
766.02	236.17
766.34	236.03
766.67	235.85
767.00	235.68
767.32	235.61
767.65	235.52
767.97	235.38
768.30	235.27
768.62	235.11
768.95	234.97
769.27	234.86
769.60	234.75
769.92	234.60
770.25	234.42
770.57	234.25
770.90	234.13
771.22	234.00
771.55	233.88
771.87	233.74
772.20	233.66
772.52	233.63
772.85	233.62
773.17	233.50
773.50	233.38
773.82	233.27
774.15	233.09
774.47	232.95
774.80	232.85
775.12	232.73
775.45	232.67
775.77	232.59
776.09	232.50
776.42	232.37
776.74	232.30
777.07	232.20
777.39	232.10
777.72	232.02
778.04	231.96
778.36	231.87
778.69	231.81
779.01	231.73
779.33	231.55
779.66	231.32
779.98	231.25
780.31	231.15
780.63	231.09
780.95	231.05
781.28	230.96
781.60	230.88
781.92	230.84
782.25	230.77
782.57	230.68
782.89	230.61
783.22	230.53
783.54	230.45
783.86	230.42
784.19	230.33
784.51	230.31
784.83	230.24
785.16	230.16
785.48	230.09
785.80	230.02
786.12	229.97
786.45	229.93
