SpectraSuite Data File
++++++++++++++++++++++++++++++++++++
Date: Fri Feb 01 15:43:59 EST 2013
User: group
Dark Spectrum Present: No
Reference Spectrum Present: No
Number of Sampled Component Spectra: 1
Spectrometers: USB2E7196
Integration Time (usec): 35000 (USB2E7196)
Spectra Averaged: 100 (USB2E7196)
Boxcar Smoothing: 10 (USB2E7196)
Correct for Electrical Dark: No (USB2E7196)
Strobe/Lamp Enabled: No (USB2E7196)
Correct for Detector Non-linearity: No (USB2E7196)
Correct for Stray Light: No (USB2E7196)
Number of Pixels in Processed Spectrum: 2048
>>>>>Begin Processed Spectral Data<<<<<
339.09	0.00
339.48	214.26
339.86	215.68
340.24	217.30
340.63	219.07
341.01	221.59
341.39	221.04
341.78	223.03
342.16	223.21
342.54	224.31
342.93	212.81
343.31	223.59
343.69	224.14
344.07	224.62
344.46	225.05
344.84	225.42
345.22	225.66
345.60	225.94
345.99	226.10
346.37	226.28
346.75	226.39
347.13	226.48
347.52	226.54
347.90	226.63
348.28	226.67
348.66	226.74
349.05	226.76
349.43	226.79
349.81	226.85
350.19	226.93
350.57	226.99
350.96	227.05
351.34	227.13
351.72	227.25
352.10	227.36
352.48	227.46
352.87	227.50
353.25	227.60
353.63	227.64
354.01	227.78
354.39	227.86
354.77	227.96
355.15	228.07
355.54	228.16
355.92	228.20
356.30	228.28
356.68	228.43
357.06	228.52
357.44	228.61
357.82	228.65
358.20	228.73
358.58	228.79
358.97	228.87
359.35	228.97
359.73	229.04
360.11	229.09
360.49	229.16
360.87	229.24
361.25	229.28
361.63	229.38
362.01	229.37
362.39	229.38
362.77	229.40
363.15	229.47
363.53	229.45
363.91	229.48
364.29	229.48
364.67	229.37
365.05	229.38
365.43	229.41
365.81	229.43
366.19	229.44
366.57	229.47
366.95	229.46
367.33	229.39
367.71	229.39
368.09	229.40
368.47	229.36
368.85	229.36
369.23	229.35
369.61	229.28
369.99	229.32
370.37	229.31
370.75	229.35
371.13	229.24
371.51	229.23
371.89	229.23
372.27	229.19
372.65	229.16
373.03	229.12
373.41	229.02
373.78	228.96
374.16	228.88
374.54	228.79
374.92	228.75
375.30	228.72
375.68	228.60
376.06	228.53
376.44	228.47
376.82	228.37
377.19	228.29
377.57	228.23
377.95	228.11
378.33	228.04
378.71	227.91
379.09	227.85
379.47	227.75
379.84	227.64
380.22	227.55
380.60	227.47
380.98	227.41
381.36	227.37
381.73	227.27
382.11	227.22
382.49	227.15
382.87	227.06
383.25	226.98
383.62	227.03
384.00	226.96
384.38	226.90
384.76	226.84
385.13	226.83
385.51	226.78
385.89	226.73
386.27	226.68
386.64	226.63
387.02	226.58
387.40	226.57
387.78	226.55
388.15	226.54
388.53	226.49
388.91	226.47
389.29	226.40
389.66	226.39
390.04	226.41
390.42	226.44
390.79	226.45
391.17	226.45
391.55	226.34
391.92	226.33
392.30	226.33
392.68	226.34
393.05	226.34
393.43	226.33
393.81	226.36
394.18	226.38
394.56	226.40
394.94	226.45
395.31	226.46
395.69	226.51
396.06	226.53
396.44	226.59
396.82	226.60
397.19	226.71
397.57	226.76
397.95	226.78
398.32	226.79
398.70	226.86
399.07	226.94
399.45	226.99
399.82	227.04
400.20	227.11
400.58	227.17
400.95	227.22
401.33	227.34
401.70	227.47
402.08	227.55
402.45	227.65
402.83	227.73
403.20	227.84
403.58	227.92
403.95	228.04
404.33	228.16
404.71	228.27
405.08	228.46
405.46	228.60
405.83	228.74
406.21	228.90
406.58	229.05
406.96	229.19
407.33	229.38
407.70	229.57
408.08	229.85
408.45	230.07
408.83	230.30
409.20	230.49
409.58	230.67
409.95	230.93
410.33	231.18
410.70	231.43
411.08	231.73
411.45	232.04
411.82	232.33
412.20	232.68
412.57	233.10
412.95	233.36
413.32	233.75
413.69	234.17
414.07	234.60
414.44	235.07
414.82	235.57
415.19	236.10
415.56	236.68
415.94	237.21
416.31	237.85
416.68	238.47
417.06	239.16
417.43	239.82
417.81	240.60
418.18	241.37
418.55	242.22
418.93	243.07
419.30	243.98
419.67	244.95
420.04	245.92
420.42	246.89
420.79	248.10
421.16	249.28
421.54	250.46
421.91	251.66
422.28	252.92
422.66	254.23
423.03	255.51
423.40	256.83
423.77	258.25
424.15	259.71
424.52	261.21
424.89	262.84
425.26	264.39
425.64	265.86
426.01	267.46
426.38	269.15
426.75	270.83
427.13	272.55
427.50	274.32
427.87	276.17
428.24	278.05
428.61	279.81
428.99	281.73
429.36	283.82
429.73	285.91
430.10	287.92
430.47	289.99
430.85	292.10
431.22	294.33
431.59	296.70
431.96	298.90
432.33	301.43
432.70	303.84
433.08	306.64
433.45	309.29
433.82	311.89
434.19	314.79
434.56	317.64
434.93	320.31
435.30	322.97
435.68	325.89
436.05	328.73
436.42	331.49
436.79	334.02
437.16	336.76
437.53	339.63
437.90	342.43
438.27	345.19
438.64	348.05
439.01	350.60
439.38	352.82
439.75	354.95
440.13	357.38
440.50	359.71
440.87	361.60
441.24	363.53
441.61	365.72
441.98	367.13
442.35	368.90
442.72	370.75
443.09	372.53
443.46	373.52
443.83	374.11
444.20	374.64
444.57	375.52
444.94	375.79
445.31	376.08
445.68	376.42
446.05	376.48
446.42	376.12
446.79	375.72
447.16	375.29
447.53	375.02
447.90	373.90
448.27	372.69
448.64	371.08
449.01	369.90
449.37	367.90
449.74	366.01
450.11	363.73
450.48	361.26
450.85	358.70
451.22	356.54
451.59	354.48
451.96	352.54
452.33	349.89
452.70	347.51
453.07	344.70
453.43	341.85
453.80	339.04
454.17	336.32
454.54	333.79
454.91	331.09
455.28	328.42
455.65	325.88
456.02	323.44
456.38	321.24
456.75	318.58
457.12	316.35
457.49	314.14
457.86	311.96
458.23	310.09
458.59	308.07
458.96	305.99
459.33	304.12
459.70	302.23
460.07	300.67
460.43	298.95
460.80	297.30
461.17	295.82
461.54	294.31
461.91	292.88
462.27	291.41
462.64	290.14
463.01	288.77
463.38	287.47
463.74	286.10
464.11	284.96
464.48	283.96
464.85	282.83
465.21	281.97
465.58	281.06
465.95	279.97
466.32	279.05
466.68	278.14
467.05	277.27
467.42	276.39
467.78	275.50
468.15	274.62
468.52	273.95
468.88	273.06
469.25	272.33
469.62	271.72
469.98	271.04
470.35	270.38
470.72	269.79
471.08	269.15
471.45	268.63
471.82	268.09
472.18	267.48
472.55	267.02
472.92	266.50
473.28	266.02
473.65	265.57
474.02	265.17
474.38	264.77
474.75	264.43
475.11	264.09
475.48	263.80
475.85	263.57
476.21	263.37
476.58	263.24
476.94	263.09
477.31	262.91
477.67	262.79
478.04	262.70
478.41	262.66
478.77	262.71
479.14	262.65
479.50	262.68
479.87	262.77
480.23	262.86
480.60	262.93
480.96	263.04
481.33	263.28
481.69	263.45
482.06	263.70
482.42	263.95
482.79	264.21
483.15	264.59
483.52	264.96
483.88	265.30
484.25	265.69
484.61	266.09
484.98	266.57
485.34	267.13
485.71	267.71
486.07	268.34
486.44	268.90
486.80	269.62
487.17	270.37
487.53	271.18
487.90	272.03
488.26	272.94
488.62	273.93
488.99	274.89
489.35	275.97
489.72	277.08
490.08	278.23
490.44	279.48
490.81	280.75
491.17	282.07
491.54	283.55
491.90	285.08
492.26	286.75
492.63	288.51
492.99	290.26
493.36	292.16
493.72	294.19
494.08	296.29
494.45	298.54
494.81	300.87
495.17	303.30
495.54	305.85
495.90	308.59
496.26	311.40
496.63	314.32
496.99	317.43
497.35	320.68
497.72	324.07
498.08	327.62
498.44	331.29
498.80	335.23
499.17	339.24
499.53	343.38
499.89	347.76
500.26	352.22
500.62	356.89
500.98	361.84
501.34	366.90
501.71	372.25
502.07	377.67
502.43	383.27
502.79	389.12
503.16	395.20
503.52	401.42
503.88	407.84
504.24	414.50
504.60	421.35
504.97	428.50
505.33	435.86
505.69	443.53
506.05	451.35
506.41	459.27
506.78	467.45
507.14	476.00
507.50	484.72
507.86	493.75
508.22	502.98
508.59	512.22
508.95	521.85
509.31	531.65
509.67	541.76
510.03	552.06
510.39	562.56
510.75	573.35
511.12	584.24
511.48	595.52
511.84	607.00
512.20	618.52
512.56	630.48
512.92	642.70
513.28	655.07
513.64	667.55
514.00	680.27
514.37	693.23
514.73	706.33
515.09	719.37
515.45	732.69
515.81	746.24
516.17	760.24
516.53	774.36
516.89	788.56
517.25	802.81
517.61	817.22
517.97	831.68
518.33	846.14
518.69	860.92
519.05	875.89
519.41	891.00
519.77	906.58
520.13	922.09
520.49	937.46
520.85	952.92
521.21	968.64
521.57	984.96
521.93	1000.69
522.29	1017.08
522.65	1033.32
523.01	1049.58
523.37	1065.70
523.73	1081.77
524.09	1097.86
524.45	1114.18
524.81	1130.78
525.17	1147.70
525.53	1164.63
525.89	1181.51
526.25	1198.41
526.61	1214.87
526.97	1231.68
527.33	1248.14
527.68	1264.68
528.04	1281.11
528.40	1297.75
528.76	1314.78
529.12	1331.37
529.48	1348.39
529.84	1364.33
530.20	1380.87
530.56	1397.86
530.91	1415.21
531.27	1432.12
531.63	1448.62
531.99	1465.24
532.35	1481.14
532.71	1496.88
533.07	1513.17
533.42	1529.05
533.78	1545.16
534.14	1561.51
534.50	1576.82
534.86	1592.78
535.21	1607.97
535.57	1624.04
535.93	1639.54
536.29	1654.29
536.65	1669.30
537.00	1683.95
537.36	1699.18
537.72	1713.78
538.08	1728.15
538.44	1742.01
538.79	1755.82
539.15	1769.42
539.51	1783.22
539.87	1797.76
540.22	1811.64
540.58	1825.36
540.94	1838.68
541.29	1851.52
541.65	1864.12
542.01	1877.39
542.37	1889.61
542.72	1902.06
543.08	1913.67
543.44	1926.05
543.79	1937.44
544.15	1948.40
544.51	1960.01
544.87	1971.03
545.22	1981.93
545.58	1992.20
545.94	2001.87
546.29	2011.72
546.65	2021.57
547.01	2030.69
547.36	2039.33
547.72	2047.76
548.07	2055.54
548.43	2063.73
548.79	2071.77
549.14	2079.29
549.50	2086.62
549.86	2094.36
550.21	2101.62
550.57	2108.84
550.92	2115.33
551.28	2122.27
551.64	2129.30
551.99	2135.86
552.35	2142.03
552.70	2148.21
553.06	2154.15
553.41	2160.58
553.77	2166.55
554.13	2172.59
554.48	2178.72
554.84	2184.03
555.19	2189.33
555.55	2194.57
555.90	2199.07
556.26	2203.88
556.61	2208.74
556.97	2213.00
557.32	2217.04
557.68	2221.23
558.03	2225.70
558.39	2229.49
558.74	2234.10
559.10	2237.98
559.45	2241.67
559.81	2245.96
560.16	2249.68
560.52	2252.91
560.87	2256.23
561.23	2258.97
561.58	2261.99
561.94	2264.48
562.29	2267.04
562.64	2269.71
563.00	2272.37
563.35	2275.84
563.71	2279.08
564.06	2282.20
564.42	2285.04
564.77	2287.56
565.12	2289.77
565.48	2291.52
565.83	2293.33
566.19	2294.65
566.54	2295.60
566.89	2296.63
567.25	2297.24
567.60	2298.56
567.96	2300.28
568.31	2301.30
568.66	2302.39
569.02	2302.97
569.37	2303.26
569.72	2304.02
570.08	2304.10
570.43	2304.10
570.78	2303.54
571.14	2301.93
571.49	2300.48
571.84	2300.10
572.20	2298.93
572.55	2297.80
572.90	2296.34
573.26	2294.83
573.61	2293.22
573.96	2291.38
574.31	2288.49
574.67	2285.40
575.02	2281.74
575.37	2278.17
575.72	2274.19
576.08	2270.92
576.43	2267.50
576.78	2263.90
577.13	2260.72
577.49	2257.70
577.84	2254.06
578.19	2250.32
578.54	2246.66
578.90	2242.54
579.25	2236.97
579.60	2232.08
579.95	2227.07
580.30	2221.87
580.66	2216.80
581.01	2211.77
581.36	2206.77
581.71	2202.43
582.06	2197.95
582.42	2193.50
582.77	2188.30
583.12	2183.75
583.47	2178.87
583.82	2173.94
584.17	2168.75
584.53	2163.16
584.88	2157.50
585.23	2151.72
585.58	2146.19
585.93	2140.72
586.28	2135.86
586.63	2130.74
586.98	2125.55
587.34	2120.77
587.69	2115.94
588.04	2110.55
588.39	2104.73
588.74	2098.36
589.09	2092.23
589.44	2085.37
589.79	2079.37
590.14	2073.92
590.49	2067.25
590.84	2060.92
591.19	2054.89
591.54	2048.25
591.89	2040.76
592.25	2033.83
592.60	2026.71
592.95	2019.09
593.30	2011.70
593.65	2004.06
594.00	1997.01
594.35	1989.76
594.70	1981.68
595.05	1974.38
595.40	1967.11
595.75	1959.69
596.10	1953.48
596.45	1946.65
596.80	1940.50
597.15	1933.76
597.50	1926.58
597.85	1920.36
598.19	1913.67
598.54	1906.36
598.89	1899.77
599.24	1894.02
599.59	1887.29
599.94	1881.10
600.29	1874.89
600.64	1868.30
600.99	1860.92
601.34	1854.11
601.69	1847.23
602.04	1840.40
602.39	1833.06
602.74	1826.22
603.08	1819.36
603.43	1812.53
603.78	1805.27
604.13	1798.07
604.48	1790.73
604.83	1783.88
605.18	1776.74
605.53	1768.66
605.87	1760.79
606.22	1753.46
606.57	1745.39
606.92	1738.13
607.27	1730.95
607.62	1723.96
607.96	1716.62
608.31	1709.96
608.66	1702.35
609.01	1694.63
609.36	1687.12
609.70	1679.04
610.05	1670.88
610.40	1663.23
610.75	1654.87
611.10	1647.15
611.44	1638.89
611.79	1630.92
612.14	1622.17
612.49	1612.93
612.83	1604.63
613.18	1596.42
613.53	1588.48
613.88	1579.94
614.22	1571.73
614.57	1563.07
614.92	1554.92
615.27	1547.32
615.61	1538.93
615.96	1530.92
616.31	1523.41
616.65	1516.04
617.00	1508.52
617.35	1500.97
617.70	1492.62
618.04	1484.17
618.39	1476.09
618.74	1468.40
619.08	1460.24
619.43	1452.62
619.78	1445.65
620.12	1438.44
620.47	1431.02
620.82	1422.81
621.16	1415.51
621.51	1407.81
621.85	1400.17
622.20	1391.66
622.55	1383.35
622.89	1375.56
623.24	1367.90
623.59	1360.47
623.93	1352.98
624.28	1345.81
624.62	1338.25
624.97	1331.16
625.32	1324.47
625.66	1317.33
626.01	1310.13
626.35	1302.52
626.70	1294.82
627.04	1287.17
627.39	1279.42
627.73	1272.03
628.08	1265.05
628.43	1257.66
628.77	1250.33
629.12	1242.81
629.46	1235.60
629.81	1228.18
630.15	1220.94
630.50	1213.48
630.84	1205.36
631.19	1197.43
631.53	1190.00
631.88	1182.43
632.22	1174.80
632.57	1167.47
632.91	1159.96
633.26	1152.53
633.60	1145.23
633.95	1138.18
634.29	1131.22
634.64	1124.49
634.98	1117.12
635.32	1110.02
635.67	1103.49
636.01	1096.82
636.36	1089.96
636.70	1083.54
637.05	1076.96
637.39	1070.42
637.73	1063.96
638.08	1058.11
638.42	1052.06
638.77	1045.45
639.11	1038.80
639.45	1032.44
639.80	1025.66
640.14	1019.19
640.49	1012.74
640.83	1006.45
641.17	1000.11
641.52	993.72
641.86	987.31
642.20	981.41
642.55	975.16
642.89	968.63
643.23	962.11
643.58	956.29
643.92	950.04
644.26	943.99
644.61	938.07
644.95	931.98
645.29	925.30
645.64	918.60
645.98	912.36
646.32	906.61
646.66	900.52
647.01	894.82
647.35	889.13
647.69	883.25
648.04	877.69
648.38	871.91
648.72	865.89
649.06	859.76
649.41	853.94
649.75	847.94
650.09	842.04
650.43	836.19
650.78	830.10
651.12	824.22
651.46	818.44
651.80	812.63
652.14	807.29
652.49	801.94
652.83	796.77
653.17	791.05
653.51	785.31
653.85	779.99
654.20	774.36
654.54	768.46
654.88	762.78
655.22	756.89
655.56	751.24
655.90	745.81
656.25	740.67
656.59	735.24
656.93	730.15
657.27	724.96
657.61	719.57
657.95	714.45
658.29	709.37
658.64	704.20
658.98	698.90
659.32	693.38
659.66	688.18
660.00	682.82
660.34	677.86
660.68	672.95
661.02	667.92
661.36	663.15
661.70	658.60
662.05	654.25
662.39	649.91
662.73	645.37
663.07	640.99
663.41	636.49
663.75	631.97
664.09	627.37
664.43	622.98
664.77	618.89
665.11	614.67
665.45	610.51
665.79	606.37
666.13	602.24
666.47	598.22
666.81	594.04
667.15	589.92
667.49	586.05
667.83	582.30
668.17	578.33
668.51	574.33
668.85	570.27
669.19	566.39
669.53	562.61
669.87	558.75
670.21	555.07
670.55	551.42
670.89	548.07
671.23	544.62
671.57	541.10
671.91	537.58
672.25	534.10
672.58	530.57
672.92	527.23
673.26	524.11
673.60	520.97
673.94	517.90
674.28	515.03
674.62	512.06
674.96	508.88
675.30	506.01
675.64	503.08
675.97	500.39
676.31	497.52
676.65	494.55
676.99	491.88
677.33	489.00
677.67	486.25
678.01	483.14
678.34	480.22
678.68	477.38
679.02	474.54
679.36	471.78
679.70	469.11
680.04	466.32
680.37	463.45
680.71	460.64
681.05	457.99
681.39	455.23
681.73	452.60
682.06	450.15
682.40	447.58
682.74	445.02
683.08	442.44
683.42	439.83
683.75	437.35
684.09	434.81
684.43	432.37
684.77	429.89
685.10	427.60
685.44	425.24
685.78	422.97
686.12	420.71
686.45	418.40
686.79	416.08
687.13	413.92
687.46	411.76
687.80	409.61
688.14	407.42
688.48	405.40
688.81	403.16
689.15	400.98
689.49	398.83
689.82	396.74
690.16	394.65
690.50	392.71
690.83	390.74
691.17	388.73
691.51	386.80
691.84	384.89
692.18	382.92
692.52	380.93
692.85	378.99
693.19	377.12
693.52	375.33
693.86	373.53
694.20	371.73
694.53	369.90
694.87	368.10
695.21	366.30
695.54	364.47
695.88	362.72
696.21	361.00
696.55	359.31
696.88	357.61
697.22	355.92
697.56	354.31
697.89	352.68
698.23	351.04
698.56	349.46
698.90	347.93
699.23	346.31
699.57	344.81
699.90	343.26
700.24	341.70
700.58	340.15
700.91	338.65
701.25	337.21
701.58	335.83
701.92	334.47
702.25	333.10
702.59	331.76
702.92	330.40
703.26	329.07
703.59	327.81
703.93	326.66
704.26	325.46
704.60	324.15
704.93	322.89
705.26	321.70
705.60	320.52
705.93	319.33
706.27	318.31
706.60	317.26
706.94	316.15
707.27	315.04
707.61	313.99
707.94	312.98
708.27	311.92
708.61	310.85
708.94	309.86
709.28	308.88
709.61	307.90
709.94	306.98
710.28	305.96
710.61	304.98
710.95	303.90
711.28	302.97
711.61	302.00
711.95	301.08
712.28	300.12
712.61	299.13
712.95	298.19
713.28	297.32
713.61	296.43
713.95	295.55
714.28	294.71
714.61	293.82
714.95	292.97
715.28	292.09
715.61	291.21
715.95	290.29
716.28	289.42
716.61	288.63
716.95	287.81
717.28	287.09
717.61	286.32
717.94	285.55
718.28	284.72
718.61	284.00
718.94	283.30
719.27	282.63
719.61	281.95
719.94	281.32
720.27	280.59
720.60	279.88
720.94	279.27
721.27	278.64
721.60	278.07
721.93	277.45
722.27	276.91
722.60	276.36
722.93	275.81
723.26	275.28
723.59	274.68
723.93	274.15
724.26	273.58
724.59	272.97
724.92	272.47
725.25	271.99
725.59	271.47
725.92	270.98
726.25	270.49
726.58	270.04
726.91	269.50
727.24	268.99
727.57	268.60
727.91	268.09
728.24	267.60
728.57	267.11
728.90	266.66
729.23	266.10
729.56	265.68
729.89	265.22
730.22	264.70
730.55	264.24
730.89	263.80
731.22	263.34
731.55	262.93
731.88	262.51
732.21	262.08
732.54	261.65
732.87	261.18
733.20	260.82
733.53	260.39
733.86	260.04
734.19	259.66
734.52	259.22
734.85	258.91
735.18	258.53
735.51	258.18
735.84	257.80
736.17	257.51
736.50	257.11
736.83	256.86
737.16	256.57
737.49	256.23
737.82	255.88
738.15	255.57
738.48	255.27
738.81	254.93
739.14	254.59
739.47	254.29
739.80	253.99
740.13	253.65
740.46	253.33
740.79	252.98
741.12	252.66
741.45	252.35
741.78	251.99
742.11	251.72
742.44	251.38
742.77	251.13
743.10	250.80
743.43	250.49
743.75	250.09
744.08	249.93
744.41	249.69
744.74	249.38
745.07	249.09
745.40	248.79
745.73	248.54
746.06	248.31
746.39	248.02
746.71	247.76
747.04	247.47
747.37	247.22
747.70	247.00
748.03	246.76
748.36	246.52
748.68	246.26
749.01	246.00
749.34	245.76
749.67	245.53
750.00	245.31
750.33	245.17
750.65	244.99
750.98	244.63
751.31	244.38
751.64	244.17
751.97	244.02
752.29	243.83
752.62	243.59
752.95	243.36
753.28	243.15
753.60	242.93
753.93	242.73
754.26	242.52
754.59	242.28
754.91	242.07
755.24	241.90
755.57	241.75
755.90	241.54
756.22	241.35
756.55	241.13
756.88	240.95
757.20	240.72
757.53	240.50
757.86	240.32
758.19	240.19
758.51	240.02
758.84	239.81
759.17	239.63
759.49	239.48
759.82	239.36
760.15	239.23
760.47	239.10
760.80	238.93
761.13	238.83
761.45	238.68
761.78	238.55
762.11	238.40
762.43	238.25
762.76	238.13
763.08	238.00
763.41	237.87
763.74	237.74
764.06	237.60
764.39	237.51
764.71	237.40
765.04	237.26
765.37	237.12
765.69	236.97
766.02	236.88
766.34	236.71
766.67	236.55
767.00	236.43
767.32	236.35
767.65	236.31
767.97	236.16
768.30	236.06
768.62	235.96
768.95	235.82
769.27	235.70
769.60	235.59
769.92	235.47
770.25	235.36
770.57	235.24
770.90	235.13
771.22	235.01
771.55	234.89
771.87	234.81
772.20	234.74
772.52	234.74
772.85	234.74
773.17	234.69
773.50	234.62
773.82	234.53
774.15	234.40
774.47	234.27
774.80	234.19
775.12	234.08
775.45	234.01
775.77	233.92
776.09	233.84
776.42	233.77
776.74	233.73
777.07	233.66
777.39	233.61
777.72	233.55
778.04	233.50
778.36	233.44
778.69	233.38
779.01	233.32
779.33	233.16
779.66	232.97
779.98	232.87
780.31	232.78
780.63	232.74
780.95	232.65
781.28	232.60
781.60	232.50
781.92	232.47
782.25	232.37
782.57	232.35
782.89	232.27
783.22	232.19
783.54	232.10
783.86	232.05
784.19	231.99
784.51	231.93
784.83	231.84
785.16	231.77
785.48	231.69
785.80	231.64
786.12	231.61
786.45	231.60
786.77	231.59
787.09	231.54
