SpectraSuite Data File
++++++++++++++++++++++++++++++++++++
Date: Fri Feb 01 15:45:15 EST 2013
User: group
Dark Spectrum Present: No
Reference Spectrum Present: No
Number of Sampled Component Spectra: 1
Spectrometers: USB2E7196
Integration Time (usec): 35000 (USB2E7196)
Spectra Averaged: 100 (USB2E7196)
Boxcar Smoothing: 10 (USB2E7196)
Correct for Electrical Dark: No (USB2E7196)
Strobe/Lamp Enabled: No (USB2E7196)
Correct for Detector Non-linearity: No (USB2E7196)
Correct for Stray Light: No (USB2E7196)
Number of Pixels in Processed Spectrum: 2048
>>>>>Begin Processed Spectral Data<<<<<
339.09	0.00
339.48	215.16
339.86	216.55
340.24	218.19
340.63	219.42
341.01	222.14
341.39	222.46
341.78	223.42
342.16	224.19
342.54	224.91
342.93	213.35
343.31	224.12
343.69	224.65
344.07	225.13
344.46	225.54
344.84	225.89
345.22	226.12
345.60	226.33
345.99	226.49
346.37	226.62
346.75	226.70
347.13	226.75
347.52	226.81
347.90	226.89
348.28	226.90
348.66	226.97
349.05	226.93
349.43	226.95
349.81	226.96
350.19	227.02
350.57	227.09
350.96	227.17
351.34	227.25
351.72	227.33
352.10	227.40
352.48	227.45
352.87	227.52
353.25	227.57
353.63	227.63
354.01	227.70
354.39	227.78
354.77	227.88
355.15	228.00
355.54	228.04
355.92	228.07
356.30	228.15
356.68	228.24
357.06	228.32
357.44	228.39
357.82	228.47
358.20	228.54
358.58	228.58
358.97	228.62
359.35	228.68
359.73	228.72
360.11	228.77
360.49	228.84
360.87	228.88
361.25	228.95
361.63	229.00
362.01	229.05
362.39	229.09
362.77	229.13
363.15	229.13
363.53	229.17
363.91	229.21
364.29	229.25
364.67	229.19
365.05	229.21
365.43	229.21
365.81	229.23
366.19	229.27
366.57	229.33
366.95	229.35
367.33	229.37
367.71	229.37
368.09	229.36
368.47	229.33
368.85	229.35
369.23	229.34
369.61	229.30
369.99	229.33
370.37	229.32
370.75	229.35
371.13	229.30
371.51	229.26
371.89	229.24
372.27	229.22
372.65	229.20
373.03	229.19
373.41	229.16
373.78	229.10
374.16	228.98
374.54	228.89
374.92	228.82
375.30	228.77
375.68	228.68
376.06	228.67
376.44	228.58
376.82	228.50
377.19	228.44
377.57	228.39
377.95	228.25
378.33	228.18
378.71	228.03
379.09	227.98
379.47	227.93
379.84	227.84
380.22	227.70
380.60	227.60
380.98	227.50
381.36	227.43
381.73	227.34
382.11	227.30
382.49	227.24
382.87	227.14
383.25	227.08
383.62	227.18
384.00	227.06
384.38	227.03
384.76	227.01
385.13	226.98
385.51	226.91
385.89	226.89
386.27	226.84
386.64	226.80
387.02	226.75
387.40	226.66
387.78	226.63
388.15	226.62
388.53	226.62
388.91	226.60
389.29	226.55
389.66	226.52
390.04	226.51
390.42	226.50
390.79	226.52
391.17	226.47
391.55	226.32
391.92	226.31
392.30	226.29
392.68	226.24
393.05	226.21
393.43	226.22
393.81	226.23
394.18	226.20
394.56	226.21
394.94	226.24
395.31	226.28
395.69	226.30
396.06	226.35
396.44	226.36
396.82	226.40
397.19	226.48
397.57	226.52
397.95	226.58
398.32	226.58
398.70	226.63
399.07	226.72
399.45	226.77
399.82	226.86
400.20	226.92
400.58	226.99
400.95	227.03
401.33	227.14
401.70	227.29
402.08	227.40
402.45	227.50
402.83	227.60
403.20	227.73
403.58	227.87
403.95	227.97
404.33	228.11
404.71	228.22
405.08	228.41
405.46	228.54
405.83	228.68
406.21	228.86
406.58	229.02
406.96	229.22
407.33	229.40
407.70	229.59
408.08	229.89
408.45	230.16
408.83	230.41
409.20	230.60
409.58	230.77
409.95	231.03
410.33	231.29
410.70	231.55
411.08	231.86
411.45	232.14
411.82	232.45
412.20	232.83
412.57	233.26
412.95	233.53
413.32	233.99
413.69	234.40
414.07	234.84
414.44	235.32
414.82	235.74
415.19	236.33
415.56	236.87
415.94	237.38
416.31	238.00
416.68	238.65
417.06	239.38
417.43	240.08
417.81	240.85
418.18	241.65
418.55	242.51
418.93	243.36
419.30	244.21
419.67	245.14
420.04	246.10
420.42	247.05
420.79	248.24
421.16	249.36
421.54	250.59
421.91	251.80
422.28	253.06
422.66	254.40
423.03	255.68
423.40	257.02
423.77	258.44
424.15	259.83
424.52	261.28
424.89	262.89
425.26	264.42
425.64	265.89
426.01	267.48
426.38	269.11
426.75	270.82
427.13	272.61
427.50	274.42
427.87	276.31
428.24	278.21
428.61	279.99
428.99	281.95
429.36	283.99
429.73	286.06
430.10	288.04
430.47	290.14
430.85	292.28
431.22	294.53
431.59	296.90
431.96	299.16
432.33	301.67
432.70	304.04
433.08	306.86
433.45	309.48
433.82	312.07
434.19	314.98
434.56	317.80
434.93	320.41
435.30	323.02
435.68	325.91
436.05	328.72
436.42	331.49
436.79	334.00
437.16	336.72
437.53	339.56
437.90	342.41
438.27	345.17
438.64	347.99
439.01	350.56
439.38	352.78
439.75	354.97
440.13	357.45
440.50	359.78
440.87	361.64
441.24	363.58
441.61	365.74
441.98	367.22
442.35	368.98
442.72	370.86
443.09	372.69
443.46	373.69
443.83	374.28
444.20	374.79
444.57	375.63
444.94	375.91
445.31	376.22
445.68	376.57
446.05	376.58
446.42	376.14
446.79	375.72
447.16	375.30
447.53	375.03
447.90	373.85
448.27	372.71
448.64	371.11
449.01	369.92
449.37	367.94
449.74	366.03
450.11	363.81
450.48	361.38
450.85	358.83
451.22	356.65
451.59	354.63
451.96	352.70
452.33	350.06
452.70	347.69
453.07	344.82
453.43	341.91
453.80	339.15
454.17	336.52
454.54	333.99
454.91	331.26
455.28	328.52
455.65	326.02
456.02	323.56
456.38	321.42
456.75	318.81
457.12	316.59
457.49	314.38
457.86	312.22
458.23	310.28
458.59	308.23
458.96	306.15
459.33	304.33
459.70	302.42
460.07	300.95
460.43	299.22
460.80	297.62
461.17	296.18
461.54	294.73
461.91	293.28
462.27	291.82
462.64	290.59
463.01	289.23
463.38	287.92
463.74	286.53
464.11	285.33
464.48	284.27
464.85	283.15
465.21	282.30
465.58	281.32
465.95	280.28
466.32	279.41
466.68	278.52
467.05	277.59
467.42	276.70
467.78	275.71
468.15	274.83
468.52	274.16
468.88	273.32
469.25	272.48
469.62	271.91
469.98	271.23
470.35	270.59
470.72	270.00
471.08	269.37
471.45	268.87
471.82	268.35
472.18	267.77
472.55	267.32
472.92	266.75
473.28	266.32
473.65	265.84
474.02	265.36
474.38	265.00
474.75	264.66
475.11	264.34
475.48	264.12
475.85	263.90
476.21	263.67
476.58	263.47
476.94	263.34
477.31	263.13
477.67	263.02
478.04	262.90
478.41	262.87
478.77	262.90
479.14	262.81
479.50	262.80
479.87	262.88
480.23	262.95
480.60	263.03
480.96	263.08
481.33	263.32
481.69	263.53
482.06	263.69
482.42	263.95
482.79	264.18
483.15	264.48
483.52	264.86
483.88	265.23
484.25	265.63
484.61	266.07
484.98	266.54
485.34	267.09
485.71	267.67
486.07	268.24
486.44	268.79
486.80	269.50
487.17	270.25
487.53	271.06
487.90	271.93
488.26	272.87
488.62	273.90
488.99	274.84
489.35	275.85
489.72	276.99
490.08	278.16
490.44	279.41
490.81	280.73
491.17	282.08
491.54	283.59
491.90	285.13
492.26	286.75
492.63	288.45
492.99	290.18
493.36	292.07
493.72	294.16
494.08	296.28
494.45	298.53
494.81	300.84
495.17	303.29
495.54	305.88
495.90	308.59
496.26	311.38
496.63	314.36
496.99	317.51
497.35	320.84
497.72	324.23
498.08	327.77
498.44	331.48
498.80	335.37
499.17	339.42
499.53	343.56
499.89	347.98
500.26	352.51
500.62	357.22
500.98	362.17
501.34	367.23
501.71	372.54
502.07	377.99
502.43	383.65
502.79	389.44
503.16	395.49
503.52	401.74
503.88	408.13
504.24	414.78
504.60	421.67
504.97	428.72
505.33	436.06
505.69	443.80
506.05	451.54
506.41	459.50
506.78	467.66
507.14	476.16
507.50	484.86
507.86	493.90
508.22	503.04
508.59	512.22
508.95	521.86
509.31	531.71
509.67	541.79
510.03	552.08
510.39	562.69
510.75	573.51
511.12	584.49
511.48	595.86
511.84	607.31
512.20	618.80
512.56	630.75
512.92	642.91
513.28	655.24
513.64	667.74
514.00	680.41
514.37	693.38
514.73	706.37
515.09	719.45
515.45	732.73
515.81	746.49
516.17	760.52
516.53	774.56
516.89	788.79
517.25	802.98
517.61	817.43
517.97	831.81
518.33	846.30
518.69	861.05
519.05	876.03
519.41	891.21
519.77	906.81
520.13	922.30
520.49	937.72
520.85	953.10
521.21	968.81
521.57	985.13
521.93	1000.86
522.29	1017.36
522.65	1033.60
523.01	1049.84
523.37	1065.75
523.73	1081.98
524.09	1098.11
524.45	1114.40
524.81	1131.11
525.17	1148.00
525.53	1165.04
525.89	1181.96
526.25	1198.75
526.61	1215.13
526.97	1231.87
527.33	1248.36
527.68	1264.95
528.04	1281.40
528.40	1298.00
528.76	1314.97
529.12	1331.48
529.48	1348.42
529.84	1364.35
530.20	1381.00
530.56	1398.00
530.91	1415.46
531.27	1432.18
531.63	1448.72
531.99	1465.23
532.35	1481.08
532.71	1496.98
533.07	1513.15
533.42	1528.89
533.78	1545.01
534.14	1561.42
534.50	1576.79
534.86	1592.64
535.21	1607.92
535.57	1623.81
535.93	1639.44
536.29	1654.32
536.65	1669.43
537.00	1684.11
537.36	1699.39
537.72	1713.98
538.08	1728.39
538.44	1742.10
538.79	1755.93
539.15	1769.59
539.51	1783.43
539.87	1797.69
540.22	1811.41
540.58	1825.13
540.94	1838.55
541.29	1851.37
541.65	1863.85
542.01	1877.14
542.37	1889.39
542.72	1901.83
543.08	1913.72
543.44	1926.08
543.79	1937.36
544.15	1948.29
544.51	1960.00
544.87	1971.05
545.22	1981.82
545.58	1992.02
545.94	2001.80
546.29	2011.78
546.65	2021.59
547.01	2030.80
547.36	2039.74
547.72	2048.15
548.07	2056.04
548.43	2064.20
548.79	2072.35
549.14	2079.88
549.50	2087.14
549.86	2094.87
550.21	2102.03
550.57	2109.07
550.92	2115.62
551.28	2122.58
551.64	2129.78
551.99	2136.23
552.35	2142.33
552.70	2148.45
553.06	2154.51
553.41	2160.86
553.77	2166.86
554.13	2172.96
554.48	2179.19
554.84	2184.51
555.19	2189.80
555.55	2195.02
555.90	2199.51
556.26	2204.20
556.61	2209.05
556.97	2213.25
557.32	2217.31
557.68	2221.50
558.03	2225.72
558.39	2229.46
558.74	2234.20
559.10	2237.94
559.45	2241.54
559.81	2245.81
560.16	2249.64
560.52	2252.77
560.87	2256.23
561.23	2258.89
561.58	2261.77
561.94	2264.12
562.29	2266.60
562.64	2269.26
563.00	2271.86
563.35	2275.47
563.71	2278.71
564.06	2281.77
564.42	2284.51
564.77	2287.12
565.12	2289.30
565.48	2291.32
565.83	2293.09
566.19	2294.31
566.54	2295.30
566.89	2296.48
567.25	2297.05
567.60	2298.36
567.96	2300.04
568.31	2300.93
568.66	2301.96
569.02	2302.60
569.37	2302.98
569.72	2303.75
570.08	2303.83
570.43	2303.71
570.78	2303.14
571.14	2301.54
571.49	2300.26
571.84	2300.13
572.20	2298.93
572.55	2297.84
572.90	2296.29
573.26	2294.90
573.61	2293.37
573.96	2291.51
574.31	2288.45
574.67	2285.49
575.02	2281.81
575.37	2278.46
575.72	2274.54
576.08	2271.28
576.43	2267.97
576.78	2264.32
577.13	2261.15
577.49	2258.14
577.84	2254.70
578.19	2250.80
578.54	2247.13
578.90	2242.82
579.25	2237.21
579.60	2232.31
579.95	2227.34
580.30	2222.23
580.66	2217.05
581.01	2212.00
581.36	2207.01
581.71	2202.78
582.06	2198.31
582.42	2193.96
582.77	2188.66
583.12	2184.08
583.47	2179.31
583.82	2174.19
584.17	2168.95
584.53	2163.35
584.88	2157.63
585.23	2151.83
585.58	2146.27
585.93	2140.98
586.28	2136.16
586.63	2131.01
586.98	2125.88
587.34	2121.14
587.69	2116.34
588.04	2111.03
588.39	2105.27
588.74	2098.85
589.09	2092.79
589.44	2085.86
589.79	2079.83
590.14	2074.31
590.49	2067.90
590.84	2061.59
591.19	2055.52
591.54	2049.02
591.89	2041.60
592.25	2034.79
592.60	2027.63
592.95	2020.11
593.30	2012.65
593.65	2005.08
594.00	1998.02
594.35	1990.79
594.70	1982.73
595.05	1975.48
595.40	1968.23
595.75	1960.80
596.10	1954.45
596.45	1947.67
596.80	1941.55
597.15	1934.79
597.50	1927.63
597.85	1921.14
598.19	1914.38
598.54	1907.27
598.89	1900.57
599.24	1894.78
599.59	1888.02
599.94	1881.75
600.29	1875.39
600.64	1868.89
600.99	1861.55
601.34	1854.80
601.69	1847.78
602.04	1840.89
602.39	1833.50
602.74	1826.60
603.08	1819.80
603.43	1813.14
603.78	1805.87
604.13	1798.74
604.48	1791.29
604.83	1784.43
605.18	1777.28
605.53	1769.17
605.87	1761.24
606.22	1754.01
606.57	1746.02
606.92	1738.77
607.27	1731.59
607.62	1724.72
607.96	1717.33
608.31	1710.68
608.66	1703.10
609.01	1695.53
609.36	1688.05
609.70	1679.93
610.05	1671.93
610.40	1664.22
610.75	1655.83
611.10	1648.14
611.44	1639.69
611.79	1631.84
612.14	1623.02
612.49	1613.87
612.83	1605.61
613.18	1597.48
613.53	1589.41
613.88	1580.82
614.22	1572.48
614.57	1563.83
614.92	1555.72
615.27	1548.13
615.61	1539.69
615.96	1531.52
616.31	1523.93
616.65	1516.53
617.00	1509.13
617.35	1501.51
617.70	1493.12
618.04	1484.62
618.39	1476.39
618.74	1468.72
619.08	1460.36
619.43	1452.90
619.78	1446.00
620.12	1438.61
620.47	1431.01
620.82	1422.74
621.16	1415.37
621.51	1407.84
621.85	1400.27
622.20	1391.77
622.55	1383.42
622.89	1375.69
623.24	1368.11
623.59	1360.75
623.93	1353.25
624.28	1345.96
624.62	1338.39
624.97	1331.29
625.32	1324.66
625.66	1317.63
626.01	1310.51
626.35	1303.11
626.70	1295.24
627.04	1287.52
627.39	1279.85
627.73	1272.41
628.08	1265.58
628.43	1258.31
628.77	1250.91
629.12	1243.37
629.46	1236.18
629.81	1228.87
630.15	1221.63
630.50	1214.16
630.84	1205.90
631.19	1198.03
631.53	1190.52
631.88	1182.95
632.22	1175.30
632.57	1167.91
632.91	1160.30
633.26	1152.89
633.60	1145.50
633.95	1138.51
634.29	1131.62
634.64	1125.06
634.98	1117.70
635.32	1110.48
635.67	1103.93
636.01	1097.27
636.36	1090.43
636.70	1083.96
637.05	1077.27
637.39	1070.80
637.73	1064.41
638.08	1058.58
638.42	1052.51
638.77	1046.06
639.11	1039.37
639.45	1033.06
639.80	1026.39
640.14	1020.10
640.49	1013.61
640.83	1007.31
641.17	1000.97
641.52	994.51
641.86	988.02
642.20	982.20
642.55	975.93
642.89	969.40
643.23	962.93
643.58	957.18
643.92	951.03
644.26	944.96
644.61	938.89
644.95	932.85
645.29	926.21
645.64	919.49
645.98	913.17
646.32	907.43
646.66	901.36
647.01	895.67
647.35	889.88
647.69	884.00
648.04	878.49
648.38	872.73
648.72	866.71
649.06	860.59
649.41	854.78
649.75	848.77
650.09	842.89
650.43	837.02
650.78	830.85
651.12	824.79
651.46	819.07
651.80	813.28
652.14	807.82
652.49	802.42
652.83	797.22
653.17	791.46
653.51	785.70
653.85	780.30
654.20	774.56
654.54	768.60
654.88	762.88
655.22	756.97
655.56	751.27
655.90	745.82
656.25	740.63
656.59	735.26
656.93	730.24
657.27	725.08
657.61	719.61
657.95	714.44
658.29	709.36
658.64	704.14
658.98	698.80
659.32	693.39
659.66	688.17
660.00	682.88
660.34	677.98
660.68	673.06
661.02	668.05
661.36	663.38
661.70	658.80
662.05	654.41
662.39	650.07
662.73	645.55
663.07	641.19
663.41	636.70
663.75	632.18
664.09	627.64
664.43	623.19
664.77	619.13
665.11	614.85
665.45	610.68
665.79	606.52
666.13	602.45
666.47	598.35
666.81	594.16
667.15	590.01
667.49	586.13
667.83	582.32
668.17	578.33
668.51	574.22
668.85	570.19
669.19	566.37
669.53	562.46
669.87	558.61
670.21	554.88
670.55	551.25
670.89	547.79
671.23	544.31
671.57	540.80
671.91	537.23
672.25	533.78
672.58	530.29
672.92	526.89
673.26	523.70
673.60	520.53
673.94	517.45
674.28	514.53
674.62	511.50
674.96	508.41
675.30	505.51
675.64	502.55
675.97	499.85
676.31	496.91
676.65	494.01
676.99	491.34
677.33	488.49
677.67	485.64
678.01	482.62
678.34	479.58
678.68	476.70
679.02	473.88
679.36	471.17
679.70	468.49
680.04	465.81
680.37	462.92
680.71	460.11
681.05	457.53
681.39	454.83
681.73	452.20
682.06	449.69
682.40	447.15
682.74	444.67
683.08	442.07
683.42	439.54
683.75	437.09
684.09	434.58
684.43	432.12
684.77	429.69
685.10	427.34
685.44	425.08
685.78	422.76
686.12	420.52
686.45	418.21
686.79	415.85
687.13	413.63
687.46	411.50
687.80	409.36
688.14	407.13
688.48	405.07
688.81	402.85
689.15	400.73
689.49	398.59
689.82	396.53
690.16	394.49
690.50	392.56
690.83	390.58
691.17	388.57
691.51	386.69
691.84	384.86
692.18	382.93
692.52	380.94
692.85	379.07
693.19	377.21
693.52	375.36
693.86	373.58
694.20	371.82
694.53	370.04
694.87	368.25
695.21	366.53
695.54	364.73
695.88	363.06
696.21	361.33
696.55	359.64
696.88	357.95
697.22	356.28
697.56	354.59
697.89	352.96
698.23	351.37
698.56	349.75
698.90	348.15
699.23	346.54
699.57	345.02
699.90	343.52
700.24	341.97
700.58	340.46
700.91	338.97
701.25	337.49
701.58	336.11
701.92	334.76
702.25	333.31
702.59	331.95
702.92	330.55
703.26	329.23
703.59	327.95
703.93	326.73
704.26	325.51
704.60	324.26
704.93	322.98
705.26	321.70
705.60	320.50
705.93	319.32
706.27	318.28
706.60	317.20
706.94	316.11
707.27	314.99
707.61	313.90
707.94	312.85
708.27	311.80
708.61	310.70
708.94	309.66
709.28	308.69
709.61	307.73
709.94	306.81
710.28	305.77
710.61	304.84
710.95	303.78
711.28	302.83
711.61	301.86
711.95	300.95
712.28	300.02
712.61	299.04
712.95	298.11
713.28	297.20
713.61	296.28
713.95	295.34
714.28	294.49
714.61	293.63
714.95	292.77
715.28	291.85
715.61	290.99
715.95	290.13
716.28	289.23
716.61	288.35
716.95	287.54
717.28	286.80
717.61	286.01
717.94	285.27
718.28	284.49
718.61	283.75
718.94	283.03
719.27	282.35
719.61	281.70
719.94	281.08
720.27	280.40
720.60	279.77
720.94	279.17
721.27	278.57
721.60	278.02
721.93	277.43
722.27	276.93
722.60	276.38
722.93	275.82
723.26	275.34
723.59	274.82
723.93	274.25
724.26	273.70
724.59	273.12
724.92	272.60
725.25	272.12
725.59	271.59
725.92	271.12
726.25	270.63
726.58	270.12
726.91	269.61
727.24	269.11
727.57	268.62
727.91	268.11
728.24	267.66
728.57	267.16
728.90	266.73
729.23	266.26
729.56	265.82
729.89	265.35
730.22	264.86
730.55	264.41
730.89	263.97
731.22	263.54
731.55	263.10
731.88	262.66
732.21	262.22
732.54	261.81
732.87	261.39
733.20	261.01
733.53	260.66
733.86	260.28
734.19	259.90
734.52	259.54
734.85	259.23
735.18	258.82
735.51	258.47
735.84	258.11
736.17	257.75
736.50	257.36
736.83	257.15
737.16	256.79
737.49	256.44
737.82	256.11
738.15	255.81
738.48	255.51
738.81	255.21
739.14	254.90
739.47	254.58
739.80	254.25
740.13	253.96
740.46	253.63
740.79	253.33
741.12	253.02
741.45	252.70
741.78	252.36
742.11	252.08
742.44	251.73
742.77	251.45
743.10	251.15
743.43	250.86
743.75	250.46
744.08	250.36
744.41	250.08
744.74	249.85
745.07	249.55
745.40	249.30
745.73	249.05
746.06	248.78
746.39	248.53
746.71	248.25
747.04	247.93
747.37	247.68
747.70	247.40
748.03	247.16
748.36	246.91
748.68	246.65
749.01	246.39
749.34	246.17
749.67	245.89
750.00	245.65
750.33	245.51
750.65	245.30
750.98	244.92
751.31	244.66
751.64	244.43
751.97	244.22
752.29	243.99
752.62	243.75
752.95	243.53
753.28	243.31
753.60	243.11
753.93	242.92
754.26	242.70
754.59	242.47
754.91	242.26
755.24	242.09
755.57	241.91
755.90	241.73
756.22	241.53
756.55	241.35
756.88	241.16
757.20	240.88
757.53	240.69
757.86	240.51
758.19	240.35
758.51	240.14
758.84	239.95
759.17	239.76
759.49	239.61
759.82	239.48
760.15	239.33
760.47	239.19
760.80	239.00
761.13	238.88
761.45	238.72
761.78	238.59
762.11	238.45
762.43	238.29
762.76	238.17
763.08	238.05
763.41	237.94
763.74	237.78
764.06	237.67
764.39	237.52
764.71	237.41
765.04	237.27
765.37	237.18
765.69	237.09
766.02	236.96
766.34	236.83
766.67	236.67
767.00	236.56
767.32	236.48
767.65	236.45
767.97	236.34
768.30	236.26
768.62	236.15
768.95	236.01
769.27	235.89
769.60	235.77
769.92	235.67
770.25	235.53
770.57	235.44
770.90	235.35
771.22	235.25
771.55	235.16
771.87	235.08
772.20	235.00
772.52	234.99
772.85	235.02
773.17	234.92
773.50	234.84
773.82	234.79
774.15	234.64
774.47	234.51
774.80	234.42
775.12	234.33
775.45	234.22
775.77	234.16
776.09	234.11
776.42	234.04
776.74	233.99
777.07	233.94
777.39	233.86
777.72	233.79
778.04	233.73
778.36	233.63
778.69	233.60
779.01	233.54
779.33	233.34
779.66	233.17
779.98	233.09
780.31	233.04
780.63	232.99
780.95	232.98
781.28	232.92
781.60	232.83
781.92	232.78
782.25	232.74
782.57	232.70
782.89	232.59
783.22	232.51
783.54	232.42
783.86	232.37
784.19	232.31
784.51	232.26
784.83	232.18
785.16	232.10
785.48	232.00
785.80	231.93
786.12	231.91
786.45	231.84
786.77	231.81
787.09	231.72
