SpectraSuite Data File
++++++++++++++++++++++++++++++++++++
Date: Fri Feb 01 16:07:25 EST 2013
User: group
Dark Spectrum Present: No
Reference Spectrum Present: No
Number of Sampled Component Spectra: 1
Spectrometers: USB2E7196
Integration Time (usec): 35000 (USB2E7196)
Spectra Averaged: 100 (USB2E7196)
Boxcar Smoothing: 10 (USB2E7196)
Correct for Electrical Dark: No (USB2E7196)
Strobe/Lamp Enabled: No (USB2E7196)
Correct for Detector Non-linearity: No (USB2E7196)
Correct for Stray Light: No (USB2E7196)
Number of Pixels in Processed Spectrum: 2048
>>>>>Begin Processed Spectral Data<<<<<
339.09	0.00
339.48	214.48
339.86	216.38
340.24	217.50
340.63	218.67
341.01	221.72
341.39	221.51
341.78	223.34
342.16	223.84
342.54	224.20
342.93	212.95
343.31	223.73
343.69	224.29
344.07	224.72
344.46	225.13
344.84	225.51
345.22	225.77
345.60	225.99
345.99	226.16
346.37	226.30
346.75	226.41
347.13	226.48
347.52	226.54
347.90	226.63
348.28	226.65
348.66	226.71
349.05	226.70
349.43	226.73
349.81	226.79
350.19	226.84
350.57	226.88
350.96	226.90
351.34	226.97
351.72	227.03
352.10	227.13
352.48	227.18
352.87	227.25
353.25	227.30
353.63	227.38
354.01	227.46
354.39	227.52
354.77	227.60
355.15	227.72
355.54	227.76
355.92	227.78
356.30	227.84
356.68	227.98
357.06	228.06
357.44	228.12
357.82	228.17
358.20	228.26
358.58	228.34
358.97	228.39
359.35	228.46
359.73	228.55
360.11	228.60
360.49	228.69
360.87	228.74
361.25	228.81
361.63	228.90
362.01	228.93
362.39	229.00
362.77	229.04
363.15	229.04
363.53	229.06
363.91	229.06
364.29	229.11
364.67	229.03
365.05	229.06
365.43	229.12
365.81	229.13
366.19	229.18
366.57	229.24
366.95	229.26
367.33	229.24
367.71	229.22
368.09	229.25
368.47	229.21
368.85	229.19
369.23	229.19
369.61	229.11
369.99	229.11
370.37	229.09
370.75	229.11
371.13	229.06
371.51	229.06
371.89	229.07
372.27	229.03
372.65	229.02
373.03	228.99
373.41	228.92
373.78	228.88
374.16	228.76
374.54	228.68
374.92	228.61
375.30	228.57
375.68	228.51
376.06	228.45
376.44	228.42
376.82	228.37
377.19	228.28
377.57	228.23
377.95	228.14
378.33	228.05
378.71	227.92
379.09	227.87
379.47	227.82
379.84	227.76
380.22	227.67
380.60	227.55
380.98	227.48
381.36	227.44
381.73	227.36
382.11	227.34
382.49	227.25
382.87	227.18
383.25	227.08
383.62	227.15
384.00	227.10
384.38	227.01
384.76	227.00
385.13	227.00
385.51	226.94
385.89	226.88
386.27	226.83
386.64	226.80
387.02	226.74
387.40	226.63
387.78	226.54
388.15	226.55
388.53	226.53
388.91	226.49
389.29	226.42
389.66	226.38
390.04	226.30
390.42	226.31
390.79	226.31
391.17	226.28
391.55	226.12
391.92	226.08
392.30	226.06
392.68	226.02
393.05	226.00
393.43	226.00
393.81	225.99
394.18	225.98
394.56	225.98
394.94	226.02
395.31	226.03
395.69	226.10
396.06	226.09
396.44	226.09
396.82	226.09
397.19	226.16
397.57	226.19
397.95	226.26
398.32	226.21
398.70	226.28
399.07	226.35
399.45	226.41
399.82	226.48
400.20	226.54
400.58	226.54
400.95	226.55
401.33	226.63
401.70	226.79
402.08	226.89
402.45	226.96
402.83	227.06
403.20	227.18
403.58	227.27
403.95	227.40
404.33	227.53
404.71	227.68
405.08	227.85
405.46	227.98
405.83	228.13
406.21	228.33
406.58	228.47
406.96	228.66
407.33	228.84
407.70	229.00
408.08	229.30
408.45	229.55
408.83	229.81
409.20	230.03
409.58	230.18
409.95	230.47
410.33	230.77
410.70	231.03
411.08	231.34
411.45	231.65
411.82	231.95
412.20	232.29
412.57	232.70
412.95	233.00
413.32	233.42
413.69	233.82
414.07	234.26
414.44	234.71
414.82	235.19
415.19	235.71
415.56	236.27
415.94	236.77
416.31	237.41
416.68	238.03
417.06	238.74
417.43	239.45
417.81	240.21
418.18	241.00
418.55	241.82
418.93	242.70
419.30	243.60
419.67	244.54
420.04	245.53
420.42	246.54
420.79	247.71
421.16	248.90
421.54	250.11
421.91	251.31
422.28	252.57
422.66	253.90
423.03	255.23
423.40	256.61
423.77	258.02
424.15	259.45
424.52	260.95
424.89	262.55
425.26	264.11
425.64	265.54
426.01	267.10
426.38	268.78
426.75	270.47
427.13	272.20
427.50	274.03
427.87	275.90
428.24	277.71
428.61	279.49
428.99	281.43
429.36	283.53
429.73	285.59
430.10	287.64
430.47	289.68
430.85	291.85
431.22	294.06
431.59	296.43
431.96	298.70
432.33	301.16
432.70	303.56
433.08	306.35
433.45	308.96
433.82	311.59
434.19	314.47
434.56	317.27
434.93	319.91
435.30	322.51
435.68	325.43
436.05	328.28
436.42	331.07
436.79	333.56
437.16	336.23
437.53	339.11
437.90	341.87
438.27	344.64
438.64	347.44
439.01	350.02
439.38	352.25
439.75	354.39
440.13	356.90
440.50	359.24
440.87	361.08
441.24	363.05
441.61	365.20
441.98	366.67
442.35	368.44
442.72	370.25
443.09	372.06
443.46	372.99
443.83	373.60
444.20	374.06
444.57	374.86
444.94	375.09
445.31	375.36
445.68	375.71
446.05	375.73
446.42	375.34
446.79	374.89
447.16	374.44
447.53	374.09
447.90	372.90
448.27	371.69
448.64	370.08
449.01	368.93
449.37	366.93
449.74	365.03
450.11	362.78
450.48	360.34
450.85	357.77
451.22	355.64
451.59	353.58
451.96	351.64
452.33	349.03
452.70	346.71
453.07	343.91
453.43	341.05
453.80	338.26
454.17	335.56
454.54	333.05
454.91	330.34
455.28	327.65
455.65	325.16
456.02	322.75
456.38	320.59
456.75	317.90
457.12	315.65
457.49	313.40
457.86	311.23
458.23	309.34
458.59	307.32
458.96	305.26
459.33	303.41
459.70	301.53
460.07	300.03
460.43	298.30
460.80	296.66
461.17	295.22
461.54	293.79
461.91	292.37
462.27	290.93
462.64	289.69
463.01	288.40
463.38	287.14
463.74	285.76
464.11	284.60
464.48	283.59
464.85	282.51
465.21	281.66
465.58	280.77
465.95	279.70
466.32	278.77
466.68	277.87
467.05	276.99
467.42	276.14
467.78	275.25
468.15	274.39
468.52	273.75
468.88	272.91
469.25	272.10
469.62	271.47
469.98	270.82
470.35	270.20
470.72	269.58
471.08	268.94
471.45	268.42
471.82	267.88
472.18	267.31
472.55	266.89
472.92	266.40
473.28	265.94
473.65	265.55
474.02	265.14
474.38	264.75
474.75	264.46
475.11	264.12
475.48	263.85
475.85	263.68
476.21	263.47
476.58	263.33
476.94	263.21
477.31	263.11
477.67	262.96
478.04	262.86
478.41	262.81
478.77	262.87
479.14	262.80
479.50	262.84
479.87	262.93
480.23	263.01
480.60	263.08
480.96	263.18
481.33	263.36
481.69	263.60
482.06	263.83
482.42	264.03
482.79	264.32
483.15	264.65
483.52	265.00
483.88	265.33
484.25	265.67
484.61	266.10
484.98	266.48
485.34	267.05
485.71	267.60
486.07	268.17
486.44	268.70
486.80	269.44
487.17	270.17
487.53	271.00
487.90	271.84
488.26	272.77
488.62	273.79
488.99	274.75
489.35	275.74
489.72	276.86
490.08	278.03
490.44	279.22
490.81	280.52
491.17	281.86
491.54	283.34
491.90	284.90
492.26	286.55
492.63	288.27
492.99	290.06
493.36	291.99
493.72	294.06
494.08	296.13
494.45	298.35
494.81	300.67
495.17	303.05
495.54	305.62
495.90	308.30
496.26	311.07
496.63	314.03
496.99	317.17
497.35	320.42
497.72	323.83
498.08	327.39
498.44	331.12
498.80	335.05
499.17	339.10
499.53	343.30
499.89	347.69
500.26	352.23
500.62	356.90
500.98	361.87
501.34	366.97
501.71	372.34
502.07	377.81
502.43	383.47
502.79	389.39
503.16	395.47
503.52	401.73
503.88	408.21
504.24	414.87
504.60	421.76
504.97	428.91
505.33	436.24
505.69	443.93
506.05	451.71
506.41	459.60
506.78	467.77
507.14	476.23
507.50	484.94
507.86	494.01
508.22	503.24
508.59	512.50
508.95	522.09
509.31	531.84
509.67	541.96
510.03	552.23
510.39	562.78
510.75	573.62
511.12	584.56
511.48	595.84
511.84	607.29
512.20	618.79
512.56	630.70
512.92	642.86
513.28	655.18
513.64	667.59
514.00	680.34
514.37	693.28
514.73	706.34
515.09	719.37
515.45	732.63
515.81	746.19
516.17	760.14
516.53	774.20
516.89	788.44
517.25	802.57
517.61	817.02
517.97	831.37
518.33	845.78
518.69	860.57
519.05	875.47
519.41	890.65
519.77	906.17
520.13	921.62
520.49	936.99
520.85	952.43
521.21	968.17
521.57	984.32
521.93	1000.05
522.29	1016.41
522.65	1032.63
523.01	1048.78
523.37	1064.68
523.73	1080.77
524.09	1096.89
524.45	1113.14
524.81	1129.79
525.17	1146.55
525.53	1163.40
525.89	1180.22
526.25	1197.04
526.61	1213.46
526.97	1230.15
527.33	1246.67
527.68	1263.32
528.04	1279.71
528.40	1296.27
528.76	1313.15
529.12	1329.75
529.48	1346.57
529.84	1362.57
530.20	1379.18
530.56	1396.15
530.91	1413.64
531.27	1430.37
531.63	1446.77
531.99	1463.32
532.35	1479.28
532.71	1495.02
533.07	1511.27
533.42	1527.09
533.78	1543.10
534.14	1559.34
534.50	1574.58
534.86	1590.29
535.21	1605.35
535.57	1621.28
535.93	1636.65
536.29	1651.51
536.65	1666.40
537.00	1681.09
537.36	1696.15
537.72	1710.53
538.08	1724.71
538.44	1738.34
538.79	1752.15
539.15	1765.61
539.51	1779.16
539.87	1793.36
540.22	1807.06
540.58	1820.59
540.94	1833.69
541.29	1846.29
541.65	1858.72
542.01	1871.86
542.37	1884.12
542.72	1896.45
543.08	1908.27
543.44	1920.54
543.79	1931.78
544.15	1942.72
544.51	1954.19
544.87	1965.15
545.22	1975.96
545.58	1986.32
545.94	1996.16
546.29	2005.97
546.65	2015.95
547.01	2025.17
547.36	2033.89
547.72	2042.37
548.07	2050.26
548.43	2058.54
548.79	2066.63
549.14	2074.31
549.50	2081.65
549.86	2089.29
550.21	2096.57
550.57	2103.70
550.92	2110.44
551.28	2117.54
551.64	2124.60
551.99	2131.15
552.35	2137.34
552.70	2143.48
553.06	2149.35
553.41	2155.63
553.77	2161.56
554.13	2167.58
554.48	2173.71
554.84	2179.13
555.19	2184.40
555.55	2189.68
555.90	2194.21
556.26	2199.23
556.61	2203.99
556.97	2208.34
557.32	2212.45
557.68	2216.63
558.03	2220.84
558.39	2224.47
558.74	2228.98
559.10	2232.89
559.45	2236.71
559.81	2241.03
560.16	2244.83
560.52	2248.08
560.87	2251.52
561.23	2254.28
561.58	2257.22
561.94	2259.68
562.29	2262.01
562.64	2264.78
563.00	2267.39
563.35	2270.86
563.71	2273.90
564.06	2277.09
564.42	2279.98
564.77	2282.55
565.12	2284.88
565.48	2286.75
565.83	2288.65
566.19	2290.00
566.54	2290.94
566.89	2292.01
567.25	2292.42
567.60	2293.71
567.96	2295.56
568.31	2296.26
568.66	2297.53
569.02	2298.12
569.37	2298.66
569.72	2299.52
570.08	2299.66
570.43	2299.70
570.78	2299.15
571.14	2297.56
571.49	2296.06
571.84	2295.68
572.20	2294.57
572.55	2293.42
572.90	2291.76
573.26	2290.37
573.61	2288.67
573.96	2286.85
574.31	2283.84
574.67	2281.03
575.02	2277.41
575.37	2273.95
575.72	2270.34
576.08	2266.79
576.43	2263.37
576.78	2259.63
577.13	2256.58
577.49	2253.37
577.84	2249.95
578.19	2246.23
578.54	2242.71
578.90	2238.67
579.25	2233.05
579.60	2228.17
579.95	2223.29
580.30	2218.34
580.66	2213.14
581.01	2208.18
581.36	2203.28
581.71	2199.17
582.06	2194.81
582.42	2190.51
582.77	2185.38
583.12	2180.76
583.47	2176.13
583.82	2171.25
584.17	2166.19
584.53	2160.67
584.88	2155.19
585.23	2149.38
585.58	2143.88
585.93	2138.33
586.28	2133.41
586.63	2128.50
586.98	2123.42
587.34	2118.59
587.69	2113.80
588.04	2108.69
588.39	2102.96
588.74	2096.49
589.09	2090.32
589.44	2083.56
589.79	2077.44
590.14	2071.68
590.49	2065.18
590.84	2058.74
591.19	2052.79
591.54	2046.27
591.89	2039.01
592.25	2032.11
592.60	2024.99
592.95	2017.66
593.30	2010.44
593.65	2002.89
594.00	1995.81
594.35	1988.50
594.70	1980.57
595.05	1973.56
595.40	1966.31
595.75	1958.85
596.10	1952.74
596.45	1946.13
596.80	1939.99
597.15	1933.51
597.50	1926.59
597.85	1920.15
598.19	1913.58
598.54	1906.65
598.89	1900.04
599.24	1894.07
599.59	1887.50
599.94	1881.27
600.29	1874.77
600.64	1868.05
600.99	1860.78
601.34	1853.92
601.69	1846.98
602.04	1840.13
602.39	1832.62
602.74	1825.76
603.08	1819.05
603.43	1812.27
603.78	1804.97
604.13	1797.72
604.48	1790.35
604.83	1783.54
605.18	1776.70
605.53	1768.71
605.87	1760.56
606.22	1753.14
606.57	1745.08
606.92	1737.69
607.27	1730.50
607.62	1723.64
607.96	1716.58
608.31	1709.93
608.66	1702.29
609.01	1694.75
609.36	1687.11
609.70	1679.08
610.05	1670.90
610.40	1663.38
610.75	1655.14
611.10	1647.37
611.44	1638.87
611.79	1630.94
612.14	1622.09
612.49	1612.81
612.83	1604.47
613.18	1596.27
613.53	1588.37
613.88	1579.95
614.22	1571.75
614.57	1563.10
614.92	1555.01
615.27	1547.44
615.61	1539.04
615.96	1531.05
616.31	1523.44
616.65	1516.16
617.00	1508.63
617.35	1501.03
617.70	1492.66
618.04	1484.09
618.39	1475.94
618.74	1468.43
619.08	1459.99
619.43	1452.57
619.78	1445.70
620.12	1438.53
620.47	1430.98
620.82	1422.78
621.16	1415.28
621.51	1407.59
621.85	1400.02
622.20	1391.58
622.55	1383.19
622.89	1375.42
623.24	1367.86
623.59	1360.44
623.93	1352.88
624.28	1345.72
624.62	1338.25
624.97	1330.92
625.32	1324.17
625.66	1317.10
626.01	1309.91
626.35	1302.58
626.70	1294.72
627.04	1287.05
627.39	1279.19
627.73	1271.95
628.08	1265.00
628.43	1257.83
628.77	1250.59
629.12	1243.02
629.46	1235.78
629.81	1228.30
630.15	1221.04
630.50	1213.64
630.84	1205.57
631.19	1197.64
631.53	1190.05
631.88	1182.40
632.22	1174.97
632.57	1167.66
632.91	1160.09
633.26	1152.68
633.60	1145.25
633.95	1138.12
634.29	1130.98
634.64	1124.27
634.98	1116.84
635.32	1109.80
635.67	1103.13
636.01	1096.46
636.36	1089.63
636.70	1083.16
637.05	1076.65
637.39	1070.17
637.73	1063.71
638.08	1057.78
638.42	1051.87
638.77	1045.39
639.11	1038.90
639.45	1032.43
639.80	1025.79
640.14	1019.49
640.49	1013.08
640.83	1006.88
641.17	1000.71
641.52	994.36
641.86	987.93
642.20	982.09
642.55	975.68
642.89	969.30
643.23	962.69
643.58	957.04
643.92	950.81
644.26	944.80
644.61	938.77
644.95	932.73
645.29	926.09
645.64	919.29
645.98	913.06
646.32	907.11
646.66	901.11
647.01	895.36
647.35	889.64
647.69	883.72
648.04	878.11
648.38	872.39
648.72	866.37
649.06	860.43
649.41	854.50
649.75	848.54
650.09	842.57
650.43	836.74
650.78	830.60
651.12	824.67
651.46	818.91
651.80	813.23
652.14	807.83
652.49	802.51
652.83	797.35
653.17	791.67
653.51	786.11
653.85	780.67
654.20	775.05
654.54	768.96
654.88	763.18
655.22	757.30
655.56	751.51
655.90	746.11
656.25	740.79
656.59	735.44
656.93	730.36
657.27	725.18
657.61	719.77
657.95	714.55
658.29	709.48
658.64	704.20
658.98	698.91
659.32	693.42
659.66	688.22
660.00	682.91
660.34	677.94
660.68	672.93
661.02	667.96
661.36	663.23
661.70	658.80
662.05	654.47
662.39	650.18
662.73	645.71
663.07	641.34
663.41	636.87
663.75	632.44
664.09	627.87
664.43	623.53
664.77	619.40
665.11	615.22
665.45	611.08
665.79	606.99
666.13	602.84
666.47	598.81
666.81	594.64
667.15	590.57
667.49	586.65
667.83	582.78
668.17	578.75
668.51	574.68
668.85	570.57
669.19	566.69
669.53	562.79
669.87	559.01
670.21	555.33
670.55	551.67
670.89	548.19
671.23	544.76
671.57	541.23
671.91	537.77
672.25	534.20
672.58	530.62
672.92	527.19
673.26	523.97
673.60	520.76
673.94	517.63
674.28	514.71
674.62	511.71
674.96	508.63
675.30	505.75
675.64	502.84
675.97	500.07
676.31	497.29
676.65	494.37
676.99	491.60
677.33	488.71
677.67	485.91
678.01	482.92
678.34	479.92
678.68	477.05
679.02	474.17
679.36	471.39
679.70	468.70
680.04	465.96
680.37	463.15
680.71	460.33
681.05	457.73
681.39	454.99
681.73	452.37
682.06	449.84
682.40	447.27
682.74	444.69
683.08	442.19
683.42	439.51
683.75	437.04
684.09	434.50
684.43	432.04
684.77	429.58
685.10	427.25
685.44	424.95
685.78	422.63
686.12	420.41
686.45	418.19
686.79	415.95
687.13	413.71
687.46	411.50
687.80	409.36
688.14	407.14
688.48	405.11
688.81	402.91
689.15	400.77
689.49	398.63
689.82	396.64
690.16	394.55
690.50	392.58
690.83	390.64
691.17	388.63
691.51	386.69
691.84	384.89
692.18	382.95
692.52	381.03
692.85	379.07
693.19	377.18
693.52	375.32
693.86	373.48
694.20	371.75
694.53	369.99
694.87	368.16
695.21	366.36
695.54	364.49
695.88	362.72
696.21	361.02
696.55	359.32
696.88	357.59
697.22	355.90
697.56	354.28
697.89	352.64
698.23	351.03
698.56	349.48
698.90	347.86
699.23	346.21
699.57	344.67
699.90	343.19
700.24	341.62
700.58	340.11
700.91	338.63
701.25	337.18
701.58	335.84
701.92	334.45
702.25	333.10
702.59	331.76
702.92	330.46
703.26	329.14
703.59	327.87
703.93	326.66
704.26	325.42
704.60	324.15
704.93	322.85
705.26	321.59
705.60	320.39
705.93	319.25
706.27	318.21
706.60	317.10
706.94	315.99
707.27	314.85
707.61	313.76
707.94	312.70
708.27	311.61
708.61	310.50
708.94	309.46
709.28	308.46
709.61	307.48
709.94	306.48
710.28	305.43
710.61	304.43
710.95	303.37
711.28	302.44
711.61	301.46
711.95	300.58
712.28	299.64
712.61	298.69
712.95	297.74
713.28	296.82
713.61	295.94
713.95	295.01
714.28	294.21
714.61	293.38
714.95	292.52
715.28	291.69
715.61	290.77
715.95	289.91
716.28	289.04
716.61	288.21
716.95	287.40
717.28	286.68
717.61	285.92
717.94	285.19
718.28	284.40
718.61	283.66
718.94	282.95
719.27	282.29
719.61	281.63
719.94	280.97
720.27	280.26
720.60	279.60
720.94	279.02
721.27	278.40
721.60	277.82
721.93	277.22
722.27	276.61
722.60	276.09
722.93	275.56
723.26	275.05
723.59	274.51
723.93	274.00
724.26	273.42
724.59	272.84
724.92	272.30
725.25	271.84
725.59	271.34
725.92	270.81
726.25	270.29
726.58	269.83
726.91	269.33
727.24	268.88
727.57	268.42
727.91	267.91
728.24	267.45
728.57	266.95
728.90	266.50
729.23	266.06
729.56	265.65
729.89	265.22
730.22	264.75
730.55	264.30
730.89	263.83
731.22	263.44
731.55	263.05
731.88	262.62
732.21	262.21
732.54	261.80
732.87	261.40
733.20	260.99
733.53	260.57
733.86	260.20
734.19	259.83
734.52	259.47
734.85	259.15
735.18	258.74
735.51	258.39
735.84	258.03
736.17	257.68
736.50	257.28
736.83	257.06
737.16	256.72
737.49	256.38
737.82	256.09
738.15	255.74
738.48	255.43
738.81	255.10
739.14	254.74
739.47	254.43
739.80	254.10
740.13	253.82
740.46	253.52
740.79	253.20
741.12	252.86
741.45	252.52
741.78	252.19
742.11	251.90
742.44	251.54
742.77	251.23
743.10	250.93
743.43	250.61
743.75	250.14
744.08	250.01
744.41	249.74
744.74	249.42
745.07	249.11
745.40	248.83
745.73	248.60
746.06	248.31
746.39	248.03
746.71	247.79
747.04	247.55
747.37	247.26
747.70	247.04
748.03	246.78
748.36	246.58
748.68	246.32
749.01	246.09
749.34	245.92
749.67	245.70
750.00	245.43
750.33	245.27
750.65	245.10
750.98	244.75
751.31	244.53
751.64	244.31
751.97	244.21
752.29	243.99
752.62	243.76
752.95	243.60
753.28	243.41
753.60	243.17
753.93	242.94
754.26	242.76
754.59	242.48
754.91	242.25
755.24	242.01
755.57	241.82
755.90	241.62
756.22	241.41
756.55	241.18
756.88	241.01
757.20	240.76
757.53	240.52
757.86	240.35
758.19	240.17
758.51	239.99
758.84	239.76
759.17	239.60
759.49	239.43
759.82	239.28
760.15	239.11
760.47	238.97
760.80	238.82
761.13	238.68
761.45	238.57
761.78	238.46
762.11	238.34
762.43	238.19
762.76	238.06
763.08	237.91
763.41	237.84
763.74	237.72
764.06	237.58
764.39	237.48
764.71	237.34
765.04	237.20
765.37	237.09
765.69	236.95
766.02	236.80
766.34	236.69
766.67	236.55
767.00	236.47
767.32	236.37
767.65	236.32
767.97	236.22
768.30	236.10
768.62	235.97
768.95	235.85
769.27	235.76
769.60	235.65
769.92	235.52
770.25	235.37
770.57	235.25
770.90	235.16
771.22	235.07
771.55	234.98
771.87	234.88
772.20	234.78
772.52	234.76
772.85	234.84
773.17	234.77
773.50	234.69
773.82	234.57
774.15	234.44
774.47	234.29
774.80	234.16
775.12	234.12
775.45	234.06
775.77	234.00
776.09	233.92
776.42	233.86
776.74	233.83
777.07	233.77
777.39	233.71
777.72	233.65
778.04	233.58
778.36	233.50
778.69	233.44
779.01	233.38
779.33	233.23
779.66	233.01
779.98	232.91
780.31	232.84
780.63	232.81
780.95	232.80
781.28	232.70
781.60	232.67
781.92	232.57
782.25	232.50
782.57	232.42
782.89	232.35
783.22	232.31
783.54	232.22
783.86	232.17
784.19	232.13
784.51	232.09
784.83	232.04
785.16	231.99
785.48	231.95
785.80	231.90
786.12	231.87
786.45	231.84
786.77	231.77
787.09	231.73
