SpectraSuite Data File
++++++++++++++++++++++++++++++++++++
Date: Fri Feb 01 16:28:52 EST 2013
User: group
Dark Spectrum Present: No
Reference Spectrum Present: No
Number of Sampled Component Spectra: 1
Spectrometers: USB2E7196
Integration Time (usec): 35000 (USB2E7196)
Spectra Averaged: 100 (USB2E7196)
Boxcar Smoothing: 10 (USB2E7196)
Correct for Electrical Dark: No (USB2E7196)
Strobe/Lamp Enabled: No (USB2E7196)
Correct for Detector Non-linearity: No (USB2E7196)
Correct for Stray Light: No (USB2E7196)
Number of Pixels in Processed Spectrum: 2048
>>>>>Begin Processed Spectral Data<<<<<
339.09	0.00
339.48	213.77
339.86	215.27
340.24	216.52
340.63	218.41
341.01	221.19
341.39	220.65
341.78	222.29
342.16	223.69
342.54	223.87
342.93	212.47
343.31	223.19
343.69	223.71
344.07	224.19
344.46	224.64
344.84	225.00
345.22	225.25
345.60	225.51
345.99	225.69
346.37	225.82
346.75	225.96
347.13	226.00
347.52	226.04
347.90	226.11
348.28	226.14
348.66	226.18
349.05	226.17
349.43	226.18
349.81	226.25
350.19	226.28
350.57	226.36
350.96	226.44
351.34	226.53
351.72	226.65
352.10	226.74
352.48	226.80
352.87	226.89
353.25	226.95
353.63	227.00
354.01	227.09
354.39	227.15
354.77	227.21
355.15	227.30
355.54	227.36
355.92	227.40
356.30	227.50
356.68	227.67
357.06	227.74
357.44	227.82
357.82	227.84
358.20	227.91
358.58	227.96
358.97	228.00
359.35	228.11
359.73	228.21
360.11	228.25
360.49	228.32
360.87	228.35
361.25	228.41
361.63	228.50
362.01	228.53
362.39	228.58
362.77	228.63
363.15	228.63
363.53	228.68
363.91	228.68
364.29	228.70
364.67	228.61
365.05	228.63
365.43	228.64
365.81	228.67
366.19	228.67
366.57	228.74
366.95	228.76
367.33	228.72
367.71	228.67
368.09	228.71
368.47	228.70
368.85	228.68
369.23	228.63
369.61	228.56
369.99	228.57
370.37	228.52
370.75	228.52
371.13	228.48
371.51	228.42
371.89	228.36
372.27	228.30
372.65	228.27
373.03	228.20
373.41	228.14
373.78	228.09
374.16	228.02
374.54	227.93
374.92	227.84
375.30	227.77
375.68	227.72
376.06	227.58
376.44	227.48
376.82	227.43
377.19	227.38
377.57	227.32
377.95	227.22
378.33	227.17
378.71	227.04
379.09	227.00
379.47	226.95
379.84	226.91
380.22	226.83
380.60	226.73
380.98	226.64
381.36	226.58
381.73	226.47
382.11	226.41
382.49	226.31
382.87	226.25
383.25	226.19
383.62	226.23
384.00	226.20
384.38	226.15
384.76	226.13
385.13	226.11
385.51	226.05
385.89	225.97
386.27	225.91
386.64	225.87
387.02	225.80
387.40	225.73
387.78	225.72
388.15	225.70
388.53	225.67
388.91	225.66
389.29	225.62
389.66	225.62
390.04	225.56
390.42	225.58
390.79	225.57
391.17	225.54
391.55	225.39
391.92	225.37
392.30	225.37
392.68	225.34
393.05	225.33
393.43	225.31
393.81	225.33
394.18	225.35
394.56	225.38
394.94	225.46
395.31	225.47
395.69	225.48
396.06	225.48
396.44	225.48
396.82	225.52
397.19	225.62
397.57	225.64
397.95	225.73
398.32	225.75
398.70	225.81
399.07	225.89
399.45	225.99
399.82	226.03
400.20	226.10
400.58	226.16
400.95	226.19
401.33	226.33
401.70	226.48
402.08	226.56
402.45	226.60
402.83	226.66
403.20	226.80
403.58	226.89
403.95	227.03
404.33	227.19
404.71	227.30
405.08	227.47
405.46	227.63
405.83	227.78
406.21	227.94
406.58	228.13
406.96	228.30
407.33	228.49
407.70	228.72
408.08	228.99
408.45	229.21
408.83	229.44
409.20	229.67
409.58	229.86
409.95	230.12
410.33	230.40
410.70	230.66
411.08	230.94
411.45	231.25
411.82	231.57
412.20	231.91
412.57	232.34
412.95	232.64
413.32	233.05
413.69	233.47
414.07	233.88
414.44	234.33
414.82	234.82
415.19	235.38
415.56	235.90
415.94	236.43
416.31	237.08
416.68	237.69
417.06	238.38
417.43	239.04
417.81	239.81
418.18	240.60
418.55	241.45
418.93	242.33
419.30	243.22
419.67	244.12
420.04	245.08
420.42	246.03
420.79	247.21
421.16	248.33
421.54	249.50
421.91	250.74
422.28	251.97
422.66	253.30
423.03	254.58
423.40	255.92
423.77	257.31
424.15	258.70
424.52	260.18
424.89	261.79
425.26	263.34
425.64	264.75
426.01	266.37
426.38	268.00
426.75	269.68
427.13	271.37
427.50	273.22
427.87	275.08
428.24	276.94
428.61	278.65
428.99	280.56
429.36	282.65
429.73	284.63
430.10	286.68
430.47	288.70
430.85	290.78
431.22	293.03
431.59	295.42
431.96	297.65
432.33	300.10
432.70	302.45
433.08	305.25
433.45	307.85
433.82	310.40
434.19	313.30
434.56	316.08
434.93	318.73
435.30	321.32
435.68	324.23
436.05	327.02
436.42	329.82
436.79	332.32
437.16	334.99
437.53	337.84
437.90	340.58
438.27	343.30
438.64	346.12
439.01	348.63
439.38	350.84
439.75	353.03
440.13	355.54
440.50	357.84
440.87	359.69
441.24	361.67
441.61	363.82
441.98	365.22
442.35	366.98
442.72	368.83
443.09	370.61
443.46	371.54
443.83	372.16
444.20	372.63
444.57	373.44
444.94	373.77
445.31	374.12
445.68	374.51
446.05	374.60
446.42	374.22
446.79	373.84
447.16	373.39
447.53	373.03
447.90	371.86
448.27	370.70
448.64	369.09
449.01	367.93
449.37	366.01
449.74	364.20
450.11	361.95
450.48	359.51
450.85	357.01
451.22	354.90
451.59	352.91
451.96	351.00
452.33	348.47
452.70	346.11
453.07	343.26
453.43	340.37
453.80	337.66
454.17	335.02
454.54	332.49
454.91	329.73
455.28	327.13
455.65	324.63
456.02	322.22
456.38	320.13
456.75	317.51
457.12	315.24
457.49	313.02
457.86	310.94
458.23	309.14
458.59	307.07
458.96	305.00
459.33	303.15
459.70	301.31
460.07	299.82
460.43	298.12
460.80	296.54
461.17	295.13
461.54	293.61
461.91	292.20
462.27	290.76
462.64	289.58
463.01	288.24
463.38	286.96
463.74	285.62
464.11	284.44
464.48	283.41
464.85	282.31
465.21	281.46
465.58	280.52
465.95	279.37
466.32	278.49
466.68	277.60
467.05	276.71
467.42	275.81
467.78	274.87
468.15	274.01
468.52	273.33
468.88	272.48
469.25	271.72
469.62	271.08
469.98	270.42
470.35	269.78
470.72	269.18
471.08	268.54
471.45	268.00
471.82	267.48
472.18	266.90
472.55	266.50
472.92	265.96
473.28	265.50
473.65	265.08
474.02	264.67
474.38	264.32
474.75	263.96
475.11	263.63
475.48	263.37
475.85	263.14
476.21	262.94
476.58	262.75
476.94	262.61
477.31	262.45
477.67	262.28
478.04	262.20
478.41	262.15
478.77	262.20
479.14	262.16
479.50	262.17
479.87	262.24
480.23	262.26
480.60	262.30
480.96	262.42
481.33	262.60
481.69	262.79
482.06	263.00
482.42	263.19
482.79	263.47
483.15	263.75
483.52	264.14
483.88	264.46
484.25	264.84
484.61	265.27
484.98	265.73
485.34	266.29
485.71	266.87
486.07	267.47
486.44	268.04
486.80	268.75
487.17	269.46
487.53	270.28
487.90	271.17
488.26	272.14
488.62	273.15
488.99	274.14
489.35	275.16
489.72	276.26
490.08	277.47
490.44	278.68
490.81	280.07
491.17	281.39
491.54	282.91
491.90	284.48
492.26	286.11
492.63	287.87
492.99	289.69
493.36	291.58
493.72	293.63
494.08	295.71
494.45	297.94
494.81	300.34
495.17	302.79
495.54	305.38
495.90	308.06
496.26	310.82
496.63	313.80
496.99	316.94
497.35	320.23
497.72	323.70
498.08	327.25
498.44	330.91
498.80	334.89
499.17	338.94
499.53	343.14
499.89	347.53
500.26	352.05
500.62	356.76
500.98	361.73
501.34	366.82
501.71	372.18
502.07	377.66
502.43	383.28
502.79	389.15
503.16	395.31
503.52	401.62
503.88	408.05
504.24	414.72
504.60	421.62
504.97	428.73
505.33	436.03
505.69	443.73
506.05	451.55
506.41	459.42
506.78	467.58
507.14	476.02
507.50	484.77
507.86	493.75
508.22	502.92
508.59	512.16
508.95	521.69
509.31	531.53
509.67	541.63
510.03	551.91
510.39	562.35
510.75	573.03
511.12	583.99
511.48	595.27
511.84	606.71
512.20	618.15
512.56	630.09
512.92	642.26
513.28	654.58
513.64	666.99
514.00	679.63
514.37	692.50
514.73	705.50
515.09	718.45
515.45	731.80
515.81	745.48
516.17	759.40
516.53	773.61
516.89	787.74
517.25	801.90
517.61	816.27
517.97	830.82
518.33	845.27
518.69	860.05
519.05	875.04
519.41	890.21
519.77	905.78
520.13	921.21
520.49	936.53
520.85	951.92
521.21	967.67
521.57	983.94
521.93	999.73
522.29	1016.07
522.65	1032.26
523.01	1048.37
523.37	1064.16
523.73	1080.19
524.09	1096.07
524.45	1112.30
524.81	1128.78
525.17	1145.44
525.53	1162.16
525.89	1178.87
526.25	1195.53
526.61	1211.80
526.97	1228.38
527.33	1244.72
527.68	1261.20
528.04	1277.58
528.40	1294.02
528.76	1310.92
529.12	1327.34
529.48	1344.05
529.84	1360.02
530.20	1376.61
530.56	1393.48
530.91	1410.88
531.27	1427.69
531.63	1444.32
531.99	1460.78
532.35	1476.69
532.71	1492.52
533.07	1508.66
533.42	1524.54
533.78	1540.50
534.14	1556.69
534.50	1571.92
534.86	1587.72
535.21	1602.79
535.57	1618.60
535.93	1634.05
536.29	1648.73
536.65	1663.56
537.00	1678.18
537.36	1693.22
537.72	1707.62
538.08	1721.91
538.44	1735.62
538.79	1749.24
539.15	1762.61
539.51	1776.33
539.87	1790.63
540.22	1804.44
540.58	1818.13
540.94	1831.37
541.29	1844.09
541.65	1856.66
542.01	1869.82
542.37	1882.02
542.72	1894.41
543.08	1906.08
543.44	1918.36
543.79	1929.51
544.15	1940.49
544.51	1952.22
544.87	1963.22
545.22	1974.06
545.58	1984.24
545.94	1993.97
546.29	2003.94
546.65	2013.76
547.01	2022.90
547.36	2031.39
547.72	2039.62
548.07	2047.30
548.43	2055.34
548.79	2063.42
549.14	2070.83
549.50	2078.03
549.86	2085.66
550.21	2092.99
550.57	2100.21
550.92	2106.72
551.28	2113.71
551.64	2120.96
551.99	2127.34
552.35	2133.44
552.70	2139.39
553.06	2145.37
553.41	2151.70
553.77	2157.56
554.13	2163.71
554.48	2169.94
554.84	2175.47
555.19	2180.80
555.55	2186.07
555.90	2190.58
556.26	2195.39
556.61	2200.22
556.97	2204.68
557.32	2208.75
557.68	2212.68
558.03	2216.91
558.39	2220.71
558.74	2225.41
559.10	2229.11
559.45	2232.71
559.81	2237.04
560.16	2240.99
560.52	2244.20
560.87	2247.50
561.23	2250.24
561.58	2253.00
561.94	2255.42
562.29	2257.87
562.64	2260.54
563.00	2263.05
563.35	2266.61
563.71	2269.65
564.06	2272.92
564.42	2275.79
564.77	2278.53
565.12	2280.93
565.48	2282.87
565.83	2284.81
566.19	2286.14
566.54	2287.12
566.89	2288.23
567.25	2288.92
567.60	2290.16
567.96	2291.89
568.31	2292.85
568.66	2294.15
569.02	2294.87
569.37	2295.36
569.72	2296.19
570.08	2296.41
570.43	2296.69
570.78	2296.14
571.14	2294.79
571.49	2293.43
571.84	2293.10
572.20	2292.01
572.55	2291.02
572.90	2289.53
573.26	2287.97
573.61	2286.31
573.96	2284.51
574.31	2281.60
574.67	2278.60
575.02	2275.26
575.37	2272.01
575.72	2268.22
576.08	2264.82
576.43	2261.60
576.78	2257.80
577.13	2254.83
577.49	2251.77
577.84	2248.20
578.19	2244.54
578.54	2241.07
578.90	2236.89
579.25	2231.39
579.60	2226.43
579.95	2221.57
580.30	2216.68
580.66	2211.76
581.01	2206.91
581.36	2202.17
581.71	2198.08
582.06	2193.71
582.42	2189.18
582.77	2184.00
583.12	2179.46
583.47	2174.77
583.82	2169.76
584.17	2164.60
584.53	2159.17
584.88	2153.72
585.23	2148.09
585.58	2142.61
585.93	2137.15
586.28	2132.48
586.63	2127.41
586.98	2122.32
587.34	2117.62
587.69	2112.68
588.04	2107.42
588.39	2101.80
588.74	2095.41
589.09	2089.45
589.44	2082.68
589.79	2076.82
590.14	2071.35
590.49	2064.87
590.84	2058.64
591.19	2052.72
591.54	2046.34
591.89	2038.98
592.25	2032.10
592.60	2025.00
592.95	2017.41
593.30	2010.04
593.65	2002.61
594.00	1995.66
594.35	1988.56
594.70	1980.58
595.05	1973.49
595.40	1966.23
595.75	1958.76
596.10	1952.64
596.45	1945.82
596.80	1939.84
597.15	1933.16
597.50	1925.95
597.85	1919.55
598.19	1912.91
598.54	1905.72
598.89	1899.20
599.24	1893.36
599.59	1886.82
599.94	1880.65
600.29	1874.53
600.64	1868.02
600.99	1860.46
601.34	1853.72
601.69	1846.89
602.04	1840.09
602.39	1832.85
602.74	1826.13
603.08	1819.54
603.43	1812.66
603.78	1805.43
604.13	1798.19
604.48	1790.78
604.83	1783.91
605.18	1776.97
605.53	1768.99
605.87	1761.08
606.22	1753.82
606.57	1745.87
606.92	1738.54
607.27	1731.33
607.62	1724.36
607.96	1717.07
608.31	1710.62
608.66	1703.07
609.01	1695.37
609.36	1687.79
609.70	1679.70
610.05	1671.58
610.40	1663.72
610.75	1655.48
611.10	1647.80
611.44	1639.43
611.79	1631.55
612.14	1622.97
612.49	1613.90
612.83	1605.53
613.18	1597.41
613.53	1589.35
613.88	1580.76
614.22	1572.48
614.57	1563.88
614.92	1555.83
615.27	1548.33
615.61	1539.81
615.96	1531.78
616.31	1524.22
616.65	1516.78
617.00	1509.27
617.35	1501.66
617.70	1493.41
618.04	1485.01
618.39	1476.85
618.74	1469.22
619.08	1460.95
619.43	1453.40
619.78	1446.49
620.12	1439.37
620.47	1431.78
620.82	1423.66
621.16	1416.33
621.51	1408.69
621.85	1401.23
622.20	1392.62
622.55	1384.20
622.89	1376.41
623.24	1368.80
623.59	1361.38
623.93	1353.93
624.28	1346.68
624.62	1339.07
624.97	1331.88
625.32	1324.94
625.66	1317.89
626.01	1310.72
626.35	1303.30
626.70	1295.60
627.04	1287.75
627.39	1279.95
627.73	1272.61
628.08	1265.63
628.43	1258.27
628.77	1250.95
629.12	1243.26
629.46	1236.17
629.81	1228.87
630.15	1221.71
630.50	1214.22
630.84	1205.98
631.19	1198.05
631.53	1190.50
631.88	1183.08
632.22	1175.48
632.57	1168.35
632.91	1160.79
633.26	1153.30
633.60	1145.79
633.95	1138.56
634.29	1131.60
634.64	1124.80
634.98	1117.41
635.32	1110.30
635.67	1103.79
636.01	1097.08
636.36	1090.31
636.70	1083.83
637.05	1077.26
637.39	1070.76
637.73	1064.26
638.08	1058.37
638.42	1052.34
638.77	1045.87
639.11	1039.20
639.45	1032.75
639.80	1026.01
640.14	1019.60
640.49	1013.12
640.83	1006.95
641.17	1000.70
641.52	994.38
641.86	987.91
642.20	982.04
642.55	975.60
642.89	969.06
643.23	962.55
643.58	956.79
643.92	950.60
644.26	944.44
644.61	938.43
644.95	932.40
645.29	925.89
645.64	919.20
645.98	912.86
646.32	907.12
646.66	901.21
647.01	895.30
647.35	889.54
647.69	883.64
648.04	877.97
648.38	872.19
648.72	866.03
649.06	860.07
649.41	854.33
649.75	848.42
650.09	842.45
650.43	836.64
650.78	830.38
651.12	824.33
651.46	818.62
651.80	812.88
652.14	807.50
652.49	802.11
652.83	796.92
653.17	791.20
653.51	785.44
653.85	779.97
654.20	774.43
654.54	768.47
654.88	762.75
655.22	756.95
655.56	751.28
655.90	745.96
656.25	740.68
656.59	735.26
656.93	730.22
657.27	725.10
657.61	719.65
657.95	714.60
658.29	709.61
658.64	704.38
658.98	699.02
659.32	693.55
659.66	688.35
660.00	683.01
660.34	678.15
660.68	673.22
661.02	668.22
661.36	663.46
661.70	659.01
662.05	654.71
662.39	650.34
662.73	645.84
663.07	641.41
663.41	636.94
663.75	632.40
664.09	627.76
664.43	623.31
664.77	619.23
665.11	614.98
665.45	610.84
665.79	606.79
666.13	602.64
666.47	598.54
666.81	594.37
667.15	590.29
667.49	586.31
667.83	582.45
668.17	578.53
668.51	574.47
668.85	570.46
669.19	566.59
669.53	562.80
669.87	559.00
670.21	555.35
670.55	551.69
670.89	548.22
671.23	544.77
671.57	541.24
671.91	537.63
672.25	534.12
672.58	530.58
672.92	527.10
673.26	524.00
673.60	520.84
673.94	517.71
674.28	514.77
674.62	511.80
674.96	508.70
675.30	505.77
675.64	502.84
675.97	499.99
676.31	497.11
676.65	494.16
676.99	491.46
677.33	488.59
677.67	485.79
678.01	482.80
678.34	479.85
678.68	477.01
679.02	474.25
679.36	471.45
679.70	468.72
680.04	465.95
680.37	463.07
680.71	460.24
681.05	457.59
681.39	454.91
681.73	452.25
682.06	449.77
682.40	447.22
682.74	444.63
683.08	442.08
683.42	439.45
683.75	436.92
684.09	434.34
684.43	431.79
684.77	429.37
685.10	427.00
685.44	424.72
685.78	422.46
686.12	420.15
686.45	417.83
686.79	415.49
687.13	413.32
687.46	411.10
687.80	408.99
688.14	406.76
688.48	404.68
688.81	402.47
689.15	400.25
689.49	398.09
689.82	396.05
690.16	393.96
690.50	392.02
690.83	390.10
691.17	388.08
691.51	386.22
691.84	384.28
692.18	382.35
692.52	380.28
692.85	378.34
693.19	376.45
693.52	374.68
693.86	372.88
694.20	371.10
694.53	369.33
694.87	367.45
695.21	365.68
695.54	363.80
695.88	362.07
696.21	360.35
696.55	358.64
696.88	356.90
697.22	355.26
697.56	353.63
697.89	351.95
698.23	350.34
698.56	348.71
698.90	347.18
699.23	345.54
699.57	344.02
699.90	342.46
700.24	340.93
700.58	339.42
700.91	337.94
701.25	336.46
701.58	335.10
701.92	333.75
702.25	332.35
702.59	331.03
702.92	329.70
703.26	328.41
703.59	327.15
703.93	325.98
704.26	324.73
704.60	323.46
704.93	322.19
705.26	320.97
705.60	319.83
705.93	318.65
706.27	317.63
706.60	316.59
706.94	315.55
707.27	314.46
707.61	313.36
707.94	312.31
708.27	311.22
708.61	310.12
708.94	309.08
709.28	308.18
709.61	307.22
709.94	306.30
710.28	305.27
710.61	304.30
710.95	303.23
711.28	302.34
711.61	301.37
711.95	300.48
712.28	299.52
712.61	298.50
712.95	297.56
713.28	296.64
713.61	295.75
713.95	294.81
714.28	293.95
714.61	293.09
714.95	292.27
715.28	291.41
715.61	290.53
715.95	289.72
716.28	288.83
716.61	287.95
716.95	287.09
717.28	286.36
717.61	285.60
717.94	284.91
718.28	284.10
718.61	283.36
718.94	282.65
719.27	282.01
719.61	281.33
719.94	280.68
720.27	279.97
720.60	279.26
720.94	278.60
721.27	278.00
721.60	277.41
721.93	276.80
722.27	276.28
722.60	275.68
722.93	275.04
723.26	274.51
723.59	273.96
723.93	273.43
724.26	272.86
724.59	272.27
724.92	271.70
725.25	271.18
725.59	270.68
725.92	270.15
726.25	269.57
726.58	269.07
726.91	268.55
727.24	268.05
727.57	267.58
727.91	267.12
728.24	266.65
728.57	266.17
728.90	265.68
729.23	265.15
729.56	264.74
729.89	264.31
730.22	263.79
730.55	263.31
730.89	262.81
731.22	262.34
731.55	261.86
731.88	261.42
732.21	261.00
732.54	260.57
732.87	260.18
733.20	259.81
733.53	259.43
733.86	259.08
734.19	258.71
734.52	258.33
734.85	258.00
735.18	257.58
735.51	257.20
735.84	256.86
736.17	256.51
736.50	256.11
736.83	255.87
737.16	255.56
737.49	255.24
737.82	254.96
738.15	254.66
738.48	254.35
738.81	254.00
739.14	253.66
739.47	253.32
739.80	253.02
740.13	252.72
740.46	252.38
740.79	252.08
741.12	251.78
741.45	251.49
741.78	251.16
742.11	250.89
742.44	250.56
742.77	250.27
743.10	249.96
743.43	249.68
743.75	249.31
744.08	249.20
744.41	248.93
744.74	248.66
745.07	248.38
745.40	248.15
745.73	247.98
746.06	247.72
746.39	247.46
746.71	247.18
747.04	246.88
747.37	246.67
747.70	246.42
748.03	246.16
748.36	245.94
748.68	245.69
749.01	245.44
749.34	245.24
749.67	245.03
750.00	244.81
750.33	244.65
750.65	244.46
750.98	244.08
751.31	243.88
751.64	243.64
751.97	243.51
752.29	243.30
752.62	243.02
752.95	242.83
753.28	242.62
753.60	242.45
753.93	242.32
754.26	242.12
754.59	241.91
754.91	241.73
755.24	241.54
755.57	241.33
755.90	241.17
756.22	240.98
756.55	240.76
756.88	240.58
757.20	240.36
757.53	240.13
757.86	239.98
758.19	239.80
758.51	239.61
758.84	239.38
759.17	239.22
759.49	239.08
759.82	238.94
760.15	238.79
760.47	238.61
760.80	238.44
761.13	238.28
761.45	238.09
761.78	237.93
762.11	237.72
762.43	237.55
762.76	237.41
763.08	237.27
763.41	237.14
763.74	237.00
764.06	236.84
764.39	236.73
764.71	236.61
765.04	236.49
765.37	236.36
765.69	236.24
766.02	236.09
766.34	235.94
766.67	235.76
767.00	235.66
767.32	235.55
767.65	235.45
767.97	235.34
768.30	235.25
768.62	235.10
768.95	235.00
769.27	234.90
769.60	234.80
769.92	234.68
770.25	234.56
770.57	234.46
770.90	234.36
771.22	234.23
771.55	234.11
771.87	234.01
772.20	233.93
772.52	233.92
772.85	233.96
773.17	233.88
773.50	233.80
773.82	233.72
774.15	233.61
774.47	233.47
774.80	233.37
775.12	233.33
775.45	233.26
775.77	233.19
776.09	233.11
776.42	233.04
776.74	232.99
777.07	232.92
777.39	232.83
777.72	232.74
778.04	232.67
778.36	232.59
778.69	232.51
779.01	232.45
779.33	232.31
779.66	232.15
779.98	232.07
780.31	232.01
780.63	232.00
780.95	231.99
781.28	231.91
781.60	231.84
781.92	231.78
782.25	231.74
782.57	231.70
782.89	231.66
783.22	231.58
783.54	231.54
783.86	231.50
784.19	231.45
784.51	231.43
784.83	231.40
785.16	231.33
785.48	231.30
785.80	231.26
786.12	231.22
786.45	231.20
786.77	231.20
787.09	231.17
