SpectraSuite Data File
++++++++++++++++++++++++++++++++++++
Date: Fri Feb 01 17:54:42 EST 2013
User: group
Dark Spectrum Present: No
Reference Spectrum Present: No
Number of Sampled Component Spectra: 1
Spectrometers: USB2E7196
Integration Time (usec): 35000 (USB2E7196)
Spectra Averaged: 100 (USB2E7196)
Boxcar Smoothing: 10 (USB2E7196)
Correct for Electrical Dark: No (USB2E7196)
Strobe/Lamp Enabled: No (USB2E7196)
Correct for Detector Non-linearity: No (USB2E7196)
Correct for Stray Light: No (USB2E7196)
Number of Pixels in Processed Spectrum: 2048
>>>>>Begin Processed Spectral Data<<<<<
339.09	0.00
339.48	213.15
339.86	214.27
340.24	215.11
340.63	217.00
341.01	219.79
341.39	219.86
341.78	221.00
342.16	222.09
342.54	222.85
342.93	211.25
343.31	221.93
343.69	222.46
344.07	222.95
344.46	223.40
344.84	223.77
345.22	224.04
345.60	224.26
345.99	224.43
346.37	224.56
346.75	224.67
347.13	224.79
347.52	224.83
347.90	224.92
348.28	224.95
348.66	224.95
349.05	224.91
349.43	224.93
349.81	225.01
350.19	225.06
350.57	225.10
350.96	225.16
351.34	225.27
351.72	225.37
352.10	225.45
352.48	225.52
352.87	225.58
353.25	225.63
353.63	225.71
354.01	225.78
354.39	225.87
354.77	225.92
355.15	226.02
355.54	226.07
355.92	226.10
356.30	226.17
356.68	226.32
357.06	226.43
357.44	226.50
357.82	226.53
358.20	226.59
358.58	226.67
358.97	226.72
359.35	226.79
359.73	226.83
360.11	226.87
360.49	226.94
360.87	227.01
361.25	227.06
361.63	227.15
362.01	227.22
362.39	227.21
362.77	227.29
363.15	227.29
363.53	227.34
363.91	227.37
364.29	227.39
364.67	227.34
365.05	227.36
365.43	227.36
365.81	227.37
366.19	227.43
366.57	227.47
366.95	227.47
367.33	227.43
367.71	227.45
368.09	227.48
368.47	227.44
368.85	227.39
369.23	227.35
369.61	227.28
369.99	227.30
370.37	227.31
370.75	227.33
371.13	227.29
371.51	227.23
371.89	227.23
372.27	227.17
372.65	227.14
373.03	227.08
373.41	227.06
373.78	227.03
374.16	226.91
374.54	226.83
374.92	226.79
375.30	226.72
375.68	226.61
376.06	226.54
376.44	226.47
376.82	226.43
377.19	226.40
377.57	226.33
377.95	226.19
378.33	226.13
378.71	225.99
379.09	225.93
379.47	225.88
379.84	225.78
380.22	225.72
380.60	225.63
380.98	225.57
381.36	225.47
381.73	225.40
382.11	225.34
382.49	225.26
382.87	225.13
383.25	225.07
383.62	225.15
384.00	225.06
384.38	225.02
384.76	224.99
385.13	224.98
385.51	224.93
385.89	224.87
386.27	224.82
386.64	224.78
387.02	224.73
387.40	224.68
387.78	224.64
388.15	224.64
388.53	224.62
388.91	224.60
389.29	224.59
389.66	224.55
390.04	224.54
390.42	224.54
390.79	224.57
391.17	224.58
391.55	224.45
391.92	224.47
392.30	224.46
392.68	224.39
393.05	224.41
393.43	224.42
393.81	224.45
394.18	224.46
394.56	224.48
394.94	224.52
395.31	224.51
395.69	224.58
396.06	224.58
396.44	224.58
396.82	224.57
397.19	224.66
397.57	224.73
397.95	224.80
398.32	224.81
398.70	224.86
399.07	224.93
399.45	224.98
399.82	225.07
400.20	225.14
400.58	225.25
400.95	225.22
401.33	225.32
401.70	225.47
402.08	225.56
402.45	225.64
402.83	225.75
403.20	225.87
403.58	225.95
403.95	226.08
404.33	226.23
404.71	226.40
405.08	226.56
405.46	226.67
405.83	226.82
406.21	227.01
406.58	227.17
406.96	227.32
407.33	227.55
407.70	227.75
408.08	228.05
408.45	228.31
408.83	228.62
409.20	228.88
409.58	229.09
409.95	229.41
410.33	229.76
410.70	230.05
411.08	230.46
411.45	230.89
411.82	231.28
412.20	231.72
412.57	232.24
412.95	232.64
413.32	233.15
413.69	233.67
414.07	234.24
414.44	234.88
414.82	235.49
415.19	236.21
415.56	236.93
415.94	237.64
416.31	238.47
416.68	239.30
417.06	240.24
417.43	241.15
417.81	242.17
418.18	243.18
418.55	244.27
418.93	245.39
419.30	246.56
419.67	247.82
420.04	249.09
420.42	250.38
420.79	251.95
421.16	253.50
421.54	255.08
421.91	256.70
422.28	258.34
422.66	260.16
423.03	261.87
423.40	263.63
423.77	265.54
424.15	267.42
424.52	269.44
424.89	271.55
425.26	273.62
425.64	275.55
426.01	277.67
426.38	279.92
426.75	282.16
427.13	284.47
427.50	286.86
427.87	289.39
428.24	291.89
428.61	294.25
428.99	296.81
429.36	299.61
429.73	302.33
430.10	305.04
430.47	307.77
430.85	310.64
431.22	313.62
431.59	316.73
431.96	319.74
432.33	323.01
432.70	326.23
433.08	330.00
433.45	333.50
433.82	336.99
434.19	340.82
434.56	344.57
434.93	348.09
435.30	351.55
435.68	355.41
436.05	359.18
436.42	362.89
436.79	366.28
437.16	369.87
437.53	373.70
437.90	377.43
438.27	381.06
438.64	384.78
439.01	388.18
439.38	391.18
439.75	394.10
440.13	397.43
440.50	400.49
440.87	402.98
441.24	405.59
441.61	408.45
441.98	410.47
442.35	412.88
442.72	415.38
443.09	417.82
443.46	419.12
443.83	420.01
444.20	420.72
444.57	421.84
444.94	422.24
445.31	422.69
445.68	423.15
446.05	423.29
446.42	422.80
446.79	422.33
447.16	421.76
447.53	421.35
447.90	419.84
448.27	418.36
448.64	416.22
449.01	414.73
449.37	412.13
449.74	409.60
450.11	406.60
450.48	403.28
450.85	399.90
451.22	397.08
451.59	394.30
451.96	391.73
452.33	388.30
452.70	385.15
453.07	381.38
453.43	377.57
453.80	373.91
454.17	370.37
454.54	366.99
454.91	363.37
455.28	359.80
455.65	356.47
456.02	353.15
456.38	350.29
456.75	346.73
457.12	343.73
457.49	340.77
457.86	337.86
458.23	335.37
458.59	332.65
458.96	329.84
459.33	327.36
459.70	324.80
460.07	322.76
460.43	320.48
460.80	318.29
461.17	316.34
461.54	314.34
461.91	312.41
462.27	310.44
462.64	308.76
463.01	306.89
463.38	305.12
463.74	303.33
464.11	301.75
464.48	300.39
464.85	298.86
465.21	297.66
465.58	296.42
465.95	294.97
466.32	293.72
466.68	292.54
467.05	291.30
467.42	290.10
467.78	288.82
468.15	287.62
468.52	286.71
468.88	285.55
469.25	284.47
469.62	283.59
469.98	282.67
470.35	281.80
470.72	281.00
471.08	280.11
471.45	279.35
471.82	278.59
472.18	277.77
472.55	277.23
472.92	276.48
473.28	275.85
473.65	275.21
474.02	274.61
474.38	274.07
474.75	273.65
475.11	273.17
475.48	272.81
475.85	272.48
476.21	272.12
476.58	271.84
476.94	271.59
477.31	271.35
477.67	271.10
478.04	270.93
478.41	270.80
478.77	270.80
479.14	270.63
479.50	270.60
479.87	270.56
480.23	270.54
480.60	270.59
480.96	270.63
481.33	270.83
481.69	270.97
482.06	271.12
482.42	271.23
482.79	271.44
483.15	271.70
483.52	272.09
483.88	272.40
484.25	272.77
484.61	273.17
484.98	273.56
485.34	274.12
485.71	274.68
486.07	275.25
486.44	275.81
486.80	276.53
487.17	277.25
487.53	278.11
487.90	279.02
488.26	279.97
488.62	280.96
488.99	281.98
489.35	283.04
489.72	284.20
490.08	285.49
490.44	286.77
490.81	288.14
491.17	289.50
491.54	291.05
491.90	292.63
492.26	294.39
492.63	296.24
492.99	298.07
493.36	300.05
493.72	302.24
494.08	304.46
494.45	306.82
494.81	309.30
495.17	311.86
495.54	314.51
495.90	317.35
496.26	320.31
496.63	323.42
496.99	326.74
497.35	330.16
497.72	333.77
498.08	337.52
498.44	341.43
498.80	345.57
499.17	349.83
499.53	354.27
499.89	358.87
500.26	363.68
500.62	368.63
500.98	373.86
501.34	379.17
501.71	384.83
502.07	390.59
502.43	396.59
502.79	402.75
503.16	409.20
503.52	415.82
503.88	422.60
504.24	429.60
504.60	436.85
504.97	444.42
505.33	452.15
505.69	460.35
506.05	468.61
506.41	476.92
506.78	485.58
507.14	494.50
507.50	503.73
507.86	513.21
508.22	522.99
508.59	532.80
508.95	542.97
509.31	553.37
509.67	564.08
510.03	575.02
510.39	586.28
510.75	597.74
511.12	609.43
511.48	621.44
511.84	633.71
512.20	646.02
512.56	658.80
512.92	671.74
513.28	684.89
513.64	698.21
514.00	711.92
514.37	725.78
514.73	739.85
515.09	753.79
515.45	768.10
515.81	782.73
516.17	797.70
516.53	812.98
516.89	828.28
517.25	843.57
517.61	859.14
517.97	874.72
518.33	890.32
518.69	906.28
519.05	922.46
519.41	938.78
519.77	955.58
520.13	972.30
520.49	989.15
520.85	1005.74
521.21	1022.72
521.57	1040.33
521.93	1057.48
522.29	1075.19
522.65	1092.92
523.01	1110.53
523.37	1128.09
523.73	1145.75
524.09	1163.37
524.45	1181.11
524.81	1199.28
525.17	1217.52
525.53	1236.01
525.89	1254.53
526.25	1272.98
526.61	1291.00
526.97	1309.51
527.33	1327.68
527.68	1345.86
528.04	1364.00
528.40	1382.32
528.76	1401.29
529.12	1419.62
529.48	1438.33
529.84	1456.08
530.20	1474.60
530.56	1493.37
530.91	1512.59
531.27	1531.35
531.63	1549.52
531.99	1568.01
532.35	1585.90
532.71	1603.72
533.07	1621.92
533.42	1639.76
533.78	1657.80
534.14	1676.01
534.50	1693.30
534.86	1711.15
535.21	1728.44
535.57	1746.32
535.93	1763.88
536.29	1780.67
536.65	1797.62
537.00	1814.47
537.36	1831.96
537.72	1848.46
538.08	1865.19
538.44	1880.98
538.79	1896.84
539.15	1912.60
539.51	1928.49
539.87	1944.96
540.22	1960.80
540.58	1976.49
540.94	1991.90
541.29	2006.65
541.65	2021.50
542.01	2036.77
542.37	2051.24
542.72	2065.67
543.08	2079.66
543.44	2094.33
543.79	2107.62
544.15	2120.87
544.51	2134.53
544.87	2147.57
545.22	2160.56
545.58	2172.75
545.94	2184.75
546.29	2196.82
546.65	2208.84
547.01	2220.31
547.36	2231.05
547.72	2241.62
548.07	2251.71
548.43	2261.87
548.79	2271.78
549.14	2281.33
549.50	2290.40
549.86	2299.99
550.21	2309.30
550.57	2318.32
550.92	2326.75
551.28	2335.82
551.64	2344.73
551.99	2353.23
552.35	2361.43
552.70	2369.43
553.06	2377.38
553.41	2385.34
553.77	2392.87
554.13	2400.67
554.48	2408.34
554.84	2415.78
555.19	2422.56
555.55	2429.43
555.90	2435.50
556.26	2442.46
556.61	2448.86
556.97	2455.06
557.32	2461.00
557.68	2466.76
558.03	2472.62
558.39	2477.67
558.74	2483.72
559.10	2489.14
559.45	2494.14
559.81	2499.61
560.16	2504.83
560.52	2509.44
560.87	2514.36
561.23	2518.54
561.58	2522.66
561.94	2526.64
562.29	2529.82
562.64	2534.16
563.00	2537.89
563.35	2542.67
563.71	2547.04
564.06	2551.29
564.42	2555.50
564.77	2559.08
565.12	2562.61
565.48	2565.72
565.83	2568.92
566.19	2571.61
566.54	2573.35
566.89	2575.68
567.25	2577.36
567.60	2579.62
567.96	2582.39
568.31	2584.03
568.66	2586.05
569.02	2587.59
569.37	2588.72
569.72	2590.67
570.08	2591.52
570.43	2592.31
570.78	2592.72
571.14	2591.67
571.49	2590.92
571.84	2591.01
572.20	2590.45
572.55	2589.86
572.90	2588.56
573.26	2587.69
573.61	2585.88
573.96	2584.81
574.31	2582.06
574.67	2579.37
575.02	2575.80
575.37	2572.35
575.72	2568.92
576.08	2565.61
576.43	2562.22
576.78	2558.66
577.13	2555.57
577.49	2552.40
577.84	2549.04
578.19	2545.06
578.54	2541.62
578.90	2537.54
579.25	2531.78
579.60	2526.79
579.95	2521.60
580.30	2516.35
580.66	2510.75
581.01	2505.74
581.36	2500.34
581.71	2496.02
582.06	2491.51
582.42	2487.15
582.77	2481.69
583.12	2476.72
583.47	2471.96
583.82	2466.79
584.17	2461.29
584.53	2455.31
584.88	2449.29
585.23	2443.12
585.58	2437.08
585.93	2430.99
586.28	2425.47
586.63	2420.16
586.98	2414.41
587.34	2409.22
587.69	2403.80
588.04	2398.26
588.39	2391.96
588.74	2384.87
589.09	2377.95
589.44	2370.40
589.79	2363.23
590.14	2356.96
590.49	2349.61
590.84	2342.29
591.19	2335.66
591.54	2328.39
591.89	2320.36
592.25	2312.75
592.60	2304.61
592.95	2296.40
593.30	2288.18
593.65	2279.72
594.00	2271.64
594.35	2263.57
594.70	2254.34
595.05	2246.53
595.40	2238.10
595.75	2229.71
596.10	2222.77
596.45	2215.24
596.80	2208.24
597.15	2200.89
597.50	2193.06
597.85	2185.60
598.19	2178.12
598.54	2170.17
598.89	2162.47
599.24	2155.58
599.59	2148.20
599.94	2140.97
600.29	2133.61
600.64	2125.92
600.99	2117.65
601.34	2109.89
601.69	2101.78
602.04	2094.20
602.39	2085.59
602.74	2077.92
603.08	2070.15
603.43	2062.28
603.78	2053.84
604.13	2045.41
604.48	2037.25
604.83	2029.25
605.18	2021.51
605.53	2012.36
605.87	2003.05
606.22	1994.63
606.57	1985.43
606.92	1976.61
607.27	1968.47
607.62	1960.55
607.96	1952.28
608.31	1944.62
608.66	1935.89
609.01	1927.11
609.36	1918.30
609.70	1909.20
610.05	1899.83
610.40	1891.01
610.75	1881.42
611.10	1872.58
611.44	1862.78
611.79	1853.23
612.14	1843.01
612.49	1832.25
612.83	1822.42
613.18	1812.90
613.53	1803.59
613.88	1793.71
614.22	1784.11
614.57	1773.79
614.92	1764.37
615.27	1755.60
615.61	1745.95
615.96	1736.44
616.31	1727.41
616.65	1718.75
617.00	1709.80
617.35	1700.79
617.70	1691.13
618.04	1681.21
618.39	1671.49
618.74	1662.64
619.08	1653.04
619.43	1644.14
619.78	1635.98
620.12	1627.76
620.47	1619.01
620.82	1609.31
621.16	1600.44
621.51	1591.56
621.85	1582.68
622.20	1572.79
622.55	1562.98
622.89	1553.76
623.24	1544.79
623.59	1536.13
623.93	1527.23
624.28	1518.65
624.62	1509.81
624.97	1501.25
625.32	1493.22
625.66	1484.87
626.01	1476.47
626.35	1467.98
626.70	1458.95
627.04	1449.97
627.39	1440.66
627.73	1431.90
628.08	1423.80
628.43	1415.46
628.77	1406.99
629.12	1398.32
629.46	1389.80
629.81	1380.90
630.15	1372.36
630.50	1363.69
630.84	1354.25
631.19	1344.96
631.53	1336.23
631.88	1327.38
632.22	1318.60
632.57	1310.00
632.91	1301.21
633.26	1292.62
633.60	1283.85
633.95	1275.45
634.29	1267.18
634.64	1259.37
634.98	1250.86
635.32	1242.59
635.67	1234.75
636.01	1226.90
636.36	1219.01
636.70	1211.39
637.05	1203.81
637.39	1196.38
637.73	1188.94
638.08	1182.00
638.42	1175.05
638.77	1167.55
639.11	1159.97
639.45	1152.41
639.80	1144.78
640.14	1137.42
640.49	1129.85
640.83	1122.54
641.17	1115.47
641.52	1108.17
641.86	1100.73
642.20	1093.97
642.55	1086.60
642.89	1079.13
643.23	1071.40
643.58	1064.72
643.92	1057.67
644.26	1050.81
644.61	1043.69
644.95	1036.73
645.29	1029.19
645.64	1021.43
645.98	1014.06
646.32	1007.11
646.66	1000.30
647.01	993.50
647.35	986.99
647.69	980.11
648.04	973.57
648.38	966.84
648.72	960.05
649.06	953.13
649.41	946.32
649.75	939.55
650.09	932.82
650.43	926.30
650.78	919.26
651.12	912.35
651.46	905.71
651.80	899.21
652.14	892.98
652.49	886.83
652.83	880.91
653.17	874.50
653.51	868.12
653.85	861.79
654.20	855.46
654.54	848.49
654.88	841.95
655.22	835.28
655.56	828.66
655.90	822.25
656.25	816.18
656.59	810.00
656.93	804.09
657.27	798.19
657.61	791.92
657.95	786.01
658.29	780.17
658.64	774.09
658.98	767.96
659.32	761.70
659.66	755.75
660.00	749.75
660.34	744.05
660.68	738.36
661.02	732.53
661.36	727.14
661.70	722.03
662.05	717.05
662.39	712.16
662.73	707.08
663.07	702.04
663.41	696.96
663.75	691.87
664.09	686.63
664.43	681.54
664.77	676.88
665.11	672.04
665.45	667.16
665.79	662.49
666.13	657.75
666.47	653.02
666.81	648.29
667.15	643.53
667.49	639.03
667.83	634.63
668.17	630.12
668.51	625.44
668.85	620.72
669.19	616.18
669.53	611.75
669.87	607.32
670.21	603.11
670.55	598.90
670.89	594.86
671.23	590.93
671.57	586.91
671.91	582.86
672.25	578.74
672.58	574.80
672.92	570.90
673.26	567.19
673.60	563.46
673.94	559.87
674.28	556.44
674.62	553.09
674.96	549.53
675.30	546.26
675.64	542.92
675.97	539.71
676.31	536.49
676.65	533.13
676.99	530.03
677.33	526.73
677.67	523.52
678.01	520.08
678.34	516.74
678.68	513.40
679.02	510.13
679.36	507.01
679.70	503.92
680.04	500.70
680.37	497.50
680.71	494.35
681.05	491.34
681.39	488.26
681.73	485.19
682.06	482.31
682.40	479.40
682.74	476.43
683.08	473.54
683.42	470.50
683.75	467.65
684.09	464.69
684.43	461.86
684.77	459.02
685.10	456.25
685.44	453.61
685.78	450.97
686.12	448.38
686.45	445.73
686.79	443.10
687.13	440.60
687.46	438.04
687.80	435.59
688.14	432.97
688.48	430.55
688.81	427.96
689.15	425.43
689.49	422.92
689.82	420.54
690.16	418.09
690.50	415.89
690.83	413.67
691.17	411.35
691.51	409.12
691.84	407.00
692.18	404.85
692.52	402.55
692.85	400.31
693.19	398.14
693.52	396.03
693.86	393.94
694.20	391.84
694.53	389.81
694.87	387.68
695.21	385.68
695.54	383.59
695.88	381.62
696.21	379.65
696.55	377.73
696.88	375.76
697.22	373.87
697.56	371.93
697.89	369.98
698.23	368.15
698.56	366.35
698.90	364.50
699.23	362.60
699.57	360.83
699.90	359.07
700.24	357.27
700.58	355.52
700.91	353.82
701.25	352.17
701.58	350.64
701.92	349.06
702.25	347.43
702.59	345.86
702.92	344.39
703.26	342.90
703.59	341.39
703.93	340.09
704.26	338.68
704.60	337.26
704.93	335.82
705.26	334.38
705.60	332.99
705.93	331.63
706.27	330.39
706.60	329.15
706.94	327.91
707.27	326.62
707.61	325.38
707.94	324.18
708.27	322.89
708.61	321.58
708.94	320.40
709.28	319.28
709.61	318.21
709.94	317.08
710.28	315.93
710.61	314.77
710.95	313.49
711.28	312.41
711.61	311.31
711.95	310.26
712.28	309.18
712.61	308.07
712.95	307.04
713.28	306.02
713.61	304.97
713.95	303.90
714.28	302.92
714.61	301.94
714.95	300.94
715.28	299.99
715.61	299.02
715.95	298.07
716.28	297.07
716.61	296.04
716.95	295.05
717.28	294.18
717.61	293.32
717.94	292.49
718.28	291.55
718.61	290.67
718.94	289.88
719.27	289.15
719.61	288.40
719.94	287.61
720.27	286.81
720.60	286.06
720.94	285.37
721.27	284.70
721.60	284.00
721.93	283.33
722.27	282.70
722.60	282.05
722.93	281.41
723.26	280.79
723.59	280.19
723.93	279.57
724.26	278.92
724.59	278.27
724.92	277.65
725.25	277.10
725.59	276.52
725.92	275.91
726.25	275.28
726.58	274.69
726.91	274.10
727.24	273.52
727.57	272.93
727.91	272.32
728.24	271.76
728.57	271.20
728.90	270.63
729.23	270.06
729.56	269.55
729.89	268.98
730.22	268.45
730.55	267.89
730.89	267.33
731.22	266.81
731.55	266.29
731.88	265.77
732.21	265.29
732.54	264.81
732.87	264.31
733.20	263.87
733.53	263.38
733.86	262.96
734.19	262.57
734.52	262.14
734.85	261.79
735.18	261.30
735.51	260.85
735.84	260.45
736.17	260.05
736.50	259.57
736.83	259.27
737.16	258.82
737.49	258.41
737.82	258.02
738.15	257.65
738.48	257.28
738.81	256.89
739.14	256.49
739.47	256.11
739.80	255.76
740.13	255.41
740.46	255.04
740.79	254.68
741.12	254.28
741.45	253.93
741.78	253.54
742.11	253.22
742.44	252.86
742.77	252.52
743.10	252.16
743.43	251.82
743.75	251.39
744.08	251.23
744.41	250.93
744.74	250.65
745.07	250.32
745.40	250.05
745.73	249.78
746.06	249.48
746.39	249.15
746.71	248.81
747.04	248.46
747.37	248.17
747.70	247.89
748.03	247.60
748.36	247.31
748.68	247.03
749.01	246.69
749.34	246.44
749.67	246.18
750.00	245.92
750.33	245.76
750.65	245.50
750.98	245.15
751.31	244.89
751.64	244.62
751.97	244.42
752.29	244.14
752.62	243.86
752.95	243.61
753.28	243.40
753.60	243.16
753.93	242.97
754.26	242.75
754.59	242.48
754.91	242.23
755.24	242.02
755.57	241.79
755.90	241.66
756.22	241.44
756.55	241.17
756.88	240.96
757.20	240.65
757.53	240.41
757.86	240.21
758.19	240.06
758.51	239.90
758.84	239.64
759.17	239.44
759.49	239.28
759.82	239.15
760.15	238.97
760.47	238.81
760.80	238.59
761.13	238.46
761.45	238.28
761.78	238.11
762.11	237.94
762.43	237.76
762.76	237.54
763.08	237.40
763.41	237.26
763.74	237.12
764.06	236.97
764.39	236.81
764.71	236.66
765.04	236.46
765.37	236.29
765.69	236.18
766.02	236.07
766.34	235.90
766.67	235.71
767.00	235.57
767.32	235.48
767.65	235.44
767.97	235.30
768.30	235.18
768.62	235.07
768.95	234.93
769.27	234.86
769.60	234.78
769.92	234.64
770.25	234.53
770.57	234.39
770.90	234.31
771.22	234.20
771.55	234.08
771.87	233.96
772.20	233.86
772.52	233.81
772.85	233.81
773.17	233.74
773.50	233.64
773.82	233.54
774.15	233.42
774.47	233.27
774.80	233.18
775.12	233.08
775.45	232.98
775.77	232.91
776.09	232.81
776.42	232.73
776.74	232.67
777.07	232.54
777.39	232.44
777.72	232.34
778.04	232.30
778.36	232.24
778.69	232.17
779.01	232.12
779.33	231.95
779.66	231.76
779.98	231.67
780.31	231.61
780.63	231.58
780.95	231.50
781.28	231.41
781.60	231.30
781.92	231.23
782.25	231.17
782.57	231.10
782.89	231.03
783.22	230.92
783.54	230.88
783.86	230.84
784.19	230.79
784.51	230.72
784.83	230.65
785.16	230.58
785.48	230.52
785.80	230.46
786.12	230.43
786.45	230.41
