SpectraSuite Data File
++++++++++++++++++++++++++++++++++++
Date: Fri Feb 01 17:55:58 EST 2013
User: group
Dark Spectrum Present: No
Reference Spectrum Present: No
Number of Sampled Component Spectra: 1
Spectrometers: USB2E7196
Integration Time (usec): 35000 (USB2E7196)
Spectra Averaged: 100 (USB2E7196)
Boxcar Smoothing: 10 (USB2E7196)
Correct for Electrical Dark: No (USB2E7196)
Strobe/Lamp Enabled: No (USB2E7196)
Correct for Detector Non-linearity: No (USB2E7196)
Correct for Stray Light: No (USB2E7196)
Number of Pixels in Processed Spectrum: 2048
>>>>>Begin Processed Spectral Data<<<<<
339.09	0.00
339.48	212.76
339.86	214.08
340.24	215.49
340.63	216.77
341.01	219.89
341.39	219.54
341.78	220.75
342.16	222.12
342.54	222.34
342.93	210.98
343.31	221.65
343.69	222.19
344.07	222.64
344.46	223.06
344.84	223.46
345.22	223.67
345.60	223.92
345.99	224.11
346.37	224.25
346.75	224.36
347.13	224.45
347.52	224.52
347.90	224.60
348.28	224.62
348.66	224.69
349.05	224.69
349.43	224.77
349.81	224.80
350.19	224.86
350.57	224.92
350.96	224.99
351.34	225.06
351.72	225.13
352.10	225.27
352.48	225.33
352.87	225.37
353.25	225.47
353.63	225.53
354.01	225.61
354.39	225.68
354.77	225.77
355.15	225.86
355.54	225.93
355.92	225.96
356.30	226.11
356.68	226.22
357.06	226.31
357.44	226.33
357.82	226.42
358.20	226.50
358.58	226.58
358.97	226.68
359.35	226.76
359.73	226.87
360.11	226.88
360.49	226.96
360.87	227.02
361.25	227.13
361.63	227.21
362.01	227.26
362.39	227.29
362.77	227.35
363.15	227.36
363.53	227.39
363.91	227.45
364.29	227.45
364.67	227.42
365.05	227.44
365.43	227.49
365.81	227.52
366.19	227.56
366.57	227.62
366.95	227.58
367.33	227.58
367.71	227.55
368.09	227.59
368.47	227.58
368.85	227.55
369.23	227.50
369.61	227.43
369.99	227.42
370.37	227.43
370.75	227.45
371.13	227.42
371.51	227.35
371.89	227.33
372.27	227.26
372.65	227.20
373.03	227.14
373.41	227.08
373.78	227.01
374.16	226.92
374.54	226.85
374.92	226.82
375.30	226.78
375.68	226.73
376.06	226.67
376.44	226.65
376.82	226.59
377.19	226.54
377.57	226.48
377.95	226.39
378.33	226.33
378.71	226.20
379.09	226.16
379.47	226.16
379.84	226.07
380.22	226.01
380.60	225.95
380.98	225.91
381.36	225.85
381.73	225.79
382.11	225.75
382.49	225.67
382.87	225.56
383.25	225.50
383.62	225.55
384.00	225.47
384.38	225.41
384.76	225.41
385.13	225.37
385.51	225.32
385.89	225.27
386.27	225.22
386.64	225.19
387.02	225.13
387.40	225.11
387.78	225.05
388.15	225.02
388.53	224.98
388.91	224.93
389.29	224.90
389.66	224.88
390.04	224.83
390.42	224.81
390.79	224.82
391.17	224.76
391.55	224.64
391.92	224.64
392.30	224.64
392.68	224.59
393.05	224.59
393.43	224.60
393.81	224.61
394.18	224.62
394.56	224.63
394.94	224.68
395.31	224.66
395.69	224.71
396.06	224.75
396.44	224.77
396.82	224.79
397.19	224.86
397.57	224.89
397.95	224.96
398.32	224.96
398.70	225.00
399.07	225.10
399.45	225.16
399.82	225.19
400.20	225.22
400.58	225.28
400.95	225.30
401.33	225.37
401.70	225.54
402.08	225.59
402.45	225.66
402.83	225.72
403.20	225.82
403.58	225.88
403.95	226.02
404.33	226.16
404.71	226.28
405.08	226.44
405.46	226.59
405.83	226.71
406.21	226.89
406.58	227.10
406.96	227.27
407.33	227.45
407.70	227.66
408.08	227.95
408.45	228.18
408.83	228.50
409.20	228.72
409.58	228.91
409.95	229.24
410.33	229.60
410.70	229.93
411.08	230.28
411.45	230.69
411.82	231.07
412.20	231.51
412.57	232.05
412.95	232.48
413.32	232.97
413.69	233.50
414.07	234.06
414.44	234.65
414.82	235.28
415.19	236.04
415.56	236.77
415.94	237.53
416.31	238.38
416.68	239.19
417.06	240.20
417.43	241.11
417.81	242.14
418.18	243.15
418.55	244.25
418.93	245.42
419.30	246.62
419.67	247.87
420.04	249.15
420.42	250.45
420.79	251.97
421.16	253.53
421.54	255.08
421.91	256.73
422.28	258.39
422.66	260.16
423.03	261.88
423.40	263.65
423.77	265.53
424.15	267.46
424.52	269.43
424.89	271.54
425.26	273.65
425.64	275.57
426.01	277.75
426.38	280.01
426.75	282.26
427.13	284.59
427.50	286.99
427.87	289.52
428.24	292.03
428.61	294.42
428.99	296.98
429.36	299.88
429.73	302.64
430.10	305.33
430.47	308.11
430.85	310.97
431.22	313.99
431.59	317.14
431.96	320.13
432.33	323.47
432.70	326.64
433.08	330.36
433.45	333.92
433.82	337.41
434.19	341.21
434.56	344.97
434.93	348.54
435.30	352.05
435.68	355.93
436.05	359.73
436.42	363.42
436.79	366.78
437.16	370.34
437.53	374.14
437.90	377.93
438.27	381.57
438.64	385.37
439.01	388.85
439.38	391.88
439.75	394.80
440.13	398.15
440.50	401.32
440.87	403.80
441.24	406.41
441.61	409.30
441.98	411.33
442.35	413.81
442.72	416.25
443.09	418.69
443.46	420.00
443.83	420.82
444.20	421.56
444.57	422.76
444.94	423.19
445.31	423.67
445.68	424.08
446.05	424.25
446.42	423.74
446.79	423.21
447.16	422.64
447.53	422.23
447.90	420.68
448.27	419.13
448.64	417.07
449.01	415.51
449.37	412.86
449.74	410.31
450.11	407.23
450.48	403.94
450.85	400.55
451.22	397.70
451.59	395.02
451.96	392.45
452.33	388.95
452.70	385.77
453.07	381.98
453.43	378.16
453.80	374.38
454.17	370.78
454.54	367.34
454.91	363.67
455.28	360.05
455.65	356.75
456.02	353.37
456.38	350.40
456.75	346.85
457.12	343.80
457.49	340.82
457.86	337.96
458.23	335.49
458.59	332.75
458.96	329.96
459.33	327.43
459.70	324.85
460.07	322.81
460.43	320.47
460.80	318.27
461.17	316.32
461.54	314.34
461.91	312.39
462.27	310.45
462.64	308.74
463.01	306.92
463.38	305.11
463.74	303.38
464.11	301.86
464.48	300.48
464.85	299.02
465.21	297.81
465.58	296.52
465.95	295.01
466.32	293.74
466.68	292.48
467.05	291.26
467.42	290.07
467.78	288.82
468.15	287.64
468.52	286.76
468.88	285.63
469.25	284.58
469.62	283.74
469.98	282.80
470.35	281.94
470.72	281.09
471.08	280.23
471.45	279.48
471.82	278.72
472.18	277.89
472.55	277.26
472.92	276.57
473.28	275.96
473.65	275.34
474.02	274.75
474.38	274.23
474.75	273.77
475.11	273.28
475.48	272.90
475.85	272.60
476.21	272.24
476.58	271.89
476.94	271.66
477.31	271.39
477.67	271.18
478.04	270.98
478.41	270.86
478.77	270.83
479.14	270.66
479.50	270.59
479.87	270.62
480.23	270.63
480.60	270.65
480.96	270.69
481.33	270.86
481.69	271.05
482.06	271.20
482.42	271.33
482.79	271.56
483.15	271.83
483.52	272.14
483.88	272.46
484.25	272.85
484.61	273.26
484.98	273.68
485.34	274.22
485.71	274.75
486.07	275.33
486.44	275.86
486.80	276.56
487.17	277.33
487.53	278.14
487.90	279.02
488.26	279.99
488.62	280.97
488.99	282.00
489.35	283.04
489.72	284.22
490.08	285.49
490.44	286.74
490.81	288.15
491.17	289.58
491.54	291.10
491.90	292.71
492.26	294.40
492.63	296.22
492.99	298.06
493.36	300.08
493.72	302.26
494.08	304.49
494.45	306.84
494.81	309.32
495.17	311.87
495.54	314.58
495.90	317.35
496.26	320.31
496.63	323.44
496.99	326.78
497.35	330.25
497.72	333.82
498.08	337.56
498.44	341.44
498.80	345.56
499.17	349.83
499.53	354.24
499.89	358.85
500.26	363.57
500.62	368.50
500.98	373.77
501.34	379.19
501.71	384.78
502.07	390.54
502.43	396.47
502.79	402.67
503.16	409.02
503.52	415.66
503.88	422.38
504.24	429.38
504.60	436.68
504.97	444.25
505.33	452.07
505.69	460.24
506.05	468.49
506.41	476.82
506.78	485.47
507.14	494.48
507.50	503.80
507.86	513.49
508.22	523.33
508.59	533.15
508.95	543.35
509.31	553.89
509.67	564.69
510.03	575.68
510.39	586.89
510.75	598.43
511.12	610.18
511.48	622.29
511.84	634.53
512.20	646.78
512.56	659.53
512.92	672.53
513.28	685.77
513.64	699.16
514.00	712.88
514.37	726.84
514.73	740.86
515.09	754.78
515.45	769.02
515.81	783.59
516.17	798.60
516.53	813.77
516.89	829.02
517.25	844.26
517.61	859.79
517.97	875.54
518.33	891.16
518.69	907.11
519.05	923.37
519.41	939.86
519.77	956.70
520.13	973.54
520.49	990.18
520.85	1006.91
521.21	1023.85
521.57	1041.49
521.93	1058.60
522.29	1076.40
522.65	1094.16
523.01	1111.80
523.37	1129.34
523.73	1147.00
524.09	1164.56
524.45	1182.38
524.81	1200.52
525.17	1218.95
525.53	1237.46
525.89	1256.07
526.25	1274.61
526.61	1292.62
526.97	1311.05
527.33	1329.19
527.68	1347.34
528.04	1365.58
528.40	1383.89
528.76	1402.96
529.12	1421.37
529.48	1440.06
529.84	1457.84
530.20	1476.38
530.56	1495.36
530.91	1514.75
531.27	1533.51
531.63	1551.97
531.99	1570.55
532.35	1588.62
532.71	1606.50
533.07	1624.72
533.42	1642.61
533.78	1660.67
534.14	1679.06
534.50	1696.34
534.86	1714.27
535.21	1731.64
535.57	1749.67
535.93	1767.25
536.29	1784.09
536.65	1801.16
537.00	1818.13
537.36	1835.64
537.72	1852.20
538.08	1868.69
538.44	1884.53
538.79	1900.52
539.15	1916.14
539.51	1931.93
539.87	1948.39
540.22	1964.19
540.58	1980.05
540.94	1995.47
541.29	2010.38
541.65	2025.15
542.01	2040.43
542.37	2054.92
542.72	2069.40
543.08	2083.44
543.44	2098.09
543.79	2111.29
544.15	2124.36
544.51	2138.02
544.87	2151.03
545.22	2164.08
545.58	2176.49
545.94	2188.32
546.29	2200.12
546.65	2212.22
547.01	2223.71
547.36	2234.54
547.72	2245.01
548.07	2254.85
548.43	2264.98
548.79	2274.96
549.14	2284.46
549.50	2293.90
549.86	2303.55
550.21	2312.80
550.57	2321.90
550.92	2330.31
551.28	2339.37
551.64	2348.52
551.99	2356.96
552.35	2364.97
552.70	2372.88
553.06	2380.59
553.41	2388.80
553.77	2396.88
554.13	2404.79
554.48	2412.76
554.84	2420.12
555.19	2427.14
555.55	2434.19
555.90	2440.35
556.26	2447.11
556.61	2453.59
556.97	2459.66
557.32	2465.40
557.68	2471.16
558.03	2477.07
558.39	2482.35
558.74	2488.58
559.10	2493.89
559.45	2499.07
559.81	2504.89
560.16	2510.17
560.52	2514.89
560.87	2519.73
561.23	2523.57
561.58	2527.83
561.94	2531.55
562.29	2534.99
562.64	2539.15
563.00	2542.91
563.35	2547.66
563.71	2552.04
564.06	2556.49
564.42	2560.76
564.77	2564.61
565.12	2568.15
565.48	2571.19
565.83	2574.26
566.19	2576.65
566.54	2578.43
566.89	2580.64
567.25	2582.34
567.60	2584.61
567.96	2587.55
568.31	2589.29
568.66	2591.56
569.02	2593.00
569.37	2594.17
569.72	2596.06
570.08	2597.00
570.43	2597.89
570.78	2598.19
571.14	2597.11
571.49	2596.20
571.84	2596.40
572.20	2595.81
572.55	2595.29
572.90	2594.02
573.26	2593.20
573.61	2591.95
573.96	2590.90
574.31	2588.25
574.67	2585.51
575.02	2581.98
575.37	2578.60
575.72	2575.01
576.08	2571.51
576.43	2568.19
576.78	2564.63
577.13	2561.42
577.49	2558.22
577.84	2554.72
578.19	2550.95
578.54	2547.61
578.90	2543.52
579.25	2537.54
579.60	2532.39
579.95	2527.27
580.30	2522.14
580.66	2516.55
581.01	2511.26
581.36	2505.94
581.71	2501.65
582.06	2496.98
582.42	2492.43
582.77	2486.86
583.12	2482.01
583.47	2477.22
583.82	2472.08
584.17	2466.46
584.53	2460.51
584.88	2454.55
585.23	2448.40
585.58	2442.49
585.93	2436.41
586.28	2431.23
586.63	2425.81
586.98	2420.32
587.34	2415.03
587.69	2409.57
588.04	2404.03
588.39	2397.85
588.74	2390.65
589.09	2383.62
589.44	2376.15
589.79	2369.44
590.14	2363.24
590.49	2356.06
590.84	2348.84
591.19	2342.06
591.54	2334.81
591.89	2326.72
592.25	2319.14
592.60	2311.00
592.95	2302.50
593.30	2294.11
593.65	2285.45
594.00	2277.51
594.35	2269.23
594.70	2260.05
595.05	2252.02
595.40	2243.52
595.75	2234.93
596.10	2227.99
596.45	2220.39
596.80	2213.37
597.15	2205.91
597.50	2197.80
597.85	2190.13
598.19	2182.55
598.54	2174.62
598.89	2166.96
599.24	2160.14
599.59	2152.49
599.94	2145.17
600.29	2137.82
600.64	2130.39
600.99	2121.92
601.34	2114.04
601.69	2105.95
602.04	2098.22
602.39	2089.71
602.74	2081.89
603.08	2074.09
603.43	2066.20
603.78	2057.58
604.13	2049.15
604.48	2040.78
604.83	2032.79
605.18	2024.99
605.53	2015.83
605.87	2006.50
606.22	1998.13
606.57	1988.85
606.92	1980.21
607.27	1972.12
607.62	1964.04
607.96	1955.56
608.31	1947.95
608.66	1939.15
609.01	1930.46
609.36	1921.65
609.70	1912.30
610.05	1902.86
610.40	1893.91
610.75	1884.21
611.10	1875.43
611.44	1865.52
611.79	1856.08
612.14	1845.89
612.49	1835.08
612.83	1825.12
613.18	1815.53
613.53	1806.05
613.88	1796.13
614.22	1786.54
614.57	1776.23
614.92	1766.87
615.27	1758.09
615.61	1748.16
615.96	1738.64
616.31	1729.66
616.65	1720.92
617.00	1712.19
617.35	1703.28
617.70	1693.73
618.04	1683.82
618.39	1674.11
618.74	1665.31
619.08	1655.50
619.43	1646.58
619.78	1638.42
620.12	1630.11
620.47	1621.30
620.82	1611.68
621.16	1602.89
621.51	1593.87
621.85	1584.95
622.20	1575.04
622.55	1565.13
622.89	1555.98
623.24	1547.05
623.59	1538.26
623.93	1529.39
624.28	1520.81
624.62	1511.98
624.97	1503.39
625.32	1495.38
625.66	1487.16
626.01	1478.81
626.35	1470.27
626.70	1461.29
627.04	1452.34
627.39	1443.20
627.73	1434.44
628.08	1426.36
628.43	1417.99
628.77	1409.51
629.12	1400.81
629.46	1392.37
629.81	1383.69
630.15	1375.17
630.50	1366.56
630.84	1357.17
631.19	1347.93
631.53	1339.11
631.88	1330.30
632.22	1321.42
632.57	1312.86
632.91	1304.04
633.26	1295.42
633.60	1286.74
633.95	1278.35
634.29	1270.10
634.64	1262.40
634.98	1253.94
635.32	1245.53
635.67	1237.68
636.01	1229.88
636.36	1221.98
636.70	1214.26
637.05	1206.58
637.39	1199.07
637.73	1191.45
638.08	1184.37
638.42	1177.46
638.77	1170.01
639.11	1162.25
639.45	1154.86
639.80	1147.18
640.14	1139.73
640.49	1132.08
640.83	1124.72
641.17	1117.54
641.52	1110.09
641.86	1102.43
642.20	1095.51
642.55	1088.21
642.89	1080.78
643.23	1073.13
643.58	1066.43
643.92	1059.31
644.26	1052.41
644.61	1045.43
644.95	1038.49
645.29	1030.95
645.64	1023.14
645.98	1015.80
646.32	1008.98
646.66	1001.94
647.01	995.25
647.35	988.66
647.69	981.74
648.04	975.29
648.38	968.64
648.72	961.82
649.06	954.81
649.41	948.01
649.75	941.15
650.09	934.27
650.43	927.63
650.78	920.43
651.12	913.56
651.46	906.84
651.80	900.21
652.14	893.94
652.49	887.74
652.83	881.73
653.17	875.15
653.51	868.64
653.85	862.45
654.20	856.02
654.54	849.13
654.88	842.57
655.22	835.73
655.56	829.12
655.90	822.74
656.25	816.73
656.59	810.64
656.93	804.81
657.27	798.78
657.61	792.50
657.95	786.54
658.29	780.76
658.64	774.75
658.98	768.63
659.32	762.36
659.66	756.42
660.00	750.40
660.34	744.69
660.68	739.02
661.02	733.22
661.36	727.74
661.70	722.57
662.05	717.59
662.39	712.72
662.73	707.58
663.07	702.58
663.41	697.52
663.75	692.34
664.09	687.10
664.43	682.07
664.77	677.34
665.11	672.56
665.45	667.74
665.79	663.06
666.13	658.34
666.47	653.66
666.81	648.96
667.15	644.17
667.49	639.71
667.83	635.35
668.17	630.87
668.51	626.19
668.85	621.52
669.19	617.06
669.53	612.64
669.87	608.22
670.21	603.97
670.55	599.77
670.89	595.77
671.23	591.79
671.57	587.80
671.91	583.79
672.25	579.72
672.58	575.71
672.92	571.76
673.26	568.05
673.60	564.39
673.94	560.75
674.28	557.38
674.62	553.91
674.96	550.34
675.30	546.98
675.64	543.63
675.97	540.39
676.31	537.16
676.65	533.83
676.99	530.69
677.33	527.39
677.67	524.13
678.01	520.72
678.34	517.37
678.68	514.02
679.02	510.76
679.36	507.62
679.70	504.49
680.04	501.33
680.37	498.09
680.71	494.87
681.05	491.85
681.39	488.76
681.73	485.79
682.06	482.85
682.40	479.96
682.74	477.00
683.08	474.12
683.42	471.10
683.75	468.19
684.09	465.20
684.43	462.38
684.77	459.50
685.10	456.82
685.44	454.09
685.78	451.43
686.12	448.80
686.45	446.19
686.79	443.51
687.13	440.93
687.46	438.43
687.80	435.93
688.14	433.34
688.48	430.91
688.81	428.31
689.15	425.85
689.49	423.30
689.82	420.89
690.16	418.49
690.50	416.21
690.83	413.98
691.17	411.71
691.51	409.48
691.84	407.40
692.18	405.13
692.52	402.90
692.85	400.69
693.19	398.52
693.52	396.35
693.86	394.26
694.20	392.25
694.53	390.14
694.87	388.03
695.21	386.00
695.54	383.87
695.88	381.85
696.21	379.82
696.55	377.90
696.88	375.94
697.22	373.99
697.56	372.12
697.89	370.25
698.23	368.46
698.56	366.62
698.90	364.78
699.23	362.87
699.57	361.07
699.90	359.24
700.24	357.49
700.58	355.76
700.91	354.04
701.25	352.37
701.58	350.82
701.92	349.29
702.25	347.67
702.59	346.12
702.92	344.62
703.26	343.14
703.59	341.66
703.93	340.29
704.26	338.89
704.60	337.37
704.93	335.87
705.26	334.40
705.60	333.01
705.93	331.67
706.27	330.45
706.60	329.23
706.94	328.03
707.27	326.74
707.61	325.47
707.94	324.26
708.27	322.98
708.61	321.69
708.94	320.48
709.28	319.36
709.61	318.23
709.94	317.14
710.28	315.93
710.61	314.82
710.95	313.62
711.28	312.54
711.61	311.49
711.95	310.44
712.28	309.39
712.61	308.30
712.95	307.22
713.28	306.21
713.61	305.20
713.95	304.21
714.28	303.23
714.61	302.28
714.95	301.35
715.28	300.37
715.61	299.39
715.95	298.41
716.28	297.42
716.61	296.50
716.95	295.55
717.28	294.76
717.61	293.84
717.94	293.01
718.28	292.09
718.61	291.26
718.94	290.44
719.27	289.65
719.61	288.86
719.94	288.10
720.27	287.28
720.60	286.49
720.94	285.73
721.27	285.04
721.60	284.35
721.93	283.62
722.27	283.00
722.60	282.35
722.93	281.68
723.26	281.08
723.59	280.41
723.93	279.78
724.26	279.09
724.59	278.44
724.92	277.77
725.25	277.16
725.59	276.52
725.92	275.96
726.25	275.35
726.58	274.78
726.91	274.18
727.24	273.66
727.57	273.10
727.91	272.47
728.24	271.90
728.57	271.31
728.90	270.79
729.23	270.19
729.56	269.69
729.89	269.11
730.22	268.50
730.55	267.93
730.89	267.41
731.22	266.89
731.55	266.42
731.88	265.93
732.21	265.47
732.54	264.98
732.87	264.45
733.20	263.97
733.53	263.54
733.86	263.12
734.19	262.62
734.52	262.19
734.85	261.84
735.18	261.34
735.51	260.96
735.84	260.52
736.17	260.09
736.50	259.58
736.83	259.31
737.16	258.96
737.49	258.61
737.82	258.16
738.15	257.79
738.48	257.35
738.81	256.97
739.14	256.56
739.47	256.17
739.80	255.81
740.13	255.43
740.46	255.02
740.79	254.63
741.12	254.28
741.45	253.88
741.78	253.44
742.11	253.15
742.44	252.76
742.77	252.40
743.10	252.08
743.43	251.78
743.75	251.36
744.08	251.15
744.41	250.82
744.74	250.52
745.07	250.19
745.40	249.88
745.73	249.61
746.06	249.29
746.39	248.99
746.71	248.66
747.04	248.37
747.37	248.08
747.70	247.81
748.03	247.51
748.36	247.26
748.68	247.01
749.01	246.69
749.34	246.41
749.67	246.13
750.00	245.92
750.33	245.71
750.65	245.45
750.98	245.09
751.31	244.82
751.64	244.62
751.97	244.43
752.29	244.20
752.62	243.92
752.95	243.69
753.28	243.48
753.60	243.26
753.93	243.12
754.26	242.90
754.59	242.66
754.91	242.41
755.24	242.19
755.57	241.99
755.90	241.81
756.22	241.61
756.55	241.40
756.88	241.14
757.20	240.91
757.53	240.68
757.86	240.48
758.19	240.33
758.51	240.13
758.84	239.90
759.17	239.74
759.49	239.57
759.82	239.46
760.15	239.29
760.47	239.11
760.80	238.86
761.13	238.72
761.45	238.52
761.78	238.40
762.11	238.24
762.43	238.07
762.76	237.92
763.08	237.76
763.41	237.63
763.74	237.45
764.06	237.27
764.39	237.16
764.71	237.01
765.04	236.84
765.37	236.67
765.69	236.52
766.02	236.34
766.34	236.18
766.67	235.98
767.00	235.88
767.32	235.85
767.65	235.76
767.97	235.61
768.30	235.53
768.62	235.41
768.95	235.26
769.27	235.11
769.60	234.98
769.92	234.84
770.25	234.68
770.57	234.60
770.90	234.49
771.22	234.35
771.55	234.25
771.87	234.18
772.20	234.07
772.52	234.06
772.85	234.06
773.17	233.95
773.50	233.85
773.82	233.69
774.15	233.50
774.47	233.35
774.80	233.24
775.12	233.11
775.45	232.97
775.77	232.88
776.09	232.81
776.42	232.71
776.74	232.64
777.07	232.53
777.39	232.40
777.72	232.33
778.04	232.24
778.36	232.15
778.69	232.02
779.01	231.94
779.33	231.77
779.66	231.56
779.98	231.46
780.31	231.36
780.63	231.30
780.95	231.27
781.28	231.20
781.60	231.11
781.92	231.05
782.25	230.98
782.57	230.90
782.89	230.83
783.22	230.76
783.54	230.69
783.86	230.67
784.19	230.63
784.51	230.55
784.83	230.46
785.16	230.34
785.48	230.30
785.80	230.22
786.12	230.14
786.45	230.15
