SpectraSuite Data File
++++++++++++++++++++++++++++++++++++
Date: Fri Feb 01 16:05:21 EST 2013
User: group
Dark Spectrum Present: No
Reference Spectrum Present: No
Number of Sampled Component Spectra: 1
Spectrometers: USB2E7196
Integration Time (usec): 35000 (USB2E7196)
Spectra Averaged: 100 (USB2E7196)
Boxcar Smoothing: 10 (USB2E7196)
Correct for Electrical Dark: No (USB2E7196)
Strobe/Lamp Enabled: No (USB2E7196)
Correct for Detector Non-linearity: No (USB2E7196)
Correct for Stray Light: No (USB2E7196)
Number of Pixels in Processed Spectrum: 2048
>>>>>Begin Processed Spectral Data<<<<<
339.09	0.00
339.48	214.96
339.86	216.22
340.24	217.17
340.63	218.45
341.01	222.34
341.39	221.84
341.78	223.10
342.16	223.58
342.54	224.57
342.93	213.04
343.31	223.79
343.69	224.31
344.07	224.74
344.46	225.19
344.84	225.58
345.22	225.80
345.60	226.06
345.99	226.25
346.37	226.40
346.75	226.51
347.13	226.56
347.52	226.60
347.90	226.66
348.28	226.71
348.66	226.73
349.05	226.72
349.43	226.76
349.81	226.80
350.19	226.86
350.57	226.93
350.96	227.02
351.34	227.11
351.72	227.21
352.10	227.36
352.48	227.43
352.87	227.49
353.25	227.54
353.63	227.61
354.01	227.67
354.39	227.76
354.77	227.82
355.15	227.95
355.54	228.03
355.92	228.07
356.30	228.12
356.68	228.25
357.06	228.33
357.44	228.38
357.82	228.46
358.20	228.51
358.58	228.57
358.97	228.63
359.35	228.70
359.73	228.76
360.11	228.80
360.49	228.86
360.87	228.91
361.25	228.97
361.63	229.01
362.01	229.05
362.39	229.08
362.77	229.13
363.15	229.16
363.53	229.17
363.91	229.18
364.29	229.22
364.67	229.11
365.05	229.11
365.43	229.15
365.81	229.14
366.19	229.18
366.57	229.20
366.95	229.18
367.33	229.13
367.71	229.16
368.09	229.11
368.47	229.06
368.85	229.04
369.23	229.03
369.61	228.94
369.99	228.95
370.37	228.91
370.75	228.91
371.13	228.83
371.51	228.75
371.89	228.76
372.27	228.69
372.65	228.68
373.03	228.64
373.41	228.55
373.78	228.52
374.16	228.38
374.54	228.31
374.92	228.26
375.30	228.17
375.68	228.05
376.06	228.01
376.44	227.94
376.82	227.89
377.19	227.82
377.57	227.78
377.95	227.65
378.33	227.55
378.71	227.43
379.09	227.39
379.47	227.33
379.84	227.25
380.22	227.16
380.60	227.09
380.98	227.01
381.36	226.95
381.73	226.86
382.11	226.85
382.49	226.77
382.87	226.70
383.25	226.69
383.62	226.74
384.00	226.65
384.38	226.56
384.76	226.53
385.13	226.51
385.51	226.46
385.89	226.40
386.27	226.39
386.64	226.35
387.02	226.32
387.40	226.27
387.78	226.22
388.15	226.22
388.53	226.17
388.91	226.17
389.29	226.14
389.66	226.12
390.04	226.09
390.42	226.08
390.79	226.05
391.17	226.03
391.55	225.94
391.92	225.96
392.30	226.04
392.68	225.99
393.05	225.99
393.43	225.99
393.81	226.00
394.18	225.97
394.56	225.97
394.94	226.00
395.31	226.03
395.69	226.09
396.06	226.15
396.44	226.19
396.82	226.19
397.19	226.29
397.57	226.35
397.95	226.42
398.32	226.45
398.70	226.54
399.07	226.66
399.45	226.71
399.82	226.77
400.20	226.81
400.58	226.88
400.95	226.93
401.33	227.04
401.70	227.23
402.08	227.33
402.45	227.44
402.83	227.56
403.20	227.65
403.58	227.72
403.95	227.80
404.33	227.94
404.71	228.08
405.08	228.25
405.46	228.37
405.83	228.50
406.21	228.64
406.58	228.78
406.96	228.91
407.33	229.10
407.70	229.24
408.08	229.54
408.45	229.76
408.83	230.00
409.20	230.21
409.58	230.36
409.95	230.63
410.33	230.87
410.70	231.12
411.08	231.40
411.45	231.71
411.82	232.04
412.20	232.38
412.57	232.80
412.95	233.05
413.32	233.43
413.69	233.84
414.07	234.27
414.44	234.75
414.82	235.21
415.19	235.73
415.56	236.30
415.94	236.79
416.31	237.44
416.68	238.08
417.06	238.81
417.43	239.50
417.81	240.26
418.18	241.05
418.55	241.90
418.93	242.82
419.30	243.70
419.67	244.64
420.04	245.59
420.42	246.57
420.79	247.80
421.16	248.97
421.54	250.11
421.91	251.31
422.28	252.56
422.66	253.88
423.03	255.21
423.40	256.54
423.77	257.95
424.15	259.36
424.52	260.80
424.89	262.40
425.26	263.95
425.64	265.39
426.01	266.94
426.38	268.56
426.75	270.22
427.13	271.94
427.50	273.73
427.87	275.61
428.24	277.48
428.61	279.18
428.99	281.09
429.36	283.23
429.73	285.35
430.10	287.36
430.47	289.42
430.85	291.52
431.22	293.74
431.59	296.12
431.96	298.35
432.33	300.83
432.70	303.18
433.08	305.99
433.45	308.64
433.82	311.29
434.19	314.19
434.56	317.02
434.93	319.69
435.30	322.30
435.68	325.16
436.05	327.99
436.42	330.79
436.79	333.35
437.16	336.02
437.53	338.80
437.90	341.63
438.27	344.36
438.64	347.18
439.01	349.81
439.38	352.05
439.75	354.23
440.13	356.71
440.50	359.04
440.87	360.85
441.24	362.75
441.61	364.86
441.98	366.36
442.35	368.14
442.72	370.00
443.09	371.85
443.46	372.84
443.83	373.42
444.20	373.97
444.57	374.80
444.94	375.09
445.31	375.41
445.68	375.79
446.05	375.87
446.42	375.52
446.79	375.13
447.16	374.66
447.53	374.37
447.90	373.24
448.27	372.10
448.64	370.54
449.01	369.42
449.37	367.49
449.74	365.59
450.11	363.32
450.48	360.80
450.85	358.22
451.22	356.11
451.59	354.07
451.96	352.13
452.33	349.53
452.70	347.21
453.07	344.39
453.43	341.45
453.80	338.69
454.17	336.02
454.54	333.44
454.91	330.72
455.28	328.03
455.65	325.56
456.02	323.13
456.38	321.01
456.75	318.35
457.12	316.08
457.49	313.91
457.86	311.76
458.23	309.96
458.59	307.96
458.96	305.87
459.33	304.03
459.70	302.14
460.07	300.66
460.43	298.94
460.80	297.33
461.17	295.92
461.54	294.45
461.91	293.02
462.27	291.59
462.64	290.37
463.01	289.04
463.38	287.74
463.74	286.37
464.11	285.21
464.48	284.20
464.85	283.14
465.21	282.27
465.58	281.36
465.95	280.28
466.32	279.34
466.68	278.47
467.05	277.58
467.42	276.64
467.78	275.71
468.15	274.84
468.52	274.21
468.88	273.35
469.25	272.58
469.62	271.98
469.98	271.29
470.35	270.68
470.72	270.09
471.08	269.46
471.45	268.93
471.82	268.41
472.18	267.83
472.55	267.37
472.92	266.80
473.28	266.34
473.65	265.87
474.02	265.46
474.38	265.10
474.75	264.81
475.11	264.51
475.48	264.24
475.85	264.02
476.21	263.74
476.58	263.58
476.94	263.41
477.31	263.19
477.67	263.07
478.04	262.94
478.41	262.85
478.77	262.89
479.14	262.82
479.50	262.77
479.87	262.83
480.23	262.92
480.60	263.00
480.96	263.09
481.33	263.30
481.69	263.50
482.06	263.71
482.42	263.88
482.79	264.15
483.15	264.46
483.52	264.85
483.88	265.19
484.25	265.58
484.61	265.96
484.98	266.47
485.34	267.04
485.71	267.63
486.07	268.24
486.44	268.81
486.80	269.52
487.17	270.28
487.53	271.12
487.90	271.96
488.26	272.89
488.62	273.86
488.99	274.83
489.35	275.88
489.72	277.00
490.08	278.19
490.44	279.43
490.81	280.78
491.17	282.11
491.54	283.62
491.90	285.15
492.26	286.81
492.63	288.52
492.99	290.28
493.36	292.17
493.72	294.20
494.08	296.30
494.45	298.52
494.81	300.90
495.17	303.32
495.54	305.92
495.90	308.67
496.26	311.52
496.63	314.50
496.99	317.65
497.35	320.91
497.72	324.35
498.08	327.89
498.44	331.58
498.80	335.55
499.17	339.62
499.53	343.82
499.89	348.22
500.26	352.72
500.62	357.44
500.98	362.42
501.34	367.54
501.71	372.87
502.07	378.31
502.43	383.97
502.79	389.80
503.16	395.89
503.52	402.12
503.88	408.50
504.24	415.13
504.60	422.01
504.97	429.21
505.33	436.56
505.69	444.32
506.05	452.06
506.41	459.90
506.78	468.11
507.14	476.53
507.50	485.29
507.86	494.40
508.22	503.60
508.59	512.77
508.95	522.35
509.31	532.18
509.67	542.34
510.03	552.56
510.39	563.13
510.75	574.00
511.12	584.98
511.48	596.27
511.84	607.82
512.20	619.34
512.56	631.23
512.92	643.43
513.28	655.72
513.64	668.28
514.00	681.08
514.37	694.05
514.73	707.12
515.09	720.14
515.45	733.42
515.81	746.97
516.17	760.99
516.53	775.12
516.89	789.34
517.25	803.53
517.61	817.97
517.97	832.47
518.33	846.80
518.69	861.57
519.05	876.51
519.41	891.56
519.77	907.12
520.13	922.55
520.49	937.89
520.85	953.34
521.21	968.98
521.57	985.11
521.93	1000.78
522.29	1017.15
522.65	1033.28
523.01	1049.49
523.37	1065.48
523.73	1081.67
524.09	1097.70
524.45	1113.88
524.81	1130.62
525.17	1147.46
525.53	1164.27
525.89	1181.11
526.25	1197.93
526.61	1214.40
526.97	1231.19
527.33	1247.57
527.68	1264.12
528.04	1280.58
528.40	1297.16
528.76	1314.23
529.12	1330.83
529.48	1347.60
529.84	1363.66
530.20	1380.41
530.56	1397.32
530.91	1414.70
531.27	1431.48
531.63	1447.95
531.99	1464.59
532.35	1480.48
532.71	1496.22
533.07	1512.55
533.42	1528.43
533.78	1544.47
534.14	1560.62
534.50	1575.85
534.86	1591.64
535.21	1606.81
535.57	1622.60
535.93	1637.97
536.29	1652.68
536.65	1667.72
537.00	1682.45
537.36	1697.66
537.72	1712.08
538.08	1726.54
538.44	1740.37
538.79	1754.02
539.15	1767.64
539.51	1781.31
539.87	1795.51
540.22	1809.28
540.58	1822.74
540.94	1835.98
541.29	1848.75
541.65	1861.37
542.01	1874.59
542.37	1886.97
542.72	1899.41
543.08	1911.21
543.44	1923.62
543.79	1934.80
544.15	1945.63
544.51	1957.20
544.87	1968.05
545.22	1978.78
545.58	1988.95
545.94	1998.65
546.29	2008.62
546.65	2018.44
547.01	2027.70
547.36	2036.36
547.72	2044.86
548.07	2052.87
548.43	2061.04
548.79	2069.04
549.14	2076.70
549.50	2084.10
549.86	2091.77
550.21	2099.02
550.57	2106.29
550.92	2112.86
551.28	2119.98
551.64	2127.10
551.99	2133.59
552.35	2139.81
552.70	2146.00
553.06	2151.95
553.41	2158.33
553.77	2164.30
554.13	2170.35
554.48	2176.57
554.84	2182.08
555.19	2187.12
555.55	2192.16
555.90	2196.67
556.26	2201.46
556.61	2206.11
556.97	2210.43
557.32	2214.59
557.68	2218.77
558.03	2222.98
558.39	2226.62
558.74	2231.18
559.10	2234.97
559.45	2238.58
559.81	2242.88
560.16	2246.63
560.52	2249.88
560.87	2253.16
561.23	2255.87
561.58	2258.79
561.94	2261.28
562.29	2263.51
562.64	2266.30
563.00	2269.02
563.35	2272.53
563.71	2275.79
564.06	2278.85
564.42	2281.58
564.77	2284.06
565.12	2286.38
565.48	2288.30
565.83	2290.24
566.19	2291.62
566.54	2292.57
566.89	2293.86
567.25	2294.44
567.60	2295.75
567.96	2297.50
568.31	2298.35
568.66	2299.39
569.02	2300.09
569.37	2300.29
569.72	2301.31
570.08	2301.73
570.43	2301.73
570.78	2301.12
571.14	2299.55
571.49	2298.26
571.84	2298.06
572.20	2296.85
572.55	2295.71
572.90	2294.02
573.26	2292.66
573.61	2290.92
573.96	2289.17
574.31	2286.23
574.67	2283.21
575.02	2279.70
575.37	2276.32
575.72	2272.66
576.08	2269.27
576.43	2265.88
576.78	2262.41
577.13	2259.26
577.49	2256.08
577.84	2252.72
578.19	2248.99
578.54	2245.43
578.90	2241.33
579.25	2235.84
579.60	2231.02
579.95	2225.99
580.30	2221.09
580.66	2215.89
581.01	2211.03
581.36	2206.27
581.71	2202.12
582.06	2197.76
582.42	2193.28
582.77	2188.07
583.12	2183.52
583.47	2178.90
583.82	2173.91
584.17	2168.68
584.53	2163.15
584.88	2157.26
585.23	2151.45
585.58	2146.02
585.93	2140.54
586.28	2135.81
586.63	2130.72
586.98	2125.67
587.34	2121.04
587.69	2116.18
588.04	2110.97
588.39	2105.21
588.74	2098.70
589.09	2092.53
589.44	2085.83
589.79	2079.75
590.14	2073.96
590.49	2067.28
590.84	2060.83
591.19	2054.84
591.54	2048.23
591.89	2040.93
592.25	2034.29
592.60	2027.11
592.95	2019.57
593.30	2012.19
593.65	2004.50
594.00	1997.46
594.35	1990.16
594.70	1982.14
595.05	1975.15
595.40	1967.79
595.75	1960.35
596.10	1954.03
596.45	1947.22
596.80	1941.02
597.15	1934.50
597.50	1927.66
597.85	1921.32
598.19	1914.76
598.54	1907.69
598.89	1901.04
599.24	1894.95
599.59	1888.37
599.94	1882.09
600.29	1875.74
600.64	1869.09
600.99	1861.68
601.34	1854.94
601.69	1847.96
602.04	1841.16
602.39	1833.56
602.74	1826.88
603.08	1820.11
603.43	1813.46
603.78	1806.19
604.13	1799.08
604.48	1791.70
604.83	1784.75
605.18	1777.78
605.53	1769.80
605.87	1761.73
606.22	1754.61
606.57	1746.72
606.92	1739.33
607.27	1732.19
607.62	1725.30
607.96	1718.25
608.31	1711.68
608.66	1703.90
609.01	1696.44
609.36	1688.84
609.70	1680.88
610.05	1672.84
610.40	1665.24
610.75	1656.83
611.10	1649.22
611.44	1640.68
611.79	1632.70
612.14	1624.04
612.49	1614.73
612.83	1606.40
613.18	1598.32
613.53	1590.15
613.88	1581.71
614.22	1573.51
614.57	1564.82
614.92	1556.79
615.27	1549.20
615.61	1540.88
615.96	1532.83
616.31	1525.14
616.65	1517.73
617.00	1510.17
617.35	1502.34
617.70	1493.90
618.04	1485.50
618.39	1477.27
618.74	1469.70
619.08	1461.46
619.43	1453.83
619.78	1447.08
620.12	1439.87
620.47	1432.33
620.82	1424.13
621.16	1416.64
621.51	1408.88
621.85	1401.29
622.20	1392.68
622.55	1384.16
622.89	1376.27
623.24	1368.57
623.59	1361.19
623.93	1353.63
624.28	1346.47
624.62	1339.01
624.97	1331.87
625.32	1325.01
625.66	1317.95
626.01	1310.77
626.35	1303.35
626.70	1295.55
627.04	1287.85
627.39	1279.93
627.73	1272.58
628.08	1265.76
628.43	1258.61
628.77	1251.24
629.12	1243.71
629.46	1236.58
629.81	1229.17
630.15	1222.04
630.50	1214.70
630.84	1206.50
631.19	1198.54
631.53	1190.98
631.88	1183.47
632.22	1175.97
632.57	1168.74
632.91	1161.26
633.26	1153.80
633.60	1146.41
633.95	1139.26
634.29	1132.14
634.64	1125.54
634.98	1118.10
635.32	1110.87
635.67	1104.21
636.01	1097.68
636.36	1090.87
636.70	1084.36
637.05	1077.83
637.39	1071.30
637.73	1064.84
638.08	1058.79
638.42	1052.77
638.77	1046.34
639.11	1039.74
639.45	1033.29
639.80	1026.68
640.14	1020.27
640.49	1013.73
640.83	1007.40
641.17	1001.29
641.52	994.95
641.86	988.49
642.20	982.71
642.55	976.36
642.89	969.79
643.23	963.25
643.58	957.54
643.92	951.36
644.26	945.40
644.61	939.29
644.95	933.28
645.29	926.80
645.64	920.07
645.98	913.74
646.32	907.90
646.66	901.76
647.01	895.97
647.35	890.15
647.69	884.30
648.04	878.67
648.38	872.78
648.72	866.83
649.06	860.72
649.41	854.79
649.75	848.88
650.09	843.00
650.43	837.04
650.78	830.81
651.12	824.83
651.46	819.07
651.80	813.32
652.14	807.95
652.49	802.64
652.83	797.55
653.17	791.81
653.51	786.02
653.85	780.66
654.20	774.95
654.54	768.96
654.88	763.25
655.22	757.46
655.56	751.77
655.90	746.28
656.25	741.10
656.59	735.69
656.93	730.59
657.27	725.42
657.61	720.10
657.95	714.98
658.29	709.86
658.64	704.49
658.98	699.19
659.32	693.71
659.66	688.44
660.00	683.11
660.34	678.16
660.68	673.23
661.02	668.16
661.36	663.41
661.70	658.96
662.05	654.56
662.39	650.12
662.73	645.69
663.07	641.31
663.41	636.84
663.75	632.39
664.09	627.81
664.43	623.43
664.77	619.36
665.11	615.10
665.45	611.03
665.79	607.00
666.13	602.94
666.47	598.80
666.81	594.60
667.15	590.43
667.49	586.55
667.83	582.65
668.17	578.72
668.51	574.73
668.85	570.65
669.19	566.84
669.53	563.04
669.87	559.16
670.21	555.47
670.55	551.82
670.89	548.33
671.23	544.84
671.57	541.29
671.91	537.70
672.25	534.21
672.58	530.68
672.92	527.23
673.26	524.00
673.60	520.87
673.94	517.74
674.28	514.87
674.62	511.91
674.96	508.88
675.30	505.97
675.64	502.98
675.97	500.23
676.31	497.34
676.65	494.44
676.99	491.71
677.33	488.84
677.67	486.03
678.01	483.05
678.34	480.18
678.68	477.30
679.02	474.52
679.36	471.80
679.70	469.03
680.04	466.27
680.37	463.43
680.71	460.61
681.05	458.03
681.39	455.32
681.73	452.66
682.06	450.13
682.40	447.59
682.74	445.06
683.08	442.53
683.42	439.92
683.75	437.40
684.09	434.86
684.43	432.39
684.77	429.96
685.10	427.57
685.44	425.25
685.78	422.98
686.12	420.67
686.45	418.32
686.79	416.06
687.13	413.88
687.46	411.73
687.80	409.56
688.14	407.35
688.48	405.30
688.81	403.06
689.15	400.91
689.49	398.78
689.82	396.69
690.16	394.59
690.50	392.64
690.83	390.73
691.17	388.76
691.51	386.85
691.84	384.97
692.18	383.07
692.52	381.02
692.85	379.06
693.19	377.19
693.52	375.36
693.86	373.58
694.20	371.81
694.53	369.99
694.87	368.12
695.21	366.29
695.54	364.42
695.88	362.70
696.21	360.97
696.55	359.28
696.88	357.57
697.22	355.89
697.56	354.23
697.89	352.56
698.23	350.94
698.56	349.31
698.90	347.71
699.23	346.03
699.57	344.53
699.90	343.01
700.24	341.47
700.58	339.93
700.91	338.34
701.25	336.85
701.58	335.48
701.92	334.11
702.25	332.75
702.59	331.46
702.92	330.12
703.26	328.86
703.59	327.55
703.93	326.37
704.26	325.12
704.60	323.86
704.93	322.55
705.26	321.29
705.60	320.13
705.93	318.96
706.27	317.93
706.60	316.84
706.94	315.77
707.27	314.64
707.61	313.58
707.94	312.59
708.27	311.48
708.61	310.37
708.94	309.35
709.28	308.37
709.61	307.36
709.94	306.36
710.28	305.31
710.61	304.30
710.95	303.21
711.28	302.28
711.61	301.34
711.95	300.43
712.28	299.48
712.61	298.52
712.95	297.59
713.28	296.71
713.61	295.84
713.95	294.94
714.28	294.11
714.61	293.26
714.95	292.45
715.28	291.62
715.61	290.75
715.95	289.92
716.28	289.07
716.61	288.22
716.95	287.41
717.28	286.67
717.61	285.90
717.94	285.24
718.28	284.47
718.61	283.71
718.94	283.03
719.27	282.42
719.61	281.79
719.94	281.10
720.27	280.40
720.60	279.74
720.94	279.12
721.27	278.51
721.60	277.94
721.93	277.33
722.27	276.79
722.60	276.29
722.93	275.74
723.26	275.21
723.59	274.66
723.93	274.15
724.26	273.58
724.59	273.04
724.92	272.48
725.25	271.98
725.59	271.49
725.92	270.98
726.25	270.46
726.58	269.98
726.91	269.51
727.24	269.06
727.57	268.58
727.91	268.07
728.24	267.59
728.57	267.11
728.90	266.66
729.23	266.20
729.56	265.77
729.89	265.31
730.22	264.81
730.55	264.37
730.89	263.91
731.22	263.51
731.55	263.14
731.88	262.72
732.21	262.29
732.54	261.84
732.87	261.42
733.20	261.00
733.53	260.55
733.86	260.17
734.19	259.74
734.52	259.35
734.85	259.03
735.18	258.61
735.51	258.22
735.84	257.83
736.17	257.44
736.50	257.04
736.83	256.78
737.16	256.48
737.49	256.11
737.82	255.75
738.15	255.38
738.48	254.99
738.81	254.70
739.14	254.34
739.47	254.06
739.80	253.75
740.13	253.47
740.46	253.12
740.79	252.77
741.12	252.45
741.45	252.16
741.78	251.79
742.11	251.53
742.44	251.19
742.77	250.93
743.10	250.62
743.43	250.29
743.75	249.90
744.08	249.75
744.41	249.50
744.74	249.24
745.07	248.97
745.40	248.73
745.73	248.43
746.06	248.15
746.39	247.87
746.71	247.59
747.04	247.28
747.37	247.05
747.70	246.83
748.03	246.56
748.36	246.32
748.68	246.11
749.01	245.86
749.34	245.65
749.67	245.41
750.00	245.20
750.33	245.04
750.65	244.81
750.98	244.45
751.31	244.23
751.64	244.04
751.97	243.87
752.29	243.66
752.62	243.42
752.95	243.22
753.28	242.99
753.60	242.80
753.93	242.66
754.26	242.43
754.59	242.21
754.91	242.01
755.24	241.80
755.57	241.60
755.90	241.41
756.22	241.23
756.55	241.01
756.88	240.82
757.20	240.60
757.53	240.43
757.86	240.25
758.19	240.07
758.51	239.90
758.84	239.71
759.17	239.52
759.49	239.38
759.82	239.27
760.15	239.18
760.47	239.03
760.80	238.82
761.13	238.71
761.45	238.56
761.78	238.43
762.11	238.32
762.43	238.19
762.76	238.06
763.08	237.93
763.41	237.82
763.74	237.69
764.06	237.58
764.39	237.42
764.71	237.31
765.04	237.18
765.37	237.01
765.69	236.89
766.02	236.79
766.34	236.67
766.67	236.50
767.00	236.38
767.32	236.32
767.65	236.30
767.97	236.17
768.30	236.06
768.62	235.96
768.95	235.83
769.27	235.71
769.60	235.61
769.92	235.48
770.25	235.34
770.57	235.25
770.90	235.11
771.22	235.02
771.55	234.94
771.87	234.85
772.20	234.76
772.52	234.75
772.85	234.76
773.17	234.67
773.50	234.55
773.82	234.46
774.15	234.29
774.47	234.11
774.80	234.04
775.12	233.94
775.45	233.85
775.77	233.77
776.09	233.70
776.42	233.63
776.74	233.59
777.07	233.51
777.39	233.44
777.72	233.38
778.04	233.31
778.36	233.21
778.69	233.14
779.01	233.06
779.33	232.90
779.66	232.73
779.98	232.67
780.31	232.60
780.63	232.57
780.95	232.54
781.28	232.48
781.60	232.40
781.92	232.34
782.25	232.32
782.57	232.26
782.89	232.19
783.22	232.11
783.54	232.02
783.86	231.98
784.19	231.90
784.51	231.88
784.83	231.83
785.16	231.75
785.48	231.70
785.80	231.67
786.12	231.64
786.45	231.58
786.77	231.51
787.09	231.50
