SpectraSuite Data File
++++++++++++++++++++++++++++++++++++
Date: Fri Feb 01 15:06:00 EST 2013
User: group
Dark Spectrum Present: No
Reference Spectrum Present: No
Number of Sampled Component Spectra: 1
Spectrometers: USB2E7196
Integration Time (usec): 35000 (USB2E7196)
Spectra Averaged: 100 (USB2E7196)
Boxcar Smoothing: 10 (USB2E7196)
Correct for Electrical Dark: No (USB2E7196)
Strobe/Lamp Enabled: No (USB2E7196)
Correct for Detector Non-linearity: No (USB2E7196)
Correct for Stray Light: No (USB2E7196)
Number of Pixels in Processed Spectrum: 2048
>>>>>Begin Processed Spectral Data<<<<<
339.09	0.00
339.48	214.68
339.86	216.00
340.24	218.07
340.63	219.20
341.01	222.07
341.39	222.35
341.78	223.56
342.16	224.29
342.54	224.71
342.93	213.49
343.31	224.25
343.69	224.79
344.07	225.28
344.46	225.71
344.84	226.09
345.22	226.32
345.60	226.56
345.99	226.73
346.37	226.88
346.75	227.01
347.13	227.09
347.52	227.12
347.90	227.21
348.28	227.25
348.66	227.30
349.05	227.31
349.43	227.28
349.81	227.34
350.19	227.39
350.57	227.43
350.96	227.51
351.34	227.63
351.72	227.73
352.10	227.86
352.48	227.95
352.87	228.01
353.25	228.09
353.63	228.14
354.01	228.22
354.39	228.29
354.77	228.38
355.15	228.44
355.54	228.50
355.92	228.55
356.30	228.59
356.68	228.75
357.06	228.78
357.44	228.84
357.82	228.86
358.20	228.89
358.58	228.93
358.97	228.96
359.35	229.04
359.73	229.12
360.11	229.12
360.49	229.16
360.87	229.21
361.25	229.26
361.63	229.31
362.01	229.33
362.39	229.37
362.77	229.40
363.15	229.45
363.53	229.50
363.91	229.49
364.29	229.53
364.67	229.42
365.05	229.43
365.43	229.47
365.81	229.48
366.19	229.53
366.57	229.59
366.95	229.58
367.33	229.53
367.71	229.50
368.09	229.52
368.47	229.49
368.85	229.45
369.23	229.44
369.61	229.38
369.99	229.38
370.37	229.35
370.75	229.33
371.13	229.23
371.51	229.15
371.89	229.13
372.27	229.02
372.65	228.96
373.03	228.91
373.41	228.79
373.78	228.73
374.16	228.62
374.54	228.51
374.92	228.43
375.30	228.35
375.68	228.24
376.06	228.17
376.44	228.08
376.82	228.00
377.19	227.94
377.57	227.84
377.95	227.73
378.33	227.66
378.71	227.51
379.09	227.45
379.47	227.39
379.84	227.26
380.22	227.21
380.60	227.14
380.98	227.07
381.36	227.06
381.73	226.99
382.11	226.92
382.49	226.85
382.87	226.79
383.25	226.73
383.62	226.80
384.00	226.71
384.38	226.65
384.76	226.62
385.13	226.59
385.51	226.56
385.89	226.50
386.27	226.45
386.64	226.43
387.02	226.41
387.40	226.39
387.78	226.37
388.15	226.38
388.53	226.34
388.91	226.31
389.29	226.25
389.66	226.24
390.04	226.23
390.42	226.24
390.79	226.23
391.17	226.22
391.55	226.11
391.92	226.13
392.30	226.14
392.68	226.12
393.05	226.12
393.43	226.14
393.81	226.16
394.18	226.17
394.56	226.22
394.94	226.24
395.31	226.27
395.69	226.35
396.06	226.36
396.44	226.42
396.82	226.46
397.19	226.56
397.57	226.61
397.95	226.67
398.32	226.69
398.70	226.75
399.07	226.82
399.45	226.89
399.82	226.93
400.20	227.00
400.58	227.09
400.95	227.16
401.33	227.26
401.70	227.42
402.08	227.52
402.45	227.61
402.83	227.75
403.20	227.86
403.58	227.96
403.95	228.11
404.33	228.24
404.71	228.40
405.08	228.61
405.46	228.76
405.83	228.92
406.21	229.08
406.58	229.27
406.96	229.45
407.33	229.62
407.70	229.86
408.08	230.11
408.45	230.33
408.83	230.57
409.20	230.79
409.58	230.98
409.95	231.22
410.33	231.49
410.70	231.74
411.08	232.05
411.45	232.34
411.82	232.62
412.20	232.98
412.57	233.36
412.95	233.60
413.32	234.00
413.69	234.39
414.07	234.84
414.44	235.30
414.82	235.78
415.19	236.31
415.56	236.85
415.94	237.38
416.31	238.01
416.68	238.63
417.06	239.36
417.43	240.01
417.81	240.80
418.18	241.59
418.55	242.41
418.93	243.26
419.30	244.17
419.67	245.11
420.04	246.06
420.42	247.07
420.79	248.26
421.16	249.40
421.54	250.60
421.91	251.84
422.28	253.08
422.66	254.42
423.03	255.75
423.40	257.06
423.77	258.49
424.15	259.89
424.52	261.39
424.89	262.98
425.26	264.55
425.64	265.96
426.01	267.54
426.38	269.23
426.75	270.90
427.13	272.63
427.50	274.44
427.87	276.33
428.24	278.20
428.61	279.95
428.99	281.92
429.36	284.00
429.73	286.06
430.10	288.08
430.47	290.15
430.85	292.24
431.22	294.52
431.59	296.92
431.96	299.20
432.33	301.68
432.70	304.08
433.08	306.85
433.45	309.54
433.82	312.16
434.19	315.06
434.56	317.92
434.93	320.60
435.30	323.24
435.68	326.11
436.05	328.92
436.42	331.71
436.79	334.24
437.16	336.99
437.53	339.82
437.90	342.71
438.27	345.48
438.64	348.36
439.01	350.97
439.38	353.19
439.75	355.34
440.13	357.88
440.50	360.17
440.87	362.09
441.24	364.03
441.61	366.24
441.98	367.75
442.35	369.55
442.72	371.36
443.09	373.19
443.46	374.21
443.83	374.84
444.20	375.40
444.57	376.27
444.94	376.54
445.31	376.88
445.68	377.19
446.05	377.23
446.42	376.85
446.79	376.42
447.16	375.99
447.53	375.69
447.90	374.51
448.27	373.42
448.64	371.81
449.01	370.67
449.37	368.66
449.74	366.73
450.11	364.49
450.48	362.04
450.85	359.51
451.22	357.40
451.59	355.38
451.96	353.41
452.33	350.78
452.70	348.49
453.07	345.65
453.43	342.76
453.80	340.01
454.17	337.29
454.54	334.74
454.91	332.04
455.28	329.38
455.65	326.89
456.02	324.41
456.38	322.24
456.75	319.58
457.12	317.34
457.49	315.10
457.86	312.93
458.23	311.06
458.59	308.96
458.96	306.86
459.33	304.98
459.70	303.12
460.07	301.60
460.43	299.79
460.80	298.20
461.17	296.72
461.54	295.22
461.91	293.83
462.27	292.35
462.64	291.08
463.01	289.70
463.38	288.39
463.74	287.00
464.11	285.86
464.48	284.84
464.85	283.73
465.21	282.87
465.58	281.90
465.95	280.78
466.32	279.89
466.68	278.97
467.05	278.11
467.42	277.21
467.78	276.27
468.15	275.40
468.52	274.68
468.88	273.82
469.25	273.01
469.62	272.36
469.98	271.72
470.35	271.06
470.72	270.41
471.08	269.75
471.45	269.20
471.82	268.61
472.18	267.98
472.55	267.49
472.92	266.95
473.28	266.51
473.65	266.07
474.02	265.63
474.38	265.22
474.75	264.83
475.11	264.49
475.48	264.19
475.85	263.96
476.21	263.75
476.58	263.57
476.94	263.43
477.31	263.25
477.67	263.07
478.04	262.95
478.41	262.93
478.77	262.94
479.14	262.86
479.50	262.89
479.87	262.95
480.23	263.03
480.60	263.11
480.96	263.18
481.33	263.36
481.69	263.56
482.06	263.75
482.42	263.96
482.79	264.17
483.15	264.50
483.52	264.87
483.88	265.15
484.25	265.52
484.61	265.93
484.98	266.36
485.34	266.95
485.71	267.54
486.07	268.12
486.44	268.70
486.80	269.42
487.17	270.15
487.53	270.96
487.90	271.82
488.26	272.77
488.62	273.75
488.99	274.70
489.35	275.70
489.72	276.82
490.08	277.99
490.44	279.24
490.81	280.55
491.17	281.87
491.54	283.37
491.90	284.94
492.26	286.57
492.63	288.31
492.99	290.03
493.36	291.89
493.72	293.90
494.08	295.98
494.45	298.17
494.81	300.51
495.17	302.92
495.54	305.42
495.90	308.07
496.26	310.83
496.63	313.80
496.99	316.93
497.35	320.15
497.72	323.53
498.08	327.01
498.44	330.67
498.80	334.57
499.17	338.60
499.53	342.77
499.89	347.11
500.26	351.59
500.62	356.26
500.98	361.29
501.34	366.41
501.71	371.74
502.07	377.23
502.43	382.82
502.79	388.60
503.16	394.72
503.52	400.98
503.88	407.39
504.24	414.04
504.60	420.92
504.97	428.01
505.33	435.28
505.69	442.99
506.05	450.74
506.41	458.63
506.78	466.77
507.14	475.14
507.50	483.89
507.86	492.82
508.22	502.01
508.59	511.13
508.95	520.68
509.31	530.48
509.67	540.60
510.03	550.92
510.39	561.51
510.75	572.31
511.12	583.23
511.48	594.49
511.84	605.84
512.20	617.34
512.56	629.35
512.92	641.61
513.28	653.93
513.64	666.45
514.00	679.17
514.37	692.06
514.73	705.12
515.09	718.12
515.45	731.52
515.81	745.10
516.17	759.10
516.53	773.18
516.89	787.29
517.25	801.46
517.61	815.90
517.97	830.39
518.33	844.82
518.69	859.57
519.05	874.59
519.41	889.86
519.77	905.43
520.13	920.84
520.49	936.21
520.85	951.68
521.21	967.44
521.57	983.75
521.93	999.61
522.29	1016.16
522.65	1032.53
523.01	1048.78
523.37	1064.99
523.73	1081.25
524.09	1097.42
524.45	1113.88
524.81	1130.58
525.17	1147.39
525.53	1164.27
525.89	1181.33
526.25	1198.29
526.61	1214.79
526.97	1231.70
527.33	1248.34
527.68	1265.15
528.04	1281.75
528.40	1298.59
528.76	1315.72
529.12	1332.38
529.48	1349.31
529.84	1365.31
530.20	1381.94
530.56	1399.04
530.91	1416.30
531.27	1433.08
531.63	1449.70
531.99	1466.28
532.35	1482.34
532.71	1498.29
533.07	1514.68
533.42	1530.47
533.78	1546.51
534.14	1562.92
534.50	1578.23
534.86	1594.14
535.21	1609.30
535.57	1625.33
535.93	1640.74
536.29	1655.56
536.65	1670.64
537.00	1685.58
537.36	1701.01
537.72	1715.69
538.08	1730.10
538.44	1744.12
538.79	1758.09
539.15	1771.82
539.51	1785.66
539.87	1800.12
540.22	1813.97
540.58	1827.75
540.94	1841.33
541.29	1854.42
541.65	1867.08
542.01	1880.54
542.37	1892.86
542.72	1905.38
543.08	1917.12
543.44	1929.54
543.79	1940.79
544.15	1951.98
544.51	1963.47
544.87	1974.51
545.22	1985.20
545.58	1995.53
545.94	2005.30
546.29	2015.17
546.65	2025.00
547.01	2034.23
547.36	2042.93
547.72	2051.45
548.07	2059.36
548.43	2067.44
548.79	2075.42
549.14	2082.97
549.50	2090.26
549.86	2098.02
550.21	2105.40
550.57	2112.59
550.92	2119.22
551.28	2126.34
551.64	2133.23
551.99	2139.75
552.35	2146.05
552.70	2152.19
553.06	2158.20
553.41	2164.48
553.77	2170.57
554.13	2176.59
554.48	2182.69
554.84	2188.17
555.19	2193.57
555.55	2198.62
555.90	2203.18
556.26	2207.98
556.61	2212.71
556.97	2216.82
557.32	2220.93
557.68	2224.88
558.03	2229.17
558.39	2232.84
558.74	2237.47
559.10	2241.31
559.45	2244.97
559.81	2249.07
560.16	2252.85
560.52	2256.04
560.87	2259.34
561.23	2261.98
561.58	2264.99
561.94	2267.75
562.29	2269.98
562.64	2272.41
563.00	2275.11
563.35	2278.48
563.71	2281.55
564.06	2284.66
564.42	2287.50
564.77	2289.77
565.12	2291.99
565.48	2293.86
565.83	2295.68
566.19	2296.98
566.54	2297.83
566.89	2298.81
567.25	2299.37
567.60	2300.75
567.96	2302.36
568.31	2303.27
568.66	2304.31
569.02	2304.78
569.37	2304.88
569.72	2305.61
570.08	2305.70
570.43	2305.55
570.78	2304.66
571.14	2303.04
571.49	2301.67
571.84	2301.24
572.20	2299.89
572.55	2298.79
572.90	2297.22
573.26	2295.63
573.61	2293.70
573.96	2291.87
574.31	2288.84
574.67	2285.59
575.02	2281.81
575.37	2278.30
575.72	2274.27
576.08	2270.63
576.43	2267.22
576.78	2263.28
577.13	2260.02
577.49	2256.68
577.84	2253.04
578.19	2249.37
578.54	2245.53
578.90	2240.95
579.25	2235.35
579.60	2230.44
579.95	2225.32
580.30	2220.05
580.66	2214.77
581.01	2209.82
581.36	2204.77
581.71	2200.44
582.06	2195.90
582.42	2191.31
582.77	2185.88
583.12	2181.20
583.47	2176.31
583.82	2171.07
584.17	2165.85
584.53	2160.22
584.88	2154.54
585.23	2148.56
585.58	2142.95
585.93	2137.55
586.28	2132.84
586.63	2127.51
586.98	2122.33
587.34	2117.47
587.69	2112.59
588.04	2107.22
588.39	2101.30
588.74	2094.86
589.09	2088.65
589.44	2081.68
589.79	2075.53
590.14	2069.80
590.49	2063.14
590.84	2056.73
591.19	2050.64
591.54	2043.97
591.89	2036.46
592.25	2029.54
592.60	2022.36
592.95	2014.60
593.30	2007.07
593.65	1999.37
594.00	1992.31
594.35	1984.97
594.70	1976.91
595.05	1969.50
595.40	1962.28
595.75	1954.68
596.10	1948.22
596.45	1941.33
596.80	1935.11
597.15	1928.42
597.50	1921.11
597.85	1914.66
598.19	1908.02
598.54	1900.85
598.89	1894.14
599.24	1888.15
599.59	1881.38
599.94	1875.12
600.29	1868.85
600.64	1862.27
600.99	1854.77
601.34	1847.77
601.69	1840.78
602.04	1833.83
602.39	1826.36
602.74	1819.31
603.08	1812.65
603.43	1805.90
603.78	1798.71
604.13	1791.52
604.48	1784.21
604.83	1777.55
605.18	1770.44
605.53	1762.37
605.87	1754.34
606.22	1747.16
606.57	1739.34
606.92	1732.10
607.27	1724.89
607.62	1717.97
607.96	1710.70
608.31	1704.04
608.66	1696.44
609.01	1688.91
609.36	1681.27
609.70	1673.20
610.05	1665.25
610.40	1657.51
610.75	1649.13
611.10	1641.40
611.44	1633.13
611.79	1625.08
612.14	1616.35
612.49	1607.32
612.83	1599.03
613.18	1591.00
613.53	1582.86
613.88	1574.24
614.22	1565.93
614.57	1557.42
614.92	1549.33
615.27	1541.70
615.61	1533.40
615.96	1525.43
616.31	1517.78
616.65	1510.46
617.00	1502.92
617.35	1495.24
617.70	1486.87
618.04	1478.40
618.39	1470.14
618.74	1462.43
619.08	1454.19
619.43	1446.66
619.78	1439.76
620.12	1432.56
620.47	1425.08
620.82	1417.02
621.16	1409.66
621.51	1402.14
621.85	1394.53
622.20	1386.03
622.55	1377.79
622.89	1370.03
623.24	1362.55
623.59	1355.26
623.93	1347.74
624.28	1340.62
624.62	1333.09
624.97	1325.95
625.32	1319.23
625.66	1312.24
626.01	1305.03
626.35	1297.60
626.70	1289.95
627.04	1282.22
627.39	1274.48
627.73	1267.03
628.08	1260.18
628.43	1252.90
628.77	1245.45
629.12	1237.84
629.46	1230.75
629.81	1223.34
630.15	1216.17
630.50	1208.80
630.84	1200.65
631.19	1192.84
631.53	1185.40
631.88	1177.82
632.22	1170.26
632.57	1163.10
632.91	1155.70
633.26	1148.41
633.60	1141.13
633.95	1134.08
634.29	1127.10
634.64	1120.51
634.98	1113.13
635.32	1105.98
635.67	1099.47
636.01	1092.93
636.36	1086.28
636.70	1079.75
637.05	1073.22
637.39	1066.77
637.73	1060.25
638.08	1054.47
638.42	1048.49
638.77	1042.19
639.11	1035.62
639.45	1029.37
639.80	1022.64
640.14	1016.16
640.49	1009.60
640.83	1003.31
641.17	996.93
641.52	990.68
641.86	984.24
642.20	978.60
642.55	972.39
642.89	965.90
643.23	959.38
643.58	953.57
643.92	947.45
644.26	941.33
644.61	935.38
644.95	929.33
645.29	922.60
645.64	915.87
645.98	909.45
646.32	903.68
646.66	897.61
647.01	891.78
647.35	886.14
647.69	880.34
648.04	874.89
648.38	869.14
648.72	863.05
649.06	857.00
649.41	851.00
649.75	844.94
650.09	838.98
650.43	833.22
650.78	827.03
651.12	821.02
651.46	815.33
651.80	809.48
652.14	804.10
652.49	798.74
652.83	793.57
653.17	787.86
653.51	782.14
653.85	776.78
654.20	771.16
654.54	765.21
654.88	759.54
655.22	753.67
655.56	747.99
655.90	742.61
656.25	737.32
656.59	731.99
656.93	726.95
657.27	721.83
657.61	716.43
657.95	711.36
658.29	706.34
658.64	701.20
658.98	695.95
659.32	690.51
659.66	685.38
660.00	680.15
660.34	675.29
660.68	670.47
661.02	665.42
661.36	660.80
661.70	656.25
662.05	651.87
662.39	647.54
662.73	643.12
663.07	638.78
663.41	634.41
663.75	629.98
664.09	625.41
664.43	621.04
664.77	616.96
665.11	612.73
665.45	608.66
665.79	604.59
666.13	600.49
666.47	596.42
666.81	592.29
667.15	588.20
667.49	584.29
667.83	580.48
668.17	576.62
668.51	572.55
668.85	568.62
669.19	564.80
669.53	560.96
669.87	557.07
670.21	553.41
670.55	549.80
670.89	546.37
671.23	543.05
671.57	539.55
671.91	536.06
672.25	532.67
672.58	529.16
672.92	525.78
673.26	522.72
673.60	519.64
673.94	516.52
674.28	513.67
674.62	510.80
674.96	507.70
675.30	504.81
675.64	501.92
675.97	499.20
676.31	496.38
676.65	493.44
676.99	490.83
677.33	487.94
677.67	485.16
678.01	482.09
678.34	479.05
678.68	476.24
679.02	473.42
679.36	470.62
679.70	467.89
680.04	465.12
680.37	462.19
680.71	459.39
681.05	456.83
681.39	454.06
681.73	451.43
682.06	448.91
682.40	446.38
682.74	443.86
683.08	441.29
683.42	438.69
683.75	436.22
684.09	433.68
684.43	431.23
684.77	428.74
685.10	426.45
685.44	424.15
685.78	421.91
686.12	419.66
686.45	417.43
686.79	415.13
687.13	412.91
687.46	410.73
687.80	408.59
688.14	406.40
688.48	404.40
688.81	402.07
689.15	399.96
689.49	397.80
689.82	395.74
690.16	393.69
690.50	391.82
690.83	389.89
691.17	387.96
691.51	386.11
691.84	384.27
692.18	382.33
692.52	380.42
692.85	378.51
693.19	376.65
693.52	374.84
693.86	373.06
694.20	371.33
694.53	369.59
694.87	367.81
695.21	366.00
695.54	364.16
695.88	362.48
696.21	360.72
696.55	359.05
696.88	357.37
697.22	355.73
697.56	354.07
697.89	352.43
698.23	350.78
698.56	349.11
698.90	347.53
699.23	345.87
699.57	344.31
699.90	342.75
700.24	341.16
700.58	339.55
700.91	338.06
701.25	336.59
701.58	335.21
701.92	333.84
702.25	332.47
702.59	331.11
702.92	329.77
703.26	328.51
703.59	327.25
703.93	326.07
704.26	324.79
704.60	323.49
704.93	322.26
705.26	321.05
705.60	319.93
705.93	318.77
706.27	317.79
706.60	316.75
706.94	315.67
707.27	314.59
707.61	313.61
707.94	312.62
708.27	311.56
708.61	310.53
708.94	309.50
709.28	308.58
709.61	307.63
709.94	306.73
710.28	305.68
710.61	304.72
710.95	303.62
711.28	302.76
711.61	301.83
711.95	300.88
712.28	299.96
712.61	298.96
712.95	298.04
713.28	297.14
713.61	296.25
713.95	295.36
714.28	294.53
714.61	293.65
714.95	292.82
715.28	291.98
715.61	291.10
715.95	290.28
716.28	289.38
716.61	288.54
716.95	287.74
717.28	287.06
717.61	286.25
717.94	285.57
718.28	284.73
718.61	284.02
718.94	283.33
719.27	282.67
719.61	282.08
719.94	281.44
720.27	280.76
720.60	280.06
720.94	279.47
721.27	278.88
721.60	278.32
721.93	277.72
722.27	277.19
722.60	276.61
722.93	276.06
723.26	275.57
723.59	275.01
723.93	274.44
724.26	273.88
724.59	273.35
724.92	272.80
725.25	272.31
725.59	271.78
725.92	271.28
726.25	270.73
726.58	270.20
726.91	269.72
727.24	269.26
727.57	268.80
727.91	268.28
728.24	267.81
728.57	267.33
728.90	266.86
729.23	266.32
729.56	265.89
729.89	265.41
730.22	264.87
730.55	264.40
730.89	263.97
731.22	263.51
731.55	263.05
731.88	262.62
732.21	262.16
732.54	261.71
732.87	261.29
733.20	260.91
733.53	260.50
733.86	260.10
734.19	259.71
734.52	259.31
734.85	259.01
735.18	258.61
735.51	258.26
735.84	257.87
736.17	257.55
736.50	257.12
736.83	256.88
737.16	256.60
737.49	256.27
737.82	255.88
738.15	255.55
738.48	255.22
738.81	254.92
739.14	254.61
739.47	254.30
739.80	254.01
740.13	253.71
740.46	253.35
740.79	253.02
741.12	252.71
741.45	252.38
741.78	252.01
742.11	251.74
742.44	251.40
742.77	251.11
743.10	250.80
743.43	250.54
743.75	250.15
744.08	249.98
744.41	249.73
744.74	249.50
745.07	249.23
745.40	248.98
745.73	248.76
746.06	248.48
746.39	248.23
746.71	247.93
747.04	247.64
747.37	247.40
747.70	247.18
748.03	246.92
748.36	246.73
748.68	246.48
749.01	246.21
749.34	245.99
749.67	245.81
750.00	245.57
750.33	245.40
750.65	245.20
750.98	244.87
751.31	244.65
751.64	244.43
751.97	244.25
752.29	244.04
752.62	243.79
752.95	243.61
753.28	243.41
753.60	243.23
753.93	243.08
754.26	242.93
754.59	242.72
754.91	242.49
755.24	242.31
755.57	242.16
755.90	242.01
756.22	241.82
756.55	241.61
756.88	241.43
757.20	241.20
757.53	240.98
757.86	240.82
758.19	240.66
758.51	240.51
758.84	240.32
759.17	240.15
759.49	240.02
759.82	239.91
760.15	239.76
760.47	239.62
760.80	239.41
761.13	239.27
761.45	239.14
761.78	239.02
762.11	238.85
762.43	238.71
762.76	238.54
763.08	238.41
763.41	238.30
763.74	238.23
764.06	238.10
764.39	238.01
764.71	237.85
765.04	237.71
765.37	237.56
765.69	237.45
766.02	237.30
766.34	237.13
766.67	236.97
767.00	236.89
767.32	236.82
767.65	236.78
767.97	236.67
768.30	236.56
768.62	236.45
768.95	236.33
769.27	236.19
769.60	236.10
769.92	235.99
770.25	235.86
770.57	235.65
770.90	235.55
771.22	235.40
771.55	235.31
771.87	235.24
772.20	235.13
772.52	235.11
772.85	235.14
773.17	235.07
773.50	235.00
773.82	234.91
774.15	234.73
774.47	234.58
774.80	234.45
775.12	234.34
775.45	234.26
775.77	234.19
776.09	234.15
776.42	234.06
776.74	234.00
777.07	233.94
777.39	233.88
777.72	233.80
778.04	233.76
778.36	233.69
778.69	233.57
779.01	233.52
779.33	233.34
779.66	233.17
779.98	233.09
780.31	233.02
780.63	232.97
780.95	232.91
781.28	232.86
781.60	232.81
781.92	232.75
782.25	232.68
782.57	232.58
782.89	232.51
783.22	232.43
783.54	232.37
783.86	232.31
784.19	232.30
784.51	232.27
784.83	232.19
785.16	232.14
785.48	232.11
785.80	232.06
786.12	232.05
786.45	232.01
786.77	231.99
787.09	231.92
