SpectraSuite Data File
++++++++++++++++++++++++++++++++++++
Date: Fri Feb 01 18:03:44 EST 2013
User: group
Dark Spectrum Present: No
Reference Spectrum Present: No
Number of Sampled Component Spectra: 1
Spectrometers: USB2E7196
Integration Time (usec): 35000 (USB2E7196)
Spectra Averaged: 100 (USB2E7196)
Boxcar Smoothing: 10 (USB2E7196)
Correct for Electrical Dark: No (USB2E7196)
Strobe/Lamp Enabled: No (USB2E7196)
Correct for Detector Non-linearity: No (USB2E7196)
Correct for Stray Light: No (USB2E7196)
Number of Pixels in Processed Spectrum: 2048
>>>>>Begin Processed Spectral Data<<<<<
339.09	0.00
339.48	212.92
339.86	214.22
340.24	215.59
340.63	216.84
341.01	219.76
341.39	219.75
341.78	220.81
342.16	222.61
342.54	222.58
342.93	211.16
343.31	221.82
343.69	222.37
344.07	222.83
344.46	223.27
344.84	223.66
345.22	223.90
345.60	224.15
345.99	224.35
346.37	224.48
346.75	224.60
347.13	224.64
347.52	224.70
347.90	224.74
348.28	224.76
348.66	224.82
349.05	224.77
349.43	224.81
349.81	224.87
350.19	224.93
350.57	225.01
350.96	225.09
351.34	225.19
351.72	225.26
352.10	225.33
352.48	225.37
352.87	225.40
353.25	225.47
353.63	225.50
354.01	225.55
354.39	225.60
354.77	225.67
355.15	225.77
355.54	225.82
355.92	225.87
356.30	225.93
356.68	226.06
357.06	226.18
357.44	226.21
357.82	226.28
358.20	226.34
358.58	226.38
358.97	226.46
359.35	226.52
359.73	226.62
360.11	226.71
360.49	226.78
360.87	226.89
361.25	226.93
361.63	227.02
362.01	227.09
362.39	227.11
362.77	227.15
363.15	227.18
363.53	227.25
363.91	227.28
364.29	227.35
364.67	227.28
365.05	227.28
365.43	227.34
365.81	227.36
366.19	227.41
366.57	227.48
366.95	227.48
367.33	227.47
367.71	227.47
368.09	227.49
368.47	227.48
368.85	227.44
369.23	227.47
369.61	227.45
369.99	227.45
370.37	227.48
370.75	227.49
371.13	227.45
371.51	227.39
371.89	227.35
372.27	227.32
372.65	227.32
373.03	227.32
373.41	227.26
373.78	227.23
374.16	227.17
374.54	227.09
374.92	227.06
375.30	227.01
375.68	226.91
376.06	226.88
376.44	226.85
376.82	226.79
377.19	226.72
377.57	226.68
377.95	226.60
378.33	226.55
378.71	226.45
379.09	226.41
379.47	226.39
379.84	226.34
380.22	226.29
380.60	226.17
380.98	226.10
381.36	226.07
381.73	225.98
382.11	225.95
382.49	225.90
382.87	225.83
383.25	225.80
383.62	225.88
384.00	225.81
384.38	225.77
384.76	225.77
385.13	225.79
385.51	225.71
385.89	225.66
386.27	225.59
386.64	225.58
387.02	225.53
387.40	225.45
387.78	225.45
388.15	225.41
388.53	225.42
388.91	225.35
389.29	225.32
389.66	225.32
390.04	225.26
390.42	225.26
390.79	225.23
391.17	225.20
391.55	225.03
391.92	225.00
392.30	224.98
392.68	224.94
393.05	224.91
393.43	224.93
393.81	224.93
394.18	224.94
394.56	224.92
394.94	224.96
395.31	224.95
395.69	224.97
396.06	224.98
396.44	225.01
396.82	225.04
397.19	225.08
397.57	225.10
397.95	225.18
398.32	225.15
398.70	225.20
399.07	225.29
399.45	225.39
399.82	225.45
400.20	225.50
400.58	225.51
400.95	225.51
401.33	225.58
401.70	225.73
402.08	225.79
402.45	225.90
402.83	226.01
403.20	226.14
403.58	226.24
403.95	226.38
404.33	226.51
404.71	226.63
405.08	226.81
405.46	226.99
405.83	227.14
406.21	227.32
406.58	227.53
406.96	227.69
407.33	227.89
407.70	228.12
408.08	228.44
408.45	228.71
408.83	228.99
409.20	229.25
409.58	229.50
409.95	229.81
410.33	230.17
410.70	230.50
411.08	230.87
411.45	231.25
411.82	231.65
412.20	232.11
412.57	232.67
412.95	233.04
413.32	233.56
413.69	234.08
414.07	234.66
414.44	235.31
414.82	235.94
415.19	236.66
415.56	237.42
415.94	238.18
416.31	239.07
416.68	239.90
417.06	240.92
417.43	241.79
417.81	242.81
418.18	243.84
418.55	244.96
418.93	246.15
419.30	247.38
419.67	248.66
420.04	249.96
420.42	251.29
420.79	252.92
421.16	254.48
421.54	256.09
421.91	257.79
422.28	259.44
422.66	261.25
423.03	262.99
423.40	264.82
423.77	266.74
424.15	268.67
424.52	270.72
424.89	272.88
425.26	275.03
425.64	277.02
426.01	279.18
426.38	281.44
426.75	283.72
427.13	286.05
427.50	288.47
427.87	291.05
428.24	293.64
428.61	296.01
428.99	298.62
429.36	301.51
429.73	304.32
430.10	307.10
430.47	309.92
430.85	312.80
431.22	315.82
431.59	319.00
431.96	322.04
432.33	325.38
432.70	328.60
433.08	332.39
433.45	335.99
433.82	339.51
434.19	343.37
434.56	347.20
434.93	350.81
435.30	354.37
435.68	358.25
436.05	362.04
436.42	365.86
436.79	369.31
437.16	372.95
437.53	376.76
437.90	380.57
438.27	384.26
438.64	388.09
439.01	391.66
439.38	394.68
439.75	397.63
440.13	401.01
440.50	404.19
440.87	406.69
441.24	409.32
441.61	412.30
441.98	414.38
442.35	416.79
442.72	419.31
443.09	421.78
443.46	423.18
443.83	424.00
444.20	424.71
444.57	425.84
444.94	426.20
445.31	426.69
445.68	427.13
446.05	427.25
446.42	426.78
446.79	426.15
447.16	425.60
447.53	425.20
447.90	423.65
448.27	422.09
448.64	419.99
449.01	418.47
449.37	415.77
449.74	413.21
450.11	410.14
450.48	406.78
450.85	403.37
451.22	400.45
451.59	397.66
451.96	395.06
452.33	391.57
452.70	388.35
453.07	384.51
453.43	380.61
453.80	376.85
454.17	373.20
454.54	369.77
454.91	366.07
455.28	362.40
455.65	359.06
456.02	355.64
456.38	352.68
456.75	349.04
457.12	345.97
457.49	342.93
457.86	339.98
458.23	337.47
458.59	334.67
458.96	331.77
459.33	329.28
459.70	326.66
460.07	324.59
460.43	322.28
460.80	320.05
461.17	318.07
461.54	316.00
461.91	314.01
462.27	311.99
462.64	310.26
463.01	308.40
463.38	306.57
463.74	304.77
464.11	303.21
464.48	301.82
464.85	300.30
465.21	299.05
465.58	297.77
465.95	296.23
466.32	294.97
466.68	293.77
467.05	292.54
467.42	291.34
467.78	290.01
468.15	288.84
468.52	287.91
468.88	286.73
469.25	285.66
469.62	284.83
469.98	283.93
470.35	283.05
470.72	282.23
471.08	281.35
471.45	280.57
471.82	279.77
472.18	278.90
472.55	278.27
472.92	277.57
473.28	276.98
473.65	276.38
474.02	275.74
474.38	275.19
474.75	274.70
475.11	274.18
475.48	273.78
475.85	273.41
476.21	273.05
476.58	272.73
476.94	272.50
477.31	272.18
477.67	271.93
478.04	271.68
478.41	271.51
478.77	271.45
479.14	271.30
479.50	271.26
479.87	271.28
480.23	271.29
480.60	271.32
480.96	271.31
481.33	271.48
481.69	271.63
482.06	271.79
482.42	271.93
482.79	272.14
483.15	272.44
483.52	272.83
483.88	273.14
484.25	273.51
484.61	273.91
484.98	274.38
485.34	274.91
485.71	275.54
486.07	276.15
486.44	276.73
486.80	277.47
487.17	278.19
487.53	279.02
487.90	279.89
488.26	280.84
488.62	281.86
488.99	282.83
489.35	283.88
489.72	285.02
490.08	286.29
490.44	287.55
490.81	288.89
491.17	290.28
491.54	291.82
491.90	293.42
492.26	295.17
492.63	296.93
492.99	298.78
493.36	300.74
493.72	302.91
494.08	305.14
494.45	307.50
494.81	310.05
495.17	312.61
495.54	315.33
495.90	318.19
496.26	321.14
496.63	324.25
496.99	327.58
497.35	331.08
497.72	334.67
498.08	338.45
498.44	342.36
498.80	346.52
499.17	350.83
499.53	355.26
499.89	359.88
500.26	364.67
500.62	369.68
500.98	374.96
501.34	380.42
501.71	386.04
502.07	391.85
502.43	397.81
502.79	404.00
503.16	410.45
503.52	417.09
503.88	423.92
504.24	431.08
504.60	438.40
504.97	445.97
505.33	453.76
505.69	461.96
506.05	470.27
506.41	478.66
506.78	487.28
507.14	496.35
507.50	505.66
507.86	515.32
508.22	525.10
508.59	534.97
508.95	545.12
509.31	555.68
509.67	566.51
510.03	577.53
510.39	588.80
510.75	600.35
511.12	612.00
511.48	624.10
511.84	636.29
512.20	648.65
512.56	661.54
512.92	674.62
513.28	687.85
513.64	701.33
514.00	715.01
514.37	729.04
514.73	743.14
515.09	757.20
515.45	771.56
515.81	786.25
516.17	801.42
516.53	816.68
516.89	831.99
517.25	847.32
517.61	862.95
517.97	878.60
518.33	894.35
518.69	910.51
519.05	926.90
519.41	943.49
519.77	960.36
520.13	977.11
520.49	993.89
520.85	1010.66
521.21	1027.77
521.57	1045.55
521.93	1062.79
522.29	1080.66
522.65	1098.44
523.01	1116.21
523.37	1133.88
523.73	1151.51
524.09	1169.24
524.45	1187.14
524.81	1205.51
525.17	1224.07
525.53	1242.77
525.89	1261.37
526.25	1279.90
526.61	1298.06
526.97	1316.48
527.33	1334.83
527.68	1353.28
528.04	1371.56
528.40	1390.08
528.76	1409.10
529.12	1427.47
529.48	1446.35
529.84	1464.19
530.20	1482.91
530.56	1501.92
530.91	1521.34
531.27	1540.21
531.63	1558.73
531.99	1577.39
532.35	1595.37
532.71	1613.27
533.07	1631.69
533.42	1649.66
533.78	1667.95
534.14	1686.25
534.50	1703.84
534.86	1721.82
535.21	1739.12
535.57	1757.23
535.93	1774.98
536.29	1791.96
536.65	1809.40
537.00	1826.19
537.36	1843.81
537.72	1860.39
538.08	1877.08
538.44	1892.99
538.79	1909.20
539.15	1925.05
539.51	1940.97
539.87	1957.55
540.22	1973.49
540.58	1989.50
540.94	2005.07
541.29	2020.10
541.65	2035.20
542.01	2050.63
542.37	2065.23
542.72	2079.92
543.08	2094.06
543.44	2108.77
543.79	2122.30
544.15	2135.43
544.51	2149.44
544.87	2162.67
545.22	2175.86
545.58	2188.27
545.94	2200.38
546.29	2212.52
546.65	2224.62
547.01	2236.30
547.36	2247.14
547.72	2257.87
548.07	2267.80
548.43	2278.13
548.79	2288.23
549.14	2297.83
549.50	2307.13
549.86	2316.77
550.21	2326.21
550.57	2335.50
550.92	2344.17
551.28	2353.20
551.64	2362.28
551.99	2370.71
552.35	2378.79
552.70	2386.93
553.06	2394.88
553.41	2403.11
553.77	2410.89
554.13	2418.92
554.48	2426.89
554.84	2434.52
555.19	2441.48
555.55	2448.52
555.90	2454.67
556.26	2461.33
556.61	2467.69
556.97	2473.95
557.32	2480.00
557.68	2485.71
558.03	2491.56
558.39	2496.82
558.74	2503.10
559.10	2508.53
559.45	2513.83
559.81	2519.73
560.16	2525.17
560.52	2529.84
560.87	2534.79
561.23	2538.73
561.58	2542.92
561.94	2546.78
562.29	2550.27
562.64	2554.54
563.00	2558.39
563.35	2563.32
563.71	2567.92
564.06	2572.50
564.42	2576.70
564.77	2580.38
565.12	2584.09
565.48	2587.23
565.83	2590.37
566.19	2592.88
566.54	2594.81
566.89	2597.00
567.25	2598.59
567.60	2600.91
567.96	2603.81
568.31	2605.50
568.66	2607.84
569.02	2609.27
569.37	2610.54
569.72	2612.49
570.08	2613.37
570.43	2614.25
570.78	2614.49
571.14	2613.37
571.49	2612.50
571.84	2612.76
572.20	2612.37
572.55	2611.77
572.90	2610.61
573.26	2609.62
573.61	2608.29
573.96	2607.11
574.31	2604.55
574.67	2601.89
575.02	2598.28
575.37	2594.90
575.72	2591.32
576.08	2587.97
576.43	2584.82
576.78	2581.31
577.13	2578.07
577.49	2574.97
577.84	2571.63
578.19	2567.76
578.54	2564.25
578.90	2560.20
579.25	2554.29
579.60	2549.01
579.95	2543.79
580.30	2538.54
580.66	2533.11
581.01	2527.78
581.36	2522.49
581.71	2518.02
582.06	2513.38
582.42	2508.80
582.77	2503.22
583.12	2498.37
583.47	2493.41
583.82	2488.24
584.17	2482.44
584.53	2476.45
584.88	2470.32
585.23	2464.05
585.58	2457.95
585.93	2451.84
586.28	2446.49
586.63	2441.02
586.98	2435.47
587.34	2430.30
587.69	2424.90
588.04	2419.04
588.39	2412.79
588.74	2405.47
589.09	2398.65
589.44	2391.10
589.79	2384.27
590.14	2378.02
590.49	2370.73
590.84	2363.47
591.19	2356.64
591.54	2349.39
591.89	2341.25
592.25	2333.66
592.60	2325.41
592.95	2317.14
593.30	2308.95
593.65	2300.25
594.00	2292.36
594.35	2284.15
594.70	2274.93
595.05	2266.88
595.40	2258.64
595.75	2250.14
596.10	2243.24
596.45	2235.38
596.80	2228.27
597.15	2220.70
597.50	2212.72
597.85	2205.04
598.19	2197.38
598.54	2189.25
598.89	2181.62
599.24	2174.74
599.59	2167.26
599.94	2159.95
600.29	2152.51
600.64	2144.88
600.99	2136.49
601.34	2128.48
601.69	2120.26
602.04	2112.44
602.39	2103.73
602.74	2095.80
603.08	2087.96
603.43	2080.09
603.78	2071.74
604.13	2063.28
604.48	2054.82
604.83	2046.81
605.18	2038.91
605.53	2029.77
605.87	2020.49
606.22	2011.97
606.57	2002.36
606.92	1993.54
607.27	1985.35
607.62	1977.32
607.96	1968.93
608.31	1961.16
608.66	1952.30
609.01	1943.52
609.36	1934.63
609.70	1925.40
610.05	1915.99
610.40	1906.93
610.75	1897.10
611.10	1887.98
611.44	1878.10
611.79	1868.69
612.14	1858.45
612.49	1847.69
612.83	1837.78
613.18	1828.03
613.53	1818.46
613.88	1808.67
614.22	1798.93
614.57	1788.59
614.92	1779.02
615.27	1770.07
615.61	1760.21
615.96	1750.59
616.31	1741.58
616.65	1732.91
617.00	1723.92
617.35	1714.75
617.70	1704.95
618.04	1695.04
618.39	1685.38
618.74	1676.37
619.08	1666.63
619.43	1657.44
619.78	1649.21
620.12	1640.67
620.47	1631.95
620.82	1622.31
621.16	1613.45
621.51	1604.47
621.85	1595.49
622.20	1585.40
622.55	1575.49
622.89	1566.15
623.24	1557.12
623.59	1548.25
623.93	1539.31
624.28	1530.77
624.62	1521.92
624.97	1513.37
625.32	1505.27
625.66	1496.96
626.01	1488.50
626.35	1479.82
626.70	1470.91
627.04	1461.75
627.39	1452.55
627.73	1443.72
628.08	1435.64
628.43	1427.28
628.77	1418.63
629.12	1409.76
629.46	1401.42
629.81	1392.46
630.15	1384.00
630.50	1375.34
630.84	1365.86
631.19	1356.49
631.53	1347.60
631.88	1338.65
632.22	1329.87
632.57	1321.20
632.91	1312.27
633.26	1303.49
633.60	1294.69
633.95	1286.07
634.29	1277.82
634.64	1269.89
634.98	1261.29
635.32	1252.89
635.67	1245.00
636.01	1237.19
636.36	1229.27
636.70	1221.53
637.05	1213.92
637.39	1206.37
637.73	1198.68
638.08	1191.71
638.42	1184.63
638.77	1177.05
639.11	1169.42
639.45	1161.79
639.80	1154.08
640.14	1146.77
640.49	1139.11
640.83	1131.71
641.17	1124.56
641.52	1117.09
641.86	1109.55
642.20	1102.67
642.55	1095.15
642.89	1087.61
643.23	1079.91
643.58	1073.13
643.92	1066.04
644.26	1059.05
644.61	1051.92
644.95	1044.97
645.29	1037.35
645.64	1029.52
645.98	1022.07
646.32	1015.10
646.66	1008.09
647.01	1001.36
647.35	994.61
647.69	987.80
648.04	981.29
648.38	974.56
648.72	967.69
649.06	960.69
649.41	953.80
649.75	946.88
650.09	939.95
650.43	933.21
650.78	926.03
651.12	919.08
651.46	912.41
651.80	905.78
652.14	899.53
652.49	893.26
652.83	887.29
653.17	880.81
653.51	874.33
653.85	868.04
654.20	861.47
654.54	854.51
654.88	847.90
655.22	841.03
655.56	834.46
655.90	828.09
656.25	822.01
656.59	815.80
656.93	810.01
657.27	803.97
657.61	797.62
657.95	791.73
658.29	785.77
658.64	779.59
658.98	773.39
659.32	767.02
659.66	760.94
660.00	754.76
660.34	748.96
660.68	743.19
661.02	737.36
661.36	731.89
661.70	726.62
662.05	721.57
662.39	716.57
662.73	711.35
663.07	706.30
663.41	701.10
663.75	695.94
664.09	690.55
664.43	685.47
664.77	680.77
665.11	675.80
665.45	670.99
665.79	666.31
666.13	661.55
666.47	656.80
666.81	652.03
667.15	647.30
667.49	642.80
667.83	638.39
668.17	633.88
668.51	629.15
668.85	624.45
669.19	620.00
669.53	615.66
669.87	611.18
670.21	606.76
670.55	602.57
670.89	598.57
671.23	594.60
671.57	590.54
671.91	586.43
672.25	582.44
672.58	578.39
672.92	574.42
673.26	570.72
673.60	567.03
673.94	563.43
674.28	559.99
674.62	556.56
674.96	552.95
675.30	549.58
675.64	546.27
675.97	543.02
676.31	539.66
676.65	536.23
676.99	533.09
677.33	529.81
677.67	526.58
678.01	523.08
678.34	519.63
678.68	516.31
679.02	513.09
679.36	509.84
679.70	506.70
680.04	503.54
680.37	500.20
680.71	496.99
681.05	493.95
681.39	490.86
681.73	487.82
682.06	484.90
682.40	481.86
682.74	478.85
683.08	475.93
683.42	472.94
683.75	470.07
684.09	467.07
684.43	464.19
684.77	461.31
685.10	458.62
685.44	455.95
685.78	453.25
686.12	450.56
686.45	447.88
686.79	445.23
687.13	442.64
687.46	440.11
687.80	437.58
688.14	435.00
688.48	432.62
688.81	430.04
689.15	427.56
689.49	425.09
689.82	422.69
690.16	420.28
690.50	417.99
690.83	415.69
691.17	413.42
691.51	411.25
691.84	409.09
692.18	406.85
692.52	404.58
692.85	402.30
693.19	400.16
693.52	398.06
693.86	395.90
694.20	393.78
694.53	391.72
694.87	389.58
695.21	387.49
695.54	385.32
695.88	383.27
696.21	381.26
696.55	379.36
696.88	377.40
697.22	375.47
697.56	373.57
697.89	371.69
698.23	369.91
698.56	368.02
698.90	366.18
699.23	364.26
699.57	362.45
699.90	360.70
700.24	358.91
700.58	357.14
700.91	355.45
701.25	353.81
701.58	352.22
701.92	350.65
702.25	349.07
702.59	347.54
702.92	346.03
703.26	344.52
703.59	343.01
703.93	341.64
704.26	340.19
704.60	338.70
704.93	337.22
705.26	335.72
705.60	334.38
705.93	333.07
706.27	331.87
706.60	330.66
706.94	329.43
707.27	328.10
707.61	326.83
707.94	325.62
708.27	324.34
708.61	323.09
708.94	321.91
709.28	320.72
709.61	319.59
709.94	318.46
710.28	317.27
710.61	316.10
710.95	314.82
711.28	313.79
711.61	312.70
711.95	311.66
712.28	310.55
712.61	309.38
712.95	308.27
713.28	307.21
713.61	306.14
713.95	305.13
714.28	304.15
714.61	303.21
714.95	302.19
715.28	301.23
715.61	300.20
715.95	299.19
716.28	298.20
716.61	297.20
716.95	296.23
717.28	295.32
717.61	294.42
717.94	293.59
718.28	292.63
718.61	291.74
718.94	290.87
719.27	290.06
719.61	289.31
719.94	288.56
720.27	287.71
720.60	286.94
720.94	286.21
721.27	285.53
721.60	284.79
721.93	284.07
722.27	283.43
722.60	282.75
722.93	282.10
723.26	281.46
723.59	280.81
723.93	280.17
724.26	279.50
724.59	278.84
724.92	278.23
725.25	277.62
725.59	277.03
725.92	276.44
726.25	275.88
726.58	275.30
726.91	274.70
727.24	274.16
727.57	273.64
727.91	272.98
728.24	272.43
728.57	271.87
728.90	271.36
729.23	270.73
729.56	270.24
729.89	269.70
730.22	269.17
730.55	268.62
730.89	268.12
731.22	267.62
731.55	267.13
731.88	266.57
732.21	266.04
732.54	265.56
732.87	265.09
733.20	264.59
733.53	264.15
733.86	263.74
734.19	263.24
734.52	262.73
734.85	262.37
735.18	261.87
735.51	261.46
735.84	261.04
736.17	260.64
736.50	260.19
736.83	259.90
737.16	259.50
737.49	259.12
737.82	258.72
738.15	258.33
738.48	257.94
738.81	257.59
739.14	257.20
739.47	256.80
739.80	256.41
740.13	256.04
740.46	255.64
740.79	255.24
741.12	254.89
741.45	254.55
741.78	254.14
742.11	253.80
742.44	253.41
742.77	253.07
743.10	252.74
743.43	252.40
743.75	251.94
744.08	251.75
744.41	251.41
744.74	251.07
745.07	250.74
745.40	250.45
745.73	250.18
746.06	249.89
746.39	249.59
746.71	249.27
747.04	248.98
747.37	248.68
747.70	248.41
748.03	248.15
748.36	247.89
748.68	247.59
749.01	247.32
749.34	247.11
749.67	246.84
750.00	246.57
750.33	246.34
750.65	246.09
750.98	245.70
751.31	245.48
751.64	245.27
751.97	245.10
752.29	244.83
752.62	244.53
752.95	244.30
753.28	244.08
753.60	243.84
753.93	243.62
754.26	243.40
754.59	243.14
754.91	242.89
755.24	242.65
755.57	242.46
755.90	242.24
756.22	241.97
756.55	241.72
756.88	241.50
757.20	241.28
757.53	241.08
757.86	240.88
758.19	240.67
758.51	240.46
758.84	240.22
759.17	240.03
759.49	239.81
759.82	239.64
760.15	239.43
760.47	239.26
760.80	239.05
761.13	238.91
761.45	238.72
761.78	238.56
762.11	238.39
762.43	238.20
762.76	238.04
763.08	237.88
763.41	237.74
763.74	237.57
764.06	237.37
764.39	237.21
764.71	237.03
765.04	236.86
765.37	236.69
765.69	236.53
766.02	236.40
766.34	236.26
766.67	236.09
767.00	235.95
767.32	235.86
767.65	235.78
767.97	235.60
768.30	235.51
768.62	235.37
768.95	235.21
769.27	235.09
769.60	234.98
769.92	234.84
770.25	234.68
770.57	234.57
770.90	234.45
771.22	234.31
771.55	234.20
771.87	234.08
772.20	233.94
772.52	233.91
772.85	233.88
773.17	233.78
773.50	233.69
773.82	233.56
774.15	233.39
774.47	233.26
774.80	233.15
775.12	233.01
775.45	232.89
775.77	232.81
776.09	232.71
776.42	232.61
776.74	232.55
777.07	232.48
777.39	232.38
777.72	232.30
778.04	232.22
778.36	232.15
778.69	232.09
779.01	232.01
779.33	231.82
779.66	231.63
779.98	231.53
780.31	231.44
780.63	231.43
780.95	231.40
781.28	231.31
781.60	231.22
781.92	231.13
782.25	231.06
782.57	230.94
782.89	230.86
783.22	230.77
783.54	230.66
783.86	230.57
784.19	230.52
784.51	230.48
784.83	230.43
785.16	230.37
785.48	230.32
785.80	230.29
786.12	230.26
786.45	230.21
