SpectraSuite Data File
++++++++++++++++++++++++++++++++++++
Date: Fri Feb 01 15:53:43 EST 2013
User: group
Dark Spectrum Present: No
Reference Spectrum Present: No
Number of Sampled Component Spectra: 1
Spectrometers: USB2E7196
Integration Time (usec): 35000 (USB2E7196)
Spectra Averaged: 100 (USB2E7196)
Boxcar Smoothing: 10 (USB2E7196)
Correct for Electrical Dark: No (USB2E7196)
Strobe/Lamp Enabled: No (USB2E7196)
Correct for Detector Non-linearity: No (USB2E7196)
Correct for Stray Light: No (USB2E7196)
Number of Pixels in Processed Spectrum: 2048
>>>>>Begin Processed Spectral Data<<<<<
339.09	0.00
339.48	214.95
339.86	216.31
340.24	217.68
340.63	218.57
341.01	221.70
341.39	221.75
341.78	223.12
342.16	224.30
342.54	224.80
342.93	213.20
343.31	223.97
343.69	224.51
344.07	225.01
344.46	225.43
344.84	225.83
345.22	226.07
345.60	226.34
345.99	226.53
346.37	226.69
346.75	226.78
347.13	226.88
347.52	226.91
347.90	227.03
348.28	227.03
348.66	227.08
349.05	227.06
349.43	227.11
349.81	227.11
350.19	227.18
350.57	227.23
350.96	227.29
351.34	227.37
351.72	227.45
352.10	227.50
352.48	227.55
352.87	227.61
353.25	227.69
353.63	227.73
354.01	227.76
354.39	227.78
354.77	227.85
355.15	227.93
355.54	228.03
355.92	228.00
356.30	228.07
356.68	228.16
357.06	228.25
357.44	228.29
357.82	228.38
358.20	228.43
358.58	228.48
358.97	228.54
359.35	228.59
359.73	228.66
360.11	228.71
360.49	228.76
360.87	228.78
361.25	228.82
361.63	228.90
362.01	228.96
362.39	229.03
362.77	229.06
363.15	229.08
363.53	229.07
363.91	229.11
364.29	229.11
364.67	229.08
365.05	229.09
365.43	229.11
365.81	229.10
366.19	229.15
366.57	229.19
366.95	229.18
367.33	229.16
367.71	229.15
368.09	229.17
368.47	229.16
368.85	229.15
369.23	229.15
369.61	229.08
369.99	229.07
370.37	229.04
370.75	229.05
371.13	229.02
371.51	228.96
371.89	228.91
372.27	228.87
372.65	228.82
373.03	228.75
373.41	228.70
373.78	228.66
374.16	228.53
374.54	228.45
374.92	228.38
375.30	228.33
375.68	228.23
376.06	228.16
376.44	228.08
376.82	228.02
377.19	227.93
377.57	227.87
377.95	227.80
378.33	227.69
378.71	227.53
379.09	227.46
379.47	227.41
379.84	227.35
380.22	227.29
380.60	227.16
380.98	227.11
381.36	227.05
381.73	226.96
382.11	226.91
382.49	226.85
382.87	226.75
383.25	226.71
383.62	226.75
384.00	226.66
384.38	226.65
384.76	226.60
385.13	226.56
385.51	226.50
385.89	226.43
386.27	226.42
386.64	226.43
387.02	226.38
387.40	226.33
387.78	226.27
388.15	226.24
388.53	226.25
388.91	226.23
389.29	226.20
389.66	226.20
390.04	226.16
390.42	226.15
390.79	226.16
391.17	226.13
391.55	226.04
391.92	226.01
392.30	226.00
392.68	225.99
393.05	226.02
393.43	226.02
393.81	226.04
394.18	226.03
394.56	226.04
394.94	226.06
395.31	226.09
395.69	226.14
396.06	226.16
396.44	226.17
396.82	226.21
397.19	226.29
397.57	226.31
397.95	226.37
398.32	226.38
398.70	226.45
399.07	226.54
399.45	226.56
399.82	226.66
400.20	226.70
400.58	226.78
400.95	226.81
401.33	226.93
401.70	227.06
402.08	227.17
402.45	227.26
402.83	227.38
403.20	227.52
403.58	227.62
403.95	227.76
404.33	227.90
404.71	228.00
405.08	228.16
405.46	228.32
405.83	228.49
406.21	228.63
406.58	228.79
406.96	228.96
407.33	229.17
407.70	229.39
408.08	229.67
408.45	229.88
408.83	230.15
409.20	230.33
409.58	230.53
409.95	230.77
410.33	231.04
410.70	231.30
411.08	231.58
411.45	231.88
411.82	232.21
412.20	232.58
412.57	233.02
412.95	233.35
413.32	233.77
413.69	234.16
414.07	234.63
414.44	235.09
414.82	235.54
415.19	236.11
415.56	236.65
415.94	237.20
416.31	237.85
416.68	238.45
417.06	239.17
417.43	239.83
417.81	240.63
418.18	241.39
418.55	242.24
418.93	243.11
419.30	244.03
419.67	244.97
420.04	245.92
420.42	246.90
420.79	248.07
421.16	249.23
421.54	250.41
421.91	251.62
422.28	252.88
422.66	254.22
423.03	255.50
423.40	256.81
423.77	258.25
424.15	259.68
424.52	261.16
424.89	262.79
425.26	264.36
425.64	265.78
426.01	267.34
426.38	268.96
426.75	270.66
427.13	272.34
427.50	274.12
427.87	275.99
428.24	277.82
428.61	279.53
428.99	281.45
429.36	283.56
429.73	285.60
430.10	287.61
430.47	289.69
430.85	291.77
431.22	294.00
431.59	296.34
431.96	298.56
432.33	301.08
432.70	303.41
433.08	306.22
433.45	308.88
433.82	311.53
434.19	314.40
434.56	317.19
434.93	319.85
435.30	322.51
435.68	325.42
436.05	328.27
436.42	331.08
436.79	333.63
437.16	336.33
437.53	339.17
437.90	342.01
438.27	344.72
438.64	347.56
439.01	350.16
439.38	352.40
439.75	354.61
440.13	357.06
440.50	359.42
440.87	361.26
441.24	363.16
441.61	365.31
441.98	366.79
442.35	368.57
442.72	370.40
443.09	372.17
443.46	373.15
443.83	373.71
444.20	374.22
444.57	375.02
444.94	375.32
445.31	375.63
445.68	375.99
446.05	376.09
446.42	375.72
446.79	375.30
447.16	374.84
447.53	374.47
447.90	373.30
448.27	372.15
448.64	370.57
449.01	369.45
449.37	367.49
449.74	365.63
450.11	363.39
450.48	360.94
450.85	358.46
451.22	356.31
451.59	354.32
451.96	352.39
452.33	349.79
452.70	347.40
453.07	344.63
453.43	341.69
453.80	338.92
454.17	336.26
454.54	333.76
454.91	331.05
455.28	328.37
455.65	325.91
456.02	323.46
456.38	321.30
456.75	318.64
457.12	316.37
457.49	314.14
457.86	311.99
458.23	310.16
458.59	308.11
458.96	305.99
459.33	304.13
459.70	302.24
460.07	300.75
460.43	299.06
460.80	297.42
461.17	295.99
461.54	294.52
461.91	293.08
462.27	291.59
462.64	290.35
463.01	289.03
463.38	287.73
463.74	286.36
464.11	285.22
464.48	284.20
464.85	283.08
465.21	282.20
465.58	281.30
465.95	280.19
466.32	279.24
466.68	278.37
467.05	277.45
467.42	276.58
467.78	275.67
468.15	274.78
468.52	274.11
468.88	273.29
469.25	272.54
469.62	271.92
469.98	271.25
470.35	270.60
470.72	269.98
471.08	269.32
471.45	268.75
471.82	268.22
472.18	267.60
472.55	267.19
472.92	266.70
473.28	266.18
473.65	265.75
474.02	265.30
474.38	264.97
474.75	264.67
475.11	264.34
475.48	264.06
475.85	263.81
476.21	263.59
476.58	263.38
476.94	263.18
477.31	263.02
477.67	262.87
478.04	262.79
478.41	262.74
478.77	262.76
479.14	262.74
479.50	262.74
479.87	262.86
480.23	262.92
480.60	263.01
480.96	263.11
481.33	263.34
481.69	263.54
482.06	263.71
482.42	263.88
482.79	264.14
483.15	264.44
483.52	264.83
483.88	265.17
484.25	265.57
484.61	266.02
484.98	266.44
485.34	266.98
485.71	267.54
486.07	268.16
486.44	268.72
486.80	269.43
487.17	270.17
487.53	270.97
487.90	271.85
488.26	272.76
488.62	273.77
488.99	274.72
489.35	275.75
489.72	276.90
490.08	278.08
490.44	279.32
490.81	280.67
491.17	282.04
491.54	283.52
491.90	285.07
492.26	286.70
492.63	288.45
492.99	290.26
493.36	292.16
493.72	294.21
494.08	296.35
494.45	298.58
494.81	300.95
495.17	303.37
495.54	305.94
495.90	308.63
496.26	311.43
496.63	314.42
496.99	317.55
497.35	320.79
497.72	324.23
498.08	327.73
498.44	331.38
498.80	335.32
499.17	339.37
499.53	343.51
499.89	347.94
500.26	352.51
500.62	357.17
500.98	362.17
501.34	367.30
501.71	372.62
502.07	378.08
502.43	383.74
502.79	389.57
503.16	395.63
503.52	401.92
503.88	408.37
504.24	415.00
504.60	421.88
504.97	429.00
505.33	436.38
505.69	444.10
506.05	451.87
506.41	459.74
506.78	467.90
507.14	476.33
507.50	485.01
507.86	494.04
508.22	503.22
508.59	512.40
508.95	521.98
509.31	531.83
509.67	541.94
510.03	552.15
510.39	562.80
510.75	573.59
511.12	584.53
511.48	595.78
511.84	607.26
512.20	618.83
512.56	630.78
512.92	642.95
513.28	655.26
513.64	667.76
514.00	680.48
514.37	693.47
514.73	706.64
515.09	719.73
515.45	733.01
515.81	746.55
516.17	760.59
516.53	774.68
516.89	788.81
517.25	802.95
517.61	817.40
517.97	831.80
518.33	846.18
518.69	861.00
519.05	876.04
519.41	891.13
519.77	906.67
520.13	922.17
520.49	937.51
520.85	952.93
521.21	968.67
521.57	984.91
521.93	1000.59
522.29	1016.87
522.65	1033.07
523.01	1049.21
523.37	1065.32
523.73	1081.35
524.09	1097.40
524.45	1113.77
524.81	1130.39
525.17	1147.09
525.53	1163.98
525.89	1180.95
526.25	1197.65
526.61	1214.01
526.97	1230.65
527.33	1247.08
527.68	1263.64
528.04	1280.07
528.40	1296.67
528.76	1313.58
529.12	1330.13
529.48	1347.07
529.84	1363.23
530.20	1379.81
530.56	1396.91
530.91	1414.30
531.27	1431.08
531.63	1447.52
531.99	1464.03
532.35	1480.02
532.71	1496.00
533.07	1512.24
533.42	1528.00
533.78	1544.06
534.14	1560.21
534.50	1575.65
534.86	1591.39
535.21	1606.50
535.57	1622.47
535.93	1637.90
536.29	1652.81
536.65	1667.72
537.00	1682.32
537.36	1697.52
537.72	1711.88
538.08	1726.24
538.44	1740.02
538.79	1753.93
539.15	1767.54
539.51	1781.33
539.87	1795.58
540.22	1809.24
540.58	1823.04
540.94	1836.46
541.29	1849.26
541.65	1861.96
542.01	1875.10
542.37	1887.54
542.72	1900.01
543.08	1911.75
543.44	1924.11
543.79	1935.24
544.15	1946.30
544.51	1957.99
544.87	1968.80
545.22	1979.75
545.58	1989.99
545.94	1999.62
546.29	2009.51
546.65	2019.43
547.01	2028.55
547.36	2037.17
547.72	2045.70
548.07	2053.36
548.43	2061.42
548.79	2069.45
549.14	2076.99
549.50	2084.34
549.86	2092.03
550.21	2099.20
550.57	2106.21
550.92	2112.81
551.28	2119.96
551.64	2127.05
551.99	2133.59
552.35	2139.86
552.70	2146.01
553.06	2151.94
553.41	2158.40
553.77	2164.45
554.13	2170.53
554.48	2176.78
554.84	2182.35
555.19	2187.52
555.55	2192.79
555.90	2197.31
556.26	2202.26
556.61	2206.96
556.97	2211.25
557.32	2215.24
557.68	2219.48
558.03	2223.91
558.39	2227.67
558.74	2232.25
559.10	2236.23
559.45	2239.90
559.81	2244.16
560.16	2248.03
560.52	2251.25
560.87	2254.75
561.23	2257.29
561.58	2260.19
561.94	2262.60
562.29	2264.89
562.64	2267.77
563.00	2270.29
563.35	2273.81
563.71	2276.87
564.06	2280.09
564.42	2283.02
564.77	2285.69
565.12	2287.93
565.48	2289.90
565.83	2291.79
566.19	2293.02
566.54	2293.83
566.89	2294.86
567.25	2295.41
567.60	2296.61
567.96	2298.26
568.31	2298.96
568.66	2300.14
569.02	2300.79
569.37	2300.98
569.72	2301.85
570.08	2301.89
570.43	2301.92
570.78	2301.29
571.14	2299.79
571.49	2298.46
571.84	2298.10
572.20	2296.82
572.55	2295.74
572.90	2294.06
573.26	2292.64
573.61	2291.09
573.96	2289.15
574.31	2286.15
574.67	2283.33
575.02	2279.76
575.37	2276.33
575.72	2272.59
576.08	2269.23
576.43	2265.82
576.78	2262.32
577.13	2259.28
577.49	2256.23
577.84	2252.72
578.19	2248.94
578.54	2245.23
578.90	2240.94
579.25	2235.32
579.60	2230.36
579.95	2225.44
580.30	2220.47
580.66	2215.40
581.01	2210.34
581.36	2205.59
581.71	2201.48
582.06	2196.83
582.42	2192.34
582.77	2187.14
583.12	2182.43
583.47	2177.59
583.82	2172.55
584.17	2167.26
584.53	2161.55
584.88	2155.73
585.23	2149.95
585.58	2144.45
585.93	2139.04
586.28	2134.30
586.63	2129.38
586.98	2124.42
587.34	2119.69
587.69	2114.79
588.04	2109.36
588.39	2103.78
588.74	2097.26
589.09	2091.11
589.44	2084.40
589.79	2078.44
590.14	2072.83
590.49	2066.40
590.84	2060.23
591.19	2054.23
591.54	2047.82
591.89	2040.62
592.25	2034.01
592.60	2026.78
592.95	2019.31
593.30	2012.01
593.65	2004.47
594.00	1997.41
594.35	1990.09
594.70	1981.96
595.05	1974.74
595.40	1967.53
595.75	1960.00
596.10	1953.86
596.45	1947.17
596.80	1941.03
597.15	1934.33
597.50	1927.15
597.85	1920.61
598.19	1913.84
598.54	1906.71
598.89	1900.00
599.24	1894.05
599.59	1887.31
599.94	1881.11
600.29	1874.72
600.64	1868.18
600.99	1860.80
601.34	1853.93
601.69	1847.04
602.04	1840.29
602.39	1832.92
602.74	1825.99
603.08	1819.29
603.43	1812.42
603.78	1805.10
604.13	1797.81
604.48	1790.45
604.83	1783.75
605.18	1776.77
605.53	1768.81
605.87	1760.87
606.22	1753.72
606.57	1745.75
606.92	1738.49
607.27	1731.32
607.62	1724.49
607.96	1717.16
608.31	1710.56
608.66	1702.94
609.01	1695.26
609.36	1687.60
609.70	1679.61
610.05	1671.58
610.40	1663.87
610.75	1655.57
611.10	1647.85
611.44	1639.56
611.79	1631.67
612.14	1622.95
612.49	1613.85
612.83	1605.46
613.18	1597.32
613.53	1589.16
613.88	1580.62
614.22	1572.16
614.57	1563.57
614.92	1555.44
615.27	1547.87
615.61	1539.45
615.96	1531.49
616.31	1523.98
616.65	1516.58
617.00	1509.02
617.35	1501.42
617.70	1493.02
618.04	1484.63
618.39	1476.39
618.74	1468.76
619.08	1460.44
619.43	1452.77
619.78	1445.90
620.12	1438.66
620.47	1431.13
620.82	1423.01
621.16	1415.67
621.51	1408.25
621.85	1400.64
622.20	1392.22
622.55	1383.85
622.89	1375.93
623.24	1368.22
623.59	1360.78
623.93	1353.28
624.28	1346.03
624.62	1338.43
624.97	1331.27
625.32	1324.51
625.66	1317.46
626.01	1310.23
626.35	1302.78
626.70	1295.08
627.04	1287.26
627.39	1279.45
627.73	1272.13
628.08	1265.14
628.43	1257.69
628.77	1250.23
629.12	1242.74
629.46	1235.58
629.81	1228.21
630.15	1220.99
630.50	1213.66
630.84	1205.48
631.19	1197.55
631.53	1189.99
631.88	1182.51
632.22	1174.86
632.57	1167.52
632.91	1159.97
633.26	1152.58
633.60	1145.30
633.95	1138.21
634.29	1131.23
634.64	1124.61
634.98	1117.15
635.32	1110.06
635.67	1103.51
636.01	1096.88
636.36	1090.02
636.70	1083.45
637.05	1076.87
637.39	1070.44
637.73	1063.88
638.08	1057.96
638.42	1052.03
638.77	1045.68
639.11	1039.02
639.45	1032.62
639.80	1025.98
640.14	1019.54
640.49	1012.97
640.83	1006.58
641.17	1000.37
641.52	993.97
641.86	987.55
642.20	981.67
642.55	975.44
642.89	968.99
643.23	962.51
643.58	956.75
643.92	950.55
644.26	944.39
644.61	938.42
644.95	932.37
645.29	925.77
645.64	919.03
645.98	912.69
646.32	906.88
646.66	900.90
647.01	895.06
647.35	889.36
647.69	883.44
648.04	877.89
648.38	872.07
648.72	866.09
649.06	860.03
649.41	854.21
649.75	848.18
650.09	842.26
650.43	836.49
650.78	830.25
651.12	824.27
651.46	818.54
651.80	812.71
652.14	807.35
652.49	802.06
652.83	796.88
653.17	791.10
653.51	785.39
653.85	779.96
654.20	774.32
654.54	768.33
654.88	762.68
655.22	756.80
655.56	751.10
655.90	745.74
656.25	740.49
656.59	735.11
656.93	729.98
657.27	724.79
657.61	719.29
657.95	714.26
658.29	709.23
658.64	704.13
658.98	698.90
659.32	693.41
659.66	688.12
660.00	682.78
660.34	677.91
660.68	673.06
661.02	668.11
661.36	663.40
661.70	658.91
662.05	654.47
662.39	650.14
662.73	645.66
663.07	641.20
663.41	636.70
663.75	632.18
664.09	627.58
664.43	623.25
664.77	619.13
665.11	614.86
665.45	610.68
665.79	606.49
666.13	602.30
666.47	598.25
666.81	594.10
667.15	590.03
667.49	586.12
667.83	582.33
668.17	578.32
668.51	574.24
668.85	570.25
669.19	566.46
669.53	562.65
669.87	558.83
670.21	555.18
670.55	551.60
670.89	548.18
671.23	544.81
671.57	541.27
671.91	537.76
672.25	534.31
672.58	530.84
672.92	527.45
673.26	524.28
673.60	521.12
673.94	518.04
674.28	515.08
674.62	512.13
674.96	508.97
675.30	506.03
675.64	503.06
675.97	500.28
676.31	497.45
676.65	494.48
676.99	491.78
677.33	488.91
677.67	486.13
678.01	483.11
678.34	480.11
678.68	477.30
679.02	474.49
679.36	471.66
679.70	468.93
680.04	466.19
680.37	463.32
680.71	460.45
681.05	457.80
681.39	455.09
681.73	452.47
682.06	449.97
682.40	447.43
682.74	444.94
683.08	442.38
683.42	439.76
683.75	437.28
684.09	434.74
684.43	432.31
684.77	429.80
685.10	427.43
685.44	425.13
685.78	422.83
686.12	420.59
686.45	418.31
686.79	416.01
687.13	413.83
687.46	411.67
687.80	409.56
688.14	407.39
688.48	405.32
688.81	403.02
689.15	400.86
689.49	398.74
689.82	396.66
690.16	394.59
690.50	392.65
690.83	390.66
691.17	388.66
691.51	386.70
691.84	384.84
692.18	382.94
692.52	380.95
692.85	378.95
693.19	377.02
693.52	375.27
693.86	373.42
694.20	371.63
694.53	369.82
694.87	367.96
695.21	366.18
695.54	364.36
695.88	362.66
696.21	360.90
696.55	359.20
696.88	357.50
697.22	355.80
697.56	354.17
697.89	352.52
698.23	350.91
698.56	349.27
698.90	347.70
699.23	346.06
699.57	344.48
699.90	342.92
700.24	341.42
700.58	339.84
700.91	338.38
701.25	336.96
701.58	335.58
701.92	334.25
702.25	332.85
702.59	331.48
702.92	330.18
703.26	328.91
703.59	327.65
703.93	326.51
704.26	325.32
704.60	324.01
704.93	322.74
705.26	321.44
705.60	320.34
705.93	319.17
706.27	318.12
706.60	317.12
706.94	316.08
707.27	314.93
707.61	313.89
707.94	312.88
708.27	311.79
708.61	310.72
708.94	309.71
709.28	308.74
709.61	307.78
709.94	306.80
710.28	305.76
710.61	304.76
710.95	303.70
711.28	302.79
711.61	301.84
711.95	300.92
712.28	300.04
712.61	299.02
712.95	298.12
713.28	297.26
713.61	296.37
713.95	295.48
714.28	294.65
714.61	293.79
714.95	292.93
715.28	292.04
715.61	291.16
715.95	290.27
716.28	289.44
716.61	288.56
716.95	287.77
717.28	287.08
717.61	286.32
717.94	285.54
718.28	284.71
718.61	284.02
718.94	283.34
719.27	282.69
719.61	282.08
719.94	281.37
720.27	280.64
720.60	279.98
720.94	279.38
721.27	278.76
721.60	278.18
721.93	277.57
722.27	277.02
722.60	276.47
722.93	275.92
723.26	275.37
723.59	274.88
723.93	274.33
724.26	273.72
724.59	273.16
724.92	272.65
725.25	272.19
725.59	271.64
725.92	271.13
726.25	270.59
726.58	270.09
726.91	269.62
727.24	269.18
727.57	268.70
727.91	268.16
728.24	267.70
728.57	267.20
728.90	266.76
729.23	266.29
729.56	265.86
729.89	265.41
730.22	264.93
730.55	264.41
730.89	263.94
731.22	263.48
731.55	263.07
731.88	262.63
732.21	262.17
732.54	261.73
732.87	261.31
733.20	260.91
733.53	260.50
733.86	260.12
734.19	259.67
734.52	259.26
734.85	258.94
735.18	258.50
735.51	258.15
735.84	257.80
736.17	257.39
736.50	256.98
736.83	256.72
737.16	256.41
737.49	256.10
737.82	255.75
738.15	255.46
738.48	255.09
738.81	254.75
739.14	254.43
739.47	254.11
739.80	253.78
740.13	253.51
740.46	253.16
740.79	252.81
741.12	252.50
741.45	252.22
741.78	251.91
742.11	251.67
742.44	251.33
742.77	251.03
743.10	250.78
743.43	250.48
743.75	250.10
744.08	249.89
744.41	249.57
744.74	249.31
745.07	249.03
745.40	248.79
745.73	248.58
746.06	248.30
746.39	248.04
746.71	247.76
747.04	247.45
747.37	247.21
747.70	246.99
748.03	246.77
748.36	246.55
748.68	246.27
749.01	246.01
749.34	245.78
749.67	245.54
750.00	245.30
750.33	245.16
750.65	244.93
750.98	244.65
751.31	244.43
751.64	244.22
751.97	244.06
752.29	243.87
752.62	243.64
752.95	243.41
753.28	243.21
753.60	243.04
753.93	242.88
754.26	242.68
754.59	242.45
754.91	242.26
755.24	242.04
755.57	241.86
755.90	241.70
756.22	241.50
756.55	241.32
756.88	241.12
757.20	240.89
757.53	240.72
757.86	240.53
758.19	240.41
758.51	240.24
758.84	240.00
759.17	239.82
759.49	239.62
759.82	239.54
760.15	239.39
760.47	239.25
760.80	239.06
761.13	238.92
761.45	238.77
761.78	238.60
762.11	238.45
762.43	238.30
762.76	238.12
763.08	238.00
763.41	237.87
763.74	237.73
764.06	237.58
764.39	237.45
764.71	237.34
765.04	237.20
765.37	237.09
765.69	236.98
766.02	236.83
766.34	236.73
766.67	236.58
767.00	236.45
767.32	236.37
767.65	236.31
767.97	236.20
768.30	236.09
768.62	235.98
768.95	235.87
769.27	235.74
769.60	235.66
769.92	235.51
770.25	235.38
770.57	235.27
770.90	235.18
771.22	235.06
771.55	234.93
771.87	234.81
772.20	234.71
772.52	234.67
772.85	234.71
773.17	234.60
773.50	234.48
773.82	234.39
774.15	234.24
774.47	234.09
774.80	233.96
775.12	233.84
775.45	233.79
775.77	233.68
776.09	233.63
776.42	233.55
776.74	233.54
777.07	233.48
777.39	233.43
777.72	233.34
778.04	233.27
778.36	233.19
778.69	233.12
779.01	233.05
779.33	232.92
779.66	232.76
779.98	232.70
780.31	232.64
780.63	232.63
780.95	232.60
781.28	232.55
781.60	232.53
781.92	232.50
782.25	232.40
782.57	232.37
782.89	232.31
783.22	232.24
783.54	232.16
783.86	232.10
784.19	232.02
784.51	231.98
784.83	231.93
785.16	231.88
785.48	231.83
785.80	231.77
786.12	231.73
786.45	231.69
786.77	231.64
787.09	231.59
