SpectraSuite Data File
++++++++++++++++++++++++++++++++++++
Date: Fri Feb 01 15:08:14 EST 2013
User: group
Dark Spectrum Present: No
Reference Spectrum Present: No
Number of Sampled Component Spectra: 1
Spectrometers: USB2E7196
Integration Time (usec): 35000 (USB2E7196)
Spectra Averaged: 100 (USB2E7196)
Boxcar Smoothing: 10 (USB2E7196)
Correct for Electrical Dark: No (USB2E7196)
Strobe/Lamp Enabled: No (USB2E7196)
Correct for Detector Non-linearity: No (USB2E7196)
Correct for Stray Light: No (USB2E7196)
Number of Pixels in Processed Spectrum: 2048
>>>>>Begin Processed Spectral Data<<<<<
339.09	0.00
339.48	214.87
339.86	216.77
340.24	217.63
340.63	219.31
341.01	222.35
341.39	221.85
341.78	223.32
342.16	224.22
342.54	225.12
342.93	213.37
343.31	224.13
343.69	224.68
344.07	225.12
344.46	225.59
344.84	225.94
345.22	226.16
345.60	226.41
345.99	226.61
346.37	226.76
346.75	226.84
347.13	226.92
347.52	226.95
347.90	227.00
348.28	227.02
348.66	227.04
349.05	227.00
349.43	227.01
349.81	227.03
350.19	227.07
350.57	227.13
350.96	227.21
351.34	227.32
351.72	227.38
352.10	227.49
352.48	227.53
352.87	227.61
353.25	227.71
353.63	227.76
354.01	227.80
354.39	227.88
354.77	228.00
355.15	228.10
355.54	228.19
355.92	228.22
356.30	228.32
356.68	228.48
357.06	228.58
357.44	228.63
357.82	228.70
358.20	228.78
358.58	228.84
358.97	228.91
359.35	228.98
359.73	229.11
360.11	229.17
360.49	229.21
360.87	229.27
361.25	229.35
361.63	229.44
362.01	229.52
362.39	229.57
362.77	229.61
363.15	229.63
363.53	229.69
363.91	229.76
364.29	229.80
364.67	229.73
365.05	229.75
365.43	229.75
365.81	229.77
366.19	229.79
366.57	229.86
366.95	229.83
367.33	229.84
367.71	229.83
368.09	229.82
368.47	229.82
368.85	229.75
369.23	229.68
369.61	229.58
369.99	229.58
370.37	229.54
370.75	229.52
371.13	229.44
371.51	229.39
371.89	229.33
372.27	229.27
372.65	229.23
373.03	229.15
373.41	229.12
373.78	229.05
374.16	228.93
374.54	228.86
374.92	228.80
375.30	228.71
375.68	228.58
376.06	228.50
376.44	228.40
376.82	228.39
377.19	228.31
377.57	228.25
377.95	228.13
378.33	228.05
378.71	227.92
379.09	227.87
379.47	227.80
379.84	227.72
380.22	227.62
380.60	227.53
380.98	227.47
381.36	227.40
381.73	227.29
382.11	227.23
382.49	227.16
382.87	227.10
383.25	227.01
383.62	227.06
384.00	226.98
384.38	226.95
384.76	226.89
385.13	226.88
385.51	226.84
385.89	226.76
386.27	226.72
386.64	226.67
387.02	226.62
387.40	226.55
387.78	226.51
388.15	226.48
388.53	226.44
388.91	226.40
389.29	226.36
389.66	226.40
390.04	226.39
390.42	226.37
390.79	226.37
391.17	226.35
391.55	226.23
391.92	226.22
392.30	226.23
392.68	226.23
393.05	226.22
393.43	226.23
393.81	226.27
394.18	226.23
394.56	226.26
394.94	226.31
395.31	226.34
395.69	226.37
396.06	226.43
396.44	226.50
396.82	226.54
397.19	226.63
397.57	226.68
397.95	226.77
398.32	226.81
398.70	226.85
399.07	226.94
399.45	227.06
399.82	227.13
400.20	227.21
400.58	227.25
400.95	227.31
401.33	227.41
401.70	227.58
402.08	227.70
402.45	227.79
402.83	227.90
403.20	228.03
403.58	228.15
403.95	228.28
404.33	228.44
404.71	228.56
405.08	228.75
405.46	228.86
405.83	229.03
406.21	229.16
406.58	229.34
406.96	229.53
407.33	229.71
407.70	229.90
408.08	230.18
408.45	230.42
408.83	230.69
409.20	230.91
409.58	231.11
409.95	231.36
410.33	231.63
410.70	231.90
411.08	232.22
411.45	232.57
411.82	232.90
412.20	233.22
412.57	233.67
412.95	233.98
413.32	234.40
413.69	234.78
414.07	235.25
414.44	235.71
414.82	236.20
415.19	236.74
415.56	237.29
415.94	237.83
416.31	238.47
416.68	239.10
417.06	239.82
417.43	240.49
417.81	241.28
418.18	242.09
418.55	242.93
418.93	243.75
419.30	244.62
419.67	245.58
420.04	246.52
420.42	247.50
420.79	248.68
421.16	249.81
421.54	251.01
421.91	252.23
422.28	253.50
422.66	254.77
423.03	256.07
423.40	257.37
423.77	258.80
424.15	260.23
424.52	261.74
424.89	263.34
425.26	264.90
425.64	266.34
426.01	267.92
426.38	269.55
426.75	271.24
427.13	273.00
427.50	274.81
427.87	276.72
428.24	278.57
428.61	280.32
428.99	282.25
429.36	284.34
429.73	286.38
430.10	288.38
430.47	290.47
430.85	292.60
431.22	294.88
431.59	297.25
431.96	299.48
432.33	301.93
432.70	304.32
433.08	307.14
433.45	309.78
433.82	312.35
434.19	315.28
434.56	318.09
434.93	320.70
435.30	323.31
435.68	326.20
436.05	329.07
436.42	331.88
436.79	334.39
437.16	337.13
437.53	340.02
437.90	342.87
438.27	345.61
438.64	348.44
439.01	351.05
439.38	353.27
439.75	355.42
440.13	357.92
440.50	360.26
440.87	362.12
441.24	364.09
441.61	366.30
441.98	367.74
442.35	369.59
442.72	371.49
443.09	373.27
443.46	374.23
443.83	374.81
444.20	375.34
444.57	376.21
444.94	376.49
445.31	376.81
445.68	377.20
446.05	377.29
446.42	376.89
446.79	376.42
447.16	376.00
447.53	375.69
447.90	374.54
448.27	373.38
448.64	371.79
449.01	370.64
449.37	368.64
449.74	366.75
450.11	364.47
450.48	361.96
450.85	359.42
451.22	357.29
451.59	355.26
451.96	353.27
452.33	350.65
452.70	348.23
453.07	345.38
453.43	342.41
453.80	339.66
454.17	336.98
454.54	334.47
454.91	331.77
455.28	329.11
455.65	326.60
456.02	324.13
456.38	321.96
456.75	319.27
457.12	317.04
457.49	314.82
457.86	312.68
458.23	310.81
458.59	308.79
458.96	306.70
459.33	304.84
459.70	302.95
460.07	301.46
460.43	299.72
460.80	298.12
461.17	296.70
461.54	295.19
461.91	293.74
462.27	292.27
462.64	290.96
463.01	289.61
463.38	288.30
463.74	286.93
464.11	285.77
464.48	284.74
464.85	283.63
465.21	282.81
465.58	281.89
465.95	280.79
466.32	279.84
466.68	278.96
467.05	278.04
467.42	277.16
467.78	276.23
468.15	275.35
468.52	274.66
468.88	273.76
469.25	272.98
469.62	272.37
469.98	271.71
470.35	271.08
470.72	270.46
471.08	269.81
471.45	269.26
471.82	268.73
472.18	268.12
472.55	267.66
472.92	267.09
473.28	266.60
473.65	266.12
474.02	265.70
474.38	265.32
474.75	265.02
475.11	264.67
475.48	264.38
475.85	264.17
476.21	263.92
476.58	263.77
476.94	263.64
477.31	263.46
477.67	263.31
478.04	263.20
478.41	263.14
478.77	263.17
479.14	263.07
479.50	263.06
479.87	263.14
480.23	263.21
480.60	263.26
480.96	263.32
481.33	263.58
481.69	263.77
482.06	263.93
482.42	264.11
482.79	264.33
483.15	264.65
483.52	265.02
483.88	265.39
484.25	265.75
484.61	266.13
484.98	266.59
485.34	267.12
485.71	267.68
486.07	268.30
486.44	268.85
486.80	269.58
487.17	270.31
487.53	271.13
487.90	271.94
488.26	272.88
488.62	273.87
488.99	274.79
489.35	275.81
489.72	276.93
490.08	278.15
490.44	279.39
490.81	280.73
491.17	282.07
491.54	283.49
491.90	285.03
492.26	286.70
492.63	288.40
492.99	290.17
493.36	292.09
493.72	294.10
494.08	296.17
494.45	298.39
494.81	300.75
495.17	303.15
495.54	305.70
495.90	308.37
496.26	311.13
496.63	314.10
496.99	317.19
497.35	320.47
497.72	323.88
498.08	327.35
498.44	330.97
498.80	334.87
499.17	338.92
499.53	343.08
499.89	347.46
500.26	351.96
500.62	356.61
500.98	361.55
501.34	366.63
501.71	371.98
502.07	377.42
502.43	383.02
502.79	388.79
503.16	394.86
503.52	401.12
503.88	407.51
504.24	414.15
504.60	421.00
504.97	428.08
505.33	435.32
505.69	443.06
506.05	450.81
506.41	458.66
506.78	466.75
507.14	475.14
507.50	483.84
507.86	492.83
508.22	502.02
508.59	511.17
508.95	520.72
509.31	530.55
509.67	540.67
510.03	550.85
510.39	561.47
510.75	572.30
511.12	583.26
511.48	594.60
511.84	605.94
512.20	617.50
512.56	629.44
512.92	641.67
513.28	653.95
513.64	666.47
514.00	679.19
514.37	692.22
514.73	705.33
515.09	718.27
515.45	731.65
515.81	745.27
516.17	759.27
516.53	773.37
516.89	787.54
517.25	801.64
517.61	816.17
517.97	830.63
518.33	845.00
518.69	859.82
519.05	874.85
519.41	890.10
519.77	905.76
520.13	921.26
520.49	936.67
520.85	952.19
521.21	967.99
521.57	984.23
521.93	1000.03
522.29	1016.55
522.65	1032.97
523.01	1049.18
523.37	1065.29
523.73	1081.63
524.09	1097.78
524.45	1114.13
524.81	1130.95
525.17	1147.86
525.53	1164.91
525.89	1181.82
526.25	1198.73
526.61	1215.16
526.97	1232.08
527.33	1248.57
527.68	1265.26
528.04	1281.78
528.40	1298.49
528.76	1315.61
529.12	1332.40
529.48	1349.35
529.84	1365.39
530.20	1382.12
530.56	1399.19
530.91	1416.69
531.27	1433.49
531.63	1450.05
531.99	1466.75
532.35	1482.83
532.71	1498.78
533.07	1515.14
533.42	1531.21
533.78	1547.25
534.14	1563.64
534.50	1578.96
534.86	1594.96
535.21	1610.16
535.57	1626.21
535.93	1641.74
536.29	1656.59
536.65	1671.76
537.00	1686.68
537.36	1702.14
537.72	1716.76
538.08	1731.20
538.44	1745.00
538.79	1758.98
539.15	1772.87
539.51	1786.78
539.87	1801.16
540.22	1814.98
540.58	1828.81
540.94	1842.31
541.29	1855.26
541.65	1868.08
542.01	1881.45
542.37	1893.71
542.72	1906.30
543.08	1918.15
543.44	1930.57
543.79	1941.83
544.15	1952.79
544.51	1964.24
544.87	1975.15
545.22	1985.96
545.58	1996.36
545.94	2006.16
546.29	2016.00
546.65	2025.77
547.01	2035.04
547.36	2043.81
547.72	2052.31
548.07	2060.10
548.43	2068.24
548.79	2076.41
549.14	2084.00
549.50	2091.44
549.86	2099.26
550.21	2106.57
550.57	2113.77
550.92	2120.46
551.28	2127.60
551.64	2134.65
551.99	2141.51
552.35	2147.70
552.70	2153.79
553.06	2159.70
553.41	2166.11
553.77	2172.20
554.13	2178.28
554.48	2184.26
554.84	2189.56
555.19	2194.95
555.55	2199.99
555.90	2204.41
556.26	2209.27
556.61	2213.98
556.97	2217.88
557.32	2221.97
557.68	2225.98
558.03	2230.20
558.39	2233.96
558.74	2238.43
559.10	2242.21
559.45	2245.65
559.81	2250.00
560.16	2253.85
560.52	2257.03
560.87	2260.45
561.23	2263.06
561.58	2266.01
561.94	2268.45
562.29	2270.87
562.64	2273.37
563.00	2276.20
563.35	2279.66
563.71	2282.68
564.06	2285.65
564.42	2288.63
564.77	2290.97
565.12	2293.35
565.48	2295.20
565.83	2296.88
566.19	2298.35
566.54	2299.32
566.89	2300.33
567.25	2300.67
567.60	2301.96
567.96	2303.55
568.31	2304.26
568.66	2305.27
569.02	2305.70
569.37	2306.14
569.72	2306.86
570.08	2306.91
570.43	2306.71
570.78	2305.98
571.14	2304.25
571.49	2302.98
571.84	2302.59
572.20	2301.32
572.55	2300.01
572.90	2298.28
573.26	2296.86
573.61	2294.94
573.96	2292.87
574.31	2289.65
574.67	2286.55
575.02	2282.76
575.37	2279.38
575.72	2275.37
576.08	2271.89
576.43	2268.47
576.78	2264.57
577.13	2261.53
577.49	2258.27
577.84	2254.68
578.19	2250.95
578.54	2247.13
578.90	2242.64
579.25	2236.91
579.60	2231.74
579.95	2226.78
580.30	2221.74
580.66	2216.60
581.01	2211.56
581.36	2206.63
581.71	2202.45
582.06	2197.95
582.42	2193.39
582.77	2187.92
583.12	2183.33
583.47	2178.49
583.82	2173.24
584.17	2167.88
584.53	2162.10
584.88	2156.37
585.23	2150.34
585.58	2144.72
585.93	2139.26
586.28	2134.44
586.63	2129.36
586.98	2124.23
587.34	2119.37
587.69	2114.33
588.04	2108.73
588.39	2102.92
588.74	2096.51
589.09	2090.13
589.44	2083.14
589.79	2077.07
590.14	2071.32
590.49	2064.65
590.84	2058.12
591.19	2052.11
591.54	2045.51
591.89	2037.88
592.25	2031.04
592.60	2023.68
592.95	2015.95
593.30	2008.50
593.65	2000.81
594.00	1993.68
594.35	1986.46
594.70	1978.18
595.05	1970.78
595.40	1963.42
595.75	1955.82
596.10	1949.37
596.45	1942.67
596.80	1936.48
597.15	1929.70
597.50	1922.54
597.85	1916.13
598.19	1909.38
598.54	1902.21
598.89	1895.50
599.24	1889.61
599.59	1882.72
599.94	1876.58
600.29	1870.18
600.64	1863.50
600.99	1855.81
601.34	1848.86
601.69	1841.84
602.04	1834.87
602.39	1827.49
602.74	1820.58
603.08	1813.74
603.43	1807.01
603.78	1799.69
604.13	1792.54
604.48	1785.09
604.83	1778.25
605.18	1770.96
605.53	1762.95
605.87	1754.92
606.22	1747.73
606.57	1739.82
606.92	1732.60
607.27	1725.39
607.62	1718.51
607.96	1711.24
608.31	1704.65
608.66	1696.99
609.01	1689.43
609.36	1682.01
609.70	1674.01
610.05	1665.92
610.40	1658.27
610.75	1649.92
611.10	1642.21
611.44	1633.82
611.79	1626.00
612.14	1617.32
612.49	1608.35
612.83	1600.01
613.18	1591.84
613.53	1583.78
613.88	1575.21
614.22	1566.94
614.57	1558.33
614.92	1550.34
615.27	1542.74
615.61	1534.53
615.96	1526.68
616.31	1519.17
616.65	1511.76
617.00	1504.27
617.35	1496.66
617.70	1488.28
618.04	1479.73
618.39	1471.53
618.74	1463.90
619.08	1455.63
619.43	1448.05
619.78	1441.19
620.12	1434.02
620.47	1426.59
620.82	1418.40
621.16	1411.00
621.51	1403.38
621.85	1395.83
622.20	1387.14
622.55	1378.90
622.89	1371.08
623.24	1363.48
623.59	1356.03
623.93	1348.55
624.28	1341.29
624.62	1333.79
624.97	1326.72
625.32	1320.07
625.66	1313.13
626.01	1305.88
626.35	1298.32
626.70	1290.60
627.04	1282.82
627.39	1275.17
627.73	1267.78
628.08	1260.79
628.43	1253.45
628.77	1246.11
629.12	1238.60
629.46	1231.49
629.81	1224.22
630.15	1217.03
630.50	1209.57
630.84	1201.37
631.19	1193.51
631.53	1186.07
631.88	1178.64
632.22	1170.92
632.57	1163.67
632.91	1156.14
633.26	1148.67
633.60	1141.51
633.95	1134.48
634.29	1127.52
634.64	1120.82
634.98	1113.51
635.32	1106.48
635.67	1100.07
636.01	1093.45
636.36	1086.61
636.70	1080.27
637.05	1073.58
637.39	1067.15
637.73	1060.72
638.08	1054.92
638.42	1049.02
638.77	1042.60
639.11	1035.98
639.45	1029.76
639.80	1023.08
640.14	1016.64
640.49	1010.22
640.83	1003.87
641.17	997.58
641.52	991.29
641.86	984.89
642.20	979.05
642.55	972.82
642.89	966.25
643.23	959.77
643.58	954.02
643.92	947.86
644.26	941.82
644.61	935.80
644.95	929.75
645.29	923.12
645.64	916.35
645.98	910.07
646.32	904.22
646.66	898.23
647.01	892.49
647.35	886.81
647.69	881.04
648.04	875.57
648.38	869.86
648.72	863.79
649.06	857.77
649.41	851.90
649.75	845.89
650.09	839.95
650.43	834.17
650.78	828.07
651.12	822.09
651.46	816.38
651.80	810.60
652.14	805.12
652.49	799.80
652.83	794.62
653.17	788.91
653.51	783.19
653.85	777.71
654.20	771.99
654.54	765.96
654.88	760.27
655.22	754.37
655.56	748.66
655.90	743.29
656.25	738.04
656.59	732.66
656.93	727.65
657.27	722.51
657.61	717.10
657.95	712.01
658.29	706.96
658.64	701.71
658.98	696.50
659.32	691.15
659.66	686.02
660.00	680.65
660.34	675.73
660.68	670.86
661.02	665.88
661.36	661.25
661.70	656.87
662.05	652.55
662.39	648.21
662.73	643.85
663.07	639.42
663.41	635.05
663.75	630.56
664.09	626.00
664.43	621.73
664.77	617.68
665.11	613.45
665.45	609.38
665.79	605.35
666.13	601.23
666.47	597.19
666.81	593.01
667.15	588.98
667.49	585.09
667.83	581.31
668.17	577.41
668.51	573.32
668.85	569.29
669.19	565.44
669.53	561.61
669.87	557.69
670.21	554.04
670.55	550.32
670.89	546.97
671.23	543.55
671.57	540.04
671.91	536.50
672.25	533.03
672.58	529.51
672.92	526.12
673.26	522.97
673.60	519.81
673.94	516.64
674.28	513.84
674.62	510.91
674.96	507.82
675.30	504.93
675.64	502.07
675.97	499.35
676.31	496.43
676.65	493.47
676.99	490.77
677.33	487.96
677.67	485.19
678.01	482.12
678.34	479.13
678.68	476.25
679.02	473.44
679.36	470.69
679.70	467.97
680.04	465.20
680.37	462.31
680.71	459.61
681.05	457.10
681.39	454.36
681.73	451.72
682.06	449.22
682.40	446.63
682.74	444.11
683.08	441.54
683.42	438.98
683.75	436.56
684.09	434.00
684.43	431.47
684.77	429.06
685.10	426.74
685.44	424.42
685.78	422.15
686.12	419.91
686.45	417.64
686.79	415.35
687.13	413.16
687.46	411.06
687.80	408.85
688.14	406.67
688.48	404.61
688.81	402.36
689.15	400.23
689.49	398.14
689.82	396.10
690.16	394.02
690.50	392.05
690.83	390.10
691.17	388.21
691.51	386.39
691.84	384.54
692.18	382.53
692.52	380.56
692.85	378.68
693.19	376.83
693.52	375.06
693.86	373.27
694.20	371.49
694.53	369.68
694.87	367.84
695.21	365.96
695.54	364.13
695.88	362.43
696.21	360.71
696.55	359.03
696.88	357.32
697.22	355.72
697.56	354.16
697.89	352.55
698.23	350.89
698.56	349.31
698.90	347.68
699.23	346.11
699.57	344.59
699.90	342.99
700.24	341.44
700.58	339.87
700.91	338.37
701.25	337.00
701.58	335.68
701.92	334.36
702.25	333.05
702.59	331.69
702.92	330.39
703.26	329.10
703.59	327.83
703.93	326.69
704.26	325.46
704.60	324.14
704.93	322.84
705.26	321.64
705.60	320.44
705.93	319.28
706.27	318.24
706.60	317.17
706.94	316.13
707.27	315.01
707.61	313.98
707.94	313.00
708.27	311.91
708.61	310.79
708.94	309.76
709.28	308.77
709.61	307.82
709.94	306.87
710.28	305.85
710.61	304.89
710.95	303.81
711.28	302.85
711.61	301.88
711.95	300.95
712.28	299.99
712.61	299.02
712.95	298.16
713.28	297.32
713.61	296.43
713.95	295.54
714.28	294.69
714.61	293.84
714.95	292.94
715.28	292.04
715.61	291.20
715.95	290.34
716.28	289.49
716.61	288.65
716.95	287.83
717.28	287.12
717.61	286.35
717.94	285.62
718.28	284.84
718.61	284.15
718.94	283.50
719.27	282.86
719.61	282.19
719.94	281.51
720.27	280.78
720.60	280.14
720.94	279.51
721.27	278.94
721.60	278.34
721.93	277.74
722.27	277.20
722.60	276.64
722.93	276.06
723.26	275.49
723.59	274.94
723.93	274.40
724.26	273.81
724.59	273.26
724.92	272.70
725.25	272.19
725.59	271.67
725.92	271.15
726.25	270.63
726.58	270.15
726.91	269.66
727.24	269.18
727.57	268.72
727.91	268.21
728.24	267.78
728.57	267.28
728.90	266.88
729.23	266.39
729.56	265.98
729.89	265.55
730.22	265.08
730.55	264.63
730.89	264.21
731.22	263.79
731.55	263.37
731.88	263.00
732.21	262.61
732.54	262.22
732.87	261.81
733.20	261.44
733.53	261.04
733.86	260.67
734.19	260.29
734.52	259.91
734.85	259.62
735.18	259.16
735.51	258.82
735.84	258.45
736.17	258.16
736.50	257.75
736.83	257.51
737.16	257.17
737.49	256.82
737.82	256.45
738.15	256.10
738.48	255.77
738.81	255.41
739.14	255.08
739.47	254.72
739.80	254.43
740.13	254.11
740.46	253.75
740.79	253.45
741.12	253.12
741.45	252.81
741.78	252.44
742.11	252.18
742.44	251.87
742.77	251.56
743.10	251.22
743.43	250.91
743.75	250.50
744.08	250.36
744.41	250.11
744.74	249.83
745.07	249.54
745.40	249.28
745.73	249.06
746.06	248.78
746.39	248.55
746.71	248.24
747.04	247.97
747.37	247.74
747.70	247.47
748.03	247.25
748.36	247.03
748.68	246.81
749.01	246.49
749.34	246.24
749.67	245.99
750.00	245.79
750.33	245.64
750.65	245.44
750.98	245.13
751.31	244.90
751.64	244.69
751.97	244.56
752.29	244.31
752.62	244.07
752.95	243.87
753.28	243.65
753.60	243.45
753.93	243.27
754.26	243.09
754.59	242.85
754.91	242.62
755.24	242.40
755.57	242.22
755.90	242.07
756.22	241.89
756.55	241.69
756.88	241.48
757.20	241.26
757.53	241.09
757.86	240.89
758.19	240.73
758.51	240.57
758.84	240.34
759.17	240.19
759.49	240.01
759.82	239.86
760.15	239.73
760.47	239.59
760.80	239.41
761.13	239.28
761.45	239.14
761.78	239.02
762.11	238.87
762.43	238.72
762.76	238.59
763.08	238.46
763.41	238.36
763.74	238.23
764.06	238.08
764.39	237.93
764.71	237.81
765.04	237.66
765.37	237.51
765.69	237.40
766.02	237.29
766.34	237.19
766.67	237.03
767.00	236.89
767.32	236.79
767.65	236.75
767.97	236.61
768.30	236.51
768.62	236.37
768.95	236.26
769.27	236.12
769.60	236.01
769.92	235.91
770.25	235.78
770.57	235.68
770.90	235.59
771.22	235.46
771.55	235.37
771.87	235.26
772.20	235.17
772.52	235.14
772.85	235.15
773.17	235.04
773.50	234.98
773.82	234.88
774.15	234.76
774.47	234.58
774.80	234.51
775.12	234.40
775.45	234.34
775.77	234.25
776.09	234.19
776.42	234.10
776.74	234.06
777.07	233.97
777.39	233.88
777.72	233.78
778.04	233.76
778.36	233.69
778.69	233.62
779.01	233.57
779.33	233.41
779.66	233.23
779.98	233.17
780.31	233.08
780.63	233.04
780.95	233.01
781.28	233.00
781.60	232.91
781.92	232.88
782.25	232.80
782.57	232.75
782.89	232.71
783.22	232.65
783.54	232.54
783.86	232.50
784.19	232.43
784.51	232.41
784.83	232.32
785.16	232.28
785.48	232.26
785.80	232.21
786.12	232.21
786.45	232.19
786.77	232.16
787.09	232.14
