SpectraSuite Data File
++++++++++++++++++++++++++++++++++++
Date: Fri Feb 01 15:56:23 EST 2013
User: group
Dark Spectrum Present: No
Reference Spectrum Present: No
Number of Sampled Component Spectra: 1
Spectrometers: USB2E7196
Integration Time (usec): 35000 (USB2E7196)
Spectra Averaged: 100 (USB2E7196)
Boxcar Smoothing: 10 (USB2E7196)
Correct for Electrical Dark: No (USB2E7196)
Strobe/Lamp Enabled: No (USB2E7196)
Correct for Detector Non-linearity: No (USB2E7196)
Correct for Stray Light: No (USB2E7196)
Number of Pixels in Processed Spectrum: 2048
>>>>>Begin Processed Spectral Data<<<<<
339.09	0.00
339.48	214.86
339.86	216.60
340.24	218.19
340.63	218.93
341.01	222.20
341.39	221.73
341.78	223.13
342.16	224.40
342.54	224.93
342.93	213.17
343.31	223.94
343.69	224.51
344.07	224.97
344.46	225.37
344.84	225.75
345.22	225.98
345.60	226.22
345.99	226.41
346.37	226.54
346.75	226.66
347.13	226.75
347.52	226.79
347.90	226.89
348.28	226.86
348.66	226.90
349.05	226.90
349.43	226.95
349.81	227.00
350.19	227.07
350.57	227.13
350.96	227.21
351.34	227.27
351.72	227.32
352.10	227.41
352.48	227.45
352.87	227.50
353.25	227.55
353.63	227.61
354.01	227.67
354.39	227.74
354.77	227.80
355.15	227.89
355.54	227.94
355.92	227.96
356.30	228.04
356.68	228.19
357.06	228.28
357.44	228.33
357.82	228.43
358.20	228.48
358.58	228.55
358.97	228.63
359.35	228.75
359.73	228.82
360.11	228.87
360.49	228.94
360.87	229.02
361.25	229.08
361.63	229.18
362.01	229.21
362.39	229.27
362.77	229.32
363.15	229.36
363.53	229.39
363.91	229.42
364.29	229.44
364.67	229.36
365.05	229.34
365.43	229.33
365.81	229.32
366.19	229.34
366.57	229.35
366.95	229.32
367.33	229.26
367.71	229.25
368.09	229.25
368.47	229.24
368.85	229.18
369.23	229.18
369.61	229.11
369.99	229.09
370.37	229.03
370.75	228.99
371.13	228.93
371.51	228.87
371.89	228.85
372.27	228.81
372.65	228.75
373.03	228.72
373.41	228.70
373.78	228.62
374.16	228.54
374.54	228.48
374.92	228.37
375.30	228.28
375.68	228.19
376.06	228.13
376.44	228.07
376.82	228.02
377.19	227.93
377.57	227.86
377.95	227.77
378.33	227.70
378.71	227.60
379.09	227.54
379.47	227.49
379.84	227.37
380.22	227.31
380.60	227.24
380.98	227.18
381.36	227.11
381.73	227.04
382.11	226.97
382.49	226.92
382.87	226.87
383.25	226.85
383.62	226.88
384.00	226.79
384.38	226.70
384.76	226.67
385.13	226.65
385.51	226.59
385.89	226.52
386.27	226.47
386.64	226.42
387.02	226.37
387.40	226.33
387.78	226.33
388.15	226.26
388.53	226.22
388.91	226.17
389.29	226.11
389.66	226.06
390.04	226.01
390.42	226.01
390.79	225.99
391.17	225.95
391.55	225.87
391.92	225.87
392.30	225.89
392.68	225.88
393.05	225.88
393.43	225.91
393.81	225.95
394.18	225.93
394.56	225.97
394.94	226.02
395.31	226.03
395.69	226.06
396.06	226.12
396.44	226.19
396.82	226.23
397.19	226.34
397.57	226.40
397.95	226.49
398.32	226.51
398.70	226.58
399.07	226.69
399.45	226.75
399.82	226.83
400.20	226.87
400.58	226.93
400.95	226.96
401.33	227.06
401.70	227.20
402.08	227.32
402.45	227.43
402.83	227.54
403.20	227.67
403.58	227.77
403.95	227.92
404.33	228.02
404.71	228.15
405.08	228.34
405.46	228.49
405.83	228.65
406.21	228.80
406.58	228.98
406.96	229.09
407.33	229.30
407.70	229.47
408.08	229.74
408.45	229.99
408.83	230.25
409.20	230.46
409.58	230.63
409.95	230.89
410.33	231.16
410.70	231.40
411.08	231.66
411.45	231.99
411.82	232.28
412.20	232.65
412.57	233.07
412.95	233.34
413.32	233.76
413.69	234.17
414.07	234.61
414.44	235.09
414.82	235.62
415.19	236.13
415.56	236.68
415.94	237.24
416.31	237.85
416.68	238.48
417.06	239.18
417.43	239.87
417.81	240.64
418.18	241.40
418.55	242.23
418.93	243.17
419.30	244.08
419.67	245.02
420.04	245.97
420.42	246.98
420.79	248.15
421.16	249.28
421.54	250.46
421.91	251.65
422.28	252.88
422.66	254.17
423.03	255.50
423.40	256.84
423.77	258.25
424.15	259.68
424.52	261.13
424.89	262.73
425.26	264.27
425.64	265.67
426.01	267.23
426.38	268.87
426.75	270.51
427.13	272.20
427.50	273.95
427.87	275.80
428.24	277.63
428.61	279.37
428.99	281.30
429.36	283.41
429.73	285.48
430.10	287.49
430.47	289.56
430.85	291.65
431.22	293.87
431.59	296.25
431.96	298.49
432.33	301.00
432.70	303.40
433.08	306.22
433.45	308.85
433.82	311.50
434.19	314.38
434.56	317.16
434.93	319.80
435.30	322.42
435.68	325.33
436.05	328.15
436.42	330.97
436.79	333.54
437.16	336.21
437.53	339.04
437.90	341.83
438.27	344.52
438.64	347.33
439.01	349.95
439.38	352.15
439.75	354.28
440.13	356.75
440.50	359.04
440.87	360.87
441.24	362.86
441.61	364.98
441.98	366.46
442.35	368.28
442.72	370.16
443.09	372.05
443.46	373.07
443.83	373.69
444.20	374.15
444.57	374.96
444.94	375.25
445.31	375.58
445.68	375.93
446.05	376.09
446.42	375.73
446.79	375.32
447.16	374.90
447.53	374.61
447.90	373.46
448.27	372.34
448.64	370.76
449.01	369.62
449.37	367.65
449.74	365.79
450.11	363.57
450.48	361.08
450.85	358.47
451.22	356.33
451.59	354.27
451.96	352.36
452.33	349.73
452.70	347.40
453.07	344.58
453.43	341.70
453.80	338.90
454.17	336.23
454.54	333.65
454.91	330.92
455.28	328.24
455.65	325.78
456.02	323.31
456.38	321.18
456.75	318.53
457.12	316.30
457.49	314.09
457.86	311.89
458.23	310.08
458.59	308.08
458.96	305.98
459.33	304.14
459.70	302.27
460.07	300.77
460.43	299.03
460.80	297.44
461.17	296.00
461.54	294.51
461.91	293.07
462.27	291.66
462.64	290.40
463.01	289.07
463.38	287.75
463.74	286.39
464.11	285.22
464.48	284.23
464.85	283.13
465.21	282.23
465.58	281.31
465.95	280.20
466.32	279.28
466.68	278.35
467.05	277.49
467.42	276.62
467.78	275.73
468.15	274.87
468.52	274.17
468.88	273.33
469.25	272.57
469.62	271.94
469.98	271.27
470.35	270.64
470.72	270.01
471.08	269.37
471.45	268.85
471.82	268.30
472.18	267.65
472.55	267.20
472.92	266.73
473.28	266.24
473.65	265.79
474.02	265.34
474.38	265.01
474.75	264.68
475.11	264.34
475.48	264.04
475.85	263.80
476.21	263.60
476.58	263.43
476.94	263.22
477.31	263.06
477.67	262.91
478.04	262.84
478.41	262.80
478.77	262.80
479.14	262.74
479.50	262.74
479.87	262.81
480.23	262.92
480.60	262.92
480.96	263.05
481.33	263.29
481.69	263.46
482.06	263.63
482.42	263.82
482.79	264.08
483.15	264.42
483.52	264.79
483.88	265.11
484.25	265.45
484.61	265.93
484.98	266.39
485.34	266.95
485.71	267.51
486.07	268.09
486.44	268.69
486.80	269.40
487.17	270.15
487.53	270.99
487.90	271.83
488.26	272.80
488.62	273.77
488.99	274.73
489.35	275.81
489.72	276.95
490.08	278.17
490.44	279.41
490.81	280.77
491.17	282.12
491.54	283.65
491.90	285.23
492.26	286.90
492.63	288.64
492.99	290.41
493.36	292.32
493.72	294.36
494.08	296.46
494.45	298.70
494.81	301.05
495.17	303.48
495.54	306.07
495.90	308.76
496.26	311.57
496.63	314.51
496.99	317.59
497.35	320.83
497.72	324.25
498.08	327.76
498.44	331.44
498.80	335.40
499.17	339.43
499.53	343.59
499.89	347.93
500.26	352.45
500.62	357.16
500.98	362.12
501.34	367.17
501.71	372.49
502.07	377.94
502.43	383.58
502.79	389.40
503.16	395.47
503.52	401.79
503.88	408.18
504.24	414.84
504.60	421.77
504.97	428.92
505.33	436.23
505.69	443.96
506.05	451.72
506.41	459.60
506.78	467.80
507.14	476.27
507.50	485.00
507.86	494.03
508.22	503.21
508.59	512.42
508.95	522.06
509.31	531.94
509.67	542.06
510.03	552.38
510.39	562.98
510.75	573.72
511.12	584.56
511.48	595.85
511.84	607.25
512.20	618.78
512.56	630.75
512.92	642.99
513.28	655.29
513.64	667.77
514.00	680.47
514.37	693.40
514.73	706.42
515.09	719.39
515.45	732.58
515.81	746.16
516.17	760.20
516.53	774.28
516.89	788.42
517.25	802.61
517.61	816.97
517.97	831.42
518.33	845.87
518.69	860.71
519.05	875.74
519.41	890.88
519.77	906.46
520.13	921.83
520.49	937.18
520.85	952.58
521.21	968.24
521.57	984.42
521.93	1000.09
522.29	1016.51
522.65	1032.72
523.01	1049.11
523.37	1065.12
523.73	1081.26
524.09	1097.36
524.45	1113.59
524.81	1130.16
525.17	1147.00
525.53	1163.89
525.89	1180.67
526.25	1197.35
526.61	1213.73
526.97	1230.52
527.33	1246.88
527.68	1263.52
528.04	1279.93
528.40	1296.58
528.76	1313.66
529.12	1330.30
529.48	1347.06
529.84	1363.03
530.20	1379.76
530.56	1396.63
530.91	1413.96
531.27	1430.47
531.63	1446.88
531.99	1463.54
532.35	1479.49
532.71	1495.30
533.07	1511.47
533.42	1527.40
533.78	1543.56
534.14	1559.77
534.50	1575.05
534.86	1591.01
535.21	1606.02
535.57	1621.86
535.93	1637.29
536.29	1652.07
536.65	1666.97
537.00	1681.79
537.36	1696.96
537.72	1711.49
538.08	1725.89
538.44	1739.71
538.79	1753.73
539.15	1767.34
539.51	1780.97
539.87	1795.27
540.22	1809.08
540.58	1822.79
540.94	1836.16
541.29	1848.96
541.65	1861.60
542.01	1874.75
542.37	1886.88
542.72	1899.48
543.08	1911.24
543.44	1923.65
543.79	1934.76
544.15	1945.87
544.51	1957.42
544.87	1968.40
545.22	1979.16
545.58	1989.35
545.94	1999.09
546.29	2008.87
546.65	2018.74
547.01	2028.03
547.36	2036.88
547.72	2045.20
548.07	2053.08
548.43	2061.10
548.79	2069.23
549.14	2076.72
549.50	2084.09
549.86	2091.75
550.21	2098.92
550.57	2106.06
550.92	2112.55
551.28	2119.67
551.64	2126.57
551.99	2133.11
552.35	2139.25
552.70	2145.37
553.06	2151.35
553.41	2157.81
553.77	2163.87
554.13	2169.96
554.48	2175.93
554.84	2181.22
555.19	2186.73
555.55	2191.90
555.90	2196.42
556.26	2201.17
556.61	2205.99
556.97	2210.40
557.32	2214.59
557.68	2218.72
558.03	2223.12
558.39	2226.81
558.74	2231.38
559.10	2235.28
559.45	2238.99
559.81	2243.32
560.16	2247.15
560.52	2250.37
560.87	2253.64
561.23	2256.24
561.58	2259.36
561.94	2262.17
562.29	2264.63
562.64	2267.12
563.00	2269.68
563.35	2273.24
563.71	2276.53
564.06	2279.67
564.42	2282.28
564.77	2284.80
565.12	2287.11
565.48	2289.01
565.83	2290.85
566.19	2292.18
566.54	2293.07
566.89	2294.20
567.25	2294.80
567.60	2296.07
567.96	2297.82
568.31	2298.67
568.66	2299.86
569.02	2300.30
569.37	2300.33
569.72	2301.10
570.08	2301.26
570.43	2301.20
570.78	2300.53
571.14	2298.86
571.49	2297.58
571.84	2297.42
572.20	2296.33
572.55	2295.25
572.90	2293.62
573.26	2292.37
573.61	2290.74
573.96	2288.98
574.31	2285.91
574.67	2282.91
575.02	2279.37
575.37	2275.99
575.72	2272.23
576.08	2268.95
576.43	2265.65
576.78	2262.10
577.13	2259.00
577.49	2255.86
577.84	2252.46
578.19	2248.68
578.54	2245.06
578.90	2240.82
579.25	2235.21
579.60	2230.16
579.95	2225.19
580.30	2220.28
580.66	2215.09
581.01	2210.09
581.36	2205.26
581.71	2201.14
582.06	2196.65
582.42	2192.15
582.77	2186.76
583.12	2182.16
583.47	2177.43
583.82	2172.37
584.17	2167.05
584.53	2161.50
584.88	2155.90
585.23	2150.09
585.58	2144.71
585.93	2139.27
586.28	2134.46
586.63	2129.37
586.98	2124.30
587.34	2119.56
587.69	2114.53
588.04	2109.40
588.39	2103.75
588.74	2097.21
589.09	2091.13
589.44	2084.43
589.79	2078.35
590.14	2072.83
590.49	2066.20
590.84	2059.92
591.19	2053.84
591.54	2047.50
591.89	2040.19
592.25	2033.32
592.60	2026.20
592.95	2018.53
593.30	2011.09
593.65	2003.52
594.00	1996.47
594.35	1989.21
594.70	1981.16
595.05	1974.04
595.40	1966.63
595.75	1959.16
596.10	1952.98
596.45	1946.20
596.80	1940.00
597.15	1933.38
597.50	1926.38
597.85	1920.05
598.19	1913.18
598.54	1906.15
598.89	1899.48
599.24	1893.49
599.59	1886.84
599.94	1880.59
600.29	1874.42
600.64	1867.93
600.99	1860.46
601.34	1853.63
601.69	1846.84
602.04	1840.00
602.39	1832.67
602.74	1825.90
603.08	1819.13
603.43	1812.42
603.78	1805.19
604.13	1798.01
604.48	1790.75
604.83	1783.82
605.18	1776.77
605.53	1768.84
605.87	1760.76
606.22	1753.66
606.57	1745.75
606.92	1738.43
607.27	1731.21
607.62	1724.19
607.96	1717.08
608.31	1710.54
608.66	1702.96
609.01	1695.33
609.36	1687.68
609.70	1679.66
610.05	1671.59
610.40	1663.78
610.75	1655.36
611.10	1647.64
611.44	1639.25
611.79	1631.22
612.14	1622.47
612.49	1613.42
612.83	1605.02
613.18	1596.91
613.53	1588.67
613.88	1580.15
614.22	1571.87
614.57	1563.33
614.92	1555.31
615.27	1547.52
615.61	1539.17
615.96	1531.19
616.31	1523.56
616.65	1516.34
617.00	1508.74
617.35	1501.02
617.70	1492.73
618.04	1484.32
618.39	1476.14
618.74	1468.55
619.08	1460.27
619.43	1452.64
619.78	1445.72
620.12	1438.54
620.47	1431.01
620.82	1422.89
621.16	1415.47
621.51	1407.89
621.85	1400.32
622.20	1391.86
622.55	1383.59
622.89	1375.75
623.24	1368.18
623.59	1360.90
623.93	1353.24
624.28	1345.96
624.62	1338.35
624.97	1331.29
625.32	1324.60
625.66	1317.43
626.01	1310.19
626.35	1302.71
626.70	1295.11
627.04	1287.33
627.39	1279.65
627.73	1272.28
628.08	1265.32
628.43	1258.06
628.77	1250.71
629.12	1243.09
629.46	1235.87
629.81	1228.46
630.15	1221.20
630.50	1213.78
630.84	1205.45
631.19	1197.71
631.53	1190.28
631.88	1182.84
632.22	1175.14
632.57	1167.75
632.91	1160.32
633.26	1152.91
633.60	1145.59
633.95	1138.55
634.29	1131.49
634.64	1124.83
634.98	1117.42
635.32	1110.27
635.67	1103.64
636.01	1097.05
636.36	1090.22
636.70	1083.74
637.05	1077.17
637.39	1070.60
637.73	1064.02
638.08	1058.16
638.42	1052.07
638.77	1045.64
639.11	1038.89
639.45	1032.55
639.80	1025.89
640.14	1019.52
640.49	1013.01
640.83	1006.68
641.17	1000.33
641.52	993.97
641.86	987.52
642.20	981.70
642.55	975.35
642.89	968.85
643.23	962.21
643.58	956.49
643.92	950.24
644.26	944.19
644.61	938.21
644.95	932.22
645.29	925.61
645.64	918.81
645.98	912.48
646.32	906.68
646.66	900.64
647.01	894.85
647.35	889.05
647.69	883.12
648.04	877.60
648.38	871.78
648.72	865.81
649.06	859.68
649.41	853.79
649.75	847.86
650.09	841.96
650.43	836.22
650.78	829.99
651.12	824.06
651.46	818.34
651.80	812.61
652.14	807.23
652.49	801.83
652.83	796.77
653.17	791.09
653.51	785.38
653.85	779.96
654.20	774.29
654.54	768.34
654.88	762.69
655.22	756.79
655.56	751.19
655.90	745.76
656.25	740.49
656.59	735.17
656.93	730.13
657.27	724.97
657.61	719.53
657.95	714.51
658.29	709.43
658.64	704.13
658.98	698.82
659.32	693.40
659.66	688.29
660.00	682.90
660.34	677.90
660.68	673.00
661.02	667.98
661.36	663.29
661.70	658.75
662.05	654.42
662.39	650.16
662.73	645.65
663.07	641.27
663.41	636.89
663.75	632.38
664.09	627.80
664.43	623.38
664.77	619.26
665.11	615.00
665.45	610.86
665.79	606.80
666.13	602.69
666.47	598.51
666.81	594.29
667.15	590.17
667.49	586.27
667.83	582.45
668.17	578.52
668.51	574.39
668.85	570.33
669.19	566.52
669.53	562.62
669.87	558.74
670.21	555.04
670.55	551.36
670.89	547.99
671.23	544.53
671.57	541.03
671.91	537.48
672.25	533.96
672.58	530.49
672.92	527.10
673.26	523.97
673.60	520.92
673.94	517.80
674.28	514.93
674.62	512.03
674.96	508.88
675.30	506.05
675.64	503.19
675.97	500.47
676.31	497.49
676.65	494.52
676.99	491.77
677.33	488.96
677.67	486.14
678.01	483.08
678.34	480.09
678.68	477.20
679.02	474.39
679.36	471.64
679.70	468.91
680.04	466.15
680.37	463.24
680.71	460.39
681.05	457.79
681.39	455.03
681.73	452.38
682.06	449.92
682.40	447.28
682.74	444.75
683.08	442.20
683.42	439.69
683.75	437.24
684.09	434.72
684.43	432.24
684.77	429.77
685.10	427.42
685.44	425.10
685.78	422.86
686.12	420.59
686.45	418.33
686.79	416.06
687.13	413.82
687.46	411.67
687.80	409.53
688.14	407.34
688.48	405.35
688.81	403.07
689.15	400.94
689.49	398.83
689.82	396.75
690.16	394.65
690.50	392.67
690.83	390.74
691.17	388.76
691.51	386.82
691.84	384.99
692.18	382.99
692.52	381.03
692.85	379.12
693.19	377.25
693.52	375.36
693.86	373.52
694.20	371.73
694.53	369.90
694.87	368.07
695.21	366.25
695.54	364.37
695.88	362.67
696.21	360.95
696.55	359.26
696.88	357.59
697.22	355.92
697.56	354.27
697.89	352.62
698.23	351.04
698.56	349.48
698.90	347.90
699.23	346.31
699.57	344.76
699.90	343.18
700.24	341.67
700.58	340.17
700.91	338.70
701.25	337.24
701.58	335.88
701.92	334.50
702.25	333.16
702.59	331.81
702.92	330.48
703.26	329.13
703.59	327.86
703.93	326.67
704.26	325.48
704.60	324.21
704.93	322.93
705.26	321.69
705.60	320.46
705.93	319.29
706.27	318.25
706.60	317.20
706.94	316.13
707.27	314.95
707.61	313.92
707.94	312.90
708.27	311.80
708.61	310.73
708.94	309.71
709.28	308.74
709.61	307.80
709.94	306.82
710.28	305.82
710.61	304.86
710.95	303.77
711.28	302.81
711.61	301.85
711.95	300.93
712.28	299.96
712.61	299.00
712.95	298.08
713.28	297.20
713.61	296.31
713.95	295.43
714.28	294.63
714.61	293.72
714.95	292.86
715.28	292.03
715.61	291.15
715.95	290.31
716.28	289.43
716.61	288.59
716.95	287.82
717.28	287.11
717.61	286.31
717.94	285.56
718.28	284.74
718.61	283.96
718.94	283.28
719.27	282.60
719.61	281.95
719.94	281.30
720.27	280.58
720.60	279.86
720.94	279.23
721.27	278.64
721.60	278.11
721.93	277.50
722.27	276.96
722.60	276.42
722.93	275.86
723.26	275.31
723.59	274.74
723.93	274.17
724.26	273.58
724.59	272.98
724.92	272.49
725.25	272.01
725.59	271.55
725.92	271.02
726.25	270.52
726.58	270.00
726.91	269.50
727.24	269.00
727.57	268.56
727.91	268.09
728.24	267.58
728.57	267.09
728.90	266.64
729.23	266.15
729.56	265.72
729.89	265.21
730.22	264.72
730.55	264.25
730.89	263.81
731.22	263.38
731.55	262.98
731.88	262.53
732.21	262.09
732.54	261.65
732.87	261.20
733.20	260.82
733.53	260.46
733.86	260.09
734.19	259.73
734.52	259.34
734.85	258.97
735.18	258.57
735.51	258.23
735.84	257.84
736.17	257.46
736.50	257.08
736.83	256.86
737.16	256.53
737.49	256.22
737.82	255.85
738.15	255.51
738.48	255.19
738.81	254.86
739.14	254.55
739.47	254.21
739.80	253.94
740.13	253.63
740.46	253.27
740.79	252.92
741.12	252.60
741.45	252.35
741.78	252.02
742.11	251.75
742.44	251.39
742.77	251.12
743.10	250.83
743.43	250.52
743.75	250.15
744.08	250.02
744.41	249.68
744.74	249.46
745.07	249.19
745.40	248.97
745.73	248.77
746.06	248.46
746.39	248.23
746.71	247.96
747.04	247.67
747.37	247.46
747.70	247.20
748.03	246.92
748.36	246.66
748.68	246.42
749.01	246.17
749.34	245.91
749.67	245.65
750.00	245.43
750.33	245.24
750.65	245.00
750.98	244.67
751.31	244.51
751.64	244.26
751.97	244.09
752.29	243.88
752.62	243.59
752.95	243.40
753.28	243.17
753.60	242.96
753.93	242.81
754.26	242.60
754.59	242.41
754.91	242.24
755.24	242.05
755.57	241.84
755.90	241.65
756.22	241.50
756.55	241.32
756.88	241.11
757.20	240.91
757.53	240.75
757.86	240.57
758.19	240.40
758.51	240.23
758.84	240.00
759.17	239.79
759.49	239.63
759.82	239.50
760.15	239.36
760.47	239.21
760.80	239.01
761.13	238.86
761.45	238.71
761.78	238.54
762.11	238.39
762.43	238.26
762.76	238.11
763.08	237.99
763.41	237.85
763.74	237.71
764.06	237.56
764.39	237.38
764.71	237.22
765.04	237.08
765.37	236.96
765.69	236.87
766.02	236.77
766.34	236.65
766.67	236.48
767.00	236.39
767.32	236.30
767.65	236.29
767.97	236.15
768.30	236.07
768.62	235.95
768.95	235.82
769.27	235.71
769.60	235.61
769.92	235.47
770.25	235.34
770.57	235.25
770.90	235.15
771.22	235.06
771.55	234.99
771.87	234.92
772.20	234.79
772.52	234.76
772.85	234.79
773.17	234.71
773.50	234.63
773.82	234.51
774.15	234.36
774.47	234.19
774.80	234.10
775.12	233.98
775.45	233.89
775.77	233.83
776.09	233.74
776.42	233.65
776.74	233.61
777.07	233.53
777.39	233.47
777.72	233.37
778.04	233.32
778.36	233.26
778.69	233.17
779.01	233.10
779.33	232.91
779.66	232.71
779.98	232.65
780.31	232.60
780.63	232.62
780.95	232.58
781.28	232.53
781.60	232.46
781.92	232.40
782.25	232.35
782.57	232.30
782.89	232.24
783.22	232.18
783.54	232.07
783.86	232.01
784.19	231.92
784.51	231.90
784.83	231.85
785.16	231.81
785.48	231.78
785.80	231.75
786.12	231.72
786.45	231.68
786.77	231.64
787.09	231.57
