SpectraSuite Data File
++++++++++++++++++++++++++++++++++++
Date: Fri Feb 01 15:30:44 EST 2013
User: group
Dark Spectrum Present: No
Reference Spectrum Present: No
Number of Sampled Component Spectra: 1
Spectrometers: USB2E7196
Integration Time (usec): 35000 (USB2E7196)
Spectra Averaged: 100 (USB2E7196)
Boxcar Smoothing: 10 (USB2E7196)
Correct for Electrical Dark: No (USB2E7196)
Strobe/Lamp Enabled: No (USB2E7196)
Correct for Detector Non-linearity: No (USB2E7196)
Correct for Stray Light: No (USB2E7196)
Number of Pixels in Processed Spectrum: 2048
>>>>>Begin Processed Spectral Data<<<<<
339.09	0.00
339.48	215.00
339.86	216.03
340.24	217.51
340.63	219.37
341.01	222.22
341.39	222.10
341.78	223.30
342.16	224.13
342.54	225.16
342.93	213.45
343.31	224.24
343.69	224.82
344.07	225.29
344.46	225.73
344.84	226.09
345.22	226.33
345.60	226.57
345.99	226.78
346.37	226.95
346.75	227.07
347.13	227.14
347.52	227.20
347.90	227.27
348.28	227.31
348.66	227.32
349.05	227.31
349.43	227.39
349.81	227.42
350.19	227.48
350.57	227.52
350.96	227.58
351.34	227.66
351.72	227.74
352.10	227.90
352.48	227.97
352.87	228.03
353.25	228.11
353.63	228.17
354.01	228.22
354.39	228.29
354.77	228.33
355.15	228.43
355.54	228.51
355.92	228.53
356.30	228.62
356.68	228.80
357.06	228.85
357.44	228.90
357.82	228.95
358.20	229.02
358.58	229.09
358.97	229.17
359.35	229.24
359.73	229.30
360.11	229.32
360.49	229.39
360.87	229.44
361.25	229.46
361.63	229.57
362.01	229.57
362.39	229.59
362.77	229.65
363.15	229.69
363.53	229.68
363.91	229.71
364.29	229.69
364.67	229.60
365.05	229.63
365.43	229.63
365.81	229.65
366.19	229.63
366.57	229.66
366.95	229.66
367.33	229.60
367.71	229.60
368.09	229.58
368.47	229.59
368.85	229.54
369.23	229.55
369.61	229.43
369.99	229.43
370.37	229.40
370.75	229.39
371.13	229.33
371.51	229.27
371.89	229.26
372.27	229.18
372.65	229.12
373.03	229.05
373.41	228.99
373.78	228.91
374.16	228.85
374.54	228.73
374.92	228.64
375.30	228.63
375.68	228.49
376.06	228.42
376.44	228.29
376.82	228.24
377.19	228.17
377.57	228.14
377.95	228.05
378.33	227.98
378.71	227.85
379.09	227.79
379.47	227.73
379.84	227.65
380.22	227.57
380.60	227.48
380.98	227.42
381.36	227.34
381.73	227.28
382.11	227.21
382.49	227.12
382.87	227.07
383.25	226.98
383.62	227.04
384.00	226.94
384.38	226.90
384.76	226.86
385.13	226.83
385.51	226.78
385.89	226.72
386.27	226.67
386.64	226.62
387.02	226.55
387.40	226.48
387.78	226.44
388.15	226.45
388.53	226.41
388.91	226.36
389.29	226.32
389.66	226.27
390.04	226.27
390.42	226.29
390.79	226.26
391.17	226.26
391.55	226.15
391.92	226.15
392.30	226.17
392.68	226.15
393.05	226.16
393.43	226.16
393.81	226.16
394.18	226.17
394.56	226.20
394.94	226.25
395.31	226.29
395.69	226.35
396.06	226.35
396.44	226.41
396.82	226.45
397.19	226.55
397.57	226.60
397.95	226.62
398.32	226.64
398.70	226.68
399.07	226.77
399.45	226.84
399.82	226.93
400.20	226.99
400.58	227.08
400.95	227.10
401.33	227.19
401.70	227.33
402.08	227.42
402.45	227.51
402.83	227.63
403.20	227.73
403.58	227.83
403.95	227.97
404.33	228.11
404.71	228.26
405.08	228.45
405.46	228.57
405.83	228.76
406.21	228.92
406.58	229.12
406.96	229.26
407.33	229.47
407.70	229.68
408.08	229.95
408.45	230.18
408.83	230.43
409.20	230.67
409.58	230.85
409.95	231.11
410.33	231.40
410.70	231.64
411.08	231.92
411.45	232.25
411.82	232.56
412.20	232.93
412.57	233.34
412.95	233.62
413.32	234.06
413.69	234.46
414.07	234.90
414.44	235.36
414.82	235.84
415.19	236.38
415.56	236.90
415.94	237.43
416.31	238.07
416.68	238.68
417.06	239.36
417.43	240.09
417.81	240.86
418.18	241.64
418.55	242.47
418.93	243.38
419.30	244.22
419.67	245.17
420.04	246.10
420.42	247.09
420.79	248.30
421.16	249.45
421.54	250.65
421.91	251.92
422.28	253.17
422.66	254.55
423.03	255.85
423.40	257.18
423.77	258.58
424.15	260.01
424.52	261.52
424.89	263.17
425.26	264.72
425.64	266.17
426.01	267.75
426.38	269.41
426.75	271.07
427.13	272.81
427.50	274.62
427.87	276.53
428.24	278.38
428.61	280.11
428.99	282.02
429.36	284.11
429.73	286.13
430.10	288.16
430.47	290.18
430.85	292.32
431.22	294.60
431.59	297.01
431.96	299.26
432.33	301.75
432.70	304.11
433.08	306.93
433.45	309.57
433.82	312.19
434.19	315.11
434.56	317.90
434.93	320.61
435.30	323.23
435.68	326.15
436.05	329.00
436.42	331.80
436.79	334.34
437.16	337.04
437.53	339.88
437.90	342.69
438.27	345.42
438.64	348.25
439.01	350.85
439.38	353.09
439.75	355.26
440.13	357.73
440.50	360.08
440.87	361.92
441.24	363.92
441.61	366.07
441.98	367.52
442.35	369.38
442.72	371.20
443.09	373.03
443.46	374.00
443.83	374.62
444.20	375.13
444.57	376.00
444.94	376.29
445.31	376.65
445.68	376.99
446.05	377.08
446.42	376.68
446.79	376.22
447.16	375.77
447.53	375.45
447.90	374.30
448.27	373.09
448.64	371.48
449.01	370.30
449.37	368.32
449.74	366.46
450.11	364.17
450.48	361.68
450.85	359.11
451.22	356.94
451.59	354.91
451.96	352.94
452.33	350.32
452.70	347.92
453.07	344.97
453.43	342.08
453.80	339.29
454.17	336.62
454.54	334.07
454.91	331.35
455.28	328.63
455.65	326.18
456.02	323.76
456.38	321.62
456.75	318.93
457.12	316.71
457.49	314.50
457.86	312.30
458.23	310.44
458.59	308.41
458.96	306.32
459.33	304.45
459.70	302.58
460.07	301.05
460.43	299.34
460.80	297.80
461.17	296.36
461.54	294.87
461.91	293.40
462.27	291.95
462.64	290.68
463.01	289.32
463.38	287.95
463.74	286.59
464.11	285.43
464.48	284.42
464.85	283.28
465.21	282.36
465.58	281.46
465.95	280.37
466.32	279.44
466.68	278.52
467.05	277.62
467.42	276.71
467.78	275.82
468.15	274.98
468.52	274.33
468.88	273.49
469.25	272.73
469.62	272.12
469.98	271.46
470.35	270.83
470.72	270.27
471.08	269.66
471.45	269.10
471.82	268.55
472.18	267.91
472.55	267.50
472.92	267.02
473.28	266.56
473.65	266.09
474.02	265.68
474.38	265.32
474.75	264.98
475.11	264.63
475.48	264.35
475.85	264.05
476.21	263.78
476.58	263.61
476.94	263.47
477.31	263.31
477.67	263.20
478.04	263.09
478.41	263.03
478.77	263.07
479.14	263.04
479.50	263.09
479.87	263.17
480.23	263.23
480.60	263.29
480.96	263.40
481.33	263.61
481.69	263.79
482.06	264.00
482.42	264.19
482.79	264.47
483.15	264.81
483.52	265.27
483.88	265.66
484.25	266.04
484.61	266.44
484.98	266.90
485.34	267.46
485.71	268.05
486.07	268.63
486.44	269.17
486.80	269.86
487.17	270.55
487.53	271.38
487.90	272.24
488.26	273.18
488.62	274.14
488.99	275.13
489.35	276.16
489.72	277.26
490.08	278.47
490.44	279.69
490.81	280.99
491.17	282.28
491.54	283.73
491.90	285.25
492.26	286.88
492.63	288.63
492.99	290.39
493.36	292.25
493.72	294.28
494.08	296.40
494.45	298.65
494.81	301.03
495.17	303.47
495.54	306.04
495.90	308.68
496.26	311.49
496.63	314.47
496.99	317.58
497.35	320.83
497.72	324.26
498.08	327.82
498.44	331.52
498.80	335.44
499.17	339.53
499.53	343.74
499.89	348.13
500.26	352.61
500.62	357.26
500.98	362.23
501.34	367.31
501.71	372.62
502.07	378.07
502.43	383.64
502.79	389.46
503.16	395.50
503.52	401.77
503.88	408.14
504.24	414.74
504.60	421.65
504.97	428.76
505.33	436.05
505.69	443.71
506.05	451.49
506.41	459.35
506.78	467.48
507.14	475.89
507.50	484.65
507.86	493.71
508.22	502.89
508.59	512.10
508.95	521.73
509.31	531.55
509.67	541.63
510.03	551.97
510.39	562.51
510.75	573.38
511.12	584.37
511.48	595.71
511.84	607.16
512.20	618.72
512.56	630.72
512.92	642.89
513.28	655.21
513.64	667.67
514.00	680.39
514.37	693.41
514.73	706.46
515.09	719.41
515.45	732.59
515.81	746.21
516.17	760.23
516.53	774.32
516.89	788.52
517.25	802.69
517.61	817.14
517.97	831.63
518.33	846.02
518.69	860.78
519.05	875.88
519.41	891.08
519.77	906.66
520.13	922.15
520.49	937.62
520.85	953.11
521.21	968.88
521.57	985.28
521.93	1001.08
522.29	1017.61
522.65	1034.00
523.01	1050.44
523.37	1066.55
523.73	1082.77
524.09	1098.93
524.45	1115.31
524.81	1132.09
525.17	1148.96
525.53	1165.96
525.89	1182.90
526.25	1199.72
526.61	1215.99
526.97	1232.81
527.33	1249.31
527.68	1265.95
528.04	1282.47
528.40	1299.13
528.76	1316.26
529.12	1332.73
529.48	1349.69
529.84	1365.67
530.20	1382.33
530.56	1399.42
530.91	1416.78
531.27	1433.55
531.63	1450.05
531.99	1466.65
532.35	1482.69
532.71	1498.64
533.07	1514.93
533.42	1530.88
533.78	1547.01
534.14	1563.43
534.50	1578.81
534.86	1594.69
535.21	1609.91
535.57	1625.93
535.93	1641.53
536.29	1656.43
536.65	1671.69
537.00	1686.45
537.36	1701.85
537.72	1716.51
538.08	1730.89
538.44	1744.81
538.79	1758.77
539.15	1772.59
539.51	1786.44
539.87	1800.80
540.22	1814.53
540.58	1828.41
540.94	1841.91
541.29	1855.08
541.65	1867.76
542.01	1881.09
542.37	1893.50
542.72	1906.04
543.08	1917.84
543.44	1930.30
543.79	1941.46
544.15	1952.40
544.51	1964.01
544.87	1974.97
545.22	1985.84
545.58	1996.09
545.94	2005.93
546.29	2015.73
546.65	2025.46
547.01	2034.69
547.36	2043.54
547.72	2052.11
548.07	2059.95
548.43	2068.20
548.79	2076.17
549.14	2083.84
549.50	2091.06
549.86	2098.74
550.21	2105.97
550.57	2113.21
550.92	2119.78
551.28	2126.84
551.64	2134.10
551.99	2140.67
552.35	2146.90
552.70	2152.92
553.06	2158.94
553.41	2165.24
553.77	2171.45
554.13	2177.68
554.48	2183.91
554.84	2189.22
555.19	2194.62
555.55	2199.81
555.90	2204.10
556.26	2208.85
556.61	2213.64
556.97	2218.08
557.32	2222.26
557.68	2226.50
558.03	2230.77
558.39	2234.45
558.74	2239.14
559.10	2242.94
559.45	2246.52
559.81	2250.71
560.16	2254.64
560.52	2257.88
560.87	2261.35
561.23	2263.94
561.58	2266.90
561.94	2269.36
562.29	2271.75
562.64	2274.25
563.00	2276.86
563.35	2280.51
563.71	2283.66
564.06	2286.72
564.42	2289.49
564.77	2291.92
565.12	2294.07
565.48	2295.77
565.83	2297.61
566.19	2298.92
566.54	2299.86
566.89	2301.04
567.25	2301.73
567.60	2303.03
567.96	2304.59
568.31	2305.39
568.66	2306.40
569.02	2306.82
569.37	2306.99
569.72	2307.69
570.08	2307.81
570.43	2307.68
570.78	2306.93
571.14	2305.41
571.49	2304.16
571.84	2303.79
572.20	2302.48
572.55	2301.38
572.90	2299.92
573.26	2298.57
573.61	2296.94
573.96	2295.07
574.31	2292.03
574.67	2288.87
575.02	2285.12
575.37	2281.70
575.72	2277.81
576.08	2274.54
576.43	2271.18
576.78	2267.51
577.13	2264.42
577.49	2261.33
577.84	2257.77
578.19	2254.04
578.54	2250.23
578.90	2245.81
579.25	2240.21
579.60	2235.45
579.95	2230.34
580.30	2225.19
580.66	2219.77
581.01	2214.55
581.36	2209.50
581.71	2205.28
582.06	2200.87
582.42	2196.34
582.77	2191.03
583.12	2186.33
583.47	2181.44
583.82	2176.39
584.17	2171.11
584.53	2165.59
584.88	2159.80
585.23	2153.91
585.58	2148.24
585.93	2142.88
586.28	2138.09
586.63	2132.88
586.98	2127.66
587.34	2123.01
587.69	2118.14
588.04	2112.81
588.39	2107.08
588.74	2100.65
589.09	2094.51
589.44	2087.67
589.79	2081.55
590.14	2075.91
590.49	2069.36
590.84	2062.98
591.19	2056.84
591.54	2050.40
591.89	2042.85
592.25	2035.96
592.60	2028.82
592.95	2021.23
593.30	2013.71
593.65	2006.00
594.00	1999.14
594.35	1991.83
594.70	1983.82
595.05	1976.32
595.40	1969.19
595.75	1961.64
596.10	1955.28
596.45	1948.24
596.80	1941.95
597.15	1935.31
597.50	1928.19
597.85	1921.65
598.19	1914.89
598.54	1907.89
598.89	1901.14
599.24	1895.20
599.59	1888.50
599.94	1882.26
600.29	1875.82
600.64	1869.23
600.99	1861.77
601.34	1854.63
601.69	1847.63
602.04	1840.50
602.39	1833.28
602.74	1826.24
603.08	1819.56
603.43	1812.78
603.78	1805.66
604.13	1798.44
604.48	1791.07
604.83	1784.25
605.18	1777.26
605.53	1769.23
605.87	1761.13
606.22	1753.83
606.57	1745.76
606.92	1738.40
607.27	1731.02
607.62	1724.18
607.96	1716.78
608.31	1710.22
608.66	1702.73
609.01	1695.07
609.36	1687.58
609.70	1679.58
610.05	1671.56
610.40	1663.74
610.75	1655.45
611.10	1647.57
611.44	1639.24
611.79	1631.30
612.14	1622.49
612.49	1613.35
612.83	1604.98
613.18	1596.77
613.53	1588.73
613.88	1580.33
614.22	1572.09
614.57	1563.64
614.92	1555.58
615.27	1548.06
615.61	1539.57
615.96	1531.51
616.31	1523.99
616.65	1516.55
617.00	1509.06
617.35	1501.39
617.70	1493.04
618.04	1484.34
618.39	1476.15
618.74	1468.31
619.08	1459.89
619.43	1452.15
619.78	1445.22
620.12	1437.95
620.47	1430.49
620.82	1422.38
621.16	1414.99
621.51	1407.49
621.85	1399.78
622.20	1391.18
622.55	1382.87
622.89	1375.11
623.24	1367.59
623.59	1360.14
623.93	1352.62
624.28	1345.39
624.62	1337.88
624.97	1330.81
625.32	1324.24
625.66	1317.20
626.01	1310.07
626.35	1302.66
626.70	1295.07
627.04	1287.36
627.39	1279.64
627.73	1272.15
628.08	1265.16
628.43	1257.83
628.77	1250.40
629.12	1242.97
629.46	1235.75
629.81	1228.25
630.15	1220.97
630.50	1213.49
630.84	1205.27
631.19	1197.43
631.53	1189.88
631.88	1182.28
632.22	1174.69
632.57	1167.37
632.91	1159.82
633.26	1152.57
633.60	1145.29
633.95	1138.31
634.29	1131.29
634.64	1124.70
634.98	1117.33
635.32	1110.25
635.67	1103.69
636.01	1097.03
636.36	1090.19
636.70	1083.78
637.05	1077.23
637.39	1070.81
637.73	1064.26
638.08	1058.41
638.42	1052.47
638.77	1045.96
639.11	1039.29
639.45	1032.82
639.80	1026.07
640.14	1019.70
640.49	1013.07
640.83	1006.79
641.17	1000.45
641.52	994.11
641.86	987.58
642.20	981.85
642.55	975.45
642.89	968.87
643.23	962.28
643.58	956.50
643.92	950.26
644.26	944.18
644.61	938.21
644.95	932.17
645.29	925.57
645.64	918.80
645.98	912.49
646.32	906.76
646.66	900.74
647.01	894.96
647.35	889.37
647.69	883.53
648.04	877.97
648.38	872.20
648.72	866.11
649.06	860.12
649.41	854.16
649.75	848.12
650.09	842.20
650.43	836.33
650.78	830.15
651.12	824.18
651.46	818.35
651.80	812.48
652.14	807.01
652.49	801.52
652.83	796.24
653.17	790.56
653.51	784.81
653.85	779.39
654.20	773.75
654.54	767.65
654.88	761.94
655.22	755.94
655.56	750.24
655.90	744.85
656.25	739.53
656.59	734.18
656.93	729.12
657.27	723.92
657.61	718.56
657.95	713.46
658.29	708.44
658.64	703.37
658.98	698.12
659.32	692.73
659.66	687.65
660.00	682.41
660.34	677.43
660.68	672.53
661.02	667.53
661.36	662.85
661.70	658.38
662.05	654.01
662.39	649.72
662.73	645.25
663.07	640.85
663.41	636.39
663.75	631.92
664.09	627.36
664.43	623.02
664.77	618.91
665.11	614.66
665.45	610.52
665.79	606.35
666.13	602.18
666.47	598.11
666.81	593.94
667.15	589.77
667.49	585.90
667.83	582.10
668.17	578.22
668.51	574.16
668.85	570.08
669.19	566.21
669.53	562.35
669.87	558.48
670.21	554.81
670.55	551.18
670.89	547.76
671.23	544.38
671.57	540.87
671.91	537.36
672.25	533.86
672.58	530.39
672.92	527.04
673.26	523.91
673.60	520.77
673.94	517.66
674.28	514.81
674.62	511.89
674.96	508.76
675.30	505.83
675.64	502.91
675.97	500.18
676.31	497.39
676.65	494.54
676.99	491.87
677.33	489.03
677.67	486.29
678.01	483.26
678.34	480.30
678.68	477.44
679.02	474.61
679.36	471.87
679.70	469.17
680.04	466.47
680.37	463.60
680.71	460.85
681.05	458.26
681.39	455.55
681.73	452.92
682.06	450.43
682.40	447.83
682.74	445.31
683.08	442.75
683.42	440.12
683.75	437.58
684.09	435.00
684.43	432.56
684.77	430.07
685.10	427.71
685.44	425.39
685.78	423.11
686.12	420.88
686.45	418.59
686.79	416.27
687.13	414.02
687.46	411.82
687.80	409.62
688.14	407.43
688.48	405.41
688.81	403.14
689.15	400.98
689.49	398.84
689.82	396.76
690.16	394.68
690.50	392.75
690.83	390.76
691.17	388.85
691.51	386.89
691.84	384.98
692.18	383.06
692.52	381.05
692.85	379.09
693.19	377.20
693.52	375.36
693.86	373.54
694.20	371.72
694.53	369.96
694.87	368.14
695.21	366.33
695.54	364.47
695.88	362.73
696.21	360.99
696.55	359.29
696.88	357.58
697.22	355.95
697.56	354.29
697.89	352.64
698.23	350.96
698.56	349.35
698.90	347.76
699.23	346.07
699.57	344.57
699.90	343.03
700.24	341.51
700.58	340.00
700.91	338.45
701.25	337.03
701.58	335.64
701.92	334.26
702.25	332.90
702.59	331.48
702.92	330.19
703.26	328.89
703.59	327.59
703.93	326.43
704.26	325.17
704.60	323.88
704.93	322.62
705.26	321.39
705.60	320.25
705.93	319.13
706.27	318.16
706.60	317.05
706.94	315.96
707.27	314.80
707.61	313.75
707.94	312.77
708.27	311.71
708.61	310.62
708.94	309.64
709.28	308.65
709.61	307.70
709.94	306.71
710.28	305.70
710.61	304.75
710.95	303.67
711.28	302.79
711.61	301.87
711.95	300.97
712.28	300.00
712.61	298.99
712.95	298.06
713.28	297.17
713.61	296.31
713.95	295.45
714.28	294.68
714.61	293.81
714.95	292.96
715.28	292.13
715.61	291.27
715.95	290.42
716.28	289.55
716.61	288.78
716.95	287.97
717.28	287.26
717.61	286.52
717.94	285.78
718.28	284.95
718.61	284.19
718.94	283.47
719.27	282.84
719.61	282.21
719.94	281.58
720.27	280.89
720.60	280.22
720.94	279.60
721.27	278.95
721.60	278.42
721.93	277.85
722.27	277.31
722.60	276.75
722.93	276.17
723.26	275.68
723.59	275.12
723.93	274.62
724.26	274.05
724.59	273.49
724.92	272.98
725.25	272.50
725.59	272.00
725.92	271.52
726.25	271.02
726.58	270.56
726.91	270.04
727.24	269.54
727.57	269.09
727.91	268.61
728.24	268.14
728.57	267.62
728.90	267.15
729.23	266.61
729.56	266.19
729.89	265.71
730.22	265.21
730.55	264.70
730.89	264.20
731.22	263.74
731.55	263.29
731.88	262.85
732.21	262.37
732.54	261.91
732.87	261.47
733.20	261.05
733.53	260.65
733.86	260.27
734.19	259.86
734.52	259.51
734.85	259.17
735.18	258.73
735.51	258.34
735.84	257.95
736.17	257.62
736.50	257.20
736.83	256.96
737.16	256.61
737.49	256.31
737.82	255.97
738.15	255.69
738.48	255.35
738.81	255.03
739.14	254.70
739.47	254.42
739.80	254.13
740.13	253.81
740.46	253.46
740.79	253.11
741.12	252.80
741.45	252.46
741.78	252.09
742.11	251.83
742.44	251.52
742.77	251.22
743.10	250.91
743.43	250.64
743.75	250.28
744.08	250.13
744.41	249.81
744.74	249.55
745.07	249.24
745.40	249.00
745.73	248.76
746.06	248.51
746.39	248.25
746.71	247.98
747.04	247.70
747.37	247.46
747.70	247.25
748.03	247.01
748.36	246.79
748.68	246.59
749.01	246.35
749.34	246.16
749.67	245.92
750.00	245.73
750.33	245.56
750.65	245.37
750.98	245.03
751.31	244.87
751.64	244.65
751.97	244.49
752.29	244.26
752.62	244.01
752.95	243.80
753.28	243.57
753.60	243.41
753.93	243.24
754.26	243.08
754.59	242.87
754.91	242.68
755.24	242.47
755.57	242.31
755.90	242.12
756.22	241.91
756.55	241.75
756.88	241.53
757.20	241.30
757.53	241.08
757.86	240.90
758.19	240.73
758.51	240.58
758.84	240.38
759.17	240.22
759.49	240.07
759.82	239.98
760.15	239.84
760.47	239.64
760.80	239.49
761.13	239.33
761.45	239.17
761.78	239.04
762.11	238.88
762.43	238.72
762.76	238.58
763.08	238.47
763.41	238.34
763.74	238.22
764.06	238.08
764.39	237.99
764.71	237.87
765.04	237.71
765.37	237.57
765.69	237.43
766.02	237.30
766.34	237.17
766.67	236.98
767.00	236.87
767.32	236.83
767.65	236.78
767.97	236.67
768.30	236.52
768.62	236.37
768.95	236.26
769.27	236.12
769.60	236.01
769.92	235.87
770.25	235.74
770.57	235.61
770.90	235.50
771.22	235.38
771.55	235.25
771.87	235.16
772.20	235.04
772.52	235.03
772.85	235.07
773.17	234.97
773.50	234.86
773.82	234.78
774.15	234.60
774.47	234.43
774.80	234.29
775.12	234.22
775.45	234.15
775.77	234.05
776.09	233.98
776.42	233.90
776.74	233.86
777.07	233.78
777.39	233.70
777.72	233.63
778.04	233.55
778.36	233.50
778.69	233.46
779.01	233.40
779.33	233.26
779.66	233.06
779.98	232.97
780.31	232.92
780.63	232.87
780.95	232.80
781.28	232.73
781.60	232.70
781.92	232.64
782.25	232.54
782.57	232.46
782.89	232.41
783.22	232.34
783.54	232.24
783.86	232.17
784.19	232.11
784.51	232.07
784.83	232.00
785.16	231.94
785.48	231.87
785.80	231.84
786.12	231.80
786.45	231.75
786.77	231.74
787.09	231.70
