SpectraSuite Data File
++++++++++++++++++++++++++++++++++++
Date: Fri Feb 01 16:21:47 EST 2013
User: group
Dark Spectrum Present: No
Reference Spectrum Present: No
Number of Sampled Component Spectra: 1
Spectrometers: USB2E7196
Integration Time (usec): 35000 (USB2E7196)
Spectra Averaged: 100 (USB2E7196)
Boxcar Smoothing: 10 (USB2E7196)
Correct for Electrical Dark: No (USB2E7196)
Strobe/Lamp Enabled: No (USB2E7196)
Correct for Detector Non-linearity: No (USB2E7196)
Correct for Stray Light: No (USB2E7196)
Number of Pixels in Processed Spectrum: 2048
>>>>>Begin Processed Spectral Data<<<<<
339.09	0.00
339.48	214.32
339.86	216.42
340.24	216.88
340.63	218.44
341.01	221.16
341.39	221.49
341.78	222.53
342.16	223.37
342.54	223.85
342.93	212.55
343.31	223.32
343.69	223.86
344.07	224.27
344.46	224.70
344.84	225.06
345.22	225.31
345.60	225.54
345.99	225.71
346.37	225.83
346.75	225.92
347.13	225.94
347.52	225.97
347.90	226.02
348.28	226.05
348.66	226.03
349.05	226.04
349.43	226.11
349.81	226.11
350.19	226.14
350.57	226.18
350.96	226.26
351.34	226.30
351.72	226.35
352.10	226.44
352.48	226.49
352.87	226.55
353.25	226.61
353.63	226.63
354.01	226.68
354.39	226.77
354.77	226.85
355.15	226.97
355.54	227.00
355.92	227.02
356.30	227.07
356.68	227.22
357.06	227.26
357.44	227.31
357.82	227.39
358.20	227.46
358.58	227.52
358.97	227.58
359.35	227.63
359.73	227.71
360.11	227.75
360.49	227.80
360.87	227.86
361.25	227.93
361.63	228.03
362.01	228.08
362.39	228.12
362.77	228.18
363.15	228.20
363.53	228.24
363.91	228.29
364.29	228.31
364.67	228.25
365.05	228.30
365.43	228.32
365.81	228.36
366.19	228.40
366.57	228.44
366.95	228.44
367.33	228.44
367.71	228.44
368.09	228.46
368.47	228.48
368.85	228.44
369.23	228.41
369.61	228.34
369.99	228.35
370.37	228.32
370.75	228.34
371.13	228.29
371.51	228.27
371.89	228.25
372.27	228.21
372.65	228.16
373.03	228.10
373.41	228.07
373.78	227.98
374.16	227.87
374.54	227.80
374.92	227.75
375.30	227.70
375.68	227.63
376.06	227.56
376.44	227.51
376.82	227.45
377.19	227.39
377.57	227.34
377.95	227.25
378.33	227.19
378.71	227.08
379.09	227.05
379.47	227.01
379.84	226.94
380.22	226.89
380.60	226.82
380.98	226.78
381.36	226.69
381.73	226.63
382.11	226.63
382.49	226.59
382.87	226.52
383.25	226.45
383.62	226.50
384.00	226.43
384.38	226.34
384.76	226.33
385.13	226.30
385.51	226.26
385.89	226.21
386.27	226.18
386.64	226.13
387.02	226.07
387.40	225.99
387.78	225.96
388.15	225.94
388.53	225.89
388.91	225.87
389.29	225.87
389.66	225.85
390.04	225.81
390.42	225.80
390.79	225.79
391.17	225.81
391.55	225.71
391.92	225.71
392.30	225.71
392.68	225.67
393.05	225.70
393.43	225.69
393.81	225.66
394.18	225.65
394.56	225.66
394.94	225.72
395.31	225.74
395.69	225.80
396.06	225.84
396.44	225.87
396.82	225.88
397.19	225.95
397.57	225.99
397.95	226.05
398.32	226.08
398.70	226.11
399.07	226.16
399.45	226.21
399.82	226.26
400.20	226.34
400.58	226.46
400.95	226.52
401.33	226.62
401.70	226.81
402.08	226.90
402.45	227.00
402.83	227.09
403.20	227.18
403.58	227.23
403.95	227.32
404.33	227.49
404.71	227.62
405.08	227.80
405.46	227.93
405.83	228.05
406.21	228.18
406.58	228.39
406.96	228.55
407.33	228.72
407.70	228.93
408.08	229.19
408.45	229.40
408.83	229.61
409.20	229.83
409.58	230.00
409.95	230.24
410.33	230.51
410.70	230.76
411.08	231.08
411.45	231.41
411.82	231.72
412.20	232.06
412.57	232.45
412.95	232.72
413.32	233.16
413.69	233.58
414.07	234.00
414.44	234.37
414.82	234.86
415.19	235.38
415.56	235.92
415.94	236.47
416.31	237.08
416.68	237.69
417.06	238.44
417.43	239.13
417.81	239.89
418.18	240.70
418.55	241.54
418.93	242.43
419.30	243.37
419.67	244.32
420.04	245.26
420.42	246.27
420.79	247.42
421.16	248.55
421.54	249.76
421.91	250.99
422.28	252.30
422.66	253.65
423.03	254.98
423.40	256.26
423.77	257.67
424.15	259.10
424.52	260.58
424.89	262.13
425.26	263.63
425.64	265.04
426.01	266.59
426.38	268.21
426.75	269.85
427.13	271.54
427.50	273.35
427.87	275.22
428.24	277.06
428.61	278.81
428.99	280.74
429.36	282.81
429.73	284.84
430.10	286.87
430.47	288.90
430.85	290.98
431.22	293.24
431.59	295.62
431.96	297.86
432.33	300.31
432.70	302.69
433.08	305.54
433.45	308.22
433.82	310.82
434.19	313.70
434.56	316.49
434.93	319.12
435.30	321.73
435.68	324.60
436.05	327.46
436.42	330.26
436.79	332.78
437.16	335.46
437.53	338.29
437.90	341.11
438.27	343.82
438.64	346.63
439.01	349.20
439.38	351.41
439.75	353.54
440.13	356.00
440.50	358.30
440.87	360.11
441.24	362.05
441.61	364.18
441.98	365.68
442.35	367.47
442.72	369.32
443.09	371.11
443.46	372.04
443.83	372.57
444.20	373.03
444.57	373.81
444.94	374.08
445.31	374.43
445.68	374.71
446.05	374.76
446.42	374.39
446.79	373.97
447.16	373.50
447.53	373.18
447.90	372.00
448.27	370.83
448.64	369.29
449.01	368.12
449.37	366.14
449.74	364.26
450.11	362.01
450.48	359.52
450.85	357.04
451.22	354.95
451.59	352.96
451.96	351.05
452.33	348.48
452.70	346.16
453.07	343.34
453.43	340.50
453.80	337.78
454.17	335.11
454.54	332.60
454.91	329.90
455.28	327.22
455.65	324.78
456.02	322.37
456.38	320.18
456.75	317.57
457.12	315.34
457.49	313.11
457.86	310.95
458.23	309.15
458.59	307.10
458.96	305.02
459.33	303.16
459.70	301.31
460.07	299.83
460.43	298.12
460.80	296.52
461.17	295.10
461.54	293.59
461.91	292.20
462.27	290.71
462.64	289.49
463.01	288.19
463.38	286.85
463.74	285.52
464.11	284.37
464.48	283.33
464.85	282.24
465.21	281.38
465.58	280.51
465.95	279.38
466.32	278.53
466.68	277.65
467.05	276.78
467.42	275.87
467.78	274.96
468.15	274.08
468.52	273.40
468.88	272.55
469.25	271.76
469.62	271.15
469.98	270.53
470.35	269.91
470.72	269.33
471.08	268.74
471.45	268.23
471.82	267.71
472.18	267.12
472.55	266.69
472.92	266.21
473.28	265.75
473.65	265.32
474.02	264.83
474.38	264.45
474.75	264.13
475.11	263.83
475.48	263.54
475.85	263.33
476.21	263.10
476.58	262.92
476.94	262.86
477.31	262.68
477.67	262.54
478.04	262.43
478.41	262.36
478.77	262.39
479.14	262.31
479.50	262.34
479.87	262.42
480.23	262.50
480.60	262.53
480.96	262.62
481.33	262.79
481.69	262.99
482.06	263.19
482.42	263.40
482.79	263.64
483.15	263.95
483.52	264.33
483.88	264.68
484.25	265.06
484.61	265.43
484.98	265.89
485.34	266.48
485.71	267.03
486.07	267.63
486.44	268.21
486.80	268.90
487.17	269.62
487.53	270.42
487.90	271.27
488.26	272.22
488.62	273.21
488.99	274.20
489.35	275.26
489.72	276.37
490.08	277.58
490.44	278.83
490.81	280.17
491.17	281.49
491.54	283.00
491.90	284.54
492.26	286.19
492.63	287.93
492.99	289.66
493.36	291.59
493.72	293.62
494.08	295.74
494.45	298.01
494.81	300.38
495.17	302.86
495.54	305.45
495.90	308.11
496.26	310.93
496.63	313.91
496.99	317.00
497.35	320.29
497.72	323.66
498.08	327.23
498.44	330.92
498.80	334.88
499.17	338.89
499.53	343.10
499.89	347.49
500.26	351.99
500.62	356.69
500.98	361.71
501.34	366.79
501.71	372.14
502.07	377.56
502.43	383.18
502.79	388.98
503.16	395.10
503.52	401.42
503.88	407.80
504.24	414.44
504.60	421.32
504.97	428.49
505.33	435.86
505.69	443.57
506.05	451.38
506.41	459.32
506.78	467.51
507.14	475.98
507.50	484.71
507.86	493.77
508.22	503.03
508.59	512.23
508.95	521.90
509.31	531.73
509.67	541.87
510.03	552.18
510.39	562.75
510.75	573.49
511.12	584.49
511.48	595.83
511.84	607.35
512.20	618.86
512.56	630.79
512.92	642.97
513.28	655.34
513.64	667.78
514.00	680.48
514.37	693.47
514.73	706.58
515.09	719.58
515.45	732.85
515.81	746.41
516.17	760.41
516.53	774.49
516.89	788.72
517.25	802.88
517.61	817.28
517.97	831.68
518.33	846.02
518.69	860.73
519.05	875.65
519.41	890.69
519.77	906.30
520.13	921.72
520.49	937.01
520.85	952.38
521.21	968.13
521.57	984.25
521.93	999.90
522.29	1016.23
522.65	1032.51
523.01	1048.65
523.37	1064.58
523.73	1080.58
524.09	1096.56
524.45	1112.76
524.81	1129.25
525.17	1146.00
525.53	1162.92
525.89	1179.84
526.25	1196.61
526.61	1212.92
526.97	1229.72
527.33	1246.17
527.68	1262.60
528.04	1278.96
528.40	1295.45
528.76	1312.32
529.12	1328.82
529.48	1345.66
529.84	1361.51
530.20	1377.95
530.56	1394.94
530.91	1412.32
531.27	1429.11
531.63	1445.52
531.99	1461.99
532.35	1477.87
532.71	1493.64
533.07	1509.93
533.42	1525.76
533.78	1541.71
534.14	1557.98
534.50	1573.25
534.86	1588.94
535.21	1604.19
535.57	1620.05
535.93	1635.47
536.29	1650.22
536.65	1665.26
537.00	1679.85
537.36	1695.16
537.72	1709.61
538.08	1723.95
538.44	1737.67
538.79	1751.50
539.15	1764.94
539.51	1778.49
539.87	1792.81
540.22	1806.55
540.58	1820.07
540.94	1833.31
541.29	1846.04
541.65	1858.58
542.01	1871.59
542.37	1883.81
542.72	1896.22
543.08	1908.01
543.44	1920.36
543.79	1931.62
544.15	1942.61
544.51	1954.25
544.87	1965.11
545.22	1975.94
545.58	1986.03
545.94	1995.77
546.29	2005.56
546.65	2015.49
547.01	2024.91
547.36	2033.60
547.72	2041.99
548.07	2049.80
548.43	2057.82
548.79	2065.98
549.14	2073.52
549.50	2080.90
549.86	2088.59
550.21	2095.83
550.57	2102.99
550.92	2109.44
551.28	2116.46
551.64	2123.48
551.99	2130.00
552.35	2136.10
552.70	2142.26
553.06	2148.28
553.41	2154.56
553.77	2160.60
554.13	2166.71
554.48	2172.76
554.84	2178.17
555.19	2183.46
555.55	2188.59
555.90	2193.25
556.26	2197.99
556.61	2202.61
556.97	2206.92
557.32	2210.97
557.68	2214.90
558.03	2219.12
558.39	2222.93
558.74	2227.55
559.10	2231.41
559.45	2235.10
559.81	2239.44
560.16	2243.20
560.52	2246.51
560.87	2249.91
561.23	2252.45
561.58	2255.44
561.94	2257.93
562.29	2260.26
562.64	2263.01
563.00	2265.61
563.35	2268.89
563.71	2272.04
564.06	2275.47
564.42	2278.30
564.77	2280.88
565.12	2283.27
565.48	2285.18
565.83	2286.93
566.19	2288.16
566.54	2288.99
566.89	2289.99
567.25	2290.48
567.60	2291.73
567.96	2293.39
568.31	2294.15
568.66	2295.38
569.02	2295.85
569.37	2296.29
569.72	2297.33
570.08	2297.44
570.43	2297.49
570.78	2296.98
571.14	2295.58
571.49	2293.99
571.84	2293.66
572.20	2292.57
572.55	2291.57
572.90	2290.06
573.26	2288.84
573.61	2287.22
573.96	2285.41
574.31	2282.54
574.67	2279.74
575.02	2276.25
575.37	2272.87
575.72	2269.16
576.08	2265.95
576.43	2262.79
576.78	2259.03
577.13	2255.82
577.49	2252.77
577.84	2249.32
578.19	2245.89
578.54	2242.41
578.90	2238.42
579.25	2232.96
579.60	2228.14
579.95	2223.18
580.30	2218.23
580.66	2213.10
581.01	2208.18
581.36	2203.54
581.71	2199.52
582.06	2195.05
582.42	2190.80
582.77	2185.69
583.12	2181.29
583.47	2176.56
583.82	2171.50
584.17	2166.45
584.53	2161.02
584.88	2155.42
585.23	2149.76
585.58	2144.21
585.93	2138.61
586.28	2133.94
586.63	2128.87
586.98	2123.83
587.34	2119.16
587.69	2114.38
588.04	2109.17
588.39	2103.65
588.74	2097.07
589.09	2091.01
589.44	2084.34
589.79	2078.35
590.14	2072.79
590.49	2066.12
590.84	2059.68
591.19	2053.74
591.54	2047.23
591.89	2039.89
592.25	2033.11
592.60	2026.00
592.95	2018.48
593.30	2011.19
593.65	2003.60
594.00	1996.74
594.35	1989.59
594.70	1981.66
595.05	1974.50
595.40	1967.31
595.75	1959.76
596.10	1953.71
596.45	1946.92
596.80	1940.70
597.15	1934.03
597.50	1926.87
597.85	1920.62
598.19	1914.03
598.54	1906.92
598.89	1900.51
599.24	1894.66
599.59	1888.04
599.94	1881.93
600.29	1875.51
600.64	1868.98
600.99	1861.52
601.34	1854.73
601.69	1847.59
602.04	1840.78
602.39	1833.45
602.74	1826.60
603.08	1819.91
603.43	1813.19
603.78	1805.86
604.13	1798.73
604.48	1791.35
604.83	1784.51
605.18	1777.44
605.53	1769.65
605.87	1761.74
606.22	1754.37
606.57	1746.42
606.92	1739.26
607.27	1731.98
607.62	1725.10
607.96	1717.90
608.31	1711.41
608.66	1703.76
609.01	1696.40
609.36	1688.76
609.70	1680.70
610.05	1672.60
610.40	1664.92
610.75	1656.55
611.10	1648.97
611.44	1640.42
611.79	1632.54
612.14	1623.95
612.49	1614.89
612.83	1606.38
613.18	1598.25
613.53	1590.12
613.88	1581.62
614.22	1573.19
614.57	1564.52
614.92	1556.53
615.27	1548.89
615.61	1540.41
615.96	1532.31
616.31	1524.61
616.65	1517.27
617.00	1509.69
617.35	1502.05
617.70	1493.65
618.04	1485.13
618.39	1476.88
618.74	1469.41
619.08	1461.02
619.43	1453.32
619.78	1446.41
620.12	1439.25
620.47	1431.60
620.82	1423.38
621.16	1416.03
621.51	1408.41
621.85	1400.86
622.20	1392.39
622.55	1384.06
622.89	1376.32
623.24	1368.78
623.59	1361.41
623.93	1353.89
624.28	1346.69
624.62	1339.09
624.97	1331.97
625.32	1325.26
625.66	1318.18
626.01	1311.02
626.35	1303.62
626.70	1295.96
627.04	1288.08
627.39	1280.38
627.73	1273.07
628.08	1266.26
628.43	1258.94
628.77	1251.68
629.12	1244.13
629.46	1236.89
629.81	1229.41
630.15	1222.14
630.50	1214.70
630.84	1206.43
631.19	1198.45
631.53	1191.05
631.88	1183.59
632.22	1175.94
632.57	1168.64
632.91	1161.08
633.26	1153.68
633.60	1146.27
633.95	1139.14
634.29	1132.13
634.64	1125.33
634.98	1118.01
635.32	1110.77
635.67	1104.16
636.01	1097.42
636.36	1090.61
636.70	1084.04
637.05	1077.50
637.39	1070.98
637.73	1064.47
638.08	1058.52
638.42	1052.56
638.77	1046.06
639.11	1039.43
639.45	1033.07
639.80	1026.32
640.14	1019.98
640.49	1013.34
640.83	1007.07
641.17	1000.83
641.52	994.52
641.86	988.15
642.20	982.26
642.55	976.00
642.89	969.44
643.23	962.93
643.58	957.15
643.92	951.00
644.26	944.92
644.61	938.94
644.95	932.82
645.29	926.35
645.64	919.55
645.98	913.18
646.32	907.32
646.66	901.28
647.01	895.52
647.35	889.74
647.69	883.95
648.04	878.44
648.38	872.58
648.72	866.62
649.06	860.50
649.41	854.61
649.75	848.60
650.09	842.70
650.43	836.91
650.78	830.76
651.12	824.82
651.46	819.14
651.80	813.34
652.14	808.02
652.49	802.61
652.83	797.53
653.17	791.75
653.51	786.06
653.85	780.60
654.20	774.94
654.54	768.97
654.88	763.25
655.22	757.32
655.56	751.64
655.90	746.23
656.25	741.00
656.59	735.58
656.93	730.60
657.27	725.38
657.61	719.89
657.95	714.74
658.29	709.64
658.64	704.35
658.98	699.02
659.32	693.52
659.66	688.29
660.00	682.92
660.34	678.06
660.68	673.10
661.02	668.09
661.36	663.38
661.70	658.91
662.05	654.48
662.39	650.15
662.73	645.70
663.07	641.30
663.41	636.81
663.75	632.33
664.09	627.74
664.43	623.38
664.77	619.29
665.11	615.01
665.45	610.87
665.79	606.79
666.13	602.73
666.47	598.63
666.81	594.44
667.15	590.33
667.49	586.40
667.83	582.60
668.17	578.70
668.51	574.58
668.85	570.49
669.19	566.67
669.53	562.77
669.87	558.91
670.21	555.16
670.55	551.49
670.89	548.11
671.23	544.64
671.57	541.11
671.91	537.52
672.25	534.03
672.58	530.50
672.92	527.08
673.26	523.83
673.60	520.64
673.94	517.51
674.28	514.56
674.62	511.65
674.96	508.52
675.30	505.58
675.64	502.66
675.97	499.87
676.31	496.96
676.65	494.06
676.99	491.33
677.33	488.48
677.67	485.70
678.01	482.62
678.34	479.64
678.68	476.75
679.02	473.97
679.36	471.20
679.70	468.45
680.04	465.70
680.37	462.86
680.71	460.07
681.05	457.48
681.39	454.75
681.73	452.07
682.06	449.52
682.40	446.99
682.74	444.48
683.08	441.90
683.42	439.32
683.75	436.84
684.09	434.30
684.43	431.79
684.77	429.28
685.10	426.93
685.44	424.63
685.78	422.35
686.12	420.10
686.45	417.84
686.79	415.58
687.13	413.38
687.46	411.20
687.80	409.07
688.14	406.89
688.48	404.87
688.81	402.60
689.15	400.43
689.49	398.32
689.82	396.23
690.16	394.20
690.50	392.26
690.83	390.29
691.17	388.35
691.51	386.49
691.84	384.63
692.18	382.66
692.52	380.67
692.85	378.72
693.19	376.84
693.52	374.98
693.86	373.15
694.20	371.34
694.53	369.54
694.87	367.69
695.21	365.88
695.54	364.04
695.88	362.32
696.21	360.61
696.55	358.89
696.88	357.20
697.22	355.49
697.56	353.86
697.89	352.18
698.23	350.54
698.56	348.88
698.90	347.29
699.23	345.68
699.57	344.11
699.90	342.59
700.24	341.03
700.58	339.48
700.91	337.97
701.25	336.53
701.58	335.13
701.92	333.77
702.25	332.36
702.59	331.00
702.92	329.70
703.26	328.34
703.59	327.04
703.93	325.89
704.26	324.65
704.60	323.32
704.93	322.07
705.26	320.78
705.60	319.62
705.93	318.48
706.27	317.45
706.60	316.39
706.94	315.27
707.27	314.11
707.61	313.09
707.94	312.10
708.27	310.99
708.61	309.94
708.94	308.95
709.28	307.96
709.61	306.97
709.94	306.01
710.28	305.04
710.61	304.08
710.95	303.01
711.28	302.13
711.61	301.21
711.95	300.31
712.28	299.38
712.61	298.40
712.95	297.46
713.28	296.54
713.61	295.65
713.95	294.78
714.28	293.98
714.61	293.08
714.95	292.22
715.28	291.37
715.61	290.50
715.95	289.61
716.28	288.78
716.61	287.97
716.95	287.12
717.28	286.37
717.61	285.59
717.94	284.83
718.28	283.99
718.61	283.28
718.94	282.57
719.27	281.87
719.61	281.22
719.94	280.58
720.27	279.89
720.60	279.25
720.94	278.63
721.27	278.03
721.60	277.48
721.93	276.89
722.27	276.37
722.60	275.80
722.93	275.20
723.26	274.70
723.59	274.13
723.93	273.62
724.26	273.04
724.59	272.44
724.92	271.91
725.25	271.40
725.59	270.87
725.92	270.36
726.25	269.89
726.58	269.40
726.91	268.90
727.24	268.41
727.57	267.92
727.91	267.36
728.24	266.86
728.57	266.36
728.90	265.89
729.23	265.38
729.56	264.96
729.89	264.52
730.22	264.02
730.55	263.58
730.89	263.10
731.22	262.69
731.55	262.28
731.88	261.84
732.21	261.43
732.54	261.00
732.87	260.55
733.20	260.13
733.53	259.71
733.86	259.31
734.19	258.91
734.52	258.53
734.85	258.26
735.18	257.85
735.51	257.46
735.84	257.07
736.17	256.73
736.50	256.34
736.83	256.10
737.16	255.76
737.49	255.40
737.82	255.06
738.15	254.71
738.48	254.39
738.81	254.10
739.14	253.77
739.47	253.46
739.80	253.15
740.13	252.86
740.46	252.56
740.79	252.23
741.12	251.94
741.45	251.64
741.78	251.26
742.11	250.97
742.44	250.66
742.77	250.42
743.10	250.14
743.43	249.84
743.75	249.47
744.08	249.34
744.41	249.06
744.74	248.81
745.07	248.55
745.40	248.30
745.73	248.03
746.06	247.74
746.39	247.51
746.71	247.28
747.04	246.99
747.37	246.72
747.70	246.49
748.03	246.24
748.36	246.02
748.68	245.77
749.01	245.55
749.34	245.34
749.67	245.09
750.00	244.84
750.33	244.71
750.65	244.48
750.98	244.13
751.31	243.96
751.64	243.74
751.97	243.58
752.29	243.37
752.62	243.16
752.95	242.97
753.28	242.73
753.60	242.52
753.93	242.36
754.26	242.19
754.59	241.98
754.91	241.77
755.24	241.55
755.57	241.38
755.90	241.17
756.22	240.97
756.55	240.75
756.88	240.56
757.20	240.29
757.53	240.09
757.86	239.93
758.19	239.72
758.51	239.55
758.84	239.34
759.17	239.13
759.49	238.94
759.82	238.80
760.15	238.68
760.47	238.50
760.80	238.30
761.13	238.20
761.45	238.03
761.78	237.88
762.11	237.73
762.43	237.60
762.76	237.48
763.08	237.37
763.41	237.23
763.74	237.09
764.06	236.98
764.39	236.85
764.71	236.71
765.04	236.57
765.37	236.44
765.69	236.31
766.02	236.22
766.34	236.13
766.67	235.99
767.00	235.87
767.32	235.83
767.65	235.78
767.97	235.63
768.30	235.51
768.62	235.40
768.95	235.32
769.27	235.19
769.60	235.12
769.92	234.97
770.25	234.87
770.57	234.74
770.90	234.61
771.22	234.54
771.55	234.42
771.87	234.35
772.20	234.27
772.52	234.26
772.85	234.25
773.17	234.16
773.50	234.06
773.82	233.97
774.15	233.81
774.47	233.67
774.80	233.57
775.12	233.49
775.45	233.40
775.77	233.28
776.09	233.22
776.42	233.13
776.74	233.10
777.07	233.04
777.39	233.01
777.72	232.94
778.04	232.85
778.36	232.79
778.69	232.72
779.01	232.62
779.33	232.48
779.66	232.34
779.98	232.27
780.31	232.20
780.63	232.15
780.95	232.11
781.28	232.07
781.60	231.99
781.92	231.92
782.25	231.88
782.57	231.85
782.89	231.76
783.22	231.67
783.54	231.57
783.86	231.49
784.19	231.42
784.51	231.41
784.83	231.33
785.16	231.26
785.48	231.21
785.80	231.18
786.12	231.15
786.45	231.05
786.77	231.00
787.09	230.95
