SpectraSuite Data File
++++++++++++++++++++++++++++++++++++
Date: Fri Feb 01 18:05:15 EST 2013
User: group
Dark Spectrum Present: No
Reference Spectrum Present: No
Number of Sampled Component Spectra: 1
Spectrometers: USB2E7196
Integration Time (usec): 35000 (USB2E7196)
Spectra Averaged: 100 (USB2E7196)
Boxcar Smoothing: 10 (USB2E7196)
Correct for Electrical Dark: No (USB2E7196)
Strobe/Lamp Enabled: No (USB2E7196)
Correct for Detector Non-linearity: No (USB2E7196)
Correct for Stray Light: No (USB2E7196)
Number of Pixels in Processed Spectrum: 2048
>>>>>Begin Processed Spectral Data<<<<<
339.09	0.00
339.48	213.19
339.86	214.37
340.24	215.79
340.63	217.21
341.01	220.31
341.39	220.00
341.78	221.28
342.16	222.74
342.54	222.75
342.93	211.46
343.31	222.13
343.69	222.67
344.07	223.14
344.46	223.56
344.84	223.95
345.22	224.18
345.60	224.45
345.99	224.62
346.37	224.75
346.75	224.87
347.13	224.91
347.52	224.99
347.90	225.05
348.28	225.11
348.66	225.15
349.05	225.16
349.43	225.18
349.81	225.23
350.19	225.28
350.57	225.37
350.96	225.46
351.34	225.55
351.72	225.64
352.10	225.71
352.48	225.77
352.87	225.82
353.25	225.86
353.63	225.92
354.01	225.98
354.39	226.06
354.77	226.13
355.15	226.23
355.54	226.29
355.92	226.34
356.30	226.37
356.68	226.52
357.06	226.61
357.44	226.66
357.82	226.73
358.20	226.84
358.58	226.88
358.97	226.90
359.35	226.99
359.73	227.06
360.11	227.12
360.49	227.19
360.87	227.24
361.25	227.30
361.63	227.37
362.01	227.42
362.39	227.40
362.77	227.41
363.15	227.41
363.53	227.40
363.91	227.44
364.29	227.43
364.67	227.35
365.05	227.37
365.43	227.39
365.81	227.42
366.19	227.44
366.57	227.47
366.95	227.53
367.33	227.52
367.71	227.52
368.09	227.54
368.47	227.54
368.85	227.52
369.23	227.54
369.61	227.49
369.99	227.50
370.37	227.52
370.75	227.58
371.13	227.58
371.51	227.55
371.89	227.48
372.27	227.47
372.65	227.44
373.03	227.37
373.41	227.33
373.78	227.26
374.16	227.16
374.54	227.10
374.92	227.00
375.30	226.92
375.68	226.86
376.06	226.81
376.44	226.76
376.82	226.70
377.19	226.62
377.57	226.55
377.95	226.47
378.33	226.40
378.71	226.27
379.09	226.21
379.47	226.20
379.84	226.17
380.22	226.11
380.60	226.02
380.98	225.96
381.36	225.92
381.73	225.84
382.11	225.80
382.49	225.75
382.87	225.68
383.25	225.65
383.62	225.67
384.00	225.62
384.38	225.54
384.76	225.54
385.13	225.50
385.51	225.44
385.89	225.39
386.27	225.36
386.64	225.36
387.02	225.30
387.40	225.23
387.78	225.20
388.15	225.18
388.53	225.16
388.91	225.11
389.29	225.05
389.66	225.04
390.04	225.01
390.42	224.99
390.79	225.01
391.17	224.95
391.55	224.84
391.92	224.79
392.30	224.81
392.68	224.78
393.05	224.80
393.43	224.84
393.81	224.86
394.18	224.82
394.56	224.82
394.94	224.86
395.31	224.87
395.69	224.91
396.06	224.94
396.44	224.95
396.82	224.99
397.19	225.10
397.57	225.15
397.95	225.21
398.32	225.22
398.70	225.26
399.07	225.32
399.45	225.39
399.82	225.48
400.20	225.55
400.58	225.61
400.95	225.63
401.33	225.71
401.70	225.85
402.08	225.97
402.45	226.07
402.83	226.18
403.20	226.31
403.58	226.39
403.95	226.53
404.33	226.68
404.71	226.84
405.08	227.01
405.46	227.14
405.83	227.30
406.21	227.50
406.58	227.70
406.96	227.91
407.33	228.10
407.70	228.31
408.08	228.63
408.45	228.89
408.83	229.17
409.20	229.44
409.58	229.69
409.95	230.01
410.33	230.35
410.70	230.70
411.08	231.07
411.45	231.47
411.82	231.86
412.20	232.34
412.57	232.86
412.95	233.25
413.32	233.78
413.69	234.33
414.07	234.88
414.44	235.50
414.82	236.14
415.19	236.86
415.56	237.60
415.94	238.29
416.31	239.14
416.68	240.00
417.06	240.94
417.43	241.81
417.81	242.85
418.18	243.91
418.55	245.02
418.93	246.20
419.30	247.41
419.67	248.67
420.04	249.97
420.42	251.32
420.79	252.94
421.16	254.48
421.54	256.09
421.91	257.76
422.28	259.46
422.66	261.30
423.03	263.08
423.40	264.89
423.77	266.86
424.15	268.79
424.52	270.81
424.89	273.01
425.26	275.14
425.64	277.07
426.01	279.21
426.38	281.46
426.75	283.70
427.13	286.04
427.50	288.45
427.87	290.95
428.24	293.45
428.61	295.86
428.99	298.48
429.36	301.36
429.73	304.16
430.10	306.89
430.47	309.66
430.85	312.60
431.22	315.67
431.59	318.85
431.96	321.90
432.33	325.27
432.70	328.49
433.08	332.31
433.45	335.94
433.82	339.49
434.19	343.42
434.56	347.25
434.93	350.88
435.30	354.48
435.68	358.44
436.05	362.33
436.42	366.09
436.79	369.60
437.16	373.27
437.53	377.11
437.90	380.98
438.27	384.70
438.64	388.53
439.01	392.02
439.38	395.10
439.75	398.07
440.13	401.48
440.50	404.71
440.87	407.26
441.24	409.89
441.61	412.82
441.98	414.90
442.35	417.38
442.72	419.86
443.09	422.31
443.46	423.71
443.83	424.53
444.20	425.28
444.57	426.43
444.94	426.86
445.31	427.35
445.68	427.77
446.05	427.90
446.42	427.34
446.79	426.79
447.16	426.22
447.53	425.78
447.90	424.24
448.27	422.67
448.64	420.46
449.01	418.95
449.37	416.31
449.74	413.71
450.11	410.64
450.48	407.33
450.85	403.91
451.22	400.97
451.59	398.20
451.96	395.48
452.33	391.92
452.70	388.65
453.07	384.78
453.43	380.89
453.80	377.16
454.17	373.53
454.54	370.05
454.91	366.31
455.28	362.70
455.65	359.28
456.02	355.87
456.38	353.02
456.75	349.39
457.12	346.28
457.49	343.22
457.86	340.27
458.23	337.71
458.59	334.94
458.96	332.07
459.33	329.54
459.70	326.99
460.07	324.92
460.43	322.57
460.80	320.33
461.17	318.33
461.54	316.24
461.91	314.30
462.27	312.30
462.64	310.54
463.01	308.63
463.38	306.84
463.74	304.99
464.11	303.38
464.48	301.91
464.85	300.38
465.21	299.17
465.58	297.91
465.95	296.40
466.32	295.12
466.68	293.90
467.05	292.66
467.42	291.45
467.78	290.13
468.15	288.91
468.52	288.02
468.88	286.84
469.25	285.75
469.62	284.90
469.98	284.00
470.35	283.18
470.72	282.37
471.08	281.43
471.45	280.70
471.82	279.88
472.18	279.07
472.55	278.49
472.92	277.78
473.28	277.13
473.65	276.49
474.02	275.87
474.38	275.32
474.75	274.84
475.11	274.31
475.48	273.94
475.85	273.59
476.21	273.22
476.58	272.91
476.94	272.70
477.31	272.39
477.67	272.14
478.04	271.92
478.41	271.79
478.77	271.74
479.14	271.57
479.50	271.51
479.87	271.52
480.23	271.52
480.60	271.50
480.96	271.54
481.33	271.72
481.69	271.85
482.06	272.01
482.42	272.16
482.79	272.36
483.15	272.63
483.52	273.00
483.88	273.29
484.25	273.63
484.61	274.03
484.98	274.49
485.34	275.02
485.71	275.60
486.07	276.21
486.44	276.77
486.80	277.52
487.17	278.28
487.53	279.10
487.90	279.95
488.26	280.97
488.62	281.99
488.99	282.98
489.35	284.07
489.72	285.23
490.08	286.48
490.44	287.83
490.81	289.23
491.17	290.64
491.54	292.26
491.90	293.90
492.26	295.61
492.63	297.42
492.99	299.29
493.36	301.27
493.72	303.40
494.08	305.65
494.45	307.98
494.81	310.50
495.17	313.05
495.54	315.78
495.90	318.60
496.26	321.55
496.63	324.67
496.99	327.99
497.35	331.42
497.72	335.05
498.08	338.78
498.44	342.64
498.80	346.84
499.17	351.08
499.53	355.53
499.89	360.18
500.26	364.95
500.62	369.93
500.98	375.22
501.34	380.62
501.71	386.29
502.07	392.11
502.43	398.14
502.79	404.32
503.16	410.76
503.52	417.40
503.88	424.26
504.24	431.36
504.60	438.64
504.97	446.24
505.33	454.00
505.69	462.23
506.05	470.59
506.41	478.98
506.78	487.71
507.14	496.67
507.50	505.99
507.86	515.69
508.22	525.50
508.59	535.37
508.95	545.60
509.31	556.10
509.67	566.93
510.03	577.93
510.39	589.31
510.75	600.90
511.12	612.66
511.48	624.65
511.84	636.97
512.20	649.38
512.56	662.22
512.92	675.29
513.28	688.57
513.64	702.04
514.00	715.79
514.37	729.66
514.73	743.82
515.09	757.86
515.45	772.14
515.81	786.80
516.17	801.90
516.53	817.21
516.89	832.60
517.25	847.88
517.61	863.54
517.97	879.24
518.33	894.91
518.69	910.95
519.05	927.27
519.41	943.79
519.77	960.73
520.13	977.64
520.49	994.52
520.85	1011.25
521.21	1028.33
521.57	1045.99
521.93	1063.24
522.29	1081.18
522.65	1099.09
523.01	1116.86
523.37	1134.53
523.73	1152.32
524.09	1169.98
524.45	1187.89
524.81	1206.28
525.17	1224.74
525.53	1243.31
525.89	1262.03
526.25	1280.62
526.61	1298.78
526.97	1317.29
527.33	1335.58
527.68	1353.93
528.04	1372.23
528.40	1390.69
528.76	1409.72
529.12	1428.28
529.48	1447.23
529.84	1465.09
530.20	1483.59
530.56	1502.57
530.91	1522.05
531.27	1540.90
531.63	1559.47
531.99	1578.14
532.35	1596.04
532.71	1614.00
533.07	1632.40
533.42	1650.28
533.78	1668.44
534.14	1687.05
534.50	1704.49
534.86	1722.45
535.21	1739.90
535.57	1758.12
535.93	1775.75
536.29	1792.64
536.65	1809.87
537.00	1826.79
537.36	1844.31
537.72	1861.07
538.08	1877.89
538.44	1893.85
538.79	1909.96
539.15	1925.82
539.51	1941.73
539.87	1958.44
540.22	1974.41
540.58	1990.52
540.94	2006.11
541.29	2021.35
541.65	2036.21
542.01	2051.72
542.37	2066.30
542.72	2080.97
543.08	2094.85
543.44	2109.74
543.79	2123.30
544.15	2136.54
544.51	2150.46
544.87	2163.87
545.22	2177.04
545.58	2189.41
545.94	2201.41
546.29	2213.39
546.65	2225.59
547.01	2237.17
547.36	2248.11
547.72	2258.63
548.07	2268.52
548.43	2278.80
548.79	2288.96
549.14	2298.52
549.50	2307.95
549.86	2317.67
550.21	2327.10
550.57	2336.43
550.92	2344.84
551.28	2354.00
551.64	2363.23
551.99	2371.60
552.35	2379.67
552.70	2387.85
553.06	2395.79
553.41	2404.07
553.77	2412.01
554.13	2419.96
554.48	2428.11
554.84	2435.59
555.19	2442.78
555.55	2449.86
555.90	2456.12
556.26	2462.81
556.61	2469.42
556.97	2475.65
557.32	2481.55
557.68	2487.40
558.03	2493.34
558.39	2498.80
558.74	2505.05
559.10	2510.47
559.45	2515.91
559.81	2521.99
560.16	2527.30
560.52	2531.98
560.87	2536.88
561.23	2540.99
561.58	2545.30
561.94	2549.16
562.29	2552.55
562.64	2556.76
563.00	2560.59
563.35	2565.44
563.71	2569.78
564.06	2574.32
564.42	2578.35
564.77	2582.29
565.12	2585.74
565.48	2588.89
565.83	2592.05
566.19	2594.58
566.54	2596.48
566.89	2598.60
567.25	2600.06
567.60	2602.46
567.96	2605.27
568.31	2607.14
568.66	2609.43
569.02	2610.93
569.37	2612.13
569.72	2614.28
570.08	2615.22
570.43	2616.14
570.78	2616.37
571.14	2615.45
571.49	2614.61
571.84	2614.96
572.20	2614.47
572.55	2614.00
572.90	2612.88
573.26	2611.82
573.61	2610.38
573.96	2609.10
574.31	2606.39
574.67	2603.60
575.02	2600.05
575.37	2596.93
575.72	2593.25
576.08	2589.86
576.43	2586.68
576.78	2583.07
577.13	2579.70
577.49	2576.62
577.84	2573.18
578.19	2569.55
578.54	2566.26
578.90	2562.16
579.25	2556.31
579.60	2550.96
579.95	2545.66
580.30	2540.43
580.66	2534.98
581.01	2529.84
581.36	2524.68
581.71	2520.38
582.06	2515.79
582.42	2510.90
582.77	2505.33
583.12	2500.48
583.47	2495.46
583.82	2490.13
584.17	2484.43
584.53	2478.70
584.88	2472.57
585.23	2466.22
585.58	2460.15
585.93	2453.92
586.28	2448.49
586.63	2442.91
586.98	2437.42
587.34	2432.37
587.69	2426.94
588.04	2421.34
588.39	2415.13
588.74	2407.90
589.09	2401.05
589.44	2393.44
589.79	2386.62
590.14	2380.32
590.49	2372.86
590.84	2365.72
591.19	2358.94
591.54	2351.66
591.89	2343.30
592.25	2335.78
592.60	2327.78
592.95	2319.21
593.30	2310.83
593.65	2302.31
594.00	2294.39
594.35	2286.07
594.70	2276.80
595.05	2268.73
595.40	2260.39
595.75	2251.81
596.10	2244.68
596.45	2236.90
596.80	2229.83
597.15	2222.47
597.50	2214.31
597.85	2206.83
598.19	2199.20
598.54	2190.92
598.89	2183.22
599.24	2176.50
599.59	2168.89
599.94	2161.68
600.29	2154.37
600.64	2146.85
600.99	2138.30
601.34	2130.42
601.69	2122.40
602.04	2114.56
602.39	2106.01
602.74	2097.96
603.08	2090.00
603.43	2082.07
603.78	2073.62
604.13	2065.30
604.48	2056.84
604.83	2048.80
605.18	2040.83
605.53	2031.53
605.87	2022.34
606.22	2013.96
606.57	2004.45
606.92	1995.59
607.27	1987.16
607.62	1979.05
607.96	1970.51
608.31	1962.71
608.66	1953.69
609.01	1944.85
609.36	1935.95
609.70	1926.42
610.05	1917.03
610.40	1907.97
610.75	1898.23
611.10	1889.25
611.44	1879.12
611.79	1869.76
612.14	1859.71
612.49	1848.91
612.83	1838.86
613.18	1829.20
613.53	1819.61
613.88	1809.54
614.22	1799.85
614.57	1789.61
614.92	1780.05
615.27	1771.19
615.61	1761.39
615.96	1751.90
616.31	1742.81
616.65	1734.06
617.00	1725.21
617.35	1716.15
617.70	1706.41
618.04	1696.36
618.39	1686.60
618.74	1677.66
619.08	1667.76
619.43	1658.64
619.78	1650.43
620.12	1642.07
620.47	1633.19
620.82	1623.54
621.16	1614.83
621.51	1605.75
621.85	1596.65
622.20	1586.76
622.55	1576.71
622.89	1567.34
623.24	1558.34
623.59	1549.57
623.93	1540.69
624.28	1532.05
624.62	1523.05
624.97	1514.54
625.32	1506.60
625.66	1498.25
626.01	1489.95
626.35	1481.24
626.70	1472.14
627.04	1463.04
627.39	1453.92
627.73	1445.18
628.08	1436.99
628.43	1428.48
628.77	1419.91
629.12	1411.15
629.46	1402.61
629.81	1393.83
630.15	1385.33
630.50	1376.57
630.84	1366.95
631.19	1357.53
631.53	1348.70
631.88	1339.86
632.22	1330.88
632.57	1322.12
632.91	1313.25
633.26	1304.44
633.60	1295.70
633.95	1287.15
634.29	1278.78
634.64	1270.74
634.98	1262.09
635.32	1253.59
635.67	1245.76
636.01	1237.91
636.36	1229.96
636.70	1222.28
637.05	1214.63
637.39	1207.02
637.73	1199.39
638.08	1192.44
638.42	1185.39
638.77	1177.87
639.11	1170.06
639.45	1162.61
639.80	1154.88
640.14	1147.33
640.49	1139.65
640.83	1132.22
641.17	1125.04
641.52	1117.66
641.86	1110.07
642.20	1103.32
642.55	1095.90
642.89	1088.36
643.23	1080.62
643.58	1073.81
643.92	1066.55
644.26	1059.49
644.61	1052.43
644.95	1045.39
645.29	1037.77
645.64	1029.82
645.98	1022.43
646.32	1015.62
646.66	1008.57
647.01	1001.84
647.35	995.19
647.69	988.35
648.04	981.92
648.38	975.09
648.72	968.12
649.06	961.24
649.41	954.25
649.75	947.41
650.09	940.41
650.43	933.70
650.78	926.47
651.12	919.56
651.46	912.91
651.80	906.24
652.14	899.95
652.49	893.69
652.83	887.84
653.17	881.24
653.51	874.57
653.85	868.24
654.20	861.68
654.54	854.71
654.88	848.05
655.22	841.11
655.56	834.46
655.90	828.17
656.25	821.99
656.59	815.79
656.93	809.91
657.27	803.94
657.61	797.61
657.95	791.73
658.29	785.83
658.64	779.72
658.98	773.59
659.32	767.24
659.66	761.16
660.00	754.85
660.34	749.07
660.68	743.42
661.02	737.56
661.36	732.12
661.70	726.88
662.05	721.82
662.39	716.90
662.73	711.78
663.07	706.68
663.41	701.53
663.75	696.29
664.09	690.98
664.43	685.87
664.77	681.15
665.11	676.17
665.45	671.39
665.79	666.60
666.13	661.80
666.47	657.13
666.81	652.41
667.15	647.70
667.49	643.19
667.83	638.73
668.17	634.28
668.51	629.51
668.85	624.83
669.19	620.39
669.53	615.95
669.87	611.46
670.21	607.19
670.55	602.95
670.89	599.02
671.23	595.05
671.57	591.02
671.91	586.98
672.25	582.92
672.58	578.81
672.92	574.89
673.26	571.17
673.60	567.49
673.94	563.84
674.28	560.45
674.62	557.05
674.96	553.43
675.30	550.03
675.64	546.69
675.97	543.49
676.31	540.13
676.65	536.73
676.99	533.60
677.33	530.27
677.67	527.05
678.01	523.52
678.34	520.12
678.68	516.76
679.02	513.49
679.36	510.31
679.70	507.17
680.04	503.99
680.37	500.80
680.71	497.53
681.05	494.50
681.39	491.38
681.73	488.28
682.06	485.42
682.40	482.48
682.74	479.56
683.08	476.59
683.42	473.62
683.75	470.73
684.09	467.71
684.43	464.83
684.77	461.90
685.10	459.16
685.44	456.44
685.78	453.79
686.12	451.10
686.45	448.45
686.79	445.78
687.13	443.20
687.46	440.54
687.80	438.05
688.14	435.41
688.48	433.05
688.81	430.45
689.15	427.93
689.49	425.38
689.82	422.93
690.16	420.49
690.50	418.20
690.83	415.96
691.17	413.65
691.51	411.44
691.84	409.33
692.18	407.10
692.52	404.77
692.85	402.48
693.19	400.31
693.52	398.16
693.86	396.03
694.20	393.95
694.53	391.90
694.87	389.75
695.21	387.70
695.54	385.49
695.88	383.46
696.21	381.47
696.55	379.48
696.88	377.48
697.22	375.54
697.56	373.60
697.89	371.66
698.23	369.85
698.56	367.96
698.90	366.11
699.23	364.21
699.57	362.43
699.90	360.63
700.24	358.85
700.58	357.07
700.91	355.35
701.25	353.64
701.58	352.07
701.92	350.48
702.25	348.91
702.59	347.34
702.92	345.82
703.26	344.29
703.59	342.84
703.93	341.46
704.26	340.03
704.60	338.55
704.93	337.04
705.26	335.57
705.60	334.19
705.93	332.81
706.27	331.60
706.60	330.34
706.94	329.07
707.27	327.74
707.61	326.48
707.94	325.25
708.27	323.99
708.61	322.71
708.94	321.46
709.28	320.27
709.61	319.14
709.94	318.00
710.28	316.77
710.61	315.59
710.95	314.37
711.28	313.28
711.61	312.19
711.95	311.14
712.28	310.06
712.61	308.96
712.95	307.88
713.28	306.83
713.61	305.77
713.95	304.77
714.28	303.82
714.61	302.84
714.95	301.90
715.28	300.95
715.61	299.92
715.95	298.97
716.28	297.96
716.61	297.00
716.95	296.07
717.28	295.24
717.61	294.32
717.94	293.48
718.28	292.57
718.61	291.72
718.94	290.90
719.27	290.15
719.61	289.39
719.94	288.66
720.27	287.83
720.60	287.10
720.94	286.36
721.27	285.66
721.60	284.98
721.93	284.26
722.27	283.58
722.60	282.94
722.93	282.29
723.26	281.69
723.59	281.02
723.93	280.37
724.26	279.71
724.59	279.12
724.92	278.48
725.25	277.86
725.59	277.24
725.92	276.66
726.25	276.05
726.58	275.48
726.91	274.89
727.24	274.39
727.57	273.83
727.91	273.23
728.24	272.67
728.57	272.07
728.90	271.54
729.23	270.99
729.56	270.52
729.89	269.96
730.22	269.39
730.55	268.86
730.89	268.35
731.22	267.86
731.55	267.33
731.88	266.84
732.21	266.35
732.54	265.87
732.87	265.37
733.20	264.87
733.53	264.40
733.86	263.91
734.19	263.41
734.52	262.97
734.85	262.59
735.18	262.12
735.51	261.70
735.84	261.28
736.17	260.85
736.50	260.40
736.83	260.14
737.16	259.74
737.49	259.32
737.82	258.93
738.15	258.47
738.48	258.07
738.81	257.66
739.14	257.28
739.47	256.89
739.80	256.52
740.13	256.18
740.46	255.78
740.79	255.39
741.12	255.02
741.45	254.63
741.78	254.22
742.11	253.90
742.44	253.54
742.77	253.19
743.10	252.83
743.43	252.44
743.75	251.96
744.08	251.77
744.41	251.46
744.74	251.19
745.07	250.90
745.40	250.62
745.73	250.36
746.06	250.02
746.39	249.74
746.71	249.42
747.04	249.09
747.37	248.83
747.70	248.57
748.03	248.27
748.36	248.04
748.68	247.76
749.01	247.45
749.34	247.20
749.67	246.88
750.00	246.62
750.33	246.42
750.65	246.18
750.98	245.81
751.31	245.57
751.64	245.27
751.97	245.09
752.29	244.83
752.62	244.54
752.95	244.29
753.28	244.03
753.60	243.81
753.93	243.60
754.26	243.31
754.59	243.07
754.91	242.84
755.24	242.56
755.57	242.32
755.90	242.14
756.22	241.91
756.55	241.70
756.88	241.52
757.20	241.23
757.53	241.03
757.86	240.79
758.19	240.60
758.51	240.40
758.84	240.15
759.17	239.98
759.49	239.81
759.82	239.67
760.15	239.49
760.47	239.33
760.80	239.14
761.13	239.03
761.45	238.82
761.78	238.67
762.11	238.53
762.43	238.39
762.76	238.21
763.08	238.05
763.41	237.89
763.74	237.71
764.06	237.57
764.39	237.41
764.71	237.28
765.04	237.13
765.37	236.98
765.69	236.83
766.02	236.67
766.34	236.51
766.67	236.34
767.00	236.24
767.32	236.14
767.65	236.07
767.97	235.91
768.30	235.78
768.62	235.66
768.95	235.49
769.27	235.32
769.60	235.21
769.92	235.07
770.25	234.94
770.57	234.79
770.90	234.66
771.22	234.52
771.55	234.39
771.87	234.29
772.20	234.15
772.52	234.14
772.85	234.14
773.17	234.06
773.50	233.94
773.82	233.80
774.15	233.61
774.47	233.45
774.80	233.33
775.12	233.26
775.45	233.14
775.77	233.07
776.09	233.02
776.42	232.92
776.74	232.86
777.07	232.79
777.39	232.70
777.72	232.62
778.04	232.54
778.36	232.47
778.69	232.38
779.01	232.34
779.33	232.18
779.66	232.01
779.98	231.93
780.31	231.86
780.63	231.82
780.95	231.80
781.28	231.72
781.60	231.67
781.92	231.59
782.25	231.50
782.57	231.43
782.89	231.32
783.22	231.25
783.54	231.18
783.86	231.10
784.19	231.07
784.51	231.06
784.83	231.01
785.16	230.94
785.48	230.89
785.80	230.83
786.12	230.75
786.45	230.66
