SpectraSuite Data File
++++++++++++++++++++++++++++++++++++
Date: Fri Feb 01 16:53:57 EST 2013
User: group
Dark Spectrum Present: No
Reference Spectrum Present: No
Number of Sampled Component Spectra: 1
Spectrometers: USB2E7196
Integration Time (usec): 35000 (USB2E7196)
Spectra Averaged: 100 (USB2E7196)
Boxcar Smoothing: 10 (USB2E7196)
Correct for Electrical Dark: No (USB2E7196)
Strobe/Lamp Enabled: No (USB2E7196)
Correct for Detector Non-linearity: No (USB2E7196)
Correct for Stray Light: No (USB2E7196)
Number of Pixels in Processed Spectrum: 2048
>>>>>Begin Processed Spectral Data<<<<<
339.09	0.00
339.48	213.71
339.86	214.79
340.24	216.26
340.63	217.52
341.01	220.81
341.39	220.38
341.78	221.79
342.16	222.71
342.54	223.15
342.93	211.80
343.31	222.50
343.69	223.00
344.07	223.46
344.46	223.87
344.84	224.23
345.22	224.45
345.60	224.71
345.99	224.88
346.37	225.01
346.75	225.09
347.13	225.15
347.52	225.20
347.90	225.27
348.28	225.28
348.66	225.33
349.05	225.31
349.43	225.32
349.81	225.39
350.19	225.43
350.57	225.48
350.96	225.51
351.34	225.57
351.72	225.67
352.10	225.76
352.48	225.81
352.87	225.87
353.25	225.91
353.63	225.96
354.01	226.01
354.39	226.07
354.77	226.16
355.15	226.25
355.54	226.29
355.92	226.29
356.30	226.37
356.68	226.50
357.06	226.59
357.44	226.66
357.82	226.71
358.20	226.78
358.58	226.83
358.97	226.93
359.35	227.02
359.73	227.09
360.11	227.15
360.49	227.23
360.87	227.30
361.25	227.37
361.63	227.44
362.01	227.49
362.39	227.53
362.77	227.58
363.15	227.58
363.53	227.61
363.91	227.70
364.29	227.71
364.67	227.62
365.05	227.65
365.43	227.66
365.81	227.65
366.19	227.69
366.57	227.74
366.95	227.72
367.33	227.68
367.71	227.66
368.09	227.65
368.47	227.62
368.85	227.58
369.23	227.59
369.61	227.52
369.99	227.52
370.37	227.49
370.75	227.48
371.13	227.45
371.51	227.40
371.89	227.34
372.27	227.31
372.65	227.26
373.03	227.23
373.41	227.16
373.78	227.14
374.16	227.04
374.54	226.95
374.92	226.89
375.30	226.86
375.68	226.81
376.06	226.75
376.44	226.69
376.82	226.64
377.19	226.56
377.57	226.53
377.95	226.47
378.33	226.40
378.71	226.29
379.09	226.28
379.47	226.24
379.84	226.16
380.22	226.08
380.60	226.03
380.98	225.95
381.36	225.89
381.73	225.83
382.11	225.78
382.49	225.73
382.87	225.67
383.25	225.58
383.62	225.64
384.00	225.58
384.38	225.54
384.76	225.51
385.13	225.48
385.51	225.41
385.89	225.33
386.27	225.30
386.64	225.29
387.02	225.20
387.40	225.18
387.78	225.15
388.15	225.16
388.53	225.11
388.91	225.07
389.29	225.05
389.66	225.02
390.04	224.98
390.42	224.98
390.79	224.97
391.17	225.00
391.55	224.90
391.92	224.88
392.30	224.88
392.68	224.88
393.05	224.87
393.43	224.87
393.81	224.88
394.18	224.85
394.56	224.84
394.94	224.90
395.31	224.88
395.69	224.90
396.06	224.92
396.44	224.97
396.82	224.99
397.19	225.07
397.57	225.10
397.95	225.16
398.32	225.17
398.70	225.19
399.07	225.24
399.45	225.27
399.82	225.37
400.20	225.39
400.58	225.44
400.95	225.47
401.33	225.53
401.70	225.68
402.08	225.79
402.45	225.87
402.83	225.96
403.20	226.06
403.58	226.15
403.95	226.26
404.33	226.36
404.71	226.46
405.08	226.59
405.46	226.71
405.83	226.85
406.21	226.98
406.58	227.16
406.96	227.31
407.33	227.47
407.70	227.62
408.08	227.89
408.45	228.06
408.83	228.30
409.20	228.52
409.58	228.68
409.95	228.92
410.33	229.20
410.70	229.47
411.08	229.78
411.45	230.08
411.82	230.37
412.20	230.75
412.57	231.21
412.95	231.53
413.32	231.92
413.69	232.35
414.07	232.80
414.44	233.27
414.82	233.73
415.19	234.28
415.56	234.84
415.94	235.40
416.31	236.04
416.68	236.71
417.06	237.45
417.43	238.12
417.81	238.89
418.18	239.69
418.55	240.48
418.93	241.35
419.30	242.26
419.67	243.15
420.04	244.11
420.42	245.07
420.79	246.24
421.16	247.38
421.54	248.57
421.91	249.78
422.28	251.03
422.66	252.37
423.03	253.71
423.40	255.04
423.77	256.44
424.15	257.91
424.52	259.38
424.89	261.00
425.26	262.59
425.64	264.07
426.01	265.61
426.38	267.25
426.75	268.93
427.13	270.65
427.50	272.48
427.87	274.32
428.24	276.20
428.61	277.94
428.99	279.88
429.36	281.95
429.73	283.99
430.10	285.98
430.47	288.03
430.85	290.12
431.22	292.35
431.59	294.74
431.96	296.95
432.33	299.41
432.70	301.75
433.08	304.54
433.45	307.15
433.82	309.73
434.19	312.62
434.56	315.41
434.93	318.05
435.30	320.67
435.68	323.56
436.05	326.34
436.42	329.11
436.79	331.60
437.16	334.28
437.53	337.12
437.90	339.91
438.27	342.63
438.64	345.42
439.01	347.98
439.38	350.16
439.75	352.30
440.13	354.68
440.50	356.99
440.87	358.84
441.24	360.76
441.61	362.92
441.98	364.38
442.35	366.17
442.72	368.02
443.09	369.81
443.46	370.78
443.83	371.32
444.20	371.80
444.57	372.67
444.94	372.94
445.31	373.26
445.68	373.59
446.05	373.67
446.42	373.28
446.79	372.86
447.16	372.42
447.53	372.16
447.90	371.10
448.27	369.97
448.64	368.41
449.01	367.24
449.37	365.29
449.74	363.43
450.11	361.18
450.48	358.74
450.85	356.19
451.22	354.05
451.59	352.11
451.96	350.22
452.33	347.60
452.70	345.24
453.07	342.47
453.43	339.59
453.80	336.83
454.17	334.17
454.54	331.64
454.91	328.91
455.28	326.25
455.65	323.74
456.02	321.33
456.38	319.13
456.75	316.53
457.12	314.26
457.49	312.03
457.86	309.90
458.23	308.05
458.59	306.04
458.96	303.98
459.33	302.12
459.70	300.28
460.07	298.80
460.43	297.11
460.80	295.48
461.17	294.08
461.54	292.59
461.91	291.19
462.27	289.73
462.64	288.51
463.01	287.16
463.38	285.92
463.74	284.52
464.11	283.41
464.48	282.38
464.85	281.33
465.21	280.50
465.58	279.55
465.95	278.47
466.32	277.57
466.68	276.68
467.05	275.77
467.42	274.88
467.78	273.96
468.15	273.11
468.52	272.45
468.88	271.62
469.25	270.86
469.62	270.27
469.98	269.61
470.35	269.03
470.72	268.43
471.08	267.81
471.45	267.25
471.82	266.68
472.18	266.13
472.55	265.70
472.92	265.19
473.28	264.75
473.65	264.30
474.02	263.84
474.38	263.50
474.75	263.20
475.11	262.88
475.48	262.63
475.85	262.40
476.21	262.18
476.58	262.02
476.94	261.87
477.31	261.73
477.67	261.60
478.04	261.45
478.41	261.40
478.77	261.44
479.14	261.40
479.50	261.47
479.87	261.56
480.23	261.64
480.60	261.73
480.96	261.84
481.33	262.06
481.69	262.29
482.06	262.49
482.42	262.71
482.79	262.97
483.15	263.29
483.52	263.67
483.88	264.05
484.25	264.44
484.61	264.88
484.98	265.32
485.34	265.87
485.71	266.51
486.07	267.10
486.44	267.66
486.80	268.37
487.17	269.13
487.53	269.90
487.90	270.73
488.26	271.64
488.62	272.63
488.99	273.59
489.35	274.66
489.72	275.77
490.08	276.94
490.44	278.19
490.81	279.51
491.17	280.89
491.54	282.35
491.90	283.86
492.26	285.54
492.63	287.28
492.99	289.05
493.36	290.92
493.72	292.98
494.08	295.05
494.45	297.29
494.81	299.59
495.17	302.01
495.54	304.63
495.90	307.31
496.26	310.11
496.63	313.08
496.99	316.17
497.35	319.46
497.72	322.84
498.08	326.29
498.44	329.94
498.80	333.84
499.17	337.88
499.53	342.03
499.89	346.37
500.26	350.84
500.62	355.48
500.98	360.39
501.34	365.39
501.71	370.71
502.07	376.10
502.43	381.73
502.79	387.52
503.16	393.53
503.52	399.82
503.88	406.18
504.24	412.76
504.60	419.60
504.97	426.63
505.33	433.94
505.69	441.67
506.05	449.44
506.41	457.24
506.78	465.31
507.14	473.70
507.50	482.31
507.86	491.25
508.22	500.45
508.59	509.61
508.95	519.20
509.31	528.94
509.67	539.02
510.03	549.15
510.39	559.66
510.75	570.35
511.12	581.12
511.48	592.34
511.84	603.66
512.20	615.08
512.56	626.98
512.92	639.04
513.28	651.27
513.64	663.62
514.00	676.20
514.37	688.96
514.73	701.88
515.09	714.75
515.45	727.81
515.81	741.18
516.17	754.94
516.53	768.91
516.89	782.91
517.25	796.79
517.61	811.09
517.97	825.39
518.33	839.63
518.69	854.28
519.05	868.97
519.41	883.89
519.77	899.19
520.13	914.35
520.49	929.59
520.85	944.78
521.21	960.20
521.57	976.17
521.93	991.83
522.29	1008.00
522.65	1024.00
523.01	1040.11
523.37	1055.94
523.73	1071.97
524.09	1087.76
524.45	1103.69
524.81	1120.16
525.17	1136.61
525.53	1153.20
525.89	1169.89
526.25	1186.36
526.61	1202.65
526.97	1219.25
527.33	1235.49
527.68	1251.82
528.04	1267.98
528.40	1284.14
528.76	1300.93
529.12	1317.28
529.48	1333.77
529.84	1349.45
530.20	1365.88
530.56	1382.48
530.91	1399.58
531.27	1416.12
531.63	1432.35
531.99	1448.71
532.35	1464.39
532.71	1480.09
533.07	1496.06
533.42	1511.77
533.78	1527.63
534.14	1543.46
534.50	1558.48
534.86	1574.07
535.21	1589.00
535.57	1604.59
535.93	1619.91
536.29	1634.44
536.65	1649.17
537.00	1663.79
537.36	1678.94
537.72	1693.23
538.08	1707.56
538.44	1721.04
538.79	1734.66
539.15	1748.04
539.51	1761.51
539.87	1775.66
540.22	1789.17
540.58	1802.61
540.94	1815.44
541.29	1828.03
541.65	1840.56
542.01	1853.56
542.37	1865.74
542.72	1878.01
543.08	1889.65
543.44	1901.87
543.79	1913.03
544.15	1923.76
544.51	1935.13
544.87	1945.94
545.22	1956.69
545.58	1966.63
545.94	1976.41
546.29	1986.17
546.65	1995.92
547.01	2005.17
547.36	2013.75
547.72	2022.05
548.07	2029.90
548.43	2037.90
548.79	2045.86
549.14	2053.41
549.50	2060.64
549.86	2068.10
550.21	2075.21
550.57	2082.32
550.92	2088.76
551.28	2095.76
551.64	2102.94
551.99	2109.44
552.35	2115.52
552.70	2121.47
553.06	2127.54
553.41	2133.68
553.77	2139.58
554.13	2145.53
554.48	2151.48
554.84	2157.14
555.19	2162.37
555.55	2167.48
555.90	2172.10
556.26	2177.01
556.61	2181.68
556.97	2186.18
557.32	2190.30
557.68	2194.59
558.03	2198.92
558.39	2202.62
558.74	2207.32
559.10	2211.08
559.45	2214.69
559.81	2218.93
560.16	2222.92
560.52	2226.26
560.87	2229.89
561.23	2232.58
561.58	2235.62
561.94	2238.33
562.29	2240.54
562.64	2243.55
563.00	2246.18
563.35	2249.79
563.71	2253.01
564.06	2256.27
564.42	2259.21
564.77	2261.96
565.12	2264.51
565.48	2266.54
565.83	2268.65
566.19	2270.15
566.54	2271.21
566.89	2272.50
567.25	2273.27
567.60	2274.73
567.96	2276.58
568.31	2277.39
568.66	2278.70
569.02	2279.40
569.37	2279.87
569.72	2280.90
570.08	2281.12
570.43	2281.27
570.78	2280.96
571.14	2279.61
571.49	2278.32
571.84	2277.99
572.20	2277.08
572.55	2275.95
572.90	2274.38
573.26	2273.15
573.61	2271.28
573.96	2269.91
574.31	2267.11
574.67	2264.35
575.02	2260.78
575.37	2257.34
575.72	2253.88
576.08	2250.57
576.43	2247.44
576.78	2243.94
577.13	2240.75
577.49	2237.63
577.84	2234.46
578.19	2230.72
578.54	2227.38
578.90	2223.51
579.25	2218.20
579.60	2213.31
579.95	2208.49
580.30	2203.73
580.66	2198.64
581.01	2194.01
581.36	2189.10
581.71	2185.12
582.06	2180.77
582.42	2176.70
582.77	2171.82
583.12	2167.31
583.47	2163.03
583.82	2158.17
584.17	2153.08
584.53	2147.86
584.88	2142.54
585.23	2137.03
585.58	2131.84
585.93	2126.44
586.28	2121.63
586.63	2116.74
586.98	2111.75
587.34	2107.12
587.69	2102.36
588.04	2097.37
588.39	2091.89
588.74	2085.47
589.09	2079.47
589.44	2072.91
589.79	2066.63
590.14	2061.02
590.49	2054.56
590.84	2048.09
591.19	2042.27
591.54	2036.10
591.89	2029.00
592.25	2022.40
592.60	2015.18
592.95	2007.81
593.30	2000.53
593.65	1993.20
594.00	1986.26
594.35	1979.27
594.70	1971.42
595.05	1964.48
595.40	1957.38
595.75	1950.05
596.10	1944.30
596.45	1937.77
596.80	1931.73
597.15	1925.38
597.50	1918.53
597.85	1912.19
598.19	1905.70
598.54	1898.84
598.89	1892.27
599.24	1886.49
599.59	1879.97
599.94	1873.88
600.29	1867.60
600.64	1861.23
600.99	1853.88
601.34	1847.20
601.69	1840.29
602.04	1833.69
602.39	1826.42
602.74	1819.71
603.08	1813.09
603.43	1806.24
603.78	1798.99
604.13	1791.88
604.48	1784.79
604.83	1777.89
605.18	1771.22
605.53	1763.35
605.87	1755.42
606.22	1748.26
606.57	1740.28
606.92	1732.93
607.27	1726.02
607.62	1719.22
607.96	1711.97
608.31	1705.62
608.66	1698.17
609.01	1690.97
609.36	1683.41
609.70	1675.51
610.05	1667.57
610.40	1659.89
610.75	1651.66
611.10	1644.07
611.44	1635.62
611.79	1627.70
612.14	1619.16
612.49	1610.04
612.83	1601.73
613.18	1593.56
613.53	1585.42
613.88	1577.01
614.22	1568.80
614.57	1560.04
614.92	1552.05
615.27	1544.60
615.61	1536.27
615.96	1528.22
616.31	1520.45
616.65	1513.13
617.00	1505.74
617.35	1498.01
617.70	1489.78
618.04	1481.33
618.39	1473.00
618.74	1465.62
619.08	1457.24
619.43	1449.70
619.78	1442.79
620.12	1435.75
620.47	1428.25
620.82	1420.09
621.16	1412.64
621.51	1405.07
621.85	1397.37
622.20	1388.77
622.55	1380.33
622.89	1372.41
623.24	1364.61
623.59	1357.13
623.93	1349.60
624.28	1342.22
624.62	1334.83
624.97	1327.61
625.32	1320.84
625.66	1313.87
626.01	1306.63
626.35	1299.41
626.70	1291.64
627.04	1283.98
627.39	1276.10
627.73	1268.68
628.08	1261.83
628.43	1254.69
628.77	1247.40
629.12	1240.04
629.46	1232.96
629.81	1225.54
630.15	1218.34
630.50	1211.13
630.84	1203.05
631.19	1195.12
631.53	1187.53
631.88	1179.89
632.22	1172.27
632.57	1164.89
632.91	1157.44
633.26	1150.13
633.60	1142.57
633.95	1135.45
634.29	1128.29
634.64	1121.59
634.98	1114.32
635.32	1107.26
635.67	1100.49
636.01	1093.78
636.36	1086.96
636.70	1080.48
637.05	1073.92
637.39	1067.46
637.73	1060.99
638.08	1055.08
638.42	1049.10
638.77	1042.75
639.11	1036.24
639.45	1029.83
639.80	1023.30
640.14	1016.90
640.49	1010.30
640.83	1004.09
641.17	997.98
641.52	991.70
641.86	985.15
642.20	979.38
642.55	972.97
642.89	966.69
643.23	960.13
643.58	954.39
643.92	948.15
644.26	942.22
644.61	936.06
644.95	930.08
645.29	923.52
645.64	916.85
645.98	910.53
646.32	904.57
646.66	898.62
647.01	892.82
647.35	887.16
647.69	881.41
648.04	875.87
648.38	870.03
648.72	864.09
649.06	858.19
649.41	852.23
649.75	846.33
650.09	840.38
650.43	834.66
650.78	828.52
651.12	822.58
651.46	816.84
651.80	811.32
652.14	805.85
652.49	800.50
652.83	795.30
653.17	789.66
653.51	784.04
653.85	778.63
654.20	773.08
654.54	767.07
654.88	761.24
655.22	755.30
655.56	749.57
655.90	744.11
656.25	738.87
656.59	733.50
656.93	728.45
657.27	723.24
657.61	717.79
657.95	712.75
658.29	707.72
658.64	702.46
658.98	697.10
659.32	691.68
659.66	686.49
660.00	681.22
660.34	676.27
660.68	671.42
661.02	666.44
661.36	661.71
661.70	657.19
662.05	652.81
662.39	648.61
662.73	644.19
663.07	639.82
663.41	635.44
663.75	630.95
664.09	626.37
664.43	622.01
664.77	617.92
665.11	613.64
665.45	609.46
665.79	605.39
666.13	601.28
666.47	597.14
666.81	592.97
667.15	588.87
667.49	585.04
667.83	581.12
668.17	577.22
668.51	573.16
668.85	569.17
669.19	565.34
669.53	561.51
669.87	557.68
670.21	554.04
670.55	550.37
670.89	546.97
671.23	543.50
671.57	539.95
671.91	536.43
672.25	532.94
672.58	529.48
672.92	526.06
673.26	522.84
673.60	519.76
673.94	516.64
674.28	513.67
674.62	510.66
674.96	507.60
675.30	504.67
675.64	501.75
675.97	498.96
676.31	496.15
676.65	493.20
676.99	490.49
677.33	487.62
677.67	484.79
678.01	481.84
678.34	478.95
678.68	476.12
679.02	473.28
679.36	470.51
679.70	467.80
680.04	465.13
680.37	462.37
680.71	459.56
681.05	456.97
681.39	454.29
681.73	451.67
682.06	449.15
682.40	446.62
682.74	444.09
683.08	441.57
683.42	438.95
683.75	436.45
684.09	433.89
684.43	431.36
684.77	428.94
685.10	426.54
685.44	424.18
685.78	421.87
686.12	419.63
686.45	417.31
686.79	414.99
687.13	412.75
687.46	410.55
687.80	408.39
688.14	406.19
688.48	404.11
688.81	401.83
689.15	399.69
689.49	397.51
689.82	395.43
690.16	393.26
690.50	391.27
690.83	389.33
691.17	387.35
691.51	385.49
691.84	383.61
692.18	381.67
692.52	379.72
692.85	377.78
693.19	375.93
693.52	374.15
693.86	372.29
694.20	370.52
694.53	368.69
694.87	366.86
695.21	364.99
695.54	363.15
695.88	361.38
696.21	359.62
696.55	357.94
696.88	356.20
697.22	354.58
697.56	352.97
697.89	351.33
698.23	349.69
698.56	348.05
698.90	346.49
699.23	344.85
699.57	343.32
699.90	341.76
700.24	340.14
700.58	338.60
700.91	337.09
701.25	335.59
701.58	334.26
701.92	332.86
702.25	331.55
702.59	330.21
702.92	328.91
703.26	327.58
703.59	326.31
703.93	325.13
704.26	323.90
704.60	322.60
704.93	321.31
705.26	320.05
705.60	318.87
705.93	317.63
706.27	316.60
706.60	315.54
706.94	314.49
707.27	313.39
707.61	312.29
707.94	311.31
708.27	310.26
708.61	309.14
708.94	308.10
709.28	307.10
709.61	306.14
709.94	305.19
710.28	304.20
710.61	303.20
710.95	302.13
711.28	301.17
711.61	300.22
711.95	299.36
712.28	298.46
712.61	297.47
712.95	296.58
713.28	295.68
713.61	294.77
713.95	293.85
714.28	293.00
714.61	292.15
714.95	291.27
715.28	290.41
715.61	289.48
715.95	288.63
716.28	287.74
716.61	286.90
716.95	286.07
717.28	285.30
717.61	284.56
717.94	283.85
718.28	283.05
718.61	282.36
718.94	281.64
719.27	280.97
719.61	280.28
719.94	279.63
720.27	278.91
720.60	278.21
720.94	277.62
721.27	277.02
721.60	276.44
721.93	275.83
722.27	275.26
722.60	274.75
722.93	274.21
723.26	273.69
723.59	273.14
723.93	272.60
724.26	272.06
724.59	271.48
724.92	270.94
725.25	270.45
725.59	269.91
725.92	269.36
726.25	268.83
726.58	268.42
726.91	267.90
727.24	267.44
727.57	266.97
727.91	266.41
728.24	265.95
728.57	265.48
728.90	265.03
729.23	264.55
729.56	264.13
729.89	263.65
730.22	263.17
730.55	262.71
730.89	262.27
731.22	261.84
731.55	261.39
731.88	260.95
732.21	260.50
732.54	260.06
732.87	259.65
733.20	259.29
733.53	258.85
733.86	258.47
734.19	258.09
734.52	257.72
734.85	257.45
735.18	257.06
735.51	256.68
735.84	256.32
736.17	255.97
736.50	255.55
736.83	255.31
737.16	255.01
737.49	254.67
737.82	254.31
738.15	253.96
738.48	253.62
738.81	253.32
739.14	252.99
739.47	252.67
739.80	252.36
740.13	252.04
740.46	251.71
740.79	251.43
741.12	251.10
741.45	250.80
741.78	250.44
742.11	250.15
742.44	249.87
742.77	249.61
743.10	249.31
743.43	249.04
743.75	248.66
744.08	248.49
744.41	248.21
744.74	247.95
745.07	247.67
745.40	247.45
745.73	247.18
746.06	246.94
746.39	246.64
746.71	246.37
747.04	246.07
747.37	245.80
747.70	245.53
748.03	245.26
748.36	245.03
748.68	244.81
749.01	244.53
749.34	244.26
749.67	243.98
750.00	243.75
750.33	243.61
750.65	243.41
750.98	243.09
751.31	242.88
751.64	242.67
751.97	242.53
752.29	242.28
752.62	242.03
752.95	241.86
753.28	241.66
753.60	241.47
753.93	241.30
754.26	241.13
754.59	240.93
754.91	240.74
755.24	240.55
755.57	240.36
755.90	240.19
756.22	240.02
756.55	239.83
756.88	239.64
757.20	239.40
757.53	239.20
757.86	239.00
758.19	238.84
758.51	238.67
758.84	238.44
759.17	238.27
759.49	238.15
759.82	237.98
760.15	237.83
760.47	237.69
760.80	237.52
761.13	237.39
761.45	237.19
761.78	237.04
762.11	236.87
762.43	236.69
762.76	236.56
763.08	236.40
763.41	236.30
763.74	236.19
764.06	236.03
764.39	235.90
764.71	235.76
765.04	235.65
765.37	235.54
765.69	235.39
766.02	235.26
766.34	235.14
766.67	235.01
767.00	234.91
767.32	234.89
767.65	234.86
767.97	234.77
768.30	234.70
768.62	234.59
768.95	234.49
769.27	234.43
769.60	234.31
769.92	234.19
770.25	234.06
770.57	233.92
770.90	233.83
771.22	233.71
771.55	233.63
771.87	233.52
772.20	233.43
772.52	233.46
772.85	233.50
773.17	233.43
773.50	233.33
773.82	233.25
774.15	233.07
774.47	232.91
774.80	232.79
775.12	232.72
775.45	232.62
775.77	232.54
776.09	232.46
776.42	232.41
776.74	232.38
777.07	232.29
777.39	232.25
777.72	232.17
778.04	232.10
778.36	232.04
778.69	231.99
779.01	231.88
779.33	231.73
779.66	231.57
779.98	231.49
780.31	231.42
780.63	231.39
780.95	231.34
781.28	231.28
781.60	231.23
781.92	231.11
782.25	231.10
782.57	231.05
782.89	230.96
783.22	230.88
783.54	230.81
783.86	230.78
784.19	230.70
784.51	230.67
784.83	230.62
785.16	230.53
785.48	230.44
785.80	230.44
786.12	230.38
786.45	230.30
786.77	230.27
787.09	230.22
