SpectraSuite Data File
++++++++++++++++++++++++++++++++++++
Date: Fri Feb 01 16:04:01 EST 2013
User: group
Dark Spectrum Present: No
Reference Spectrum Present: No
Number of Sampled Component Spectra: 1
Spectrometers: USB2E7196
Integration Time (usec): 35000 (USB2E7196)
Spectra Averaged: 100 (USB2E7196)
Boxcar Smoothing: 10 (USB2E7196)
Correct for Electrical Dark: No (USB2E7196)
Strobe/Lamp Enabled: No (USB2E7196)
Correct for Detector Non-linearity: No (USB2E7196)
Correct for Stray Light: No (USB2E7196)
Number of Pixels in Processed Spectrum: 2048
>>>>>Begin Processed Spectral Data<<<<<
339.09	0.00
339.48	214.82
339.86	216.24
340.24	217.82
340.63	218.70
341.01	222.19
341.39	222.07
341.78	222.78
342.16	224.42
342.54	224.58
342.93	213.28
343.31	224.03
343.69	224.58
344.07	225.04
344.46	225.45
344.84	225.85
345.22	226.08
345.60	226.32
345.99	226.52
346.37	226.67
346.75	226.80
347.13	226.85
347.52	226.89
347.90	226.99
348.28	227.02
348.66	227.05
349.05	227.05
349.43	227.07
349.81	227.07
350.19	227.13
350.57	227.16
350.96	227.25
351.34	227.38
351.72	227.45
352.10	227.58
352.48	227.67
352.87	227.71
353.25	227.77
353.63	227.86
354.01	227.95
354.39	227.99
354.77	228.04
355.15	228.17
355.54	228.23
355.92	228.25
356.30	228.32
356.68	228.46
357.06	228.51
357.44	228.56
357.82	228.64
358.20	228.67
358.58	228.72
358.97	228.79
359.35	228.83
359.73	228.93
360.11	228.96
360.49	229.01
360.87	229.05
361.25	229.09
361.63	229.11
362.01	229.14
362.39	229.18
362.77	229.24
363.15	229.21
363.53	229.22
363.91	229.24
364.29	229.23
364.67	229.16
365.05	229.18
365.43	229.21
365.81	229.21
366.19	229.28
366.57	229.33
366.95	229.30
367.33	229.27
367.71	229.24
368.09	229.24
368.47	229.20
368.85	229.19
369.23	229.20
369.61	229.15
369.99	229.17
370.37	229.13
370.75	229.11
371.13	229.04
371.51	228.99
371.89	228.94
372.27	228.94
372.65	228.88
373.03	228.82
373.41	228.72
373.78	228.69
374.16	228.56
374.54	228.44
374.92	228.33
375.30	228.30
375.68	228.22
376.06	228.15
376.44	228.09
376.82	228.04
377.19	227.95
377.57	227.86
377.95	227.74
378.33	227.63
378.71	227.50
379.09	227.46
379.47	227.42
379.84	227.37
380.22	227.30
380.60	227.22
380.98	227.17
381.36	227.12
381.73	227.05
382.11	227.00
382.49	226.98
382.87	226.96
383.25	226.89
383.62	226.94
384.00	226.87
384.38	226.80
384.76	226.75
385.13	226.76
385.51	226.73
385.89	226.64
386.27	226.64
386.64	226.65
387.02	226.61
387.40	226.55
387.78	226.51
388.15	226.47
388.53	226.45
388.91	226.42
389.29	226.39
389.66	226.34
390.04	226.29
390.42	226.28
390.79	226.24
391.17	226.23
391.55	226.08
391.92	226.06
392.30	226.08
392.68	226.07
393.05	226.07
393.43	226.11
393.81	226.14
394.18	226.17
394.56	226.17
394.94	226.21
395.31	226.25
395.69	226.31
396.06	226.34
396.44	226.40
396.82	226.44
397.19	226.53
397.57	226.58
397.95	226.68
398.32	226.69
398.70	226.78
399.07	226.87
399.45	226.98
399.82	227.07
400.20	227.12
400.58	227.18
400.95	227.20
401.33	227.26
401.70	227.40
402.08	227.47
402.45	227.54
402.83	227.63
403.20	227.74
403.58	227.83
403.95	227.95
404.33	228.08
404.71	228.22
405.08	228.39
405.46	228.55
405.83	228.66
406.21	228.85
406.58	229.02
406.96	229.17
407.33	229.33
407.70	229.51
408.08	229.76
408.45	229.99
408.83	230.25
409.20	230.47
409.58	230.65
409.95	230.90
410.33	231.19
410.70	231.47
411.08	231.71
411.45	232.04
411.82	232.35
412.20	232.68
412.57	233.04
412.95	233.32
413.32	233.73
413.69	234.13
414.07	234.54
414.44	234.97
414.82	235.45
415.19	236.00
415.56	236.53
415.94	237.09
416.31	237.74
416.68	238.37
417.06	239.10
417.43	239.79
417.81	240.57
418.18	241.36
418.55	242.19
418.93	243.09
419.30	243.92
419.67	244.85
420.04	245.82
420.42	246.86
420.79	248.07
421.16	249.15
421.54	250.36
421.91	251.55
422.28	252.83
422.66	254.16
423.03	255.47
423.40	256.81
423.77	258.20
424.15	259.61
424.52	261.08
424.89	262.66
425.26	264.21
425.64	265.65
426.01	267.25
426.38	268.90
426.75	270.54
427.13	272.27
427.50	274.07
427.87	275.94
428.24	277.79
428.61	279.55
428.99	281.54
429.36	283.64
429.73	285.72
430.10	287.71
430.47	289.76
430.85	291.86
431.22	294.11
431.59	296.51
431.96	298.75
432.33	301.27
432.70	303.67
433.08	306.46
433.45	309.09
433.82	311.71
434.19	314.61
434.56	317.44
434.93	320.14
435.30	322.77
435.68	325.64
436.05	328.44
436.42	331.23
436.79	333.77
437.16	336.47
437.53	339.29
437.90	342.08
438.27	344.83
438.64	347.64
439.01	350.22
439.38	352.42
439.75	354.58
440.13	357.02
440.50	359.35
440.87	361.25
441.24	363.16
441.61	365.25
441.98	366.72
442.35	368.51
442.72	370.34
443.09	372.15
443.46	373.15
443.83	373.72
444.20	374.21
444.57	375.00
444.94	375.29
445.31	375.63
445.68	375.97
446.05	376.04
446.42	375.65
446.79	375.22
447.16	374.79
447.53	374.44
447.90	373.28
448.27	372.07
448.64	370.44
449.01	369.34
449.37	367.38
449.74	365.49
450.11	363.24
450.48	360.77
450.85	358.24
451.22	356.06
451.59	354.03
451.96	352.06
452.33	349.50
452.70	347.11
453.07	344.27
453.43	341.38
453.80	338.59
454.17	335.92
454.54	333.35
454.91	330.67
455.28	327.99
455.65	325.49
456.02	323.07
456.38	320.93
456.75	318.25
457.12	316.07
457.49	313.84
457.86	311.66
458.23	309.80
458.59	307.79
458.96	305.74
459.33	303.94
459.70	302.06
460.07	300.53
460.43	298.83
460.80	297.23
461.17	295.79
461.54	294.33
461.91	292.88
462.27	291.46
462.64	290.22
463.01	288.89
463.38	287.62
463.74	286.22
464.11	285.06
464.48	284.03
464.85	282.90
465.21	282.05
465.58	281.13
465.95	280.04
466.32	279.09
466.68	278.18
467.05	277.28
467.42	276.44
467.78	275.53
468.15	274.66
468.52	273.99
468.88	273.16
469.25	272.38
469.62	271.80
469.98	271.17
470.35	270.52
470.72	269.90
471.08	269.23
471.45	268.73
471.82	268.14
472.18	267.55
472.55	267.11
472.92	266.60
473.28	266.19
473.65	265.72
474.02	265.33
474.38	264.98
474.75	264.64
475.11	264.27
475.48	264.01
475.85	263.76
476.21	263.54
476.58	263.34
476.94	263.21
477.31	263.03
477.67	262.84
478.04	262.74
478.41	262.70
478.77	262.79
479.14	262.74
479.50	262.80
479.87	262.89
480.23	262.97
480.60	263.03
480.96	263.09
481.33	263.38
481.69	263.60
482.06	263.80
482.42	264.02
482.79	264.29
483.15	264.66
483.52	265.04
483.88	265.39
484.25	265.81
484.61	266.24
484.98	266.71
485.34	267.30
485.71	267.90
486.07	268.51
486.44	269.09
486.80	269.81
487.17	270.56
487.53	271.36
487.90	272.23
488.26	273.18
488.62	274.16
488.99	275.08
489.35	276.07
489.72	277.18
490.08	278.38
490.44	279.62
490.81	280.90
491.17	282.26
491.54	283.76
491.90	285.28
492.26	286.96
492.63	288.69
492.99	290.47
493.36	292.34
493.72	294.39
494.08	296.48
494.45	298.74
494.81	301.09
495.17	303.55
495.54	306.09
495.90	308.78
496.26	311.58
496.63	314.57
496.99	317.69
497.35	320.99
497.72	324.40
498.08	327.94
498.44	331.62
498.80	335.58
499.17	339.59
499.53	343.79
499.89	348.13
500.26	352.62
500.62	357.28
500.98	362.22
501.34	367.29
501.71	372.59
502.07	378.01
502.43	383.63
502.79	389.42
503.16	395.50
503.52	401.72
503.88	408.18
504.24	414.79
504.60	421.70
504.97	428.80
505.33	436.10
505.69	443.77
506.05	451.59
506.41	459.45
506.78	467.67
507.14	476.11
507.50	484.84
507.86	493.85
508.22	503.09
508.59	512.35
508.95	521.97
509.31	531.79
509.67	541.92
510.03	552.24
510.39	562.83
510.75	573.60
511.12	584.58
511.48	595.86
511.84	607.31
512.20	618.88
512.56	630.80
512.92	643.07
513.28	655.44
513.64	667.84
514.00	680.56
514.37	693.53
514.73	706.61
515.09	719.65
515.45	732.93
515.81	746.50
516.17	760.48
516.53	774.56
516.89	788.72
517.25	802.86
517.61	817.31
517.97	831.77
518.33	846.27
518.69	861.08
519.05	876.03
519.41	891.17
519.77	906.70
520.13	922.20
520.49	937.51
520.85	952.88
521.21	968.64
521.57	984.82
521.93	1000.57
522.29	1017.00
522.65	1033.22
523.01	1049.40
523.37	1065.41
523.73	1081.62
524.09	1097.65
524.45	1114.01
524.81	1130.67
525.17	1147.47
525.53	1164.36
525.89	1181.22
526.25	1197.98
526.61	1214.39
526.97	1231.07
527.33	1247.44
527.68	1264.05
528.04	1280.56
528.40	1297.15
528.76	1314.18
529.12	1330.77
529.48	1347.55
529.84	1363.53
530.20	1380.19
530.56	1397.20
530.91	1414.59
531.27	1431.19
531.63	1447.69
531.99	1464.20
532.35	1480.10
532.71	1495.91
533.07	1512.07
533.42	1527.89
533.78	1543.88
534.14	1560.07
534.50	1575.47
534.86	1591.25
535.21	1606.20
535.57	1622.06
535.93	1637.42
536.29	1652.05
536.65	1666.98
537.00	1681.68
537.36	1696.87
537.72	1711.32
538.08	1725.75
538.44	1739.41
538.79	1753.25
539.15	1766.87
539.51	1780.62
539.87	1794.85
540.22	1808.43
540.58	1822.15
540.94	1835.48
541.29	1848.42
541.65	1861.15
542.01	1874.22
542.37	1886.56
542.72	1899.00
543.08	1910.72
543.44	1923.18
543.79	1934.43
544.15	1945.44
544.51	1957.11
544.87	1967.97
545.22	1978.70
545.58	1988.82
545.94	1998.63
546.29	2008.59
546.65	2018.40
547.01	2027.52
547.36	2036.25
547.72	2044.78
548.07	2052.68
548.43	2060.75
548.79	2068.64
549.14	2076.09
549.50	2083.27
549.86	2090.89
550.21	2098.21
550.57	2105.38
550.92	2111.84
551.28	2118.81
551.64	2125.92
551.99	2132.25
552.35	2138.37
552.70	2144.55
553.06	2150.61
553.41	2156.91
553.77	2162.85
554.13	2168.90
554.48	2175.04
554.84	2180.46
555.19	2185.65
555.55	2190.63
555.90	2195.20
556.26	2199.95
556.61	2204.59
556.97	2209.06
557.32	2213.16
557.68	2217.34
558.03	2221.62
558.39	2225.45
558.74	2230.26
559.10	2234.04
559.45	2237.84
559.81	2242.34
560.16	2246.20
560.52	2249.39
560.87	2252.70
561.23	2255.36
561.58	2258.37
561.94	2260.95
562.29	2263.41
562.64	2266.03
563.00	2268.73
563.35	2272.26
563.71	2275.59
564.06	2278.92
564.42	2281.80
564.77	2284.37
565.12	2286.78
565.48	2288.67
565.83	2290.37
566.19	2291.62
566.54	2292.59
566.89	2293.76
567.25	2294.23
567.60	2295.53
567.96	2297.22
568.31	2298.23
568.66	2299.31
569.02	2299.78
569.37	2300.14
569.72	2301.05
570.08	2301.33
570.43	2301.42
570.78	2300.81
571.14	2299.20
571.49	2297.94
571.84	2297.66
572.20	2296.62
572.55	2295.55
572.90	2294.11
573.26	2292.94
573.61	2291.25
573.96	2289.55
574.31	2286.54
574.67	2283.50
575.02	2279.92
575.37	2276.44
575.72	2272.67
576.08	2269.45
576.43	2266.25
576.78	2262.47
577.13	2259.29
577.49	2256.30
577.84	2252.76
578.19	2249.05
578.54	2245.58
578.90	2241.28
579.25	2235.72
579.60	2230.68
579.95	2225.53
580.30	2220.38
580.66	2215.08
581.01	2210.23
581.36	2205.24
581.71	2201.11
582.06	2196.76
582.42	2192.31
582.77	2187.19
583.12	2182.59
583.47	2177.82
583.82	2172.80
584.17	2167.73
584.53	2162.16
584.88	2156.46
585.23	2150.72
585.58	2145.30
585.93	2139.79
586.28	2134.98
586.63	2129.81
586.98	2124.82
587.34	2120.19
587.69	2115.46
588.04	2110.16
588.39	2104.54
588.74	2098.18
589.09	2091.90
589.44	2085.12
589.79	2079.12
590.14	2073.47
590.49	2066.94
590.84	2060.67
591.19	2054.67
591.54	2048.19
591.89	2040.84
592.25	2034.08
592.60	2026.80
592.95	2019.11
593.30	2011.74
593.65	2004.19
594.00	1997.28
594.35	1990.02
594.70	1981.97
595.05	1974.75
595.40	1967.66
595.75	1959.97
596.10	1953.63
596.45	1946.99
596.80	1940.92
597.15	1934.29
597.50	1927.19
597.85	1920.88
598.19	1914.16
598.54	1906.94
598.89	1900.21
599.24	1894.37
599.59	1887.73
599.94	1881.63
600.29	1875.42
600.64	1868.90
600.99	1861.51
601.34	1854.75
601.69	1847.81
602.04	1840.96
602.39	1833.65
602.74	1826.71
603.08	1820.10
603.43	1813.45
603.78	1806.11
604.13	1798.91
604.48	1791.39
604.83	1784.59
605.18	1777.53
605.53	1769.41
605.87	1761.47
606.22	1754.32
606.57	1746.35
606.92	1738.91
607.27	1731.60
607.62	1724.60
607.96	1717.21
608.31	1710.61
608.66	1702.86
609.01	1695.28
609.36	1687.74
609.70	1679.61
610.05	1671.61
610.40	1663.99
610.75	1655.67
611.10	1648.04
611.44	1639.46
611.79	1631.65
612.14	1622.89
612.49	1613.63
612.83	1605.38
613.18	1597.32
613.53	1589.26
613.88	1580.69
614.22	1572.46
614.57	1563.97
614.92	1556.02
615.27	1548.46
615.61	1540.08
615.96	1532.11
616.31	1524.58
616.65	1517.17
617.00	1509.60
617.35	1502.02
617.70	1493.56
618.04	1485.10
618.39	1476.85
618.74	1469.23
619.08	1460.90
619.43	1453.32
619.78	1446.54
620.12	1439.36
620.47	1431.83
620.82	1423.69
621.16	1416.28
621.51	1408.67
621.85	1401.07
622.20	1392.39
622.55	1384.15
622.89	1376.23
623.24	1368.59
623.59	1361.10
623.93	1353.65
624.28	1346.47
624.62	1338.93
624.97	1331.79
625.32	1325.02
625.66	1317.98
626.01	1310.97
626.35	1303.64
626.70	1295.95
627.04	1288.17
627.39	1280.26
627.73	1272.87
628.08	1265.94
628.43	1258.64
628.77	1251.24
629.12	1243.67
629.46	1236.61
629.81	1229.11
630.15	1221.93
630.50	1214.45
630.84	1206.25
631.19	1198.30
631.53	1190.71
631.88	1183.06
632.22	1175.47
632.57	1168.07
632.91	1160.57
633.26	1152.97
633.60	1145.64
633.95	1138.56
634.29	1131.52
634.64	1125.01
634.98	1117.60
635.32	1110.37
635.67	1103.78
636.01	1097.22
636.36	1090.38
636.70	1083.81
637.05	1077.29
637.39	1070.83
637.73	1064.41
638.08	1058.56
638.42	1052.56
638.77	1046.14
639.11	1039.61
639.45	1033.18
639.80	1026.52
640.14	1020.09
640.49	1013.63
640.83	1007.17
641.17	1000.92
641.52	994.43
641.86	987.87
642.20	982.01
642.55	975.78
642.89	969.20
643.23	962.59
643.58	956.84
643.92	950.68
644.26	944.57
644.61	938.55
644.95	932.48
645.29	925.89
645.64	919.11
645.98	912.77
646.32	906.85
646.66	900.76
647.01	894.98
647.35	889.22
647.69	883.44
648.04	877.90
648.38	872.05
648.72	866.09
649.06	860.07
649.41	854.28
649.75	848.25
650.09	842.37
650.43	836.58
650.78	830.49
651.12	824.52
651.46	818.83
651.80	813.15
652.14	807.79
652.49	802.45
652.83	797.28
653.17	791.61
653.51	785.93
653.85	780.63
654.20	774.98
654.54	769.04
654.88	763.22
655.22	757.34
655.56	751.68
655.90	746.32
656.25	741.03
656.59	735.61
656.93	730.48
657.27	725.36
657.61	719.98
657.95	714.79
658.29	709.73
658.64	704.43
658.98	699.06
659.32	693.52
659.66	688.31
660.00	683.01
660.34	678.07
660.68	673.15
661.02	668.07
661.36	663.39
661.70	658.91
662.05	654.56
662.39	650.25
662.73	645.78
663.07	641.39
663.41	636.92
663.75	632.37
664.09	627.83
664.43	623.42
664.77	619.29
665.11	615.07
665.45	610.94
665.79	606.84
666.13	602.71
666.47	598.69
666.81	594.47
667.15	590.38
667.49	586.49
667.83	582.65
668.17	578.76
668.51	574.70
668.85	570.66
669.19	566.86
669.53	563.05
669.87	559.24
670.21	555.52
670.55	551.95
670.89	548.57
671.23	545.16
671.57	541.65
671.91	538.11
672.25	534.61
672.58	531.06
672.92	527.72
673.26	524.59
673.60	521.43
673.94	518.35
674.28	515.45
674.62	512.46
674.96	509.37
675.30	506.49
675.64	503.54
675.97	500.76
676.31	497.86
676.65	494.86
676.99	492.12
677.33	489.29
677.67	486.43
678.01	483.40
678.34	480.49
678.68	477.63
679.02	474.75
679.36	471.97
679.70	469.22
680.04	466.43
680.37	463.52
680.71	460.72
681.05	458.04
681.39	455.25
681.73	452.57
682.06	450.07
682.40	447.46
682.74	444.90
683.08	442.31
683.42	439.76
683.75	437.36
684.09	434.75
684.43	432.23
684.77	429.78
685.10	427.40
685.44	425.01
685.78	422.73
686.12	420.52
686.45	418.26
686.79	415.93
687.13	413.72
687.46	411.55
687.80	409.37
688.14	407.20
688.48	405.14
688.81	402.84
689.15	400.65
689.49	398.54
689.82	396.51
690.16	394.42
690.50	392.41
690.83	390.39
691.17	388.41
691.51	386.50
691.84	384.67
692.18	382.76
692.52	380.77
692.85	378.80
693.19	376.90
693.52	375.05
693.86	373.25
694.20	371.45
694.53	369.64
694.87	367.82
695.21	365.98
695.54	364.19
695.88	362.55
696.21	360.77
696.55	359.06
696.88	357.37
697.22	355.72
697.56	354.10
697.89	352.41
698.23	350.80
698.56	349.21
698.90	347.66
699.23	346.04
699.57	344.48
699.90	342.90
700.24	341.36
700.58	339.81
700.91	338.34
701.25	336.89
701.58	335.52
701.92	334.18
702.25	332.83
702.59	331.46
702.92	330.09
703.26	328.84
703.59	327.56
703.93	326.36
704.26	325.12
704.60	323.87
704.93	322.61
705.26	321.41
705.60	320.19
705.93	318.97
706.27	317.87
706.60	316.86
706.94	315.82
707.27	314.70
707.61	313.64
707.94	312.62
708.27	311.52
708.61	310.47
708.94	309.45
709.28	308.50
709.61	307.57
709.94	306.67
710.28	305.62
710.61	304.69
710.95	303.62
711.28	302.73
711.61	301.77
711.95	300.90
712.28	299.95
712.61	299.01
712.95	298.10
713.28	297.23
713.61	296.33
713.95	295.47
714.28	294.61
714.61	293.77
714.95	292.95
715.28	292.14
715.61	291.26
715.95	290.39
716.28	289.54
716.61	288.66
716.95	287.83
717.28	287.15
717.61	286.33
717.94	285.62
718.28	284.79
718.61	284.06
718.94	283.35
719.27	282.70
719.61	282.06
719.94	281.40
720.27	280.69
720.60	280.03
720.94	279.37
721.27	278.82
721.60	278.26
721.93	277.65
722.27	277.14
722.60	276.57
722.93	276.04
723.26	275.48
723.59	274.94
723.93	274.41
724.26	273.82
724.59	273.31
724.92	272.76
725.25	272.29
725.59	271.77
725.92	271.27
726.25	270.77
726.58	270.29
726.91	269.79
727.24	269.35
727.57	268.88
727.91	268.38
728.24	267.87
728.57	267.38
728.90	266.90
729.23	266.37
729.56	265.95
729.89	265.43
730.22	264.96
730.55	264.53
730.89	264.05
731.22	263.60
731.55	263.16
731.88	262.72
732.21	262.26
732.54	261.81
732.87	261.33
733.20	260.95
733.53	260.54
733.86	260.12
734.19	259.74
734.52	259.38
734.85	259.05
735.18	258.64
735.51	258.25
735.84	257.90
736.17	257.56
736.50	257.16
736.83	256.94
737.16	256.59
737.49	256.23
737.82	255.92
738.15	255.57
738.48	255.22
738.81	254.89
739.14	254.54
739.47	254.20
739.80	253.94
740.13	253.63
740.46	253.31
740.79	253.01
741.12	252.69
741.45	252.36
741.78	252.02
742.11	251.77
742.44	251.45
742.77	251.15
743.10	250.85
743.43	250.57
743.75	250.18
744.08	250.03
744.41	249.75
744.74	249.46
745.07	249.18
745.40	248.96
745.73	248.70
746.06	248.47
746.39	248.24
746.71	247.95
747.04	247.66
747.37	247.37
747.70	247.12
748.03	246.85
748.36	246.62
748.68	246.39
749.01	246.12
749.34	245.88
749.67	245.63
750.00	245.40
750.33	245.23
750.65	245.03
750.98	244.70
751.31	244.47
751.64	244.27
751.97	244.14
752.29	243.91
752.62	243.69
752.95	243.49
753.28	243.25
753.60	243.05
753.93	242.86
754.26	242.70
754.59	242.48
754.91	242.27
755.24	242.07
755.57	241.87
755.90	241.69
756.22	241.50
756.55	241.35
756.88	241.16
757.20	240.95
757.53	240.74
757.86	240.59
758.19	240.43
758.51	240.22
758.84	239.97
759.17	239.78
759.49	239.60
759.82	239.49
760.15	239.35
760.47	239.22
760.80	239.07
761.13	238.96
761.45	238.77
761.78	238.63
762.11	238.48
762.43	238.33
762.76	238.18
763.08	238.06
763.41	237.90
763.74	237.79
764.06	237.63
764.39	237.48
764.71	237.34
765.04	237.21
765.37	237.11
765.69	237.01
766.02	236.84
766.34	236.72
766.67	236.53
767.00	236.42
767.32	236.34
767.65	236.24
767.97	236.09
768.30	236.01
768.62	235.87
768.95	235.72
769.27	235.59
769.60	235.52
769.92	235.39
770.25	235.27
770.57	235.13
770.90	235.01
771.22	234.90
771.55	234.78
771.87	234.68
772.20	234.59
772.52	234.57
772.85	234.63
773.17	234.57
773.50	234.47
773.82	234.34
774.15	234.19
774.47	234.05
774.80	233.95
775.12	233.87
775.45	233.78
775.77	233.75
776.09	233.68
776.42	233.59
776.74	233.58
777.07	233.50
777.39	233.43
777.72	233.34
778.04	233.30
778.36	233.21
778.69	233.12
779.01	233.08
779.33	232.94
779.66	232.76
779.98	232.68
780.31	232.63
780.63	232.64
780.95	232.61
781.28	232.56
781.60	232.47
781.92	232.39
782.25	232.35
782.57	232.29
782.89	232.27
783.22	232.20
783.54	232.08
783.86	232.03
784.19	231.96
784.51	231.95
784.83	231.87
785.16	231.81
785.48	231.77
785.80	231.65
786.12	231.60
786.45	231.52
786.77	231.48
787.09	231.44
