SpectraSuite Data File
++++++++++++++++++++++++++++++++++++
Date: Fri Feb 01 15:04:29 EST 2013
User: group
Dark Spectrum Present: No
Reference Spectrum Present: No
Number of Sampled Component Spectra: 1
Spectrometers: USB2E7196
Integration Time (usec): 35000 (USB2E7196)
Spectra Averaged: 100 (USB2E7196)
Boxcar Smoothing: 10 (USB2E7196)
Correct for Electrical Dark: No (USB2E7196)
Strobe/Lamp Enabled: No (USB2E7196)
Correct for Detector Non-linearity: No (USB2E7196)
Correct for Stray Light: No (USB2E7196)
Number of Pixels in Processed Spectrum: 2048
>>>>>Begin Processed Spectral Data<<<<<
339.09	0.00
339.48	215.14
339.86	216.60
340.24	218.02
340.63	219.50
341.01	222.71
341.39	221.99
341.78	223.25
342.16	224.45
342.54	224.70
342.93	213.46
343.31	224.25
343.69	224.78
344.07	225.26
344.46	225.70
344.84	226.08
345.22	226.28
345.60	226.54
345.99	226.73
346.37	226.86
346.75	226.96
347.13	227.05
347.52	227.14
347.90	227.22
348.28	227.24
348.66	227.29
349.05	227.28
349.43	227.30
349.81	227.33
350.19	227.39
350.57	227.40
350.96	227.47
351.34	227.53
351.72	227.63
352.10	227.71
352.48	227.75
352.87	227.81
353.25	227.88
353.63	227.94
354.01	228.02
354.39	228.13
354.77	228.20
355.15	228.28
355.54	228.33
355.92	228.35
356.30	228.44
356.68	228.59
357.06	228.67
357.44	228.73
357.82	228.80
358.20	228.84
358.58	228.93
358.97	229.00
359.35	229.08
359.73	229.15
360.11	229.20
360.49	229.28
360.87	229.30
361.25	229.37
361.63	229.43
362.01	229.45
362.39	229.45
362.77	229.50
363.15	229.52
363.53	229.54
363.91	229.59
364.29	229.60
364.67	229.53
365.05	229.52
365.43	229.53
365.81	229.54
366.19	229.57
366.57	229.59
366.95	229.54
367.33	229.50
367.71	229.47
368.09	229.46
368.47	229.43
368.85	229.40
369.23	229.37
369.61	229.31
369.99	229.30
370.37	229.31
370.75	229.31
371.13	229.23
371.51	229.17
371.89	229.08
372.27	229.03
372.65	228.94
373.03	228.91
373.41	228.85
373.78	228.80
374.16	228.70
374.54	228.63
374.92	228.58
375.30	228.52
375.68	228.43
376.06	228.36
376.44	228.28
376.82	228.20
377.19	228.15
377.57	228.08
377.95	227.97
378.33	227.85
378.71	227.73
379.09	227.67
379.47	227.62
379.84	227.56
380.22	227.47
380.60	227.40
380.98	227.27
381.36	227.19
381.73	227.08
382.11	227.02
382.49	226.96
382.87	226.87
383.25	226.79
383.62	226.84
384.00	226.76
384.38	226.67
384.76	226.66
385.13	226.59
385.51	226.52
385.89	226.47
386.27	226.41
386.64	226.34
387.02	226.30
387.40	226.23
387.78	226.19
388.15	226.16
388.53	226.12
388.91	226.12
389.29	226.09
389.66	226.10
390.04	226.04
390.42	226.04
390.79	226.05
391.17	226.02
391.55	225.90
391.92	225.91
392.30	225.96
392.68	225.95
393.05	225.96
393.43	225.97
393.81	226.00
394.18	226.04
394.56	226.10
394.94	226.14
395.31	226.18
395.69	226.26
396.06	226.33
396.44	226.38
396.82	226.43
397.19	226.52
397.57	226.57
397.95	226.69
398.32	226.70
398.70	226.79
399.07	226.92
399.45	226.98
399.82	227.04
400.20	227.10
400.58	227.18
400.95	227.26
401.33	227.40
401.70	227.57
402.08	227.66
402.45	227.75
402.83	227.90
403.20	228.04
403.58	228.13
403.95	228.26
404.33	228.41
404.71	228.53
405.08	228.70
405.46	228.86
405.83	228.96
406.21	229.14
406.58	229.28
406.96	229.46
407.33	229.68
407.70	229.90
408.08	230.19
408.45	230.44
408.83	230.68
409.20	230.88
409.58	231.07
409.95	231.35
410.33	231.61
410.70	231.82
411.08	232.11
411.45	232.43
411.82	232.74
412.20	233.11
412.57	233.55
412.95	233.86
413.32	234.26
413.69	234.71
414.07	235.16
414.44	235.62
414.82	236.08
415.19	236.62
415.56	237.15
415.94	237.69
416.31	238.31
416.68	238.94
417.06	239.66
417.43	240.35
417.81	241.14
418.18	241.96
418.55	242.81
418.93	243.68
419.30	244.58
419.67	245.51
420.04	246.47
420.42	247.42
420.79	248.59
421.16	249.71
421.54	250.91
421.91	252.12
422.28	253.38
422.66	254.72
423.03	256.02
423.40	257.36
423.77	258.74
424.15	260.14
424.52	261.59
424.89	263.17
425.26	264.70
425.64	266.13
426.01	267.68
426.38	269.30
426.75	271.00
427.13	272.74
427.50	274.58
427.87	276.43
428.24	278.33
428.61	280.09
428.99	282.05
429.36	284.13
429.73	286.16
430.10	288.22
430.47	290.27
430.85	292.40
431.22	294.66
431.59	297.03
431.96	299.30
432.33	301.80
432.70	304.19
433.08	307.01
433.45	309.64
433.82	312.25
434.19	315.21
434.56	318.02
434.93	320.67
435.30	323.25
435.68	326.17
436.05	329.01
436.42	331.83
436.79	334.34
437.16	337.03
437.53	339.87
437.90	342.69
438.27	345.46
438.64	348.25
439.01	350.87
439.38	353.11
439.75	355.27
440.13	357.79
440.50	360.14
440.87	361.98
441.24	363.94
441.61	366.12
441.98	367.60
442.35	369.40
442.72	371.27
443.09	373.12
443.46	374.14
443.83	374.72
444.20	375.18
444.57	376.05
444.94	376.40
445.31	376.73
445.68	377.09
446.05	377.13
446.42	376.81
446.79	376.37
447.16	375.96
447.53	375.68
447.90	374.51
448.27	373.38
448.64	371.84
449.01	370.73
449.37	368.78
449.74	366.86
450.11	364.59
450.48	362.10
450.85	359.60
451.22	357.45
451.59	355.41
451.96	353.52
452.33	350.86
452.70	348.47
453.07	345.67
453.43	342.73
453.80	340.03
454.17	337.30
454.54	334.78
454.91	332.04
455.28	329.35
455.65	326.86
456.02	324.38
456.38	322.22
456.75	319.51
457.12	317.23
457.49	314.99
457.86	312.82
458.23	311.00
458.59	308.87
458.96	306.72
459.33	304.87
459.70	302.99
460.07	301.52
460.43	299.76
460.80	298.18
461.17	296.75
461.54	295.23
461.91	293.78
462.27	292.30
462.64	291.03
463.01	289.65
463.38	288.35
463.74	286.92
464.11	285.74
464.48	284.70
464.85	283.59
465.21	282.74
465.58	281.81
465.95	280.65
466.32	279.73
466.68	278.80
467.05	277.87
467.42	276.97
467.78	276.02
468.15	275.15
468.52	274.44
468.88	273.57
469.25	272.77
469.62	272.13
469.98	271.41
470.35	270.75
470.72	270.17
471.08	269.51
471.45	268.99
471.82	268.39
472.18	267.77
472.55	267.33
472.92	266.76
473.28	266.28
473.65	265.82
474.02	265.38
474.38	265.04
474.75	264.72
475.11	264.31
475.48	264.02
475.85	263.76
476.21	263.50
476.58	263.25
476.94	263.10
477.31	262.90
477.67	262.74
478.04	262.62
478.41	262.52
478.77	262.54
479.14	262.50
479.50	262.53
479.87	262.62
480.23	262.67
480.60	262.76
480.96	262.87
481.33	263.10
481.69	263.25
482.06	263.47
482.42	263.66
482.79	263.94
483.15	264.29
483.52	264.66
483.88	265.05
484.25	265.45
484.61	265.86
484.98	266.32
485.34	266.94
485.71	267.51
486.07	268.11
486.44	268.66
486.80	269.34
487.17	270.06
487.53	270.84
487.90	271.72
488.26	272.67
488.62	273.66
488.99	274.61
489.35	275.68
489.72	276.79
490.08	277.99
490.44	279.25
490.81	280.56
491.17	281.92
491.54	283.37
491.90	284.91
492.26	286.55
492.63	288.32
492.99	290.04
493.36	291.92
493.72	293.97
494.08	296.03
494.45	298.26
494.81	300.66
495.17	303.13
495.54	305.66
495.90	308.33
496.26	311.09
496.63	314.03
496.99	317.16
497.35	320.42
497.72	323.79
498.08	327.27
498.44	330.93
498.80	334.85
499.17	338.92
499.53	343.09
499.89	347.47
500.26	351.96
500.62	356.63
500.98	361.60
501.34	366.71
501.71	372.06
502.07	377.53
502.43	383.07
502.79	388.89
503.16	394.95
503.52	401.20
503.88	407.58
504.24	414.24
504.60	421.09
504.97	428.15
505.33	435.45
505.69	443.14
506.05	450.94
506.41	458.79
506.78	466.84
507.14	475.20
507.50	483.89
507.86	492.87
508.22	502.07
508.59	511.24
508.95	520.80
509.31	530.53
509.67	540.60
510.03	550.89
510.39	561.41
510.75	572.22
511.12	583.06
511.48	594.32
511.84	605.72
512.20	617.29
512.56	629.26
512.92	641.41
513.28	653.64
513.64	666.05
514.00	678.79
514.37	691.82
514.73	704.88
515.09	717.92
515.45	731.23
515.81	744.80
516.17	758.82
516.53	772.91
516.89	787.04
517.25	801.19
517.61	815.57
517.97	830.05
518.33	844.45
518.69	859.32
519.05	874.46
519.41	889.63
519.77	905.08
520.13	920.50
520.49	935.97
520.85	951.58
521.21	967.44
521.57	983.74
521.93	999.55
522.29	1016.09
522.65	1032.35
523.01	1048.67
523.37	1064.80
523.73	1081.00
524.09	1097.09
524.45	1113.59
524.81	1130.27
525.17	1147.29
525.53	1164.19
525.89	1181.18
526.25	1197.98
526.61	1214.43
526.97	1231.24
527.33	1247.84
527.68	1264.60
528.04	1281.12
528.40	1297.83
528.76	1315.00
529.12	1331.63
529.48	1348.43
529.84	1364.53
530.20	1381.38
530.56	1398.46
530.91	1415.89
531.27	1432.79
531.63	1449.39
531.99	1466.09
532.35	1482.30
532.71	1498.15
533.07	1514.48
533.42	1530.49
533.78	1546.65
534.14	1562.97
534.50	1578.42
534.86	1594.30
535.21	1609.44
535.57	1625.52
535.93	1641.00
536.29	1655.77
536.65	1670.93
537.00	1685.87
537.36	1701.15
537.72	1715.70
538.08	1730.15
538.44	1743.98
538.79	1757.89
539.15	1771.81
539.51	1785.66
539.87	1800.05
540.22	1813.95
540.58	1827.80
540.94	1841.11
541.29	1854.20
541.65	1866.98
542.01	1880.38
542.37	1892.91
542.72	1905.56
543.08	1917.31
543.44	1929.80
543.79	1941.05
544.15	1952.09
544.51	1963.75
544.87	1974.79
545.22	1985.70
545.58	1995.97
545.94	2005.86
546.29	2015.82
546.65	2025.58
547.01	2034.84
547.36	2043.57
547.72	2052.03
548.07	2060.01
548.43	2068.29
548.79	2076.25
549.14	2083.82
549.50	2091.26
549.86	2099.10
550.21	2106.33
550.57	2113.59
550.92	2120.22
551.28	2127.35
551.64	2134.39
551.99	2140.88
552.35	2147.03
552.70	2153.06
553.06	2158.99
553.41	2165.32
553.77	2171.34
554.13	2177.41
554.48	2183.49
554.84	2188.89
555.19	2194.22
555.55	2199.31
555.90	2203.68
556.26	2208.42
556.61	2213.01
556.97	2217.09
557.32	2221.05
557.68	2225.12
558.03	2229.41
558.39	2233.18
558.74	2237.79
559.10	2241.54
559.45	2245.12
559.81	2249.47
560.16	2253.21
560.52	2256.47
560.87	2259.94
561.23	2262.43
561.58	2265.22
561.94	2267.63
562.29	2269.96
562.64	2272.71
563.00	2275.28
563.35	2278.86
563.71	2282.00
564.06	2285.07
564.42	2287.84
564.77	2290.13
565.12	2292.22
565.48	2293.91
565.83	2295.50
566.19	2296.61
566.54	2297.59
566.89	2298.80
567.25	2299.18
567.60	2300.50
567.96	2302.04
568.31	2302.67
568.66	2303.67
569.02	2304.30
569.37	2304.54
569.72	2305.13
570.08	2304.99
570.43	2304.83
570.78	2303.94
571.14	2302.42
571.49	2301.10
571.84	2300.68
572.20	2299.35
572.55	2298.27
572.90	2296.65
573.26	2295.09
573.61	2293.33
573.96	2291.37
574.31	2288.22
574.67	2285.22
575.02	2281.46
575.37	2277.95
575.72	2274.00
576.08	2270.67
576.43	2267.18
576.78	2263.29
577.13	2260.14
577.49	2257.00
577.84	2253.40
578.19	2249.57
578.54	2245.57
578.90	2241.18
579.25	2235.56
579.60	2230.67
579.95	2225.57
580.30	2220.40
580.66	2215.23
581.01	2210.11
581.36	2205.15
581.71	2200.77
582.06	2196.09
582.42	2191.49
582.77	2186.08
583.12	2181.34
583.47	2176.46
583.82	2171.29
584.17	2166.01
584.53	2160.43
584.88	2154.55
585.23	2148.65
585.58	2143.16
585.93	2137.76
586.28	2132.89
586.63	2127.66
586.98	2122.47
587.34	2117.86
587.69	2112.99
588.04	2107.53
588.39	2101.89
588.74	2095.34
589.09	2089.14
589.44	2082.20
589.79	2076.09
590.14	2070.39
590.49	2063.75
590.84	2057.18
591.19	2050.92
591.54	2044.34
591.89	2036.67
592.25	2029.83
592.60	2022.61
592.95	2014.88
593.30	2007.48
593.65	1999.76
594.00	1992.50
594.35	1985.17
594.70	1976.95
595.05	1969.52
595.40	1962.27
595.75	1954.56
596.10	1948.15
596.45	1941.23
596.80	1934.98
597.15	1928.21
597.50	1921.14
597.85	1914.76
598.19	1908.10
598.54	1900.96
598.89	1894.38
599.24	1888.51
599.59	1881.71
599.94	1875.40
600.29	1869.00
600.64	1862.36
600.99	1854.77
601.34	1848.04
601.69	1840.90
602.04	1833.84
602.39	1826.44
602.74	1819.65
603.08	1812.97
603.43	1806.20
603.78	1798.98
604.13	1791.89
604.48	1784.54
604.83	1777.60
605.18	1770.33
605.53	1762.32
605.87	1754.41
606.22	1747.05
606.57	1739.14
606.92	1731.81
607.27	1724.61
607.62	1717.72
607.96	1710.25
608.31	1703.59
608.66	1695.74
609.01	1688.27
609.36	1680.77
609.70	1672.77
610.05	1664.54
610.40	1656.87
610.75	1648.51
611.10	1640.82
611.44	1632.42
611.79	1624.54
612.14	1615.84
612.49	1606.83
612.83	1598.49
613.18	1590.44
613.53	1582.51
613.88	1573.93
614.22	1565.65
614.57	1556.90
614.92	1548.91
615.27	1541.42
615.61	1533.14
615.96	1525.37
616.31	1517.81
616.65	1510.42
617.00	1503.00
617.35	1495.36
617.70	1486.89
618.04	1478.38
618.39	1470.09
618.74	1462.47
619.08	1454.19
619.43	1446.55
619.78	1439.69
620.12	1432.44
620.47	1424.91
620.82	1416.60
621.16	1409.32
621.51	1401.78
621.85	1394.44
622.20	1385.95
622.55	1377.76
622.89	1370.11
623.24	1362.47
623.59	1355.07
623.93	1347.60
624.28	1340.29
624.62	1332.90
624.97	1325.91
625.32	1319.21
625.66	1312.32
626.01	1305.08
626.35	1297.63
626.70	1290.03
627.04	1282.35
627.39	1274.61
627.73	1267.12
628.08	1260.27
628.43	1252.89
628.77	1245.48
629.12	1237.80
629.46	1230.71
629.81	1223.31
630.15	1216.09
630.50	1208.74
630.84	1200.54
631.19	1192.77
631.53	1185.35
631.88	1177.72
632.22	1170.14
632.57	1162.96
632.91	1155.47
633.26	1148.13
633.60	1140.81
633.95	1133.87
634.29	1126.81
634.64	1120.19
634.98	1112.93
635.32	1105.84
635.67	1099.43
636.01	1092.84
636.36	1086.13
636.70	1079.61
637.05	1073.05
637.39	1066.61
637.73	1060.19
638.08	1054.44
638.42	1048.33
638.77	1041.93
639.11	1035.37
639.45	1029.05
639.80	1022.35
640.14	1015.89
640.49	1009.42
640.83	1003.15
641.17	996.88
641.52	990.63
641.86	984.37
642.20	978.62
642.55	972.36
642.89	965.80
643.23	959.38
643.58	953.57
643.92	947.37
644.26	941.29
644.61	935.35
644.95	929.22
645.29	922.60
645.64	915.82
645.98	909.42
646.32	903.61
646.66	897.50
647.01	891.82
647.35	886.17
647.69	880.35
648.04	874.87
648.38	869.11
648.72	863.22
649.06	857.02
649.41	851.03
649.75	845.02
650.09	839.14
650.43	833.32
650.78	827.17
651.12	821.24
651.46	815.57
651.80	809.74
652.14	804.47
652.49	799.14
652.83	794.17
653.17	788.50
653.51	782.76
653.85	777.42
654.20	771.65
654.54	765.60
654.88	759.94
655.22	754.02
655.56	748.27
655.90	742.72
656.25	737.54
656.59	732.24
656.93	727.16
657.27	722.00
657.61	716.56
657.95	711.54
658.29	706.52
658.64	701.22
658.98	695.97
659.32	690.51
659.66	685.36
660.00	680.01
660.34	675.10
660.68	670.27
661.02	665.17
661.36	660.50
661.70	656.06
662.05	651.65
662.39	647.35
662.73	642.94
663.07	638.63
663.41	634.19
663.75	629.74
664.09	625.23
664.43	620.88
664.77	616.83
665.11	612.64
665.45	608.54
665.79	604.54
666.13	600.44
666.47	596.39
666.81	592.19
667.15	588.09
667.49	584.31
667.83	580.52
668.17	576.68
668.51	572.68
668.85	568.74
669.19	564.91
669.53	561.16
669.87	557.31
670.21	553.61
670.55	550.06
670.89	546.64
671.23	543.27
671.57	539.74
671.91	536.20
672.25	532.70
672.58	529.19
672.92	525.86
673.26	522.72
673.60	519.55
673.94	516.50
674.28	513.63
674.62	510.70
674.96	507.65
675.30	504.77
675.64	501.88
675.97	499.20
676.31	496.43
676.65	493.46
676.99	490.71
677.33	487.92
677.67	485.08
678.01	482.06
678.34	479.05
678.68	476.23
679.02	473.45
679.36	470.73
679.70	468.00
680.04	465.25
680.37	462.34
680.71	459.60
681.05	457.02
681.39	454.29
681.73	451.62
682.06	449.09
682.40	446.53
682.74	443.99
683.08	441.38
683.42	438.78
683.75	436.30
684.09	433.81
684.43	431.33
684.77	428.87
685.10	426.58
685.44	424.35
685.78	422.06
686.12	419.83
686.45	417.52
686.79	415.26
687.13	413.05
687.46	410.94
687.80	408.78
688.14	406.53
688.48	404.43
688.81	402.16
689.15	400.02
689.49	397.95
689.82	395.92
690.16	393.79
690.50	391.85
690.83	389.92
691.17	387.96
691.51	386.06
691.84	384.25
692.18	382.27
692.52	380.29
692.85	378.38
693.19	376.51
693.52	374.72
693.86	372.86
694.20	371.08
694.53	369.28
694.87	367.44
695.21	365.70
695.54	363.94
695.88	362.25
696.21	360.53
696.55	358.82
696.88	357.09
697.22	355.49
697.56	353.84
697.89	352.18
698.23	350.52
698.56	348.89
698.90	347.26
699.23	345.67
699.57	344.12
699.90	342.58
700.24	341.03
700.58	339.51
700.91	338.01
701.25	336.53
701.58	335.17
701.92	333.80
702.25	332.39
702.59	331.01
702.92	329.66
703.26	328.33
703.59	327.01
703.93	325.84
704.26	324.63
704.60	323.35
704.93	322.09
705.26	320.84
705.60	319.73
705.93	318.61
706.27	317.58
706.60	316.52
706.94	315.43
707.27	314.35
707.61	313.31
707.94	312.32
708.27	311.27
708.61	310.18
708.94	309.22
709.28	308.25
709.61	307.32
709.94	306.42
710.28	305.41
710.61	304.47
710.95	303.41
711.28	302.46
711.61	301.51
711.95	300.60
712.28	299.71
712.61	298.71
712.95	297.75
713.28	296.88
713.61	296.01
713.95	295.14
714.28	294.30
714.61	293.45
714.95	292.65
715.28	291.86
715.61	291.00
715.95	290.19
716.28	289.34
716.61	288.48
716.95	287.68
717.28	286.99
717.61	286.27
717.94	285.55
718.28	284.76
718.61	284.07
718.94	283.39
719.27	282.71
719.61	282.09
719.94	281.47
720.27	280.76
720.60	280.09
720.94	279.47
721.27	278.86
721.60	278.28
721.93	277.66
722.27	277.12
722.60	276.61
722.93	276.01
723.26	275.50
723.59	274.96
723.93	274.42
724.26	273.86
724.59	273.30
724.92	272.76
725.25	272.30
725.59	271.80
725.92	271.31
726.25	270.84
726.58	270.31
726.91	269.80
727.24	269.32
727.57	268.85
727.91	268.35
728.24	267.90
728.57	267.41
728.90	266.96
729.23	266.43
729.56	265.97
729.89	265.49
730.22	265.00
730.55	264.56
730.89	264.11
731.22	263.69
731.55	263.21
731.88	262.82
732.21	262.38
732.54	261.91
732.87	261.46
733.20	261.02
733.53	260.64
733.86	260.29
734.19	259.90
734.52	259.49
734.85	259.17
735.18	258.73
735.51	258.35
735.84	257.97
736.17	257.62
736.50	257.18
736.83	256.95
737.16	256.60
737.49	256.24
737.82	255.85
738.15	255.48
738.48	255.16
738.81	254.80
739.14	254.43
739.47	254.13
739.80	253.85
740.13	253.56
740.46	253.25
740.79	252.85
741.12	252.53
741.45	252.22
741.78	251.88
742.11	251.55
742.44	251.20
742.77	250.90
743.10	250.60
743.43	250.32
743.75	249.90
744.08	249.77
744.41	249.49
744.74	249.21
745.07	248.97
745.40	248.71
745.73	248.49
746.06	248.25
746.39	248.01
746.71	247.73
747.04	247.46
747.37	247.19
747.70	246.99
748.03	246.74
748.36	246.52
748.68	246.29
749.01	246.09
749.34	245.87
749.67	245.63
750.00	245.41
750.33	245.25
750.65	245.07
750.98	244.74
751.31	244.51
751.64	244.31
751.97	244.16
752.29	243.94
752.62	243.68
752.95	243.48
753.28	243.26
753.60	243.04
753.93	242.86
754.26	242.69
754.59	242.48
754.91	242.32
755.24	242.12
755.57	241.90
755.90	241.72
756.22	241.56
756.55	241.41
756.88	241.24
757.20	241.02
757.53	240.83
757.86	240.66
758.19	240.56
758.51	240.42
758.84	240.23
759.17	240.06
759.49	239.93
759.82	239.85
760.15	239.70
760.47	239.61
760.80	239.47
761.13	239.32
761.45	239.19
761.78	239.01
762.11	238.88
762.43	238.76
762.76	238.65
763.08	238.52
763.41	238.37
763.74	238.23
764.06	238.09
764.39	237.96
764.71	237.82
765.04	237.70
765.37	237.57
765.69	237.44
766.02	237.32
766.34	237.21
766.67	237.02
767.00	236.92
767.32	236.86
767.65	236.82
767.97	236.72
768.30	236.60
768.62	236.52
768.95	236.44
769.27	236.34
769.60	236.27
769.92	236.13
770.25	236.05
770.57	235.96
770.90	235.90
771.22	235.77
771.55	235.68
771.87	235.56
772.20	235.42
772.52	235.41
772.85	235.44
773.17	235.36
773.50	235.26
773.82	235.17
774.15	234.98
774.47	234.78
774.80	234.68
775.12	234.58
775.45	234.49
775.77	234.38
776.09	234.31
776.42	234.21
776.74	234.18
777.07	234.10
777.39	234.02
777.72	233.90
778.04	233.86
778.36	233.78
778.69	233.70
779.01	233.65
779.33	233.50
779.66	233.29
779.98	233.16
780.31	233.11
780.63	233.07
780.95	233.03
781.28	232.99
781.60	232.89
781.92	232.78
782.25	232.70
782.57	232.66
782.89	232.56
783.22	232.47
783.54	232.39
783.86	232.32
784.19	232.24
784.51	232.22
784.83	232.16
785.16	232.11
785.48	232.07
785.80	232.03
786.12	231.97
786.45	231.93
786.77	231.91
787.09	231.83
