SpectraSuite Data File
++++++++++++++++++++++++++++++++++++
Date: Fri Feb 01 14:51:26 EST 2013
User: group
Dark Spectrum Present: No
Reference Spectrum Present: No
Number of Sampled Component Spectra: 1
Spectrometers: USB2E7196
Integration Time (usec): 35000 (USB2E7196)
Spectra Averaged: 100 (USB2E7196)
Boxcar Smoothing: 10 (USB2E7196)
Correct for Electrical Dark: No (USB2E7196)
Strobe/Lamp Enabled: No (USB2E7196)
Correct for Detector Non-linearity: No (USB2E7196)
Correct for Stray Light: No (USB2E7196)
Number of Pixels in Processed Spectrum: 2048
>>>>>Begin Processed Spectral Data<<<<<
339.09	0.00
339.48	215.93
339.86	217.33
340.24	218.58
340.63	219.96
341.01	222.92
341.39	222.85
341.78	224.35
342.16	225.07
342.54	226.06
342.93	214.11
343.31	224.88
343.69	225.45
344.07	225.90
344.46	226.34
344.84	226.74
345.22	226.97
345.60	227.20
345.99	227.36
346.37	227.49
346.75	227.58
347.13	227.65
347.52	227.69
347.90	227.75
348.28	227.76
348.66	227.78
349.05	227.79
349.43	227.80
349.81	227.81
350.19	227.85
350.57	227.89
350.96	227.94
351.34	228.03
351.72	228.04
352.10	228.11
352.48	228.16
352.87	228.17
353.25	228.20
353.63	228.30
354.01	228.36
354.39	228.42
354.77	228.48
355.15	228.57
355.54	228.65
355.92	228.67
356.30	228.75
356.68	228.87
357.06	228.91
357.44	228.98
357.82	229.04
358.20	229.08
358.58	229.14
358.97	229.18
359.35	229.26
359.73	229.33
360.11	229.38
360.49	229.44
360.87	229.47
361.25	229.53
361.63	229.59
362.01	229.64
362.39	229.68
362.77	229.72
363.15	229.73
363.53	229.74
363.91	229.76
364.29	229.76
364.67	229.69
365.05	229.71
365.43	229.71
365.81	229.71
366.19	229.74
366.57	229.76
366.95	229.78
367.33	229.74
367.71	229.73
368.09	229.74
368.47	229.69
368.85	229.71
369.23	229.71
369.61	229.61
369.99	229.60
370.37	229.57
370.75	229.54
371.13	229.48
371.51	229.42
371.89	229.37
372.27	229.34
372.65	229.28
373.03	229.24
373.41	229.19
373.78	229.12
374.16	229.03
374.54	228.97
374.92	228.90
375.30	228.84
375.68	228.77
376.06	228.70
376.44	228.60
376.82	228.48
377.19	228.39
377.57	228.33
377.95	228.20
378.33	228.13
378.71	228.03
379.09	227.95
379.47	227.88
379.84	227.79
380.22	227.71
380.60	227.61
380.98	227.52
381.36	227.45
381.73	227.36
382.11	227.31
382.49	227.23
382.87	227.13
383.25	227.08
383.62	227.13
384.00	227.04
384.38	227.01
384.76	227.01
385.13	226.97
385.51	226.88
385.89	226.83
386.27	226.79
386.64	226.74
387.02	226.68
387.40	226.65
387.78	226.63
388.15	226.56
388.53	226.52
388.91	226.48
389.29	226.44
389.66	226.43
390.04	226.40
390.42	226.39
390.79	226.38
391.17	226.33
391.55	226.20
391.92	226.18
392.30	226.19
392.68	226.17
393.05	226.19
393.43	226.21
393.81	226.23
394.18	226.23
394.56	226.24
394.94	226.29
395.31	226.34
395.69	226.41
396.06	226.48
396.44	226.54
396.82	226.60
397.19	226.71
397.57	226.77
397.95	226.84
398.32	226.88
398.70	226.98
399.07	227.11
399.45	227.18
399.82	227.28
400.20	227.39
400.58	227.49
400.95	227.56
401.33	227.72
401.70	227.89
402.08	228.01
402.45	228.17
402.83	228.29
403.20	228.41
403.58	228.51
403.95	228.66
404.33	228.85
404.71	228.97
405.08	229.16
405.46	229.29
405.83	229.47
406.21	229.64
406.58	229.83
406.96	229.99
407.33	230.22
407.70	230.43
408.08	230.69
408.45	230.91
408.83	231.14
409.20	231.34
409.58	231.57
409.95	231.84
410.33	232.09
410.70	232.36
411.08	232.67
411.45	233.00
411.82	233.31
412.20	233.65
412.57	234.11
412.95	234.41
413.32	234.83
413.69	235.25
414.07	235.71
414.44	236.17
414.82	236.69
415.19	237.24
415.56	237.78
415.94	238.33
416.31	238.97
416.68	239.60
417.06	240.32
417.43	240.96
417.81	241.71
418.18	242.48
418.55	243.31
418.93	244.15
419.30	245.04
419.67	245.98
420.04	246.95
420.42	247.92
420.79	249.09
421.16	250.21
421.54	251.38
421.91	252.57
422.28	253.79
422.66	255.08
423.03	256.36
423.40	257.67
423.77	259.07
424.15	260.49
424.52	261.96
424.89	263.56
425.26	265.11
425.64	266.55
426.01	268.15
426.38	269.79
426.75	271.45
427.13	273.16
427.50	274.95
427.87	276.79
428.24	278.63
428.61	280.38
428.99	282.31
429.36	284.36
429.73	286.40
430.10	288.42
430.47	290.48
430.85	292.60
431.22	294.83
431.59	297.22
431.96	299.41
432.33	301.89
432.70	304.22
433.08	307.01
433.45	309.65
433.82	312.25
434.19	315.15
434.56	317.93
434.93	320.53
435.30	323.16
435.68	326.06
436.05	328.93
436.42	331.69
436.79	334.26
437.16	336.99
437.53	339.84
437.90	342.66
438.27	345.37
438.64	348.17
439.01	350.79
439.38	352.97
439.75	355.20
440.13	357.71
440.50	360.08
440.87	361.93
441.24	363.83
441.61	365.99
441.98	367.46
442.35	369.25
442.72	371.15
443.09	372.96
443.46	373.92
443.83	374.45
444.20	374.95
444.57	375.76
444.94	376.02
445.31	376.35
445.68	376.69
446.05	376.80
446.42	376.39
446.79	375.98
447.16	375.55
447.53	375.16
447.90	374.02
448.27	372.85
448.64	371.25
449.01	370.16
449.37	368.19
449.74	366.30
450.11	364.10
450.48	361.61
450.85	359.10
451.22	357.00
451.59	354.98
451.96	353.07
452.33	350.47
452.70	348.17
453.07	345.36
453.43	342.48
453.80	339.69
454.17	337.11
454.54	334.55
454.91	331.83
455.28	329.22
455.65	326.72
456.02	324.32
456.38	322.21
456.75	319.58
457.12	317.33
457.49	315.15
457.86	312.99
458.23	311.16
458.59	309.12
458.96	307.03
459.33	305.20
459.70	303.39
460.07	301.91
460.43	300.20
460.80	298.61
461.17	297.19
461.54	295.71
461.91	294.25
462.27	292.83
462.64	291.59
463.01	290.23
463.38	288.90
463.74	287.49
464.11	286.31
464.48	285.24
464.85	284.12
465.21	283.23
465.58	282.30
465.95	281.20
466.32	280.26
466.68	279.36
467.05	278.45
467.42	277.53
467.78	276.59
468.15	275.68
468.52	274.97
468.88	274.06
469.25	273.27
469.62	272.61
469.98	271.89
470.35	271.23
470.72	270.64
471.08	270.00
471.45	269.47
471.82	268.92
472.18	268.32
472.55	267.88
472.92	267.34
473.28	266.85
473.65	266.37
474.02	265.95
474.38	265.54
474.75	265.20
475.11	264.84
475.48	264.55
475.85	264.29
476.21	264.03
476.58	263.83
476.94	263.67
477.31	263.47
477.67	263.32
478.04	263.24
478.41	263.14
478.77	263.18
479.14	263.10
479.50	263.11
479.87	263.15
480.23	263.20
480.60	263.26
480.96	263.34
481.33	263.53
481.69	263.68
482.06	263.87
482.42	264.03
482.79	264.26
483.15	264.53
483.52	264.92
483.88	265.29
484.25	265.67
484.61	266.09
484.98	266.55
485.34	267.09
485.71	267.59
486.07	268.17
486.44	268.69
486.80	269.37
487.17	270.06
487.53	270.87
487.90	271.69
488.26	272.59
488.62	273.56
488.99	274.53
489.35	275.55
489.72	276.68
490.08	277.90
490.44	279.11
490.81	280.42
491.17	281.75
491.54	283.19
491.90	284.71
492.26	286.33
492.63	288.02
492.99	289.80
493.36	291.66
493.72	293.68
494.08	295.76
494.45	298.02
494.81	300.41
495.17	302.80
495.54	305.37
495.90	308.06
496.26	310.87
496.63	313.81
496.99	316.93
497.35	320.14
497.72	323.51
498.08	327.01
498.44	330.67
498.80	334.52
499.17	338.54
499.53	342.70
499.89	347.07
500.26	351.60
500.62	356.23
500.98	361.20
501.34	366.28
501.71	371.55
502.07	376.93
502.43	382.46
502.79	388.23
503.16	394.25
503.52	400.49
503.88	406.81
504.24	413.37
504.60	420.19
504.97	427.34
505.33	434.59
505.69	442.23
506.05	449.95
506.41	457.83
506.78	465.94
507.14	474.35
507.50	483.00
507.86	491.94
508.22	501.13
508.59	510.30
508.95	519.78
509.31	529.58
509.67	539.61
510.03	549.85
510.39	560.39
510.75	571.17
511.12	582.09
511.48	593.40
511.84	604.82
512.20	616.27
512.56	628.16
512.92	640.29
513.28	652.57
513.64	665.06
514.00	677.80
514.37	690.63
514.73	703.63
515.09	716.67
515.45	729.94
515.81	743.52
516.17	757.47
516.53	771.61
516.89	785.76
517.25	799.96
517.61	814.41
517.97	828.83
518.33	843.25
518.69	858.04
519.05	873.04
519.41	888.24
519.77	903.80
520.13	919.32
520.49	934.78
520.85	950.30
521.21	965.96
521.57	982.17
521.93	998.07
522.29	1014.54
522.65	1030.78
523.01	1046.96
523.37	1063.08
523.73	1079.32
524.09	1095.44
524.45	1111.80
524.81	1128.60
525.17	1145.46
525.53	1162.50
525.89	1179.48
526.25	1196.28
526.61	1212.70
526.97	1229.54
527.33	1246.06
527.68	1262.63
528.04	1279.09
528.40	1295.77
528.76	1313.00
529.12	1329.63
529.48	1346.53
529.84	1362.71
530.20	1379.42
530.56	1396.61
530.91	1413.90
531.27	1430.75
531.63	1447.20
531.99	1463.85
532.35	1479.82
532.71	1495.77
533.07	1512.02
533.42	1527.97
533.78	1544.09
534.14	1560.30
534.50	1575.72
534.86	1591.73
535.21	1606.89
535.57	1622.93
535.93	1638.47
536.29	1653.29
536.65	1668.53
537.00	1683.53
537.36	1698.84
537.72	1713.45
538.08	1728.08
538.44	1741.98
538.79	1755.89
539.15	1769.82
539.51	1783.67
539.87	1798.16
540.22	1811.96
540.58	1825.95
540.94	1839.37
541.29	1852.51
541.65	1865.39
542.01	1878.65
542.37	1891.00
542.72	1903.57
543.08	1915.39
543.44	1927.73
543.79	1938.99
544.15	1949.90
544.51	1961.22
544.87	1972.21
545.22	1982.97
545.58	1993.02
545.94	2003.01
546.29	2012.88
546.65	2022.65
547.01	2031.80
547.36	2040.51
547.72	2048.92
548.07	2056.67
548.43	2064.76
548.79	2072.59
549.14	2080.09
549.50	2087.52
549.86	2095.26
550.21	2102.69
550.57	2109.88
550.92	2116.49
551.28	2123.57
551.64	2130.69
551.99	2137.40
552.35	2143.62
552.70	2149.68
553.06	2155.54
553.41	2161.74
553.77	2167.82
554.13	2173.90
554.48	2180.03
554.84	2185.39
555.19	2190.70
555.55	2195.72
555.90	2200.05
556.26	2204.88
556.61	2209.55
556.97	2213.57
557.32	2217.51
557.68	2221.45
558.03	2225.63
558.39	2229.15
558.74	2233.63
559.10	2237.30
559.45	2240.68
559.81	2244.72
560.16	2248.40
560.52	2251.49
560.87	2254.84
561.23	2257.23
561.58	2259.99
561.94	2262.34
562.29	2264.57
562.64	2266.98
563.00	2269.44
563.35	2272.84
563.71	2275.74
564.06	2278.77
564.42	2281.52
564.77	2283.89
565.12	2285.90
565.48	2287.67
565.83	2289.30
566.19	2290.41
566.54	2291.22
566.89	2292.22
567.25	2292.66
567.60	2293.81
567.96	2295.33
568.31	2295.71
568.66	2296.52
569.02	2296.84
569.37	2297.04
569.72	2297.58
570.08	2297.40
570.43	2297.27
570.78	2296.39
571.14	2294.67
571.49	2293.13
571.84	2292.58
572.20	2291.08
572.55	2289.84
572.90	2288.03
573.26	2286.43
573.61	2284.56
573.96	2282.56
574.31	2279.30
574.67	2275.99
575.02	2272.28
575.37	2268.85
575.72	2264.88
576.08	2261.31
576.43	2257.89
576.78	2254.04
577.13	2250.52
577.49	2247.40
577.84	2243.62
578.19	2239.81
578.54	2235.91
578.90	2231.42
579.25	2225.72
579.60	2220.63
579.95	2215.45
580.30	2210.24
580.66	2204.87
581.01	2199.71
581.36	2194.66
581.71	2190.26
582.06	2185.66
582.42	2180.89
582.77	2175.34
583.12	2170.54
583.47	2165.94
583.82	2160.71
584.17	2155.29
584.53	2149.84
584.88	2144.04
585.23	2138.07
585.58	2132.45
585.93	2126.84
586.28	2122.03
586.63	2116.84
586.98	2111.67
587.34	2106.85
587.69	2101.87
588.04	2096.67
588.39	2090.87
588.74	2084.24
589.09	2078.04
589.44	2071.20
589.79	2065.07
590.14	2059.36
590.49	2052.76
590.84	2046.01
591.19	2039.70
591.54	2033.04
591.89	2025.43
592.25	2018.59
592.60	2011.39
592.95	2003.69
593.30	1996.24
593.65	1988.59
594.00	1981.52
594.35	1974.11
594.70	1965.91
595.05	1958.58
595.40	1951.16
595.75	1943.50
596.10	1937.10
596.45	1930.22
596.80	1923.87
597.15	1917.18
597.50	1909.98
597.85	1903.60
598.19	1896.94
598.54	1889.87
598.89	1883.28
599.24	1877.27
599.59	1870.46
599.94	1864.16
600.29	1857.76
600.64	1851.11
600.99	1843.45
601.34	1836.52
601.69	1829.55
602.04	1822.62
602.39	1815.18
602.74	1808.30
603.08	1801.78
603.43	1795.10
603.78	1787.85
604.13	1780.59
604.48	1773.25
604.83	1766.46
605.18	1759.48
605.53	1751.55
605.87	1743.56
606.22	1736.29
606.57	1728.45
606.92	1721.19
607.27	1713.96
607.62	1706.94
607.96	1699.75
608.31	1693.20
608.66	1685.56
609.01	1678.09
609.36	1670.70
609.70	1662.78
610.05	1654.85
610.40	1647.04
610.75	1638.72
611.10	1631.15
611.44	1623.02
611.79	1615.14
612.14	1606.48
612.49	1597.43
612.83	1589.20
613.18	1581.25
613.53	1573.13
613.88	1564.63
614.22	1556.42
614.57	1547.96
614.92	1540.12
615.27	1532.61
615.61	1524.43
615.96	1516.54
616.31	1509.08
616.65	1501.75
617.00	1494.30
617.35	1486.60
617.70	1478.29
618.04	1469.79
618.39	1461.64
618.74	1453.92
619.08	1445.82
619.43	1438.33
619.78	1431.49
620.12	1424.24
620.47	1416.69
620.82	1408.62
621.16	1401.33
621.51	1393.79
621.85	1386.29
622.20	1377.89
622.55	1369.74
622.89	1361.99
623.24	1354.37
623.59	1346.96
623.93	1339.44
624.28	1332.23
624.62	1324.85
624.97	1317.79
625.32	1311.11
625.66	1304.13
626.01	1297.11
626.35	1289.65
626.70	1282.07
627.04	1274.26
627.39	1266.68
627.73	1259.44
628.08	1252.67
628.43	1245.47
628.77	1238.24
629.12	1230.75
629.46	1223.66
629.81	1216.41
630.15	1209.34
630.50	1202.03
630.84	1193.96
631.19	1186.17
631.53	1178.84
631.88	1171.42
632.22	1164.00
632.57	1156.92
632.91	1149.65
633.26	1142.41
633.60	1135.17
633.95	1128.24
634.29	1121.39
634.64	1114.81
634.98	1107.51
635.32	1100.56
635.67	1094.12
636.01	1087.52
636.36	1080.82
636.70	1074.38
637.05	1067.88
637.39	1061.40
637.73	1055.02
638.08	1049.35
638.42	1043.41
638.77	1036.97
639.11	1030.44
639.45	1024.13
639.80	1017.50
640.14	1011.05
640.49	1004.54
640.83	998.37
641.17	992.09
641.52	985.84
641.86	979.42
642.20	973.69
642.55	967.48
642.89	961.06
643.23	954.65
643.58	948.85
643.92	942.70
644.26	936.62
644.61	930.73
644.95	924.74
645.29	918.11
645.64	911.48
645.98	905.26
646.32	899.47
646.66	893.49
647.01	887.82
647.35	882.12
647.69	876.41
648.04	870.89
648.38	865.20
648.72	859.29
649.06	853.31
649.41	847.46
649.75	841.43
650.09	835.48
650.43	829.71
650.78	823.65
651.12	817.76
651.46	812.04
651.80	806.24
652.14	800.91
652.49	795.54
652.83	790.40
653.17	784.73
653.51	779.09
653.85	773.65
654.20	767.93
654.54	762.03
654.88	756.34
655.22	750.49
655.56	744.81
655.90	739.40
656.25	734.22
656.59	728.91
656.93	723.96
657.27	718.85
657.61	713.44
657.95	708.45
658.29	703.36
658.64	698.21
658.98	693.00
659.32	687.60
659.66	682.50
660.00	677.30
660.34	672.46
660.68	667.58
661.02	662.68
661.36	658.09
661.70	653.62
662.05	649.26
662.39	644.96
662.73	640.60
663.07	636.20
663.41	631.77
663.75	627.29
664.09	622.73
664.43	618.45
664.77	614.38
665.11	610.18
665.45	606.22
665.79	602.21
666.13	598.16
666.47	594.07
666.81	589.92
667.15	585.88
667.49	582.06
667.83	578.32
668.17	574.41
668.51	570.41
668.85	566.46
669.19	562.69
669.53	558.91
669.87	555.09
670.21	551.53
670.55	547.96
670.89	544.64
671.23	541.25
671.57	537.80
671.91	534.36
672.25	530.90
672.58	527.40
672.92	524.08
673.26	520.94
673.60	517.88
673.94	514.86
674.28	511.98
674.62	509.07
674.96	506.01
675.30	503.18
675.64	500.28
675.97	497.61
676.31	494.79
676.65	491.90
676.99	489.19
677.33	486.33
677.67	483.56
678.01	480.51
678.34	477.60
678.68	474.77
679.02	472.02
679.36	469.33
679.70	466.63
680.04	463.82
680.37	461.00
680.71	458.28
681.05	455.71
681.39	453.04
681.73	450.39
682.06	447.90
682.40	445.38
682.74	442.93
683.08	440.37
683.42	437.82
683.75	435.38
684.09	432.93
684.43	430.56
684.77	428.13
685.10	425.83
685.44	423.58
685.78	421.32
686.12	419.09
686.45	416.87
686.79	414.63
687.13	412.48
687.46	410.39
687.80	408.25
688.14	406.04
688.48	403.95
688.81	401.76
689.15	399.62
689.49	397.50
689.82	395.45
690.16	393.37
690.50	391.42
690.83	389.49
691.17	387.57
691.51	385.61
691.84	383.75
692.18	381.83
692.52	379.84
692.85	377.88
693.19	375.96
693.52	374.13
693.86	372.34
694.20	370.58
694.53	368.76
694.87	366.91
695.21	365.16
695.54	363.41
695.88	361.71
696.21	360.01
696.55	358.33
696.88	356.64
697.22	355.06
697.56	353.48
697.89	351.84
698.23	350.15
698.56	348.57
698.90	347.02
699.23	345.41
699.57	343.89
699.90	342.37
700.24	340.87
700.58	339.37
700.91	337.88
701.25	336.45
701.58	335.12
701.92	333.76
702.25	332.37
702.59	330.99
702.92	329.67
703.26	328.38
703.59	327.10
703.93	325.95
704.26	324.71
704.60	323.39
704.93	322.15
705.26	320.96
705.60	319.83
705.93	318.70
706.27	317.69
706.60	316.67
706.94	315.65
707.27	314.52
707.61	313.46
707.94	312.44
708.27	311.40
708.61	310.34
708.94	309.39
709.28	308.45
709.61	307.54
709.94	306.62
710.28	305.59
710.61	304.64
710.95	303.56
711.28	302.67
711.61	301.78
711.95	300.87
712.28	299.93
712.61	298.94
712.95	298.00
713.28	297.16
713.61	296.30
713.95	295.42
714.28	294.62
714.61	293.76
714.95	293.01
715.28	292.17
715.61	291.27
715.95	290.44
716.28	289.62
716.61	288.79
716.95	288.00
717.28	287.30
717.61	286.55
717.94	285.85
718.28	285.05
718.61	284.34
718.94	283.67
719.27	283.04
719.61	282.44
719.94	281.84
720.27	281.10
720.60	280.46
720.94	279.84
721.27	279.29
721.60	278.76
721.93	278.12
722.27	277.55
722.60	277.08
722.93	276.53
723.26	275.97
723.59	275.41
723.93	274.85
724.26	274.32
724.59	273.79
724.92	273.25
725.25	272.74
725.59	272.17
725.92	271.67
726.25	271.15
726.58	270.64
726.91	270.16
727.24	269.68
727.57	269.20
727.91	268.71
728.24	268.19
728.57	267.69
728.90	267.26
729.23	266.80
729.56	266.33
729.89	265.83
730.22	265.36
730.55	264.95
730.89	264.50
731.22	264.04
731.55	263.59
731.88	263.15
732.21	262.73
732.54	262.31
732.87	261.88
733.20	261.49
733.53	261.10
733.86	260.70
734.19	260.34
734.52	260.00
734.85	259.68
735.18	259.26
735.51	258.87
735.84	258.44
736.17	258.08
736.50	257.67
736.83	257.46
737.16	257.13
737.49	256.73
737.82	256.37
738.15	256.02
738.48	255.68
738.81	255.36
739.14	255.03
739.47	254.73
739.80	254.40
740.13	254.09
740.46	253.78
740.79	253.44
741.12	253.11
741.45	252.72
741.78	252.36
742.11	252.08
742.44	251.76
742.77	251.51
743.10	251.19
743.43	250.89
743.75	250.50
744.08	250.34
744.41	250.09
744.74	249.82
745.07	249.52
745.40	249.28
745.73	249.04
746.06	248.75
746.39	248.47
746.71	248.20
747.04	247.91
747.37	247.64
747.70	247.40
748.03	247.14
748.36	246.97
748.68	246.68
749.01	246.46
749.34	246.21
749.67	245.99
750.00	245.78
750.33	245.64
750.65	245.44
750.98	245.11
751.31	244.87
751.64	244.66
751.97	244.49
752.29	244.29
752.62	244.04
752.95	243.85
753.28	243.67
753.60	243.49
753.93	243.33
754.26	243.13
754.59	242.93
754.91	242.77
755.24	242.54
755.57	242.40
755.90	242.20
756.22	242.07
756.55	241.89
756.88	241.70
757.20	241.48
757.53	241.29
757.86	241.13
758.19	241.01
758.51	240.87
758.84	240.71
759.17	240.52
759.49	240.42
759.82	240.32
760.15	240.19
760.47	240.06
760.80	239.89
761.13	239.78
761.45	239.65
761.78	239.50
762.11	239.37
762.43	239.25
762.76	239.12
763.08	238.96
763.41	238.83
763.74	238.71
764.06	238.58
764.39	238.43
764.71	238.30
765.04	238.18
765.37	238.03
765.69	237.90
766.02	237.82
766.34	237.66
766.67	237.54
767.00	237.44
767.32	237.34
767.65	237.29
767.97	237.15
768.30	237.05
768.62	236.93
768.95	236.82
769.27	236.71
769.60	236.59
769.92	236.50
770.25	236.35
770.57	236.22
770.90	236.11
771.22	236.02
771.55	235.91
771.87	235.80
772.20	235.71
772.52	235.67
772.85	235.67
773.17	235.58
773.50	235.43
773.82	235.32
774.15	235.19
774.47	235.02
774.80	234.96
775.12	234.84
775.45	234.75
775.77	234.67
776.09	234.59
776.42	234.52
776.74	234.45
777.07	234.38
777.39	234.33
777.72	234.26
778.04	234.19
778.36	234.12
778.69	234.06
779.01	233.97
779.33	233.82
779.66	233.66
779.98	233.59
780.31	233.55
780.63	233.53
780.95	233.46
781.28	233.38
781.60	233.27
781.92	233.21
782.25	233.13
782.57	233.07
782.89	233.02
783.22	232.94
783.54	232.89
783.86	232.82
784.19	232.74
784.51	232.67
784.83	232.61
785.16	232.52
785.48	232.46
785.80	232.41
786.12	232.37
786.45	232.26
786.77	232.19
787.09	232.12
