SpectraSuite Data File
++++++++++++++++++++++++++++++++++++
Date: Fri Feb 01 16:02:08 EST 2013
User: group
Dark Spectrum Present: No
Reference Spectrum Present: No
Number of Sampled Component Spectra: 1
Spectrometers: USB2E7196
Integration Time (usec): 35000 (USB2E7196)
Spectra Averaged: 100 (USB2E7196)
Boxcar Smoothing: 10 (USB2E7196)
Correct for Electrical Dark: No (USB2E7196)
Strobe/Lamp Enabled: No (USB2E7196)
Correct for Detector Non-linearity: No (USB2E7196)
Correct for Stray Light: No (USB2E7196)
Number of Pixels in Processed Spectrum: 2048
>>>>>Begin Processed Spectral Data<<<<<
339.09	0.00
339.48	214.46
339.86	216.56
340.24	217.50
340.63	218.36
341.01	221.53
341.39	221.30
341.78	222.80
342.16	224.03
342.54	224.30
342.93	212.98
343.31	223.76
343.69	224.33
344.07	224.75
344.46	225.15
344.84	225.55
345.22	225.82
345.60	226.06
345.99	226.25
346.37	226.39
346.75	226.47
347.13	226.53
347.52	226.61
347.90	226.62
348.28	226.65
348.66	226.71
349.05	226.67
349.43	226.74
349.81	226.79
350.19	226.86
350.57	226.89
350.96	226.96
351.34	227.02
351.72	227.10
352.10	227.19
352.48	227.31
352.87	227.34
353.25	227.40
353.63	227.49
354.01	227.55
354.39	227.63
354.77	227.74
355.15	227.85
355.54	227.88
355.92	227.95
356.30	228.05
356.68	228.17
357.06	228.28
357.44	228.31
357.82	228.37
358.20	228.42
358.58	228.47
358.97	228.54
359.35	228.63
359.73	228.71
360.11	228.76
360.49	228.79
360.87	228.87
361.25	228.92
361.63	228.95
362.01	229.00
362.39	229.02
362.77	229.07
363.15	229.06
363.53	229.12
363.91	229.16
364.29	229.16
364.67	229.08
365.05	229.13
365.43	229.18
365.81	229.20
366.19	229.27
366.57	229.31
366.95	229.31
367.33	229.28
367.71	229.25
368.09	229.31
368.47	229.32
368.85	229.28
369.23	229.26
369.61	229.24
369.99	229.25
370.37	229.21
370.75	229.20
371.13	229.14
371.51	229.06
371.89	229.03
372.27	229.01
372.65	228.98
373.03	228.89
373.41	228.85
373.78	228.81
374.16	228.68
374.54	228.59
374.92	228.50
375.30	228.41
375.68	228.35
376.06	228.25
376.44	228.18
376.82	228.13
377.19	228.09
377.57	228.02
377.95	227.90
378.33	227.84
378.71	227.75
379.09	227.70
379.47	227.64
379.84	227.52
380.22	227.45
380.60	227.36
380.98	227.28
381.36	227.18
381.73	227.10
382.11	227.04
382.49	226.96
382.87	226.88
383.25	226.80
383.62	226.84
384.00	226.72
384.38	226.65
384.76	226.62
385.13	226.59
385.51	226.51
385.89	226.48
386.27	226.46
386.64	226.40
387.02	226.40
387.40	226.35
387.78	226.32
388.15	226.28
388.53	226.24
388.91	226.21
389.29	226.15
389.66	226.10
390.04	226.08
390.42	226.09
390.79	226.08
391.17	226.08
391.55	225.94
391.92	225.96
392.30	225.98
392.68	225.96
393.05	225.97
393.43	226.01
393.81	226.01
394.18	225.97
394.56	225.99
394.94	225.99
395.31	225.97
395.69	226.03
396.06	226.04
396.44	226.09
396.82	226.13
397.19	226.28
397.57	226.34
397.95	226.36
398.32	226.39
398.70	226.47
399.07	226.56
399.45	226.65
399.82	226.73
400.20	226.79
400.58	226.87
400.95	226.89
401.33	226.98
401.70	227.08
402.08	227.20
402.45	227.31
402.83	227.42
403.20	227.57
403.58	227.64
403.95	227.79
404.33	227.96
404.71	228.08
405.08	228.22
405.46	228.35
405.83	228.54
406.21	228.68
406.58	228.89
406.96	229.04
407.33	229.20
407.70	229.37
408.08	229.62
408.45	229.84
408.83	230.06
409.20	230.27
409.58	230.48
409.95	230.73
410.33	230.99
410.70	231.24
411.08	231.55
411.45	231.87
411.82	232.17
412.20	232.49
412.57	232.93
412.95	233.19
413.32	233.60
413.69	234.00
414.07	234.46
414.44	234.90
414.82	235.41
415.19	236.02
415.56	236.61
415.94	237.15
416.31	237.82
416.68	238.47
417.06	239.14
417.43	239.84
417.81	240.64
418.18	241.44
418.55	242.29
418.93	243.14
419.30	244.01
419.67	244.96
420.04	245.93
420.42	246.91
420.79	248.09
421.16	249.25
421.54	250.46
421.91	251.68
422.28	252.95
422.66	254.25
423.03	255.53
423.40	256.84
423.77	258.26
424.15	259.67
424.52	261.14
424.89	262.77
425.26	264.33
425.64	265.74
426.01	267.31
426.38	268.96
426.75	270.63
427.13	272.37
427.50	274.16
427.87	276.04
428.24	277.89
428.61	279.65
428.99	281.57
429.36	283.67
429.73	285.72
430.10	287.72
430.47	289.79
430.85	291.91
431.22	294.16
431.59	296.51
431.96	298.74
432.33	301.19
432.70	303.58
433.08	306.43
433.45	309.09
433.82	311.70
434.19	314.60
434.56	317.43
434.93	320.09
435.30	322.73
435.68	325.55
436.05	328.41
436.42	331.20
436.79	333.74
437.16	336.44
437.53	339.26
437.90	342.05
438.27	344.75
438.64	347.57
439.01	350.13
439.38	352.35
439.75	354.46
440.13	356.93
440.50	359.27
440.87	361.07
441.24	362.99
441.61	365.14
441.98	366.61
442.35	368.40
442.72	370.26
443.09	372.08
443.46	373.06
443.83	373.61
444.20	374.09
444.57	374.93
444.94	375.18
445.31	375.49
445.68	375.86
446.05	375.93
446.42	375.54
446.79	375.14
447.16	374.69
447.53	374.40
447.90	373.29
448.27	372.10
448.64	370.53
449.01	369.40
449.37	367.43
449.74	365.51
450.11	363.22
450.48	360.78
450.85	358.20
451.22	356.10
451.59	354.07
451.96	352.14
452.33	349.51
452.70	347.19
453.07	344.40
453.43	341.48
453.80	338.75
454.17	336.07
454.54	333.50
454.91	330.81
455.28	328.20
455.65	325.69
456.02	323.26
456.38	321.05
456.75	318.36
457.12	316.12
457.49	313.96
457.86	311.80
458.23	309.93
458.59	307.89
458.96	305.82
459.33	303.99
459.70	302.15
460.07	300.66
460.43	298.91
460.80	297.31
461.17	295.88
461.54	294.39
461.91	292.95
462.27	291.52
462.64	290.28
463.01	288.88
463.38	287.61
463.74	286.24
464.11	285.11
464.48	284.13
464.85	283.02
465.21	282.14
465.58	281.25
465.95	280.14
466.32	279.25
466.68	278.36
467.05	277.46
467.42	276.56
467.78	275.67
468.15	274.79
468.52	274.13
468.88	273.27
469.25	272.50
469.62	271.88
469.98	271.25
470.35	270.59
470.72	269.99
471.08	269.35
471.45	268.86
471.82	268.33
472.18	267.75
472.55	267.31
472.92	266.76
473.28	266.25
473.65	265.81
474.02	265.37
474.38	264.99
474.75	264.67
475.11	264.32
475.48	264.04
475.85	263.83
476.21	263.59
476.58	263.45
476.94	263.30
477.31	263.16
477.67	262.98
478.04	262.90
478.41	262.84
478.77	262.88
479.14	262.80
479.50	262.81
479.87	262.82
480.23	262.89
480.60	262.98
480.96	263.09
481.33	263.28
481.69	263.49
482.06	263.70
482.42	263.89
482.79	264.15
483.15	264.43
483.52	264.76
483.88	265.09
484.25	265.45
484.61	265.86
484.98	266.29
485.34	266.88
485.71	267.41
486.07	268.05
486.44	268.59
486.80	269.31
487.17	270.06
487.53	270.92
487.90	271.75
488.26	272.68
488.62	273.67
488.99	274.64
489.35	275.66
489.72	276.77
490.08	277.96
490.44	279.21
490.81	280.54
491.17	281.94
491.54	283.42
491.90	284.92
492.26	286.59
492.63	288.33
492.99	290.09
493.36	292.02
493.72	294.11
494.08	296.23
494.45	298.48
494.81	300.83
495.17	303.25
495.54	305.82
495.90	308.52
496.26	311.34
496.63	314.36
496.99	317.47
497.35	320.76
497.72	324.18
498.08	327.70
498.44	331.41
498.80	335.30
499.17	339.35
499.53	343.57
499.89	347.95
500.26	352.45
500.62	357.10
500.98	362.07
501.34	367.18
501.71	372.49
502.07	377.94
502.43	383.60
502.79	389.45
503.16	395.51
503.52	401.81
503.88	408.26
504.24	414.91
504.60	421.81
504.97	428.92
505.33	436.22
505.69	443.98
506.05	451.80
506.41	459.69
506.78	467.93
507.14	476.41
507.50	485.08
507.86	494.15
508.22	503.39
508.59	512.61
508.95	522.13
509.31	531.98
509.67	542.05
510.03	552.35
510.39	562.93
510.75	573.82
511.12	584.85
511.48	596.16
511.84	607.55
512.20	619.10
512.56	631.07
512.92	643.25
513.28	655.50
513.64	667.92
514.00	680.68
514.37	693.58
514.73	706.65
515.09	719.79
515.45	733.03
515.81	746.66
516.17	760.69
516.53	774.77
516.89	788.95
517.25	803.13
517.61	817.48
517.97	831.91
518.33	846.25
518.69	860.93
519.05	875.85
519.41	891.02
519.77	906.55
520.13	922.00
520.49	937.42
520.85	952.86
521.21	968.59
521.57	984.74
521.93	1000.44
522.29	1016.77
522.65	1032.87
523.01	1049.00
523.37	1064.99
523.73	1081.10
524.09	1097.23
524.45	1113.56
524.81	1130.18
525.17	1147.00
525.53	1163.87
525.89	1180.78
526.25	1197.54
526.61	1213.95
526.97	1230.60
527.33	1246.94
527.68	1263.42
528.04	1279.87
528.40	1296.42
528.76	1313.49
529.12	1330.12
529.48	1347.00
529.84	1362.93
530.20	1379.63
530.56	1396.71
530.91	1414.09
531.27	1430.68
531.63	1447.03
531.99	1463.46
532.35	1479.29
532.71	1495.06
533.07	1511.13
533.42	1526.93
533.78	1542.98
534.14	1559.20
534.50	1574.62
534.86	1590.59
535.21	1605.76
535.57	1621.63
535.93	1637.04
536.29	1651.70
536.65	1666.76
537.00	1681.53
537.36	1696.80
537.72	1711.24
538.08	1725.69
538.44	1739.35
538.79	1753.39
539.15	1767.13
539.51	1780.87
539.87	1795.28
540.22	1808.97
540.58	1822.91
540.94	1836.23
541.29	1849.06
541.65	1861.60
542.01	1874.73
542.37	1886.98
542.72	1899.46
543.08	1911.22
543.44	1923.64
543.79	1934.86
544.15	1945.79
544.51	1957.33
544.87	1968.49
545.22	1979.32
545.58	1989.42
545.94	1999.32
546.29	2009.16
546.65	2018.87
547.01	2028.11
547.36	2036.77
547.72	2045.25
548.07	2052.95
548.43	2061.10
548.79	2069.11
549.14	2076.48
549.50	2083.82
549.86	2091.52
550.21	2098.82
550.57	2105.94
550.92	2112.49
551.28	2119.57
551.64	2126.46
551.99	2132.93
552.35	2138.80
552.70	2144.89
553.06	2150.90
553.41	2157.07
553.77	2163.02
554.13	2169.16
554.48	2175.40
554.84	2180.72
555.19	2186.11
555.55	2191.25
555.90	2195.70
556.26	2200.53
556.61	2205.56
556.97	2209.77
557.32	2213.76
557.68	2217.78
558.03	2222.09
558.39	2225.73
558.74	2230.45
559.10	2234.46
559.45	2238.17
559.81	2242.54
560.16	2246.44
560.52	2249.70
560.87	2253.22
561.23	2255.88
561.58	2258.79
561.94	2261.30
562.29	2263.82
562.64	2266.50
563.00	2269.11
563.35	2272.65
563.71	2275.82
564.06	2278.97
564.42	2281.91
564.77	2284.56
565.12	2286.94
565.48	2288.83
565.83	2290.79
566.19	2291.93
566.54	2292.79
566.89	2293.94
567.25	2294.62
567.60	2295.89
567.96	2297.56
568.31	2298.34
568.66	2299.56
569.02	2300.22
569.37	2300.44
569.72	2301.25
570.08	2301.34
570.43	2301.39
570.78	2300.86
571.14	2299.41
571.49	2298.14
571.84	2297.95
572.20	2296.85
572.55	2295.86
572.90	2294.42
573.26	2293.09
573.61	2291.60
573.96	2289.86
574.31	2286.94
574.67	2283.93
575.02	2280.39
575.37	2276.96
575.72	2273.17
576.08	2269.81
576.43	2266.51
576.78	2263.04
577.13	2259.89
577.49	2256.99
577.84	2253.46
578.19	2249.73
578.54	2246.09
578.90	2241.76
579.25	2236.10
579.60	2231.14
579.95	2226.04
580.30	2220.98
580.66	2215.81
581.01	2210.78
581.36	2205.88
581.71	2201.69
582.06	2197.22
582.42	2192.75
582.77	2187.64
583.12	2183.14
583.47	2178.36
583.82	2173.36
584.17	2167.96
584.53	2162.49
584.88	2156.83
585.23	2151.16
585.58	2145.62
585.93	2140.06
586.28	2135.32
586.63	2130.15
586.98	2124.94
587.34	2120.20
587.69	2115.33
588.04	2109.94
588.39	2104.26
588.74	2097.91
589.09	2091.79
589.44	2085.07
589.79	2079.12
590.14	2073.48
590.49	2066.98
590.84	2060.59
591.19	2054.56
591.54	2048.16
591.89	2040.83
592.25	2033.83
592.60	2026.63
592.95	2019.13
593.30	2011.78
593.65	2004.26
594.00	1997.39
594.35	1990.29
594.70	1982.29
595.05	1975.05
595.40	1967.90
595.75	1960.46
596.10	1954.23
596.45	1947.41
596.80	1941.28
597.15	1934.59
597.50	1927.45
597.85	1920.92
598.19	1914.31
598.54	1907.11
598.89	1900.38
599.24	1894.60
599.59	1888.02
599.94	1881.82
600.29	1875.37
600.64	1868.98
600.99	1861.57
601.34	1854.73
601.69	1847.83
602.04	1840.97
602.39	1833.62
602.74	1826.72
603.08	1819.95
603.43	1813.18
603.78	1805.88
604.13	1798.59
604.48	1791.19
604.83	1784.33
605.18	1777.31
605.53	1769.35
605.87	1761.36
606.22	1754.18
606.57	1746.11
606.92	1738.73
607.27	1731.51
607.62	1724.68
607.96	1717.23
608.31	1710.66
608.66	1703.04
609.01	1695.44
609.36	1687.92
609.70	1680.00
610.05	1671.97
610.40	1664.22
610.75	1656.00
611.10	1648.38
611.44	1639.87
611.79	1631.99
612.14	1623.29
612.49	1614.17
612.83	1605.78
613.18	1597.61
613.53	1589.43
613.88	1580.85
614.22	1572.64
614.57	1564.14
614.92	1556.13
615.27	1548.56
615.61	1540.12
615.96	1532.03
616.31	1524.39
616.65	1516.99
617.00	1509.31
617.35	1501.72
617.70	1493.49
618.04	1484.95
618.39	1476.69
618.74	1469.17
619.08	1460.88
619.43	1453.27
619.78	1446.36
620.12	1439.06
620.47	1431.61
620.82	1423.51
621.16	1416.21
621.51	1408.61
621.85	1401.00
622.20	1392.48
622.55	1384.23
622.89	1376.40
623.24	1368.76
623.59	1361.37
623.93	1353.89
624.28	1346.80
624.62	1339.24
624.97	1331.95
625.32	1325.13
625.66	1318.14
626.01	1310.92
626.35	1303.35
626.70	1295.61
627.04	1287.88
627.39	1280.18
627.73	1272.81
628.08	1265.88
628.43	1258.44
628.77	1250.95
629.12	1243.34
629.46	1236.14
629.81	1228.75
630.15	1221.49
630.50	1214.15
630.84	1205.96
631.19	1198.08
631.53	1190.50
631.88	1182.89
632.22	1175.28
632.57	1167.94
632.91	1160.37
633.26	1152.92
633.60	1145.72
633.95	1138.75
634.29	1131.67
634.64	1125.04
634.98	1117.68
635.32	1110.55
635.67	1104.07
636.01	1097.47
636.36	1090.69
636.70	1084.24
637.05	1077.67
637.39	1071.31
637.73	1064.78
638.08	1058.80
638.42	1052.74
638.77	1046.23
639.11	1039.68
639.45	1033.36
639.80	1026.65
640.14	1020.27
640.49	1013.83
640.83	1007.37
641.17	1001.04
641.52	994.71
641.86	988.19
642.20	982.36
642.55	976.03
642.89	969.46
643.23	962.91
643.58	957.05
643.92	950.73
644.26	944.59
644.61	938.48
644.95	932.39
645.29	925.87
645.64	919.09
645.98	912.80
646.32	907.01
646.66	900.93
647.01	895.16
647.35	889.38
647.69	883.53
648.04	878.01
648.38	872.16
648.72	866.23
649.06	860.20
649.41	854.35
649.75	848.37
650.09	842.49
650.43	836.75
650.78	830.61
651.12	824.68
651.46	818.99
651.80	813.28
652.14	807.94
652.49	802.56
652.83	797.41
653.17	791.67
653.51	785.85
653.85	780.51
654.20	774.81
654.54	768.85
654.88	763.08
655.22	757.24
655.56	751.60
655.90	746.14
656.25	740.97
656.59	735.50
656.93	730.44
657.27	725.26
657.61	719.78
657.95	714.67
658.29	709.63
658.64	704.32
658.98	698.99
659.32	693.51
659.66	688.29
660.00	682.96
660.34	678.04
660.68	673.14
661.02	668.04
661.36	663.38
661.70	658.83
662.05	654.47
662.39	650.09
662.73	645.61
663.07	641.16
663.41	636.61
663.75	632.15
664.09	627.57
664.43	623.16
664.77	619.07
665.11	614.82
665.45	610.73
665.79	606.62
666.13	602.41
666.47	598.31
666.81	594.15
667.15	589.99
667.49	586.09
667.83	582.27
668.17	578.31
668.51	574.20
668.85	570.23
669.19	566.41
669.53	562.53
669.87	558.68
670.21	555.02
670.55	551.39
670.89	547.92
671.23	544.49
671.57	540.97
671.91	537.47
672.25	534.01
672.58	530.44
672.92	527.08
673.26	523.95
673.60	520.82
673.94	517.68
674.28	514.84
674.62	511.90
674.96	508.78
675.30	505.93
675.64	503.02
675.97	500.21
676.31	497.32
676.65	494.39
676.99	491.67
677.33	488.78
677.67	485.99
678.01	482.95
678.34	479.95
678.68	477.13
679.02	474.26
679.36	471.47
679.70	468.74
680.04	465.96
680.37	463.09
680.71	460.29
681.05	457.70
681.39	454.94
681.73	452.26
682.06	449.77
682.40	447.17
682.74	444.62
683.08	442.14
683.42	439.56
683.75	437.12
684.09	434.58
684.43	432.18
684.77	429.67
685.10	427.38
685.44	425.16
685.78	422.85
686.12	420.63
686.45	418.33
686.79	416.03
687.13	413.89
687.46	411.75
687.80	409.61
688.14	407.38
688.48	405.34
688.81	403.12
689.15	400.97
689.49	398.87
689.82	396.84
690.16	394.66
690.50	392.71
690.83	390.78
691.17	388.80
691.51	386.87
691.84	385.03
692.18	383.09
692.52	381.05
692.85	379.09
693.19	377.17
693.52	375.37
693.86	373.59
694.20	371.78
694.53	369.98
694.87	368.15
695.21	366.40
695.54	364.56
695.88	362.83
696.21	361.08
696.55	359.38
696.88	357.67
697.22	356.08
697.56	354.45
697.89	352.76
698.23	351.17
698.56	349.53
698.90	347.94
699.23	346.32
699.57	344.78
699.90	343.28
700.24	341.74
700.58	340.20
700.91	338.67
701.25	337.20
701.58	335.82
701.92	334.43
702.25	333.05
702.59	331.66
702.92	330.30
703.26	329.02
703.59	327.69
703.93	326.50
704.26	325.24
704.60	323.91
704.93	322.65
705.26	321.36
705.60	320.17
705.93	318.97
706.27	317.88
706.60	316.81
706.94	315.70
707.27	314.57
707.61	313.49
707.94	312.44
708.27	311.34
708.61	310.26
708.94	309.21
709.28	308.19
709.61	307.22
709.94	306.29
710.28	305.26
710.61	304.30
710.95	303.23
711.28	302.31
711.61	301.39
711.95	300.47
712.28	299.54
712.61	298.56
712.95	297.65
713.28	296.79
713.61	295.93
713.95	295.04
714.28	294.23
714.61	293.37
714.95	292.59
715.28	291.75
715.61	290.84
715.95	290.04
716.28	289.22
716.61	288.40
716.95	287.63
717.28	286.86
717.61	286.14
717.94	285.44
718.28	284.61
718.61	283.86
718.94	283.18
719.27	282.51
719.61	281.90
719.94	281.27
720.27	280.53
720.60	279.85
720.94	279.23
721.27	278.63
721.60	278.05
721.93	277.44
722.27	276.92
722.60	276.43
722.93	275.86
723.26	275.33
723.59	274.78
723.93	274.23
724.26	273.71
724.59	273.12
724.92	272.61
725.25	272.15
725.59	271.66
725.92	271.15
726.25	270.68
726.58	270.22
726.91	269.71
727.24	269.24
727.57	268.81
727.91	268.34
728.24	267.90
728.57	267.41
728.90	266.97
729.23	266.46
729.56	266.01
729.89	265.52
730.22	265.03
730.55	264.55
730.89	264.09
731.22	263.66
731.55	263.23
731.88	262.77
732.21	262.35
732.54	261.90
732.87	261.47
733.20	261.04
733.53	260.63
733.86	260.26
734.19	259.85
734.52	259.43
734.85	259.09
735.18	258.65
735.51	258.31
735.84	257.95
736.17	257.61
736.50	257.19
736.83	256.94
737.16	256.64
737.49	256.31
737.82	255.94
738.15	255.58
738.48	255.24
738.81	254.92
739.14	254.56
739.47	254.23
739.80	253.92
740.13	253.64
740.46	253.29
740.79	252.94
741.12	252.66
741.45	252.33
741.78	252.00
742.11	251.69
742.44	251.32
742.77	250.97
743.10	250.67
743.43	250.38
743.75	250.02
744.08	249.84
744.41	249.55
744.74	249.29
745.07	249.01
745.40	248.75
745.73	248.52
746.06	248.28
746.39	248.03
746.71	247.73
747.04	247.44
747.37	247.19
747.70	246.95
748.03	246.71
748.36	246.50
748.68	246.23
749.01	246.00
749.34	245.78
749.67	245.54
750.00	245.31
750.33	245.15
750.65	244.94
750.98	244.59
751.31	244.38
751.64	244.15
751.97	243.99
752.29	243.78
752.62	243.52
752.95	243.29
753.28	243.06
753.60	242.89
753.93	242.71
754.26	242.49
754.59	242.25
754.91	242.04
755.24	241.84
755.57	241.64
755.90	241.44
756.22	241.25
756.55	241.06
756.88	240.86
757.20	240.62
757.53	240.40
757.86	240.22
758.19	240.08
758.51	239.92
758.84	239.72
759.17	239.57
759.49	239.43
759.82	239.33
760.15	239.19
760.47	239.03
760.80	238.85
761.13	238.74
761.45	238.64
761.78	238.52
762.11	238.41
762.43	238.29
762.76	238.18
763.08	238.06
763.41	237.96
763.74	237.83
764.06	237.72
764.39	237.59
764.71	237.47
765.04	237.31
765.37	237.17
765.69	237.06
766.02	236.91
766.34	236.78
766.67	236.60
767.00	236.53
767.32	236.48
767.65	236.46
767.97	236.37
768.30	236.23
768.62	236.08
768.95	235.96
769.27	235.88
769.60	235.80
769.92	235.67
770.25	235.58
770.57	235.47
770.90	235.38
771.22	235.27
771.55	235.21
771.87	235.14
772.20	235.04
772.52	235.06
772.85	235.11
773.17	235.02
773.50	234.93
773.82	234.80
774.15	234.67
774.47	234.50
774.80	234.38
775.12	234.31
775.45	234.24
775.77	234.12
776.09	234.04
776.42	233.92
776.74	233.90
777.07	233.78
777.39	233.71
777.72	233.61
778.04	233.56
778.36	233.49
778.69	233.42
779.01	233.35
779.33	233.17
779.66	233.00
779.98	232.93
780.31	232.85
780.63	232.81
780.95	232.76
781.28	232.69
781.60	232.66
781.92	232.59
782.25	232.52
782.57	232.49
782.89	232.41
783.22	232.32
783.54	232.22
783.86	232.15
784.19	232.08
784.51	232.07
784.83	231.99
785.16	231.90
785.48	231.84
785.80	231.79
786.12	231.75
786.45	231.66
786.77	231.60
787.09	231.55
