SpectraSuite Data File
++++++++++++++++++++++++++++++++++++
Date: Fri Feb 01 15:22:49 EST 2013
User: group
Dark Spectrum Present: No
Reference Spectrum Present: No
Number of Sampled Component Spectra: 1
Spectrometers: USB2E7196
Integration Time (usec): 35000 (USB2E7196)
Spectra Averaged: 100 (USB2E7196)
Boxcar Smoothing: 10 (USB2E7196)
Correct for Electrical Dark: No (USB2E7196)
Strobe/Lamp Enabled: No (USB2E7196)
Correct for Detector Non-linearity: No (USB2E7196)
Correct for Stray Light: No (USB2E7196)
Number of Pixels in Processed Spectrum: 2048
>>>>>Begin Processed Spectral Data<<<<<
339.09	0.00
339.48	214.67
339.86	216.58
340.24	217.54
340.63	219.69
341.01	222.55
341.39	221.82
341.78	223.36
342.16	224.70
342.54	224.53
342.93	213.37
343.31	224.18
343.69	224.74
344.07	225.19
344.46	225.64
344.84	226.02
345.22	226.27
345.60	226.50
345.99	226.68
346.37	226.81
346.75	226.96
347.13	227.03
347.52	227.10
347.90	227.17
348.28	227.19
348.66	227.23
349.05	227.20
349.43	227.24
349.81	227.31
350.19	227.36
350.57	227.37
350.96	227.47
351.34	227.56
351.72	227.64
352.10	227.75
352.48	227.81
352.87	227.86
353.25	227.91
353.63	228.00
354.01	228.08
354.39	228.14
354.77	228.18
355.15	228.29
355.54	228.36
355.92	228.43
356.30	228.49
356.68	228.61
357.06	228.71
357.44	228.76
357.82	228.82
358.20	228.92
358.58	229.00
358.97	229.07
359.35	229.16
359.73	229.23
360.11	229.30
360.49	229.37
360.87	229.41
361.25	229.46
361.63	229.52
362.01	229.57
362.39	229.61
362.77	229.67
363.15	229.66
363.53	229.70
363.91	229.68
364.29	229.71
364.67	229.67
365.05	229.67
365.43	229.67
365.81	229.69
366.19	229.70
366.57	229.71
366.95	229.67
367.33	229.62
367.71	229.58
368.09	229.62
368.47	229.56
368.85	229.53
369.23	229.51
369.61	229.43
369.99	229.42
370.37	229.38
370.75	229.38
371.13	229.36
371.51	229.30
371.89	229.26
372.27	229.23
372.65	229.17
373.03	229.09
373.41	229.03
373.78	228.96
374.16	228.83
374.54	228.74
374.92	228.68
375.30	228.61
375.68	228.51
376.06	228.39
376.44	228.32
376.82	228.23
377.19	228.16
377.57	228.07
377.95	227.98
378.33	227.90
378.71	227.76
379.09	227.70
379.47	227.64
379.84	227.58
380.22	227.49
380.60	227.42
380.98	227.36
381.36	227.29
381.73	227.21
382.11	227.19
382.49	227.13
382.87	227.03
383.25	226.96
383.62	227.01
384.00	226.97
384.38	226.91
384.76	226.89
385.13	226.84
385.51	226.83
385.89	226.76
386.27	226.72
386.64	226.69
387.02	226.62
387.40	226.57
387.78	226.49
388.15	226.45
388.53	226.39
388.91	226.34
389.29	226.32
389.66	226.33
390.04	226.28
390.42	226.28
390.79	226.29
391.17	226.25
391.55	226.15
391.92	226.12
392.30	226.17
392.68	226.18
393.05	226.19
393.43	226.19
393.81	226.20
394.18	226.20
394.56	226.21
394.94	226.26
395.31	226.28
395.69	226.39
396.06	226.46
396.44	226.52
396.82	226.60
397.19	226.70
397.57	226.71
397.95	226.80
398.32	226.85
398.70	226.91
399.07	227.03
399.45	227.11
399.82	227.20
400.20	227.24
400.58	227.30
400.95	227.37
401.33	227.51
401.70	227.70
402.08	227.80
402.45	227.93
402.83	228.08
403.20	228.21
403.58	228.27
403.95	228.38
404.33	228.51
404.71	228.65
405.08	228.83
405.46	229.01
405.83	229.18
406.21	229.35
406.58	229.54
406.96	229.71
407.33	229.87
407.70	230.10
408.08	230.40
408.45	230.64
408.83	230.90
409.20	231.10
409.58	231.25
409.95	231.55
410.33	231.82
410.70	232.05
411.08	232.35
411.45	232.69
411.82	233.02
412.20	233.35
412.57	233.77
412.95	234.11
413.32	234.50
413.69	234.87
414.07	235.32
414.44	235.79
414.82	236.24
415.19	236.81
415.56	237.34
415.94	237.86
416.31	238.46
416.68	239.07
417.06	239.79
417.43	240.46
417.81	241.19
418.18	241.97
418.55	242.81
418.93	243.66
419.30	244.54
419.67	245.45
420.04	246.41
420.42	247.38
420.79	248.51
421.16	249.62
421.54	250.83
421.91	252.04
422.28	253.28
422.66	254.60
423.03	255.86
423.40	257.18
423.77	258.58
424.15	260.02
424.52	261.48
424.89	263.06
425.26	264.63
425.64	266.09
426.01	267.68
426.38	269.28
426.75	270.99
427.13	272.72
427.50	274.54
427.87	276.40
428.24	278.26
428.61	280.01
428.99	282.00
429.36	284.07
429.73	286.10
430.10	288.15
430.47	290.21
430.85	292.35
431.22	294.59
431.59	296.99
431.96	299.27
432.33	301.79
432.70	304.17
433.08	306.99
433.45	309.61
433.82	312.18
434.19	315.09
434.56	317.89
434.93	320.57
435.30	323.18
435.68	326.11
436.05	328.94
436.42	331.74
436.79	334.28
437.16	336.98
437.53	339.86
437.90	342.66
438.27	345.42
438.64	348.30
439.01	350.87
439.38	353.09
439.75	355.22
440.13	357.70
440.50	360.05
440.87	361.87
441.24	363.80
441.61	366.00
441.98	367.51
442.35	369.34
442.72	371.20
443.09	373.04
443.46	374.01
443.83	374.62
444.20	375.09
444.57	375.93
444.94	376.24
445.31	376.58
445.68	376.96
446.05	377.06
446.42	376.64
446.79	376.25
447.16	375.83
447.53	375.54
447.90	374.38
448.27	373.23
448.64	371.66
449.01	370.54
449.37	368.58
449.74	366.69
450.11	364.46
450.48	361.95
450.85	359.43
451.22	357.31
451.59	355.28
451.96	353.37
452.33	350.71
452.70	348.39
453.07	345.56
453.43	342.64
453.80	339.85
454.17	337.18
454.54	334.63
454.91	331.88
455.28	329.18
455.65	326.73
456.02	324.30
456.38	322.17
456.75	319.54
457.12	317.31
457.49	315.08
457.86	312.88
458.23	311.02
458.59	308.93
458.96	306.86
459.33	304.96
459.70	303.10
460.07	301.57
460.43	299.78
460.80	298.15
461.17	296.73
461.54	295.24
461.91	293.83
462.27	292.38
462.64	291.15
463.01	289.80
463.38	288.42
463.74	286.99
464.11	285.79
464.48	284.75
464.85	283.60
465.21	282.73
465.58	281.79
465.95	280.70
466.32	279.79
466.68	278.85
467.05	277.96
467.42	277.04
467.78	276.12
468.15	275.26
468.52	274.54
468.88	273.65
469.25	272.86
469.62	272.21
469.98	271.53
470.35	270.85
470.72	270.24
471.08	269.65
471.45	269.13
471.82	268.61
472.18	268.01
472.55	267.54
472.92	266.96
473.28	266.48
473.65	266.06
474.02	265.60
474.38	265.24
474.75	264.94
475.11	264.60
475.48	264.35
475.85	264.10
476.21	263.90
476.58	263.68
476.94	263.48
477.31	263.26
477.67	263.10
478.04	262.98
478.41	262.90
478.77	262.91
479.14	262.84
479.50	262.83
479.87	262.88
480.23	262.95
480.60	263.04
480.96	263.11
481.33	263.26
481.69	263.46
482.06	263.62
482.42	263.76
482.79	264.00
483.15	264.32
483.52	264.70
483.88	265.01
484.25	265.40
484.61	265.84
484.98	266.34
485.34	266.86
485.71	267.45
486.07	268.05
486.44	268.60
486.80	269.29
487.17	270.02
487.53	270.82
487.90	271.70
488.26	272.66
488.62	273.67
488.99	274.68
489.35	275.71
489.72	276.88
490.08	278.11
490.44	279.37
490.81	280.71
491.17	282.05
491.54	283.55
491.90	285.12
492.26	286.74
492.63	288.47
492.99	290.30
493.36	292.22
493.72	294.27
494.08	296.41
494.45	298.66
494.81	301.02
495.17	303.47
495.54	306.06
495.90	308.74
496.26	311.57
496.63	314.56
496.99	317.70
497.35	320.92
497.72	324.34
498.08	327.85
498.44	331.50
498.80	335.42
499.17	339.46
499.53	343.59
499.89	347.98
500.26	352.46
500.62	357.14
500.98	362.08
501.34	367.16
501.71	372.49
502.07	377.95
502.43	383.59
502.79	389.41
503.16	395.48
503.52	401.78
503.88	408.18
504.24	414.78
504.60	421.66
504.97	428.84
505.33	436.19
505.69	443.95
506.05	451.73
506.41	459.65
506.78	467.79
507.14	476.23
507.50	484.98
507.86	494.02
508.22	503.26
508.59	512.52
508.95	522.13
509.31	531.89
509.67	542.01
510.03	552.32
510.39	562.94
510.75	573.78
511.12	584.66
511.48	595.94
511.84	607.34
512.20	618.90
512.56	630.81
512.92	642.99
513.28	655.24
513.64	667.71
514.00	680.35
514.37	693.32
514.73	706.41
515.09	719.52
515.45	732.88
515.81	746.47
516.17	760.47
516.53	774.51
516.89	788.69
517.25	802.83
517.61	817.17
517.97	831.60
518.33	845.95
518.69	860.75
519.05	875.82
519.41	891.00
519.77	906.56
520.13	922.01
520.49	937.41
520.85	952.95
521.21	968.66
521.57	984.92
521.93	1000.69
522.29	1017.16
522.65	1033.34
523.01	1049.51
523.37	1065.56
523.73	1081.72
524.09	1097.84
524.45	1114.30
524.81	1130.96
525.17	1147.95
525.53	1164.88
525.89	1181.79
526.25	1198.74
526.61	1215.16
526.97	1231.95
527.33	1248.40
527.68	1265.03
528.04	1281.61
528.40	1298.25
528.76	1315.45
529.12	1332.12
529.48	1349.11
529.84	1365.16
530.20	1381.95
530.56	1399.12
530.91	1416.57
531.27	1433.43
531.63	1450.07
531.99	1466.74
532.35	1482.87
532.71	1498.60
533.07	1514.88
533.42	1531.01
533.78	1547.01
534.14	1563.31
534.50	1578.72
534.86	1594.72
535.21	1610.03
535.57	1625.96
535.93	1641.54
536.29	1656.37
536.65	1671.54
537.00	1686.35
537.36	1701.89
537.72	1716.57
538.08	1731.05
538.44	1744.80
538.79	1758.73
539.15	1772.45
539.51	1786.25
539.87	1800.68
540.22	1814.57
540.58	1828.49
540.94	1841.82
541.29	1854.87
541.65	1867.65
542.01	1881.04
542.37	1893.34
542.72	1905.84
543.08	1917.68
543.44	1930.19
543.79	1941.50
544.15	1952.60
544.51	1964.19
544.87	1975.01
545.22	1985.67
545.58	1995.85
545.94	2005.76
546.29	2015.79
546.65	2025.62
547.01	2034.75
547.36	2043.49
547.72	2052.10
548.07	2060.01
548.43	2068.25
548.79	2076.37
549.14	2083.99
549.50	2091.39
549.86	2099.13
550.21	2106.41
550.57	2113.63
550.92	2120.24
551.28	2127.34
551.64	2134.42
551.99	2141.03
552.35	2147.32
552.70	2153.56
553.06	2159.56
553.41	2165.88
553.77	2171.84
554.13	2178.08
554.48	2184.31
554.84	2189.62
555.19	2194.90
555.55	2199.97
555.90	2204.44
556.26	2209.13
556.61	2213.75
556.97	2217.89
557.32	2222.14
557.68	2226.31
558.03	2230.64
558.39	2234.20
558.74	2238.73
559.10	2242.44
559.45	2246.12
559.81	2250.31
560.16	2254.15
560.52	2257.49
560.87	2261.03
561.23	2263.71
561.58	2266.39
561.94	2268.88
562.29	2271.46
562.64	2274.21
563.00	2276.87
563.35	2280.40
563.71	2283.61
564.06	2286.84
564.42	2289.72
564.77	2292.12
565.12	2294.25
565.48	2296.06
565.83	2297.91
566.19	2299.25
566.54	2300.22
566.89	2301.28
567.25	2301.77
567.60	2302.99
567.96	2304.45
568.31	2305.11
568.66	2306.06
569.02	2306.77
569.37	2306.98
569.72	2307.67
570.08	2307.58
570.43	2307.46
570.78	2306.67
571.14	2305.13
571.49	2303.74
571.84	2303.41
572.20	2302.15
572.55	2301.10
572.90	2299.45
573.26	2297.91
573.61	2296.21
573.96	2294.39
574.31	2291.23
574.67	2288.20
575.02	2284.43
575.37	2281.02
575.72	2277.05
576.08	2273.71
576.43	2270.31
576.78	2266.67
577.13	2263.38
577.49	2260.47
577.84	2256.90
578.19	2253.08
578.54	2249.17
578.90	2244.85
579.25	2239.13
579.60	2234.17
579.95	2229.11
580.30	2223.99
580.66	2218.81
581.01	2213.84
581.36	2208.79
581.71	2204.54
582.06	2200.02
582.42	2195.55
582.77	2190.22
583.12	2185.70
583.47	2180.83
583.82	2175.69
584.17	2170.25
584.53	2164.69
584.88	2158.74
585.23	2152.92
585.58	2147.44
585.93	2142.11
586.28	2137.28
586.63	2132.18
586.98	2127.06
587.34	2122.30
587.69	2117.43
588.04	2112.19
588.39	2106.28
588.74	2099.86
589.09	2093.76
589.44	2086.91
589.79	2080.90
590.14	2075.16
590.49	2068.49
590.84	2062.08
591.19	2055.97
591.54	2049.54
591.89	2041.93
592.25	2035.06
592.60	2027.79
592.95	2020.03
593.30	2012.53
593.65	2004.85
594.00	1997.74
594.35	1990.37
594.70	1982.33
595.05	1974.97
595.40	1967.63
595.75	1960.09
596.10	1953.68
596.45	1946.86
596.80	1940.57
597.15	1933.73
597.50	1926.59
597.85	1920.15
598.19	1913.41
598.54	1906.31
598.89	1899.73
599.24	1893.95
599.59	1887.20
599.94	1880.97
600.29	1874.71
600.64	1868.08
600.99	1860.59
601.34	1853.68
601.69	1846.72
602.04	1839.70
602.39	1832.26
602.74	1825.42
603.08	1818.75
603.43	1812.04
603.78	1804.69
604.13	1797.40
604.48	1790.17
604.83	1783.37
605.18	1776.26
605.53	1768.16
605.87	1760.15
606.22	1752.68
606.57	1744.73
606.92	1737.45
607.27	1730.21
607.62	1723.23
607.96	1715.85
608.31	1709.20
608.66	1701.49
609.01	1693.75
609.36	1686.21
609.70	1678.20
610.05	1669.92
610.40	1662.16
610.75	1653.77
611.10	1646.09
611.44	1637.78
611.79	1629.70
612.14	1620.95
612.49	1611.98
612.83	1603.65
613.18	1595.45
613.53	1587.48
613.88	1578.99
614.22	1570.64
614.57	1561.99
614.92	1553.92
615.27	1546.34
615.61	1537.95
615.96	1529.99
616.31	1522.46
616.65	1515.06
617.00	1507.49
617.35	1499.91
617.70	1491.45
618.04	1482.93
618.39	1474.64
618.74	1467.01
619.08	1458.76
619.43	1451.10
619.78	1444.10
620.12	1436.92
620.47	1429.36
620.82	1421.13
621.16	1413.67
621.51	1406.12
621.85	1398.53
622.20	1390.01
622.55	1381.74
622.89	1374.01
623.24	1366.52
623.59	1359.26
623.93	1351.75
624.28	1344.52
624.62	1337.04
624.97	1329.90
625.32	1323.23
625.66	1316.26
626.01	1308.98
626.35	1301.48
626.70	1293.81
627.04	1285.97
627.39	1278.29
627.73	1270.93
628.08	1263.97
628.43	1256.59
628.77	1249.22
629.12	1241.69
629.46	1234.43
629.81	1227.08
630.15	1219.81
630.50	1212.33
630.84	1204.04
631.19	1196.12
631.53	1188.72
631.88	1181.10
632.22	1173.44
632.57	1166.10
632.91	1158.57
633.26	1151.26
633.60	1143.89
633.95	1136.83
634.29	1129.85
634.64	1123.20
634.98	1115.85
635.32	1108.85
635.67	1102.36
636.01	1095.73
636.36	1088.89
636.70	1082.50
637.05	1075.93
637.39	1069.49
637.73	1062.96
638.08	1057.10
638.42	1051.06
638.77	1044.50
639.11	1037.98
639.45	1031.72
639.80	1025.12
640.14	1018.59
640.49	1011.89
640.83	1005.66
641.17	999.36
641.52	993.08
641.86	986.63
642.20	980.68
642.55	974.34
642.89	967.83
643.23	961.24
643.58	955.46
643.92	949.22
644.26	943.07
644.61	937.07
644.95	931.02
645.29	924.37
645.64	917.68
645.98	911.42
646.32	905.56
646.66	899.47
647.01	893.65
647.35	888.08
647.69	882.41
648.04	876.94
648.38	871.12
648.72	865.09
649.06	859.00
649.41	853.19
649.75	847.08
650.09	841.08
650.43	835.33
650.78	829.20
651.12	823.24
651.46	817.49
651.80	811.65
652.14	806.25
652.49	800.96
652.83	795.85
653.17	790.15
653.51	784.39
653.85	778.97
654.20	773.32
654.54	767.25
654.88	761.59
655.22	755.71
655.56	750.07
655.90	744.67
656.25	739.39
656.59	734.07
656.93	729.02
657.27	723.92
657.61	718.51
657.95	713.43
658.29	708.41
658.64	703.18
658.98	697.95
659.32	692.54
659.66	687.30
660.00	681.95
660.34	677.03
660.68	672.10
661.02	667.12
661.36	662.38
661.70	657.91
662.05	653.46
662.39	649.10
662.73	644.60
663.07	640.21
663.41	635.78
663.75	631.24
664.09	626.71
664.43	622.32
664.77	618.16
665.11	613.87
665.45	609.76
665.79	605.69
666.13	601.56
666.47	597.44
666.81	593.21
667.15	589.11
667.49	585.20
667.83	581.43
668.17	577.53
668.51	573.52
668.85	569.56
669.19	565.79
669.53	561.92
669.87	558.15
670.21	554.48
670.55	550.80
670.89	547.39
671.23	544.00
671.57	540.49
671.91	537.02
672.25	533.66
672.58	530.13
672.92	526.81
673.26	523.66
673.60	520.59
673.94	517.54
674.28	514.65
674.62	511.72
674.96	508.66
675.30	505.77
675.64	502.80
675.97	500.04
676.31	497.18
676.65	494.32
676.99	491.61
677.33	488.73
677.67	485.99
678.01	482.97
678.34	479.96
678.68	477.07
679.02	474.23
679.36	471.44
679.70	468.79
680.04	465.94
680.37	463.02
680.71	460.18
681.05	457.54
681.39	454.83
681.73	452.20
682.06	449.70
682.40	447.12
682.74	444.65
683.08	442.10
683.42	439.49
683.75	437.02
684.09	434.52
684.43	432.04
684.77	429.58
685.10	427.35
685.44	425.08
685.78	422.80
686.12	420.58
686.45	418.30
686.79	415.95
687.13	413.81
687.46	411.70
687.80	409.56
688.14	407.38
688.48	405.36
688.81	403.08
689.15	400.91
689.49	398.80
689.82	396.74
690.16	394.62
690.50	392.64
690.83	390.66
691.17	388.66
691.51	386.77
691.84	384.87
692.18	382.88
692.52	380.88
692.85	379.00
693.19	377.12
693.52	375.30
693.86	373.49
694.20	371.70
694.53	369.94
694.87	368.10
695.21	366.32
695.54	364.45
695.88	362.75
696.21	361.02
696.55	359.31
696.88	357.61
697.22	355.97
697.56	354.37
697.89	352.69
698.23	351.05
698.56	349.42
698.90	347.86
699.23	346.23
699.57	344.72
699.90	343.14
700.24	341.59
700.58	340.01
700.91	338.51
701.25	337.07
701.58	335.67
701.92	334.29
702.25	332.90
702.59	331.56
702.92	330.24
703.26	328.97
703.59	327.69
703.93	326.51
704.26	325.30
704.60	323.99
704.93	322.74
705.26	321.51
705.60	320.36
705.93	319.20
706.27	318.14
706.60	317.10
706.94	316.04
707.27	314.92
707.61	313.87
707.94	312.85
708.27	311.75
708.61	310.63
708.94	309.64
709.28	308.69
709.61	307.75
709.94	306.79
710.28	305.76
710.61	304.81
710.95	303.75
711.28	302.79
711.61	301.85
711.95	300.96
712.28	300.01
712.61	299.01
712.95	298.08
713.28	297.22
713.61	296.32
713.95	295.43
714.28	294.60
714.61	293.78
714.95	292.94
715.28	292.11
715.61	291.28
715.95	290.42
716.28	289.55
716.61	288.70
716.95	287.92
717.28	287.17
717.61	286.38
717.94	285.63
718.28	284.85
718.61	284.12
718.94	283.43
719.27	282.78
719.61	282.17
719.94	281.51
720.27	280.80
720.60	280.15
720.94	279.52
721.27	278.93
721.60	278.34
721.93	277.74
722.27	277.20
722.60	276.64
722.93	276.09
723.26	275.55
723.59	274.99
723.93	274.45
724.26	273.91
724.59	273.33
724.92	272.83
725.25	272.30
725.59	271.79
725.92	271.25
726.25	270.75
726.58	270.25
726.91	269.75
727.24	269.27
727.57	268.78
727.91	268.33
728.24	267.82
728.57	267.31
728.90	266.87
729.23	266.37
729.56	265.97
729.89	265.50
730.22	265.04
730.55	264.58
730.89	264.12
731.22	263.66
731.55	263.25
731.88	262.81
732.21	262.40
732.54	261.98
732.87	261.57
733.20	261.15
733.53	260.74
733.86	260.37
734.19	259.94
734.52	259.56
734.85	259.19
735.18	258.78
735.51	258.42
735.84	258.02
736.17	257.67
736.50	257.25
736.83	257.02
737.16	256.70
737.49	256.39
737.82	256.05
738.15	255.71
738.48	255.34
738.81	255.02
739.14	254.70
739.47	254.40
739.80	254.10
740.13	253.81
740.46	253.48
740.79	253.17
741.12	252.87
741.45	252.56
741.78	252.19
742.11	251.96
742.44	251.64
742.77	251.36
743.10	251.05
743.43	250.78
743.75	250.37
744.08	250.20
744.41	249.91
744.74	249.59
745.07	249.32
745.40	249.09
745.73	248.88
746.06	248.57
746.39	248.32
746.71	248.03
747.04	247.74
747.37	247.49
747.70	247.25
748.03	247.00
748.36	246.77
748.68	246.55
749.01	246.26
749.34	246.01
749.67	245.74
750.00	245.51
750.33	245.37
750.65	245.21
750.98	244.85
751.31	244.63
751.64	244.47
751.97	244.30
752.29	244.09
752.62	243.84
752.95	243.64
753.28	243.41
753.60	243.20
753.93	243.05
754.26	242.85
754.59	242.60
754.91	242.39
755.24	242.17
755.57	242.02
755.90	241.85
756.22	241.68
756.55	241.51
756.88	241.29
757.20	241.02
757.53	240.79
757.86	240.61
758.19	240.44
758.51	240.23
758.84	240.02
759.17	239.82
759.49	239.63
759.82	239.52
760.15	239.39
760.47	239.24
760.80	239.06
761.13	238.92
761.45	238.80
761.78	238.66
762.11	238.52
762.43	238.35
762.76	238.21
763.08	238.12
763.41	237.98
763.74	237.85
764.06	237.73
764.39	237.59
764.71	237.44
765.04	237.30
765.37	237.18
765.69	237.07
766.02	236.94
766.34	236.84
766.67	236.64
767.00	236.54
767.32	236.48
767.65	236.44
767.97	236.32
768.30	236.18
768.62	236.06
768.95	235.97
769.27	235.86
769.60	235.76
769.92	235.64
770.25	235.53
770.57	235.41
770.90	235.30
771.22	235.19
771.55	235.13
771.87	235.05
772.20	234.96
772.52	234.93
772.85	234.96
773.17	234.85
773.50	234.81
773.82	234.69
774.15	234.55
774.47	234.38
774.80	234.30
775.12	234.23
775.45	234.18
775.77	234.11
776.09	234.05
776.42	233.97
776.74	233.92
777.07	233.88
777.39	233.84
777.72	233.75
778.04	233.70
778.36	233.61
778.69	233.56
779.01	233.51
779.33	233.35
779.66	233.20
779.98	233.15
780.31	233.06
780.63	233.01
780.95	232.96
781.28	232.93
781.60	232.88
781.92	232.84
782.25	232.78
782.57	232.70
782.89	232.63
783.22	232.55
783.54	232.46
783.86	232.39
784.19	232.34
784.51	232.35
784.83	232.31
785.16	232.27
785.48	232.22
785.80	232.16
786.12	232.15
786.45	232.11
786.77	232.08
787.09	232.07
