SpectraSuite Data File
++++++++++++++++++++++++++++++++++++
Date: Fri Feb 01 17:30:10 EST 2013
User: group
Dark Spectrum Present: No
Reference Spectrum Present: No
Number of Sampled Component Spectra: 1
Spectrometers: USB2E7196
Integration Time (usec): 35000 (USB2E7196)
Spectra Averaged: 100 (USB2E7196)
Boxcar Smoothing: 10 (USB2E7196)
Correct for Electrical Dark: No (USB2E7196)
Strobe/Lamp Enabled: No (USB2E7196)
Correct for Detector Non-linearity: No (USB2E7196)
Correct for Stray Light: No (USB2E7196)
Number of Pixels in Processed Spectrum: 2048
>>>>>Begin Processed Spectral Data<<<<<
339.09	0.00
339.48	213.00
339.86	213.80
340.24	215.63
340.63	217.03
341.01	219.65
341.39	219.66
341.78	221.92
342.16	222.92
342.54	223.28
342.93	211.39
343.31	222.09
343.69	222.62
344.07	223.12
344.46	223.56
344.84	223.92
345.22	224.15
345.60	224.41
345.99	224.56
346.37	224.68
346.75	224.80
347.13	224.87
347.52	224.93
347.90	225.00
348.28	225.00
348.66	225.07
349.05	225.05
349.43	225.11
349.81	225.15
350.19	225.21
350.57	225.27
350.96	225.35
351.34	225.40
351.72	225.51
352.10	225.59
352.48	225.67
352.87	225.76
353.25	225.85
353.63	225.92
354.01	225.99
354.39	226.08
354.77	226.12
355.15	226.22
355.54	226.28
355.92	226.35
356.30	226.43
356.68	226.56
357.06	226.62
357.44	226.65
357.82	226.71
358.20	226.77
358.58	226.84
358.97	226.90
359.35	226.99
359.73	227.05
360.11	227.10
360.49	227.15
360.87	227.19
361.25	227.22
361.63	227.28
362.01	227.32
362.39	227.31
362.77	227.36
363.15	227.38
363.53	227.40
363.91	227.40
364.29	227.40
364.67	227.33
365.05	227.36
365.43	227.40
365.81	227.43
366.19	227.45
366.57	227.46
366.95	227.46
367.33	227.43
367.71	227.43
368.09	227.45
368.47	227.41
368.85	227.39
369.23	227.41
369.61	227.34
369.99	227.35
370.37	227.31
370.75	227.32
371.13	227.27
371.51	227.23
371.89	227.21
372.27	227.18
372.65	227.14
373.03	227.09
373.41	227.05
373.78	226.99
374.16	226.88
374.54	226.84
374.92	226.74
375.30	226.69
375.68	226.61
376.06	226.54
376.44	226.49
376.82	226.42
377.19	226.32
377.57	226.27
377.95	226.20
378.33	226.18
378.71	226.04
379.09	225.96
379.47	225.89
379.84	225.80
380.22	225.73
380.60	225.63
380.98	225.56
381.36	225.47
381.73	225.36
382.11	225.33
382.49	225.24
382.87	225.21
383.25	225.12
383.62	225.18
384.00	225.10
384.38	225.05
384.76	225.04
385.13	225.07
385.51	225.02
385.89	224.97
386.27	224.89
386.64	224.85
387.02	224.82
387.40	224.76
387.78	224.74
388.15	224.70
388.53	224.67
388.91	224.64
389.29	224.60
389.66	224.63
390.04	224.60
390.42	224.61
390.79	224.55
391.17	224.53
391.55	224.42
391.92	224.41
392.30	224.44
392.68	224.37
393.05	224.37
393.43	224.39
393.81	224.39
394.18	224.38
394.56	224.42
394.94	224.43
395.31	224.46
395.69	224.54
396.06	224.59
396.44	224.62
396.82	224.63
397.19	224.71
397.57	224.71
397.95	224.77
398.32	224.80
398.70	224.89
399.07	224.99
399.45	225.03
399.82	225.05
400.20	225.08
400.58	225.15
400.95	225.15
401.33	225.24
401.70	225.39
402.08	225.50
402.45	225.60
402.83	225.71
403.20	225.79
403.58	225.84
403.95	225.96
404.33	226.10
404.71	226.22
405.08	226.41
405.46	226.56
405.83	226.71
406.21	226.85
406.58	227.00
406.96	227.14
407.33	227.31
407.70	227.55
408.08	227.80
408.45	228.01
408.83	228.26
409.20	228.43
409.58	228.57
409.95	228.83
410.33	229.09
410.70	229.34
411.08	229.66
411.45	229.98
411.82	230.29
412.20	230.63
412.57	231.07
412.95	231.36
413.32	231.78
413.69	232.19
414.07	232.63
414.44	233.13
414.82	233.62
415.19	234.21
415.56	234.78
415.94	235.36
416.31	236.04
416.68	236.70
417.06	237.48
417.43	238.21
417.81	239.00
418.18	239.81
418.55	240.70
418.93	241.61
419.30	242.55
419.67	243.55
420.04	244.58
420.42	245.59
420.79	246.81
421.16	248.01
421.54	249.23
421.91	250.48
422.28	251.77
422.66	253.14
423.03	254.51
423.40	255.88
423.77	257.36
424.15	258.88
424.52	260.43
424.89	262.11
425.26	263.71
425.64	265.21
426.01	266.85
426.38	268.57
426.75	270.33
427.13	272.11
427.50	273.96
427.87	275.89
428.24	277.88
428.61	279.70
428.99	281.71
429.36	283.93
429.73	286.13
430.10	288.20
430.47	290.36
430.85	292.52
431.22	294.88
431.59	297.36
431.96	299.71
432.33	302.28
432.70	304.72
433.08	307.66
433.45	310.41
433.82	313.13
434.19	316.14
434.56	319.05
434.93	321.84
435.30	324.55
435.68	327.53
436.05	330.43
436.42	333.34
436.79	335.97
437.16	338.78
437.53	341.69
437.90	344.64
438.27	347.51
438.64	350.50
439.01	353.19
439.38	355.46
439.75	357.68
440.13	360.28
440.50	362.70
440.87	364.61
441.24	366.61
441.61	368.88
441.98	370.39
442.35	372.24
442.72	374.17
443.09	376.05
443.46	377.14
443.83	377.75
444.20	378.29
444.57	379.17
444.94	379.51
445.31	379.93
445.68	380.33
446.05	380.41
446.42	380.04
446.79	379.61
447.16	379.20
447.53	378.93
447.90	377.77
448.27	376.64
448.64	375.02
449.01	373.91
449.37	371.90
449.74	369.99
450.11	367.72
450.48	365.16
450.85	362.57
451.22	360.38
451.59	358.30
451.96	356.30
452.33	353.60
452.70	351.12
453.07	348.15
453.43	345.11
453.80	342.27
454.17	339.44
454.54	336.81
454.91	333.99
455.28	331.18
455.65	328.59
456.02	326.02
456.38	323.81
456.75	321.00
457.12	318.65
457.49	316.38
457.86	314.10
458.23	312.18
458.59	310.04
458.96	307.87
459.33	305.96
459.70	304.04
460.07	302.45
460.43	300.66
460.80	298.96
461.17	297.50
461.54	295.94
461.91	294.47
462.27	292.94
462.64	291.62
463.01	290.21
463.38	288.86
463.74	287.43
464.11	286.17
464.48	285.13
464.85	283.95
465.21	282.97
465.58	281.99
465.95	280.86
466.32	279.93
466.68	278.97
467.05	278.04
467.42	277.09
467.78	276.12
468.15	275.22
468.52	274.56
468.88	273.66
469.25	272.83
469.62	272.19
469.98	271.51
470.35	270.88
470.72	270.20
471.08	269.52
471.45	268.96
471.82	268.45
472.18	267.77
472.55	267.33
472.92	266.83
473.28	266.37
473.65	265.90
474.02	265.40
474.38	265.01
474.75	264.66
475.11	264.33
475.48	264.06
475.85	263.82
476.21	263.56
476.58	263.33
476.94	263.21
477.31	263.01
477.67	262.86
478.04	262.72
478.41	262.72
478.77	262.73
479.14	262.66
479.50	262.62
479.87	262.74
480.23	262.84
480.60	262.89
480.96	263.00
481.33	263.23
481.69	263.46
482.06	263.69
482.42	263.86
482.79	264.09
483.15	264.42
483.52	264.82
483.88	265.19
484.25	265.58
484.61	265.98
484.98	266.45
485.34	267.00
485.71	267.63
486.07	268.23
486.44	268.79
486.80	269.55
487.17	270.28
487.53	271.08
487.90	271.96
488.26	272.91
488.62	273.90
488.99	274.86
489.35	275.89
489.72	277.00
490.08	278.21
490.44	279.48
490.81	280.83
491.17	282.15
491.54	283.62
491.90	285.16
492.26	286.85
492.63	288.61
492.99	290.40
493.36	292.27
493.72	294.35
494.08	296.46
494.45	298.69
494.81	301.03
495.17	303.43
495.54	305.97
495.90	308.60
496.26	311.35
496.63	314.33
496.99	317.43
497.35	320.64
497.72	324.00
498.08	327.43
498.44	331.05
498.80	334.93
499.17	338.91
499.53	343.05
499.89	347.33
500.26	351.71
500.62	356.30
500.98	361.15
501.34	366.10
501.71	371.31
502.07	376.62
502.43	382.14
502.79	387.93
503.16	393.89
503.52	400.08
503.88	406.41
504.24	412.84
504.60	419.60
504.97	426.58
505.33	433.80
505.69	441.38
506.05	449.04
506.41	456.76
506.78	464.76
507.14	473.06
507.50	481.63
507.86	490.51
508.22	499.48
508.59	508.54
508.95	517.92
509.31	527.57
509.67	537.44
510.03	547.49
510.39	557.79
510.75	568.32
511.12	578.97
511.48	590.01
511.84	601.23
512.20	612.44
512.56	624.11
512.92	635.97
513.28	647.99
513.64	660.13
514.00	672.53
514.37	685.14
514.73	697.88
515.09	710.49
515.45	723.46
515.81	736.78
516.17	750.33
516.53	764.04
516.89	777.80
517.25	791.59
517.61	805.62
517.97	819.76
518.33	833.80
518.69	848.23
519.05	862.71
519.41	877.46
519.77	892.56
520.13	907.56
520.49	922.52
520.85	937.46
521.21	952.73
521.57	968.47
521.93	983.80
522.29	999.61
522.65	1015.54
523.01	1031.22
523.37	1046.73
523.73	1062.46
524.09	1078.14
524.45	1093.96
524.81	1110.12
525.17	1126.40
525.53	1142.68
525.89	1159.06
526.25	1175.31
526.61	1191.25
526.97	1207.54
527.33	1223.53
527.68	1239.65
528.04	1255.57
528.40	1271.64
528.76	1288.21
529.12	1304.35
529.48	1320.74
529.84	1336.26
530.20	1352.42
530.56	1368.83
530.91	1385.78
531.27	1402.10
531.63	1418.08
531.99	1434.18
532.35	1449.75
532.71	1465.32
533.07	1481.21
533.42	1496.75
533.78	1512.53
534.14	1528.43
534.50	1543.39
534.86	1558.93
535.21	1573.86
535.57	1589.49
535.93	1604.76
536.29	1619.20
536.65	1633.95
537.00	1648.43
537.36	1663.55
537.72	1677.74
538.08	1692.04
538.44	1705.59
538.79	1719.28
539.15	1732.64
539.51	1746.21
539.87	1760.44
540.22	1773.87
540.58	1787.29
540.94	1800.24
541.29	1812.74
541.65	1825.20
542.01	1838.29
542.37	1850.50
542.72	1862.75
543.08	1874.53
543.44	1886.75
543.79	1898.07
544.15	1908.97
544.51	1920.58
544.87	1931.46
545.22	1942.31
545.58	1952.56
545.94	1962.43
546.29	1972.33
546.65	1982.35
547.01	1991.63
547.36	2000.39
547.72	2009.13
548.07	2017.24
548.43	2025.59
548.79	2033.67
549.14	2041.52
549.50	2048.87
549.86	2056.50
550.21	2063.97
550.57	2071.23
550.92	2078.10
551.28	2085.30
551.64	2092.60
551.99	2099.19
552.35	2105.63
552.70	2112.00
553.06	2118.16
553.41	2124.70
553.77	2130.87
554.13	2137.12
554.48	2143.50
554.84	2149.39
555.19	2154.68
555.55	2160.14
555.90	2164.98
556.26	2170.49
556.61	2175.44
556.97	2180.28
557.32	2184.92
557.68	2189.40
558.03	2193.92
558.39	2197.95
558.74	2202.77
559.10	2207.07
559.45	2211.15
559.81	2215.70
560.16	2219.74
560.52	2223.37
560.87	2226.94
561.23	2229.90
561.58	2233.12
561.94	2236.08
562.29	2238.52
562.64	2241.83
563.00	2244.65
563.35	2248.45
563.71	2251.93
564.06	2255.45
564.42	2258.82
564.77	2261.75
565.12	2264.62
565.48	2266.98
565.83	2269.38
566.19	2271.21
566.54	2272.33
566.89	2273.98
567.25	2275.09
567.60	2276.67
567.96	2278.83
568.31	2280.24
568.66	2281.94
569.02	2282.98
569.37	2283.66
569.72	2285.18
570.08	2285.79
570.43	2286.36
570.78	2286.22
571.14	2285.06
571.49	2284.11
571.84	2283.84
572.20	2283.21
572.55	2282.52
572.90	2281.23
573.26	2280.09
573.61	2278.63
573.96	2277.49
574.31	2274.90
574.67	2272.37
575.02	2269.32
575.37	2266.24
575.72	2263.00
576.08	2259.99
576.43	2256.90
576.78	2253.87
577.13	2250.81
577.49	2247.87
577.84	2244.85
578.19	2241.57
578.54	2238.36
578.90	2234.71
579.25	2229.66
579.60	2225.07
579.95	2220.44
580.30	2215.82
580.66	2210.97
581.01	2206.37
581.36	2201.73
581.71	2197.92
582.06	2193.86
582.42	2189.87
582.77	2184.98
583.12	2180.65
583.47	2176.30
583.82	2171.96
584.17	2167.01
584.53	2161.96
584.88	2156.69
585.23	2151.25
585.58	2145.82
585.93	2140.55
586.28	2135.72
586.63	2131.06
586.98	2126.25
587.34	2121.73
587.69	2117.16
588.04	2112.27
588.39	2107.06
588.74	2100.76
589.09	2094.80
589.44	2088.30
589.79	2082.23
590.14	2076.82
590.49	2070.46
590.84	2064.22
591.19	2058.39
591.54	2051.98
591.89	2044.96
592.25	2038.58
592.60	2031.49
592.95	2024.55
593.30	2017.42
593.65	2010.15
594.00	2003.12
594.35	1996.09
594.70	1988.14
595.05	1981.23
595.40	1974.09
595.75	1966.71
596.10	1960.85
596.45	1954.42
596.80	1948.35
597.15	1942.05
597.50	1935.36
597.85	1928.97
598.19	1922.57
598.54	1915.80
598.89	1909.35
599.24	1903.40
599.59	1896.99
599.94	1890.81
600.29	1884.44
600.64	1877.92
600.99	1870.67
601.34	1864.08
601.69	1857.12
602.04	1850.47
602.39	1843.14
602.74	1836.42
603.08	1829.87
603.43	1823.14
603.78	1815.84
604.13	1808.66
604.48	1801.60
604.83	1794.66
605.18	1788.02
605.53	1780.09
605.87	1771.99
606.22	1764.72
606.57	1756.81
606.92	1749.17
607.27	1742.21
607.62	1735.47
607.96	1728.36
608.31	1721.85
608.66	1714.40
609.01	1706.88
609.36	1699.27
609.70	1691.36
610.05	1683.31
610.40	1675.67
610.75	1667.35
611.10	1659.73
611.44	1651.19
611.79	1643.03
612.14	1634.45
612.49	1625.03
612.83	1616.49
613.18	1608.14
613.53	1600.02
613.88	1591.54
614.22	1583.20
614.57	1574.34
614.92	1566.05
615.27	1558.50
615.61	1550.17
615.96	1541.89
616.31	1534.11
616.65	1526.71
617.00	1519.06
617.35	1511.27
617.70	1502.78
618.04	1494.14
618.39	1485.66
618.74	1478.14
619.08	1469.79
619.43	1462.06
619.78	1455.07
620.12	1448.02
620.47	1440.59
620.82	1432.28
621.16	1424.69
621.51	1416.94
621.85	1409.30
622.20	1400.80
622.55	1392.27
622.89	1384.16
623.24	1376.37
623.59	1368.87
623.93	1361.19
624.28	1353.85
624.62	1346.23
624.97	1339.00
625.32	1332.06
625.66	1324.93
626.01	1317.62
626.35	1310.20
626.70	1302.33
627.04	1294.51
627.39	1286.46
627.73	1278.86
628.08	1271.88
628.43	1264.66
628.77	1257.36
629.12	1249.75
629.46	1242.41
629.81	1234.76
630.15	1227.43
630.50	1220.00
630.84	1211.69
631.19	1203.70
631.53	1196.00
631.88	1188.36
632.22	1180.64
632.57	1173.26
632.91	1165.71
633.26	1158.33
633.60	1150.71
633.95	1143.42
634.29	1136.27
634.64	1129.57
634.98	1122.23
635.32	1115.11
635.67	1108.22
636.01	1101.51
636.36	1094.76
636.70	1088.25
637.05	1081.70
637.39	1075.18
637.73	1068.62
638.08	1062.70
638.42	1056.61
638.77	1050.19
639.11	1043.65
639.45	1037.16
639.80	1030.56
640.14	1024.22
640.49	1017.60
640.83	1011.33
641.17	1005.10
641.52	998.83
641.86	992.28
642.20	986.36
642.55	979.87
642.89	973.55
643.23	966.88
643.58	960.98
643.92	954.74
644.26	948.78
644.61	942.72
644.95	936.66
645.29	930.13
645.64	923.38
645.98	917.02
646.32	911.03
646.66	904.97
647.01	899.04
647.35	893.18
647.69	887.23
648.04	881.58
648.38	875.77
648.72	869.79
649.06	863.81
649.41	857.90
649.75	852.04
650.09	845.97
650.43	840.18
650.78	834.06
651.12	828.06
651.46	822.23
651.80	816.61
652.14	811.20
652.49	805.81
652.83	800.62
653.17	795.01
653.51	789.45
653.85	784.04
654.20	778.55
654.54	772.52
654.88	766.73
655.22	760.83
655.56	755.11
655.90	749.55
656.25	744.23
656.59	738.87
656.93	733.73
657.27	728.66
657.61	723.27
657.95	718.14
658.29	713.02
658.64	707.67
658.98	702.23
659.32	696.72
659.66	691.51
660.00	686.24
660.34	681.24
660.68	676.17
661.02	671.11
661.36	666.31
661.70	661.80
662.05	657.45
662.39	653.19
662.73	648.67
663.07	644.31
663.41	639.88
663.75	635.37
664.09	630.76
664.43	626.29
664.77	622.15
665.11	617.88
665.45	613.74
665.79	609.75
666.13	605.62
666.47	601.50
666.81	597.34
667.15	593.15
667.49	589.17
667.83	585.33
668.17	581.36
668.51	577.29
668.85	573.23
669.19	569.30
669.53	565.39
669.87	561.59
670.21	557.85
670.55	554.14
670.89	550.65
671.23	547.21
671.57	543.69
671.91	540.19
672.25	536.60
672.58	533.05
672.92	529.55
673.26	526.39
673.60	523.25
673.94	520.16
674.28	517.22
674.62	514.22
674.96	511.13
675.30	508.23
675.64	505.32
675.97	502.50
676.31	499.65
676.65	496.73
676.99	493.95
677.33	491.03
677.67	488.20
678.01	485.17
678.34	482.16
678.68	479.23
679.02	476.32
679.36	473.52
679.70	470.83
680.04	468.05
680.37	465.24
680.71	462.40
681.05	459.69
681.39	456.91
681.73	454.26
682.06	451.69
682.40	449.08
682.74	446.49
683.08	443.92
683.42	441.33
683.75	438.81
684.09	436.17
684.43	433.71
684.77	431.28
685.10	428.90
685.44	426.59
685.78	424.32
686.12	422.08
686.45	419.80
686.79	417.50
687.13	415.29
687.46	413.02
687.80	410.80
688.14	408.53
688.48	406.52
688.81	404.32
689.15	402.16
689.49	399.96
689.82	397.91
690.16	395.80
690.50	393.81
690.83	391.82
691.17	389.90
691.51	387.98
691.84	386.03
692.18	384.10
692.52	382.13
692.85	380.11
693.19	378.17
693.52	376.30
693.86	374.39
694.20	372.57
694.53	370.78
694.87	368.95
695.21	367.18
695.54	365.27
695.88	363.51
696.21	361.74
696.55	360.07
696.88	358.32
697.22	356.61
697.56	354.96
697.89	353.32
698.23	351.68
698.56	350.05
698.90	348.49
699.23	346.87
699.57	345.31
699.90	343.80
700.24	342.24
700.58	340.75
700.91	339.27
701.25	337.79
701.58	336.38
701.92	334.97
702.25	333.57
702.59	332.18
702.92	330.81
703.26	329.48
703.59	328.21
703.93	326.99
704.26	325.76
704.60	324.41
704.93	323.10
705.26	321.79
705.60	320.56
705.93	319.39
706.27	318.26
706.60	317.19
706.94	316.05
707.27	314.89
707.61	313.76
707.94	312.71
708.27	311.59
708.61	310.49
708.94	309.44
709.28	308.43
709.61	307.49
709.94	306.52
710.28	305.47
710.61	304.45
710.95	303.37
711.28	302.42
711.61	301.47
711.95	300.53
712.28	299.57
712.61	298.62
712.95	297.65
713.28	296.72
713.61	295.76
713.95	294.84
714.28	293.96
714.61	293.08
714.95	292.19
715.28	291.33
715.61	290.41
715.95	289.55
716.28	288.67
716.61	287.78
716.95	286.93
717.28	286.15
717.61	285.37
717.94	284.60
718.28	283.78
718.61	283.06
718.94	282.33
719.27	281.67
719.61	280.97
719.94	280.29
720.27	279.57
720.60	278.91
720.94	278.24
721.27	277.63
721.60	277.04
721.93	276.43
722.27	275.87
722.60	275.33
722.93	274.73
723.26	274.23
723.59	273.64
723.93	273.09
724.26	272.55
724.59	271.98
724.92	271.45
725.25	270.93
725.59	270.39
725.92	269.90
726.25	269.37
726.58	268.89
726.91	268.38
727.24	267.91
727.57	267.44
727.91	266.94
728.24	266.51
728.57	266.03
728.90	265.57
729.23	265.09
729.56	264.66
729.89	264.21
730.22	263.69
730.55	263.25
730.89	262.81
731.22	262.36
731.55	261.89
731.88	261.46
732.21	261.05
732.54	260.63
732.87	260.22
733.20	259.82
733.53	259.43
733.86	259.09
734.19	258.70
734.52	258.32
734.85	258.03
735.18	257.58
735.51	257.19
735.84	256.84
736.17	256.45
736.50	256.06
736.83	255.84
737.16	255.52
737.49	255.17
737.82	254.81
738.15	254.49
738.48	254.16
738.81	253.83
739.14	253.51
739.47	253.22
739.80	252.88
740.13	252.57
740.46	252.24
740.79	251.92
741.12	251.62
741.45	251.30
741.78	250.95
742.11	250.69
742.44	250.38
742.77	250.08
743.10	249.78
743.43	249.46
743.75	249.04
744.08	248.88
744.41	248.63
744.74	248.38
745.07	248.10
745.40	247.90
745.73	247.65
746.06	247.33
746.39	247.04
746.71	246.78
747.04	246.50
747.37	246.22
747.70	245.92
748.03	245.68
748.36	245.44
748.68	245.21
749.01	244.94
749.34	244.71
749.67	244.49
750.00	244.28
750.33	244.09
750.65	243.93
750.98	243.56
751.31	243.31
751.64	243.07
751.97	242.86
752.29	242.59
752.62	242.33
752.95	242.14
753.28	241.91
753.60	241.67
753.93	241.49
754.26	241.25
754.59	241.05
754.91	240.79
755.24	240.57
755.57	240.34
755.90	240.19
756.22	239.98
756.55	239.78
756.88	239.58
757.20	239.36
757.53	239.12
757.86	238.94
758.19	238.75
758.51	238.59
758.84	238.41
759.17	238.26
759.49	238.10
759.82	237.96
760.15	237.80
760.47	237.65
760.80	237.46
761.13	237.34
761.45	237.15
761.78	237.01
762.11	236.87
762.43	236.73
762.76	236.54
763.08	236.43
763.41	236.26
763.74	236.16
764.06	235.99
764.39	235.86
764.71	235.72
765.04	235.62
765.37	235.49
765.69	235.35
766.02	235.18
766.34	235.05
766.67	234.88
767.00	234.80
767.32	234.72
767.65	234.65
767.97	234.54
768.30	234.46
768.62	234.36
768.95	234.23
769.27	234.09
769.60	233.98
769.92	233.84
770.25	233.75
770.57	233.59
770.90	233.52
771.22	233.42
771.55	233.31
771.87	233.20
772.20	233.10
772.52	233.10
772.85	233.13
773.17	233.03
773.50	232.97
773.82	232.86
774.15	232.75
774.47	232.63
774.80	232.56
775.12	232.46
775.45	232.40
775.77	232.32
776.09	232.26
776.42	232.21
776.74	232.16
777.07	232.06
777.39	232.00
777.72	231.90
778.04	231.81
778.36	231.74
778.69	231.67
779.01	231.59
779.33	231.44
779.66	231.29
779.98	231.25
780.31	231.19
780.63	231.18
780.95	231.10
781.28	231.02
781.60	230.94
781.92	230.88
782.25	230.78
782.57	230.76
782.89	230.71
783.22	230.62
783.54	230.55
783.86	230.53
784.19	230.48
784.51	230.47
784.83	230.42
785.16	230.36
785.48	230.32
785.80	230.24
786.12	230.19
786.45	230.13
786.77	230.05
787.09	229.97
