SpectraSuite Data File
++++++++++++++++++++++++++++++++++++
Date: Fri Feb 01 14:59:27 EST 2013
User: group
Dark Spectrum Present: No
Reference Spectrum Present: No
Number of Sampled Component Spectra: 1
Spectrometers: USB2E7196
Integration Time (usec): 35000 (USB2E7196)
Spectra Averaged: 100 (USB2E7196)
Boxcar Smoothing: 10 (USB2E7196)
Correct for Electrical Dark: No (USB2E7196)
Strobe/Lamp Enabled: No (USB2E7196)
Correct for Detector Non-linearity: No (USB2E7196)
Correct for Stray Light: No (USB2E7196)
Number of Pixels in Processed Spectrum: 2048
>>>>>Begin Processed Spectral Data<<<<<
339.09	0.00
339.48	215.49
339.86	216.96
340.24	219.10
340.63	219.83
341.01	222.05
341.39	222.45
341.78	223.83
342.16	224.96
342.54	225.32
342.93	213.85
343.31	224.61
343.69	225.14
344.07	225.61
344.46	225.99
344.84	226.36
345.22	226.62
345.60	226.87
345.99	227.09
346.37	227.23
346.75	227.35
347.13	227.41
347.52	227.44
347.90	227.47
348.28	227.47
348.66	227.50
349.05	227.47
349.43	227.50
349.81	227.56
350.19	227.59
350.57	227.62
350.96	227.68
351.34	227.81
351.72	227.89
352.10	227.98
352.48	228.03
352.87	228.07
353.25	228.11
353.63	228.16
354.01	228.17
354.39	228.24
354.77	228.31
355.15	228.40
355.54	228.48
355.92	228.52
356.30	228.57
356.68	228.69
357.06	228.77
357.44	228.82
357.82	228.87
358.20	228.96
358.58	229.02
358.97	229.11
359.35	229.16
359.73	229.24
360.11	229.28
360.49	229.35
360.87	229.40
361.25	229.45
361.63	229.53
362.01	229.59
362.39	229.59
362.77	229.60
363.15	229.60
363.53	229.60
363.91	229.64
364.29	229.69
364.67	229.60
365.05	229.61
365.43	229.64
365.81	229.65
366.19	229.68
366.57	229.70
366.95	229.67
367.33	229.59
367.71	229.55
368.09	229.51
368.47	229.49
368.85	229.45
369.23	229.44
369.61	229.37
369.99	229.33
370.37	229.31
370.75	229.34
371.13	229.29
371.51	229.23
371.89	229.17
372.27	229.10
372.65	229.07
373.03	229.01
373.41	228.93
373.78	228.89
374.16	228.76
374.54	228.66
374.92	228.60
375.30	228.58
375.68	228.48
376.06	228.46
376.44	228.37
376.82	228.31
377.19	228.23
377.57	228.17
377.95	228.08
378.33	227.98
378.71	227.84
379.09	227.77
379.47	227.75
379.84	227.63
380.22	227.52
380.60	227.42
380.98	227.35
381.36	227.29
381.73	227.19
382.11	227.14
382.49	227.08
382.87	226.99
383.25	226.94
383.62	226.97
384.00	226.87
384.38	226.82
384.76	226.78
385.13	226.75
385.51	226.68
385.89	226.63
386.27	226.59
386.64	226.55
387.02	226.51
387.40	226.41
387.78	226.43
388.15	226.41
388.53	226.42
388.91	226.39
389.29	226.36
389.66	226.35
390.04	226.31
390.42	226.33
390.79	226.34
391.17	226.31
391.55	226.22
391.92	226.23
392.30	226.24
392.68	226.23
393.05	226.22
393.43	226.25
393.81	226.27
394.18	226.30
394.56	226.32
394.94	226.35
395.31	226.38
395.69	226.40
396.06	226.53
396.44	226.55
396.82	226.58
397.19	226.69
397.57	226.73
397.95	226.79
398.32	226.83
398.70	226.89
399.07	227.01
399.45	227.09
399.82	227.18
400.20	227.29
400.58	227.37
400.95	227.46
401.33	227.58
401.70	227.74
402.08	227.85
402.45	227.98
402.83	228.14
403.20	228.25
403.58	228.36
403.95	228.47
404.33	228.61
404.71	228.78
405.08	228.94
405.46	229.09
405.83	229.26
406.21	229.43
406.58	229.59
406.96	229.74
407.33	229.94
407.70	230.13
408.08	230.40
408.45	230.65
408.83	230.90
409.20	231.10
409.58	231.28
409.95	231.55
410.33	231.82
410.70	232.05
411.08	232.37
411.45	232.69
411.82	233.00
412.20	233.37
412.57	233.80
412.95	234.10
413.32	234.50
413.69	234.93
414.07	235.36
414.44	235.86
414.82	236.35
415.19	236.86
415.56	237.40
415.94	237.91
416.31	238.54
416.68	239.16
417.06	239.88
417.43	240.55
417.81	241.31
418.18	242.07
418.55	242.91
418.93	243.79
419.30	244.71
419.67	245.61
420.04	246.55
420.42	247.54
420.79	248.72
421.16	249.87
421.54	251.03
421.91	252.22
422.28	253.46
422.66	254.79
423.03	256.09
423.40	257.47
423.77	258.89
424.15	260.30
424.52	261.78
424.89	263.40
425.26	264.95
425.64	266.38
426.01	267.96
426.38	269.63
426.75	271.30
427.13	273.03
427.50	274.86
427.87	276.75
428.24	278.58
428.61	280.31
428.99	282.27
429.36	284.39
429.73	286.46
430.10	288.48
430.47	290.54
430.85	292.69
431.22	294.89
431.59	297.26
431.96	299.52
432.33	301.97
432.70	304.36
433.08	307.20
433.45	309.86
433.82	312.52
434.19	315.41
434.56	318.25
434.93	320.92
435.30	323.57
435.68	326.49
436.05	329.35
436.42	332.15
436.79	334.62
437.16	337.32
437.53	340.21
437.90	343.05
438.27	345.77
438.64	348.63
439.01	351.24
439.38	353.47
439.75	355.66
440.13	358.21
440.50	360.52
440.87	362.37
441.24	364.34
441.61	366.48
441.98	368.00
442.35	369.83
442.72	371.64
443.09	373.42
443.46	374.40
443.83	374.99
444.20	375.52
444.57	376.36
444.94	376.66
445.31	376.99
445.68	377.30
446.05	377.34
446.42	376.95
446.79	376.54
447.16	376.09
447.53	375.73
447.90	374.56
448.27	373.42
448.64	371.81
449.01	370.64
449.37	368.65
449.74	366.69
450.11	364.37
450.48	361.90
450.85	359.39
451.22	357.25
451.59	355.22
451.96	353.19
452.33	350.62
452.70	348.24
453.07	345.39
453.43	342.50
453.80	339.82
454.17	337.11
454.54	334.53
454.91	331.80
455.28	329.16
455.65	326.64
456.02	324.18
456.38	321.98
456.75	319.31
457.12	317.02
457.49	314.81
457.86	312.69
458.23	310.84
458.59	308.76
458.96	306.64
459.33	304.79
459.70	302.98
460.07	301.48
460.43	299.80
460.80	298.18
461.17	296.71
461.54	295.18
461.91	293.76
462.27	292.30
462.64	291.04
463.01	289.66
463.38	288.38
463.74	287.00
464.11	285.88
464.48	284.86
464.85	283.77
465.21	282.89
465.58	281.91
465.95	280.82
466.32	279.94
466.68	279.05
467.05	278.14
467.42	277.25
467.78	276.30
468.15	275.37
468.52	274.72
468.88	273.85
469.25	273.05
469.62	272.37
469.98	271.71
470.35	271.09
470.72	270.47
471.08	269.77
471.45	269.22
471.82	268.65
472.18	268.04
472.55	267.60
472.92	267.10
473.28	266.64
473.65	266.17
474.02	265.68
474.38	265.26
474.75	264.89
475.11	264.56
475.48	264.27
475.85	264.03
476.21	263.73
476.58	263.54
476.94	263.38
477.31	263.20
477.67	263.03
478.04	262.91
478.41	262.85
478.77	262.89
479.14	262.82
479.50	262.82
479.87	262.87
480.23	262.97
480.60	262.99
480.96	263.09
481.33	263.33
481.69	263.53
482.06	263.73
482.42	263.95
482.79	264.20
483.15	264.52
483.52	264.90
483.88	265.28
484.25	265.69
484.61	266.13
484.98	266.64
485.34	267.21
485.71	267.78
486.07	268.37
486.44	268.95
486.80	269.65
487.17	270.38
487.53	271.18
487.90	272.03
488.26	272.96
488.62	273.91
488.99	274.82
489.35	275.84
489.72	276.94
490.08	278.12
490.44	279.29
490.81	280.63
491.17	281.96
491.54	283.41
491.90	284.90
492.26	286.52
492.63	288.20
492.99	289.97
493.36	291.89
493.72	293.95
494.08	296.05
494.45	298.30
494.81	300.63
495.17	303.05
495.54	305.58
495.90	308.26
496.26	311.03
496.63	313.97
496.99	317.08
497.35	320.39
497.72	323.76
498.08	327.30
498.44	330.93
498.80	334.85
499.17	338.87
499.53	343.04
499.89	347.37
500.26	351.85
500.62	356.51
500.98	361.44
501.34	366.45
501.71	371.73
502.07	377.15
502.43	382.77
502.79	388.61
503.16	394.68
503.52	400.89
503.88	407.27
504.24	413.87
504.60	420.73
504.97	427.82
505.33	435.14
505.69	442.80
506.05	450.58
506.41	458.42
506.78	466.54
507.14	475.00
507.50	483.76
507.86	492.70
508.22	501.87
508.59	511.03
508.95	520.63
509.31	530.39
509.67	540.48
510.03	550.75
510.39	561.28
510.75	572.05
511.12	583.06
511.48	594.36
511.84	605.84
512.20	617.35
512.56	629.21
512.92	641.42
513.28	653.76
513.64	666.20
514.00	678.92
514.37	691.86
514.73	704.85
515.09	717.90
515.45	731.29
515.81	744.99
516.17	759.02
516.53	773.09
516.89	787.28
517.25	801.52
517.61	815.88
517.97	830.39
518.33	844.84
518.69	859.55
519.05	874.61
519.41	889.69
519.77	905.30
520.13	920.85
520.49	936.20
520.85	951.73
521.21	967.51
521.57	983.84
521.93	999.64
522.29	1016.18
522.65	1032.44
523.01	1048.67
523.37	1064.68
523.73	1080.84
524.09	1097.05
524.45	1113.46
524.81	1130.14
525.17	1147.16
525.53	1164.08
525.89	1181.00
526.25	1197.90
526.61	1214.36
526.97	1231.20
527.33	1247.67
527.68	1264.50
528.04	1281.21
528.40	1297.98
528.76	1315.15
529.12	1331.77
529.48	1348.74
529.84	1364.82
530.20	1381.55
530.56	1398.76
530.91	1416.25
531.27	1433.06
531.63	1449.64
531.99	1466.30
532.35	1482.36
532.71	1498.22
533.07	1514.58
533.42	1530.62
533.78	1546.66
534.14	1562.96
534.50	1578.46
534.86	1594.43
535.21	1609.53
535.57	1625.45
535.93	1640.93
536.29	1655.82
536.65	1671.08
537.00	1686.03
537.36	1701.37
537.72	1716.00
538.08	1730.53
538.44	1744.35
538.79	1758.48
539.15	1772.34
539.51	1786.24
539.87	1800.64
540.22	1814.52
540.58	1828.45
540.94	1841.83
541.29	1855.04
541.65	1867.97
542.01	1881.23
542.37	1893.61
542.72	1906.16
543.08	1918.06
543.44	1930.54
543.79	1941.77
544.15	1952.77
544.51	1964.29
544.87	1975.43
545.22	1986.32
545.58	1996.37
545.94	2006.15
546.29	2016.05
546.65	2025.74
547.01	2034.88
547.36	2043.79
547.72	2052.30
548.07	2060.08
548.43	2068.34
548.79	2076.25
549.14	2083.67
549.50	2091.04
549.86	2098.87
550.21	2106.14
550.57	2113.27
550.92	2119.81
551.28	2126.96
551.64	2133.96
551.99	2140.55
552.35	2146.65
552.70	2152.69
553.06	2158.80
553.41	2165.15
553.77	2170.98
554.13	2177.10
554.48	2183.28
554.84	2188.45
555.19	2193.79
555.55	2198.91
555.90	2203.29
556.26	2208.10
556.61	2212.84
556.97	2216.98
557.32	2221.05
557.68	2225.10
558.03	2229.38
558.39	2233.14
558.74	2237.63
559.10	2241.48
559.45	2245.09
559.81	2249.23
560.16	2253.03
560.52	2256.08
560.87	2259.48
561.23	2262.13
561.58	2264.98
561.94	2267.51
562.29	2270.11
562.64	2272.68
563.00	2275.20
563.35	2278.83
563.71	2281.89
564.06	2284.84
564.42	2287.72
564.77	2290.07
565.12	2292.24
565.48	2293.87
565.83	2295.44
566.19	2296.71
566.54	2297.59
566.89	2298.63
567.25	2299.19
567.60	2300.37
567.96	2301.96
568.31	2302.75
568.66	2303.67
569.02	2304.20
569.37	2304.27
569.72	2304.66
570.08	2304.54
570.43	2304.31
570.78	2303.27
571.14	2301.64
571.49	2300.31
571.84	2299.80
572.20	2298.51
572.55	2297.33
572.90	2295.78
573.26	2294.12
573.61	2292.18
573.96	2290.07
574.31	2286.99
574.67	2283.83
575.02	2280.04
575.37	2276.59
575.72	2272.47
576.08	2269.08
576.43	2265.63
576.78	2261.84
577.13	2258.72
577.49	2255.65
577.84	2252.13
578.19	2248.40
578.54	2244.51
578.90	2239.98
579.25	2234.30
579.60	2229.21
579.95	2224.09
580.30	2218.95
580.66	2213.77
581.01	2208.69
581.36	2203.79
581.71	2199.30
582.06	2194.73
582.42	2190.13
582.77	2184.66
583.12	2180.05
583.47	2175.25
583.82	2170.02
584.17	2164.60
584.53	2158.88
584.88	2152.95
585.23	2147.09
585.58	2141.49
585.93	2135.98
586.28	2131.32
586.63	2126.24
586.98	2121.07
587.34	2116.27
587.69	2111.22
588.04	2105.89
588.39	2100.15
588.74	2093.53
589.09	2087.33
589.44	2080.35
589.79	2074.23
590.14	2068.55
590.49	2061.87
590.84	2055.22
591.19	2048.98
591.54	2042.50
591.89	2035.07
592.25	2028.22
592.60	2020.94
592.95	2013.19
593.30	2005.75
593.65	1997.92
594.00	1990.63
594.35	1983.31
594.70	1975.20
595.05	1967.87
595.40	1960.47
595.75	1952.82
596.10	1946.35
596.45	1939.42
596.80	1933.13
597.15	1926.17
597.50	1919.05
597.85	1912.55
598.19	1905.79
598.54	1898.73
598.89	1892.06
599.24	1886.07
599.59	1879.26
599.94	1872.86
600.29	1866.53
600.64	1860.05
600.99	1852.48
601.34	1845.61
601.69	1838.53
602.04	1831.50
602.39	1824.12
602.74	1817.23
603.08	1810.55
603.43	1803.94
603.78	1796.69
604.13	1789.63
604.48	1782.47
604.83	1775.55
605.18	1768.39
605.53	1760.49
605.87	1752.50
606.22	1745.19
606.57	1737.32
606.92	1730.11
607.27	1722.91
607.62	1715.94
607.96	1708.45
608.31	1701.86
608.66	1694.21
609.01	1686.66
609.36	1679.15
609.70	1671.10
610.05	1663.07
610.40	1655.31
610.75	1646.98
611.10	1639.38
611.44	1630.98
611.79	1623.03
612.14	1614.40
612.49	1605.49
612.83	1597.11
613.18	1589.01
613.53	1580.89
613.88	1572.31
614.22	1563.90
614.57	1555.50
614.92	1547.53
615.27	1539.96
615.61	1531.74
615.96	1523.99
616.31	1516.34
616.65	1508.99
617.00	1501.44
617.35	1493.88
617.70	1485.60
618.04	1477.05
618.39	1468.83
618.74	1461.15
619.08	1452.91
619.43	1445.32
619.78	1438.43
620.12	1431.35
620.47	1423.81
620.82	1415.74
621.16	1408.33
621.51	1400.88
621.85	1393.35
622.20	1384.86
622.55	1376.72
622.89	1368.87
623.24	1361.15
623.59	1353.84
623.93	1346.38
624.28	1339.13
624.62	1331.58
624.97	1324.47
625.32	1317.75
625.66	1310.73
626.01	1303.58
626.35	1296.14
626.70	1288.44
627.04	1280.65
627.39	1272.93
627.73	1265.55
628.08	1258.69
628.43	1251.43
628.77	1244.07
629.12	1236.44
629.46	1229.28
629.81	1221.89
630.15	1214.75
630.50	1207.41
630.84	1199.29
631.19	1191.50
631.53	1184.16
631.88	1176.65
632.22	1169.10
632.57	1161.91
632.91	1154.44
633.26	1147.12
633.60	1139.83
633.95	1132.91
634.29	1125.98
634.64	1119.35
634.98	1112.16
635.32	1105.09
635.67	1098.61
636.01	1091.99
636.36	1085.19
636.70	1078.76
637.05	1072.13
637.39	1065.72
637.73	1059.16
638.08	1053.37
638.42	1047.37
638.77	1040.95
639.11	1034.45
639.45	1028.14
639.80	1021.49
640.14	1015.08
640.49	1008.61
640.83	1002.36
641.17	996.07
641.52	989.73
641.86	983.38
642.20	977.57
642.55	971.30
642.89	964.81
643.23	958.36
643.58	952.61
643.92	946.46
644.26	940.38
644.61	934.36
644.95	928.42
645.29	921.82
645.64	915.07
645.98	908.77
646.32	902.99
646.66	896.89
647.01	891.18
647.35	885.49
647.69	879.75
648.04	874.28
648.38	868.45
648.72	862.43
649.06	856.38
649.41	850.49
649.75	844.43
650.09	838.39
650.43	832.61
650.78	826.49
651.12	820.47
651.46	814.78
651.80	809.05
652.14	803.77
652.49	798.50
652.83	793.38
653.17	787.67
653.51	781.89
653.85	776.58
654.20	770.90
654.54	764.96
654.88	759.15
655.22	753.28
655.56	747.64
655.90	742.22
656.25	736.95
656.59	731.57
656.93	726.61
657.27	721.53
657.61	716.11
657.95	711.06
658.29	706.09
658.64	700.97
658.98	695.68
659.32	690.10
659.66	684.83
660.00	679.53
660.34	674.67
660.68	669.78
661.02	664.79
661.36	660.12
661.70	655.60
662.05	651.31
662.39	647.03
662.73	642.63
663.07	638.34
663.41	633.94
663.75	629.49
664.09	624.98
664.43	620.71
664.77	616.64
665.11	612.38
665.45	608.27
665.79	604.23
666.13	600.21
666.47	596.23
666.81	592.14
667.15	588.03
667.49	584.20
667.83	580.48
668.17	576.53
668.51	572.50
668.85	568.53
669.19	564.68
669.53	560.81
669.87	556.99
670.21	553.31
670.55	549.73
670.89	546.30
671.23	542.85
671.57	539.31
671.91	535.76
672.25	532.37
672.58	528.93
672.92	525.51
673.26	522.30
673.60	519.14
673.94	516.07
674.28	513.24
674.62	510.31
674.96	507.20
675.30	504.36
675.64	501.47
675.97	498.77
676.31	495.98
676.65	493.08
676.99	490.34
677.33	487.51
677.67	484.67
678.01	481.67
678.34	478.69
678.68	475.88
679.02	473.10
679.36	470.33
679.70	467.58
680.04	464.87
680.37	462.05
680.71	459.30
681.05	456.72
681.39	454.00
681.73	451.32
682.06	448.82
682.40	446.30
682.74	443.81
683.08	441.29
683.42	438.69
683.75	436.28
684.09	433.72
684.43	431.30
684.77	428.86
685.10	426.52
685.44	424.29
685.78	421.99
686.12	419.78
686.45	417.51
686.79	415.23
687.13	413.03
687.46	410.89
687.80	408.82
688.14	406.61
688.48	404.60
688.81	402.36
689.15	400.23
689.49	398.08
689.82	396.00
690.16	393.91
690.50	392.00
690.83	390.02
691.17	388.14
691.51	386.21
691.84	384.38
692.18	382.46
692.52	380.45
692.85	378.57
693.19	376.73
693.52	374.93
693.86	373.17
694.20	371.42
694.53	369.59
694.87	367.70
695.21	365.94
695.54	364.11
695.88	362.43
696.21	360.68
696.55	358.97
696.88	357.34
697.22	355.73
697.56	354.08
697.89	352.43
698.23	350.80
698.56	349.22
698.90	347.62
699.23	346.01
699.57	344.46
699.90	342.91
700.24	341.34
700.58	339.79
700.91	338.31
701.25	336.85
701.58	335.55
701.92	334.23
702.25	332.82
702.59	331.44
702.92	330.10
703.26	328.81
703.59	327.57
703.93	326.34
704.26	325.12
704.60	323.82
704.93	322.57
705.26	321.34
705.60	320.16
705.93	319.00
706.27	317.98
706.60	316.98
706.94	315.89
707.27	314.76
707.61	313.69
707.94	312.65
708.27	311.57
708.61	310.45
708.94	309.45
709.28	308.47
709.61	307.53
709.94	306.59
710.28	305.63
710.61	304.65
710.95	303.57
711.28	302.63
711.61	301.70
711.95	300.78
712.28	299.81
712.61	298.83
712.95	297.94
713.28	297.10
713.61	296.18
713.95	295.32
714.28	294.51
714.61	293.63
714.95	292.82
715.28	291.99
715.61	291.14
715.95	290.30
716.28	289.45
716.61	288.65
716.95	287.87
717.28	287.13
717.61	286.37
717.94	285.66
718.28	284.89
718.61	284.18
718.94	283.52
719.27	282.92
719.61	282.28
719.94	281.61
720.27	280.85
720.60	280.21
720.94	279.56
721.27	278.98
721.60	278.48
721.93	277.87
722.27	277.33
722.60	276.78
722.93	276.18
723.26	275.68
723.59	275.10
723.93	274.56
724.26	274.03
724.59	273.47
724.92	272.96
725.25	272.46
725.59	271.96
725.92	271.43
726.25	270.91
726.58	270.45
726.91	269.97
727.24	269.52
727.57	269.05
727.91	268.52
728.24	268.03
728.57	267.52
728.90	267.07
729.23	266.54
729.56	266.15
729.89	265.71
730.22	265.20
730.55	264.73
730.89	264.27
731.22	263.81
731.55	263.37
731.88	262.97
732.21	262.55
732.54	262.11
732.87	261.67
733.20	261.27
733.53	260.87
733.86	260.51
734.19	260.10
734.52	259.75
734.85	259.49
735.18	259.11
735.51	258.77
735.84	258.41
736.17	258.09
736.50	257.67
736.83	257.43
737.16	257.09
737.49	256.83
737.82	256.49
738.15	256.16
738.48	255.84
738.81	255.51
739.14	255.18
739.47	254.84
739.80	254.55
740.13	254.24
740.46	253.87
740.79	253.50
741.12	253.21
741.45	252.88
741.78	252.48
742.11	252.18
742.44	251.84
742.77	251.53
743.10	251.23
743.43	250.93
743.75	250.53
744.08	250.40
744.41	250.01
744.74	249.72
745.07	249.42
745.40	249.18
745.73	248.94
746.06	248.64
746.39	248.36
746.71	248.10
747.04	247.82
747.37	247.58
747.70	247.40
748.03	247.13
748.36	246.91
748.68	246.69
749.01	246.41
749.34	246.19
749.67	245.92
750.00	245.69
750.33	245.52
750.65	245.31
750.98	245.00
751.31	244.80
751.64	244.60
751.97	244.45
752.29	244.21
752.62	243.92
752.95	243.72
753.28	243.57
753.60	243.36
753.93	243.21
754.26	243.04
754.59	242.77
754.91	242.58
755.24	242.38
755.57	242.17
755.90	241.99
756.22	241.82
756.55	241.66
756.88	241.44
757.20	241.24
757.53	241.08
757.86	240.90
758.19	240.78
758.51	240.63
758.84	240.46
759.17	240.32
759.49	240.21
759.82	240.12
760.15	239.94
760.47	239.83
760.80	239.60
761.13	239.48
761.45	239.35
761.78	239.21
762.11	239.08
762.43	238.97
762.76	238.87
763.08	238.72
763.41	238.62
763.74	238.54
764.06	238.37
764.39	238.21
764.71	238.06
765.04	237.91
765.37	237.76
765.69	237.63
766.02	237.50
766.34	237.37
766.67	237.21
767.00	237.08
767.32	236.99
767.65	236.94
767.97	236.81
768.30	236.73
768.62	236.64
768.95	236.52
769.27	236.41
769.60	236.29
769.92	236.19
770.25	236.06
770.57	235.94
770.90	235.86
771.22	235.75
771.55	235.70
771.87	235.61
772.20	235.53
772.52	235.52
772.85	235.54
773.17	235.46
773.50	235.38
773.82	235.29
774.15	235.18
774.47	235.03
774.80	234.94
775.12	234.83
775.45	234.72
775.77	234.64
776.09	234.57
776.42	234.49
776.74	234.43
777.07	234.37
777.39	234.27
777.72	234.23
778.04	234.19
778.36	234.07
778.69	234.01
779.01	233.97
779.33	233.83
779.66	233.64
779.98	233.54
780.31	233.47
780.63	233.43
780.95	233.35
781.28	233.30
781.60	233.22
781.92	233.13
782.25	233.08
782.57	233.01
782.89	232.92
783.22	232.86
783.54	232.77
783.86	232.69
784.19	232.63
784.51	232.56
784.83	232.44
785.16	232.39
785.48	232.32
785.80	232.22
786.12	232.16
786.45	232.10
786.77	232.05
787.09	231.97
