SpectraSuite Data File
++++++++++++++++++++++++++++++++++++
Date: Fri Feb 01 15:33:49 EST 2013
User: group
Dark Spectrum Present: No
Reference Spectrum Present: No
Number of Sampled Component Spectra: 1
Spectrometers: USB2E7196
Integration Time (usec): 35000 (USB2E7196)
Spectra Averaged: 100 (USB2E7196)
Boxcar Smoothing: 10 (USB2E7196)
Correct for Electrical Dark: No (USB2E7196)
Strobe/Lamp Enabled: No (USB2E7196)
Correct for Detector Non-linearity: No (USB2E7196)
Correct for Stray Light: No (USB2E7196)
Number of Pixels in Processed Spectrum: 2048
>>>>>Begin Processed Spectral Data<<<<<
339.09	0.00
339.48	214.86
339.86	216.38
340.24	218.26
340.63	219.03
341.01	221.31
341.39	221.60
341.78	222.84
342.16	224.49
342.54	224.58
342.93	213.11
343.31	223.86
343.69	224.40
344.07	224.82
344.46	225.21
344.84	225.60
345.22	225.84
345.60	226.07
345.99	226.25
346.37	226.35
346.75	226.45
347.13	226.52
347.52	226.58
347.90	226.68
348.28	226.70
348.66	226.72
349.05	226.71
349.43	226.75
349.81	226.78
350.19	226.79
350.57	226.86
350.96	226.92
351.34	227.01
351.72	227.09
352.10	227.22
352.48	227.30
352.87	227.34
353.25	227.44
353.63	227.53
354.01	227.61
354.39	227.71
354.77	227.84
355.15	227.94
355.54	228.01
355.92	228.00
356.30	228.06
356.68	228.23
357.06	228.33
357.44	228.37
357.82	228.46
358.20	228.57
358.58	228.62
358.97	228.69
359.35	228.76
359.73	228.88
360.11	228.94
360.49	228.99
360.87	229.05
361.25	229.11
361.63	229.20
362.01	229.22
362.39	229.25
362.77	229.27
363.15	229.32
363.53	229.38
363.91	229.44
364.29	229.49
364.67	229.39
365.05	229.37
365.43	229.44
365.81	229.45
366.19	229.49
366.57	229.55
366.95	229.56
367.33	229.55
367.71	229.54
368.09	229.54
368.47	229.51
368.85	229.49
369.23	229.46
369.61	229.40
369.99	229.42
370.37	229.39
370.75	229.38
371.13	229.29
371.51	229.20
371.89	229.17
372.27	229.13
372.65	229.10
373.03	229.09
373.41	229.01
373.78	228.96
374.16	228.85
374.54	228.75
374.92	228.64
375.30	228.58
375.68	228.46
376.06	228.38
376.44	228.33
376.82	228.22
377.19	228.17
377.57	228.10
377.95	228.01
378.33	227.95
378.71	227.84
379.09	227.83
379.47	227.78
379.84	227.69
380.22	227.59
380.60	227.51
380.98	227.41
381.36	227.36
381.73	227.30
382.11	227.23
382.49	227.16
382.87	227.12
383.25	227.03
383.62	227.10
384.00	227.03
384.38	226.99
384.76	226.98
385.13	226.94
385.51	226.86
385.89	226.79
386.27	226.71
386.64	226.68
387.02	226.62
387.40	226.56
387.78	226.51
388.15	226.46
388.53	226.40
388.91	226.37
389.29	226.29
389.66	226.25
390.04	226.20
390.42	226.20
390.79	226.18
391.17	226.17
391.55	226.06
391.92	226.05
392.30	226.03
392.68	226.02
393.05	225.99
393.43	226.01
393.81	225.99
394.18	226.00
394.56	225.99
394.94	225.98
395.31	225.98
395.69	226.01
396.06	226.08
396.44	226.11
396.82	226.13
397.19	226.23
397.57	226.28
397.95	226.38
398.32	226.41
398.70	226.45
399.07	226.57
399.45	226.58
399.82	226.63
400.20	226.70
400.58	226.76
400.95	226.81
401.33	226.92
401.70	227.12
402.08	227.23
402.45	227.34
402.83	227.47
403.20	227.60
403.58	227.74
403.95	227.86
404.33	228.01
404.71	228.16
405.08	228.36
405.46	228.47
405.83	228.61
406.21	228.78
406.58	228.98
406.96	229.15
407.33	229.36
407.70	229.61
408.08	229.91
408.45	230.14
408.83	230.40
409.20	230.63
409.58	230.82
409.95	231.06
410.33	231.34
410.70	231.62
411.08	231.92
411.45	232.23
411.82	232.56
412.20	232.94
412.57	233.38
412.95	233.66
413.32	234.10
413.69	234.51
414.07	234.93
414.44	235.38
414.82	235.83
415.19	236.39
415.56	236.92
415.94	237.45
416.31	238.09
416.68	238.73
417.06	239.47
417.43	240.14
417.81	240.94
418.18	241.72
418.55	242.56
418.93	243.44
419.30	244.34
419.67	245.26
420.04	246.22
420.42	247.22
420.79	248.41
421.16	249.56
421.54	250.79
421.91	252.02
422.28	253.27
422.66	254.57
423.03	255.85
423.40	257.17
423.77	258.58
424.15	260.00
424.52	261.49
424.89	263.09
425.26	264.65
425.64	266.10
426.01	267.67
426.38	269.36
426.75	271.03
427.13	272.78
427.50	274.61
427.87	276.47
428.24	278.32
428.61	280.05
428.99	281.98
429.36	284.06
429.73	286.12
430.10	288.11
430.47	290.19
430.85	292.34
431.22	294.56
431.59	296.94
431.96	299.19
432.33	301.66
432.70	304.01
433.08	306.81
433.45	309.47
433.82	312.08
434.19	314.94
434.56	317.75
434.93	320.37
435.30	322.98
435.68	325.92
436.05	328.75
436.42	331.54
436.79	334.03
437.16	336.75
437.53	339.60
437.90	342.45
438.27	345.19
438.64	347.99
439.01	350.63
439.38	352.86
439.75	355.04
440.13	357.51
440.50	359.86
440.87	361.71
441.24	363.60
441.61	365.71
441.98	367.18
442.35	368.96
442.72	370.88
443.09	372.69
443.46	373.61
443.83	374.19
444.20	374.74
444.57	375.57
444.94	375.83
445.31	376.14
445.68	376.47
446.05	376.58
446.42	376.19
446.79	375.72
447.16	375.24
447.53	374.88
447.90	373.72
448.27	372.53
448.64	370.91
449.01	369.82
449.37	367.88
449.74	365.97
450.11	363.75
450.48	361.17
450.85	358.60
451.22	356.47
451.59	354.41
451.96	352.38
452.33	349.84
452.70	347.48
453.07	344.62
453.43	341.71
453.80	338.90
454.17	336.21
454.54	333.71
454.91	331.00
455.28	328.33
455.65	325.86
456.02	323.42
456.38	321.26
456.75	318.56
457.12	316.30
457.49	314.09
457.86	311.89
458.23	310.09
458.59	308.04
458.96	305.92
459.33	304.05
459.70	302.21
460.07	300.67
460.43	298.90
460.80	297.29
461.17	295.90
461.54	294.39
461.91	292.98
462.27	291.51
462.64	290.30
463.01	288.96
463.38	287.64
463.74	286.28
464.11	285.13
464.48	284.11
464.85	283.02
465.21	282.14
465.58	281.24
465.95	280.12
466.32	279.21
466.68	278.37
467.05	277.51
467.42	276.64
467.78	275.72
468.15	274.87
468.52	274.23
468.88	273.33
469.25	272.57
469.62	271.92
469.98	271.26
470.35	270.62
470.72	270.04
471.08	269.38
471.45	268.85
471.82	268.32
472.18	267.73
472.55	267.31
472.92	266.76
473.28	266.28
473.65	265.87
474.02	265.44
474.38	265.06
474.75	264.73
475.11	264.38
475.48	264.13
475.85	263.88
476.21	263.64
476.58	263.46
476.94	263.29
477.31	263.15
477.67	262.99
478.04	262.86
478.41	262.82
478.77	262.86
479.14	262.81
479.50	262.82
479.87	262.94
480.23	263.03
480.60	263.13
480.96	263.21
481.33	263.41
481.69	263.63
482.06	263.84
482.42	264.07
482.79	264.33
483.15	264.62
483.52	265.04
483.88	265.38
484.25	265.79
484.61	266.22
484.98	266.68
485.34	267.21
485.71	267.78
486.07	268.38
486.44	268.98
486.80	269.67
487.17	270.38
487.53	271.18
487.90	272.03
488.26	272.98
488.62	273.98
488.99	274.92
489.35	275.94
489.72	277.04
490.08	278.21
490.44	279.43
490.81	280.80
491.17	282.13
491.54	283.63
491.90	285.18
492.26	286.85
492.63	288.58
492.99	290.36
493.36	292.29
493.72	294.35
494.08	296.42
494.45	298.65
494.81	301.05
495.17	303.44
495.54	305.99
495.90	308.67
496.26	311.49
496.63	314.48
496.99	317.58
497.35	320.86
497.72	324.32
498.08	327.88
498.44	331.51
498.80	335.41
499.17	339.45
499.53	343.60
499.89	347.97
500.26	352.51
500.62	357.20
500.98	362.15
501.34	367.22
501.71	372.57
502.07	378.03
502.43	383.62
502.79	389.51
503.16	395.57
503.52	401.85
503.88	408.25
504.24	414.89
504.60	421.81
504.97	428.95
505.33	436.26
505.69	443.97
506.05	451.76
506.41	459.69
506.78	467.87
507.14	476.33
507.50	485.12
507.86	494.16
508.22	503.36
508.59	512.60
508.95	522.15
509.31	531.98
509.67	542.12
510.03	552.42
510.39	562.95
510.75	573.81
511.12	584.77
511.48	596.15
511.84	607.59
512.20	619.11
512.56	631.03
512.92	643.26
513.28	655.63
513.64	668.21
514.00	680.92
514.37	693.81
514.73	706.80
515.09	719.79
515.45	733.09
515.81	746.69
516.17	760.67
516.53	774.80
516.89	788.94
517.25	803.13
517.61	817.61
517.97	832.10
518.33	846.48
518.69	861.25
519.05	876.19
519.41	891.39
519.77	907.02
520.13	922.48
520.49	937.81
520.85	953.14
521.21	968.84
521.57	985.06
521.93	1000.93
522.29	1017.45
522.65	1033.70
523.01	1049.97
523.37	1066.02
523.73	1082.29
524.09	1098.46
524.45	1114.88
524.81	1131.58
525.17	1148.51
525.53	1165.46
525.89	1182.41
526.25	1199.22
526.61	1215.65
526.97	1232.52
527.33	1248.94
527.68	1265.60
528.04	1282.13
528.40	1298.90
528.76	1315.95
529.12	1332.64
529.48	1349.56
529.84	1365.60
530.20	1382.28
530.56	1399.34
530.91	1416.92
531.27	1433.68
531.63	1450.16
531.99	1466.80
532.35	1482.75
532.71	1498.63
533.07	1514.87
533.42	1530.81
533.78	1547.00
534.14	1563.36
534.50	1578.64
534.86	1594.58
535.21	1609.69
535.57	1625.67
535.93	1641.19
536.29	1656.05
536.65	1671.17
537.00	1685.97
537.36	1701.48
537.72	1716.01
538.08	1730.43
538.44	1744.15
538.79	1758.10
539.15	1771.84
539.51	1785.47
539.87	1799.88
540.22	1813.62
540.58	1827.44
540.94	1840.83
541.29	1853.76
541.65	1866.41
542.01	1879.71
542.37	1892.07
542.72	1904.65
543.08	1916.46
543.44	1928.86
543.79	1940.17
544.15	1951.20
544.51	1962.80
544.87	1973.73
545.22	1984.54
545.58	1994.82
545.94	2004.58
546.29	2014.36
546.65	2024.24
547.01	2033.65
547.36	2042.40
547.72	2050.85
548.07	2058.52
548.43	2066.80
548.79	2074.83
549.14	2082.38
549.50	2089.80
549.86	2097.56
550.21	2104.87
550.57	2112.21
550.92	2118.78
551.28	2125.82
551.64	2132.81
551.99	2139.37
552.35	2145.44
552.70	2151.66
553.06	2157.52
553.41	2163.96
553.77	2170.08
554.13	2176.26
554.48	2182.37
554.84	2187.66
555.19	2192.91
555.55	2198.22
555.90	2202.55
556.26	2207.37
556.61	2212.09
556.97	2216.13
557.32	2220.18
557.68	2224.35
558.03	2228.48
558.39	2232.19
558.74	2236.89
559.10	2240.85
559.45	2244.46
559.81	2248.83
560.16	2252.74
560.52	2256.05
560.87	2259.55
561.23	2262.16
561.58	2265.15
561.94	2267.67
562.29	2270.27
562.64	2273.08
563.00	2275.75
563.35	2279.30
563.71	2282.41
564.06	2285.75
564.42	2288.75
564.77	2291.17
565.12	2293.40
565.48	2295.32
565.83	2297.21
566.19	2298.39
566.54	2299.32
566.89	2300.48
567.25	2301.02
567.60	2302.29
567.96	2303.95
568.31	2304.72
568.66	2305.78
569.02	2306.22
569.37	2306.50
569.72	2307.16
570.08	2307.25
570.43	2307.14
570.78	2306.47
571.14	2304.91
571.49	2303.29
571.84	2302.98
572.20	2301.94
572.55	2300.91
572.90	2299.28
573.26	2297.93
573.61	2296.13
573.96	2294.13
574.31	2291.01
574.67	2287.94
575.02	2284.28
575.37	2280.79
575.72	2276.79
576.08	2273.45
576.43	2270.00
576.78	2266.31
577.13	2263.18
577.49	2259.93
577.84	2256.46
578.19	2252.60
578.54	2248.79
578.90	2244.69
579.25	2239.02
579.60	2233.84
579.95	2228.64
580.30	2223.54
580.66	2218.17
581.01	2213.29
581.36	2208.39
581.71	2204.13
582.06	2199.61
582.42	2194.90
582.77	2189.62
583.12	2185.16
583.47	2180.36
583.82	2175.22
584.17	2169.94
584.53	2164.29
584.88	2158.73
585.23	2152.96
585.58	2147.50
585.93	2142.14
586.28	2137.38
586.63	2132.24
586.98	2127.35
587.34	2122.68
587.69	2117.81
588.04	2112.54
588.39	2106.79
588.74	2100.38
589.09	2094.25
589.44	2087.32
589.79	2081.37
590.14	2075.72
590.49	2068.91
590.84	2062.54
591.19	2056.55
591.54	2049.95
591.89	2042.61
592.25	2035.72
592.60	2028.39
592.95	2020.91
593.30	2013.53
593.65	2005.78
594.00	1998.84
594.35	1991.47
594.70	1983.44
595.05	1976.07
595.40	1968.83
595.75	1961.27
596.10	1954.96
596.45	1948.17
596.80	1942.07
597.15	1935.37
597.50	1928.18
597.85	1921.78
598.19	1915.01
598.54	1907.83
598.89	1901.16
599.24	1895.30
599.59	1888.45
599.94	1882.19
600.29	1875.87
600.64	1869.21
600.99	1861.67
601.34	1854.66
601.69	1847.82
602.04	1840.90
602.39	1833.57
602.74	1826.59
603.08	1819.84
603.43	1813.09
603.78	1805.82
604.13	1798.62
604.48	1791.25
604.83	1784.46
605.18	1777.46
605.53	1769.35
605.87	1761.38
606.22	1754.11
606.57	1746.03
606.92	1738.81
607.27	1731.54
607.62	1724.51
607.96	1717.19
608.31	1710.58
608.66	1702.96
609.01	1695.13
609.36	1687.56
609.70	1679.51
610.05	1671.45
610.40	1663.71
610.75	1655.25
611.10	1647.49
611.44	1639.10
611.79	1631.15
612.14	1622.39
612.49	1613.18
612.83	1604.94
613.18	1596.79
613.53	1588.75
613.88	1580.19
614.22	1571.86
614.57	1563.36
614.92	1555.21
615.27	1547.55
615.61	1539.14
615.96	1531.09
616.31	1523.54
616.65	1516.13
617.00	1508.63
617.35	1500.91
617.70	1492.56
618.04	1484.08
618.39	1475.89
618.74	1468.18
619.08	1459.84
619.43	1452.27
619.78	1445.34
620.12	1438.05
620.47	1430.55
620.82	1422.27
621.16	1414.95
621.51	1407.30
621.85	1399.71
622.20	1391.30
622.55	1383.02
622.89	1375.31
623.24	1367.74
623.59	1360.38
623.93	1352.89
624.28	1345.61
624.62	1338.11
624.97	1330.92
625.32	1324.15
625.66	1317.18
626.01	1310.02
626.35	1302.55
626.70	1294.79
627.04	1287.06
627.39	1279.44
627.73	1271.97
628.08	1265.05
628.43	1257.62
628.77	1250.29
629.12	1242.63
629.46	1235.38
629.81	1228.02
630.15	1220.72
630.50	1213.28
630.84	1205.08
631.19	1197.07
631.53	1189.56
631.88	1182.07
632.22	1174.49
632.57	1167.23
632.91	1159.63
633.26	1152.15
633.60	1144.85
633.95	1137.83
634.29	1130.84
634.64	1124.15
634.98	1116.81
635.32	1109.76
635.67	1103.30
636.01	1096.58
636.36	1089.83
636.70	1083.42
637.05	1076.93
637.39	1070.50
637.73	1063.95
638.08	1058.04
638.42	1052.06
638.77	1045.63
639.11	1039.04
639.45	1032.70
639.80	1025.97
640.14	1019.57
640.49	1013.11
640.83	1006.89
641.17	1000.57
641.52	994.23
641.86	987.80
642.20	981.94
642.55	975.66
642.89	969.04
643.23	962.60
643.58	956.88
643.92	950.59
644.26	944.35
644.61	938.41
644.95	932.41
645.29	925.81
645.64	919.02
645.98	912.67
646.32	906.79
646.66	900.69
647.01	894.97
647.35	889.16
647.69	883.34
648.04	877.78
648.38	872.01
648.72	866.02
649.06	859.84
649.41	853.99
649.75	847.92
650.09	842.02
650.43	836.22
650.78	830.00
651.12	824.07
651.46	818.39
651.80	812.53
652.14	807.14
652.49	801.68
652.83	796.58
653.17	790.88
653.51	785.12
653.85	779.83
654.20	774.08
654.54	768.13
654.88	762.39
655.22	756.43
655.56	750.74
655.90	745.26
656.25	740.07
656.59	734.61
656.93	729.53
657.27	724.40
657.61	718.93
657.95	713.88
658.29	708.73
658.64	703.52
658.98	698.21
659.32	692.70
659.66	687.51
660.00	682.15
660.34	677.20
660.68	672.34
661.02	667.25
661.36	662.59
661.70	658.13
662.05	653.77
662.39	649.48
662.73	645.04
663.07	640.64
663.41	636.10
663.75	631.63
664.09	627.12
664.43	622.71
664.77	618.61
665.11	614.36
665.45	610.23
665.79	606.10
666.13	602.04
666.47	598.04
666.81	593.96
667.15	589.80
667.49	585.96
667.83	582.19
668.17	578.22
668.51	574.09
668.85	569.99
669.19	566.09
669.53	562.26
669.87	558.38
670.21	554.71
670.55	551.17
670.89	547.79
671.23	544.32
671.57	540.81
671.91	537.27
672.25	533.74
672.58	530.26
672.92	526.86
673.26	523.69
673.60	520.53
673.94	517.40
674.28	514.54
674.62	511.56
674.96	508.41
675.30	505.54
675.64	502.70
675.97	499.99
676.31	497.16
676.65	494.22
676.99	491.54
677.33	488.66
677.67	485.80
678.01	482.75
678.34	479.74
678.68	476.93
679.02	474.12
679.36	471.40
679.70	468.70
680.04	465.94
680.37	463.03
680.71	460.28
681.05	457.66
681.39	454.95
681.73	452.31
682.06	449.78
682.40	447.14
682.74	444.60
683.08	442.07
683.42	439.49
683.75	436.97
684.09	434.41
684.43	431.96
684.77	429.51
685.10	427.18
685.44	424.96
685.78	422.67
686.12	420.42
686.45	418.10
686.79	415.81
687.13	413.66
687.46	411.54
687.80	409.38
688.14	407.20
688.48	405.19
688.81	402.92
689.15	400.76
689.49	398.69
689.82	396.61
690.16	394.48
690.50	392.50
690.83	390.55
691.17	388.60
691.51	386.75
691.84	384.95
692.18	383.02
692.52	381.03
692.85	379.10
693.19	377.21
693.52	375.39
693.86	373.56
694.20	371.71
694.53	369.88
694.87	367.99
695.21	366.19
695.54	364.36
695.88	362.67
696.21	360.97
696.55	359.29
696.88	357.63
697.22	356.05
697.56	354.44
697.89	352.77
698.23	351.13
698.56	349.48
698.90	347.87
699.23	346.25
699.57	344.70
699.90	343.19
700.24	341.64
700.58	340.12
700.91	338.65
701.25	337.26
701.58	335.91
701.92	334.54
702.25	333.16
702.59	331.76
702.92	330.44
703.26	329.14
703.59	327.83
703.93	326.66
704.26	325.37
704.60	324.09
704.93	322.82
705.26	321.58
705.60	320.44
705.93	319.26
706.27	318.23
706.60	317.16
706.94	316.05
707.27	314.90
707.61	313.84
707.94	312.82
708.27	311.72
708.61	310.62
708.94	309.64
709.28	308.69
709.61	307.75
709.94	306.80
710.28	305.76
710.61	304.79
710.95	303.68
711.28	302.82
711.61	301.84
711.95	300.98
712.28	300.02
712.61	299.00
712.95	298.08
713.28	297.18
713.61	296.28
713.95	295.37
714.28	294.54
714.61	293.67
714.95	292.82
715.28	291.96
715.61	291.09
715.95	290.23
716.28	289.32
716.61	288.52
716.95	287.72
717.28	287.00
717.61	286.25
717.94	285.55
718.28	284.71
718.61	284.00
718.94	283.27
719.27	282.62
719.61	281.99
719.94	281.33
720.27	280.62
720.60	279.93
720.94	279.36
721.27	278.77
721.60	278.23
721.93	277.66
722.27	277.11
722.60	276.59
722.93	276.00
723.26	275.49
723.59	274.89
723.93	274.33
724.26	273.75
724.59	273.20
724.92	272.62
725.25	272.13
725.59	271.62
725.92	271.14
726.25	270.62
726.58	270.13
726.91	269.67
727.24	269.20
727.57	268.77
727.91	268.24
728.24	267.78
728.57	267.28
728.90	266.81
729.23	266.31
729.56	265.86
729.89	265.39
730.22	264.93
730.55	264.49
730.89	264.03
731.22	263.60
731.55	263.17
731.88	262.78
732.21	262.35
732.54	261.91
732.87	261.50
733.20	261.13
733.53	260.76
733.86	260.35
734.19	259.93
734.52	259.54
734.85	259.20
735.18	258.77
735.51	258.40
735.84	258.01
736.17	257.71
736.50	257.29
736.83	257.05
737.16	256.69
737.49	256.35
737.82	256.01
738.15	255.68
738.48	255.34
738.81	254.99
739.14	254.65
739.47	254.33
739.80	254.02
740.13	253.70
740.46	253.34
740.79	253.00
741.12	252.71
741.45	252.40
741.78	252.06
742.11	251.79
742.44	251.47
742.77	251.20
743.10	250.82
743.43	250.51
743.75	250.15
744.08	250.01
744.41	249.73
744.74	249.48
745.07	249.18
745.40	248.92
745.73	248.67
746.06	248.40
746.39	248.16
746.71	247.85
747.04	247.55
747.37	247.33
747.70	247.07
748.03	246.82
748.36	246.59
748.68	246.35
749.01	246.09
749.34	245.88
749.67	245.61
750.00	245.44
750.33	245.30
750.65	245.06
750.98	244.71
751.31	244.49
751.64	244.27
751.97	244.11
752.29	243.90
752.62	243.67
752.95	243.46
753.28	243.23
753.60	243.01
753.93	242.83
754.26	242.60
754.59	242.39
754.91	242.15
755.24	241.94
755.57	241.76
755.90	241.59
756.22	241.38
756.55	241.22
756.88	240.99
757.20	240.80
757.53	240.63
757.86	240.46
758.19	240.30
758.51	240.13
758.84	239.90
759.17	239.70
759.49	239.56
759.82	239.42
760.15	239.24
760.47	239.12
760.80	238.93
761.13	238.82
761.45	238.65
761.78	238.54
762.11	238.42
762.43	238.27
762.76	238.14
763.08	237.99
763.41	237.85
763.74	237.70
764.06	237.55
764.39	237.38
764.71	237.26
765.04	237.13
765.37	237.02
765.69	236.88
766.02	236.78
766.34	236.62
766.67	236.50
767.00	236.42
767.32	236.39
767.65	236.36
767.97	236.25
768.30	236.16
768.62	236.07
768.95	235.93
769.27	235.81
769.60	235.72
769.92	235.60
770.25	235.48
770.57	235.38
770.90	235.27
771.22	235.20
771.55	235.11
771.87	235.01
772.20	234.88
772.52	234.90
772.85	234.92
773.17	234.85
773.50	234.74
773.82	234.66
774.15	234.49
774.47	234.35
774.80	234.24
775.12	234.14
775.45	234.05
775.77	233.96
776.09	233.90
776.42	233.82
776.74	233.75
777.07	233.65
777.39	233.57
777.72	233.51
778.04	233.43
778.36	233.34
778.69	233.26
779.01	233.22
779.33	233.04
779.66	232.90
779.98	232.84
780.31	232.76
780.63	232.71
780.95	232.68
781.28	232.62
781.60	232.55
781.92	232.48
782.25	232.42
782.57	232.40
782.89	232.35
783.22	232.26
783.54	232.19
783.86	232.15
784.19	232.10
784.51	232.05
784.83	232.00
785.16	231.96
785.48	231.91
785.80	231.85
786.12	231.81
786.45	231.76
786.77	231.70
787.09	231.68
