SpectraSuite Data File
++++++++++++++++++++++++++++++++++++
Date: Fri Feb 01 15:34:29 EST 2013
User: group
Dark Spectrum Present: No
Reference Spectrum Present: No
Number of Sampled Component Spectra: 1
Spectrometers: USB2E7196
Integration Time (usec): 35000 (USB2E7196)
Spectra Averaged: 100 (USB2E7196)
Boxcar Smoothing: 10 (USB2E7196)
Correct for Electrical Dark: No (USB2E7196)
Strobe/Lamp Enabled: No (USB2E7196)
Correct for Detector Non-linearity: No (USB2E7196)
Correct for Stray Light: No (USB2E7196)
Number of Pixels in Processed Spectrum: 2048
>>>>>Begin Processed Spectral Data<<<<<
339.09	0.00
339.48	214.79
339.86	216.53
340.24	217.77
340.63	219.54
341.01	222.60
341.39	221.79
341.78	223.31
342.16	224.34
342.54	224.91
342.93	213.38
343.31	224.15
343.69	224.68
344.07	225.16
344.46	225.58
344.84	225.92
345.22	226.12
345.60	226.36
345.99	226.55
346.37	226.67
346.75	226.78
347.13	226.83
347.52	226.90
347.90	227.00
348.28	227.03
348.66	227.04
349.05	227.02
349.43	227.07
349.81	227.12
350.19	227.18
350.57	227.23
350.96	227.30
351.34	227.42
351.72	227.51
352.10	227.59
352.48	227.69
352.87	227.75
353.25	227.80
353.63	227.88
354.01	227.92
354.39	228.01
354.77	228.08
355.15	228.18
355.54	228.21
355.92	228.25
356.30	228.32
356.68	228.47
357.06	228.57
357.44	228.65
357.82	228.67
358.20	228.73
358.58	228.79
358.97	228.85
359.35	228.89
359.73	228.96
360.11	229.02
360.49	229.07
360.87	229.15
361.25	229.25
361.63	229.34
362.01	229.39
362.39	229.41
362.77	229.47
363.15	229.50
363.53	229.52
363.91	229.57
364.29	229.59
364.67	229.52
365.05	229.53
365.43	229.53
365.81	229.57
366.19	229.62
366.57	229.64
366.95	229.63
367.33	229.58
367.71	229.60
368.09	229.55
368.47	229.50
368.85	229.50
369.23	229.46
369.61	229.36
369.99	229.35
370.37	229.33
370.75	229.31
371.13	229.25
371.51	229.19
371.89	229.12
372.27	229.07
372.65	229.03
373.03	228.97
373.41	228.91
373.78	228.85
374.16	228.72
374.54	228.62
374.92	228.58
375.30	228.53
375.68	228.42
376.06	228.40
376.44	228.32
376.82	228.21
377.19	228.13
377.57	228.09
377.95	228.00
378.33	227.91
378.71	227.78
379.09	227.71
379.47	227.66
379.84	227.59
380.22	227.51
380.60	227.38
380.98	227.30
381.36	227.21
381.73	227.10
382.11	227.07
382.49	227.00
382.87	226.89
383.25	226.84
383.62	226.88
384.00	226.78
384.38	226.74
384.76	226.73
385.13	226.73
385.51	226.63
385.89	226.57
386.27	226.53
386.64	226.49
387.02	226.44
387.40	226.36
387.78	226.32
388.15	226.27
388.53	226.26
388.91	226.23
389.29	226.20
389.66	226.19
390.04	226.17
390.42	226.15
390.79	226.15
391.17	226.13
391.55	226.01
391.92	226.00
392.30	226.00
392.68	225.91
393.05	225.89
393.43	225.95
393.81	225.99
394.18	226.02
394.56	226.04
394.94	226.09
395.31	226.15
395.69	226.22
396.06	226.24
396.44	226.31
396.82	226.33
397.19	226.41
397.57	226.47
397.95	226.51
398.32	226.55
398.70	226.62
399.07	226.72
399.45	226.81
399.82	226.88
400.20	226.95
400.58	227.08
400.95	227.12
401.33	227.22
401.70	227.36
402.08	227.46
402.45	227.58
402.83	227.69
403.20	227.78
403.58	227.86
403.95	228.05
404.33	228.16
404.71	228.33
405.08	228.51
405.46	228.60
405.83	228.74
406.21	228.93
406.58	229.11
406.96	229.27
407.33	229.43
407.70	229.62
408.08	229.90
408.45	230.12
408.83	230.37
409.20	230.58
409.58	230.76
409.95	231.00
410.33	231.30
410.70	231.55
411.08	231.86
411.45	232.18
411.82	232.48
412.20	232.84
412.57	233.26
412.95	233.57
413.32	233.99
413.69	234.43
414.07	234.85
414.44	235.29
414.82	235.75
415.19	236.31
415.56	236.90
415.94	237.43
416.31	238.04
416.68	238.69
417.06	239.40
417.43	240.06
417.81	240.82
418.18	241.56
418.55	242.41
418.93	243.31
419.30	244.20
419.67	245.14
420.04	246.09
420.42	247.05
420.79	248.23
421.16	249.40
421.54	250.58
421.91	251.80
422.28	253.06
422.66	254.41
423.03	255.68
423.40	257.00
423.77	258.44
424.15	259.90
424.52	261.37
424.89	262.95
425.26	264.49
425.64	265.95
426.01	267.58
426.38	269.20
426.75	270.84
427.13	272.55
427.50	274.35
427.87	276.23
428.24	278.11
428.61	279.87
428.99	281.79
429.36	283.87
429.73	285.93
430.10	287.96
430.47	290.01
430.85	292.15
431.22	294.37
431.59	296.75
431.96	299.02
432.33	301.51
432.70	303.93
433.08	306.74
433.45	309.41
433.82	312.06
434.19	314.97
434.56	317.79
434.93	320.50
435.30	323.11
435.68	326.02
436.05	328.85
436.42	331.63
436.79	334.15
437.16	336.86
437.53	339.69
437.90	342.47
438.27	345.25
438.64	348.07
439.01	350.69
439.38	352.95
439.75	355.07
440.13	357.58
440.50	359.89
440.87	361.75
441.24	363.69
441.61	365.80
441.98	367.28
442.35	369.10
442.72	370.91
443.09	372.71
443.46	373.71
443.83	374.29
444.20	374.81
444.57	375.66
444.94	375.96
445.31	376.30
445.68	376.68
446.05	376.74
446.42	376.40
446.79	375.97
447.16	375.52
447.53	375.23
447.90	374.04
448.27	372.91
448.64	371.34
449.01	370.21
449.37	368.22
449.74	366.31
450.11	364.06
450.48	361.60
450.85	359.07
451.22	356.91
451.59	354.91
451.96	353.01
452.33	350.41
452.70	348.07
453.07	345.27
453.43	342.39
453.80	339.62
454.17	336.98
454.54	334.42
454.91	331.64
455.28	328.96
455.65	326.52
456.02	324.04
456.38	321.92
456.75	319.22
457.12	316.99
457.49	314.77
457.86	312.58
458.23	310.74
458.59	308.73
458.96	306.57
459.33	304.71
459.70	302.81
460.07	301.31
460.43	299.55
460.80	297.94
461.17	296.50
461.54	294.99
461.91	293.53
462.27	292.11
462.64	290.87
463.01	289.49
463.38	288.16
463.74	286.82
464.11	285.63
464.48	284.63
464.85	283.55
465.21	282.71
465.58	281.82
465.95	280.70
466.32	279.81
466.68	278.96
467.05	278.06
467.42	277.16
467.78	276.24
468.15	275.36
468.52	274.68
468.88	273.84
469.25	273.08
469.62	272.43
469.98	271.74
470.35	271.11
470.72	270.50
471.08	269.83
471.45	269.26
471.82	268.71
472.18	268.11
472.55	267.64
472.92	267.11
473.28	266.62
473.65	266.19
474.02	265.72
474.38	265.36
474.75	265.01
475.11	264.65
475.48	264.37
475.85	264.14
476.21	263.89
476.58	263.70
476.94	263.54
477.31	263.36
477.67	263.18
478.04	263.05
478.41	263.04
478.77	263.07
479.14	262.99
479.50	263.03
479.87	263.06
480.23	263.18
480.60	263.25
480.96	263.35
481.33	263.53
481.69	263.70
482.06	263.88
482.42	264.06
482.79	264.31
483.15	264.65
483.52	265.04
483.88	265.36
484.25	265.72
484.61	266.09
484.98	266.53
485.34	267.10
485.71	267.72
486.07	268.32
486.44	268.89
486.80	269.62
487.17	270.32
487.53	271.15
487.90	271.97
488.26	272.90
488.62	273.90
488.99	274.89
489.35	275.92
489.72	277.05
490.08	278.28
490.44	279.52
490.81	280.85
491.17	282.19
491.54	283.70
491.90	285.26
492.26	286.96
492.63	288.72
492.99	290.53
493.36	292.40
493.72	294.41
494.08	296.52
494.45	298.75
494.81	301.12
495.17	303.57
495.54	306.19
495.90	308.84
496.26	311.61
496.63	314.57
496.99	317.71
497.35	320.94
497.72	324.35
498.08	327.89
498.44	331.58
498.80	335.48
499.17	339.51
499.53	343.67
499.89	348.05
500.26	352.60
500.62	357.24
500.98	362.21
501.34	367.29
501.71	372.57
502.07	378.03
502.43	383.61
502.79	389.43
503.16	395.43
503.52	401.74
503.88	408.12
504.24	414.73
504.60	421.66
504.97	428.85
505.33	436.13
505.69	443.77
506.05	451.55
506.41	459.51
506.78	467.66
507.14	476.12
507.50	484.84
507.86	493.83
508.22	503.00
508.59	512.19
508.95	521.75
509.31	531.67
509.67	541.74
510.03	552.05
510.39	562.61
510.75	573.45
511.12	584.40
511.48	595.77
511.84	607.22
512.20	618.74
512.56	630.69
512.92	642.93
513.28	655.30
513.64	667.79
514.00	680.50
514.37	693.46
514.73	706.53
515.09	719.56
515.45	732.95
515.81	746.54
516.17	760.58
516.53	774.76
516.89	788.89
517.25	803.11
517.61	817.57
517.97	832.04
518.33	846.51
518.69	861.32
519.05	876.28
519.41	891.51
519.77	907.08
520.13	922.51
520.49	937.84
520.85	953.24
521.21	968.95
521.57	985.18
521.93	1000.97
522.29	1017.36
522.65	1033.65
523.01	1049.85
523.37	1066.04
523.73	1082.27
524.09	1098.33
524.45	1114.64
524.81	1131.29
525.17	1148.09
525.53	1165.15
525.89	1181.94
526.25	1198.83
526.61	1215.22
526.97	1231.95
527.33	1248.43
527.68	1265.04
528.04	1281.53
528.40	1298.31
528.76	1315.43
529.12	1332.06
529.48	1348.91
529.84	1364.96
530.20	1381.66
530.56	1398.63
530.91	1416.08
531.27	1432.87
531.63	1449.47
531.99	1466.21
532.35	1482.32
532.71	1498.28
533.07	1514.45
533.42	1530.38
533.78	1546.45
534.14	1562.80
534.50	1578.11
534.86	1593.99
535.21	1609.23
535.57	1625.28
535.93	1640.79
536.29	1655.57
536.65	1670.65
537.00	1685.58
537.36	1701.03
537.72	1715.45
538.08	1729.91
538.44	1743.67
538.79	1757.53
539.15	1771.25
539.51	1784.97
539.87	1799.39
540.22	1813.10
540.58	1826.91
540.94	1840.41
541.29	1853.22
541.65	1865.88
542.01	1879.27
542.37	1891.65
542.72	1904.17
543.08	1915.87
543.44	1928.33
543.79	1939.82
544.15	1950.86
544.51	1962.46
544.87	1973.40
545.22	1984.33
545.58	1994.46
545.94	2004.30
546.29	2014.21
546.65	2024.04
547.01	2033.26
547.36	2042.00
547.72	2050.58
548.07	2058.35
548.43	2066.56
548.79	2074.74
549.14	2082.28
549.50	2089.67
549.86	2097.42
550.21	2104.76
550.57	2112.10
550.92	2118.64
551.28	2125.53
551.64	2132.64
551.99	2139.16
552.35	2145.27
552.70	2151.40
553.06	2157.56
553.41	2163.85
553.77	2169.80
554.13	2175.94
554.48	2182.15
554.84	2187.40
555.19	2192.72
555.55	2197.90
555.90	2202.33
556.26	2207.09
556.61	2211.92
556.97	2216.11
557.32	2220.28
557.68	2224.31
558.03	2228.46
558.39	2232.09
558.74	2236.69
559.10	2240.51
559.45	2244.16
559.81	2248.56
560.16	2252.43
560.52	2255.58
560.87	2259.05
561.23	2261.74
561.58	2264.49
561.94	2266.97
562.29	2269.44
562.64	2272.04
563.00	2274.64
563.35	2278.05
563.71	2281.21
564.06	2284.46
564.42	2287.40
564.77	2289.69
565.12	2291.94
565.48	2293.93
565.83	2295.81
566.19	2296.95
566.54	2297.97
566.89	2299.08
567.25	2299.48
567.60	2300.67
567.96	2302.44
568.31	2303.20
568.66	2304.40
569.02	2305.17
569.37	2305.46
569.72	2306.37
570.08	2306.60
570.43	2306.71
570.78	2306.08
571.14	2304.59
571.49	2303.15
571.84	2302.69
572.20	2301.68
572.55	2300.62
572.90	2298.92
573.26	2297.45
573.61	2295.86
573.96	2293.93
574.31	2290.88
574.67	2287.74
575.02	2284.20
575.37	2280.73
575.72	2276.92
576.08	2273.49
576.43	2270.08
576.78	2266.35
577.13	2263.01
577.49	2259.88
577.84	2256.34
578.19	2252.69
578.54	2248.91
578.90	2244.71
579.25	2239.12
579.60	2233.87
579.95	2228.86
580.30	2223.93
580.66	2218.79
581.01	2213.71
581.36	2208.68
581.71	2204.47
582.06	2200.22
582.42	2195.85
582.77	2190.49
583.12	2185.73
583.47	2180.98
583.82	2175.82
584.17	2170.63
584.53	2165.13
584.88	2159.33
585.23	2153.53
585.58	2147.97
585.93	2142.44
586.28	2137.61
586.63	2132.55
586.98	2127.56
587.34	2122.85
587.69	2117.96
588.04	2112.63
588.39	2107.05
588.74	2100.64
589.09	2094.43
589.44	2087.50
589.79	2081.27
590.14	2075.67
590.49	2069.11
590.84	2062.58
591.19	2056.54
591.54	2049.88
591.89	2042.49
592.25	2035.63
592.60	2028.29
592.95	2020.69
593.30	2013.30
593.65	2005.66
594.00	1998.57
594.35	1991.46
594.70	1983.38
595.05	1976.11
595.40	1968.77
595.75	1961.14
596.10	1954.81
596.45	1948.05
596.80	1941.91
597.15	1935.16
597.50	1927.98
597.85	1921.55
598.19	1914.93
598.54	1907.80
598.89	1901.15
599.24	1895.18
599.59	1888.38
599.94	1882.11
600.29	1875.77
600.64	1869.30
600.99	1861.64
601.34	1854.85
601.69	1847.67
602.04	1840.61
602.39	1833.12
602.74	1826.35
603.08	1819.69
603.43	1812.98
603.78	1805.73
604.13	1798.42
604.48	1791.17
604.83	1784.31
605.18	1777.24
605.53	1769.19
605.87	1761.14
606.22	1753.92
606.57	1745.88
606.92	1738.68
607.27	1731.53
607.62	1724.53
607.96	1717.13
608.31	1710.54
608.66	1702.83
609.01	1695.34
609.36	1687.72
609.70	1679.76
610.05	1671.67
610.40	1663.87
610.75	1655.44
611.10	1647.62
611.44	1639.36
611.79	1631.36
612.14	1622.60
612.49	1613.60
612.83	1605.16
613.18	1597.09
613.53	1588.98
613.88	1580.50
614.22	1572.11
614.57	1563.50
614.92	1555.40
615.27	1547.82
615.61	1539.53
615.96	1531.37
616.31	1523.72
616.65	1516.45
617.00	1508.75
617.35	1501.02
617.70	1492.60
618.04	1484.05
618.39	1475.81
618.74	1468.06
619.08	1459.78
619.43	1452.31
619.78	1445.32
620.12	1438.14
620.47	1430.54
620.82	1422.34
621.16	1414.97
621.51	1407.50
621.85	1399.87
622.20	1391.30
622.55	1382.93
622.89	1375.02
623.24	1367.55
623.59	1360.09
623.93	1352.54
624.28	1345.41
624.62	1337.85
624.97	1330.78
625.32	1324.09
625.66	1317.04
626.01	1309.83
626.35	1302.32
626.70	1294.43
627.04	1286.61
627.39	1278.90
627.73	1271.53
628.08	1264.71
628.43	1257.35
628.77	1249.95
629.12	1242.34
629.46	1235.24
629.81	1227.83
630.15	1220.62
630.50	1213.22
630.84	1205.03
631.19	1197.18
631.53	1189.67
631.88	1182.17
632.22	1174.61
632.57	1167.30
632.91	1159.85
633.26	1152.45
633.60	1145.15
633.95	1138.11
634.29	1131.19
634.64	1124.51
634.98	1117.15
635.32	1109.99
635.67	1103.41
636.01	1096.67
636.36	1089.90
636.70	1083.40
637.05	1076.84
637.39	1070.37
637.73	1063.88
638.08	1058.11
638.42	1052.08
638.77	1045.63
639.11	1039.00
639.45	1032.47
639.80	1025.81
640.14	1019.29
640.49	1012.80
640.83	1006.43
641.17	1000.20
641.52	993.84
641.86	987.38
642.20	981.51
642.55	975.20
642.89	968.65
643.23	962.13
643.58	956.31
643.92	950.04
644.26	943.96
644.61	937.93
644.95	931.75
645.29	925.07
645.64	918.34
645.98	911.95
646.32	906.08
646.66	900.19
647.01	894.36
647.35	888.73
647.69	882.92
648.04	877.40
648.38	871.61
648.72	865.58
649.06	859.50
649.41	853.62
649.75	847.60
650.09	841.61
650.43	835.83
650.78	829.67
651.12	823.72
651.46	818.04
651.80	812.31
652.14	806.98
652.49	801.67
652.83	796.48
653.17	790.80
653.51	785.04
653.85	779.57
654.20	773.98
654.54	767.90
654.88	762.10
655.22	756.23
655.56	750.57
655.90	745.09
656.25	739.90
656.59	734.50
656.93	729.44
657.27	724.32
657.61	718.87
657.95	713.86
658.29	708.73
658.64	703.49
658.98	698.20
659.32	692.69
659.66	687.42
660.00	682.06
660.34	677.12
660.68	672.28
661.02	667.23
661.36	662.51
661.70	658.13
662.05	653.89
662.39	649.57
662.73	645.13
663.07	640.82
663.41	636.37
663.75	631.86
664.09	627.33
664.43	622.99
664.77	618.91
665.11	614.67
665.45	610.62
665.79	606.56
666.13	602.43
666.47	598.44
666.81	594.32
667.15	590.23
667.49	586.33
667.83	582.55
668.17	578.64
668.51	574.62
668.85	570.58
669.19	566.67
669.53	562.76
669.87	558.80
670.21	555.10
670.55	551.47
670.89	548.12
671.23	544.64
671.57	541.15
671.91	537.61
672.25	534.09
672.58	530.57
672.92	527.14
673.26	523.94
673.60	520.77
673.94	517.59
674.28	514.68
674.62	511.73
674.96	508.56
675.30	505.68
675.64	502.71
675.97	499.92
676.31	497.04
676.65	494.16
676.99	491.46
677.33	488.57
677.67	485.67
678.01	482.60
678.34	479.67
678.68	476.81
679.02	473.97
679.36	471.20
679.70	468.53
680.04	465.78
680.37	462.93
680.71	460.12
681.05	457.56
681.39	454.88
681.73	452.26
682.06	449.74
682.40	447.17
682.74	444.66
683.08	442.12
683.42	439.51
683.75	437.05
684.09	434.53
684.43	432.00
684.77	429.62
685.10	427.31
685.44	425.01
685.78	422.68
686.12	420.48
686.45	418.21
686.79	415.89
687.13	413.70
687.46	411.58
687.80	409.40
688.14	407.18
688.48	405.12
688.81	402.87
689.15	400.73
689.49	398.60
689.82	396.48
690.16	394.39
690.50	392.44
690.83	390.48
691.17	388.50
691.51	386.66
691.84	384.80
692.18	382.82
692.52	380.84
692.85	378.97
693.19	377.01
693.52	375.19
693.86	373.39
694.20	371.61
694.53	369.78
694.87	367.98
695.21	366.20
695.54	364.40
695.88	362.66
696.21	360.96
696.55	359.26
696.88	357.61
697.22	355.97
697.56	354.35
697.89	352.68
698.23	351.09
698.56	349.45
698.90	347.87
699.23	346.27
699.57	344.70
699.90	343.14
700.24	341.61
700.58	340.00
700.91	338.55
701.25	337.11
701.58	335.76
701.92	334.39
702.25	333.03
702.59	331.63
702.92	330.37
703.26	329.05
703.59	327.76
703.93	326.56
704.26	325.33
704.60	324.03
704.93	322.76
705.26	321.47
705.60	320.33
705.93	319.16
706.27	318.09
706.60	317.01
706.94	315.92
707.27	314.77
707.61	313.75
707.94	312.67
708.27	311.58
708.61	310.48
708.94	309.48
709.28	308.50
709.61	307.55
709.94	306.57
710.28	305.57
710.61	304.60
710.95	303.54
711.28	302.62
711.61	301.71
711.95	300.83
712.28	299.91
712.61	298.92
712.95	297.98
713.28	297.11
713.61	296.22
713.95	295.34
714.28	294.53
714.61	293.67
714.95	292.84
715.28	291.95
715.61	291.08
715.95	290.21
716.28	289.35
716.61	288.52
716.95	287.67
717.28	286.93
717.61	286.13
717.94	285.40
718.28	284.62
718.61	283.85
718.94	283.15
719.27	282.49
719.61	281.85
719.94	281.20
720.27	280.47
720.60	279.81
720.94	279.17
721.27	278.61
721.60	278.02
721.93	277.40
722.27	276.90
722.60	276.35
722.93	275.76
723.26	275.22
723.59	274.67
723.93	274.14
724.26	273.58
724.59	273.08
724.92	272.50
725.25	271.99
725.59	271.48
725.92	270.97
726.25	270.46
726.58	269.97
726.91	269.48
727.24	269.01
727.57	268.57
727.91	268.08
728.24	267.62
728.57	267.14
728.90	266.70
729.23	266.18
729.56	265.73
729.89	265.32
730.22	264.82
730.55	264.35
730.89	263.92
731.22	263.50
731.55	263.07
731.88	262.69
732.21	262.24
732.54	261.83
732.87	261.39
733.20	260.99
733.53	260.59
733.86	260.24
734.19	259.85
734.52	259.45
734.85	259.15
735.18	258.70
735.51	258.31
735.84	257.92
736.17	257.58
736.50	257.21
736.83	256.97
737.16	256.65
737.49	256.31
737.82	255.95
738.15	255.62
738.48	255.28
738.81	254.95
739.14	254.68
739.47	254.33
739.80	254.02
740.13	253.70
740.46	253.37
740.79	253.04
741.12	252.71
741.45	252.42
741.78	252.05
742.11	251.78
742.44	251.47
742.77	251.22
743.10	250.94
743.43	250.65
743.75	250.25
744.08	250.12
744.41	249.87
744.74	249.63
745.07	249.31
745.40	249.07
745.73	248.81
746.06	248.53
746.39	248.29
746.71	248.00
747.04	247.71
747.37	247.41
747.70	247.14
748.03	246.91
748.36	246.69
748.68	246.48
749.01	246.19
749.34	245.97
749.67	245.70
750.00	245.45
750.33	245.28
750.65	245.05
750.98	244.70
751.31	244.46
751.64	244.26
751.97	244.10
752.29	243.86
752.62	243.64
752.95	243.43
753.28	243.24
753.60	243.06
753.93	242.88
754.26	242.72
754.59	242.49
754.91	242.27
755.24	242.06
755.57	241.86
755.90	241.68
756.22	241.49
756.55	241.30
756.88	241.10
757.20	240.84
757.53	240.66
757.86	240.48
758.19	240.33
758.51	240.14
758.84	239.93
759.17	239.77
759.49	239.57
759.82	239.43
760.15	239.25
760.47	239.10
760.80	238.93
761.13	238.79
761.45	238.67
761.78	238.53
762.11	238.37
762.43	238.18
762.76	238.10
763.08	237.97
763.41	237.87
763.74	237.73
764.06	237.60
764.39	237.45
764.71	237.33
765.04	237.18
765.37	237.05
765.69	236.89
766.02	236.78
766.34	236.70
766.67	236.54
767.00	236.47
767.32	236.42
767.65	236.42
767.97	236.32
768.30	236.20
768.62	236.09
768.95	235.98
769.27	235.90
769.60	235.76
769.92	235.68
770.25	235.55
770.57	235.48
770.90	235.41
771.22	235.31
771.55	235.21
771.87	235.16
772.20	235.09
772.52	235.10
772.85	235.16
773.17	235.08
773.50	235.01
773.82	234.91
774.15	234.79
774.47	234.64
774.80	234.59
775.12	234.53
775.45	234.49
775.77	234.41
776.09	234.38
776.42	234.36
776.74	234.31
777.07	234.25
777.39	234.19
777.72	234.10
778.04	234.07
778.36	234.00
778.69	233.96
779.01	233.91
779.33	233.75
779.66	233.53
779.98	233.45
780.31	233.41
780.63	233.36
780.95	233.28
781.28	233.21
781.60	233.10
781.92	233.03
782.25	232.97
782.57	232.95
782.89	232.87
783.22	232.77
783.54	232.67
783.86	232.61
784.19	232.55
784.51	232.56
784.83	232.49
785.16	232.43
785.48	232.34
785.80	232.32
786.12	232.29
786.45	232.26
786.77	232.20
787.09	232.12
