SpectraSuite Data File
++++++++++++++++++++++++++++++++++++
Date: Fri Feb 01 15:50:35 EST 2013
User: group
Dark Spectrum Present: No
Reference Spectrum Present: No
Number of Sampled Component Spectra: 1
Spectrometers: USB2E7196
Integration Time (usec): 35000 (USB2E7196)
Spectra Averaged: 100 (USB2E7196)
Boxcar Smoothing: 10 (USB2E7196)
Correct for Electrical Dark: No (USB2E7196)
Strobe/Lamp Enabled: No (USB2E7196)
Correct for Detector Non-linearity: No (USB2E7196)
Correct for Stray Light: No (USB2E7196)
Number of Pixels in Processed Spectrum: 2048
>>>>>Begin Processed Spectral Data<<<<<
339.09	0.00
339.48	214.75
339.86	216.07
340.24	217.24
340.63	218.84
341.01	221.97
341.39	222.06
341.78	222.36
342.16	224.22
342.54	224.74
342.93	213.01
343.31	223.79
343.69	224.32
344.07	224.80
344.46	225.23
344.84	225.59
345.22	225.78
345.60	226.02
345.99	226.22
346.37	226.33
346.75	226.44
347.13	226.47
347.52	226.56
347.90	226.61
348.28	226.62
348.66	226.68
349.05	226.67
349.43	226.73
349.81	226.79
350.19	226.84
350.57	226.89
350.96	226.97
351.34	227.04
351.72	227.13
352.10	227.23
352.48	227.31
352.87	227.36
353.25	227.48
353.63	227.55
354.01	227.63
354.39	227.71
354.77	227.79
355.15	227.89
355.54	227.93
355.92	227.95
356.30	228.02
356.68	228.12
357.06	228.20
357.44	228.25
357.82	228.29
358.20	228.37
358.58	228.47
358.97	228.53
359.35	228.62
359.73	228.68
360.11	228.71
360.49	228.79
360.87	228.86
361.25	228.93
361.63	228.97
362.01	229.02
362.39	229.05
362.77	229.10
363.15	229.12
363.53	229.12
363.91	229.16
364.29	229.17
364.67	229.10
365.05	229.12
365.43	229.15
365.81	229.19
366.19	229.22
366.57	229.20
366.95	229.20
367.33	229.13
367.71	229.13
368.09	229.13
368.47	229.09
368.85	229.07
369.23	229.05
369.61	228.97
369.99	228.98
370.37	228.97
370.75	228.94
371.13	228.89
371.51	228.87
371.89	228.88
372.27	228.86
372.65	228.81
373.03	228.77
373.41	228.72
373.78	228.68
374.16	228.59
374.54	228.55
374.92	228.51
375.30	228.46
375.68	228.36
376.06	228.29
376.44	228.22
376.82	228.16
377.19	228.07
377.57	228.04
377.95	227.92
378.33	227.85
378.71	227.75
379.09	227.70
379.47	227.64
379.84	227.53
380.22	227.43
380.60	227.36
380.98	227.26
381.36	227.18
381.73	227.09
382.11	227.00
382.49	226.90
382.87	226.81
383.25	226.77
383.62	226.84
384.00	226.78
384.38	226.74
384.76	226.72
385.13	226.69
385.51	226.63
385.89	226.57
386.27	226.51
386.64	226.47
387.02	226.42
387.40	226.35
387.78	226.33
388.15	226.31
388.53	226.28
388.91	226.24
389.29	226.18
389.66	226.14
390.04	226.14
390.42	226.14
390.79	226.12
391.17	226.08
391.55	225.96
391.92	225.96
392.30	225.97
392.68	225.89
393.05	225.86
393.43	225.88
393.81	225.89
394.18	225.88
394.56	225.89
394.94	225.95
395.31	225.96
395.69	226.00
396.06	226.05
396.44	226.08
396.82	226.13
397.19	226.21
397.57	226.26
397.95	226.33
398.32	226.33
398.70	226.42
399.07	226.53
399.45	226.57
399.82	226.62
400.20	226.65
400.58	226.77
400.95	226.86
401.33	226.95
401.70	227.12
402.08	227.23
402.45	227.31
402.83	227.43
403.20	227.54
403.58	227.62
403.95	227.75
404.33	227.89
404.71	227.98
405.08	228.19
405.46	228.35
405.83	228.51
406.21	228.68
406.58	228.85
406.96	228.99
407.33	229.18
407.70	229.39
408.08	229.68
408.45	229.92
408.83	230.15
409.20	230.36
409.58	230.52
409.95	230.78
410.33	231.10
410.70	231.35
411.08	231.69
411.45	232.01
411.82	232.31
412.20	232.70
412.57	233.16
412.95	233.48
413.32	233.91
413.69	234.29
414.07	234.73
414.44	235.24
414.82	235.75
415.19	236.27
415.56	236.81
415.94	237.37
416.31	238.03
416.68	238.67
417.06	239.41
417.43	240.13
417.81	240.91
418.18	241.66
418.55	242.51
418.93	243.39
419.30	244.27
419.67	245.21
420.04	246.16
420.42	247.14
420.79	248.32
421.16	249.46
421.54	250.69
421.91	251.89
422.28	253.12
422.66	254.46
423.03	255.85
423.40	257.20
423.77	258.61
424.15	260.01
424.52	261.50
424.89	263.09
425.26	264.61
425.64	266.07
426.01	267.66
426.38	269.29
426.75	270.94
427.13	272.67
427.50	274.48
427.87	276.36
428.24	278.21
428.61	279.95
428.99	281.89
429.36	283.99
429.73	286.04
430.10	288.02
430.47	290.05
430.85	292.11
431.22	294.33
431.59	296.72
431.96	298.97
432.33	301.42
432.70	303.82
433.08	306.64
433.45	309.29
433.82	311.88
434.19	314.76
434.56	317.56
434.93	320.23
435.30	322.85
435.68	325.75
436.05	328.58
436.42	331.35
436.79	333.80
437.16	336.42
437.53	339.25
437.90	342.08
438.27	344.79
438.64	347.59
439.01	350.20
439.38	352.40
439.75	354.54
440.13	357.03
440.50	359.32
440.87	361.13
441.24	363.04
441.61	365.24
441.98	366.74
442.35	368.52
442.72	370.36
443.09	372.16
443.46	373.09
443.83	373.67
444.20	374.19
444.57	375.04
444.94	375.35
445.31	375.67
445.68	376.01
446.05	376.14
446.42	375.75
446.79	375.28
447.16	374.85
447.53	374.52
447.90	373.35
448.27	372.20
448.64	370.65
449.01	369.52
449.37	367.49
449.74	365.58
450.11	363.33
450.48	360.85
450.85	358.32
451.22	356.21
451.59	354.17
451.96	352.23
452.33	349.66
452.70	347.32
453.07	344.52
453.43	341.65
453.80	338.87
454.17	336.22
454.54	333.68
454.91	330.94
455.28	328.30
455.65	325.85
456.02	323.42
456.38	321.26
456.75	318.57
457.12	316.31
457.49	314.13
457.86	311.95
458.23	310.11
458.59	308.05
458.96	305.96
459.33	304.13
459.70	302.29
460.07	300.81
460.43	299.11
460.80	297.53
461.17	296.07
461.54	294.58
461.91	293.15
462.27	291.75
462.64	290.52
463.01	289.16
463.38	287.87
463.74	286.49
464.11	285.33
464.48	284.36
464.85	283.29
465.21	282.41
465.58	281.54
465.95	280.45
466.32	279.56
466.68	278.68
467.05	277.76
467.42	276.87
467.78	275.92
468.15	275.03
468.52	274.36
468.88	273.52
469.25	272.77
469.62	272.16
469.98	271.48
470.35	270.84
470.72	270.22
471.08	269.56
471.45	269.01
471.82	268.48
472.18	267.85
472.55	267.42
472.92	266.93
473.28	266.44
473.65	265.98
474.02	265.58
474.38	265.22
474.75	264.90
475.11	264.52
475.48	264.29
475.85	264.06
476.21	263.83
476.58	263.62
476.94	263.47
477.31	263.30
477.67	263.11
478.04	262.99
478.41	262.93
478.77	262.95
479.14	262.88
479.50	262.87
479.87	262.96
480.23	263.02
480.60	263.06
480.96	263.14
481.33	263.36
481.69	263.55
482.06	263.72
482.42	263.92
482.79	264.20
483.15	264.48
483.52	264.86
483.88	265.20
484.25	265.59
484.61	266.02
484.98	266.44
485.34	267.04
485.71	267.65
486.07	268.28
486.44	268.83
486.80	269.54
487.17	270.30
487.53	271.11
487.90	271.99
488.26	272.89
488.62	273.90
488.99	274.89
489.35	275.89
489.72	277.02
490.08	278.21
490.44	279.45
490.81	280.76
491.17	282.10
491.54	283.59
491.90	285.14
492.26	286.76
492.63	288.47
492.99	290.23
493.36	292.13
493.72	294.13
494.08	296.24
494.45	298.49
494.81	300.85
495.17	303.29
495.54	305.86
495.90	308.55
496.26	311.35
496.63	314.30
496.99	317.44
497.35	320.71
497.72	324.11
498.08	327.61
498.44	331.34
498.80	335.28
499.17	339.33
499.53	343.49
499.89	347.85
500.26	352.43
500.62	357.06
500.98	362.04
501.34	367.15
501.71	372.49
502.07	377.94
502.43	383.58
502.79	389.41
503.16	395.48
503.52	401.80
503.88	408.29
504.24	414.93
504.60	421.86
504.97	428.98
505.33	436.31
505.69	444.04
506.05	451.81
506.41	459.69
506.78	467.83
507.14	476.33
507.50	485.08
507.86	494.09
508.22	503.36
508.59	512.56
508.95	522.14
509.31	531.97
509.67	542.15
510.03	552.42
510.39	562.93
510.75	573.78
511.12	584.68
511.48	595.87
511.84	607.36
512.20	618.83
512.56	630.83
512.92	643.12
513.28	655.49
513.64	667.94
514.00	680.69
514.37	693.63
514.73	706.69
515.09	719.72
515.45	733.09
515.81	746.65
516.17	760.69
516.53	774.78
516.89	788.95
517.25	803.03
517.61	817.49
517.97	831.98
518.33	846.39
518.69	861.14
519.05	876.15
519.41	891.27
519.77	906.77
520.13	922.15
520.49	937.36
520.85	952.78
521.21	968.53
521.57	984.77
521.93	1000.49
522.29	1016.85
522.65	1032.97
523.01	1049.06
523.37	1065.09
523.73	1081.20
524.09	1097.24
524.45	1113.53
524.81	1130.13
525.17	1146.84
525.53	1163.71
525.89	1180.63
526.25	1197.44
526.61	1213.81
526.97	1230.55
527.33	1247.12
527.68	1263.64
528.04	1280.24
528.40	1296.81
528.76	1313.84
529.12	1330.38
529.48	1347.25
529.84	1363.32
530.20	1380.13
530.56	1397.22
530.91	1414.60
531.27	1431.35
531.63	1447.80
531.99	1464.35
532.35	1480.29
532.71	1496.15
533.07	1512.38
533.42	1528.19
533.78	1544.21
534.14	1560.42
534.50	1575.77
534.86	1591.55
535.21	1606.76
535.57	1622.58
535.93	1638.06
536.29	1652.72
536.65	1667.78
537.00	1682.46
537.36	1697.70
537.72	1712.11
538.08	1726.47
538.44	1740.17
538.79	1754.05
539.15	1767.88
539.51	1781.56
539.87	1795.98
540.22	1809.83
540.58	1823.56
540.94	1836.78
541.29	1849.75
541.65	1862.43
542.01	1875.57
542.37	1887.79
542.72	1900.23
543.08	1912.10
543.44	1924.49
543.79	1935.82
544.15	1946.76
544.51	1958.43
544.87	1969.31
545.22	1980.21
545.58	1990.29
545.94	2000.15
546.29	2009.98
546.65	2019.88
547.01	2029.20
547.36	2037.85
547.72	2046.24
548.07	2054.14
548.43	2062.29
548.79	2070.42
549.14	2077.83
549.50	2085.12
549.86	2092.91
550.21	2100.34
550.57	2107.38
550.92	2113.95
551.28	2121.13
551.64	2128.24
551.99	2134.82
552.35	2141.03
552.70	2147.14
553.06	2153.12
553.41	2159.41
553.77	2165.41
554.13	2171.50
554.48	2177.62
554.84	2183.09
555.19	2188.40
555.55	2193.50
555.90	2198.02
556.26	2202.84
556.61	2207.82
556.97	2212.12
557.32	2216.32
557.68	2220.29
558.03	2224.73
558.39	2228.40
558.74	2232.96
559.10	2236.72
559.45	2240.30
559.81	2244.52
560.16	2248.33
560.52	2251.66
560.87	2254.97
561.23	2257.64
561.58	2260.47
561.94	2262.92
562.29	2265.39
562.64	2267.94
563.00	2270.59
563.35	2274.10
563.71	2277.11
564.06	2280.47
564.42	2283.37
564.77	2285.76
565.12	2288.07
565.48	2289.80
565.83	2291.62
566.19	2292.71
566.54	2293.73
566.89	2294.89
567.25	2295.46
567.60	2296.80
567.96	2298.48
568.31	2299.41
568.66	2300.51
569.02	2301.02
569.37	2301.38
569.72	2302.12
570.08	2302.35
570.43	2302.37
570.78	2301.81
571.14	2300.25
571.49	2298.69
571.84	2298.29
572.20	2297.26
572.55	2296.25
572.90	2294.72
573.26	2293.29
573.61	2291.74
573.96	2289.97
574.31	2287.13
574.67	2284.10
575.02	2280.47
575.37	2277.19
575.72	2273.35
576.08	2270.08
576.43	2266.81
576.78	2263.02
577.13	2259.91
577.49	2256.97
577.84	2253.39
578.19	2249.57
578.54	2246.06
578.90	2241.69
579.25	2236.12
579.60	2231.02
579.95	2225.98
580.30	2220.97
580.66	2215.84
581.01	2210.77
581.36	2205.85
581.71	2201.48
582.06	2197.09
582.42	2192.43
582.77	2187.08
583.12	2182.48
583.47	2177.70
583.82	2172.64
584.17	2167.39
584.53	2161.88
584.88	2156.10
585.23	2150.29
585.58	2144.98
585.93	2139.44
586.28	2134.85
586.63	2129.91
586.98	2124.93
587.34	2120.14
587.69	2115.33
588.04	2110.10
588.39	2104.46
588.74	2097.91
589.09	2091.77
589.44	2085.12
589.79	2079.30
590.14	2073.74
590.49	2067.33
590.84	2060.95
591.19	2054.89
591.54	2048.54
591.89	2041.14
592.25	2034.23
592.60	2027.03
592.95	2019.38
593.30	2012.06
593.65	2004.44
594.00	1997.41
594.35	1990.00
594.70	1982.03
595.05	1974.80
595.40	1967.51
595.75	1960.08
596.10	1953.97
596.45	1947.26
596.80	1941.00
597.15	1934.41
597.50	1927.16
597.85	1920.82
598.19	1914.04
598.54	1906.88
598.89	1900.30
599.24	1894.41
599.59	1887.81
599.94	1881.70
600.29	1875.36
600.64	1868.73
600.99	1861.25
601.34	1854.39
601.69	1847.60
602.04	1840.73
602.39	1833.37
602.74	1826.44
603.08	1819.74
603.43	1812.89
603.78	1805.56
604.13	1798.28
604.48	1790.87
604.83	1784.04
605.18	1776.78
605.53	1768.89
605.87	1760.91
606.22	1753.65
606.57	1745.57
606.92	1738.22
607.27	1731.06
607.62	1724.14
607.96	1716.84
608.31	1710.23
608.66	1702.64
609.01	1695.04
609.36	1687.46
609.70	1679.44
610.05	1671.58
610.40	1663.80
610.75	1655.54
611.10	1647.81
611.44	1639.35
611.79	1631.42
612.14	1622.69
612.49	1613.52
612.83	1605.14
613.18	1597.07
613.53	1588.91
613.88	1580.43
614.22	1572.27
614.57	1563.58
614.92	1555.43
615.27	1547.86
615.61	1539.43
615.96	1531.42
616.31	1523.83
616.65	1516.49
617.00	1508.91
617.35	1501.18
617.70	1492.79
618.04	1484.18
618.39	1476.05
618.74	1468.53
619.08	1460.18
619.43	1452.69
619.78	1445.91
620.12	1438.67
620.47	1431.20
620.82	1423.10
621.16	1415.73
621.51	1408.09
621.85	1400.49
622.20	1392.01
622.55	1383.65
622.89	1375.79
623.24	1368.15
623.59	1360.71
623.93	1353.14
624.28	1345.89
624.62	1338.26
624.97	1331.27
625.32	1324.61
625.66	1317.54
626.01	1310.26
626.35	1302.81
626.70	1294.98
627.04	1287.17
627.39	1279.48
627.73	1272.07
628.08	1265.09
628.43	1257.73
628.77	1250.19
629.12	1242.65
629.46	1235.53
629.81	1228.24
630.15	1220.99
630.50	1213.48
630.84	1205.33
631.19	1197.39
631.53	1189.97
631.88	1182.37
632.22	1174.70
632.57	1167.44
632.91	1159.80
633.26	1152.50
633.60	1145.16
633.95	1138.12
634.29	1131.17
634.64	1124.50
634.98	1117.05
635.32	1109.93
635.67	1103.36
636.01	1096.77
636.36	1089.99
636.70	1083.37
637.05	1076.80
637.39	1070.49
637.73	1064.01
638.08	1058.09
638.42	1052.04
638.77	1045.56
639.11	1039.10
639.45	1032.65
639.80	1025.90
640.14	1019.56
640.49	1012.98
640.83	1006.58
641.17	1000.38
641.52	994.11
641.86	987.60
642.20	981.71
642.55	975.43
642.89	968.86
643.23	962.43
643.58	956.63
643.92	950.49
644.26	944.30
644.61	938.21
644.95	932.19
645.29	925.53
645.64	918.80
645.98	912.46
646.32	906.59
646.66	900.60
647.01	894.91
647.35	889.12
647.69	883.32
648.04	877.83
648.38	872.03
648.72	865.98
649.06	859.99
649.41	854.23
649.75	848.21
650.09	842.39
650.43	836.59
650.78	830.38
651.12	824.42
651.46	818.71
651.80	812.86
652.14	807.43
652.49	802.16
652.83	797.10
653.17	791.41
653.51	785.69
653.85	780.30
654.20	774.60
654.54	768.68
654.88	762.99
655.22	757.10
655.56	751.38
655.90	745.93
656.25	740.59
656.59	735.25
656.93	730.19
657.27	724.99
657.61	719.49
657.95	714.43
658.29	709.36
658.64	704.09
658.98	698.82
659.32	693.36
659.66	688.09
660.00	682.71
660.34	677.75
660.68	672.84
661.02	667.73
661.36	663.00
661.70	658.57
662.05	654.11
662.39	649.78
662.73	645.28
663.07	640.85
663.41	636.43
663.75	631.88
664.09	627.33
664.43	622.94
664.77	618.80
665.11	614.59
665.45	610.41
665.79	606.38
666.13	602.27
666.47	598.19
666.81	593.99
667.15	589.95
667.49	586.09
667.83	582.30
668.17	578.40
668.51	574.28
668.85	570.19
669.19	566.43
669.53	562.63
669.87	558.73
670.21	555.05
670.55	551.37
670.89	548.01
671.23	544.56
671.57	541.02
671.91	537.54
672.25	534.03
672.58	530.57
672.92	527.23
673.26	524.06
673.60	520.99
673.94	517.95
674.28	515.03
674.62	512.03
674.96	508.88
675.30	505.99
675.64	503.12
675.97	500.42
676.31	497.47
676.65	494.53
676.99	491.89
677.33	489.03
677.67	486.27
678.01	483.15
678.34	480.14
678.68	477.31
679.02	474.45
679.36	471.66
679.70	468.91
680.04	466.10
680.37	463.28
680.71	460.46
681.05	457.76
681.39	454.96
681.73	452.30
682.06	449.79
682.40	447.21
682.74	444.64
683.08	442.04
683.42	439.48
683.75	437.00
684.09	434.40
684.43	431.98
684.77	429.48
685.10	427.19
685.44	424.92
685.78	422.63
686.12	420.43
686.45	418.16
686.79	415.90
687.13	413.69
687.46	411.50
687.80	409.35
688.14	407.22
688.48	405.18
688.81	402.95
689.15	400.82
689.49	398.69
689.82	396.60
690.16	394.47
690.50	392.52
690.83	390.55
691.17	388.61
691.51	386.66
691.84	384.83
692.18	382.87
692.52	380.89
692.85	378.96
693.19	377.07
693.52	375.28
693.86	373.49
694.20	371.71
694.53	369.91
694.87	368.05
695.21	366.22
695.54	364.43
695.88	362.71
696.21	360.98
696.55	359.29
696.88	357.62
697.22	356.05
697.56	354.45
697.89	352.80
698.23	351.18
698.56	349.56
698.90	347.99
699.23	346.35
699.57	344.80
699.90	343.29
700.24	341.76
700.58	340.24
700.91	338.73
701.25	337.27
701.58	335.96
701.92	334.61
702.25	333.20
702.59	331.81
702.92	330.52
703.26	329.21
703.59	327.95
703.93	326.79
704.26	325.53
704.60	324.19
704.93	322.93
705.26	321.71
705.60	320.59
705.93	319.45
706.27	318.41
706.60	317.35
706.94	316.28
707.27	315.15
707.61	314.06
707.94	313.01
708.27	311.97
708.61	310.84
708.94	309.85
709.28	308.92
709.61	308.01
709.94	307.02
710.28	305.99
710.61	305.00
710.95	303.93
711.28	303.01
711.61	302.10
711.95	301.19
712.28	300.22
712.61	299.20
712.95	298.26
713.28	297.37
713.61	296.51
713.95	295.66
714.28	294.81
714.61	293.95
714.95	293.15
715.28	292.23
715.61	291.35
715.95	290.47
716.28	289.62
716.61	288.77
716.95	287.95
717.28	287.22
717.61	286.43
717.94	285.67
718.28	284.87
718.61	284.13
718.94	283.42
719.27	282.78
719.61	282.14
719.94	281.44
720.27	280.73
720.60	280.04
720.94	279.38
721.27	278.76
721.60	278.17
721.93	277.47
722.27	276.96
722.60	276.45
722.93	275.86
723.26	275.33
723.59	274.75
723.93	274.22
724.26	273.66
724.59	273.11
724.92	272.61
725.25	272.09
725.59	271.53
725.92	271.03
726.25	270.54
726.58	270.04
726.91	269.56
727.24	269.08
727.57	268.61
727.91	268.08
728.24	267.61
728.57	267.12
728.90	266.71
729.23	266.20
729.56	265.74
729.89	265.26
730.22	264.76
730.55	264.34
730.89	263.89
731.22	263.45
731.55	263.03
731.88	262.57
732.21	262.15
732.54	261.74
732.87	261.31
733.20	260.86
733.53	260.46
733.86	260.08
734.19	259.70
734.52	259.29
734.85	258.99
735.18	258.60
735.51	258.22
735.84	257.85
736.17	257.51
736.50	257.12
736.83	256.92
737.16	256.58
737.49	256.22
737.82	255.86
738.15	255.51
738.48	255.15
738.81	254.82
739.14	254.49
739.47	254.16
739.80	253.85
740.13	253.59
740.46	253.27
740.79	252.95
741.12	252.65
741.45	252.36
741.78	251.99
742.11	251.73
742.44	251.43
742.77	251.15
743.10	250.85
743.43	250.54
743.75	250.14
744.08	249.99
744.41	249.69
744.74	249.46
745.07	249.21
745.40	248.97
745.73	248.77
746.06	248.50
746.39	248.28
746.71	248.03
747.04	247.72
747.37	247.49
747.70	247.25
748.03	246.98
748.36	246.77
748.68	246.52
749.01	246.23
749.34	245.97
749.67	245.75
750.00	245.55
750.33	245.40
750.65	245.16
750.98	244.81
751.31	244.60
751.64	244.35
751.97	244.16
752.29	243.95
752.62	243.67
752.95	243.45
753.28	243.24
753.60	242.99
753.93	242.84
754.26	242.62
754.59	242.39
754.91	242.17
755.24	241.95
755.57	241.77
755.90	241.61
756.22	241.44
756.55	241.27
756.88	241.03
757.20	240.82
757.53	240.64
757.86	240.50
758.19	240.37
758.51	240.22
758.84	239.97
759.17	239.78
759.49	239.61
759.82	239.51
760.15	239.34
760.47	239.23
760.80	239.05
761.13	238.91
761.45	238.76
761.78	238.64
762.11	238.52
762.43	238.36
762.76	238.21
763.08	238.12
763.41	237.96
763.74	237.85
764.06	237.69
764.39	237.55
764.71	237.39
765.04	237.22
765.37	237.08
765.69	236.96
766.02	236.85
766.34	236.74
766.67	236.57
767.00	236.47
767.32	236.37
767.65	236.31
767.97	236.17
768.30	236.05
768.62	235.93
768.95	235.79
769.27	235.67
769.60	235.57
769.92	235.41
770.25	235.27
770.57	235.16
770.90	235.05
771.22	234.97
771.55	234.87
771.87	234.78
772.20	234.69
772.52	234.73
772.85	234.78
773.17	234.67
773.50	234.57
773.82	234.46
774.15	234.32
774.47	234.18
774.80	234.10
775.12	234.02
775.45	233.93
775.77	233.88
776.09	233.84
776.42	233.74
776.74	233.73
777.07	233.67
777.39	233.59
777.72	233.51
778.04	233.47
778.36	233.40
778.69	233.34
779.01	233.28
779.33	233.10
779.66	232.90
779.98	232.83
780.31	232.78
780.63	232.76
780.95	232.72
781.28	232.64
781.60	232.57
781.92	232.52
782.25	232.46
782.57	232.38
782.89	232.31
783.22	232.26
783.54	232.17
783.86	232.12
784.19	232.06
784.51	232.02
784.83	231.94
785.16	231.88
785.48	231.82
785.80	231.77
786.12	231.71
786.45	231.67
786.77	231.63
787.09	231.61
