SpectraSuite Data File
++++++++++++++++++++++++++++++++++++
Date: Fri Feb 01 18:02:27 EST 2013
User: group
Dark Spectrum Present: No
Reference Spectrum Present: No
Number of Sampled Component Spectra: 1
Spectrometers: USB2E7196
Integration Time (usec): 35000 (USB2E7196)
Spectra Averaged: 100 (USB2E7196)
Boxcar Smoothing: 10 (USB2E7196)
Correct for Electrical Dark: No (USB2E7196)
Strobe/Lamp Enabled: No (USB2E7196)
Correct for Detector Non-linearity: No (USB2E7196)
Correct for Stray Light: No (USB2E7196)
Number of Pixels in Processed Spectrum: 2048
>>>>>Begin Processed Spectral Data<<<<<
339.09	0.00
339.48	212.68
339.86	214.74
340.24	216.20
340.63	217.38
341.01	220.22
341.39	220.11
341.78	221.31
342.16	222.07
342.54	222.85
342.93	211.26
343.31	221.94
343.69	222.47
344.07	222.91
344.46	223.30
344.84	223.66
345.22	223.89
345.60	224.12
345.99	224.28
346.37	224.42
346.75	224.50
347.13	224.58
347.52	224.64
347.90	224.69
348.28	224.72
348.66	224.78
349.05	224.77
349.43	224.83
349.81	224.84
350.19	224.88
350.57	224.91
350.96	224.99
351.34	225.05
351.72	225.15
352.10	225.23
352.48	225.27
352.87	225.33
353.25	225.35
353.63	225.40
354.01	225.46
354.39	225.54
354.77	225.61
355.15	225.71
355.54	225.75
355.92	225.80
356.30	225.88
356.68	226.01
357.06	226.06
357.44	226.14
357.82	226.25
358.20	226.33
358.58	226.38
358.97	226.46
359.35	226.56
359.73	226.63
360.11	226.71
360.49	226.80
360.87	226.84
361.25	226.95
361.63	227.06
362.01	227.13
362.39	227.18
362.77	227.25
363.15	227.30
363.53	227.35
363.91	227.38
364.29	227.42
364.67	227.36
365.05	227.40
365.43	227.44
365.81	227.47
366.19	227.51
366.57	227.61
366.95	227.64
367.33	227.65
367.71	227.69
368.09	227.72
368.47	227.75
368.85	227.76
369.23	227.78
369.61	227.74
369.99	227.79
370.37	227.82
370.75	227.84
371.13	227.77
371.51	227.76
371.89	227.75
372.27	227.75
372.65	227.73
373.03	227.71
373.41	227.67
373.78	227.63
374.16	227.55
374.54	227.46
374.92	227.37
375.30	227.32
375.68	227.24
376.06	227.17
376.44	227.10
376.82	227.07
377.19	227.02
377.57	226.96
377.95	226.87
378.33	226.77
378.71	226.68
379.09	226.69
379.47	226.60
379.84	226.55
380.22	226.49
380.60	226.43
380.98	226.40
381.36	226.31
381.73	226.24
382.11	226.20
382.49	226.19
382.87	226.14
383.25	226.07
383.62	226.09
384.00	226.03
384.38	225.98
384.76	225.92
385.13	225.90
385.51	225.84
385.89	225.76
386.27	225.69
386.64	225.64
387.02	225.57
387.40	225.51
387.78	225.43
388.15	225.38
388.53	225.30
388.91	225.23
389.29	225.22
389.66	225.18
390.04	225.13
390.42	225.08
390.79	225.07
391.17	225.03
391.55	224.91
391.92	224.91
392.30	224.89
392.68	224.88
393.05	224.85
393.43	224.85
393.81	224.82
394.18	224.83
394.56	224.82
394.94	224.81
395.31	224.82
395.69	224.89
396.06	224.87
396.44	224.91
396.82	224.94
397.19	225.03
397.57	225.05
397.95	225.07
398.32	225.10
398.70	225.12
399.07	225.19
399.45	225.28
399.82	225.32
400.20	225.36
400.58	225.41
400.95	225.43
401.33	225.49
401.70	225.63
402.08	225.69
402.45	225.78
402.83	225.92
403.20	226.05
403.58	226.13
403.95	226.28
404.33	226.42
404.71	226.52
405.08	226.72
405.46	226.86
405.83	227.06
406.21	227.23
406.58	227.40
406.96	227.57
407.33	227.75
407.70	227.99
408.08	228.31
408.45	228.57
408.83	228.85
409.20	229.12
409.58	229.40
409.95	229.74
410.33	230.10
410.70	230.41
411.08	230.76
411.45	231.17
411.82	231.57
412.20	232.03
412.57	232.60
412.95	233.01
413.32	233.59
413.69	234.14
414.07	234.73
414.44	235.39
414.82	236.07
415.19	236.79
415.56	237.51
415.94	238.24
416.31	239.10
416.68	239.97
417.06	240.94
417.43	241.82
417.81	242.87
418.18	243.93
418.55	245.07
418.93	246.28
419.30	247.48
419.67	248.80
420.04	250.12
420.42	251.45
420.79	253.03
421.16	254.59
421.54	256.16
421.91	257.79
422.28	259.48
422.66	261.33
423.03	263.07
423.40	264.92
423.77	266.84
424.15	268.79
424.52	270.78
424.89	272.97
425.26	275.13
425.64	277.07
426.01	279.25
426.38	281.49
426.75	283.72
427.13	286.10
427.50	288.51
427.87	291.08
428.24	293.63
428.61	296.03
428.99	298.60
429.36	301.47
429.73	304.29
430.10	307.02
430.47	309.83
430.85	312.74
431.22	315.73
431.59	318.94
431.96	322.00
432.33	325.36
432.70	328.56
433.08	332.35
433.45	335.95
433.82	339.42
434.19	343.34
434.56	347.13
434.93	350.72
435.30	354.25
435.68	358.14
436.05	361.94
436.42	365.68
436.79	369.14
437.16	372.81
437.53	376.66
437.90	380.45
438.27	384.10
438.64	387.93
439.01	391.43
439.38	394.49
439.75	397.41
440.13	400.83
440.50	404.00
440.87	406.56
441.24	409.17
441.61	412.10
441.98	414.10
442.35	416.60
442.72	419.08
443.09	421.58
443.46	422.91
443.83	423.68
444.20	424.38
444.57	425.48
444.94	425.82
445.31	426.24
445.68	426.77
446.05	426.93
446.42	426.36
446.79	425.80
447.16	425.19
447.53	424.77
447.90	423.22
448.27	421.63
448.64	419.43
449.01	417.87
449.37	415.26
449.74	412.68
450.11	409.62
450.48	406.30
450.85	402.89
451.22	400.08
451.59	397.37
451.96	394.73
452.33	391.24
452.70	388.09
453.07	384.26
453.43	380.29
453.80	376.53
454.17	372.98
454.54	369.55
454.91	365.81
455.28	362.16
455.65	358.77
456.02	355.42
456.38	352.49
456.75	348.90
457.12	345.82
457.49	342.79
457.86	339.85
458.23	337.33
458.59	334.50
458.96	331.60
459.33	329.05
459.70	326.55
460.07	324.47
460.43	322.10
460.80	319.94
461.17	317.98
461.54	315.89
461.91	313.92
462.27	311.95
462.64	310.28
463.01	308.43
463.38	306.61
463.74	304.75
464.11	303.19
464.48	301.78
464.85	300.25
465.21	299.09
465.58	297.80
465.95	296.31
466.32	295.10
466.68	293.86
467.05	292.63
467.42	291.39
467.78	290.10
468.15	288.94
468.52	287.99
468.88	286.78
469.25	285.77
469.62	284.90
469.98	283.93
470.35	283.06
470.72	282.21
471.08	281.31
471.45	280.60
471.82	279.82
472.18	279.01
472.55	278.41
472.92	277.67
473.28	277.06
473.65	276.43
474.02	275.77
474.38	275.25
474.75	274.82
475.11	274.33
475.48	273.98
475.85	273.61
476.21	273.27
476.58	273.02
476.94	272.78
477.31	272.47
477.67	272.25
478.04	272.06
478.41	271.97
478.77	271.94
479.14	271.79
479.50	271.77
479.87	271.76
480.23	271.81
480.60	271.83
480.96	271.83
481.33	271.97
481.69	272.11
482.06	272.21
482.42	272.31
482.79	272.53
483.15	272.78
483.52	273.13
483.88	273.46
484.25	273.83
484.61	274.23
484.98	274.69
485.34	275.26
485.71	275.82
486.07	276.35
486.44	276.89
486.80	277.61
487.17	278.32
487.53	279.14
487.90	279.95
488.26	280.90
488.62	281.91
488.99	282.92
489.35	284.01
489.72	285.18
490.08	286.48
490.44	287.75
490.81	289.16
491.17	290.54
491.54	292.06
491.90	293.65
492.26	295.35
492.63	297.16
492.99	298.99
493.36	300.97
493.72	303.15
494.08	305.40
494.45	307.76
494.81	310.26
495.17	312.85
495.54	315.60
495.90	318.46
496.26	321.40
496.63	324.52
496.99	327.81
497.35	331.26
497.72	334.80
498.08	338.45
498.44	342.28
498.80	346.47
499.17	350.69
499.53	355.09
499.89	359.72
500.26	364.49
500.62	369.43
500.98	374.67
501.34	380.00
501.71	385.61
502.07	391.33
502.43	397.29
502.79	403.45
503.16	409.89
503.52	416.52
503.88	423.27
504.24	430.32
504.60	437.61
504.97	445.18
505.33	453.00
505.69	461.23
506.05	469.53
506.41	477.88
506.78	486.61
507.14	495.63
507.50	504.89
507.86	514.51
508.22	524.36
508.59	534.24
508.95	544.47
509.31	554.98
509.67	565.77
510.03	576.71
510.39	587.97
510.75	599.53
511.12	611.23
511.48	623.42
511.84	635.72
512.20	648.10
512.56	660.91
512.92	673.96
513.28	687.27
513.64	700.69
514.00	714.42
514.37	728.40
514.73	742.49
515.09	756.55
515.45	770.85
515.81	785.52
516.17	800.57
516.53	815.93
516.89	831.30
517.25	846.66
517.61	862.36
517.97	878.03
518.33	893.71
518.69	909.77
519.05	926.02
519.41	942.53
519.77	959.48
520.13	976.40
520.49	993.24
520.85	1010.08
521.21	1027.11
521.57	1044.87
521.93	1062.20
522.29	1080.04
522.65	1097.93
523.01	1115.79
523.37	1133.41
523.73	1151.33
524.09	1168.97
524.45	1186.88
524.81	1205.27
525.17	1223.70
525.53	1242.40
525.89	1261.04
526.25	1279.70
526.61	1297.78
526.97	1316.27
527.33	1334.54
527.68	1352.92
528.04	1371.14
528.40	1389.60
528.76	1408.72
529.12	1427.15
529.48	1445.94
529.84	1463.82
530.20	1482.24
530.56	1501.22
530.91	1520.64
531.27	1539.38
531.63	1557.85
531.99	1576.50
532.35	1594.42
532.71	1612.39
533.07	1630.69
533.42	1648.62
533.78	1666.77
534.14	1685.32
534.50	1702.88
534.86	1720.84
535.21	1738.16
535.57	1756.35
535.93	1773.95
536.29	1790.84
536.65	1808.13
537.00	1824.92
537.36	1842.64
537.72	1859.47
538.08	1876.10
538.44	1892.06
538.79	1908.00
539.15	1923.85
539.51	1939.73
539.87	1956.36
540.22	1972.39
540.58	1988.40
540.94	2003.99
541.29	2019.02
541.65	2033.92
542.01	2049.33
542.37	2064.02
542.72	2078.75
543.08	2092.87
543.44	2107.63
543.79	2121.23
544.15	2134.47
544.51	2148.39
544.87	2161.40
545.22	2174.31
545.58	2186.70
545.94	2198.67
546.29	2210.82
546.65	2223.05
547.01	2234.54
547.36	2245.43
547.72	2256.04
548.07	2266.00
548.43	2276.27
548.79	2286.44
549.14	2296.13
549.50	2305.35
549.86	2314.99
550.21	2324.28
550.57	2333.40
550.92	2341.97
551.28	2351.01
551.64	2360.15
551.99	2368.63
552.35	2376.85
552.70	2385.14
553.06	2393.00
553.41	2401.28
553.77	2409.04
554.13	2416.83
554.48	2424.93
554.84	2432.47
555.19	2439.55
555.55	2446.58
555.90	2452.74
556.26	2459.48
556.61	2465.85
556.97	2472.10
557.32	2477.97
557.68	2483.81
558.03	2489.78
558.39	2495.02
558.74	2501.33
559.10	2506.84
559.45	2512.08
559.81	2517.85
560.16	2523.14
560.52	2528.09
560.87	2532.96
561.23	2537.05
561.58	2541.37
561.94	2545.22
562.29	2548.61
562.64	2552.88
563.00	2556.70
563.35	2561.73
563.71	2566.18
564.06	2570.70
564.42	2574.80
564.77	2578.64
565.12	2582.28
565.48	2585.32
565.83	2588.31
566.19	2590.83
566.54	2592.64
566.89	2594.77
567.25	2596.49
567.60	2598.83
567.96	2601.53
568.31	2603.32
568.66	2605.61
569.02	2607.13
569.37	2608.41
569.72	2610.25
570.08	2611.06
570.43	2611.91
570.78	2612.08
571.14	2610.90
571.49	2609.99
571.84	2610.25
572.20	2609.72
572.55	2609.17
572.90	2608.10
573.26	2607.39
573.61	2605.95
573.96	2604.64
574.31	2602.17
574.67	2599.47
575.02	2596.07
575.37	2592.81
575.72	2589.21
576.08	2585.89
576.43	2582.77
576.78	2579.12
577.13	2576.12
577.49	2572.96
577.84	2569.50
578.19	2565.61
578.54	2562.25
578.90	2558.17
579.25	2552.48
579.60	2547.33
579.95	2542.08
580.30	2536.76
580.66	2531.18
581.01	2525.81
581.36	2520.55
581.71	2516.08
582.06	2511.26
582.42	2506.50
582.77	2500.76
583.12	2495.85
583.47	2490.87
583.82	2485.52
584.17	2479.86
584.53	2473.91
584.88	2467.94
585.23	2461.86
585.58	2456.03
585.93	2449.98
586.28	2444.64
586.63	2439.13
586.98	2433.49
587.34	2428.27
587.69	2423.03
588.04	2417.36
588.39	2411.24
588.74	2404.13
589.09	2397.26
589.44	2389.81
589.79	2382.98
590.14	2376.69
590.49	2369.34
590.84	2362.20
591.19	2355.46
591.54	2348.13
591.89	2339.90
592.25	2332.13
592.60	2323.80
592.95	2315.25
593.30	2306.98
593.65	2298.44
594.00	2290.39
594.35	2282.03
594.70	2272.87
595.05	2264.76
595.40	2256.32
595.75	2247.65
596.10	2240.59
596.45	2232.95
596.80	2225.91
597.15	2218.55
597.50	2210.79
597.85	2203.41
598.19	2195.63
598.54	2187.54
598.89	2180.10
599.24	2173.13
599.59	2165.63
599.94	2158.53
600.29	2151.26
600.64	2143.46
600.99	2135.00
601.34	2126.99
601.69	2119.15
602.04	2111.34
602.39	2102.82
602.74	2094.87
603.08	2087.10
603.43	2079.15
603.78	2070.55
604.13	2062.19
604.48	2053.64
604.83	2045.46
605.18	2037.45
605.53	2028.27
605.87	2018.84
606.22	2010.22
606.57	2000.92
606.92	1992.17
607.27	1983.86
607.62	1975.79
607.96	1967.49
608.31	1959.71
608.66	1950.96
609.01	1941.99
609.36	1932.95
609.70	1923.46
610.05	1914.03
610.40	1905.14
610.75	1895.46
611.10	1886.65
611.44	1876.55
611.79	1867.16
612.14	1857.04
612.49	1846.21
612.83	1836.38
613.18	1826.77
613.53	1817.28
613.88	1807.42
614.22	1797.74
614.57	1787.43
614.92	1777.87
615.27	1768.92
615.61	1759.08
615.96	1749.56
616.31	1740.53
616.65	1731.89
617.00	1722.94
617.35	1713.95
617.70	1704.18
618.04	1694.07
618.39	1684.23
618.74	1675.44
619.08	1665.54
619.43	1656.47
619.78	1648.24
620.12	1639.69
620.47	1630.85
620.82	1621.24
621.16	1612.36
621.51	1603.33
621.85	1594.39
622.20	1584.37
622.55	1574.46
622.89	1565.24
623.24	1556.10
623.59	1547.33
623.93	1538.48
624.28	1529.90
624.62	1521.05
624.97	1512.49
625.32	1504.47
625.66	1496.11
626.01	1487.62
626.35	1479.00
626.70	1469.91
627.04	1460.89
627.39	1451.71
627.73	1442.94
628.08	1434.86
628.43	1426.38
628.77	1417.76
629.12	1408.86
629.46	1400.41
629.81	1391.69
630.15	1383.10
630.50	1374.53
630.84	1364.99
631.19	1355.56
631.53	1346.74
631.88	1337.79
632.22	1328.90
632.57	1320.29
632.91	1311.36
633.26	1302.70
633.60	1293.94
633.95	1285.50
634.29	1277.06
634.64	1269.27
634.98	1260.71
635.32	1252.19
635.67	1244.30
636.01	1236.48
636.36	1228.52
636.70	1220.72
637.05	1212.89
637.39	1205.27
637.73	1197.61
638.08	1190.49
638.42	1183.40
638.77	1175.90
639.11	1168.24
639.45	1160.66
639.80	1153.02
640.14	1145.62
640.49	1137.96
640.83	1130.55
641.17	1123.26
641.52	1115.89
641.86	1108.31
642.20	1101.45
642.55	1094.01
642.89	1086.47
643.23	1078.76
643.58	1072.02
643.92	1064.88
644.26	1057.90
644.61	1050.75
644.95	1043.84
645.29	1036.27
645.64	1028.54
645.98	1021.11
646.32	1014.25
646.66	1007.23
647.01	1000.42
647.35	993.74
647.69	986.89
648.04	980.42
648.38	973.74
648.72	966.87
649.06	959.83
649.41	952.93
649.75	946.06
650.09	939.17
650.43	932.49
650.78	925.35
651.12	918.41
651.46	911.70
651.80	905.17
652.14	898.84
652.49	892.65
652.83	886.65
653.17	880.08
653.51	873.42
653.85	867.12
654.20	860.65
654.54	853.77
654.88	847.06
655.22	840.22
655.56	833.55
655.90	827.17
656.25	821.16
656.59	814.91
656.93	809.11
657.27	803.19
657.61	796.82
657.95	790.95
658.29	785.11
658.64	779.14
658.98	772.95
659.32	766.57
659.66	760.47
660.00	754.31
660.34	748.51
660.68	742.88
661.02	737.04
661.36	731.50
661.70	726.23
662.05	721.20
662.39	716.31
662.73	711.21
663.07	706.18
663.41	700.92
663.75	695.72
664.09	690.30
664.43	685.18
664.77	680.52
665.11	675.52
665.45	670.67
665.79	665.89
666.13	661.12
666.47	656.44
666.81	651.73
667.15	646.99
667.49	642.45
667.83	638.01
668.17	633.50
668.51	628.84
668.85	624.16
669.19	619.67
669.53	615.22
669.87	610.73
670.21	606.42
670.55	602.22
670.89	598.31
671.23	594.36
671.57	590.26
671.91	586.15
672.25	582.12
672.58	578.06
672.92	574.03
673.26	570.36
673.60	566.70
673.94	563.13
674.28	559.72
674.62	556.39
674.96	552.82
675.30	549.45
675.64	546.01
675.97	542.79
676.31	539.56
676.65	536.16
676.99	533.02
677.33	529.70
677.67	526.46
678.01	522.93
678.34	519.54
678.68	516.21
679.02	512.92
679.36	509.70
679.70	506.55
680.04	503.43
680.37	500.15
680.71	496.90
681.05	493.78
681.39	490.62
681.73	487.49
682.06	484.56
682.40	481.60
682.74	478.70
683.08	475.76
683.42	472.71
683.75	469.81
684.09	466.81
684.43	463.98
684.77	461.16
685.10	458.48
685.44	455.83
685.78	453.22
686.12	450.61
686.45	447.97
686.79	445.30
687.13	442.74
687.46	440.23
687.80	437.75
688.14	435.17
688.48	432.83
688.81	430.28
689.15	427.77
689.49	425.30
689.82	422.87
690.16	420.45
690.50	418.17
690.83	415.90
691.17	413.63
691.51	411.40
691.84	409.23
692.18	407.00
692.52	404.66
692.85	402.33
693.19	400.17
693.52	398.04
693.86	395.96
694.20	393.91
694.53	391.80
694.87	389.59
695.21	387.51
695.54	385.34
695.88	383.29
696.21	381.31
696.55	379.29
696.88	377.33
697.22	375.34
697.56	373.47
697.89	371.54
698.23	369.65
698.56	367.76
698.90	365.92
699.23	363.97
699.57	362.16
699.90	360.43
700.24	358.64
700.58	356.86
700.91	355.12
701.25	353.42
701.58	351.82
701.92	350.25
702.25	348.69
702.59	347.11
702.92	345.61
703.26	344.08
703.59	342.62
703.93	341.24
704.26	339.86
704.60	338.33
704.93	336.84
705.26	335.39
705.60	334.07
705.93	332.69
706.27	331.46
706.60	330.23
706.94	328.93
707.27	327.63
707.61	326.36
707.94	325.15
708.27	323.85
708.61	322.58
708.94	321.41
709.28	320.27
709.61	319.17
709.94	318.03
710.28	316.82
710.61	315.67
710.95	314.42
711.28	313.30
711.61	312.17
711.95	311.10
712.28	310.01
712.61	308.82
712.95	307.71
713.28	306.72
713.61	305.71
713.95	304.69
714.28	303.67
714.61	302.69
714.95	301.70
715.28	300.70
715.61	299.70
715.95	298.68
716.28	297.64
716.61	296.66
716.95	295.73
717.28	294.89
717.61	293.99
717.94	293.12
718.28	292.22
718.61	291.36
718.94	290.57
719.27	289.81
719.61	289.06
719.94	288.29
720.27	287.43
720.60	286.62
720.94	285.89
721.27	285.21
721.60	284.50
721.93	283.84
722.27	283.19
722.60	282.53
722.93	281.90
723.26	281.31
723.59	280.65
723.93	279.99
724.26	279.33
724.59	278.66
724.92	278.05
725.25	277.44
725.59	276.87
725.92	276.28
726.25	275.64
726.58	275.06
726.91	274.49
727.24	273.97
727.57	273.42
727.91	272.80
728.24	272.24
728.57	271.73
728.90	271.16
729.23	270.62
729.56	270.10
729.89	269.51
730.22	268.91
730.55	268.35
730.89	267.86
731.22	267.33
731.55	266.84
731.88	266.35
732.21	265.86
732.54	265.35
732.87	264.83
733.20	264.35
733.53	263.93
733.86	263.48
734.19	262.99
734.52	262.57
734.85	262.22
735.18	261.72
735.51	261.26
735.84	260.82
736.17	260.43
736.50	259.99
736.83	259.71
737.16	259.34
737.49	258.95
737.82	258.51
738.15	258.12
738.48	257.72
738.81	257.33
739.14	256.92
739.47	256.54
739.80	256.17
740.13	255.83
740.46	255.42
740.79	255.04
741.12	254.69
741.45	254.30
741.78	253.89
742.11	253.56
742.44	253.18
742.77	252.84
743.10	252.46
743.43	252.10
743.75	251.65
744.08	251.47
744.41	251.16
744.74	250.86
745.07	250.55
745.40	250.26
745.73	249.99
746.06	249.69
746.39	249.41
746.71	249.12
747.04	248.78
747.37	248.48
747.70	248.20
748.03	247.90
748.36	247.66
748.68	247.37
749.01	247.09
749.34	246.85
749.67	246.60
750.00	246.38
750.33	246.17
750.65	245.96
750.98	245.55
751.31	245.30
751.64	245.05
751.97	244.89
752.29	244.65
752.62	244.38
752.95	244.13
753.28	243.89
753.60	243.64
753.93	243.46
754.26	243.25
754.59	242.99
754.91	242.75
755.24	242.52
755.57	242.33
755.90	242.11
756.22	241.92
756.55	241.66
756.88	241.42
757.20	241.20
757.53	241.00
757.86	240.83
758.19	240.64
758.51	240.43
758.84	240.20
759.17	240.00
759.49	239.80
759.82	239.73
760.15	239.56
760.47	239.44
760.80	239.24
761.13	239.10
761.45	238.92
761.78	238.76
762.11	238.59
762.43	238.44
762.76	238.29
763.08	238.14
763.41	238.03
763.74	237.87
764.06	237.69
764.39	237.50
764.71	237.36
765.04	237.21
765.37	237.05
765.69	236.90
766.02	236.78
766.34	236.65
766.67	236.43
767.00	236.29
767.32	236.18
767.65	236.11
767.97	235.98
768.30	235.88
768.62	235.74
768.95	235.63
769.27	235.48
769.60	235.36
769.92	235.20
770.25	235.04
770.57	234.89
770.90	234.76
771.22	234.65
771.55	234.52
771.87	234.40
772.20	234.30
772.52	234.26
772.85	234.23
773.17	234.14
773.50	234.01
773.82	233.90
774.15	233.74
774.47	233.59
774.80	233.46
775.12	233.33
775.45	233.24
775.77	233.13
776.09	233.03
776.42	232.92
776.74	232.89
777.07	232.79
777.39	232.73
777.72	232.66
778.04	232.57
778.36	232.49
778.69	232.41
779.01	232.34
779.33	232.16
779.66	231.97
779.98	231.84
780.31	231.78
780.63	231.71
780.95	231.66
781.28	231.56
781.60	231.47
781.92	231.41
782.25	231.34
782.57	231.24
782.89	231.16
783.22	231.10
783.54	230.95
783.86	230.91
784.19	230.86
784.51	230.80
784.83	230.75
785.16	230.67
785.48	230.60
785.80	230.55
786.12	230.50
786.45	230.44
