SpectraSuite Data File
++++++++++++++++++++++++++++++++++++
Date: Fri Feb 01 17:35:33 EST 2013
User: group
Dark Spectrum Present: No
Reference Spectrum Present: No
Number of Sampled Component Spectra: 1
Spectrometers: USB2E7196
Integration Time (usec): 35000 (USB2E7196)
Spectra Averaged: 100 (USB2E7196)
Boxcar Smoothing: 10 (USB2E7196)
Correct for Electrical Dark: No (USB2E7196)
Strobe/Lamp Enabled: No (USB2E7196)
Correct for Detector Non-linearity: No (USB2E7196)
Correct for Stray Light: No (USB2E7196)
Number of Pixels in Processed Spectrum: 2048
>>>>>Begin Processed Spectral Data<<<<<
339.09	0.00
339.48	213.08
339.86	214.19
340.24	215.76
340.63	217.04
341.01	220.02
341.39	220.01
341.78	221.63
342.16	222.71
342.54	222.50
342.93	211.53
343.31	222.24
343.69	222.78
344.07	223.30
344.46	223.74
344.84	224.13
345.22	224.38
345.60	224.64
345.99	224.79
346.37	224.96
346.75	225.08
347.13	225.14
347.52	225.18
347.90	225.24
348.28	225.27
348.66	225.31
349.05	225.29
349.43	225.32
349.81	225.33
350.19	225.41
350.57	225.48
350.96	225.54
351.34	225.61
351.72	225.71
352.10	225.77
352.48	225.83
352.87	225.90
353.25	225.98
353.63	226.06
354.01	226.15
354.39	226.19
354.77	226.29
355.15	226.37
355.54	226.46
355.92	226.50
356.30	226.58
356.68	226.73
357.06	226.78
357.44	226.84
357.82	226.93
358.20	226.99
358.58	227.03
358.97	227.12
359.35	227.16
359.73	227.23
360.11	227.28
360.49	227.33
360.87	227.36
361.25	227.41
361.63	227.45
362.01	227.49
362.39	227.53
362.77	227.55
363.15	227.60
363.53	227.62
363.91	227.65
364.29	227.66
364.67	227.59
365.05	227.63
365.43	227.64
365.81	227.63
366.19	227.67
366.57	227.71
366.95	227.70
367.33	227.70
367.71	227.66
368.09	227.66
368.47	227.62
368.85	227.62
369.23	227.56
369.61	227.51
369.99	227.52
370.37	227.50
370.75	227.51
371.13	227.45
371.51	227.42
371.89	227.37
372.27	227.31
372.65	227.21
373.03	227.14
373.41	227.08
373.78	227.03
374.16	226.92
374.54	226.84
374.92	226.77
375.30	226.69
375.68	226.62
376.06	226.54
376.44	226.49
376.82	226.44
377.19	226.43
377.57	226.36
377.95	226.24
378.33	226.17
378.71	226.04
379.09	226.00
379.47	225.92
379.84	225.86
380.22	225.79
380.60	225.75
380.98	225.67
381.36	225.61
381.73	225.52
382.11	225.48
382.49	225.43
382.87	225.35
383.25	225.35
383.62	225.42
384.00	225.40
384.38	225.35
384.76	225.33
385.13	225.31
385.51	225.26
385.89	225.22
386.27	225.16
386.64	225.15
387.02	225.07
387.40	225.03
387.78	224.97
388.15	224.97
388.53	224.97
388.91	224.97
389.29	224.93
389.66	224.96
390.04	224.94
390.42	224.89
390.79	224.89
391.17	224.85
391.55	224.71
391.92	224.70
392.30	224.72
392.68	224.66
393.05	224.63
393.43	224.66
393.81	224.68
394.18	224.65
394.56	224.67
394.94	224.73
395.31	224.74
395.69	224.80
396.06	224.82
396.44	224.83
396.82	224.85
397.19	224.95
397.57	224.96
397.95	224.99
398.32	225.02
398.70	225.05
399.07	225.11
399.45	225.17
399.82	225.19
400.20	225.23
400.58	225.33
400.95	225.35
401.33	225.44
401.70	225.58
402.08	225.68
402.45	225.74
402.83	225.84
403.20	225.96
403.58	226.04
403.95	226.17
404.33	226.26
404.71	226.38
405.08	226.52
405.46	226.63
405.83	226.80
406.21	226.96
406.58	227.14
406.96	227.29
407.33	227.50
407.70	227.74
408.08	228.00
408.45	228.19
408.83	228.43
409.20	228.61
409.58	228.81
409.95	229.04
410.33	229.34
410.70	229.57
411.08	229.86
411.45	230.19
411.82	230.52
412.20	230.91
412.57	231.34
412.95	231.66
413.32	232.08
413.69	232.50
414.07	232.99
414.44	233.46
414.82	234.01
415.19	234.59
415.56	235.13
415.94	235.68
416.31	236.34
416.68	236.98
417.06	237.74
417.43	238.43
417.81	239.25
418.18	240.05
418.55	240.94
418.93	241.83
419.30	242.74
419.67	243.71
420.04	244.70
420.42	245.70
420.79	246.91
421.16	248.08
421.54	249.31
421.91	250.54
422.28	251.86
422.66	253.19
423.03	254.47
423.40	255.92
423.77	257.37
424.15	258.84
424.52	260.42
424.89	262.09
425.26	263.74
425.64	265.23
426.01	266.92
426.38	268.66
426.75	270.39
427.13	272.17
427.50	274.05
427.87	275.99
428.24	277.96
428.61	279.78
428.99	281.86
429.36	284.05
429.73	286.22
430.10	288.34
430.47	290.51
430.85	292.76
431.22	295.07
431.59	297.55
431.96	299.91
432.33	302.51
432.70	304.97
433.08	307.89
433.45	310.68
433.82	313.36
434.19	316.35
434.56	319.30
434.93	322.09
435.30	324.86
435.68	327.87
436.05	330.79
436.42	333.69
436.79	336.34
437.16	339.14
437.53	342.08
437.90	345.02
438.27	347.88
438.64	350.80
439.01	353.53
439.38	355.92
439.75	358.18
440.13	360.80
440.50	363.26
440.87	365.20
441.24	367.26
441.61	369.51
441.98	371.09
442.35	372.99
442.72	374.93
443.09	376.79
443.46	377.87
443.83	378.56
444.20	379.16
444.57	380.03
444.94	380.34
445.31	380.73
445.68	381.13
446.05	381.26
446.42	380.92
446.79	380.48
447.16	380.00
447.53	379.69
447.90	378.49
448.27	377.32
448.64	375.72
449.01	374.52
449.37	372.53
449.74	370.55
450.11	368.25
450.48	365.70
450.85	363.06
451.22	360.84
451.59	358.73
451.96	356.69
452.33	353.95
452.70	351.50
453.07	348.54
453.43	345.50
453.80	342.58
454.17	339.71
454.54	337.05
454.91	334.22
455.28	331.44
455.65	328.85
456.02	326.29
456.38	323.99
456.75	321.20
457.12	318.83
457.49	316.52
457.86	314.25
458.23	312.32
458.59	310.21
458.96	308.02
459.33	306.08
459.70	304.12
460.07	302.56
460.43	300.79
460.80	299.07
461.17	297.58
461.54	296.01
461.91	294.60
462.27	293.06
462.64	291.74
463.01	290.32
463.38	288.96
463.74	287.51
464.11	286.32
464.48	285.25
464.85	284.08
465.21	283.15
465.58	282.15
465.95	280.96
466.32	279.96
466.68	279.00
467.05	278.02
467.42	277.12
467.78	276.13
468.15	275.21
468.52	274.57
468.88	273.66
469.25	272.86
469.62	272.21
469.98	271.53
470.35	270.87
470.72	270.26
471.08	269.55
471.45	269.00
471.82	268.42
472.18	267.78
472.55	267.34
472.92	266.79
473.28	266.34
473.65	265.92
474.02	265.52
474.38	265.15
474.75	264.87
475.11	264.52
475.48	264.26
475.85	264.03
476.21	263.81
476.58	263.63
476.94	263.50
477.31	263.32
477.67	263.15
478.04	263.04
478.41	262.97
478.77	263.04
479.14	262.99
479.50	262.97
479.87	263.07
480.23	263.15
480.60	263.23
480.96	263.30
481.33	263.50
481.69	263.71
482.06	263.89
482.42	264.05
482.79	264.31
483.15	264.62
483.52	264.98
483.88	265.26
484.25	265.64
484.61	266.08
484.98	266.54
485.34	267.11
485.71	267.74
486.07	268.37
486.44	268.91
486.80	269.62
487.17	270.36
487.53	271.16
487.90	272.02
488.26	272.96
488.62	273.95
488.99	274.93
489.35	275.96
489.72	277.08
490.08	278.30
490.44	279.55
490.81	280.86
491.17	282.23
491.54	283.74
491.90	285.25
492.26	286.85
492.63	288.53
492.99	290.30
493.36	292.12
493.72	294.14
494.08	296.21
494.45	298.41
494.81	300.76
495.17	303.16
495.54	305.71
495.90	308.35
496.26	311.14
496.63	314.05
496.99	317.13
497.35	320.36
497.72	323.67
498.08	327.12
498.44	330.76
498.80	334.61
499.17	338.63
499.53	342.72
499.89	346.99
500.26	351.44
500.62	356.03
500.98	360.99
501.34	365.98
501.71	371.22
502.07	376.55
502.43	382.11
502.79	387.83
503.16	393.76
503.52	399.92
503.88	406.20
504.24	412.68
504.60	419.39
504.97	426.40
505.33	433.55
505.69	441.16
506.05	448.85
506.41	456.55
506.78	464.49
507.14	472.83
507.50	481.38
507.86	490.22
508.22	499.30
508.59	508.26
508.95	517.60
509.31	527.17
509.67	537.08
510.03	547.09
510.39	557.42
510.75	567.90
511.12	578.55
511.48	589.56
511.84	600.72
512.20	611.97
512.56	623.59
512.92	635.48
513.28	647.41
513.64	659.48
514.00	671.87
514.37	684.53
514.73	697.22
515.09	709.87
515.45	722.76
515.81	735.86
516.17	749.33
516.53	763.03
516.89	776.85
517.25	790.55
517.61	804.60
517.97	818.53
518.33	832.58
518.69	846.96
519.05	861.42
519.41	876.08
519.77	891.13
520.13	906.09
520.49	921.08
520.85	935.93
521.21	951.05
521.57	966.84
521.93	982.08
522.29	997.87
522.65	1013.67
523.01	1029.29
523.37	1044.87
523.73	1060.67
524.09	1076.24
524.45	1091.98
524.81	1108.07
525.17	1124.25
525.53	1140.60
525.89	1157.02
526.25	1173.35
526.61	1189.26
526.97	1205.50
527.33	1221.44
527.68	1237.40
528.04	1253.30
528.40	1269.40
528.76	1285.98
529.12	1301.96
529.48	1318.28
529.84	1333.82
530.20	1349.91
530.56	1366.37
530.91	1383.31
531.27	1399.55
531.63	1415.68
531.99	1431.79
532.35	1447.45
532.71	1462.96
533.07	1478.93
533.42	1494.44
533.78	1510.00
534.14	1525.78
534.50	1540.82
534.86	1556.31
535.21	1571.24
535.57	1586.75
535.93	1601.89
536.29	1616.33
536.65	1631.12
537.00	1645.46
537.36	1660.47
537.72	1674.66
538.08	1688.96
538.44	1702.43
538.79	1716.15
539.15	1729.33
539.51	1742.80
539.87	1756.75
540.22	1770.05
540.58	1783.40
540.94	1796.32
541.29	1808.92
541.65	1821.43
542.01	1834.34
542.37	1846.61
542.72	1858.80
543.08	1870.64
543.44	1882.92
543.79	1894.30
544.15	1905.22
544.51	1916.78
544.87	1927.72
545.22	1938.60
545.58	1948.91
545.94	1958.70
546.29	1968.38
546.65	1978.50
547.01	1988.01
547.36	1996.79
547.72	2005.50
548.07	2013.66
548.43	2022.06
548.79	2030.07
549.14	2037.91
549.50	2045.39
549.86	2053.06
550.21	2060.60
550.57	2067.97
550.92	2074.78
551.28	2081.87
551.64	2089.08
551.99	2095.94
552.35	2102.36
552.70	2108.72
553.06	2114.89
553.41	2121.54
553.77	2127.75
554.13	2133.99
554.48	2140.19
554.84	2146.28
555.19	2151.76
555.55	2157.26
555.90	2162.05
556.26	2167.64
556.61	2172.55
556.97	2177.44
557.32	2182.03
557.68	2186.58
558.03	2191.03
558.39	2195.11
558.74	2200.10
559.10	2204.35
559.45	2208.30
559.81	2212.90
560.16	2217.07
560.52	2220.65
560.87	2224.38
561.23	2227.56
561.58	2230.84
561.94	2233.88
562.29	2236.25
562.64	2239.56
563.00	2242.30
563.35	2246.24
563.71	2249.55
564.06	2253.16
564.42	2256.41
564.77	2259.34
565.12	2262.25
565.48	2264.73
565.83	2267.05
566.19	2269.02
566.54	2270.26
566.89	2272.02
567.25	2273.20
567.60	2274.96
567.96	2277.18
568.31	2278.47
568.66	2280.20
569.02	2281.24
569.37	2281.87
569.72	2283.27
570.08	2283.98
570.43	2284.50
570.78	2284.45
571.14	2283.51
571.49	2282.62
571.84	2282.51
572.20	2281.80
572.55	2281.03
572.90	2279.72
573.26	2278.83
573.61	2277.34
573.96	2276.23
574.31	2273.59
574.67	2270.95
575.02	2267.67
575.37	2264.55
575.72	2261.10
576.08	2257.92
576.43	2254.86
576.78	2251.80
577.13	2248.94
577.49	2245.90
577.84	2242.86
578.19	2239.41
578.54	2236.25
578.90	2232.51
579.25	2227.40
579.60	2223.00
579.95	2218.43
580.30	2213.86
580.66	2209.12
581.01	2204.40
581.36	2199.69
581.71	2195.91
582.06	2192.00
582.42	2187.98
582.77	2183.30
583.12	2179.26
583.47	2175.09
583.82	2170.57
584.17	2165.65
584.53	2160.61
584.88	2155.33
585.23	2150.06
585.58	2144.79
585.93	2139.51
586.28	2134.78
586.63	2130.24
586.98	2125.36
587.34	2120.82
587.69	2116.09
588.04	2111.17
588.39	2105.95
588.74	2099.79
589.09	2093.75
589.44	2087.19
589.79	2081.29
590.14	2075.66
590.49	2069.28
590.84	2063.01
591.19	2057.20
591.54	2050.85
591.89	2043.84
592.25	2037.48
592.60	2030.45
592.95	2023.23
593.30	2016.13
593.65	2008.87
594.00	2001.76
594.35	1994.75
594.70	1986.76
595.05	1980.07
595.40	1972.74
595.75	1965.43
596.10	1959.51
596.45	1953.18
596.80	1947.10
597.15	1940.77
597.50	1934.15
597.85	1927.81
598.19	1921.41
598.54	1914.70
598.89	1908.28
599.24	1902.43
599.59	1896.03
599.94	1889.82
600.29	1883.52
600.64	1877.02
600.99	1869.75
601.34	1863.29
601.69	1856.29
602.04	1849.78
602.39	1842.34
602.74	1835.71
603.08	1829.06
603.43	1822.34
603.78	1815.15
604.13	1807.98
604.48	1800.76
604.83	1793.91
605.18	1787.24
605.53	1779.39
605.87	1771.28
606.22	1763.99
606.57	1756.04
606.92	1748.40
607.27	1741.50
607.62	1734.71
607.96	1727.51
608.31	1721.14
608.66	1713.51
609.01	1706.16
609.36	1698.49
609.70	1690.49
610.05	1682.39
610.40	1674.82
610.75	1666.55
611.10	1658.71
611.44	1650.26
611.79	1642.22
612.14	1633.48
612.49	1624.15
612.83	1615.51
613.18	1607.21
613.53	1599.21
613.88	1590.72
614.22	1582.46
614.57	1573.58
614.92	1565.43
615.27	1557.97
615.61	1549.60
615.96	1541.48
616.31	1533.67
616.65	1526.40
617.00	1518.80
617.35	1510.99
617.70	1502.59
618.04	1493.96
618.39	1485.67
618.74	1478.01
619.08	1469.71
619.43	1462.09
619.78	1455.00
620.12	1447.84
620.47	1440.38
620.82	1432.06
621.16	1424.38
621.51	1416.62
621.85	1408.90
622.20	1400.35
622.55	1391.74
622.89	1383.72
623.24	1375.92
623.59	1368.35
623.93	1360.61
624.28	1353.38
624.62	1345.94
624.97	1338.62
625.32	1331.85
625.66	1324.76
626.01	1317.65
626.35	1310.24
626.70	1302.18
627.04	1294.48
627.39	1286.60
627.73	1279.14
628.08	1272.18
628.43	1265.06
628.77	1257.79
629.12	1250.35
629.46	1243.07
629.81	1235.56
630.15	1228.13
630.50	1220.74
630.84	1212.51
631.19	1204.43
631.53	1196.72
631.88	1189.01
632.22	1181.34
632.57	1173.83
632.91	1166.13
633.26	1158.61
633.60	1151.00
633.95	1143.75
634.29	1136.41
634.64	1129.59
634.98	1122.17
635.32	1114.95
635.67	1108.12
636.01	1101.29
636.36	1094.35
636.70	1087.78
637.05	1081.13
637.39	1074.64
637.73	1068.04
638.08	1062.06
638.42	1056.05
638.77	1049.69
639.11	1043.14
639.45	1036.69
639.80	1030.11
640.14	1023.70
640.49	1017.08
640.83	1010.76
641.17	1004.65
641.52	998.46
641.86	992.02
642.20	986.06
642.55	979.51
642.89	973.07
643.23	966.48
643.58	960.64
643.92	954.48
644.26	948.48
644.61	942.38
644.95	936.42
645.29	929.89
645.64	923.19
645.98	916.73
646.32	910.65
646.66	904.54
647.01	898.60
647.35	892.96
647.69	887.07
648.04	881.46
648.38	875.58
648.72	869.62
649.06	863.52
649.41	857.60
649.75	851.82
650.09	845.81
650.43	840.12
650.78	834.00
651.12	827.99
651.46	822.24
651.80	816.61
652.14	811.07
652.49	805.68
652.83	800.44
653.17	794.88
653.51	789.30
653.85	783.91
654.20	778.30
654.54	772.26
654.88	766.47
655.22	760.55
655.56	754.79
655.90	749.23
656.25	744.06
656.59	738.67
656.93	733.50
657.27	728.38
657.61	722.83
657.95	717.69
658.29	712.56
658.64	707.23
658.98	701.82
659.32	696.36
659.66	691.12
660.00	685.91
660.34	680.85
660.68	675.96
661.02	670.92
661.36	666.28
661.70	661.73
662.05	657.34
662.39	653.10
662.73	648.66
663.07	644.26
663.41	639.79
663.75	635.32
664.09	630.80
664.43	626.36
664.77	622.31
665.11	618.09
665.45	613.96
665.79	609.90
666.13	605.82
666.47	601.67
666.81	597.59
667.15	593.39
667.49	589.41
667.83	585.44
668.17	581.41
668.51	577.31
668.85	573.22
669.19	569.27
669.53	565.43
669.87	561.63
670.21	557.94
670.55	554.22
670.89	550.80
671.23	547.24
671.57	543.66
671.91	540.16
672.25	536.59
672.58	533.02
672.92	529.56
673.26	526.34
673.60	523.20
673.94	520.08
674.28	517.10
674.62	514.18
674.96	511.14
675.30	508.33
675.64	505.33
675.97	502.53
676.31	499.67
676.65	496.68
676.99	493.92
677.33	491.03
677.67	488.26
678.01	485.23
678.34	482.32
678.68	479.43
679.02	476.51
679.36	473.70
679.70	471.00
680.04	468.20
680.37	465.36
680.71	462.53
681.05	459.76
681.39	457.02
681.73	454.36
682.06	451.76
682.40	449.15
682.74	446.57
683.08	443.97
683.42	441.33
683.75	438.79
684.09	436.18
684.43	433.68
684.77	431.13
685.10	428.69
685.44	426.38
685.78	424.07
686.12	421.77
686.45	419.46
686.79	417.16
687.13	414.95
687.46	412.73
687.80	410.49
688.14	408.28
688.48	406.23
688.81	403.93
689.15	401.80
689.49	399.65
689.82	397.58
690.16	395.47
690.50	393.55
690.83	391.58
691.17	389.60
691.51	387.70
691.84	385.88
692.18	383.98
692.52	382.05
692.85	380.10
693.19	378.23
693.52	376.40
693.86	374.53
694.20	372.74
694.53	370.99
694.87	369.17
695.21	367.38
695.54	365.50
695.88	363.76
696.21	361.95
696.55	360.24
696.88	358.52
697.22	356.85
697.56	355.17
697.89	353.55
698.23	351.92
698.56	350.28
698.90	348.68
699.23	347.07
699.57	345.45
699.90	343.90
700.24	342.30
700.58	340.76
700.91	339.30
701.25	337.82
701.58	336.38
701.92	334.99
702.25	333.64
702.59	332.26
702.92	330.94
703.26	329.65
703.59	328.35
703.93	327.14
704.26	325.94
704.60	324.68
704.93	323.37
705.26	322.13
705.60	320.90
705.93	319.69
706.27	318.57
706.60	317.49
706.94	316.39
707.27	315.31
707.61	314.19
707.94	313.12
708.27	312.02
708.61	310.91
708.94	309.89
709.28	308.82
709.61	307.88
709.94	306.89
710.28	305.84
710.61	304.82
710.95	303.73
711.28	302.74
711.61	301.75
711.95	300.85
712.28	299.88
712.61	298.89
712.95	297.92
713.28	297.00
713.61	296.07
713.95	295.17
714.28	294.28
714.61	293.38
714.95	292.52
715.28	291.66
715.61	290.75
715.95	289.86
716.28	288.99
716.61	288.10
716.95	287.22
717.28	286.46
717.61	285.67
717.94	284.90
718.28	284.07
718.61	283.31
718.94	282.58
719.27	281.88
719.61	281.23
719.94	280.57
720.27	279.84
720.60	279.14
720.94	278.49
721.27	277.88
721.60	277.31
721.93	276.67
722.27	276.09
722.60	275.52
722.93	274.95
723.26	274.38
723.59	273.83
723.93	273.29
724.26	272.70
724.59	272.14
724.92	271.58
725.25	271.07
725.59	270.57
725.92	270.03
726.25	269.52
726.58	269.02
726.91	268.53
727.24	268.08
727.57	267.62
727.91	267.13
728.24	266.64
728.57	266.15
728.90	265.63
729.23	265.14
729.56	264.74
729.89	264.26
730.22	263.80
730.55	263.32
730.89	262.90
731.22	262.48
731.55	262.05
731.88	261.65
732.21	261.25
732.54	260.74
732.87	260.31
733.20	259.88
733.53	259.46
733.86	259.09
734.19	258.69
734.52	258.28
734.85	257.94
735.18	257.55
735.51	257.19
735.84	256.84
736.17	256.50
736.50	256.06
736.83	255.86
737.16	255.55
737.49	255.24
737.82	254.90
738.15	254.55
738.48	254.22
738.81	253.87
739.14	253.56
739.47	253.29
739.80	253.03
740.13	252.73
740.46	252.44
740.79	252.08
741.12	251.77
741.45	251.49
741.78	251.16
742.11	250.88
742.44	250.51
742.77	250.22
743.10	249.91
743.43	249.61
743.75	249.20
744.08	249.04
744.41	248.74
744.74	248.43
745.07	248.18
745.40	247.94
745.73	247.74
746.06	247.44
746.39	247.17
746.71	246.87
747.04	246.60
747.37	246.32
747.70	246.10
748.03	245.83
748.36	245.59
748.68	245.33
749.01	245.10
749.34	244.92
749.67	244.73
750.00	244.50
750.33	244.34
750.65	244.13
750.98	243.79
751.31	243.56
751.64	243.36
751.97	243.15
752.29	242.92
752.62	242.61
752.95	242.42
753.28	242.21
753.60	241.99
753.93	241.83
754.26	241.60
754.59	241.39
754.91	241.18
755.24	240.97
755.57	240.75
755.90	240.55
756.22	240.34
756.55	240.08
756.88	239.92
757.20	239.68
757.53	239.47
757.86	239.27
758.19	239.10
758.51	238.91
758.84	238.67
759.17	238.47
759.49	238.33
759.82	238.19
760.15	238.05
760.47	237.91
760.80	237.70
761.13	237.57
761.45	237.39
761.78	237.24
762.11	237.09
762.43	236.95
762.76	236.78
763.08	236.63
763.41	236.47
763.74	236.30
764.06	236.14
764.39	236.00
764.71	235.89
765.04	235.71
765.37	235.58
765.69	235.45
766.02	235.32
766.34	235.18
766.67	235.02
767.00	234.89
767.32	234.84
767.65	234.78
767.97	234.68
768.30	234.52
768.62	234.42
768.95	234.28
769.27	234.17
769.60	234.09
769.92	233.95
770.25	233.87
770.57	233.75
770.90	233.64
771.22	233.54
771.55	233.39
771.87	233.37
772.20	233.26
772.52	233.26
772.85	233.32
773.17	233.19
773.50	233.09
773.82	232.99
774.15	232.85
774.47	232.71
774.80	232.62
775.12	232.56
775.45	232.46
775.77	232.38
776.09	232.31
776.42	232.21
776.74	232.19
777.07	232.10
777.39	232.02
777.72	231.94
778.04	231.85
778.36	231.77
778.69	231.68
779.01	231.61
779.33	231.45
779.66	231.26
779.98	231.19
780.31	231.10
780.63	231.06
780.95	230.99
781.28	230.90
781.60	230.83
781.92	230.75
782.25	230.68
782.57	230.62
782.89	230.52
783.22	230.43
783.54	230.35
783.86	230.31
784.19	230.25
784.51	230.23
784.83	230.17
785.16	230.15
785.48	230.07
785.80	230.04
786.12	230.01
786.45	229.97
786.77	229.96
787.09	229.94
