SpectraSuite Data File
++++++++++++++++++++++++++++++++++++
Date: Fri Feb 01 15:03:23 EST 2013
User: group
Dark Spectrum Present: No
Reference Spectrum Present: No
Number of Sampled Component Spectra: 1
Spectrometers: USB2E7196
Integration Time (usec): 35000 (USB2E7196)
Spectra Averaged: 100 (USB2E7196)
Boxcar Smoothing: 10 (USB2E7196)
Correct for Electrical Dark: No (USB2E7196)
Strobe/Lamp Enabled: No (USB2E7196)
Correct for Detector Non-linearity: No (USB2E7196)
Correct for Stray Light: No (USB2E7196)
Number of Pixels in Processed Spectrum: 2048
>>>>>Begin Processed Spectral Data<<<<<
339.09	0.00
339.48	215.35
339.86	216.52
340.24	217.68
340.63	220.13
341.01	222.26
341.39	222.09
341.78	223.13
342.16	224.14
342.54	225.60
342.93	213.62
343.31	224.43
343.69	224.96
344.07	225.45
344.46	225.89
344.84	226.22
345.22	226.44
345.60	226.72
345.99	226.94
346.37	227.08
346.75	227.19
347.13	227.27
347.52	227.33
347.90	227.42
348.28	227.43
348.66	227.44
349.05	227.43
349.43	227.45
349.81	227.49
350.19	227.54
350.57	227.61
350.96	227.65
351.34	227.71
351.72	227.78
352.10	227.86
352.48	227.95
352.87	228.00
353.25	228.08
353.63	228.09
354.01	228.16
354.39	228.24
354.77	228.28
355.15	228.35
355.54	228.39
355.92	228.39
356.30	228.44
356.68	228.55
357.06	228.62
357.44	228.66
357.82	228.70
358.20	228.77
358.58	228.83
358.97	228.89
359.35	228.95
359.73	229.01
360.11	229.04
360.49	229.08
360.87	229.16
361.25	229.19
361.63	229.26
362.01	229.28
362.39	229.30
362.77	229.35
363.15	229.37
363.53	229.39
363.91	229.41
364.29	229.43
364.67	229.35
365.05	229.33
365.43	229.36
365.81	229.35
366.19	229.37
366.57	229.39
366.95	229.35
367.33	229.33
367.71	229.34
368.09	229.34
368.47	229.27
368.85	229.27
369.23	229.27
369.61	229.22
369.99	229.20
370.37	229.18
370.75	229.18
371.13	229.10
371.51	229.01
371.89	228.96
372.27	228.91
372.65	228.87
373.03	228.80
373.41	228.75
373.78	228.70
374.16	228.60
374.54	228.51
374.92	228.45
375.30	228.39
375.68	228.30
376.06	228.24
376.44	228.16
376.82	228.05
377.19	227.98
377.57	227.90
377.95	227.79
378.33	227.69
378.71	227.57
379.09	227.56
379.47	227.53
379.84	227.46
380.22	227.39
380.60	227.32
380.98	227.27
381.36	227.20
381.73	227.09
382.11	227.02
382.49	226.99
382.87	226.91
383.25	226.83
383.62	226.89
384.00	226.83
384.38	226.82
384.76	226.77
385.13	226.75
385.51	226.70
385.89	226.63
386.27	226.63
386.64	226.58
387.02	226.52
387.40	226.49
387.78	226.47
388.15	226.44
388.53	226.41
388.91	226.36
389.29	226.34
389.66	226.33
390.04	226.32
390.42	226.31
390.79	226.34
391.17	226.35
391.55	226.25
391.92	226.23
392.30	226.25
392.68	226.24
393.05	226.25
393.43	226.28
393.81	226.32
394.18	226.32
394.56	226.32
394.94	226.37
395.31	226.40
395.69	226.47
396.06	226.54
396.44	226.60
396.82	226.65
397.19	226.74
397.57	226.81
397.95	226.87
398.32	226.90
398.70	226.94
399.07	227.02
399.45	227.06
399.82	227.13
400.20	227.17
400.58	227.24
400.95	227.27
401.33	227.36
401.70	227.51
402.08	227.58
402.45	227.73
402.83	227.86
403.20	227.99
403.58	228.06
403.95	228.19
404.33	228.33
404.71	228.46
405.08	228.64
405.46	228.74
405.83	228.90
406.21	229.06
406.58	229.26
406.96	229.43
407.33	229.64
407.70	229.86
408.08	230.13
408.45	230.40
408.83	230.66
409.20	230.88
409.58	231.08
409.95	231.35
410.33	231.60
410.70	231.83
411.08	232.13
411.45	232.44
411.82	232.74
412.20	233.09
412.57	233.51
412.95	233.79
413.32	234.25
413.69	234.68
414.07	235.12
414.44	235.56
414.82	236.06
415.19	236.58
415.56	237.11
415.94	237.63
416.31	238.25
416.68	238.87
417.06	239.59
417.43	240.25
417.81	241.02
418.18	241.81
418.55	242.64
418.93	243.49
419.30	244.39
419.67	245.31
420.04	246.30
420.42	247.29
420.79	248.47
421.16	249.57
421.54	250.79
421.91	252.01
422.28	253.27
422.66	254.57
423.03	255.91
423.40	257.25
423.77	258.65
424.15	260.08
424.52	261.56
424.89	263.14
425.26	264.70
425.64	266.14
426.01	267.72
426.38	269.37
426.75	271.03
427.13	272.76
427.50	274.57
427.87	276.41
428.24	278.27
428.61	280.02
428.99	282.00
429.36	284.06
429.73	286.15
430.10	288.16
430.47	290.24
430.85	292.34
431.22	294.59
431.59	297.03
431.96	299.27
432.33	301.77
432.70	304.19
433.08	307.03
433.45	309.66
433.82	312.30
434.19	315.20
434.56	318.04
434.93	320.69
435.30	323.29
435.68	326.17
436.05	329.00
436.42	331.83
436.79	334.36
437.16	337.09
437.53	339.96
437.90	342.84
438.27	345.58
438.64	348.44
439.01	351.07
439.38	353.30
439.75	355.50
440.13	358.03
440.50	360.36
440.87	362.23
441.24	364.21
441.61	366.35
441.98	367.86
442.35	369.72
442.72	371.57
443.09	373.42
443.46	374.46
443.83	375.06
444.20	375.54
444.57	376.37
444.94	376.61
445.31	376.95
445.68	377.26
446.05	377.29
446.42	376.89
446.79	376.45
447.16	376.01
447.53	375.68
447.90	374.52
448.27	373.38
448.64	371.81
449.01	370.67
449.37	368.73
449.74	366.80
450.11	364.49
450.48	362.08
450.85	359.52
451.22	357.40
451.59	355.40
451.96	353.47
452.33	350.89
452.70	348.55
453.07	345.70
453.43	342.77
453.80	340.02
454.17	337.36
454.54	334.78
454.91	332.01
455.28	329.33
455.65	326.80
456.02	324.31
456.38	322.15
456.75	319.47
457.12	317.22
457.49	315.04
457.86	312.85
458.23	310.97
458.59	308.95
458.96	306.85
459.33	304.96
459.70	303.10
460.07	301.59
460.43	299.85
460.80	298.20
461.17	296.78
461.54	295.30
461.91	293.87
462.27	292.44
462.64	291.20
463.01	289.82
463.38	288.54
463.74	287.16
464.11	285.96
464.48	284.95
464.85	283.77
465.21	282.85
465.58	281.95
465.95	280.83
466.32	279.88
466.68	278.92
467.05	278.02
467.42	277.09
467.78	276.12
468.15	275.24
468.52	274.55
468.88	273.67
469.25	272.88
469.62	272.22
469.98	271.51
470.35	270.88
470.72	270.27
471.08	269.58
471.45	269.04
471.82	268.48
472.18	267.85
472.55	267.43
472.92	266.93
473.28	266.41
473.65	265.94
474.02	265.53
474.38	265.18
474.75	264.87
475.11	264.53
475.48	264.23
475.85	264.00
476.21	263.78
476.58	263.60
476.94	263.39
477.31	263.21
477.67	263.07
478.04	262.96
478.41	262.89
478.77	262.90
479.14	262.83
479.50	262.84
479.87	262.92
480.23	263.00
480.60	263.03
480.96	263.09
481.33	263.30
481.69	263.44
482.06	263.61
482.42	263.77
482.79	264.01
483.15	264.33
483.52	264.71
483.88	265.04
484.25	265.44
484.61	265.88
484.98	266.33
485.34	266.87
485.71	267.44
486.07	268.04
486.44	268.66
486.80	269.34
487.17	270.09
487.53	270.90
487.90	271.71
488.26	272.66
488.62	273.69
488.99	274.66
489.35	275.70
489.72	276.85
490.08	278.06
490.44	279.30
490.81	280.66
491.17	282.00
491.54	283.48
491.90	284.99
492.26	286.64
492.63	288.38
492.99	290.15
493.36	292.01
493.72	294.04
494.08	296.11
494.45	298.34
494.81	300.69
495.17	303.10
495.54	305.70
495.90	308.36
496.26	311.14
496.63	314.07
496.99	317.15
497.35	320.38
497.72	323.77
498.08	327.26
498.44	330.88
498.80	334.76
499.17	338.75
499.53	342.90
499.89	347.29
500.26	351.78
500.62	356.44
500.98	361.40
501.34	366.45
501.71	371.73
502.07	377.15
502.43	382.75
502.79	388.54
503.16	394.57
503.52	400.81
503.88	407.19
504.24	413.81
504.60	420.67
504.97	427.81
505.33	435.10
505.69	442.73
506.05	450.49
506.41	458.40
506.78	466.55
507.14	475.00
507.50	483.65
507.86	492.60
508.22	501.79
508.59	510.93
508.95	520.54
509.31	530.36
509.67	540.49
510.03	550.72
510.39	561.23
510.75	572.05
511.12	582.90
511.48	594.21
511.84	605.61
512.20	617.14
512.56	629.12
512.92	641.30
513.28	653.62
513.64	666.17
514.00	678.79
514.37	691.73
514.73	704.72
515.09	717.82
515.45	731.20
515.81	744.77
516.17	758.81
516.53	772.91
516.89	787.04
517.25	801.22
517.61	815.71
517.97	830.22
518.33	844.62
518.69	859.56
519.05	874.62
519.41	889.85
519.77	905.37
520.13	920.78
520.49	936.13
520.85	951.64
521.21	967.32
521.57	983.59
521.93	999.39
522.29	1015.86
522.65	1032.14
523.01	1048.39
523.37	1064.49
523.73	1080.70
524.09	1096.88
524.45	1113.37
524.81	1130.14
525.17	1147.02
525.53	1164.00
525.89	1181.04
526.25	1197.89
526.61	1214.32
526.97	1231.15
527.33	1247.78
527.68	1264.50
528.04	1281.16
528.40	1297.99
528.76	1315.15
529.12	1331.91
529.48	1348.93
529.84	1365.11
530.20	1381.89
530.56	1399.11
530.91	1416.60
531.27	1433.53
531.63	1449.98
531.99	1466.59
532.35	1482.57
532.71	1498.50
533.07	1514.80
533.42	1530.73
533.78	1546.84
534.14	1563.34
534.50	1578.75
534.86	1594.67
535.21	1609.82
535.57	1625.81
535.93	1641.31
536.29	1656.15
536.65	1671.39
537.00	1686.22
537.36	1701.57
537.72	1716.15
538.08	1730.58
538.44	1744.38
538.79	1758.29
539.15	1772.25
539.51	1786.17
539.87	1800.49
540.22	1814.50
540.58	1828.43
540.94	1841.81
541.29	1854.91
541.65	1867.62
542.01	1880.95
542.37	1893.46
542.72	1906.13
543.08	1918.12
543.44	1930.44
543.79	1941.72
544.15	1952.77
544.51	1964.40
544.87	1975.45
545.22	1986.29
545.58	1996.56
545.94	2006.36
546.29	2016.35
546.65	2026.05
547.01	2035.25
547.36	2044.07
547.72	2052.33
548.07	2060.24
548.43	2068.47
548.79	2076.54
549.14	2083.98
549.50	2091.42
549.86	2099.18
550.21	2106.49
550.57	2113.45
550.92	2120.17
551.28	2127.30
551.64	2134.30
551.99	2140.90
552.35	2147.09
552.70	2153.09
553.06	2158.96
553.41	2165.34
553.77	2171.37
554.13	2177.52
554.48	2183.55
554.84	2188.92
555.19	2194.43
555.55	2199.40
555.90	2203.80
556.26	2208.61
556.61	2213.32
556.97	2217.32
557.32	2221.35
557.68	2225.40
558.03	2229.79
558.39	2233.48
558.74	2238.09
559.10	2241.87
559.45	2245.50
559.81	2249.88
560.16	2253.79
560.52	2256.98
560.87	2260.43
561.23	2263.00
561.58	2265.92
561.94	2268.47
562.29	2270.95
562.64	2273.41
563.00	2276.15
563.35	2279.60
563.71	2282.63
564.06	2285.85
564.42	2288.83
564.77	2291.16
565.12	2293.23
565.48	2294.89
565.83	2296.50
566.19	2297.59
566.54	2298.62
566.89	2299.58
567.25	2299.83
567.60	2300.96
567.96	2302.55
568.31	2303.23
568.66	2304.13
569.02	2304.60
569.37	2304.92
569.72	2305.61
570.08	2305.62
570.43	2305.34
570.78	2304.55
571.14	2302.76
571.49	2301.23
571.84	2300.66
572.20	2299.17
572.55	2298.09
572.90	2296.57
573.26	2295.19
573.61	2293.40
573.96	2291.28
574.31	2288.12
574.67	2285.05
575.02	2281.43
575.37	2277.99
575.72	2274.09
576.08	2270.62
576.43	2267.07
576.78	2263.20
577.13	2259.98
577.49	2256.89
577.84	2253.32
578.19	2249.53
578.54	2245.76
578.90	2241.31
579.25	2235.79
579.60	2230.87
579.95	2225.65
580.30	2220.36
580.66	2215.14
581.01	2210.13
581.36	2205.07
581.71	2200.65
582.06	2195.85
582.42	2191.24
582.77	2185.88
583.12	2181.18
583.47	2176.28
583.82	2171.12
584.17	2165.77
584.53	2159.95
584.88	2153.99
585.23	2148.20
585.58	2142.59
585.93	2137.16
586.28	2132.40
586.63	2127.11
586.98	2121.94
587.34	2117.23
587.69	2112.24
588.04	2106.70
588.39	2100.90
588.74	2094.38
589.09	2088.24
589.44	2081.45
589.79	2075.34
590.14	2069.54
590.49	2062.86
590.84	2056.43
591.19	2050.38
591.54	2043.71
591.89	2036.18
592.25	2029.32
592.60	2021.90
592.95	2014.18
593.30	2006.67
593.65	1998.94
594.00	1991.84
594.35	1984.56
594.70	1976.43
595.05	1969.09
595.40	1961.83
595.75	1954.25
596.10	1947.81
596.45	1940.91
596.80	1934.74
597.15	1927.76
597.50	1920.60
597.85	1914.09
598.19	1907.43
598.54	1900.27
598.89	1893.63
599.24	1887.89
599.59	1881.11
599.94	1874.90
600.29	1868.59
600.64	1861.93
600.99	1854.50
601.34	1847.70
601.69	1840.57
602.04	1833.55
602.39	1826.22
602.74	1819.28
603.08	1812.58
603.43	1805.90
603.78	1798.75
604.13	1791.54
604.48	1784.26
604.83	1777.37
605.18	1770.19
605.53	1762.11
605.87	1753.95
606.22	1746.73
606.57	1738.63
606.92	1731.36
607.27	1724.05
607.62	1717.07
607.96	1709.75
608.31	1703.06
608.66	1695.23
609.01	1687.75
609.36	1680.26
609.70	1672.23
610.05	1664.16
610.40	1656.36
610.75	1648.08
611.10	1640.29
611.44	1631.93
611.79	1624.08
612.14	1615.39
612.49	1606.51
612.83	1598.14
613.18	1590.14
613.53	1581.97
613.88	1573.43
614.22	1565.07
614.57	1556.60
614.92	1548.60
615.27	1540.98
615.61	1532.63
615.96	1524.62
616.31	1517.12
616.65	1509.68
617.00	1502.16
617.35	1494.54
617.70	1486.22
618.04	1477.68
618.39	1469.50
618.74	1461.92
619.08	1453.59
619.43	1446.04
619.78	1439.02
620.12	1431.90
620.47	1424.24
620.82	1416.18
621.16	1408.89
621.51	1401.36
621.85	1393.75
622.20	1385.22
622.55	1377.05
622.89	1369.24
623.24	1361.81
623.59	1354.45
623.93	1346.97
624.28	1339.82
624.62	1332.31
624.97	1325.20
625.32	1318.49
625.66	1311.42
626.01	1304.14
626.35	1296.82
626.70	1289.06
627.04	1281.40
627.39	1273.68
627.73	1266.40
628.08	1259.43
628.43	1252.11
628.77	1244.83
629.12	1237.31
629.46	1230.20
629.81	1222.86
630.15	1215.64
630.50	1208.16
630.84	1199.95
631.19	1192.02
631.53	1184.55
631.88	1177.09
632.22	1169.55
632.57	1162.33
632.91	1154.92
633.26	1147.61
633.60	1140.29
633.95	1133.32
634.29	1126.41
634.64	1119.74
634.98	1112.40
635.32	1105.31
635.67	1098.84
636.01	1092.23
636.36	1085.43
636.70	1079.01
637.05	1072.47
637.39	1066.10
637.73	1059.64
638.08	1053.78
638.42	1047.91
638.77	1041.49
639.11	1034.84
639.45	1028.42
639.80	1021.81
640.14	1015.38
640.49	1008.87
640.83	1002.54
641.17	996.29
641.52	989.95
641.86	983.71
642.20	978.02
642.55	971.84
642.89	965.31
643.23	958.86
643.58	953.15
643.92	946.96
644.26	940.83
644.61	934.96
644.95	929.03
645.29	922.47
645.64	915.85
645.98	909.52
646.32	903.77
646.66	897.80
647.01	892.00
647.35	886.36
647.69	880.60
648.04	875.19
648.38	869.44
648.72	863.35
649.06	857.24
649.41	851.34
649.75	845.34
650.09	839.35
650.43	833.48
650.78	827.28
651.12	821.35
651.46	815.69
651.80	809.78
652.14	804.34
652.49	799.07
652.83	793.78
653.17	788.05
653.51	782.34
653.85	776.95
654.20	771.33
654.54	765.37
654.88	759.59
655.22	753.73
655.56	748.03
655.90	742.67
656.25	737.41
656.59	732.09
656.93	726.97
657.27	721.95
657.61	716.54
657.95	711.43
658.29	706.32
658.64	701.09
658.98	695.87
659.32	690.41
659.66	685.11
660.00	679.87
660.34	674.99
660.68	670.11
661.02	665.08
661.36	660.39
661.70	655.94
662.05	651.63
662.39	647.30
662.73	642.88
663.07	638.52
663.41	634.02
663.75	629.48
664.09	625.00
664.43	620.53
664.77	616.49
665.11	612.37
665.45	608.38
665.79	604.29
666.13	600.18
666.47	596.11
666.81	591.99
667.15	587.87
667.49	584.06
667.83	580.28
668.17	576.32
668.51	572.27
668.85	568.24
669.19	564.42
669.53	560.54
669.87	556.68
670.21	553.06
670.55	549.46
670.89	546.10
671.23	542.70
671.57	539.25
671.91	535.71
672.25	532.22
672.58	528.71
672.92	525.38
673.26	522.28
673.60	519.24
673.94	516.15
674.28	513.35
674.62	510.42
674.96	507.39
675.30	504.55
675.64	501.67
675.97	498.97
676.31	496.13
676.65	493.19
676.99	490.55
677.33	487.62
677.67	484.86
678.01	481.83
678.34	478.87
678.68	476.06
679.02	473.29
679.36	470.52
679.70	467.80
680.04	464.98
680.37	462.07
680.71	459.32
681.05	456.76
681.39	454.02
681.73	451.34
682.06	448.80
682.40	446.30
682.74	443.78
683.08	441.25
683.42	438.67
683.75	436.28
684.09	433.75
684.43	431.36
684.77	428.87
685.10	426.57
685.44	424.29
685.78	421.97
686.12	419.74
686.45	417.46
686.79	415.18
687.13	413.08
687.46	410.99
687.80	408.85
688.14	406.64
688.48	404.64
688.81	402.41
689.15	400.23
689.49	398.10
689.82	395.99
690.16	393.88
690.50	391.94
690.83	390.00
691.17	388.05
691.51	386.14
691.84	384.36
692.18	382.38
692.52	380.37
692.85	378.50
693.19	376.65
693.52	374.89
693.86	373.09
694.20	371.28
694.53	369.44
694.87	367.61
695.21	365.86
695.54	363.99
695.88	362.29
696.21	360.59
696.55	358.91
696.88	357.32
697.22	355.67
697.56	354.03
697.89	352.35
698.23	350.68
698.56	349.10
698.90	347.47
699.23	345.87
699.57	344.36
699.90	342.81
700.24	341.29
700.58	339.70
700.91	338.18
701.25	336.74
701.58	335.37
701.92	334.00
702.25	332.58
702.59	331.22
702.92	329.91
703.26	328.63
703.59	327.38
703.93	326.14
704.26	324.94
704.60	323.67
704.93	322.42
705.26	321.20
705.60	320.02
705.93	318.89
706.27	317.87
706.60	316.80
706.94	315.72
707.27	314.59
707.61	313.58
707.94	312.59
708.27	311.51
708.61	310.47
708.94	309.47
709.28	308.51
709.61	307.57
709.94	306.66
710.28	305.64
710.61	304.65
710.95	303.60
711.28	302.70
711.61	301.74
711.95	300.82
712.28	299.88
712.61	298.87
712.95	297.96
713.28	297.11
713.61	296.27
713.95	295.39
714.28	294.53
714.61	293.67
714.95	292.80
715.28	291.96
715.61	291.11
715.95	290.25
716.28	289.40
716.61	288.57
716.95	287.73
717.28	287.02
717.61	286.28
717.94	285.55
718.28	284.70
718.61	284.02
718.94	283.34
719.27	282.68
719.61	282.11
719.94	281.43
720.27	280.70
720.60	280.01
720.94	279.37
721.27	278.79
721.60	278.20
721.93	277.62
722.27	277.12
722.60	276.53
722.93	275.97
723.26	275.42
723.59	274.83
723.93	274.25
724.26	273.68
724.59	273.13
724.92	272.60
725.25	272.11
725.59	271.58
725.92	271.08
726.25	270.55
726.58	270.04
726.91	269.53
727.24	269.05
727.57	268.57
727.91	268.09
728.24	267.61
728.57	267.15
728.90	266.71
729.23	266.19
729.56	265.73
729.89	265.27
730.22	264.84
730.55	264.39
730.89	263.97
731.22	263.53
731.55	263.06
731.88	262.61
732.21	262.21
732.54	261.75
732.87	261.34
733.20	260.97
733.53	260.55
733.86	260.17
734.19	259.76
734.52	259.39
734.85	259.06
735.18	258.65
735.51	258.28
735.84	257.91
736.17	257.54
736.50	257.16
736.83	256.94
737.16	256.58
737.49	256.26
737.82	255.90
738.15	255.58
738.48	255.28
738.81	254.96
739.14	254.62
739.47	254.27
739.80	253.92
740.13	253.61
740.46	253.26
740.79	252.91
741.12	252.62
741.45	252.28
741.78	251.93
742.11	251.64
742.44	251.31
742.77	251.01
743.10	250.70
743.43	250.43
743.75	250.05
744.08	249.90
744.41	249.60
744.74	249.35
745.07	249.07
745.40	248.82
745.73	248.58
746.06	248.31
746.39	248.12
746.71	247.89
747.04	247.61
747.37	247.40
747.70	247.17
748.03	246.93
748.36	246.73
748.68	246.51
749.01	246.26
749.34	246.06
749.67	245.81
750.00	245.63
750.33	245.46
750.65	245.25
750.98	244.92
751.31	244.73
751.64	244.51
751.97	244.35
752.29	244.14
752.62	243.94
752.95	243.76
753.28	243.55
753.60	243.35
753.93	243.23
754.26	243.02
754.59	242.82
754.91	242.63
755.24	242.47
755.57	242.31
755.90	242.15
756.22	241.95
756.55	241.76
756.88	241.54
757.20	241.29
757.53	241.10
757.86	240.93
758.19	240.77
758.51	240.61
758.84	240.42
759.17	240.27
759.49	240.10
759.82	239.94
760.15	239.82
760.47	239.66
760.80	239.50
761.13	239.40
761.45	239.23
761.78	239.10
762.11	238.97
762.43	238.81
762.76	238.69
763.08	238.56
763.41	238.45
763.74	238.32
764.06	238.24
764.39	238.10
764.71	237.98
765.04	237.84
765.37	237.70
765.69	237.55
766.02	237.40
766.34	237.26
766.67	237.14
767.00	236.99
767.32	236.96
767.65	236.86
767.97	236.73
768.30	236.63
768.62	236.51
768.95	236.39
769.27	236.25
769.60	236.12
769.92	236.02
770.25	235.88
770.57	235.75
770.90	235.64
771.22	235.53
771.55	235.39
771.87	235.29
772.20	235.18
772.52	235.17
772.85	235.18
773.17	235.07
773.50	234.97
773.82	234.86
774.15	234.65
774.47	234.49
774.80	234.34
775.12	234.26
775.45	234.17
775.77	234.05
776.09	233.99
776.42	233.90
776.74	233.80
777.07	233.72
777.39	233.66
777.72	233.54
778.04	233.50
778.36	233.47
778.69	233.42
779.01	233.35
779.33	233.16
779.66	233.00
779.98	232.94
780.31	232.86
780.63	232.83
780.95	232.80
781.28	232.73
781.60	232.69
781.92	232.62
782.25	232.57
782.57	232.53
782.89	232.48
783.22	232.43
783.54	232.38
783.86	232.36
784.19	232.28
784.51	232.27
784.83	232.18
785.16	232.14
785.48	232.08
785.80	232.03
786.12	232.03
786.45	231.96
786.77	231.93
787.09	231.87
