SpectraSuite Data File
++++++++++++++++++++++++++++++++++++
Date: Fri Feb 01 15:40:03 EST 2013
User: group
Dark Spectrum Present: No
Reference Spectrum Present: No
Number of Sampled Component Spectra: 1
Spectrometers: USB2E7196
Integration Time (usec): 35000 (USB2E7196)
Spectra Averaged: 100 (USB2E7196)
Boxcar Smoothing: 10 (USB2E7196)
Correct for Electrical Dark: No (USB2E7196)
Strobe/Lamp Enabled: No (USB2E7196)
Correct for Detector Non-linearity: No (USB2E7196)
Correct for Stray Light: No (USB2E7196)
Number of Pixels in Processed Spectrum: 2048
>>>>>Begin Processed Spectral Data<<<<<
339.09	0.00
339.48	215.38
339.86	216.29
340.24	218.14
340.63	219.25
341.01	221.76
341.39	221.67
341.78	222.90
342.16	224.42
342.54	224.82
342.93	213.28
343.31	224.05
343.69	224.56
344.07	225.05
344.46	225.47
344.84	225.85
345.22	226.10
345.60	226.38
345.99	226.58
346.37	226.70
346.75	226.82
347.13	226.86
347.52	226.89
347.90	227.00
348.28	227.03
348.66	227.05
349.05	227.07
349.43	227.09
349.81	227.17
350.19	227.19
350.57	227.25
350.96	227.32
351.34	227.42
351.72	227.50
352.10	227.58
352.48	227.62
352.87	227.69
353.25	227.74
353.63	227.81
354.01	227.84
354.39	227.93
354.77	228.01
355.15	228.15
355.54	228.17
355.92	228.18
356.30	228.25
356.68	228.38
357.06	228.40
357.44	228.45
357.82	228.49
358.20	228.55
358.58	228.63
358.97	228.68
359.35	228.76
359.73	228.83
360.11	228.88
360.49	228.95
360.87	228.98
361.25	229.03
361.63	229.08
362.01	229.13
362.39	229.14
362.77	229.15
363.15	229.13
363.53	229.19
363.91	229.20
364.29	229.21
364.67	229.14
365.05	229.17
365.43	229.19
365.81	229.21
366.19	229.27
366.57	229.29
366.95	229.31
367.33	229.23
367.71	229.23
368.09	229.24
368.47	229.19
368.85	229.15
369.23	229.15
369.61	229.09
369.99	229.12
370.37	229.11
370.75	229.16
371.13	229.13
371.51	229.12
371.89	229.11
372.27	229.08
372.65	229.05
373.03	229.00
373.41	228.99
373.78	228.91
374.16	228.80
374.54	228.73
374.92	228.64
375.30	228.59
375.68	228.51
376.06	228.45
376.44	228.42
376.82	228.36
377.19	228.27
377.57	228.20
377.95	228.05
378.33	227.97
378.71	227.81
379.09	227.77
379.47	227.67
379.84	227.60
380.22	227.49
380.60	227.39
380.98	227.32
381.36	227.25
381.73	227.19
382.11	227.14
382.49	227.08
382.87	227.03
383.25	226.98
383.62	227.04
384.00	226.93
384.38	226.85
384.76	226.80
385.13	226.78
385.51	226.74
385.89	226.70
386.27	226.63
386.64	226.62
387.02	226.58
387.40	226.54
387.78	226.48
388.15	226.49
388.53	226.48
388.91	226.43
389.29	226.36
389.66	226.35
390.04	226.33
390.42	226.33
390.79	226.30
391.17	226.30
391.55	226.16
391.92	226.16
392.30	226.20
392.68	226.18
393.05	226.17
393.43	226.15
393.81	226.16
394.18	226.19
394.56	226.17
394.94	226.19
395.31	226.22
395.69	226.30
396.06	226.34
396.44	226.37
396.82	226.44
397.19	226.54
397.57	226.58
397.95	226.61
398.32	226.62
398.70	226.65
399.07	226.72
399.45	226.79
399.82	226.84
400.20	226.87
400.58	226.97
400.95	227.02
401.33	227.14
401.70	227.31
402.08	227.38
402.45	227.47
402.83	227.59
403.20	227.67
403.58	227.75
403.95	227.84
404.33	227.95
404.71	228.05
405.08	228.24
405.46	228.36
405.83	228.55
406.21	228.71
406.58	228.90
406.96	229.06
407.33	229.28
407.70	229.47
408.08	229.74
408.45	229.95
408.83	230.20
409.20	230.42
409.58	230.59
409.95	230.89
410.33	231.18
410.70	231.42
411.08	231.73
411.45	232.04
411.82	232.37
412.20	232.75
412.57	233.19
412.95	233.46
413.32	233.89
413.69	234.26
414.07	234.71
414.44	235.16
414.82	235.64
415.19	236.18
415.56	236.75
415.94	237.32
416.31	237.98
416.68	238.60
417.06	239.35
417.43	240.06
417.81	240.80
418.18	241.58
418.55	242.45
418.93	243.33
419.30	244.21
419.67	245.17
420.04	246.11
420.42	247.11
420.79	248.30
421.16	249.44
421.54	250.62
421.91	251.83
422.28	253.07
422.66	254.43
423.03	255.70
423.40	257.02
423.77	258.41
424.15	259.82
424.52	261.35
424.89	262.95
425.26	264.48
425.64	265.95
426.01	267.57
426.38	269.20
426.75	270.89
427.13	272.60
427.50	274.39
427.87	276.27
428.24	278.13
428.61	279.84
428.99	281.82
429.36	283.91
429.73	285.99
430.10	288.03
430.47	290.05
430.85	292.18
431.22	294.42
431.59	296.85
431.96	299.11
432.33	301.56
432.70	303.90
433.08	306.75
433.45	309.38
433.82	312.00
434.19	314.87
434.56	317.70
434.93	320.37
435.30	323.01
435.68	325.89
436.05	328.68
436.42	331.51
436.79	334.01
437.16	336.72
437.53	339.59
437.90	342.42
438.27	345.21
438.64	348.01
439.01	350.57
439.38	352.79
439.75	354.94
440.13	357.41
440.50	359.76
440.87	361.59
441.24	363.53
441.61	365.67
441.98	367.17
442.35	368.99
442.72	370.83
443.09	372.63
443.46	373.67
443.83	374.30
444.20	374.86
444.57	375.71
444.94	375.99
445.31	376.27
445.68	376.61
446.05	376.62
446.42	376.30
446.79	375.91
447.16	375.43
447.53	375.13
447.90	374.00
448.27	372.81
448.64	371.20
449.01	370.05
449.37	368.05
449.74	366.13
450.11	363.83
450.48	361.40
450.85	358.85
451.22	356.67
451.59	354.64
451.96	352.66
452.33	350.00
452.70	347.64
453.07	344.83
453.43	341.95
453.80	339.22
454.17	336.53
454.54	333.98
454.91	331.32
455.28	328.61
455.65	326.11
456.02	323.68
456.38	321.54
456.75	318.88
457.12	316.63
457.49	314.45
457.86	312.27
458.23	310.43
458.59	308.42
458.96	306.35
459.33	304.51
459.70	302.66
460.07	301.21
460.43	299.53
460.80	297.89
461.17	296.42
461.54	294.94
461.91	293.52
462.27	292.07
462.64	290.81
463.01	289.45
463.38	288.14
463.74	286.79
464.11	285.64
464.48	284.62
464.85	283.50
465.21	282.62
465.58	281.74
465.95	280.62
466.32	279.69
466.68	278.76
467.05	277.83
467.42	276.94
467.78	276.00
468.15	275.13
468.52	274.49
468.88	273.65
469.25	272.88
469.62	272.26
469.98	271.63
470.35	270.97
470.72	270.40
471.08	269.76
471.45	269.22
471.82	268.69
472.18	268.10
472.55	267.69
472.92	267.19
473.28	266.69
473.65	266.27
474.02	265.83
474.38	265.50
474.75	265.18
475.11	264.80
475.48	264.52
475.85	264.24
476.21	264.03
476.58	263.85
476.94	263.67
477.31	263.49
477.67	263.33
478.04	263.21
478.41	263.13
478.77	263.17
479.14	263.09
479.50	263.10
479.87	263.14
480.23	263.19
480.60	263.23
480.96	263.35
481.33	263.52
481.69	263.70
482.06	263.88
482.42	264.10
482.79	264.33
483.15	264.64
483.52	265.06
483.88	265.41
484.25	265.79
484.61	266.22
484.98	266.66
485.34	267.22
485.71	267.83
486.07	268.44
486.44	269.00
486.80	269.66
487.17	270.37
487.53	271.16
487.90	272.01
488.26	272.97
488.62	273.96
488.99	274.95
489.35	276.03
489.72	277.13
490.08	278.30
490.44	279.57
490.81	280.93
491.17	282.26
491.54	283.71
491.90	285.26
492.26	286.89
492.63	288.65
492.99	290.43
493.36	292.29
493.72	294.35
494.08	296.44
494.45	298.75
494.81	301.11
495.17	303.60
495.54	306.18
495.90	308.88
496.26	311.70
496.63	314.66
496.99	317.73
497.35	321.04
497.72	324.46
498.08	327.98
498.44	331.64
498.80	335.58
499.17	339.60
499.53	343.76
499.89	348.11
500.26	352.58
500.62	357.24
500.98	362.20
501.34	367.23
501.71	372.57
502.07	377.94
502.43	383.60
502.79	389.39
503.16	395.50
503.52	401.73
503.88	408.15
504.24	414.77
504.60	421.67
504.97	428.78
505.33	436.08
505.69	443.78
506.05	451.55
506.41	459.44
506.78	467.60
507.14	476.04
507.50	484.78
507.86	493.81
508.22	502.99
508.59	512.26
508.95	521.88
509.31	531.69
509.67	541.86
510.03	552.03
510.39	562.62
510.75	573.39
511.12	584.30
511.48	595.54
511.84	607.07
512.20	618.48
512.56	630.42
512.92	642.64
513.28	655.00
513.64	667.47
514.00	680.11
514.37	693.13
514.73	706.20
515.09	719.24
515.45	732.56
515.81	746.13
516.17	760.11
516.53	774.27
516.89	788.48
517.25	802.67
517.61	817.14
517.97	831.59
518.33	845.99
518.69	860.84
519.05	875.85
519.41	890.96
519.77	906.64
520.13	922.11
520.49	937.43
520.85	952.84
521.21	968.63
521.57	984.89
521.93	1000.62
522.29	1017.09
522.65	1033.33
523.01	1049.52
523.37	1065.71
523.73	1081.93
524.09	1097.94
524.45	1114.30
524.81	1131.00
525.17	1147.88
525.53	1164.75
525.89	1181.72
526.25	1198.54
526.61	1214.93
526.97	1231.71
527.33	1248.26
527.68	1264.87
528.04	1281.49
528.40	1298.15
528.76	1315.30
529.12	1332.03
529.48	1348.94
529.84	1364.94
530.20	1381.69
530.56	1398.76
530.91	1416.14
531.27	1432.90
531.63	1449.49
531.99	1466.18
532.35	1482.08
532.71	1498.00
533.07	1514.36
533.42	1530.25
533.78	1546.32
534.14	1562.67
534.50	1578.05
534.86	1593.91
535.21	1609.07
535.57	1624.97
535.93	1640.52
536.29	1655.22
536.65	1670.39
537.00	1685.22
537.36	1700.47
537.72	1714.96
538.08	1729.42
538.44	1743.17
538.79	1757.07
539.15	1770.78
539.51	1784.47
539.87	1798.79
540.22	1812.58
540.58	1826.36
540.94	1839.81
541.29	1852.71
541.65	1865.43
542.01	1878.68
542.37	1890.95
542.72	1903.50
543.08	1915.34
543.44	1927.74
543.79	1939.01
544.15	1949.92
544.51	1961.49
544.87	1972.56
545.22	1983.39
545.58	1993.67
545.94	2003.50
546.29	2013.29
546.65	2023.11
547.01	2032.28
547.36	2041.08
547.72	2049.50
548.07	2057.24
548.43	2065.22
548.79	2073.37
549.14	2080.83
549.50	2088.09
549.86	2095.85
550.21	2103.10
550.57	2110.14
550.92	2116.71
551.28	2123.88
551.64	2130.89
551.99	2137.44
552.35	2143.54
552.70	2149.67
553.06	2155.54
553.41	2161.83
553.77	2167.80
554.13	2173.89
554.48	2180.12
554.84	2185.44
555.19	2190.78
555.55	2195.93
555.90	2200.50
556.26	2205.24
556.61	2210.11
556.97	2214.28
557.32	2218.25
557.68	2222.39
558.03	2226.74
558.39	2230.28
558.74	2234.85
559.10	2238.69
559.45	2242.13
559.81	2246.38
560.16	2250.17
560.52	2253.40
560.87	2256.75
561.23	2259.34
561.58	2262.22
561.94	2264.73
562.29	2267.27
562.64	2269.89
563.00	2272.55
563.35	2276.00
563.71	2279.10
564.06	2282.12
564.42	2285.02
564.77	2287.50
565.12	2289.66
565.48	2291.47
565.83	2293.39
566.19	2294.55
566.54	2295.50
566.89	2296.76
567.25	2297.42
567.60	2298.72
567.96	2300.35
568.31	2301.27
568.66	2302.45
569.02	2303.00
569.37	2303.16
569.72	2303.94
570.08	2303.96
570.43	2303.97
570.78	2303.34
571.14	2301.74
571.49	2300.49
571.84	2300.11
572.20	2298.96
572.55	2297.99
572.90	2296.56
573.26	2295.26
573.61	2293.58
573.96	2291.65
574.31	2288.78
574.67	2285.77
575.02	2282.13
575.37	2278.71
575.72	2274.83
576.08	2271.61
576.43	2268.23
576.78	2264.54
577.13	2261.46
577.49	2258.59
577.84	2255.09
578.19	2251.42
578.54	2247.86
578.90	2243.58
579.25	2238.22
579.60	2233.20
579.95	2228.18
580.30	2223.05
580.66	2217.83
581.01	2212.92
581.36	2207.95
581.71	2203.65
582.06	2198.94
582.42	2194.49
582.77	2189.30
583.12	2184.74
583.47	2179.77
583.82	2174.71
584.17	2169.38
584.53	2163.75
584.88	2157.93
585.23	2152.18
585.58	2146.61
585.93	2141.02
586.28	2136.17
586.63	2130.97
586.98	2125.95
587.34	2121.18
587.69	2116.27
588.04	2110.86
588.39	2105.08
588.74	2098.81
589.09	2092.64
589.44	2086.02
589.79	2080.03
590.14	2074.51
590.49	2067.77
590.84	2061.55
591.19	2055.64
591.54	2049.27
591.89	2041.79
592.25	2035.11
592.60	2027.79
592.95	2020.24
593.30	2012.86
593.65	2005.34
594.00	1998.17
594.35	1990.87
594.70	1982.78
595.05	1975.54
595.40	1968.19
595.75	1960.69
596.10	1954.36
596.45	1947.50
596.80	1941.15
597.15	1934.30
597.50	1926.98
597.85	1920.74
598.19	1913.89
598.54	1906.60
598.89	1899.95
599.24	1894.08
599.59	1887.19
599.94	1880.92
600.29	1874.51
600.64	1867.99
600.99	1860.45
601.34	1853.66
601.69	1846.83
602.04	1839.86
602.39	1832.51
602.74	1825.66
603.08	1818.91
603.43	1812.19
603.78	1804.98
604.13	1797.95
604.48	1790.59
604.83	1783.65
605.18	1776.54
605.53	1768.49
605.87	1760.48
606.22	1753.28
606.57	1745.29
606.92	1737.92
607.27	1730.76
607.62	1723.82
607.96	1716.35
608.31	1709.61
608.66	1701.94
609.01	1694.29
609.36	1686.76
609.70	1678.72
610.05	1670.56
610.40	1662.77
610.75	1654.30
611.10	1646.50
611.44	1638.04
611.79	1630.24
612.14	1621.62
612.49	1612.46
612.83	1604.29
613.18	1596.17
613.53	1587.98
613.88	1579.33
614.22	1571.15
614.57	1562.53
614.92	1554.42
615.27	1546.94
615.61	1538.73
615.96	1530.80
616.31	1523.15
616.65	1515.72
617.00	1508.15
617.35	1500.67
617.70	1492.30
618.04	1483.86
618.39	1475.78
618.74	1468.13
619.08	1459.76
619.43	1452.26
619.78	1445.40
620.12	1438.11
620.47	1430.63
620.82	1422.52
621.16	1415.38
621.51	1407.67
621.85	1400.06
622.20	1391.58
622.55	1383.29
622.89	1375.52
623.24	1367.93
623.59	1360.54
623.93	1353.03
624.28	1345.82
624.62	1338.30
624.97	1331.21
625.32	1324.34
625.66	1317.28
626.01	1310.08
626.35	1302.55
626.70	1294.75
627.04	1286.97
627.39	1279.23
627.73	1271.83
628.08	1264.80
628.43	1257.34
628.77	1250.11
629.12	1242.60
629.46	1235.44
629.81	1227.99
630.15	1220.61
630.50	1213.16
630.84	1205.02
631.19	1197.24
631.53	1189.69
631.88	1182.10
632.22	1174.40
632.57	1167.24
632.91	1159.61
633.26	1152.14
633.60	1144.99
633.95	1137.87
634.29	1130.90
634.64	1124.28
634.98	1116.81
635.32	1109.75
635.67	1103.23
636.01	1096.54
636.36	1089.66
636.70	1083.14
637.05	1076.61
637.39	1070.12
637.73	1063.61
638.08	1057.74
638.42	1051.64
638.77	1045.19
639.11	1038.62
639.45	1032.27
639.80	1025.54
640.14	1019.13
640.49	1012.60
640.83	1006.18
641.17	999.95
641.52	993.51
641.86	987.05
642.20	981.21
642.55	974.88
642.89	968.36
643.23	961.80
643.58	956.00
643.92	949.75
644.26	943.61
644.61	937.65
644.95	931.57
645.29	924.91
645.64	918.17
645.98	911.85
646.32	905.96
646.66	900.02
647.01	894.21
647.35	888.46
647.69	882.66
648.04	877.12
648.38	871.25
648.72	865.25
649.06	859.14
649.41	853.39
649.75	847.36
650.09	841.41
650.43	835.62
650.78	829.49
651.12	823.65
651.46	817.93
651.80	812.18
652.14	806.79
652.49	801.51
652.83	796.34
653.17	790.54
653.51	784.82
653.85	779.37
654.20	773.77
654.54	767.87
654.88	762.17
655.22	756.38
655.56	750.80
655.90	745.38
656.25	740.17
656.59	734.78
656.93	729.74
657.27	724.58
657.61	719.14
657.95	714.12
658.29	708.99
658.64	703.79
658.98	698.53
659.32	693.09
659.66	687.82
660.00	682.50
660.34	677.63
660.68	672.71
661.02	667.74
661.36	663.04
661.70	658.49
662.05	654.11
662.39	649.69
662.73	645.25
663.07	640.92
663.41	636.38
663.75	631.89
664.09	627.39
664.43	623.03
664.77	618.92
665.11	614.61
665.45	610.51
665.79	606.46
666.13	602.28
666.47	598.24
666.81	594.13
667.15	590.07
667.49	586.23
667.83	582.53
668.17	578.55
668.51	574.52
668.85	570.57
669.19	566.79
669.53	562.95
669.87	559.04
670.21	555.33
670.55	551.78
670.89	548.43
671.23	544.95
671.57	541.43
671.91	537.90
672.25	534.43
672.58	530.99
672.92	527.56
673.26	524.38
673.60	521.22
673.94	518.09
674.28	515.17
674.62	512.20
674.96	509.01
675.30	506.12
675.64	503.17
675.97	500.40
676.31	497.52
676.65	494.60
676.99	491.89
677.33	488.99
677.67	486.13
678.01	483.01
678.34	480.03
678.68	477.16
679.02	474.33
679.36	471.56
679.70	468.77
680.04	465.98
680.37	463.14
680.71	460.28
681.05	457.63
681.39	454.86
681.73	452.22
682.06	449.72
682.40	447.21
682.74	444.63
683.08	442.04
683.42	439.44
683.75	436.99
684.09	434.44
684.43	432.02
684.77	429.55
685.10	427.25
685.44	424.99
685.78	422.68
686.12	420.48
686.45	418.21
686.79	415.91
687.13	413.75
687.46	411.58
687.80	409.46
688.14	407.24
688.48	405.25
688.81	402.97
689.15	400.85
689.49	398.64
689.82	396.57
690.16	394.49
690.50	392.53
690.83	390.54
691.17	388.58
691.51	386.62
691.84	384.77
692.18	382.78
692.52	380.72
692.85	378.83
693.19	376.89
693.52	375.07
693.86	373.29
694.20	371.53
694.53	369.74
694.87	367.91
695.21	366.14
695.54	364.32
695.88	362.68
696.21	360.95
696.55	359.32
696.88	357.65
697.22	356.03
697.56	354.40
697.89	352.76
698.23	351.15
698.56	349.57
698.90	348.03
699.23	346.40
699.57	344.93
699.90	343.40
700.24	341.88
700.58	340.35
700.91	338.81
701.25	337.32
701.58	336.00
701.92	334.63
702.25	333.27
702.59	331.92
702.92	330.57
703.26	329.30
703.59	328.01
703.93	326.83
704.26	325.58
704.60	324.28
704.93	323.05
705.26	321.84
705.60	320.66
705.93	319.54
706.27	318.54
706.60	317.43
706.94	316.37
707.27	315.26
707.61	314.21
707.94	313.24
708.27	312.19
708.61	311.11
708.94	310.16
709.28	309.19
709.61	308.20
709.94	307.21
710.28	306.17
710.61	305.20
710.95	304.14
711.28	303.20
711.61	302.24
711.95	301.29
712.28	300.30
712.61	299.32
712.95	298.34
713.28	297.46
713.61	296.63
713.95	295.72
714.28	294.84
714.61	293.99
714.95	293.08
715.28	292.24
715.61	291.33
715.95	290.47
716.28	289.59
716.61	288.76
716.95	287.97
717.28	287.19
717.61	286.41
717.94	285.70
718.28	284.89
718.61	284.18
718.94	283.52
719.27	282.90
719.61	282.25
719.94	281.57
720.27	280.84
720.60	280.11
720.94	279.46
721.27	278.85
721.60	278.23
721.93	277.65
722.27	277.09
722.60	276.53
722.93	275.96
723.26	275.42
723.59	274.85
723.93	274.29
724.26	273.73
724.59	273.19
724.92	272.63
725.25	272.14
725.59	271.59
725.92	271.06
726.25	270.51
726.58	269.97
726.91	269.51
727.24	269.00
727.57	268.56
727.91	268.06
728.24	267.62
728.57	267.15
728.90	266.71
729.23	266.21
729.56	265.76
729.89	265.29
730.22	264.82
730.55	264.40
730.89	263.95
731.22	263.52
731.55	263.06
731.88	262.65
732.21	262.22
732.54	261.81
732.87	261.41
733.20	261.00
733.53	260.65
733.86	260.28
734.19	259.90
734.52	259.51
734.85	259.21
735.18	258.81
735.51	258.45
735.84	258.10
736.17	257.76
736.50	257.38
736.83	257.13
737.16	256.78
737.49	256.43
737.82	256.09
738.15	255.77
738.48	255.44
738.81	255.12
739.14	254.80
739.47	254.47
739.80	254.12
740.13	253.83
740.46	253.48
740.79	253.12
741.12	252.83
741.45	252.54
741.78	252.20
742.11	251.92
742.44	251.58
742.77	251.25
743.10	250.96
743.43	250.66
743.75	250.30
744.08	250.19
744.41	249.93
744.74	249.66
745.07	249.39
745.40	249.17
745.73	248.91
746.06	248.63
746.39	248.38
746.71	248.13
747.04	247.86
747.37	247.65
747.70	247.43
748.03	247.18
748.36	246.96
748.68	246.72
749.01	246.44
749.34	246.20
749.67	245.97
750.00	245.75
750.33	245.57
750.65	245.34
750.98	244.95
751.31	244.71
751.64	244.51
751.97	244.34
752.29	244.13
752.62	243.88
752.95	243.70
753.28	243.47
753.60	243.31
753.93	243.13
754.26	242.90
754.59	242.68
754.91	242.45
755.24	242.22
755.57	242.03
755.90	241.85
756.22	241.68
756.55	241.48
756.88	241.28
757.20	241.07
757.53	240.87
757.86	240.67
758.19	240.53
758.51	240.35
758.84	240.11
759.17	239.89
759.49	239.73
759.82	239.58
760.15	239.43
760.47	239.25
760.80	239.05
761.13	238.92
761.45	238.74
761.78	238.62
762.11	238.49
762.43	238.35
762.76	238.19
763.08	238.10
763.41	237.99
763.74	237.85
764.06	237.70
764.39	237.60
764.71	237.50
765.04	237.33
765.37	237.21
765.69	237.06
766.02	236.93
766.34	236.82
766.67	236.66
767.00	236.55
767.32	236.49
767.65	236.43
767.97	236.31
768.30	236.22
768.62	236.09
768.95	235.97
769.27	235.84
769.60	235.75
769.92	235.60
770.25	235.46
770.57	235.35
770.90	235.27
771.22	235.16
771.55	235.03
771.87	234.96
772.20	234.84
772.52	234.88
772.85	234.91
773.17	234.80
773.50	234.71
773.82	234.59
774.15	234.46
774.47	234.36
774.80	234.28
775.12	234.20
775.45	234.11
775.77	234.04
776.09	233.97
776.42	233.92
776.74	233.84
777.07	233.77
777.39	233.71
777.72	233.63
778.04	233.56
778.36	233.51
778.69	233.45
779.01	233.38
779.33	233.23
779.66	233.06
779.98	232.99
780.31	232.96
780.63	232.95
780.95	232.93
781.28	232.84
781.60	232.76
781.92	232.69
782.25	232.65
782.57	232.59
782.89	232.53
783.22	232.45
783.54	232.38
783.86	232.35
784.19	232.30
784.51	232.28
784.83	232.23
785.16	232.19
785.48	232.14
785.80	232.12
786.12	232.08
786.45	232.03
786.77	231.98
787.09	231.92
