SpectraSuite Data File
++++++++++++++++++++++++++++++++++++
Date: Fri Feb 01 16:26:24 EST 2013
User: group
Dark Spectrum Present: No
Reference Spectrum Present: No
Number of Sampled Component Spectra: 1
Spectrometers: USB2E7196
Integration Time (usec): 35000 (USB2E7196)
Spectra Averaged: 100 (USB2E7196)
Boxcar Smoothing: 10 (USB2E7196)
Correct for Electrical Dark: No (USB2E7196)
Strobe/Lamp Enabled: No (USB2E7196)
Correct for Detector Non-linearity: No (USB2E7196)
Correct for Stray Light: No (USB2E7196)
Number of Pixels in Processed Spectrum: 2048
>>>>>Begin Processed Spectral Data<<<<<
339.09	0.00
339.48	214.21
339.86	215.49
340.24	216.61
340.63	218.52
341.01	221.21
341.39	220.87
341.78	222.37
342.16	223.21
342.54	224.18
342.93	212.41
343.31	223.16
343.69	223.68
344.07	224.15
344.46	224.62
344.84	224.98
345.22	225.23
345.60	225.49
345.99	225.66
346.37	225.81
346.75	225.89
347.13	225.93
347.52	225.97
347.90	226.04
348.28	226.13
348.66	226.20
349.05	226.18
349.43	226.23
349.81	226.28
350.19	226.34
350.57	226.41
350.96	226.50
351.34	226.59
351.72	226.68
352.10	226.78
352.48	226.83
352.87	226.87
353.25	226.93
353.63	227.00
354.01	227.10
354.39	227.17
354.77	227.27
355.15	227.39
355.54	227.45
355.92	227.50
356.30	227.56
356.68	227.69
357.06	227.77
357.44	227.83
357.82	227.88
358.20	227.97
358.58	228.03
358.97	228.10
359.35	228.14
359.73	228.18
360.11	228.22
360.49	228.27
360.87	228.35
361.25	228.38
361.63	228.46
362.01	228.48
362.39	228.51
362.77	228.53
363.15	228.54
363.53	228.59
363.91	228.64
364.29	228.63
364.67	228.54
365.05	228.55
365.43	228.56
365.81	228.56
366.19	228.56
366.57	228.58
366.95	228.56
367.33	228.53
367.71	228.55
368.09	228.55
368.47	228.54
368.85	228.51
369.23	228.52
369.61	228.45
369.99	228.46
370.37	228.44
370.75	228.45
371.13	228.42
371.51	228.35
371.89	228.28
372.27	228.24
372.65	228.21
373.03	228.16
373.41	228.10
373.78	228.03
374.16	227.91
374.54	227.81
374.92	227.76
375.30	227.72
375.68	227.60
376.06	227.56
376.44	227.48
376.82	227.40
377.19	227.34
377.57	227.27
377.95	227.16
378.33	227.06
378.71	226.96
379.09	226.89
379.47	226.84
379.84	226.77
380.22	226.70
380.60	226.61
380.98	226.53
381.36	226.46
381.73	226.39
382.11	226.37
382.49	226.32
382.87	226.21
383.25	226.16
383.62	226.27
384.00	226.18
384.38	226.12
384.76	226.12
385.13	226.07
385.51	226.01
385.89	225.95
386.27	225.92
386.64	225.85
387.02	225.79
387.40	225.74
387.78	225.70
388.15	225.67
388.53	225.65
388.91	225.63
389.29	225.63
389.66	225.61
390.04	225.56
390.42	225.57
390.79	225.59
391.17	225.57
391.55	225.42
391.92	225.41
392.30	225.42
392.68	225.39
393.05	225.39
393.43	225.43
393.81	225.44
394.18	225.44
394.56	225.47
394.94	225.52
395.31	225.52
395.69	225.55
396.06	225.60
396.44	225.59
396.82	225.61
397.19	225.69
397.57	225.72
397.95	225.78
398.32	225.79
398.70	225.82
399.07	225.91
399.45	225.97
399.82	226.06
400.20	226.14
400.58	226.18
400.95	226.20
401.33	226.26
401.70	226.42
402.08	226.51
402.45	226.61
402.83	226.70
403.20	226.81
403.58	226.94
403.95	227.07
404.33	227.25
404.71	227.39
405.08	227.53
405.46	227.64
405.83	227.83
406.21	227.99
406.58	228.17
406.96	228.33
407.33	228.51
407.70	228.67
408.08	228.92
408.45	229.16
408.83	229.40
409.20	229.64
409.58	229.86
409.95	230.10
410.33	230.37
410.70	230.61
411.08	230.92
411.45	231.19
411.82	231.51
412.20	231.84
412.57	232.24
412.95	232.50
413.32	232.93
413.69	233.32
414.07	233.76
414.44	234.23
414.82	234.68
415.19	235.25
415.56	235.77
415.94	236.32
416.31	236.97
416.68	237.59
417.06	238.25
417.43	238.89
417.81	239.68
418.18	240.42
418.55	241.28
418.93	242.18
419.30	243.10
419.67	244.03
420.04	244.98
420.42	245.93
420.79	247.12
421.16	248.24
421.54	249.42
421.91	250.62
422.28	251.83
422.66	253.16
423.03	254.45
423.40	255.79
423.77	257.19
424.15	258.55
424.52	260.03
424.89	261.70
425.26	263.24
425.64	264.68
426.01	266.29
426.38	267.89
426.75	269.54
427.13	271.24
427.50	273.06
427.87	274.92
428.24	276.80
428.61	278.54
428.99	280.45
429.36	282.54
429.73	284.60
430.10	286.66
430.47	288.72
430.85	290.80
431.22	293.00
431.59	295.34
431.96	297.60
432.33	300.10
432.70	302.46
433.08	305.25
433.45	307.86
433.82	310.43
434.19	313.33
434.56	316.11
434.93	318.75
435.30	321.32
435.68	324.20
436.05	327.01
436.42	329.85
436.79	332.36
437.16	335.01
437.53	337.86
437.90	340.64
438.27	343.34
438.64	346.14
439.01	348.73
439.38	350.99
439.75	353.16
440.13	355.63
440.50	357.92
440.87	359.78
441.24	361.72
441.61	363.90
441.98	365.38
442.35	367.14
442.72	368.96
443.09	370.75
443.46	371.74
443.83	372.34
444.20	372.78
444.57	373.68
444.94	374.03
445.31	374.34
445.68	374.70
446.05	374.80
446.42	374.47
446.79	374.03
447.16	373.60
447.53	373.31
447.90	372.16
448.27	371.01
448.64	369.45
449.01	368.33
449.37	366.36
449.74	364.46
450.11	362.30
450.48	359.87
450.85	357.34
451.22	355.19
451.59	353.17
451.96	351.23
452.33	348.61
452.70	346.23
453.07	343.44
453.43	340.51
453.80	337.71
454.17	335.04
454.54	332.56
454.91	329.87
455.28	327.19
455.65	324.72
456.02	322.29
456.38	320.10
456.75	317.40
457.12	315.15
457.49	312.93
457.86	310.74
458.23	308.85
458.59	306.83
458.96	304.75
459.33	302.93
459.70	301.11
460.07	299.61
460.43	297.90
460.80	296.30
461.17	294.90
461.54	293.50
461.91	292.09
462.27	290.63
462.64	289.33
463.01	287.99
463.38	286.71
463.74	285.32
464.11	284.18
464.48	283.20
464.85	282.14
465.21	281.31
465.58	280.41
465.95	279.33
466.32	278.45
466.68	277.56
467.05	276.66
467.42	275.79
467.78	274.84
468.15	273.96
468.52	273.28
468.88	272.41
469.25	271.59
469.62	271.00
469.98	270.32
470.35	269.69
470.72	269.09
471.08	268.47
471.45	267.97
471.82	267.45
472.18	266.88
472.55	266.45
472.92	265.97
473.28	265.50
473.65	265.10
474.02	264.67
474.38	264.31
474.75	264.03
475.11	263.66
475.48	263.45
475.85	263.24
476.21	263.04
476.58	262.89
476.94	262.77
477.31	262.59
477.67	262.49
478.04	262.42
478.41	262.35
478.77	262.36
479.14	262.32
479.50	262.35
479.87	262.39
480.23	262.47
480.60	262.50
480.96	262.61
481.33	262.84
481.69	263.04
482.06	263.26
482.42	263.47
482.79	263.76
483.15	264.09
483.52	264.50
483.88	264.86
484.25	265.25
484.61	265.64
484.98	266.08
485.34	266.62
485.71	267.22
486.07	267.85
486.44	268.40
486.80	269.07
487.17	269.80
487.53	270.60
487.90	271.43
488.26	272.37
488.62	273.34
488.99	274.27
489.35	275.31
489.72	276.47
490.08	277.66
490.44	278.89
490.81	280.22
491.17	281.57
491.54	283.03
491.90	284.57
492.26	286.22
492.63	287.99
492.99	289.78
493.36	291.68
493.72	293.75
494.08	295.84
494.45	298.17
494.81	300.51
495.17	302.98
495.54	305.58
495.90	308.26
496.26	311.03
496.63	314.05
496.99	317.20
497.35	320.46
497.72	323.86
498.08	327.39
498.44	331.02
498.80	334.94
499.17	339.00
499.53	343.16
499.89	347.58
500.26	352.04
500.62	356.71
500.98	361.64
501.34	366.71
501.71	372.10
502.07	377.52
502.43	383.13
502.79	388.94
503.16	395.03
503.52	401.29
503.88	407.76
504.24	414.42
504.60	421.33
504.97	428.44
505.33	435.80
505.69	443.51
506.05	451.35
506.41	459.30
506.78	467.48
507.14	476.00
507.50	484.75
507.86	493.85
508.22	503.05
508.59	512.25
508.95	521.81
509.31	531.60
509.67	541.66
510.03	552.00
510.39	562.57
510.75	573.38
511.12	584.44
511.48	595.73
511.84	607.15
512.20	618.62
512.56	630.57
512.92	642.73
513.28	655.12
513.64	667.56
514.00	680.19
514.37	693.15
514.73	706.21
515.09	719.25
515.45	732.50
515.81	746.03
516.17	760.06
516.53	774.21
516.89	788.43
517.25	802.62
517.61	817.04
517.97	831.45
518.33	845.84
518.69	860.49
519.05	875.52
519.41	890.67
519.77	906.15
520.13	921.56
520.49	936.88
520.85	952.14
521.21	967.79
521.57	983.99
521.93	999.65
522.29	1015.82
522.65	1031.93
523.01	1048.10
523.37	1064.08
523.73	1080.18
524.09	1096.14
524.45	1112.26
524.81	1128.87
525.17	1145.52
525.53	1162.39
525.89	1179.16
526.25	1195.88
526.61	1212.13
526.97	1228.74
527.33	1245.17
527.68	1261.62
528.04	1278.01
528.40	1294.54
528.76	1311.47
529.12	1327.93
529.48	1344.73
529.84	1360.69
530.20	1377.19
530.56	1394.07
530.91	1411.46
531.27	1427.99
531.63	1444.37
531.99	1460.99
532.35	1476.76
532.71	1492.65
533.07	1508.83
533.42	1524.65
533.78	1540.63
534.14	1556.80
534.50	1572.08
534.86	1587.85
535.21	1603.02
535.57	1618.74
535.93	1634.14
536.29	1648.94
536.65	1663.88
537.00	1678.54
537.36	1693.83
537.72	1708.31
538.08	1722.67
538.44	1736.33
538.79	1750.17
539.15	1763.72
539.51	1777.30
539.87	1791.51
540.22	1805.05
540.58	1818.56
540.94	1831.84
541.29	1844.61
541.65	1857.18
542.01	1870.24
542.37	1882.46
542.72	1894.80
543.08	1906.75
543.44	1919.01
543.79	1930.15
544.15	1941.13
544.51	1952.66
544.87	1963.49
545.22	1974.34
545.58	1984.48
545.94	1994.23
546.29	2003.97
546.65	2013.85
547.01	2023.07
547.36	2031.87
547.72	2040.38
548.07	2048.26
548.43	2056.32
548.79	2064.41
549.14	2071.87
549.50	2079.13
549.86	2086.68
550.21	2093.88
550.57	2100.80
550.92	2107.34
551.28	2114.27
551.64	2121.26
551.99	2127.71
552.35	2133.79
552.70	2139.77
553.06	2145.68
553.41	2151.86
553.77	2158.06
554.13	2164.06
554.48	2170.19
554.84	2175.55
555.19	2180.80
555.55	2186.04
555.90	2190.51
556.26	2195.34
556.61	2200.25
556.97	2204.70
557.32	2208.84
557.68	2213.05
558.03	2217.44
558.39	2221.24
558.74	2226.02
559.10	2229.83
559.45	2233.58
559.81	2238.00
560.16	2241.92
560.52	2245.14
560.87	2248.59
561.23	2251.26
561.58	2254.23
561.94	2256.67
562.29	2259.12
562.64	2261.70
563.00	2264.27
563.35	2267.96
563.71	2271.11
564.06	2274.14
564.42	2276.96
564.77	2279.42
565.12	2281.74
565.48	2283.67
565.83	2285.42
566.19	2286.67
566.54	2287.74
566.89	2288.80
567.25	2289.37
567.60	2290.66
567.96	2292.44
568.31	2293.41
568.66	2294.62
569.02	2295.31
569.37	2295.78
569.72	2296.76
570.08	2296.98
570.43	2297.04
570.78	2296.36
571.14	2294.81
571.49	2293.55
571.84	2293.40
572.20	2292.50
572.55	2291.52
572.90	2289.92
573.26	2288.79
573.61	2287.08
573.96	2285.33
574.31	2282.60
574.67	2279.66
575.02	2276.10
575.37	2272.82
575.72	2268.95
576.08	2265.46
576.43	2262.12
576.78	2258.45
577.13	2255.27
577.49	2252.20
577.84	2248.68
578.19	2245.02
578.54	2241.48
578.90	2237.39
579.25	2231.70
579.60	2226.81
579.95	2221.85
580.30	2216.86
580.66	2211.71
581.01	2206.88
581.36	2202.01
581.71	2197.79
582.06	2193.39
582.42	2188.91
582.77	2183.67
583.12	2179.30
583.47	2174.73
583.82	2169.75
584.17	2164.54
584.53	2159.08
584.88	2153.58
585.23	2147.96
585.58	2142.54
585.93	2137.17
586.28	2132.42
586.63	2127.46
586.98	2122.42
587.34	2117.70
587.69	2113.01
588.04	2107.74
588.39	2102.14
588.74	2095.69
589.09	2089.52
589.44	2082.80
589.79	2076.93
590.14	2071.36
590.49	2064.82
590.84	2058.48
591.19	2052.47
591.54	2046.11
591.89	2038.76
592.25	2032.00
592.60	2024.73
592.95	2017.22
593.30	2009.85
593.65	2002.27
594.00	1995.42
594.35	1988.18
594.70	1980.19
595.05	1973.09
595.40	1965.93
595.75	1958.54
596.10	1952.48
596.45	1945.91
596.80	1939.81
597.15	1933.12
597.50	1926.05
597.85	1919.62
598.19	1912.92
598.54	1905.83
598.89	1899.26
599.24	1893.52
599.59	1886.87
599.94	1880.86
600.29	1874.61
600.64	1868.11
600.99	1860.70
601.34	1853.82
601.69	1846.95
602.04	1840.21
602.39	1832.83
602.74	1826.15
603.08	1819.31
603.43	1812.55
603.78	1805.17
604.13	1797.91
604.48	1790.83
604.83	1783.96
605.18	1776.99
605.53	1769.17
605.87	1761.28
606.22	1754.01
606.57	1745.94
606.92	1738.60
607.27	1731.39
607.62	1724.50
607.96	1717.30
608.31	1710.70
608.66	1703.13
609.01	1695.61
609.36	1687.96
609.70	1679.88
610.05	1671.74
610.40	1664.12
610.75	1655.79
611.10	1648.19
611.44	1639.76
611.79	1631.75
612.14	1623.17
612.49	1614.01
612.83	1605.65
613.18	1597.63
613.53	1589.55
613.88	1581.06
614.22	1572.77
614.57	1564.08
614.92	1555.92
615.27	1548.37
615.61	1540.01
615.96	1531.99
616.31	1524.34
616.65	1517.04
617.00	1509.56
617.35	1501.74
617.70	1493.36
618.04	1484.93
618.39	1476.69
618.74	1469.12
619.08	1460.74
619.43	1453.15
619.78	1446.37
620.12	1439.21
620.47	1431.58
620.82	1423.40
621.16	1415.90
621.51	1408.36
621.85	1400.76
622.20	1392.26
622.55	1383.84
622.89	1376.10
623.24	1368.47
623.59	1360.96
623.93	1353.39
624.28	1346.15
624.62	1338.63
624.97	1331.56
625.32	1324.76
625.66	1317.72
626.01	1310.56
626.35	1303.10
626.70	1295.25
627.04	1287.49
627.39	1279.65
627.73	1272.18
628.08	1265.27
628.43	1258.13
628.77	1250.84
629.12	1243.28
629.46	1236.09
629.81	1228.59
630.15	1221.23
630.50	1213.73
630.84	1205.61
631.19	1197.64
631.53	1190.02
631.88	1182.54
632.22	1174.96
632.57	1167.61
632.91	1160.09
633.26	1152.74
633.60	1145.29
633.95	1138.28
634.29	1131.16
634.64	1124.41
634.98	1117.06
635.32	1109.88
635.67	1103.11
636.01	1096.45
636.36	1089.64
636.70	1083.14
637.05	1076.61
637.39	1070.11
637.73	1063.70
638.08	1057.71
638.42	1051.72
638.77	1045.38
639.11	1038.79
639.45	1032.21
639.80	1025.55
640.14	1019.07
640.49	1012.49
640.83	1006.29
641.17	1000.00
641.52	993.68
641.86	987.21
642.20	981.46
642.55	975.16
642.89	968.81
643.23	962.29
643.58	956.58
643.92	950.41
644.26	944.42
644.61	938.48
644.95	932.42
645.29	925.96
645.64	919.27
645.98	912.95
646.32	907.16
646.66	901.12
647.01	895.33
647.35	889.62
647.69	883.81
648.04	878.27
648.38	872.47
648.72	866.53
649.06	860.51
649.41	854.61
649.75	848.65
650.09	842.69
650.43	836.85
650.78	830.70
651.12	824.74
651.46	818.94
651.80	813.19
652.14	807.78
652.49	802.41
652.83	797.16
653.17	791.51
653.51	785.77
653.85	780.48
654.20	774.76
654.54	768.82
654.88	763.16
655.22	757.27
655.56	751.62
655.90	746.14
656.25	740.87
656.59	735.46
656.93	730.32
657.27	725.14
657.61	719.77
657.95	714.62
658.29	709.59
658.64	704.32
658.98	698.98
659.32	693.51
659.66	688.27
660.00	683.01
660.34	678.02
660.68	673.04
661.02	668.01
661.36	663.34
661.70	658.85
662.05	654.35
662.39	650.03
662.73	645.59
663.07	641.24
663.41	636.85
663.75	632.38
664.09	627.86
664.43	623.46
664.77	619.29
665.11	615.06
665.45	610.87
665.79	606.82
666.13	602.70
666.47	598.62
666.81	594.47
667.15	590.31
667.49	586.37
667.83	582.57
668.17	578.58
668.51	574.56
668.85	570.53
669.19	566.72
669.53	562.82
669.87	558.92
670.21	555.16
670.55	551.51
670.89	548.06
671.23	544.62
671.57	541.08
671.91	537.44
672.25	533.87
672.58	530.33
672.92	526.89
673.26	523.70
673.60	520.55
673.94	517.43
674.28	514.54
674.62	511.58
674.96	508.44
675.30	505.50
675.64	502.53
675.97	499.71
676.31	496.79
676.65	493.84
676.99	491.15
677.33	488.25
677.67	485.42
678.01	482.35
678.34	479.37
678.68	476.50
679.02	473.76
679.36	471.04
679.70	468.37
680.04	465.56
680.37	462.68
680.71	459.83
681.05	457.17
681.39	454.44
681.73	451.78
682.06	449.28
682.40	446.81
682.74	444.28
683.08	441.69
683.42	439.17
683.75	436.69
684.09	434.08
684.43	431.64
684.77	429.13
685.10	426.76
685.44	424.48
685.78	422.16
686.12	419.88
686.45	417.53
686.79	415.22
687.13	413.12
687.46	410.95
687.80	408.79
688.14	406.64
688.48	404.59
688.81	402.35
689.15	400.19
689.49	398.03
689.82	395.94
690.16	393.85
690.50	391.86
690.83	389.91
691.17	387.96
691.51	386.07
691.84	384.20
692.18	382.29
692.52	380.31
692.85	378.42
693.19	376.53
693.52	374.74
693.86	372.92
694.20	371.12
694.53	369.35
694.87	367.56
695.21	365.71
695.54	363.86
695.88	362.16
696.21	360.51
696.55	358.85
696.88	357.19
697.22	355.58
697.56	353.98
697.89	352.31
698.23	350.67
698.56	349.06
698.90	347.55
699.23	345.91
699.57	344.33
699.90	342.79
700.24	341.26
700.58	339.74
700.91	338.25
701.25	336.78
701.58	335.45
701.92	334.06
702.25	332.71
702.59	331.32
702.92	329.98
703.26	328.60
703.59	327.28
703.93	326.12
704.26	324.86
704.60	323.57
704.93	322.32
705.26	321.10
705.60	319.91
705.93	318.75
706.27	317.69
706.60	316.68
706.94	315.63
707.27	314.54
707.61	313.46
707.94	312.44
708.27	311.35
708.61	310.23
708.94	309.23
709.28	308.28
709.61	307.34
709.94	306.37
710.28	305.39
710.61	304.42
710.95	303.32
711.28	302.42
711.61	301.48
711.95	300.55
712.28	299.60
712.61	298.61
712.95	297.65
713.28	296.81
713.61	295.90
713.95	294.98
714.28	294.10
714.61	293.22
714.95	292.36
715.28	291.50
715.61	290.64
715.95	289.76
716.28	288.87
716.61	288.03
716.95	287.20
717.28	286.46
717.61	285.71
717.94	284.96
718.28	284.12
718.61	283.39
718.94	282.70
719.27	282.02
719.61	281.39
719.94	280.76
720.27	280.02
720.60	279.32
720.94	278.71
721.27	278.11
721.60	277.52
721.93	276.93
722.27	276.39
722.60	275.80
722.93	275.22
723.26	274.67
723.59	274.10
723.93	273.57
724.26	272.99
724.59	272.36
724.92	271.84
725.25	271.33
725.59	270.82
725.92	270.32
726.25	269.79
726.58	269.26
726.91	268.73
727.24	268.24
727.57	267.77
727.91	267.25
728.24	266.77
728.57	266.28
728.90	265.85
729.23	265.33
729.56	264.92
729.89	264.46
730.22	263.96
730.55	263.51
730.89	263.05
731.22	262.59
731.55	262.20
731.88	261.75
732.21	261.29
732.54	260.81
732.87	260.34
733.20	259.95
733.53	259.56
733.86	259.21
734.19	258.80
734.52	258.41
734.85	258.10
735.18	257.71
735.51	257.33
735.84	256.94
736.17	256.57
736.50	256.16
736.83	255.93
737.16	255.63
737.49	255.28
737.82	254.96
738.15	254.59
738.48	254.27
738.81	253.94
739.14	253.68
739.47	253.41
739.80	253.13
740.13	252.85
740.46	252.55
740.79	252.19
741.12	251.89
741.45	251.60
741.78	251.28
742.11	251.00
742.44	250.67
742.77	250.40
743.10	250.15
743.43	249.86
743.75	249.47
744.08	249.31
744.41	249.05
744.74	248.78
745.07	248.56
745.40	248.32
745.73	248.11
746.06	247.82
746.39	247.58
746.71	247.34
747.04	247.06
747.37	246.80
747.70	246.56
748.03	246.33
748.36	246.13
748.68	245.87
749.01	245.61
749.34	245.42
749.67	245.17
750.00	244.92
750.33	244.80
750.65	244.60
750.98	244.28
751.31	244.07
751.64	243.90
751.97	243.73
752.29	243.52
752.62	243.28
752.95	243.07
753.28	242.85
753.60	242.62
753.93	242.46
754.26	242.26
754.59	242.05
754.91	241.85
755.24	241.63
755.57	241.46
755.90	241.32
756.22	241.12
756.55	240.92
756.88	240.75
757.20	240.50
757.53	240.34
757.86	240.15
758.19	239.98
758.51	239.74
758.84	239.52
759.17	239.32
759.49	239.15
759.82	239.05
760.15	238.89
760.47	238.74
760.80	238.55
761.13	238.40
761.45	238.24
761.78	238.06
762.11	237.93
762.43	237.76
762.76	237.57
763.08	237.44
763.41	237.28
763.74	237.15
764.06	237.00
764.39	236.82
764.71	236.65
765.04	236.51
765.37	236.38
765.69	236.24
766.02	236.13
766.34	236.00
766.67	235.83
767.00	235.70
767.32	235.61
767.65	235.56
767.97	235.43
768.30	235.31
768.62	235.18
768.95	235.02
769.27	234.92
769.60	234.82
769.92	234.69
770.25	234.60
770.57	234.44
770.90	234.32
771.22	234.22
771.55	234.12
771.87	233.99
772.20	233.91
772.52	233.89
772.85	233.86
773.17	233.75
773.50	233.64
773.82	233.54
774.15	233.41
774.47	233.27
774.80	233.19
775.12	233.14
775.45	233.07
775.77	233.00
776.09	232.93
776.42	232.85
776.74	232.76
777.07	232.67
777.39	232.63
777.72	232.58
778.04	232.55
778.36	232.51
778.69	232.50
779.01	232.43
779.33	232.27
779.66	232.14
779.98	232.10
780.31	232.06
780.63	232.01
780.95	231.94
781.28	231.89
781.60	231.81
781.92	231.74
782.25	231.69
782.57	231.63
782.89	231.55
783.22	231.50
783.54	231.46
783.86	231.42
784.19	231.34
784.51	231.31
784.83	231.24
785.16	231.19
785.48	231.12
785.80	231.09
786.12	231.09
786.45	231.03
786.77	231.00
787.09	230.96
