SpectraSuite Data File
++++++++++++++++++++++++++++++++++++
Date: Fri Feb 01 17:34:02 EST 2013
User: group
Dark Spectrum Present: No
Reference Spectrum Present: No
Number of Sampled Component Spectra: 1
Spectrometers: USB2E7196
Integration Time (usec): 35000 (USB2E7196)
Spectra Averaged: 100 (USB2E7196)
Boxcar Smoothing: 10 (USB2E7196)
Correct for Electrical Dark: No (USB2E7196)
Strobe/Lamp Enabled: No (USB2E7196)
Correct for Detector Non-linearity: No (USB2E7196)
Correct for Stray Light: No (USB2E7196)
Number of Pixels in Processed Spectrum: 2048
>>>>>Begin Processed Spectral Data<<<<<
339.09	0.00
339.48	212.82
339.86	214.30
340.24	215.66
340.63	217.38
341.01	219.82
341.39	219.60
341.78	221.39
342.16	221.97
342.54	222.69
342.93	211.37
343.31	222.04
343.69	222.59
344.07	223.08
344.46	223.49
344.84	223.86
345.22	224.12
345.60	224.37
345.99	224.53
346.37	224.69
346.75	224.80
347.13	224.88
347.52	224.94
347.90	225.02
348.28	225.01
348.66	225.03
349.05	225.04
349.43	225.08
349.81	225.12
350.19	225.19
350.57	225.21
350.96	225.26
351.34	225.35
351.72	225.45
352.10	225.50
352.48	225.58
352.87	225.62
353.25	225.69
353.63	225.78
354.01	225.85
354.39	225.92
354.77	225.99
355.15	226.11
355.54	226.16
355.92	226.20
356.30	226.26
356.68	226.42
357.06	226.49
357.44	226.56
357.82	226.63
358.20	226.69
358.58	226.77
358.97	226.84
359.35	226.93
359.73	226.99
360.11	227.06
360.49	227.13
360.87	227.21
361.25	227.22
361.63	227.29
362.01	227.34
362.39	227.37
362.77	227.41
363.15	227.40
363.53	227.44
363.91	227.48
364.29	227.52
364.67	227.45
365.05	227.46
365.43	227.46
365.81	227.51
366.19	227.54
366.57	227.60
366.95	227.64
367.33	227.65
367.71	227.64
368.09	227.69
368.47	227.70
368.85	227.67
369.23	227.73
369.61	227.67
369.99	227.68
370.37	227.67
370.75	227.72
371.13	227.70
371.51	227.67
371.89	227.68
372.27	227.65
372.65	227.62
373.03	227.61
373.41	227.57
373.78	227.48
374.16	227.39
374.54	227.31
374.92	227.24
375.30	227.14
375.68	227.06
376.06	226.98
376.44	226.91
376.82	226.85
377.19	226.76
377.57	226.70
377.95	226.61
378.33	226.53
378.71	226.39
379.09	226.32
379.47	226.27
379.84	226.16
380.22	226.06
380.60	225.95
380.98	225.86
381.36	225.81
381.73	225.76
382.11	225.70
382.49	225.65
382.87	225.58
383.25	225.50
383.62	225.59
384.00	225.53
384.38	225.48
384.76	225.43
385.13	225.39
385.51	225.34
385.89	225.28
386.27	225.25
386.64	225.20
387.02	225.15
387.40	225.09
387.78	225.07
388.15	225.06
388.53	225.05
388.91	225.01
389.29	224.97
389.66	224.93
390.04	224.91
390.42	224.86
390.79	224.82
391.17	224.83
391.55	224.69
391.92	224.64
392.30	224.62
392.68	224.59
393.05	224.57
393.43	224.56
393.81	224.57
394.18	224.55
394.56	224.56
394.94	224.59
395.31	224.58
395.69	224.60
396.06	224.64
396.44	224.65
396.82	224.64
397.19	224.73
397.57	224.72
397.95	224.75
398.32	224.75
398.70	224.80
399.07	224.84
399.45	224.87
399.82	224.93
400.20	224.96
400.58	225.02
400.95	225.03
401.33	225.12
401.70	225.26
402.08	225.36
402.45	225.47
402.83	225.56
403.20	225.65
403.58	225.73
403.95	225.83
404.33	225.95
404.71	226.10
405.08	226.22
405.46	226.39
405.83	226.52
406.21	226.68
406.58	226.85
406.96	227.01
407.33	227.17
407.70	227.36
408.08	227.66
408.45	227.88
408.83	228.14
409.20	228.33
409.58	228.48
409.95	228.75
410.33	228.99
410.70	229.21
411.08	229.52
411.45	229.84
411.82	230.15
412.20	230.47
412.57	230.89
412.95	231.19
413.32	231.61
413.69	232.02
414.07	232.49
414.44	232.97
414.82	233.46
415.19	234.05
415.56	234.64
415.94	235.17
416.31	235.85
416.68	236.49
417.06	237.26
417.43	237.97
417.81	238.75
418.18	239.55
418.55	240.47
418.93	241.38
419.30	242.33
419.67	243.32
420.04	244.36
420.42	245.39
420.79	246.63
421.16	247.81
421.54	249.07
421.91	250.35
422.28	251.67
422.66	253.05
423.03	254.39
423.40	255.80
423.77	257.30
424.15	258.80
424.52	260.38
424.89	262.08
425.26	263.72
425.64	265.23
426.01	266.91
426.38	268.64
426.75	270.42
427.13	272.20
427.50	274.10
427.87	276.06
428.24	278.01
428.61	279.86
428.99	281.91
429.36	284.10
429.73	286.25
430.10	288.37
430.47	290.53
430.85	292.78
431.22	295.08
431.59	297.61
431.96	299.95
432.33	302.53
432.70	305.03
433.08	307.97
433.45	310.75
433.82	313.48
434.19	316.48
434.56	319.40
434.93	322.17
435.30	324.89
435.68	327.91
436.05	330.85
436.42	333.74
436.79	336.36
437.16	339.16
437.53	342.08
437.90	345.04
438.27	347.90
438.64	350.82
439.01	353.49
439.38	355.80
439.75	358.01
440.13	360.62
440.50	363.05
440.87	364.91
441.24	366.93
441.61	369.16
441.98	370.70
442.35	372.56
442.72	374.46
443.09	376.38
443.46	377.42
443.83	378.09
444.20	378.62
444.57	379.49
444.94	379.84
445.31	380.26
445.68	380.60
446.05	380.71
446.42	380.31
446.79	379.94
447.16	379.47
447.53	379.20
447.90	378.02
448.27	376.75
448.64	375.19
449.01	374.00
449.37	371.95
449.74	370.01
450.11	367.68
450.48	365.17
450.85	362.50
451.22	360.30
451.59	358.16
451.96	356.22
452.33	353.52
452.70	351.04
453.07	348.04
453.43	345.04
453.80	342.15
454.17	339.36
454.54	336.69
454.91	333.87
455.28	331.06
455.65	328.46
456.02	325.95
456.38	323.65
456.75	320.88
457.12	318.58
457.49	316.25
457.86	314.03
458.23	312.07
458.59	309.94
458.96	307.76
459.33	305.82
459.70	303.82
460.07	302.25
460.43	300.48
460.80	298.82
461.17	297.28
461.54	295.73
461.91	294.23
462.27	292.71
462.64	291.42
463.01	290.00
463.38	288.63
463.74	287.20
464.11	286.05
464.48	285.01
464.85	283.82
465.21	282.91
465.58	281.96
465.95	280.84
466.32	279.92
466.68	278.99
467.05	278.08
467.42	277.13
467.78	276.18
468.15	275.30
468.52	274.59
468.88	273.72
469.25	272.91
469.62	272.33
469.98	271.66
470.35	271.00
470.72	270.40
471.08	269.76
471.45	269.20
471.82	268.62
472.18	268.02
472.55	267.60
472.92	267.08
473.28	266.59
473.65	266.12
474.02	265.68
474.38	265.30
474.75	264.97
475.11	264.64
475.48	264.36
475.85	264.10
476.21	263.85
476.58	263.70
476.94	263.56
477.31	263.33
477.67	263.20
478.04	263.10
478.41	263.06
478.77	263.10
479.14	263.06
479.50	263.10
479.87	263.15
480.23	263.21
480.60	263.28
480.96	263.35
481.33	263.57
481.69	263.77
482.06	263.95
482.42	264.14
482.79	264.37
483.15	264.69
483.52	265.07
483.88	265.41
484.25	265.75
484.61	266.18
484.98	266.64
485.34	267.18
485.71	267.72
486.07	268.32
486.44	268.83
486.80	269.49
487.17	270.20
487.53	271.02
487.90	271.84
488.26	272.78
488.62	273.75
488.99	274.72
489.35	275.74
489.72	276.87
490.08	278.07
490.44	279.31
490.81	280.62
491.17	281.95
491.54	283.48
491.90	285.01
492.26	286.59
492.63	288.33
492.99	290.11
493.36	291.99
493.72	293.99
494.08	296.11
494.45	298.35
494.81	300.71
495.17	303.11
495.54	305.70
495.90	308.38
496.26	311.16
496.63	314.11
496.99	317.20
497.35	320.41
497.72	323.74
498.08	327.21
498.44	330.86
498.80	334.73
499.17	338.70
499.53	342.82
499.89	347.15
500.26	351.57
500.62	356.14
500.98	361.04
501.34	366.07
501.71	371.35
502.07	376.71
502.43	382.19
502.79	387.91
503.16	393.84
503.52	399.96
503.88	406.25
504.24	412.69
504.60	419.46
504.97	426.44
505.33	433.65
505.69	441.21
506.05	448.80
506.41	456.54
506.78	464.53
507.14	472.74
507.50	481.31
507.86	490.12
508.22	499.09
508.59	508.15
508.95	517.52
509.31	527.10
509.67	537.00
510.03	547.00
510.39	557.36
510.75	567.88
511.12	578.58
511.48	589.64
511.84	600.83
512.20	612.03
512.56	623.66
512.92	635.49
513.28	647.58
513.64	659.72
514.00	672.13
514.37	684.73
514.73	697.50
515.09	710.18
515.45	723.12
515.81	736.38
516.17	749.98
516.53	763.70
516.89	777.43
517.25	791.15
517.61	805.28
517.97	819.29
518.33	833.28
518.69	847.61
519.05	862.06
519.41	876.87
519.77	891.91
520.13	906.93
520.49	921.90
520.85	936.73
521.21	951.99
521.57	967.71
521.93	982.97
522.29	998.82
522.65	1014.62
523.01	1030.37
523.37	1045.93
523.73	1061.48
524.09	1076.91
524.45	1092.72
524.81	1108.80
525.17	1124.97
525.53	1141.34
525.89	1157.79
526.25	1174.11
526.61	1190.03
526.97	1206.26
527.33	1222.27
527.68	1238.24
528.04	1254.24
528.40	1270.30
528.76	1286.78
529.12	1302.92
529.48	1319.35
529.84	1334.86
530.20	1350.90
530.56	1367.30
530.91	1384.14
531.27	1400.52
531.63	1416.67
531.99	1432.78
532.35	1448.38
532.71	1463.93
533.07	1479.74
533.42	1495.17
533.78	1510.89
534.14	1526.82
534.50	1541.70
534.86	1557.16
535.21	1572.07
535.57	1587.57
535.93	1602.80
536.29	1617.33
536.65	1631.98
537.00	1646.45
537.36	1661.63
537.72	1675.93
538.08	1690.11
538.44	1703.70
538.79	1717.40
539.15	1730.72
539.51	1744.24
539.87	1758.37
540.22	1771.75
540.58	1785.23
540.94	1798.23
541.29	1810.70
541.65	1823.16
542.01	1836.25
542.37	1848.52
542.72	1860.75
543.08	1872.43
543.44	1884.68
543.79	1895.90
544.15	1906.80
544.51	1918.25
544.87	1928.95
545.22	1939.74
545.58	1950.08
545.94	1959.82
546.29	1969.57
546.65	1979.55
547.01	1988.98
547.36	1997.79
547.72	2006.49
548.07	2014.65
548.43	2022.98
548.79	2031.01
549.14	2038.76
549.50	2046.15
549.86	2053.84
550.21	2061.32
550.57	2068.68
550.92	2075.68
551.28	2082.90
551.64	2090.16
551.99	2096.95
552.35	2103.40
552.70	2109.85
553.06	2116.12
553.41	2122.82
553.77	2129.10
554.13	2135.44
554.48	2141.77
554.84	2147.62
555.19	2153.15
555.55	2158.68
555.90	2163.54
556.26	2169.08
556.61	2174.11
556.97	2178.94
557.32	2183.54
557.68	2188.10
558.03	2192.61
558.39	2196.31
558.74	2201.16
559.10	2205.38
559.45	2209.31
559.81	2213.90
560.16	2217.89
560.52	2221.54
560.87	2225.23
561.23	2228.30
561.58	2231.54
561.94	2234.49
562.29	2237.08
562.64	2240.24
563.00	2243.08
563.35	2246.96
563.71	2250.39
564.06	2253.82
564.42	2257.12
564.77	2260.10
565.12	2262.90
565.48	2265.59
565.83	2268.04
566.19	2269.99
566.54	2271.27
566.89	2272.93
567.25	2274.15
567.60	2275.90
567.96	2277.92
568.31	2279.24
568.66	2280.92
569.02	2281.98
569.37	2282.65
569.72	2284.03
570.08	2284.74
570.43	2285.12
570.78	2285.03
571.14	2283.91
571.49	2282.98
571.84	2282.85
572.20	2282.07
572.55	2281.45
572.90	2280.14
573.26	2279.16
573.61	2277.74
573.96	2276.66
574.31	2274.12
574.67	2271.50
575.02	2268.38
575.37	2265.30
575.72	2261.90
576.08	2258.72
576.43	2255.70
576.78	2252.67
577.13	2249.79
577.49	2246.82
577.84	2243.78
578.19	2240.30
578.54	2237.16
578.90	2233.51
579.25	2228.50
579.60	2224.08
579.95	2219.44
580.30	2214.79
580.66	2210.05
581.01	2205.54
581.36	2200.94
581.71	2197.17
582.06	2193.10
582.42	2188.98
582.77	2184.10
583.12	2180.05
583.47	2175.88
583.82	2171.35
584.17	2166.28
584.53	2161.14
584.88	2155.89
585.23	2150.41
585.58	2145.25
585.93	2140.03
586.28	2135.37
586.63	2130.58
586.98	2125.63
587.34	2121.13
587.69	2116.48
588.04	2111.51
588.39	2106.05
588.74	2099.77
589.09	2093.83
589.44	2087.31
589.79	2081.44
590.14	2076.01
590.49	2069.56
590.84	2063.29
591.19	2057.45
591.54	2051.27
591.89	2044.28
592.25	2037.85
592.60	2030.90
592.95	2023.72
593.30	2016.60
593.65	2009.28
594.00	2002.32
594.35	1995.34
594.70	1987.45
595.05	1980.52
595.40	1973.36
595.75	1966.03
596.10	1960.09
596.45	1953.49
596.80	1947.57
597.15	1941.25
597.50	1934.52
597.85	1928.10
598.19	1921.64
598.54	1914.76
598.89	1908.19
599.24	1902.33
599.59	1895.86
599.94	1889.80
600.29	1883.59
600.64	1876.99
600.99	1869.69
601.34	1863.10
601.69	1856.14
602.04	1849.40
602.39	1842.12
602.74	1835.42
603.08	1828.91
603.43	1822.13
603.78	1815.03
604.13	1807.79
604.48	1800.65
604.83	1793.90
605.18	1787.28
605.53	1779.37
605.87	1771.53
606.22	1764.34
606.57	1756.39
606.92	1748.84
607.27	1741.82
607.62	1735.01
607.96	1727.88
608.31	1721.47
608.66	1713.93
609.01	1706.49
609.36	1699.04
609.70	1690.98
610.05	1683.07
610.40	1675.29
610.75	1667.08
611.10	1659.52
611.44	1651.09
611.79	1642.97
612.14	1634.23
612.49	1624.76
612.83	1616.43
613.18	1608.15
613.53	1600.04
613.88	1591.47
614.22	1583.20
614.57	1574.44
614.92	1566.14
615.27	1558.65
615.61	1550.23
615.96	1542.05
616.31	1534.20
616.65	1526.71
617.00	1519.23
617.35	1511.39
617.70	1503.13
618.04	1494.58
618.39	1486.11
618.74	1478.48
619.08	1470.11
619.43	1462.35
619.78	1455.50
620.12	1448.31
620.47	1440.73
620.82	1432.46
621.16	1424.91
621.51	1417.22
621.85	1409.52
622.20	1400.98
622.55	1392.45
622.89	1384.59
623.24	1376.78
623.59	1369.38
623.93	1361.73
624.28	1354.29
624.62	1346.71
624.97	1339.35
625.32	1332.36
625.66	1325.23
626.01	1318.00
626.35	1310.55
626.70	1302.76
627.04	1294.89
627.39	1286.89
627.73	1279.42
628.08	1272.43
628.43	1265.19
628.77	1257.87
629.12	1250.27
629.46	1243.04
629.81	1235.46
630.15	1228.01
630.50	1220.73
630.84	1212.55
631.19	1204.49
631.53	1196.88
631.88	1189.23
632.22	1181.55
632.57	1174.13
632.91	1166.48
633.26	1158.98
633.60	1151.56
633.95	1144.32
634.29	1137.17
634.64	1130.38
634.98	1122.94
635.32	1115.69
635.67	1108.93
636.01	1102.11
636.36	1095.26
636.70	1088.63
637.05	1082.06
637.39	1075.50
637.73	1068.90
638.08	1062.81
638.42	1056.80
638.77	1050.33
639.11	1043.70
639.45	1037.26
639.80	1030.68
640.14	1024.32
640.49	1017.74
640.83	1011.28
641.17	1005.06
641.52	998.73
641.86	992.12
642.20	986.22
642.55	979.75
642.89	973.28
643.23	966.57
643.58	960.71
643.92	954.54
644.26	948.57
644.61	942.46
644.95	936.43
645.29	929.90
645.64	923.10
645.98	916.71
646.32	910.73
646.66	904.64
647.01	898.77
647.35	893.00
647.69	887.05
648.04	881.51
648.38	875.71
648.72	869.75
649.06	863.84
649.41	857.90
649.75	852.10
650.09	846.16
650.43	840.43
650.78	834.31
651.12	828.35
651.46	822.52
651.80	816.91
652.14	811.43
652.49	806.08
652.83	800.93
653.17	795.34
653.51	789.72
653.85	784.28
654.20	778.68
654.54	772.66
654.88	766.84
655.22	760.92
655.56	755.20
655.90	749.70
656.25	744.47
656.59	739.15
656.93	734.01
657.27	728.86
657.61	723.44
657.95	718.33
658.29	713.20
658.64	707.90
658.98	702.42
659.32	696.94
659.66	691.70
660.00	686.40
660.34	681.33
660.68	676.36
661.02	671.31
661.36	666.56
661.70	662.12
662.05	657.82
662.39	653.53
662.73	649.04
663.07	644.57
663.41	640.02
663.75	635.48
664.09	630.86
664.43	626.39
664.77	622.34
665.11	618.07
665.45	613.89
665.79	609.84
666.13	605.73
666.47	601.58
666.81	597.34
667.15	593.15
667.49	589.28
667.83	585.39
668.17	581.41
668.51	577.31
668.85	573.19
669.19	569.30
669.53	565.42
669.87	561.58
670.21	557.89
670.55	554.20
670.89	550.74
671.23	547.30
671.57	543.75
671.91	540.21
672.25	536.63
672.58	533.11
672.92	529.61
673.26	526.43
673.60	523.23
673.94	520.19
674.28	517.29
674.62	514.31
674.96	511.23
675.30	508.35
675.64	505.43
675.97	502.61
676.31	499.75
676.65	496.81
676.99	494.07
677.33	491.19
677.67	488.42
678.01	485.45
678.34	482.47
678.68	479.61
679.02	476.69
679.36	473.90
679.70	471.16
680.04	468.40
680.37	465.53
680.71	462.75
681.05	460.07
681.39	457.33
681.73	454.62
682.06	452.05
682.40	449.48
682.74	446.87
683.08	444.29
683.42	441.60
683.75	439.05
684.09	436.41
684.43	433.84
684.77	431.35
685.10	428.89
685.44	426.52
685.78	424.21
686.12	421.92
686.45	419.63
686.79	417.32
687.13	415.08
687.46	412.90
687.80	410.78
688.14	408.53
688.48	406.42
688.81	404.21
689.15	402.07
689.49	399.86
689.82	397.77
690.16	395.68
690.50	393.75
690.83	391.82
691.17	389.77
691.51	387.91
691.84	386.04
692.18	384.14
692.52	382.19
692.85	380.19
693.19	378.27
693.52	376.40
693.86	374.51
694.20	372.72
694.53	370.87
694.87	368.94
695.21	367.15
695.54	365.30
695.88	363.51
696.21	361.75
696.55	360.07
696.88	358.34
697.22	356.60
697.56	354.94
697.89	353.29
698.23	351.75
698.56	350.18
698.90	348.57
699.23	346.88
699.57	345.29
699.90	343.76
700.24	342.22
700.58	340.71
700.91	339.24
701.25	337.80
701.58	336.43
701.92	335.06
702.25	333.67
702.59	332.30
702.92	330.93
703.26	329.57
703.59	328.29
703.93	327.08
704.26	325.85
704.60	324.51
704.93	323.20
705.26	321.93
705.60	320.70
705.93	319.50
706.27	318.46
706.60	317.37
706.94	316.28
707.27	315.11
707.61	313.96
707.94	312.88
708.27	311.73
708.61	310.59
708.94	309.56
709.28	308.57
709.61	307.61
709.94	306.64
710.28	305.60
710.61	304.56
710.95	303.51
711.28	302.58
711.61	301.62
711.95	300.68
712.28	299.69
712.61	298.64
712.95	297.70
713.28	296.74
713.61	295.80
713.95	294.90
714.28	294.06
714.61	293.20
714.95	292.35
715.28	291.52
715.61	290.66
715.95	289.78
716.28	288.90
716.61	288.05
716.95	287.24
717.28	286.47
717.61	285.72
717.94	284.97
718.28	284.16
718.61	283.40
718.94	282.68
719.27	282.01
719.61	281.36
719.94	280.67
720.27	280.01
720.60	279.33
720.94	278.65
721.27	278.04
721.60	277.45
721.93	276.84
722.27	276.26
722.60	275.71
722.93	275.10
723.26	274.53
723.59	273.97
723.93	273.38
724.26	272.81
724.59	272.19
724.92	271.58
725.25	271.07
725.59	270.53
725.92	270.00
726.25	269.49
726.58	268.99
726.91	268.48
727.24	267.98
727.57	267.50
727.91	266.99
728.24	266.48
728.57	265.99
728.90	265.52
729.23	265.03
729.56	264.56
729.89	264.10
730.22	263.63
730.55	263.11
730.89	262.67
731.22	262.24
731.55	261.80
731.88	261.38
732.21	260.94
732.54	260.52
732.87	260.09
733.20	259.64
733.53	259.28
733.86	258.88
734.19	258.50
734.52	258.10
734.85	257.79
735.18	257.38
735.51	256.97
735.84	256.61
736.17	256.22
736.50	255.81
736.83	255.56
737.16	255.22
737.49	254.90
737.82	254.53
738.15	254.20
738.48	253.86
738.81	253.52
739.14	253.19
739.47	252.91
739.80	252.56
740.13	252.25
740.46	251.86
740.79	251.53
741.12	251.16
741.45	250.87
741.78	250.50
742.11	250.21
742.44	249.92
742.77	249.61
743.10	249.29
743.43	248.95
743.75	248.55
744.08	248.36
744.41	248.07
744.74	247.80
745.07	247.47
745.40	247.25
745.73	247.05
746.06	246.76
746.39	246.45
746.71	246.20
747.04	245.95
747.37	245.69
747.70	245.44
748.03	245.20
748.36	244.94
748.68	244.70
749.01	244.40
749.34	244.15
749.67	243.91
750.00	243.70
750.33	243.60
750.65	243.38
750.98	243.03
751.31	242.80
751.64	242.60
751.97	242.47
752.29	242.23
752.62	241.94
752.95	241.73
753.28	241.50
753.60	241.33
753.93	241.15
754.26	240.98
754.59	240.73
754.91	240.55
755.24	240.33
755.57	240.16
755.90	240.00
756.22	239.84
756.55	239.63
756.88	239.43
757.20	239.17
757.53	238.98
757.86	238.85
758.19	238.68
758.51	238.52
758.84	238.28
759.17	238.09
759.49	237.96
759.82	237.88
760.15	237.73
760.47	237.54
760.80	237.37
761.13	237.25
761.45	237.14
761.78	236.97
762.11	236.87
762.43	236.70
762.76	236.55
763.08	236.41
763.41	236.30
763.74	236.16
764.06	236.01
764.39	235.88
764.71	235.74
765.04	235.64
765.37	235.50
765.69	235.39
766.02	235.29
766.34	235.16
766.67	234.99
767.00	234.90
767.32	234.82
767.65	234.73
767.97	234.60
768.30	234.52
768.62	234.44
768.95	234.30
769.27	234.22
769.60	234.13
769.92	234.01
770.25	233.89
770.57	233.78
770.90	233.67
771.22	233.57
771.55	233.47
771.87	233.34
772.20	233.26
772.52	233.26
772.85	233.29
773.17	233.16
773.50	233.05
773.82	232.96
774.15	232.85
774.47	232.74
774.80	232.65
775.12	232.53
775.45	232.43
775.77	232.33
776.09	232.22
776.42	232.18
776.74	232.10
777.07	232.02
777.39	231.95
777.72	231.89
778.04	231.83
778.36	231.70
778.69	231.68
779.01	231.56
779.33	231.40
779.66	231.21
779.98	231.17
780.31	231.09
780.63	231.07
780.95	230.98
781.28	230.88
781.60	230.79
781.92	230.74
782.25	230.66
782.57	230.60
782.89	230.52
783.22	230.44
783.54	230.37
783.86	230.35
784.19	230.29
784.51	230.26
784.83	230.18
785.16	230.17
785.48	230.07
785.80	230.02
786.12	229.98
786.45	229.92
786.77	229.87
787.09	229.85
