SpectraSuite Data File
++++++++++++++++++++++++++++++++++++
Date: Fri Feb 01 15:54:13 EST 2013
User: group
Dark Spectrum Present: No
Reference Spectrum Present: No
Number of Sampled Component Spectra: 1
Spectrometers: USB2E7196
Integration Time (usec): 35000 (USB2E7196)
Spectra Averaged: 100 (USB2E7196)
Boxcar Smoothing: 10 (USB2E7196)
Correct for Electrical Dark: No (USB2E7196)
Strobe/Lamp Enabled: No (USB2E7196)
Correct for Detector Non-linearity: No (USB2E7196)
Correct for Stray Light: No (USB2E7196)
Number of Pixels in Processed Spectrum: 2048
>>>>>Begin Processed Spectral Data<<<<<
339.09	0.00
339.48	214.83
339.86	216.38
340.24	216.93
340.63	218.84
341.01	222.17
341.39	221.60
341.78	222.90
342.16	224.42
342.54	224.63
342.93	213.16
343.31	223.93
343.69	224.48
344.07	224.92
344.46	225.37
344.84	225.77
345.22	226.02
345.60	226.27
345.99	226.47
346.37	226.59
346.75	226.69
347.13	226.74
347.52	226.80
347.90	226.83
348.28	226.85
348.66	226.92
349.05	226.94
349.43	226.98
349.81	227.05
350.19	227.09
350.57	227.15
350.96	227.23
351.34	227.32
351.72	227.40
352.10	227.51
352.48	227.60
352.87	227.65
353.25	227.69
353.63	227.76
354.01	227.82
354.39	227.92
354.77	228.00
355.15	228.12
355.54	228.19
355.92	228.23
356.30	228.30
356.68	228.45
357.06	228.52
357.44	228.56
357.82	228.62
358.20	228.71
358.58	228.77
358.97	228.84
359.35	228.92
359.73	228.97
360.11	229.01
360.49	229.05
360.87	229.10
361.25	229.15
361.63	229.20
362.01	229.22
362.39	229.24
362.77	229.28
363.15	229.28
363.53	229.33
363.91	229.39
364.29	229.40
364.67	229.27
365.05	229.27
365.43	229.28
365.81	229.27
366.19	229.31
366.57	229.33
366.95	229.32
367.33	229.28
367.71	229.26
368.09	229.27
368.47	229.28
368.85	229.24
369.23	229.23
369.61	229.22
369.99	229.22
370.37	229.20
370.75	229.18
371.13	229.13
371.51	229.04
371.89	228.96
372.27	228.91
372.65	228.89
373.03	228.85
373.41	228.83
373.78	228.76
374.16	228.63
374.54	228.56
374.92	228.50
375.30	228.46
375.68	228.37
376.06	228.33
376.44	228.22
376.82	228.19
377.19	228.13
377.57	228.04
377.95	227.94
378.33	227.84
378.71	227.74
379.09	227.68
379.47	227.64
379.84	227.58
380.22	227.50
380.60	227.44
380.98	227.37
381.36	227.27
381.73	227.21
382.11	227.16
382.49	227.07
382.87	226.97
383.25	226.87
383.62	226.96
384.00	226.89
384.38	226.83
384.76	226.77
385.13	226.72
385.51	226.66
385.89	226.60
386.27	226.59
386.64	226.55
387.02	226.48
387.40	226.42
387.78	226.40
388.15	226.34
388.53	226.31
388.91	226.25
389.29	226.21
389.66	226.20
390.04	226.18
390.42	226.18
390.79	226.20
391.17	226.21
391.55	226.08
391.92	226.04
392.30	226.05
392.68	226.04
393.05	226.06
393.43	226.10
393.81	226.11
394.18	226.10
394.56	226.11
394.94	226.20
395.31	226.22
395.69	226.24
396.06	226.31
396.44	226.35
396.82	226.39
397.19	226.49
397.57	226.52
397.95	226.57
398.32	226.59
398.70	226.63
399.07	226.67
399.45	226.73
399.82	226.86
400.20	226.92
400.58	227.01
400.95	227.05
401.33	227.17
401.70	227.34
402.08	227.43
402.45	227.53
402.83	227.62
403.20	227.72
403.58	227.80
403.95	227.90
404.33	228.04
404.71	228.16
405.08	228.33
405.46	228.46
405.83	228.66
406.21	228.82
406.58	228.96
406.96	229.14
407.33	229.31
407.70	229.47
408.08	229.74
408.45	229.97
408.83	230.19
409.20	230.37
409.58	230.53
409.95	230.79
410.33	231.05
410.70	231.32
411.08	231.64
411.45	231.98
411.82	232.33
412.20	232.66
412.57	233.06
412.95	233.36
413.32	233.78
413.69	234.11
414.07	234.55
414.44	235.05
414.82	235.53
415.19	236.10
415.56	236.67
415.94	237.21
416.31	237.81
416.68	238.43
417.06	239.16
417.43	239.86
417.81	240.64
418.18	241.44
418.55	242.25
418.93	243.12
419.30	244.00
419.67	244.91
420.04	245.87
420.42	246.89
420.79	248.07
421.16	249.20
421.54	250.43
421.91	251.63
422.28	252.87
422.66	254.23
423.03	255.51
423.40	256.82
423.77	258.21
424.15	259.64
424.52	261.11
424.89	262.71
425.26	264.26
425.64	265.65
426.01	267.20
426.38	268.86
426.75	270.54
427.13	272.26
427.50	274.07
427.87	275.95
428.24	277.76
428.61	279.49
428.99	281.41
429.36	283.50
429.73	285.57
430.10	287.62
430.47	289.63
430.85	291.72
431.22	293.96
431.59	296.34
431.96	298.56
432.33	301.05
432.70	303.43
433.08	306.19
433.45	308.85
433.82	311.47
434.19	314.37
434.56	317.17
434.93	319.83
435.30	322.47
435.68	325.36
436.05	328.22
436.42	331.00
436.79	333.53
437.16	336.27
437.53	339.07
437.90	341.85
438.27	344.61
438.64	347.43
439.01	350.02
439.38	352.24
439.75	354.39
440.13	356.86
440.50	359.16
440.87	361.03
441.24	362.99
441.61	365.13
441.98	366.66
442.35	368.48
442.72	370.36
443.09	372.10
443.46	373.15
443.83	373.75
444.20	374.27
444.57	375.11
444.94	375.36
445.31	375.77
445.68	376.14
446.05	376.18
446.42	375.81
446.79	375.39
447.16	374.96
447.53	374.66
447.90	373.56
448.27	372.40
448.64	370.86
449.01	369.68
449.37	367.72
449.74	365.75
450.11	363.46
450.48	360.96
450.85	358.44
451.22	356.25
451.59	354.25
451.96	352.32
452.33	349.70
452.70	347.35
453.07	344.48
453.43	341.54
453.80	338.84
454.17	336.18
454.54	333.60
454.91	330.88
455.28	328.24
455.65	325.69
456.02	323.25
456.38	321.08
456.75	318.47
457.12	316.24
457.49	314.02
457.86	311.89
458.23	310.05
458.59	308.05
458.96	305.96
459.33	304.08
459.70	302.21
460.07	300.73
460.43	299.00
460.80	297.39
461.17	296.00
461.54	294.50
461.91	293.06
462.27	291.65
462.64	290.39
463.01	289.04
463.38	287.78
463.74	286.44
464.11	285.29
464.48	284.25
464.85	283.14
465.21	282.28
465.58	281.35
465.95	280.24
466.32	279.29
466.68	278.41
467.05	277.46
467.42	276.55
467.78	275.60
468.15	274.77
468.52	274.09
468.88	273.23
469.25	272.44
469.62	271.87
469.98	271.19
470.35	270.58
470.72	269.98
471.08	269.30
471.45	268.74
471.82	268.17
472.18	267.60
472.55	267.14
472.92	266.63
473.28	266.16
473.65	265.72
474.02	265.29
474.38	264.93
474.75	264.65
475.11	264.32
475.48	264.03
475.85	263.77
476.21	263.53
476.58	263.33
476.94	263.20
477.31	263.00
477.67	262.85
478.04	262.73
478.41	262.66
478.77	262.72
479.14	262.69
479.50	262.73
479.87	262.76
480.23	262.87
480.60	262.97
480.96	263.05
481.33	263.24
481.69	263.45
482.06	263.65
482.42	263.83
482.79	264.12
483.15	264.45
483.52	264.84
483.88	265.19
484.25	265.58
484.61	265.99
484.98	266.46
485.34	267.03
485.71	267.63
486.07	268.23
486.44	268.77
486.80	269.47
487.17	270.20
487.53	271.04
487.90	271.89
488.26	272.83
488.62	273.82
488.99	274.81
489.35	275.86
489.72	276.94
490.08	278.15
490.44	279.36
490.81	280.70
491.17	282.01
491.54	283.52
491.90	285.04
492.26	286.69
492.63	288.39
492.99	290.17
493.36	292.04
493.72	294.09
494.08	296.23
494.45	298.42
494.81	300.76
495.17	303.20
495.54	305.77
495.90	308.45
496.26	311.27
496.63	314.24
496.99	317.38
497.35	320.66
497.72	324.06
498.08	327.61
498.44	331.29
498.80	335.26
499.17	339.27
499.53	343.47
499.89	347.82
500.26	352.38
500.62	357.07
500.98	362.05
501.34	367.09
501.71	372.41
502.07	377.90
502.43	383.49
502.79	389.31
503.16	395.40
503.52	401.64
503.88	408.04
504.24	414.67
504.60	421.57
504.97	428.70
505.33	436.05
505.69	443.73
506.05	451.54
506.41	459.50
506.78	467.69
507.14	476.18
507.50	484.94
507.86	493.95
508.22	503.17
508.59	512.41
508.95	522.03
509.31	531.87
509.67	542.02
510.03	552.38
510.39	562.86
510.75	573.67
511.12	584.69
511.48	596.01
511.84	607.45
512.20	618.96
512.56	630.91
512.92	643.12
513.28	655.53
513.64	667.96
514.00	680.55
514.37	693.49
514.73	706.50
515.09	719.53
515.45	732.81
515.81	746.43
516.17	760.46
516.53	774.62
516.89	788.69
517.25	802.80
517.61	817.20
517.97	831.67
518.33	846.08
518.69	860.83
519.05	875.79
519.41	890.93
519.77	906.50
520.13	921.93
520.49	937.21
520.85	952.57
521.21	968.26
521.57	984.47
521.93	1000.12
522.29	1016.54
522.65	1032.84
523.01	1049.12
523.37	1065.14
523.73	1081.16
524.09	1097.12
524.45	1113.47
524.81	1130.09
525.17	1146.86
525.53	1163.76
525.89	1180.63
526.25	1197.39
526.61	1213.74
526.97	1230.52
527.33	1246.92
527.68	1263.50
528.04	1280.04
528.40	1296.62
528.76	1313.67
529.12	1330.29
529.48	1347.25
529.84	1363.22
530.20	1379.80
530.56	1396.68
530.91	1414.10
531.27	1430.88
531.63	1447.42
531.99	1463.98
532.35	1479.87
532.71	1495.69
533.07	1512.06
533.42	1527.94
533.78	1543.91
534.14	1560.26
534.50	1575.57
534.86	1591.45
535.21	1606.67
535.57	1622.49
535.93	1637.83
536.29	1652.63
536.65	1667.59
537.00	1682.40
537.36	1697.66
537.72	1712.13
538.08	1726.54
538.44	1740.25
538.79	1754.14
539.15	1767.79
539.51	1781.47
539.87	1795.87
540.22	1809.59
540.58	1823.24
540.94	1836.54
541.29	1849.45
541.65	1861.98
542.01	1875.24
542.37	1887.50
542.72	1899.89
543.08	1911.75
543.44	1924.27
543.79	1935.46
544.15	1946.55
544.51	1958.12
544.87	1969.09
545.22	1979.85
545.58	1990.02
545.94	1999.70
546.29	2009.49
546.65	2019.40
547.01	2028.74
547.36	2037.43
547.72	2045.84
548.07	2053.66
548.43	2061.75
548.79	2069.84
549.14	2077.39
549.50	2084.69
549.86	2092.41
550.21	2099.65
550.57	2106.75
550.92	2113.21
551.28	2120.21
551.64	2127.22
551.99	2133.63
552.35	2139.71
552.70	2145.87
553.06	2151.79
553.41	2158.20
553.77	2164.28
554.13	2170.39
554.48	2176.40
554.84	2181.88
555.19	2187.30
555.55	2192.40
555.90	2196.88
556.26	2201.65
556.61	2206.43
556.97	2210.54
557.32	2214.67
557.68	2218.99
558.03	2223.23
558.39	2227.04
558.74	2231.71
559.10	2235.50
559.45	2239.22
559.81	2243.63
560.16	2247.57
560.52	2250.93
560.87	2254.09
561.23	2256.77
561.58	2259.56
561.94	2262.19
562.29	2264.51
562.64	2267.12
563.00	2269.73
563.35	2273.37
563.71	2276.64
564.06	2279.79
564.42	2282.74
564.77	2285.18
565.12	2287.30
565.48	2289.37
565.83	2291.13
566.19	2292.46
566.54	2293.38
566.89	2294.53
567.25	2294.99
567.60	2296.16
567.96	2297.83
568.31	2298.93
568.66	2299.92
569.02	2300.43
569.37	2300.79
569.72	2301.71
570.08	2301.80
570.43	2301.83
570.78	2301.06
571.14	2299.39
571.49	2298.02
571.84	2297.68
572.20	2296.59
572.55	2295.49
572.90	2293.81
573.26	2292.43
573.61	2290.61
573.96	2288.90
574.31	2285.97
574.67	2283.01
575.02	2279.37
575.37	2275.99
575.72	2272.11
576.08	2268.89
576.43	2265.68
576.78	2261.94
577.13	2258.86
577.49	2255.78
577.84	2252.29
578.19	2248.74
578.54	2245.06
578.90	2240.82
579.25	2235.25
579.60	2230.24
579.95	2225.28
580.30	2220.26
580.66	2215.11
581.01	2210.22
581.36	2205.31
581.71	2200.93
582.06	2196.52
582.42	2192.05
582.77	2186.74
583.12	2182.19
583.47	2177.36
583.82	2172.35
584.17	2167.11
584.53	2161.48
584.88	2155.94
585.23	2150.17
585.58	2144.63
585.93	2139.36
586.28	2134.66
586.63	2129.67
586.98	2124.73
587.34	2119.93
587.69	2115.07
588.04	2109.78
588.39	2104.23
588.74	2097.81
589.09	2091.76
589.44	2084.96
589.79	2078.96
590.14	2073.49
590.49	2066.81
590.84	2060.54
591.19	2054.50
591.54	2048.03
591.89	2040.66
592.25	2033.92
592.60	2026.73
592.95	2019.18
593.30	2011.70
593.65	2004.18
594.00	1997.16
594.35	1989.78
594.70	1981.96
595.05	1974.79
595.40	1967.63
595.75	1960.16
596.10	1953.91
596.45	1947.15
596.80	1940.96
597.15	1934.36
597.50	1927.11
597.85	1920.77
598.19	1914.05
598.54	1906.95
598.89	1900.42
599.24	1894.54
599.59	1887.49
599.94	1881.31
600.29	1874.95
600.64	1868.41
600.99	1860.95
601.34	1853.97
601.69	1847.17
602.04	1840.09
602.39	1832.56
602.74	1825.66
603.08	1818.77
603.43	1812.10
603.78	1804.82
604.13	1797.59
604.48	1790.18
604.83	1783.39
605.18	1776.41
605.53	1768.35
605.87	1760.29
606.22	1752.89
606.57	1744.97
606.92	1737.82
607.27	1730.64
607.62	1723.73
607.96	1716.41
608.31	1709.72
608.66	1702.30
609.01	1694.65
609.36	1687.17
609.70	1679.33
610.05	1671.23
610.40	1663.47
610.75	1655.02
611.10	1647.34
611.44	1638.97
611.79	1631.07
612.14	1622.33
612.49	1613.27
612.83	1604.99
613.18	1596.94
613.53	1588.91
613.88	1580.30
614.22	1572.05
614.57	1563.46
614.92	1555.34
615.27	1547.70
615.61	1539.38
615.96	1531.33
616.31	1523.71
616.65	1516.28
617.00	1508.71
617.35	1501.03
617.70	1492.84
618.04	1484.44
618.39	1476.28
618.74	1468.65
619.08	1460.35
619.43	1452.80
619.78	1445.86
620.12	1438.67
620.47	1431.06
620.82	1422.99
621.16	1415.64
621.51	1408.10
621.85	1400.42
622.20	1391.90
622.55	1383.61
622.89	1375.73
623.24	1368.14
623.59	1360.65
623.93	1353.06
624.28	1345.80
624.62	1338.44
624.97	1331.18
625.32	1324.34
625.66	1317.22
626.01	1309.98
626.35	1302.52
626.70	1294.77
627.04	1287.01
627.39	1279.21
627.73	1271.93
628.08	1264.96
628.43	1257.61
628.77	1250.26
629.12	1242.70
629.46	1235.60
629.81	1228.26
630.15	1221.07
630.50	1213.54
630.84	1205.42
631.19	1197.60
631.53	1190.12
631.88	1182.50
632.22	1174.99
632.57	1167.70
632.91	1160.13
633.26	1152.72
633.60	1145.40
633.95	1138.31
634.29	1131.28
634.64	1124.64
634.98	1117.17
635.32	1110.02
635.67	1103.50
636.01	1096.81
636.36	1090.02
636.70	1083.52
637.05	1076.83
637.39	1070.30
637.73	1063.85
638.08	1057.99
638.42	1051.97
638.77	1045.47
639.11	1038.87
639.45	1032.53
639.80	1025.85
640.14	1019.52
640.49	1012.98
640.83	1006.67
641.17	1000.43
641.52	994.10
641.86	987.59
642.20	981.75
642.55	975.42
642.89	968.82
643.23	962.27
643.58	956.61
643.92	950.38
644.26	944.34
644.61	938.40
644.95	932.30
645.29	925.72
645.64	919.00
645.98	912.67
646.32	906.87
646.66	900.74
647.01	894.95
647.35	889.17
647.69	883.42
648.04	877.92
648.38	872.15
648.72	866.04
649.06	860.02
649.41	854.17
649.75	848.09
650.09	842.23
650.43	836.45
650.78	830.21
651.12	824.25
651.46	818.55
651.80	812.76
652.14	807.41
652.49	801.99
652.83	796.87
653.17	791.15
653.51	785.29
653.85	779.92
654.20	774.31
654.54	768.36
654.88	762.62
655.22	756.71
655.56	751.08
655.90	745.71
656.25	740.46
656.59	735.10
656.93	730.08
657.27	724.90
657.61	719.45
657.95	714.35
658.29	709.22
658.64	704.04
658.98	698.78
659.32	693.30
659.66	688.14
660.00	682.73
660.34	677.87
660.68	673.05
661.02	667.99
661.36	663.26
661.70	658.73
662.05	654.34
662.39	649.95
662.73	645.47
663.07	641.07
663.41	636.62
663.75	632.18
664.09	627.58
664.43	623.19
664.77	619.09
665.11	614.90
665.45	610.80
665.79	606.66
666.13	602.49
666.47	598.42
666.81	594.23
667.15	590.18
667.49	586.22
667.83	582.41
668.17	578.53
668.51	574.45
668.85	570.45
669.19	566.65
669.53	562.81
669.87	558.92
670.21	555.26
670.55	551.65
670.89	548.19
671.23	544.82
671.57	541.30
671.91	537.70
672.25	534.17
672.58	530.64
672.92	527.27
673.26	524.09
673.60	520.93
673.94	517.82
674.28	514.87
674.62	512.01
674.96	508.89
675.30	505.95
675.64	502.98
675.97	500.22
676.31	497.33
676.65	494.43
676.99	491.70
677.33	488.86
677.67	486.00
678.01	482.97
678.34	479.98
678.68	477.11
679.02	474.36
679.36	471.58
679.70	468.86
680.04	466.13
680.37	463.29
680.71	460.50
681.05	457.86
681.39	455.09
681.73	452.43
682.06	449.90
682.40	447.33
682.74	444.83
683.08	442.24
683.42	439.67
683.75	437.17
684.09	434.60
684.43	432.13
684.77	429.67
685.10	427.31
685.44	424.97
685.78	422.71
686.12	420.42
686.45	418.15
686.79	415.89
687.13	413.63
687.46	411.52
687.80	409.33
688.14	407.15
688.48	405.16
688.81	402.94
689.15	400.80
689.49	398.66
689.82	396.58
690.16	394.54
690.50	392.55
690.83	390.63
691.17	388.68
691.51	386.74
691.84	384.93
692.18	382.98
692.52	381.02
692.85	379.10
693.19	377.19
693.52	375.36
693.86	373.56
694.20	371.80
694.53	369.95
694.87	368.16
695.21	366.38
695.54	364.54
695.88	362.77
696.21	361.07
696.55	359.41
696.88	357.72
697.22	356.09
697.56	354.48
697.89	352.82
698.23	351.20
698.56	349.55
698.90	347.93
699.23	346.30
699.57	344.77
699.90	343.19
700.24	341.69
700.58	340.15
700.91	338.60
701.25	337.15
701.58	335.77
701.92	334.37
702.25	332.99
702.59	331.62
702.92	330.27
703.26	328.94
703.59	327.63
703.93	326.45
704.26	325.20
704.60	323.92
704.93	322.65
705.26	321.38
705.60	320.23
705.93	319.07
706.27	318.00
706.60	316.96
706.94	315.89
707.27	314.78
707.61	313.74
707.94	312.75
708.27	311.64
708.61	310.58
708.94	309.53
709.28	308.55
709.61	307.62
709.94	306.68
710.28	305.65
710.61	304.72
710.95	303.65
711.28	302.73
711.61	301.76
711.95	300.83
712.28	299.89
712.61	298.92
712.95	297.98
713.28	297.15
713.61	296.24
713.95	295.36
714.28	294.51
714.61	293.65
714.95	292.79
715.28	291.92
715.61	291.04
715.95	290.22
716.28	289.30
716.61	288.45
716.95	287.62
717.28	286.89
717.61	286.12
717.94	285.37
718.28	284.57
718.61	283.85
718.94	283.18
719.27	282.58
719.61	281.93
719.94	281.29
720.27	280.58
720.60	279.93
720.94	279.29
721.27	278.69
721.60	278.10
721.93	277.48
722.27	276.97
722.60	276.45
722.93	275.87
723.26	275.37
723.59	274.84
723.93	274.28
724.26	273.73
724.59	273.18
724.92	272.65
725.25	272.14
725.59	271.65
725.92	271.15
726.25	270.58
726.58	270.11
726.91	269.58
727.24	269.09
727.57	268.62
727.91	268.13
728.24	267.67
728.57	267.20
728.90	266.78
729.23	266.28
729.56	265.82
729.89	265.36
730.22	264.89
730.55	264.39
730.89	263.96
731.22	263.51
731.55	263.04
731.88	262.67
732.21	262.24
732.54	261.79
732.87	261.35
733.20	260.98
733.53	260.59
733.86	260.25
734.19	259.85
734.52	259.47
734.85	259.15
735.18	258.75
735.51	258.40
735.84	258.00
736.17	257.66
736.50	257.27
736.83	257.08
737.16	256.76
737.49	256.45
737.82	256.10
738.15	255.79
738.48	255.46
738.81	255.08
739.14	254.76
739.47	254.43
739.80	254.10
740.13	253.80
740.46	253.45
740.79	253.09
741.12	252.79
741.45	252.47
741.78	252.12
742.11	251.85
742.44	251.51
742.77	251.21
743.10	250.90
743.43	250.61
743.75	250.21
744.08	250.04
744.41	249.76
744.74	249.52
745.07	249.19
745.40	248.96
745.73	248.74
746.06	248.44
746.39	248.19
746.71	247.92
747.04	247.65
747.37	247.40
747.70	247.12
748.03	246.82
748.36	246.59
748.68	246.36
749.01	246.05
749.34	245.81
749.67	245.58
750.00	245.37
750.33	245.21
750.65	244.99
750.98	244.63
751.31	244.39
751.64	244.15
751.97	244.01
752.29	243.80
752.62	243.52
752.95	243.33
753.28	243.13
753.60	242.94
753.93	242.75
754.26	242.56
754.59	242.39
754.91	242.21
755.24	242.04
755.57	241.82
755.90	241.67
756.22	241.49
756.55	241.33
756.88	241.14
757.20	240.91
757.53	240.69
757.86	240.52
758.19	240.37
758.51	240.21
758.84	239.99
759.17	239.78
759.49	239.65
759.82	239.53
760.15	239.40
760.47	239.24
760.80	239.03
761.13	238.89
761.45	238.72
761.78	238.57
762.11	238.41
762.43	238.29
762.76	238.13
763.08	238.01
763.41	237.86
763.74	237.73
764.06	237.56
764.39	237.44
764.71	237.31
765.04	237.19
765.37	237.09
765.69	236.98
766.02	236.86
766.34	236.75
766.67	236.57
767.00	236.44
767.32	236.36
767.65	236.33
767.97	236.23
768.30	236.17
768.62	236.03
768.95	235.91
769.27	235.80
769.60	235.74
769.92	235.60
770.25	235.47
770.57	235.36
770.90	235.27
771.22	235.14
771.55	235.02
771.87	234.93
772.20	234.80
772.52	234.77
772.85	234.82
773.17	234.72
773.50	234.65
773.82	234.52
774.15	234.37
774.47	234.22
774.80	234.12
775.12	234.00
775.45	233.94
775.77	233.87
776.09	233.77
776.42	233.67
776.74	233.63
777.07	233.58
777.39	233.50
777.72	233.44
778.04	233.40
778.36	233.34
778.69	233.26
779.01	233.18
779.33	233.07
779.66	232.88
779.98	232.81
780.31	232.76
780.63	232.78
780.95	232.76
781.28	232.71
781.60	232.64
781.92	232.57
782.25	232.54
782.57	232.51
782.89	232.47
783.22	232.40
783.54	232.30
783.86	232.21
784.19	232.10
784.51	232.07
784.83	232.01
785.16	231.95
785.48	231.91
785.80	231.87
786.12	231.78
786.45	231.73
786.77	231.67
787.09	231.61
