SpectraSuite Data File
++++++++++++++++++++++++++++++++++++
Date: Fri Feb 01 16:39:44 EST 2013
User: group
Dark Spectrum Present: No
Reference Spectrum Present: No
Number of Sampled Component Spectra: 1
Spectrometers: USB2E7196
Integration Time (usec): 35000 (USB2E7196)
Spectra Averaged: 100 (USB2E7196)
Boxcar Smoothing: 10 (USB2E7196)
Correct for Electrical Dark: No (USB2E7196)
Strobe/Lamp Enabled: No (USB2E7196)
Correct for Detector Non-linearity: No (USB2E7196)
Correct for Stray Light: No (USB2E7196)
Number of Pixels in Processed Spectrum: 2048
>>>>>Begin Processed Spectral Data<<<<<
339.09	0.00
339.48	213.54
339.86	214.91
340.24	216.98
340.63	218.38
341.01	221.05
341.39	220.58
341.78	221.78
342.16	223.25
342.54	223.70
342.93	212.07
343.31	222.80
343.69	223.35
344.07	223.84
344.46	224.21
344.84	224.57
345.22	224.80
345.60	225.04
345.99	225.24
346.37	225.36
346.75	225.44
347.13	225.49
347.52	225.54
347.90	225.61
348.28	225.60
348.66	225.66
349.05	225.66
349.43	225.69
349.81	225.73
350.19	225.74
350.57	225.82
350.96	225.90
351.34	225.95
351.72	226.02
352.10	226.09
352.48	226.18
352.87	226.22
353.25	226.28
353.63	226.36
354.01	226.42
354.39	226.49
354.77	226.58
355.15	226.67
355.54	226.72
355.92	226.75
356.30	226.85
356.68	226.97
357.06	227.07
357.44	227.10
357.82	227.15
358.20	227.21
358.58	227.26
358.97	227.33
359.35	227.43
359.73	227.49
360.11	227.52
360.49	227.60
360.87	227.64
361.25	227.66
361.63	227.75
362.01	227.78
362.39	227.79
362.77	227.86
363.15	227.88
363.53	227.92
363.91	227.93
364.29	227.98
364.67	227.90
365.05	227.93
365.43	227.99
365.81	228.02
366.19	228.08
366.57	228.14
366.95	228.13
367.33	228.11
367.71	228.12
368.09	228.15
368.47	228.12
368.85	228.14
369.23	228.19
369.61	228.13
369.99	228.13
370.37	228.15
370.75	228.16
371.13	228.13
371.51	228.10
371.89	228.08
372.27	228.06
372.65	228.05
373.03	227.99
373.41	227.93
373.78	227.88
374.16	227.79
374.54	227.71
374.92	227.65
375.30	227.60
375.68	227.53
376.06	227.46
376.44	227.41
376.82	227.34
377.19	227.28
377.57	227.23
377.95	227.15
378.33	227.09
378.71	226.97
379.09	226.95
379.47	226.91
379.84	226.85
380.22	226.75
380.60	226.67
380.98	226.61
381.36	226.53
381.73	226.48
382.11	226.43
382.49	226.36
382.87	226.33
383.25	226.28
383.62	226.35
384.00	226.29
384.38	226.26
384.76	226.26
385.13	226.19
385.51	226.12
385.89	226.05
386.27	226.02
386.64	225.98
387.02	225.89
387.40	225.81
387.78	225.79
388.15	225.77
388.53	225.72
388.91	225.68
389.29	225.66
389.66	225.65
390.04	225.61
390.42	225.60
390.79	225.56
391.17	225.54
391.55	225.40
391.92	225.37
392.30	225.35
392.68	225.31
393.05	225.31
393.43	225.31
393.81	225.35
394.18	225.28
394.56	225.27
394.94	225.30
395.31	225.36
395.69	225.38
396.06	225.39
396.44	225.41
396.82	225.43
397.19	225.53
397.57	225.55
397.95	225.61
398.32	225.65
398.70	225.70
399.07	225.75
399.45	225.83
399.82	225.90
400.20	225.96
400.58	226.01
400.95	226.06
401.33	226.15
401.70	226.27
402.08	226.40
402.45	226.50
402.83	226.62
403.20	226.70
403.58	226.80
403.95	226.93
404.33	227.08
404.71	227.20
405.08	227.32
405.46	227.46
405.83	227.62
406.21	227.75
406.58	227.89
406.96	228.04
407.33	228.22
407.70	228.41
408.08	228.66
408.45	228.88
408.83	229.12
409.20	229.33
409.58	229.54
409.95	229.79
410.33	230.06
410.70	230.28
411.08	230.57
411.45	230.89
411.82	231.20
412.20	231.55
412.57	231.98
412.95	232.27
413.32	232.68
413.69	233.05
414.07	233.48
414.44	233.92
414.82	234.42
415.19	234.95
415.56	235.48
415.94	236.01
416.31	236.65
416.68	237.30
417.06	237.98
417.43	238.63
417.81	239.38
418.18	240.15
418.55	241.03
418.93	241.92
419.30	242.80
419.67	243.72
420.04	244.67
420.42	245.63
420.79	246.81
421.16	247.94
421.54	249.15
421.91	250.34
422.28	251.61
422.66	252.95
423.03	254.25
423.40	255.61
423.77	256.98
424.15	258.40
424.52	259.82
424.89	261.44
425.26	262.98
425.64	264.45
426.01	266.06
426.38	267.69
426.75	269.30
427.13	271.03
427.50	272.83
427.87	274.65
428.24	276.49
428.61	278.22
428.99	280.14
429.36	282.22
429.73	284.25
430.10	286.26
430.47	288.26
430.85	290.33
431.22	292.50
431.59	294.87
431.96	297.05
432.33	299.55
432.70	301.87
433.08	304.63
433.45	307.22
433.82	309.76
434.19	312.59
434.56	315.40
434.93	317.98
435.30	320.55
435.68	323.44
436.05	326.27
436.42	329.04
436.79	331.52
437.16	334.19
437.53	337.05
437.90	339.82
438.27	342.55
438.64	345.44
439.01	348.01
439.38	350.23
439.75	352.35
440.13	354.79
440.50	357.15
440.87	359.04
441.24	360.97
441.61	363.12
441.98	364.61
442.35	366.40
442.72	368.30
443.09	370.09
443.46	371.06
443.83	371.66
444.20	372.14
444.57	373.00
444.94	373.24
445.31	373.52
445.68	373.86
446.05	373.88
446.42	373.42
446.79	372.99
447.16	372.56
447.53	372.29
447.90	371.11
448.27	369.93
448.64	368.33
449.01	367.19
449.37	365.20
449.74	363.34
450.11	361.13
450.48	358.66
450.85	356.14
451.22	354.02
451.59	351.99
451.96	350.10
452.33	347.47
452.70	345.16
453.07	342.41
453.43	339.54
453.80	336.88
454.17	334.25
454.54	331.71
454.91	329.04
455.28	326.44
455.65	323.99
456.02	321.57
456.38	319.40
456.75	316.74
457.12	314.55
457.49	312.33
457.86	310.17
458.23	308.33
458.59	306.34
458.96	304.25
459.33	302.43
459.70	300.56
460.07	299.08
460.43	297.42
460.80	295.79
461.17	294.38
461.54	292.87
461.91	291.44
462.27	290.04
462.64	288.77
463.01	287.42
463.38	286.16
463.74	284.80
464.11	283.69
464.48	282.70
464.85	281.60
465.21	280.75
465.58	279.83
465.95	278.77
466.32	277.85
466.68	277.00
467.05	276.11
467.42	275.25
467.78	274.33
468.15	273.45
468.52	272.81
468.88	271.96
469.25	271.18
469.62	270.60
469.98	269.97
470.35	269.35
470.72	268.74
471.08	268.11
471.45	267.60
471.82	267.05
472.18	266.46
472.55	266.04
472.92	265.53
473.28	265.06
473.65	264.60
474.02	264.21
474.38	263.84
474.75	263.54
475.11	263.21
475.48	262.97
475.85	262.78
476.21	262.55
476.58	262.39
476.94	262.26
477.31	262.10
477.67	261.95
478.04	261.90
478.41	261.87
478.77	261.92
479.14	261.88
479.50	261.91
479.87	262.02
480.23	262.12
480.60	262.22
480.96	262.33
481.33	262.56
481.69	262.75
482.06	262.94
482.42	263.16
482.79	263.41
483.15	263.72
483.52	264.05
483.88	264.41
484.25	264.79
484.61	265.21
484.98	265.65
485.34	266.20
485.71	266.79
486.07	267.38
486.44	267.93
486.80	268.61
487.17	269.30
487.53	270.08
487.90	270.90
488.26	271.78
488.62	272.77
488.99	273.74
489.35	274.77
489.72	275.91
490.08	277.08
490.44	278.35
490.81	279.71
491.17	281.08
491.54	282.58
491.90	284.12
492.26	285.78
492.63	287.53
492.99	289.29
493.36	291.12
493.72	293.18
494.08	295.29
494.45	297.56
494.81	299.97
495.17	302.41
495.54	304.98
495.90	307.72
496.26	310.50
496.63	313.49
496.99	316.60
497.35	319.89
497.72	323.34
498.08	326.85
498.44	330.48
498.80	334.43
499.17	338.49
499.53	342.68
499.89	347.08
500.26	351.56
500.62	356.24
500.98	361.24
501.34	366.30
501.71	371.62
502.07	377.04
502.43	382.65
502.79	388.46
503.16	394.58
503.52	400.80
503.88	407.23
504.24	413.82
504.60	420.77
504.97	427.90
505.33	435.23
505.69	442.95
506.05	450.74
506.41	458.59
506.78	466.69
507.14	475.14
507.50	483.82
507.86	492.84
508.22	502.00
508.59	511.17
508.95	520.71
509.31	530.50
509.67	540.57
510.03	550.87
510.39	561.44
510.75	572.19
511.12	583.11
511.48	594.37
511.84	605.78
512.20	617.21
512.56	629.06
512.92	641.17
513.28	653.54
513.64	665.96
514.00	678.63
514.37	691.60
514.73	704.63
515.09	717.59
515.45	730.83
515.81	744.47
516.17	758.43
516.53	772.50
516.89	786.67
517.25	800.76
517.61	815.11
517.97	829.48
518.33	843.83
518.69	858.56
519.05	873.42
519.41	888.54
519.77	903.97
520.13	919.44
520.49	934.78
520.85	950.04
521.21	965.67
521.57	981.88
521.93	997.50
522.29	1013.76
522.65	1029.94
523.01	1046.09
523.37	1062.00
523.73	1078.01
524.09	1094.02
524.45	1110.09
524.81	1126.66
525.17	1143.29
525.53	1160.08
525.89	1176.84
526.25	1193.68
526.61	1210.04
526.97	1226.67
527.33	1243.04
527.68	1259.53
528.04	1275.95
528.40	1292.31
528.76	1309.35
529.12	1325.71
529.48	1342.44
529.84	1358.28
530.20	1374.75
530.56	1391.59
530.91	1408.88
531.27	1425.58
531.63	1442.01
531.99	1458.58
532.35	1474.47
532.71	1490.28
533.07	1506.49
533.42	1522.39
533.78	1538.22
534.14	1554.35
534.50	1569.58
534.86	1585.27
535.21	1600.29
535.57	1615.90
535.93	1631.25
536.29	1645.77
536.65	1660.66
537.00	1675.21
537.36	1690.39
537.72	1704.76
538.08	1719.03
538.44	1732.58
538.79	1746.36
539.15	1759.67
539.51	1773.16
539.87	1787.28
540.22	1800.73
540.58	1814.06
540.94	1826.85
541.29	1839.33
541.65	1851.78
542.01	1864.75
542.37	1876.95
542.72	1889.06
543.08	1900.83
543.44	1913.15
543.79	1924.28
544.15	1935.10
544.51	1946.70
544.87	1957.55
545.22	1968.39
545.58	1978.39
545.94	1988.15
546.29	1997.84
546.65	2007.78
547.01	2017.01
547.36	2025.72
547.72	2034.26
548.07	2042.33
548.43	2050.58
548.79	2058.61
549.14	2066.30
549.50	2073.53
549.86	2081.00
550.21	2088.46
550.57	2095.48
550.92	2102.00
551.28	2109.05
551.64	2116.18
551.99	2122.60
552.35	2128.69
552.70	2134.76
553.06	2140.82
553.41	2147.09
553.77	2152.96
554.13	2158.85
554.48	2164.88
554.84	2170.39
555.19	2175.59
555.55	2180.79
555.90	2185.30
556.26	2190.28
556.61	2194.77
556.97	2199.27
557.32	2203.44
557.68	2207.49
558.03	2211.64
558.39	2215.24
558.74	2219.85
559.10	2223.78
559.45	2227.42
559.81	2231.59
560.16	2235.34
560.52	2238.56
560.87	2241.90
561.23	2244.73
561.58	2247.65
561.94	2250.18
562.29	2252.42
562.64	2255.26
563.00	2257.56
563.35	2261.11
563.71	2264.29
564.06	2267.44
564.42	2270.24
564.77	2273.01
565.12	2275.51
565.48	2277.72
565.83	2279.83
566.19	2281.22
566.54	2282.01
566.89	2283.29
567.25	2284.10
567.60	2285.43
567.96	2287.47
568.31	2288.31
568.66	2289.46
569.02	2290.20
569.37	2290.76
569.72	2291.68
570.08	2291.91
570.43	2292.06
570.78	2291.69
571.14	2290.18
571.49	2289.00
571.84	2288.55
572.20	2287.38
572.55	2286.22
572.90	2284.54
573.26	2283.20
573.61	2281.34
573.96	2279.87
574.31	2276.88
574.67	2274.03
575.02	2270.27
575.37	2266.51
575.72	2262.87
576.08	2259.32
576.43	2255.92
576.78	2252.38
577.13	2249.15
577.49	2245.86
577.84	2242.52
578.19	2238.60
578.54	2235.13
578.90	2231.17
579.25	2225.75
579.60	2220.91
579.95	2216.07
580.30	2211.09
580.66	2205.77
581.01	2200.98
581.36	2195.94
581.71	2191.98
582.06	2187.75
582.42	2183.63
582.77	2178.70
583.12	2174.17
583.47	2170.00
583.82	2165.29
584.17	2159.97
584.53	2154.68
584.88	2149.23
585.23	2143.54
585.58	2138.09
585.93	2132.53
586.28	2127.68
586.63	2122.86
586.98	2117.89
587.34	2113.07
587.69	2108.34
588.04	2103.45
588.39	2097.80
588.74	2091.40
589.09	2085.10
589.44	2078.32
589.79	2072.13
590.14	2066.25
590.49	2059.78
590.84	2053.04
591.19	2046.99
591.54	2040.53
591.89	2033.40
592.25	2026.86
592.60	2019.74
592.95	2012.62
593.30	2005.52
593.65	1997.91
594.00	1990.93
594.35	1983.76
594.70	1975.75
595.05	1968.71
595.40	1961.43
595.75	1954.15
596.10	1948.21
596.45	1941.75
596.80	1935.59
597.15	1929.20
597.50	1922.59
597.85	1916.15
598.19	1909.79
598.54	1903.00
598.89	1896.58
599.24	1890.54
599.59	1883.97
599.94	1877.79
600.29	1871.27
600.64	1864.55
600.99	1857.25
601.34	1850.37
601.69	1843.30
602.04	1836.65
602.39	1829.33
602.74	1822.52
603.08	1815.89
603.43	1809.00
603.78	1801.79
604.13	1794.61
604.48	1787.50
604.83	1780.60
605.18	1773.94
605.53	1766.16
605.87	1758.05
606.22	1750.75
606.57	1742.71
606.92	1735.08
607.27	1728.02
607.62	1721.23
607.96	1714.19
608.31	1707.87
608.66	1700.50
609.01	1693.09
609.36	1685.61
609.70	1677.66
610.05	1669.60
610.40	1661.99
610.75	1653.81
611.10	1646.01
611.44	1637.54
611.79	1629.41
612.14	1620.73
612.49	1611.47
612.83	1602.98
613.18	1594.72
613.53	1586.74
613.88	1578.35
614.22	1570.29
614.57	1561.53
614.92	1553.42
615.27	1545.99
615.61	1537.58
615.96	1529.50
616.31	1521.88
616.65	1514.48
617.00	1506.98
617.35	1499.32
617.70	1491.07
618.04	1482.62
618.39	1474.48
618.74	1467.09
619.08	1458.82
619.43	1451.25
619.78	1444.32
620.12	1437.26
620.47	1429.90
620.82	1421.69
621.16	1414.23
621.51	1406.61
621.85	1399.06
622.20	1390.73
622.55	1382.22
622.89	1374.31
623.24	1366.64
623.59	1359.12
623.93	1351.52
624.28	1344.11
624.62	1336.67
624.97	1329.34
625.32	1322.44
625.66	1315.35
626.01	1308.16
626.35	1300.85
626.70	1293.08
627.04	1285.48
627.39	1277.49
627.73	1270.07
628.08	1263.10
628.43	1256.03
628.77	1248.67
629.12	1241.32
629.46	1234.15
629.81	1226.65
630.15	1219.47
630.50	1212.15
630.84	1204.22
631.19	1196.28
631.53	1188.82
631.88	1181.33
632.22	1173.78
632.57	1166.54
632.91	1159.01
633.26	1151.60
633.60	1144.19
633.95	1137.03
634.29	1129.87
634.64	1123.39
634.98	1116.06
635.32	1109.04
635.67	1102.32
636.01	1095.71
636.36	1088.85
636.70	1082.26
637.05	1075.73
637.39	1069.24
637.73	1062.72
638.08	1056.74
638.42	1050.89
638.77	1044.54
639.11	1037.94
639.45	1031.60
639.80	1024.98
640.14	1018.61
640.49	1012.15
640.83	1005.84
641.17	999.77
641.52	993.50
641.86	986.90
642.20	981.07
642.55	974.70
642.89	968.42
643.23	961.80
643.58	956.06
643.92	949.84
644.26	944.00
644.61	937.97
644.95	931.98
645.29	925.48
645.64	918.68
645.98	912.32
646.32	906.33
646.66	900.25
647.01	894.51
647.35	888.87
647.69	882.91
648.04	877.34
648.38	871.56
648.72	865.58
649.06	859.62
649.41	853.74
649.75	847.89
650.09	841.89
650.43	836.21
650.78	830.07
651.12	824.20
651.46	818.34
651.80	812.68
652.14	807.21
652.49	801.82
652.83	796.68
653.17	791.12
653.51	785.58
653.85	780.20
654.20	774.52
654.54	768.47
654.88	762.73
655.22	756.86
655.56	751.07
655.90	745.67
656.25	740.45
656.59	735.04
656.93	729.85
657.27	724.64
657.61	719.16
657.95	714.05
658.29	708.95
658.64	703.68
658.98	698.29
659.32	692.81
659.66	687.63
660.00	682.39
660.34	677.43
660.68	672.48
661.02	667.45
661.36	662.80
661.70	658.30
662.05	653.99
662.39	649.73
662.73	645.30
663.07	640.83
663.41	636.34
663.75	631.96
664.09	627.41
664.43	623.10
664.77	619.01
665.11	614.77
665.45	610.52
665.79	606.49
666.13	602.38
666.47	598.31
666.81	594.12
667.15	589.93
667.49	585.90
667.83	582.00
668.17	578.04
668.51	574.03
668.85	570.02
669.19	566.13
669.53	562.26
669.87	558.43
670.21	554.79
670.55	551.15
670.89	547.65
671.23	544.20
671.57	540.60
671.91	537.05
672.25	533.45
672.58	530.03
672.92	526.55
673.26	523.37
673.60	520.20
673.94	517.07
674.28	514.11
674.62	511.22
674.96	508.17
675.30	505.27
675.64	502.31
675.97	499.51
676.31	496.64
676.65	493.68
676.99	490.92
677.33	487.98
677.67	485.14
678.01	482.13
678.34	479.19
678.68	476.34
679.02	473.53
679.36	470.77
679.70	467.99
680.04	465.28
680.37	462.42
680.71	459.63
681.05	457.03
681.39	454.34
681.73	451.64
682.06	449.11
682.40	446.52
682.74	443.91
683.08	441.35
683.42	438.75
683.75	436.27
684.09	433.73
684.43	431.31
684.77	428.87
685.10	426.49
685.44	424.18
685.78	421.85
686.12	419.58
686.45	417.31
686.79	415.03
687.13	412.83
687.46	410.68
687.80	408.49
688.14	406.24
688.48	404.22
688.81	402.04
689.15	399.86
689.49	397.74
689.82	395.73
690.16	393.64
690.50	391.69
690.83	389.80
691.17	387.81
691.51	385.88
691.84	384.01
692.18	382.12
692.52	380.17
692.85	378.22
693.19	376.32
693.52	374.49
693.86	372.66
694.20	370.90
694.53	369.09
694.87	367.27
695.21	365.48
695.54	363.60
695.88	361.86
696.21	360.17
696.55	358.49
696.88	356.74
697.22	355.06
697.56	353.41
697.89	351.69
698.23	350.08
698.56	348.50
698.90	346.93
699.23	345.31
699.57	343.76
699.90	342.24
700.24	340.75
700.58	339.25
700.91	337.80
701.25	336.33
701.58	334.99
701.92	333.68
702.25	332.31
702.59	330.95
702.92	329.60
703.26	328.26
703.59	326.96
703.93	325.79
704.26	324.57
704.60	323.29
704.93	322.05
705.26	320.82
705.60	319.57
705.93	318.39
706.27	317.30
706.60	316.25
706.94	315.16
707.27	314.01
707.61	312.93
707.94	311.89
708.27	310.79
708.61	309.67
708.94	308.59
709.28	307.61
709.61	306.68
709.94	305.71
710.28	304.70
710.61	303.72
710.95	302.65
711.28	301.74
711.61	300.78
711.95	299.87
712.28	298.92
712.61	297.98
712.95	297.07
713.28	296.21
713.61	295.25
713.95	294.38
714.28	293.53
714.61	292.70
714.95	291.85
715.28	291.02
715.61	290.15
715.95	289.32
716.28	288.49
716.61	287.61
716.95	286.78
717.28	285.99
717.61	285.24
717.94	284.51
718.28	283.70
718.61	282.96
718.94	282.24
719.27	281.59
719.61	280.93
719.94	280.27
720.27	279.54
720.60	278.93
720.94	278.26
721.27	277.69
721.60	277.07
721.93	276.45
722.27	275.90
722.60	275.35
722.93	274.74
723.26	274.18
723.59	273.64
723.93	273.10
724.26	272.60
724.59	272.06
724.92	271.54
725.25	271.08
725.59	270.61
725.92	270.06
726.25	269.54
726.58	269.06
726.91	268.55
727.24	268.06
727.57	267.54
727.91	267.05
728.24	266.56
728.57	266.09
728.90	265.62
729.23	265.14
729.56	264.71
729.89	264.28
730.22	263.82
730.55	263.33
730.89	262.88
731.22	262.39
731.55	261.93
731.88	261.48
732.21	260.97
732.54	260.51
732.87	260.12
733.20	259.73
733.53	259.32
733.86	258.95
734.19	258.59
734.52	258.25
734.85	257.95
735.18	257.55
735.51	257.15
735.84	256.80
736.17	256.44
736.50	256.06
736.83	255.85
737.16	255.50
737.49	255.20
737.82	254.84
738.15	254.51
738.48	254.16
738.81	253.85
739.14	253.53
739.47	253.26
739.80	252.96
740.13	252.64
740.46	252.32
740.79	252.00
741.12	251.67
741.45	251.34
741.78	250.98
742.11	250.69
742.44	250.38
742.77	250.08
743.10	249.80
743.43	249.51
743.75	249.09
744.08	248.92
744.41	248.66
744.74	248.42
745.07	248.16
745.40	247.90
745.73	247.66
746.06	247.37
746.39	247.07
746.71	246.77
747.04	246.54
747.37	246.24
747.70	245.99
748.03	245.73
748.36	245.48
748.68	245.27
749.01	245.03
749.34	244.84
749.67	244.60
750.00	244.31
750.33	244.14
750.65	243.94
750.98	243.56
751.31	243.33
751.64	243.11
751.97	242.91
752.29	242.72
752.62	242.49
752.95	242.31
753.28	242.07
753.60	241.88
753.93	241.68
754.26	241.51
754.59	241.29
754.91	241.11
755.24	240.92
755.57	240.70
755.90	240.48
756.22	240.25
756.55	240.04
756.88	239.87
757.20	239.65
757.53	239.43
757.86	239.30
758.19	239.14
758.51	238.96
758.84	238.78
759.17	238.62
759.49	238.46
759.82	238.35
760.15	238.22
760.47	238.08
760.80	237.89
761.13	237.75
761.45	237.58
761.78	237.41
762.11	237.28
762.43	237.15
762.76	237.03
763.08	236.92
763.41	236.83
763.74	236.66
764.06	236.51
764.39	236.36
764.71	236.20
765.04	236.03
765.37	235.90
765.69	235.74
766.02	235.63
766.34	235.48
766.67	235.31
767.00	235.21
767.32	235.16
767.65	235.08
767.97	235.01
768.30	234.94
768.62	234.85
768.95	234.73
769.27	234.61
769.60	234.50
769.92	234.38
770.25	234.22
770.57	234.13
770.90	234.05
771.22	233.95
771.55	233.85
771.87	233.77
772.20	233.70
772.52	233.74
772.85	233.69
773.17	233.63
773.50	233.57
773.82	233.47
774.15	233.33
774.47	233.21
774.80	233.09
775.12	232.97
775.45	232.87
775.77	232.78
776.09	232.70
776.42	232.62
776.74	232.57
777.07	232.51
777.39	232.44
777.72	232.34
778.04	232.27
778.36	232.26
778.69	232.22
779.01	232.12
779.33	231.99
779.66	231.86
779.98	231.77
780.31	231.70
780.63	231.68
780.95	231.61
781.28	231.55
781.60	231.46
781.92	231.43
782.25	231.38
782.57	231.34
782.89	231.30
783.22	231.24
783.54	231.19
783.86	231.14
784.19	231.08
784.51	231.07
784.83	231.02
785.16	230.94
785.48	230.90
785.80	230.86
786.12	230.77
786.45	230.72
786.77	230.67
787.09	230.63
