SpectraSuite Data File
++++++++++++++++++++++++++++++++++++
Date: Fri Feb 01 18:16:23 EST 2013
User: group
Dark Spectrum Present: No
Reference Spectrum Present: No
Number of Sampled Component Spectra: 1
Spectrometers: USB2E7196
Integration Time (usec): 35000 (USB2E7196)
Spectra Averaged: 100 (USB2E7196)
Boxcar Smoothing: 10 (USB2E7196)
Correct for Electrical Dark: No (USB2E7196)
Strobe/Lamp Enabled: No (USB2E7196)
Correct for Detector Non-linearity: No (USB2E7196)
Correct for Stray Light: No (USB2E7196)
Number of Pixels in Processed Spectrum: 2048
>>>>>Begin Processed Spectral Data<<<<<
339.09	0.00
339.48	213.24
339.86	214.71
340.24	216.21
340.63	217.15
341.01	220.77
341.39	219.78
341.78	221.51
342.16	222.65
342.54	222.75
342.93	211.56
343.31	222.28
343.69	222.79
344.07	223.25
344.46	223.66
344.84	224.06
345.22	224.25
345.60	224.50
345.99	224.68
346.37	224.79
346.75	224.92
347.13	224.96
347.52	225.00
347.90	225.09
348.28	225.12
348.66	225.17
349.05	225.20
349.43	225.24
349.81	225.29
350.19	225.36
350.57	225.40
350.96	225.49
351.34	225.54
351.72	225.64
352.10	225.74
352.48	225.79
352.87	225.85
353.25	225.94
353.63	226.03
354.01	226.11
354.39	226.20
354.77	226.26
355.15	226.36
355.54	226.40
355.92	226.47
356.30	226.58
356.68	226.72
357.06	226.77
357.44	226.81
357.82	226.84
358.20	226.92
358.58	226.99
358.97	227.07
359.35	227.18
359.73	227.27
360.11	227.33
360.49	227.41
360.87	227.43
361.25	227.48
361.63	227.55
362.01	227.57
362.39	227.59
362.77	227.63
363.15	227.67
363.53	227.72
363.91	227.73
364.29	227.73
364.67	227.64
365.05	227.65
365.43	227.70
365.81	227.73
366.19	227.75
366.57	227.80
366.95	227.78
367.33	227.74
367.71	227.71
368.09	227.73
368.47	227.71
368.85	227.69
369.23	227.69
369.61	227.61
369.99	227.63
370.37	227.62
370.75	227.66
371.13	227.61
371.51	227.53
371.89	227.49
372.27	227.47
372.65	227.44
373.03	227.41
373.41	227.34
373.78	227.29
374.16	227.21
374.54	227.11
374.92	227.06
375.30	227.02
375.68	226.96
376.06	226.88
376.44	226.82
376.82	226.79
377.19	226.72
377.57	226.67
377.95	226.58
378.33	226.51
378.71	226.37
379.09	226.32
379.47	226.30
379.84	226.23
380.22	226.17
380.60	226.10
380.98	226.05
381.36	225.99
381.73	225.91
382.11	225.85
382.49	225.82
382.87	225.75
383.25	225.69
383.62	225.74
384.00	225.66
384.38	225.63
384.76	225.61
385.13	225.59
385.51	225.56
385.89	225.49
386.27	225.46
386.64	225.44
387.02	225.38
387.40	225.33
387.78	225.32
388.15	225.26
388.53	225.23
388.91	225.18
389.29	225.13
389.66	225.15
390.04	225.12
390.42	225.09
390.79	225.07
391.17	225.05
391.55	224.94
391.92	224.92
392.30	224.91
392.68	224.87
393.05	224.88
393.43	224.86
393.81	224.86
394.18	224.86
394.56	224.86
394.94	224.92
395.31	224.93
395.69	224.94
396.06	225.01
396.44	225.07
396.82	225.11
397.19	225.21
397.57	225.23
397.95	225.29
398.32	225.32
398.70	225.38
399.07	225.46
399.45	225.51
399.82	225.57
400.20	225.62
400.58	225.67
400.95	225.71
401.33	225.81
401.70	225.96
402.08	226.04
402.45	226.14
402.83	226.24
403.20	226.36
403.58	226.47
403.95	226.56
404.33	226.68
404.71	226.78
405.08	226.95
405.46	227.07
405.83	227.27
406.21	227.42
406.58	227.61
406.96	227.78
407.33	228.02
407.70	228.28
408.08	228.58
408.45	228.89
408.83	229.22
409.20	229.48
409.58	229.74
409.95	230.08
410.33	230.43
410.70	230.76
411.08	231.14
411.45	231.56
411.82	231.98
412.20	232.43
412.57	233.02
412.95	233.46
413.32	234.03
413.69	234.58
414.07	235.19
414.44	235.87
414.82	236.56
415.19	237.31
415.56	238.08
415.94	238.87
416.31	239.76
416.68	240.58
417.06	241.59
417.43	242.51
417.81	243.56
418.18	244.65
418.55	245.83
418.93	247.05
419.30	248.32
419.67	249.62
420.04	250.98
420.42	252.39
420.79	253.98
421.16	255.59
421.54	257.25
421.91	258.97
422.28	260.73
422.66	262.56
423.03	264.34
423.40	266.21
423.77	268.19
424.15	270.20
424.52	272.35
424.89	274.63
425.26	276.85
425.64	278.90
426.01	281.17
426.38	283.50
426.75	285.88
427.13	288.30
427.50	290.90
427.87	293.57
428.24	296.20
428.61	298.74
428.99	301.52
429.36	304.55
429.73	307.50
430.10	310.35
430.47	313.27
430.85	316.28
431.22	319.47
431.59	322.78
431.96	325.93
432.33	329.37
432.70	332.74
433.08	336.65
433.45	340.40
433.82	344.08
434.19	348.16
434.56	352.11
434.93	355.87
435.30	359.53
435.68	363.57
436.05	367.56
436.42	371.44
436.79	374.93
437.16	378.70
437.53	382.65
437.90	386.63
438.27	390.49
438.64	394.50
439.01	398.11
439.38	401.32
439.75	404.41
440.13	407.95
440.50	411.24
440.87	413.93
441.24	416.69
441.61	419.72
441.98	421.83
442.35	424.40
442.72	427.04
443.09	429.70
443.46	431.14
443.83	431.95
444.20	432.69
444.57	433.90
444.94	434.39
445.31	434.85
445.68	435.30
446.05	435.43
446.42	434.95
446.79	434.38
447.16	433.77
447.53	433.33
447.90	431.69
448.27	430.06
448.64	427.77
449.01	426.19
449.37	423.39
449.74	420.67
450.11	417.41
450.48	413.90
450.85	410.21
451.22	407.14
451.59	404.28
451.96	401.54
452.33	397.87
452.70	394.45
453.07	390.49
453.43	386.41
453.80	382.49
454.17	378.66
454.54	375.06
454.91	371.21
455.28	367.43
455.65	363.89
456.02	360.32
456.38	357.28
456.75	353.49
457.12	350.33
457.49	347.19
457.86	344.17
458.23	341.54
458.59	338.66
458.96	335.71
459.33	333.07
459.70	330.44
460.07	328.28
460.43	325.84
460.80	323.51
461.17	321.46
461.54	319.28
461.91	317.24
462.27	315.19
462.64	313.38
463.01	311.42
463.38	309.54
463.74	307.68
464.11	306.06
464.48	304.58
464.85	302.97
465.21	301.71
465.58	300.44
465.95	298.90
466.32	297.59
466.68	296.32
467.05	295.09
467.42	293.80
467.78	292.49
468.15	291.28
468.52	290.33
468.88	289.10
469.25	288.03
469.62	287.12
469.98	286.15
470.35	285.22
470.72	284.40
471.08	283.53
471.45	282.77
471.82	281.98
472.18	281.09
472.55	280.44
472.92	279.71
473.28	279.00
473.65	278.32
474.02	277.68
474.38	277.12
474.75	276.63
475.11	276.12
475.48	275.70
475.85	275.31
476.21	274.98
476.58	274.71
476.94	274.46
477.31	274.20
477.67	273.91
478.04	273.69
478.41	273.52
478.77	273.43
479.14	273.22
479.50	273.15
479.87	273.20
480.23	273.25
480.60	273.25
480.96	273.28
481.33	273.45
481.69	273.61
482.06	273.80
482.42	273.90
482.79	274.08
483.15	274.37
483.52	274.73
483.88	275.00
484.25	275.33
484.61	275.74
484.98	276.15
485.34	276.71
485.71	277.31
486.07	277.91
486.44	278.48
486.80	279.23
487.17	279.94
487.53	280.75
487.90	281.62
488.26	282.57
488.62	283.62
488.99	284.63
489.35	285.69
489.72	286.79
490.08	288.06
490.44	289.40
490.81	290.80
491.17	292.22
491.54	293.77
491.90	295.39
492.26	297.14
492.63	298.96
492.99	300.81
493.36	302.83
493.72	305.00
494.08	307.25
494.45	309.65
494.81	312.19
495.17	314.74
495.54	317.48
495.90	320.33
496.26	323.26
496.63	326.40
496.99	329.70
497.35	333.17
497.72	336.82
498.08	340.59
498.44	344.49
498.80	348.71
499.17	353.03
499.53	357.51
499.89	362.19
500.26	367.02
500.62	372.08
500.98	377.45
501.34	382.88
501.71	388.59
502.07	394.40
502.43	400.45
502.79	406.73
503.16	413.25
503.52	420.01
503.88	426.94
504.24	434.08
504.60	441.49
504.97	449.21
505.33	457.08
505.69	465.37
506.05	473.76
506.41	482.16
506.78	491.01
507.14	500.13
507.50	509.54
507.86	519.33
508.22	529.26
508.59	539.19
508.95	549.59
509.31	560.22
509.67	571.12
510.03	582.32
510.39	593.82
510.75	605.58
511.12	617.40
511.48	629.70
511.84	642.14
512.20	654.66
512.56	667.65
512.92	680.86
513.28	694.38
513.64	708.06
514.00	722.04
514.37	736.11
514.73	750.41
515.09	764.69
515.45	779.23
515.81	794.14
516.17	809.53
516.53	825.04
516.89	840.70
517.25	856.42
517.61	872.30
517.97	888.12
518.33	904.02
518.69	920.39
519.05	936.88
519.41	953.68
519.77	970.98
520.13	988.18
520.49	1005.35
520.85	1022.49
521.21	1040.01
521.57	1058.07
521.93	1075.65
522.29	1093.92
522.65	1111.99
523.01	1130.13
523.37	1148.13
523.73	1166.22
524.09	1184.23
524.45	1202.44
524.81	1220.96
525.17	1239.75
525.53	1258.79
525.89	1277.72
526.25	1296.70
526.61	1315.13
526.97	1334.02
527.33	1352.62
527.68	1371.28
528.04	1389.79
528.40	1408.51
528.76	1427.78
529.12	1446.63
529.48	1465.88
529.84	1484.16
530.20	1503.13
530.56	1522.46
530.91	1542.27
531.27	1561.34
531.63	1580.21
531.99	1599.16
532.35	1617.63
532.71	1636.02
533.07	1654.77
533.42	1673.18
533.78	1691.84
534.14	1710.81
534.50	1728.75
534.86	1747.18
535.21	1764.94
535.57	1783.68
535.93	1801.74
536.29	1819.11
536.65	1836.76
537.00	1854.03
537.36	1871.97
537.72	1889.09
538.08	1906.05
538.44	1922.29
538.79	1938.73
539.15	1954.93
539.51	1971.22
539.87	1988.21
540.22	2004.66
540.58	2021.12
540.94	2037.10
541.29	2052.42
541.65	2067.68
542.01	2083.46
542.37	2098.41
542.72	2113.47
543.08	2127.74
543.44	2142.86
543.79	2156.61
544.15	2170.09
544.51	2184.22
544.87	2197.64
545.22	2211.13
545.58	2224.01
545.94	2236.40
546.29	2248.85
546.65	2261.25
547.01	2273.20
547.36	2284.30
547.72	2295.12
548.07	2305.34
548.43	2315.87
548.79	2326.33
549.14	2336.17
549.50	2345.79
549.86	2355.76
550.21	2365.42
550.57	2374.89
550.92	2383.72
551.28	2392.98
551.64	2402.31
551.99	2411.11
552.35	2419.54
552.70	2427.90
553.06	2435.94
553.41	2444.42
553.77	2452.58
554.13	2460.84
554.48	2469.10
554.84	2476.72
555.19	2483.86
555.55	2491.01
555.90	2497.35
556.26	2504.30
556.61	2510.95
556.97	2517.30
557.32	2523.17
557.68	2529.12
558.03	2535.16
558.39	2540.57
558.74	2547.16
559.10	2552.94
559.45	2558.36
559.81	2564.40
560.16	2569.97
560.52	2574.88
560.87	2579.88
561.23	2584.06
561.58	2588.59
561.94	2592.56
562.29	2596.27
562.64	2600.67
563.00	2604.72
563.35	2609.90
563.71	2614.51
564.06	2619.30
564.42	2623.57
564.77	2627.65
565.12	2631.41
565.48	2634.81
565.83	2638.19
566.19	2640.86
566.54	2642.77
566.89	2645.12
567.25	2646.82
567.60	2649.16
567.96	2652.21
568.31	2654.16
568.66	2656.47
569.02	2658.08
569.37	2659.34
569.72	2661.34
570.08	2662.41
570.43	2663.36
570.78	2663.53
571.14	2662.58
571.49	2661.66
571.84	2662.11
572.20	2661.65
572.55	2661.17
572.90	2660.05
573.26	2659.11
573.61	2657.53
573.96	2656.31
574.31	2653.59
574.67	2650.88
575.02	2647.44
575.37	2644.09
575.72	2640.41
576.08	2636.88
576.43	2633.44
576.78	2629.93
577.13	2626.81
577.49	2623.58
577.84	2620.14
578.19	2616.35
578.54	2612.78
578.90	2608.62
579.25	2602.56
579.60	2597.29
579.95	2591.87
580.30	2586.45
580.66	2580.76
581.01	2575.49
581.36	2570.14
581.71	2565.74
582.06	2561.10
582.42	2556.24
582.77	2550.57
583.12	2545.67
583.47	2540.82
583.82	2535.71
584.17	2529.81
584.53	2523.67
584.88	2517.54
585.23	2511.05
585.58	2505.00
585.93	2498.81
586.28	2493.45
586.63	2487.82
586.98	2482.22
587.34	2476.90
587.69	2471.42
588.04	2465.69
588.39	2459.33
588.74	2451.95
589.09	2444.89
589.44	2436.94
589.79	2429.98
590.14	2423.53
590.49	2415.91
590.84	2408.44
591.19	2401.41
591.54	2394.00
591.89	2385.64
592.25	2377.78
592.60	2369.46
592.95	2360.66
593.30	2352.15
593.65	2343.32
594.00	2335.22
594.35	2326.72
594.70	2317.37
595.05	2309.07
595.40	2300.45
595.75	2291.69
596.10	2284.60
596.45	2276.71
596.80	2269.69
597.15	2262.01
597.50	2253.70
597.85	2246.02
598.19	2238.38
598.54	2230.04
598.89	2222.25
599.24	2215.16
599.59	2207.37
599.94	2200.05
600.29	2192.44
600.64	2184.60
600.99	2175.85
601.34	2167.65
601.69	2159.27
602.04	2151.14
602.39	2142.54
602.74	2134.37
603.08	2126.38
603.43	2118.29
603.78	2109.53
604.13	2100.78
604.48	2092.23
604.83	2084.02
605.18	2075.90
605.53	2066.40
605.87	2056.72
606.22	2048.04
606.57	2038.64
606.92	2029.64
607.27	2021.01
607.62	2012.84
607.96	2004.05
608.31	1996.04
608.66	1987.13
609.01	1978.18
609.36	1969.15
609.70	1959.41
610.05	1949.69
610.40	1940.49
610.75	1930.51
611.10	1921.39
611.44	1911.25
611.79	1901.57
612.14	1891.19
612.49	1880.12
612.83	1869.95
613.18	1860.30
613.53	1850.50
613.88	1840.17
614.22	1830.35
614.57	1820.00
614.92	1810.28
615.27	1801.32
615.61	1791.33
615.96	1781.53
616.31	1772.35
616.65	1763.42
617.00	1754.43
617.35	1745.28
617.70	1735.36
618.04	1725.05
618.39	1715.11
618.74	1706.00
619.08	1696.01
619.43	1686.89
619.78	1678.53
620.12	1669.96
620.47	1660.87
620.82	1651.08
621.16	1642.02
621.51	1632.80
621.85	1623.61
622.20	1613.36
622.55	1603.26
622.89	1593.82
623.24	1584.49
623.59	1575.48
623.93	1566.52
624.28	1557.58
624.62	1548.58
624.97	1539.81
625.32	1531.58
625.66	1523.15
626.01	1514.46
626.35	1505.46
626.70	1496.04
627.04	1486.64
627.39	1477.19
627.73	1468.25
628.08	1459.89
628.43	1451.23
628.77	1442.39
629.12	1433.40
629.46	1424.76
629.81	1415.75
630.15	1406.98
630.50	1398.13
630.84	1388.27
631.19	1378.58
631.53	1369.56
631.88	1360.42
632.22	1351.20
632.57	1342.44
632.91	1333.29
633.26	1324.42
633.60	1315.42
633.95	1306.84
634.29	1298.40
634.64	1290.34
634.98	1281.47
635.32	1272.87
635.67	1264.92
636.01	1256.90
636.36	1248.68
636.70	1240.81
637.05	1232.88
637.39	1225.07
637.73	1217.24
638.08	1210.10
638.42	1202.89
638.77	1195.22
639.11	1187.31
639.45	1179.67
639.80	1171.68
640.14	1164.04
640.49	1156.25
640.83	1148.77
641.17	1141.31
641.52	1133.70
641.86	1125.86
642.20	1118.81
642.55	1111.17
642.89	1103.43
643.23	1095.56
643.58	1088.66
643.92	1081.30
644.26	1074.20
644.61	1067.01
644.95	1059.84
645.29	1052.18
645.64	1044.31
645.98	1036.68
646.32	1029.72
646.66	1022.62
647.01	1015.82
647.35	1009.02
647.69	1002.00
648.04	995.44
648.38	988.63
648.72	981.70
649.06	974.67
649.41	967.66
649.75	960.67
650.09	953.65
650.43	946.90
650.78	939.50
651.12	932.47
651.46	925.72
651.80	918.97
652.14	912.61
652.49	906.18
652.83	899.94
653.17	893.25
653.51	886.52
653.85	880.07
654.20	873.36
654.54	866.26
654.88	859.47
655.22	852.47
655.56	845.71
655.90	839.11
656.25	832.89
656.59	826.61
656.93	820.66
657.27	814.56
657.61	808.09
657.95	802.11
658.29	796.07
658.64	789.80
658.98	783.56
659.32	777.11
659.66	770.97
660.00	764.74
660.34	758.92
660.68	753.03
661.02	747.11
661.36	741.57
661.70	736.31
662.05	731.28
662.39	726.14
662.73	720.92
663.07	715.81
663.41	710.55
663.75	705.23
664.09	699.78
664.43	694.62
664.77	689.80
665.11	684.77
665.45	679.84
665.79	675.05
666.13	670.17
666.47	665.36
666.81	660.47
667.15	655.60
667.49	650.97
667.83	646.49
668.17	641.90
668.51	637.15
668.85	632.33
669.19	627.69
669.53	623.23
669.87	618.58
670.21	614.19
670.55	609.87
670.89	605.81
671.23	601.75
671.57	597.53
671.91	593.31
672.25	589.16
672.58	585.03
672.92	580.97
673.26	577.25
673.60	573.50
673.94	569.86
674.28	566.42
674.62	562.98
674.96	559.30
675.30	555.83
675.64	552.30
675.97	549.03
676.31	545.65
676.65	542.19
676.99	539.05
677.33	535.68
677.67	532.34
678.01	528.78
678.34	525.24
678.68	521.87
679.02	518.59
679.36	515.33
679.70	512.16
680.04	508.86
680.37	505.44
680.71	502.10
681.05	499.00
681.39	495.75
681.73	492.62
682.06	489.65
682.40	486.61
682.74	483.66
683.08	480.61
683.42	477.57
683.75	474.60
684.09	471.58
684.43	468.64
684.77	465.78
685.10	462.99
685.44	460.33
685.78	457.60
686.12	454.91
686.45	452.21
686.79	449.43
687.13	446.85
687.46	444.28
687.80	441.70
688.14	439.00
688.48	436.57
688.81	433.90
689.15	431.38
689.49	428.80
689.82	426.27
690.16	423.81
690.50	421.49
690.83	419.22
691.17	416.83
691.51	414.60
691.84	412.38
692.18	410.14
692.52	407.76
692.85	405.49
693.19	403.27
693.52	401.10
693.86	398.94
694.20	396.82
694.53	394.71
694.87	392.55
695.21	390.44
695.54	388.31
695.88	386.27
696.21	384.20
696.55	382.25
696.88	380.27
697.22	378.31
697.56	376.34
697.89	374.38
698.23	372.48
698.56	370.56
698.90	368.64
699.23	366.72
699.57	364.94
699.90	363.12
700.24	361.26
700.58	359.48
700.91	357.74
701.25	356.03
701.58	354.43
701.92	352.81
702.25	351.14
702.59	349.50
702.92	347.95
703.26	346.41
703.59	344.89
703.93	343.49
704.26	342.01
704.60	340.51
704.93	338.95
705.26	337.49
705.60	336.11
705.93	334.75
706.27	333.50
706.60	332.20
706.94	330.88
707.27	329.53
707.61	328.24
707.94	327.02
708.27	325.70
708.61	324.39
708.94	323.21
709.28	322.09
709.61	320.94
709.94	319.79
710.28	318.57
710.61	317.39
710.95	316.08
711.28	315.02
711.61	313.87
711.95	312.82
712.28	311.70
712.61	310.53
712.95	309.41
713.28	308.34
713.61	307.28
713.95	306.22
714.28	305.26
714.61	304.23
714.95	303.22
715.28	302.22
715.61	301.21
715.95	300.18
716.28	299.12
716.61	298.11
716.95	297.13
717.28	296.23
717.61	295.30
717.94	294.46
718.28	293.47
718.61	292.61
718.94	291.77
719.27	290.97
719.61	290.23
719.94	289.44
720.27	288.57
720.60	287.77
720.94	287.06
721.27	286.35
721.60	285.66
721.93	284.95
722.27	284.31
722.60	283.67
722.93	282.97
723.26	282.37
723.59	281.74
723.93	281.09
724.26	280.46
724.59	279.83
724.92	279.20
725.25	278.64
725.59	278.06
725.92	277.46
726.25	276.87
726.58	276.27
726.91	275.68
727.24	275.11
727.57	274.55
727.91	273.93
728.24	273.37
728.57	272.77
728.90	272.23
729.23	271.62
729.56	271.09
729.89	270.54
730.22	270.01
730.55	269.47
730.89	268.96
731.22	268.43
731.55	267.95
731.88	267.46
732.21	266.95
732.54	266.42
732.87	265.95
733.20	265.46
733.53	264.98
733.86	264.56
734.19	264.10
734.52	263.64
734.85	263.30
735.18	262.82
735.51	262.41
735.84	261.99
736.17	261.61
736.50	261.12
736.83	260.80
737.16	260.37
737.49	259.96
737.82	259.55
738.15	259.15
738.48	258.72
738.81	258.30
739.14	257.91
739.47	257.56
739.80	257.19
740.13	256.82
740.46	256.44
740.79	256.02
741.12	255.67
741.45	255.33
741.78	254.91
742.11	254.58
742.44	254.20
742.77	253.86
743.10	253.51
743.43	253.20
743.75	252.78
744.08	252.58
744.41	252.26
744.74	251.96
745.07	251.62
745.40	251.33
745.73	251.07
746.06	250.75
746.39	250.43
746.71	250.07
747.04	249.75
747.37	249.47
747.70	249.18
748.03	248.87
748.36	248.57
748.68	248.29
749.01	247.95
749.34	247.66
749.67	247.38
750.00	247.08
750.33	246.87
750.65	246.63
750.98	246.21
751.31	245.94
751.64	245.67
751.97	245.45
752.29	245.18
752.62	244.89
752.95	244.64
753.28	244.35
753.60	244.09
753.93	243.87
754.26	243.60
754.59	243.35
754.91	243.13
755.24	242.86
755.57	242.62
755.90	242.43
756.22	242.19
756.55	241.96
756.88	241.75
757.20	241.52
757.53	241.28
757.86	241.09
758.19	240.89
758.51	240.69
758.84	240.48
759.17	240.30
759.49	240.11
759.82	239.97
760.15	239.83
760.47	239.66
760.80	239.46
761.13	239.33
761.45	239.15
761.78	238.98
762.11	238.82
762.43	238.65
762.76	238.47
763.08	238.34
763.41	238.18
763.74	238.01
764.06	237.81
764.39	237.66
764.71	237.50
765.04	237.36
765.37	237.19
765.69	237.04
766.02	236.85
766.34	236.74
766.67	236.56
767.00	236.41
767.32	236.32
767.65	236.28
767.97	236.13
768.30	235.98
768.62	235.87
768.95	235.71
769.27	235.60
769.60	235.52
769.92	235.37
770.25	235.23
770.57	235.10
770.90	235.01
771.22	234.85
771.55	234.69
771.87	234.57
772.20	234.47
772.52	234.46
772.85	234.49
773.17	234.33
773.50	234.22
773.82	234.08
774.15	233.97
774.47	233.78
774.80	233.66
775.12	233.58
775.45	233.44
775.77	233.36
776.09	233.26
776.42	233.15
776.74	233.10
777.07	232.98
777.39	232.86
777.72	232.75
778.04	232.70
778.36	232.64
778.69	232.55
779.01	232.47
779.33	232.25
779.66	232.04
779.98	231.98
780.31	231.89
780.63	231.88
780.95	231.79
781.28	231.71
781.60	231.62
781.92	231.57
782.25	231.52
782.57	231.43
782.89	231.36
783.22	231.29
783.54	231.22
783.86	231.18
784.19	231.10
784.51	231.04
784.83	230.98
785.16	230.93
785.48	230.89
785.80	230.84
786.12	230.83
786.45	230.75
