SpectraSuite Data File
++++++++++++++++++++++++++++++++++++
Date: Fri Feb 01 14:53:24 EST 2013
User: group
Dark Spectrum Present: No
Reference Spectrum Present: No
Number of Sampled Component Spectra: 1
Spectrometers: USB2E7196
Integration Time (usec): 35000 (USB2E7196)
Spectra Averaged: 100 (USB2E7196)
Boxcar Smoothing: 10 (USB2E7196)
Correct for Electrical Dark: No (USB2E7196)
Strobe/Lamp Enabled: No (USB2E7196)
Correct for Detector Non-linearity: No (USB2E7196)
Correct for Stray Light: No (USB2E7196)
Number of Pixels in Processed Spectrum: 2048
>>>>>Begin Processed Spectral Data<<<<<
339.09	0.00
339.48	215.60
339.86	216.84
340.24	218.51
340.63	220.14
341.01	222.39
341.39	222.54
341.78	224.09
342.16	225.08
342.54	225.25
342.93	213.82
343.31	224.64
343.69	225.18
344.07	225.64
344.46	226.06
344.84	226.43
345.22	226.66
345.60	226.91
345.99	227.09
346.37	227.21
346.75	227.32
347.13	227.40
347.52	227.46
347.90	227.52
348.28	227.55
348.66	227.57
349.05	227.59
349.43	227.63
349.81	227.66
350.19	227.73
350.57	227.78
350.96	227.87
351.34	227.93
351.72	228.01
352.10	228.10
352.48	228.16
352.87	228.20
353.25	228.29
353.63	228.33
354.01	228.41
354.39	228.50
354.77	228.56
355.15	228.69
355.54	228.75
355.92	228.80
356.30	228.90
356.68	229.02
357.06	229.08
357.44	229.12
357.82	229.18
358.20	229.25
358.58	229.27
358.97	229.31
359.35	229.40
359.73	229.48
360.11	229.54
360.49	229.59
360.87	229.65
361.25	229.69
361.63	229.75
362.01	229.77
362.39	229.80
362.77	229.84
363.15	229.82
363.53	229.85
363.91	229.89
364.29	229.88
364.67	229.83
365.05	229.84
365.43	229.86
365.81	229.90
366.19	229.95
366.57	230.00
366.95	229.96
367.33	229.94
367.71	229.91
368.09	229.90
368.47	229.88
368.85	229.83
369.23	229.82
369.61	229.75
369.99	229.75
370.37	229.69
370.75	229.70
371.13	229.67
371.51	229.59
371.89	229.53
372.27	229.45
372.65	229.36
373.03	229.30
373.41	229.20
373.78	229.13
374.16	228.98
374.54	228.89
374.92	228.87
375.30	228.78
375.68	228.69
376.06	228.63
376.44	228.54
376.82	228.47
377.19	228.37
377.57	228.29
377.95	228.19
378.33	228.10
378.71	227.96
379.09	227.88
379.47	227.83
379.84	227.72
380.22	227.68
380.60	227.64
380.98	227.56
381.36	227.50
381.73	227.40
382.11	227.35
382.49	227.26
382.87	227.17
383.25	227.10
383.62	227.10
384.00	227.00
384.38	226.96
384.76	226.94
385.13	226.91
385.51	226.87
385.89	226.80
386.27	226.75
386.64	226.71
387.02	226.65
387.40	226.59
387.78	226.57
388.15	226.52
388.53	226.46
388.91	226.43
389.29	226.39
389.66	226.38
390.04	226.35
390.42	226.37
390.79	226.35
391.17	226.33
391.55	226.25
391.92	226.28
392.30	226.27
392.68	226.24
393.05	226.26
393.43	226.29
393.81	226.29
394.18	226.29
394.56	226.33
394.94	226.39
395.31	226.40
395.69	226.48
396.06	226.54
396.44	226.59
396.82	226.65
397.19	226.75
397.57	226.82
397.95	226.86
398.32	226.89
398.70	226.98
399.07	227.11
399.45	227.20
399.82	227.28
400.20	227.36
400.58	227.47
400.95	227.55
401.33	227.65
401.70	227.83
402.08	227.95
402.45	228.06
402.83	228.18
403.20	228.32
403.58	228.43
403.95	228.57
404.33	228.75
404.71	228.89
405.08	229.10
405.46	229.25
405.83	229.43
406.21	229.62
406.58	229.79
406.96	229.94
407.33	230.13
407.70	230.30
408.08	230.57
408.45	230.78
408.83	231.01
409.20	231.23
409.58	231.44
409.95	231.69
410.33	231.99
410.70	232.26
411.08	232.55
411.45	232.85
411.82	233.17
412.20	233.50
412.57	233.91
412.95	234.23
413.32	234.63
413.69	235.03
414.07	235.48
414.44	235.95
414.82	236.40
415.19	236.95
415.56	237.53
415.94	238.07
416.31	238.74
416.68	239.38
417.06	240.10
417.43	240.77
417.81	241.53
418.18	242.30
418.55	243.12
418.93	244.03
419.30	244.91
419.67	245.83
420.04	246.80
420.42	247.77
420.79	248.94
421.16	250.09
421.54	251.27
421.91	252.46
422.28	253.69
422.66	255.02
423.03	256.30
423.40	257.58
423.77	258.96
424.15	260.35
424.52	261.79
424.89	263.40
425.26	264.94
425.64	266.36
426.01	267.95
426.38	269.60
426.75	271.25
427.13	272.98
427.50	274.77
427.87	276.59
428.24	278.42
428.61	280.12
428.99	282.01
429.36	284.10
429.73	286.12
430.10	288.14
430.47	290.18
430.85	292.32
431.22	294.59
431.59	296.98
431.96	299.25
432.33	301.77
432.70	304.13
433.08	306.89
433.45	309.54
433.82	312.16
434.19	315.03
434.56	317.83
434.93	320.49
435.30	323.14
435.68	326.05
436.05	328.92
436.42	331.73
436.79	334.28
437.16	336.99
437.53	339.89
437.90	342.71
438.27	345.46
438.64	348.30
439.01	350.88
439.38	353.16
439.75	355.29
440.13	357.78
440.50	360.12
440.87	362.00
441.24	363.96
441.61	366.11
441.98	367.61
442.35	369.41
442.72	371.27
443.09	373.07
443.46	374.06
443.83	374.66
444.20	375.20
444.57	376.04
444.94	376.32
445.31	376.64
445.68	377.01
446.05	377.12
446.42	376.70
446.79	376.32
447.16	375.88
447.53	375.62
447.90	374.50
448.27	373.34
448.64	371.75
449.01	370.65
449.37	368.69
449.74	366.79
450.11	364.57
450.48	362.11
450.85	359.62
451.22	357.51
451.59	355.51
451.96	353.56
452.33	350.90
452.70	348.55
453.07	345.72
453.43	342.80
453.80	340.02
454.17	337.39
454.54	334.80
454.91	332.08
455.28	329.37
455.65	326.86
456.02	324.42
456.38	322.32
456.75	319.63
457.12	317.35
457.49	315.14
457.86	312.96
458.23	311.07
458.59	309.03
458.96	306.92
459.33	305.08
459.70	303.23
460.07	301.80
460.43	300.07
460.80	298.48
461.17	297.06
461.54	295.58
461.91	294.15
462.27	292.72
462.64	291.44
463.01	290.08
463.38	288.77
463.74	287.40
464.11	286.20
464.48	285.19
464.85	284.10
465.21	283.24
465.58	282.27
465.95	281.15
466.32	280.22
466.68	279.30
467.05	278.35
467.42	277.39
467.78	276.42
468.15	275.58
468.52	274.88
468.88	273.96
469.25	273.16
469.62	272.53
469.98	271.84
470.35	271.17
470.72	270.54
471.08	269.89
471.45	269.34
471.82	268.83
472.18	268.20
472.55	267.72
472.92	267.17
473.28	266.71
473.65	266.27
474.02	265.82
474.38	265.45
474.75	265.09
475.11	264.76
475.48	264.48
475.85	264.21
476.21	263.95
476.58	263.78
476.94	263.62
477.31	263.45
477.67	263.29
478.04	263.20
478.41	263.12
478.77	263.14
479.14	263.04
479.50	262.99
479.87	263.05
480.23	263.14
480.60	263.20
480.96	263.27
481.33	263.45
481.69	263.62
482.06	263.82
482.42	264.04
482.79	264.28
483.15	264.61
483.52	264.99
483.88	265.34
484.25	265.69
484.61	266.10
484.98	266.50
485.34	267.04
485.71	267.60
486.07	268.25
486.44	268.78
486.80	269.48
487.17	270.20
487.53	271.02
487.90	271.82
488.26	272.71
488.62	273.71
488.99	274.71
489.35	275.77
489.72	276.88
490.08	278.05
490.44	279.26
490.81	280.57
491.17	281.89
491.54	283.37
491.90	284.89
492.26	286.52
492.63	288.28
492.99	290.05
493.36	291.95
493.72	293.95
494.08	296.05
494.45	298.31
494.81	300.69
495.17	303.09
495.54	305.68
495.90	308.41
496.26	311.17
496.63	314.12
496.99	317.22
497.35	320.40
497.72	323.79
498.08	327.30
498.44	330.96
498.80	334.84
499.17	338.83
499.53	343.01
499.89	347.38
500.26	351.83
500.62	356.50
500.98	361.44
501.34	366.49
501.71	371.79
502.07	377.20
502.43	382.74
502.79	388.53
503.16	394.52
503.52	400.67
503.88	407.03
504.24	413.61
504.60	420.50
504.97	427.62
505.33	434.90
505.69	442.59
506.05	450.35
506.41	458.23
506.78	466.36
507.14	474.73
507.50	483.38
507.86	492.37
508.22	501.47
508.59	510.61
508.95	520.16
509.31	529.96
509.67	539.98
510.03	550.28
510.39	560.80
510.75	571.60
511.12	582.61
511.48	593.85
511.84	605.27
512.20	616.74
512.56	628.61
512.92	640.80
513.28	653.09
513.64	665.56
514.00	678.23
514.37	691.07
514.73	704.14
515.09	717.18
515.45	730.43
515.81	744.02
516.17	757.98
516.53	772.10
516.89	786.21
517.25	800.45
517.61	814.86
517.97	829.35
518.33	843.80
518.69	858.55
519.05	873.61
519.41	888.69
519.77	904.26
520.13	919.77
520.49	935.20
520.85	950.66
521.21	966.31
521.57	982.64
521.93	998.50
522.29	1014.96
522.65	1031.30
523.01	1047.59
523.37	1063.71
523.73	1079.94
524.09	1096.05
524.45	1112.42
524.81	1129.09
525.17	1145.94
525.53	1162.81
525.89	1179.73
526.25	1196.63
526.61	1213.05
526.97	1229.95
527.33	1246.42
527.68	1263.15
528.04	1279.70
528.40	1296.44
528.76	1313.69
529.12	1330.27
529.48	1347.14
529.84	1363.18
530.20	1379.95
530.56	1397.17
530.91	1414.50
531.27	1431.39
531.63	1447.89
531.99	1464.54
532.35	1480.64
532.71	1496.60
533.07	1513.05
533.42	1529.01
533.78	1545.08
534.14	1561.35
534.50	1576.70
534.86	1592.66
535.21	1607.76
535.57	1623.68
535.93	1639.14
536.29	1653.98
536.65	1669.23
537.00	1684.32
537.36	1699.80
537.72	1714.33
538.08	1728.64
538.44	1742.78
538.79	1756.76
539.15	1770.63
539.51	1784.58
539.87	1798.97
540.22	1812.75
540.58	1826.38
540.94	1839.80
541.29	1852.79
541.65	1865.65
542.01	1879.02
542.37	1891.36
542.72	1903.93
543.08	1915.84
543.44	1928.28
543.79	1939.51
544.15	1950.44
544.51	1961.82
544.87	1972.83
545.22	1983.75
545.58	1994.06
545.94	2003.79
546.29	2013.64
546.65	2023.48
547.01	2032.59
547.36	2041.40
547.72	2049.94
548.07	2058.03
548.43	2066.23
548.79	2074.19
549.14	2081.85
549.50	2089.33
549.86	2097.15
550.21	2104.58
550.57	2111.74
550.92	2118.32
551.28	2125.56
551.64	2132.73
551.99	2139.39
552.35	2145.51
552.70	2151.49
553.06	2157.48
553.41	2163.74
553.77	2169.70
554.13	2175.62
554.48	2181.59
554.84	2186.81
555.19	2192.00
555.55	2196.95
555.90	2201.42
556.26	2206.41
556.61	2210.85
556.97	2214.87
557.32	2219.04
557.68	2223.09
558.03	2227.29
558.39	2230.77
558.74	2235.07
559.10	2238.76
559.45	2242.19
559.81	2246.41
560.16	2250.09
560.52	2253.16
560.87	2256.54
561.23	2259.12
561.58	2261.97
561.94	2264.66
562.29	2267.08
562.64	2269.67
563.00	2272.27
563.35	2275.71
563.71	2278.59
564.06	2281.67
564.42	2284.41
564.77	2286.64
565.12	2288.67
565.48	2290.28
565.83	2292.05
566.19	2293.31
566.54	2294.10
566.89	2295.32
567.25	2295.60
567.60	2296.87
567.96	2298.44
568.31	2299.04
568.66	2299.93
569.02	2300.37
569.37	2300.26
569.72	2300.76
570.08	2300.62
570.43	2300.44
570.78	2299.33
571.14	2297.60
571.49	2296.13
571.84	2295.53
572.20	2294.03
572.55	2292.69
572.90	2290.95
573.26	2289.28
573.61	2287.32
573.96	2285.29
574.31	2281.95
574.67	2278.71
575.02	2274.78
575.37	2271.05
575.72	2267.02
576.08	2263.52
576.43	2260.09
576.78	2256.37
577.13	2253.02
577.49	2249.69
577.84	2246.10
578.19	2242.32
578.54	2238.52
578.90	2234.10
579.25	2228.41
579.60	2223.44
579.95	2218.37
580.30	2213.11
580.66	2207.95
581.01	2202.86
581.36	2197.79
581.71	2193.59
582.06	2189.11
582.42	2184.48
582.77	2179.21
583.12	2174.48
583.47	2169.48
583.82	2164.25
584.17	2158.84
584.53	2153.41
584.88	2147.81
585.23	2141.70
585.58	2136.15
585.93	2130.41
586.28	2125.52
586.63	2120.31
586.98	2115.00
587.34	2110.24
587.69	2105.35
588.04	2099.95
588.39	2094.14
588.74	2087.51
589.09	2081.03
589.44	2074.13
589.79	2067.95
590.14	2062.00
590.49	2055.10
590.84	2048.51
591.19	2042.16
591.54	2035.66
591.89	2028.09
592.25	2021.11
592.60	2013.92
592.95	2006.15
593.30	1998.84
593.65	1991.13
594.00	1983.96
594.35	1976.58
594.70	1968.30
595.05	1960.97
595.40	1953.70
595.75	1946.10
596.10	1939.89
596.45	1933.00
596.80	1926.59
597.15	1919.92
597.50	1912.76
597.85	1906.41
598.19	1899.87
598.54	1893.00
598.89	1886.21
599.24	1880.13
599.59	1873.37
599.94	1867.06
600.29	1860.71
600.64	1853.91
600.99	1846.31
601.34	1839.43
601.69	1832.32
602.04	1825.46
602.39	1818.08
602.74	1811.13
603.08	1804.38
603.43	1797.69
603.78	1790.41
604.13	1783.25
604.48	1775.95
604.83	1769.25
605.18	1762.23
605.53	1754.20
605.87	1746.14
606.22	1739.04
606.57	1731.09
606.92	1723.82
607.27	1716.82
607.62	1709.89
607.96	1702.76
608.31	1696.25
608.66	1688.62
609.01	1681.15
609.36	1673.68
609.70	1665.62
610.05	1657.65
610.40	1650.06
610.75	1641.68
611.10	1634.15
611.44	1625.87
611.79	1617.82
612.14	1609.13
612.49	1600.12
612.83	1591.81
613.18	1583.61
613.53	1575.47
613.88	1567.06
614.22	1558.74
614.57	1550.00
614.92	1542.03
615.27	1534.53
615.61	1526.13
615.96	1518.21
616.31	1510.75
616.65	1503.35
617.00	1495.99
617.35	1488.29
617.70	1479.92
618.04	1471.37
618.39	1463.14
618.74	1455.59
619.08	1447.46
619.43	1440.01
619.78	1433.22
620.12	1426.15
620.47	1418.81
620.82	1410.72
621.16	1403.37
621.51	1395.84
621.85	1388.36
622.20	1380.03
622.55	1371.77
622.89	1364.15
623.24	1356.71
623.59	1349.40
623.93	1341.98
624.28	1334.69
624.62	1327.22
624.97	1320.11
625.32	1313.44
625.66	1306.50
626.01	1299.38
626.35	1292.06
626.70	1284.36
627.04	1276.63
627.39	1268.99
627.73	1261.68
628.08	1254.84
628.43	1247.59
628.77	1240.31
629.12	1232.74
629.46	1225.40
629.81	1218.08
630.15	1210.95
630.50	1203.63
630.84	1195.47
631.19	1187.67
631.53	1180.29
631.88	1172.85
632.22	1165.35
632.57	1158.19
632.91	1150.74
633.26	1143.33
633.60	1135.96
633.95	1128.94
634.29	1121.96
634.64	1115.18
634.98	1107.97
635.32	1100.93
635.67	1094.38
636.01	1087.85
636.36	1081.20
636.70	1074.93
637.05	1068.40
637.39	1061.98
637.73	1055.48
638.08	1049.68
638.42	1043.76
638.77	1037.43
639.11	1031.00
639.45	1024.71
639.80	1018.15
640.14	1011.85
640.49	1005.40
640.83	999.23
641.17	993.10
641.52	986.89
641.86	980.65
642.20	974.82
642.55	968.54
642.89	962.19
643.23	955.75
643.58	950.07
643.92	943.93
644.26	937.95
644.61	932.08
644.95	926.12
645.29	919.62
645.64	912.92
645.98	906.61
646.32	900.82
646.66	894.78
647.01	889.08
647.35	883.41
647.69	877.73
648.04	872.23
648.38	866.46
648.72	860.55
649.06	854.47
649.41	848.52
649.75	842.61
650.09	836.64
650.43	830.86
650.78	824.69
651.12	818.75
651.46	813.08
651.80	807.32
652.14	802.01
652.49	796.62
652.83	791.47
653.17	785.82
653.51	780.04
653.85	774.63
654.20	769.01
654.54	763.09
654.88	757.30
655.22	751.53
655.56	745.77
655.90	740.24
656.25	735.05
656.59	729.78
656.93	724.73
657.27	719.66
657.61	714.27
657.95	709.24
658.29	704.25
658.64	698.95
658.98	693.65
659.32	688.23
659.66	683.11
660.00	677.87
660.34	673.03
660.68	668.25
661.02	663.37
661.36	658.70
661.70	654.22
662.05	649.95
662.39	645.61
662.73	641.32
663.07	637.09
663.41	632.70
663.75	628.24
664.09	623.71
664.43	619.40
664.77	615.29
665.11	611.11
665.45	607.01
665.79	603.07
666.13	599.03
666.47	594.96
666.81	590.84
667.15	586.77
667.49	582.94
667.83	579.14
668.17	575.23
668.51	571.20
668.85	567.19
669.19	563.44
669.53	559.69
669.87	555.83
670.21	552.11
670.55	548.52
670.89	545.15
671.23	541.77
671.57	538.29
671.91	534.84
672.25	531.36
672.58	527.94
672.92	524.59
673.26	521.48
673.60	518.39
673.94	515.40
674.28	512.50
674.62	509.58
674.96	506.52
675.30	503.65
675.64	500.76
675.97	498.05
676.31	495.20
676.65	492.31
676.99	489.65
677.33	486.86
677.67	484.07
678.01	481.05
678.34	478.17
678.68	475.30
679.02	472.51
679.36	469.83
679.70	467.13
680.04	464.37
680.37	461.48
680.71	458.69
681.05	456.07
681.39	453.41
681.73	450.77
682.06	448.27
682.40	445.75
682.74	443.23
683.08	440.72
683.42	438.16
683.75	435.69
684.09	433.16
684.43	430.72
684.77	428.33
685.10	426.01
685.44	423.67
685.78	421.48
686.12	419.27
686.45	417.00
686.79	414.64
687.13	412.54
687.46	410.42
687.80	408.25
688.14	406.07
688.48	404.09
688.81	401.87
689.15	399.78
689.49	397.65
689.82	395.56
690.16	393.49
690.50	391.52
690.83	389.56
691.17	387.59
691.51	385.72
691.84	383.83
692.18	381.91
692.52	379.97
692.85	378.03
693.19	376.16
693.52	374.32
693.86	372.56
694.20	370.76
694.53	369.01
694.87	367.21
695.21	365.41
695.54	363.59
695.88	361.87
696.21	360.16
696.55	358.47
696.88	356.82
697.22	355.20
697.56	353.59
697.89	351.93
698.23	350.33
698.56	348.71
698.90	347.12
699.23	345.53
699.57	344.00
699.90	342.46
700.24	340.93
700.58	339.41
700.91	337.97
701.25	336.51
701.58	335.10
701.92	333.77
702.25	332.40
702.59	331.03
702.92	329.72
703.26	328.38
703.59	327.14
703.93	325.96
704.26	324.72
704.60	323.47
704.93	322.22
705.26	321.04
705.60	319.92
705.93	318.82
706.27	317.81
706.60	316.77
706.94	315.70
707.27	314.56
707.61	313.53
707.94	312.49
708.27	311.43
708.61	310.40
708.94	309.39
709.28	308.46
709.61	307.53
709.94	306.60
710.28	305.62
710.61	304.67
710.95	303.64
711.28	302.75
711.61	301.84
711.95	300.95
712.28	299.99
712.61	299.04
712.95	298.13
713.28	297.22
713.61	296.34
713.95	295.44
714.28	294.64
714.61	293.80
714.95	292.98
715.28	292.14
715.61	291.28
715.95	290.46
716.28	289.59
716.61	288.79
716.95	288.00
717.28	287.29
717.61	286.54
717.94	285.79
718.28	284.99
718.61	284.29
718.94	283.61
719.27	282.97
719.61	282.34
719.94	281.68
720.27	281.03
720.60	280.36
720.94	279.80
721.27	279.24
721.60	278.64
721.93	278.02
722.27	277.47
722.60	276.94
722.93	276.36
723.26	275.84
723.59	275.24
723.93	274.69
724.26	274.12
724.59	273.58
724.92	273.07
725.25	272.57
725.59	272.01
725.92	271.47
726.25	270.91
726.58	270.40
726.91	269.91
727.24	269.44
727.57	268.96
727.91	268.44
728.24	267.96
728.57	267.48
728.90	267.03
729.23	266.53
729.56	266.09
729.89	265.63
730.22	265.13
730.55	264.71
730.89	264.27
731.22	263.83
731.55	263.39
731.88	263.01
732.21	262.57
732.54	262.15
732.87	261.74
733.20	261.39
733.53	260.98
733.86	260.59
734.19	260.14
734.52	259.79
734.85	259.46
735.18	259.04
735.51	258.68
735.84	258.32
736.17	258.02
736.50	257.60
736.83	257.37
737.16	257.05
737.49	256.69
737.82	256.31
738.15	255.98
738.48	255.59
738.81	255.25
739.14	254.92
739.47	254.64
739.80	254.35
740.13	254.03
740.46	253.68
740.79	253.35
741.12	253.09
741.45	252.74
741.78	252.41
742.11	252.14
742.44	251.79
742.77	251.48
743.10	251.15
743.43	250.87
743.75	250.46
744.08	250.31
744.41	250.06
744.74	249.80
745.07	249.49
745.40	249.29
745.73	249.02
746.06	248.75
746.39	248.44
746.71	248.17
747.04	247.89
747.37	247.63
747.70	247.40
748.03	247.14
748.36	246.95
748.68	246.69
749.01	246.46
749.34	246.28
749.67	246.04
750.00	245.78
750.33	245.65
750.65	245.47
750.98	245.14
751.31	244.94
751.64	244.71
751.97	244.56
752.29	244.31
752.62	244.10
752.95	243.88
753.28	243.66
753.60	243.45
753.93	243.27
754.26	243.13
754.59	242.88
754.91	242.69
755.24	242.47
755.57	242.29
755.90	242.07
756.22	241.87
756.55	241.66
756.88	241.50
757.20	241.26
757.53	241.06
757.86	240.87
758.19	240.72
758.51	240.60
758.84	240.38
759.17	240.24
759.49	240.07
759.82	239.95
760.15	239.82
760.47	239.69
760.80	239.52
761.13	239.37
761.45	239.22
761.78	239.07
762.11	238.95
762.43	238.77
762.76	238.67
763.08	238.54
763.41	238.47
763.74	238.32
764.06	238.19
764.39	238.07
764.71	237.95
765.04	237.79
765.37	237.63
765.69	237.52
766.02	237.39
766.34	237.25
766.67	237.13
767.00	237.05
767.32	236.98
767.65	236.96
767.97	236.84
768.30	236.75
768.62	236.62
768.95	236.48
769.27	236.38
769.60	236.26
769.92	236.13
770.25	235.98
770.57	235.88
770.90	235.78
771.22	235.66
771.55	235.57
771.87	235.45
772.20	235.36
772.52	235.34
772.85	235.35
773.17	235.26
773.50	235.17
773.82	235.07
774.15	234.92
774.47	234.75
774.80	234.67
775.12	234.58
775.45	234.50
775.77	234.43
776.09	234.38
776.42	234.28
776.74	234.24
777.07	234.17
777.39	234.13
777.72	234.04
778.04	233.98
778.36	233.86
778.69	233.81
779.01	233.74
779.33	233.60
779.66	233.42
779.98	233.38
780.31	233.32
780.63	233.27
780.95	233.24
781.28	233.17
781.60	233.08
781.92	233.01
782.25	232.94
782.57	232.85
782.89	232.77
783.22	232.71
783.54	232.64
783.86	232.57
784.19	232.45
784.51	232.42
784.83	232.34
785.16	232.29
785.48	232.23
785.80	232.19
786.12	232.12
786.45	232.07
786.77	232.02
787.09	231.92
