SpectraSuite Data File
++++++++++++++++++++++++++++++++++++
Date: Fri Feb 01 16:19:25 EST 2013
User: group
Dark Spectrum Present: No
Reference Spectrum Present: No
Number of Sampled Component Spectra: 1
Spectrometers: USB2E7196
Integration Time (usec): 35000 (USB2E7196)
Spectra Averaged: 100 (USB2E7196)
Boxcar Smoothing: 10 (USB2E7196)
Correct for Electrical Dark: No (USB2E7196)
Strobe/Lamp Enabled: No (USB2E7196)
Correct for Detector Non-linearity: No (USB2E7196)
Correct for Stray Light: No (USB2E7196)
Number of Pixels in Processed Spectrum: 2048
>>>>>Begin Processed Spectral Data<<<<<
339.09	0.00
339.48	214.09
339.86	215.11
340.24	216.41
340.63	218.38
341.01	221.32
341.39	220.90
341.78	222.20
342.16	222.92
342.54	223.53
342.93	212.30
343.31	223.06
343.69	223.59
344.07	224.05
344.46	224.53
344.84	224.92
345.22	225.16
345.60	225.41
345.99	225.60
346.37	225.76
346.75	225.85
347.13	225.93
347.52	225.98
347.90	226.07
348.28	226.08
348.66	226.12
349.05	226.11
349.43	226.15
349.81	226.22
350.19	226.27
350.57	226.33
350.96	226.43
351.34	226.48
351.72	226.60
352.10	226.73
352.48	226.77
352.87	226.77
353.25	226.85
353.63	226.92
354.01	227.00
354.39	227.09
354.77	227.22
355.15	227.32
355.54	227.38
355.92	227.42
356.30	227.53
356.68	227.66
357.06	227.73
357.44	227.80
357.82	227.89
358.20	227.97
358.58	228.03
358.97	228.07
359.35	228.17
359.73	228.24
360.11	228.26
360.49	228.32
360.87	228.40
361.25	228.45
361.63	228.52
362.01	228.57
362.39	228.55
362.77	228.57
363.15	228.58
363.53	228.60
363.91	228.62
364.29	228.65
364.67	228.59
365.05	228.61
365.43	228.61
365.81	228.61
366.19	228.66
366.57	228.68
366.95	228.70
367.33	228.63
367.71	228.59
368.09	228.62
368.47	228.60
368.85	228.60
369.23	228.62
369.61	228.53
369.99	228.53
370.37	228.52
370.75	228.52
371.13	228.47
371.51	228.41
371.89	228.34
372.27	228.28
372.65	228.20
373.03	228.15
373.41	228.14
373.78	228.07
374.16	227.96
374.54	227.88
374.92	227.80
375.30	227.76
375.68	227.70
376.06	227.62
376.44	227.55
376.82	227.48
377.19	227.39
377.57	227.33
377.95	227.22
378.33	227.15
378.71	227.06
379.09	227.03
379.47	226.97
379.84	226.92
380.22	226.86
380.60	226.78
380.98	226.69
381.36	226.58
381.73	226.52
382.11	226.45
382.49	226.36
382.87	226.29
383.25	226.23
383.62	226.26
384.00	226.21
384.38	226.21
384.76	226.16
385.13	226.11
385.51	226.08
385.89	226.03
386.27	225.98
386.64	225.88
387.02	225.79
387.40	225.74
387.78	225.69
388.15	225.63
388.53	225.61
388.91	225.59
389.29	225.59
389.66	225.55
390.04	225.53
390.42	225.54
390.79	225.52
391.17	225.47
391.55	225.37
391.92	225.35
392.30	225.32
392.68	225.32
393.05	225.33
393.43	225.33
393.81	225.34
394.18	225.36
394.56	225.39
394.94	225.48
395.31	225.51
395.69	225.56
396.06	225.63
396.44	225.67
396.82	225.70
397.19	225.76
397.57	225.81
397.95	225.86
398.32	225.87
398.70	225.93
399.07	226.03
399.45	226.06
399.82	226.13
400.20	226.19
400.58	226.27
400.95	226.32
401.33	226.43
401.70	226.55
402.08	226.64
402.45	226.73
402.83	226.83
403.20	226.94
403.58	227.02
403.95	227.12
404.33	227.21
404.71	227.34
405.08	227.54
405.46	227.68
405.83	227.84
406.21	228.00
406.58	228.16
406.96	228.31
407.33	228.53
407.70	228.72
408.08	228.99
408.45	229.19
408.83	229.44
409.20	229.64
409.58	229.81
409.95	230.08
410.33	230.35
410.70	230.59
411.08	230.89
411.45	231.22
411.82	231.52
412.20	231.91
412.57	232.33
412.95	232.61
413.32	233.03
413.69	233.40
414.07	233.84
414.44	234.35
414.82	234.86
415.19	235.39
415.56	235.93
415.94	236.44
416.31	237.08
416.68	237.64
417.06	238.37
417.43	239.06
417.81	239.82
418.18	240.61
418.55	241.43
418.93	242.30
419.30	243.19
419.67	244.13
420.04	245.05
420.42	246.01
420.79	247.17
421.16	248.30
421.54	249.53
421.91	250.73
422.28	251.96
422.66	253.27
423.03	254.58
423.40	255.90
423.77	257.34
424.15	258.74
424.52	260.25
424.89	261.86
425.26	263.40
425.64	264.84
426.01	266.43
426.38	268.06
426.75	269.74
427.13	271.48
427.50	273.30
427.87	275.20
428.24	277.08
428.61	278.81
428.99	280.79
429.36	282.86
429.73	284.93
430.10	286.90
430.47	288.93
430.85	291.04
431.22	293.26
431.59	295.62
431.96	297.89
432.33	300.36
432.70	302.73
433.08	305.58
433.45	308.23
433.82	310.81
434.19	313.71
434.56	316.50
434.93	319.14
435.30	321.75
435.68	324.63
436.05	327.47
436.42	330.26
436.79	332.70
437.16	335.40
437.53	338.22
437.90	341.02
438.27	343.75
438.64	346.54
439.01	349.17
439.38	351.37
439.75	353.50
440.13	355.97
440.50	358.31
440.87	360.08
441.24	362.02
441.61	364.17
441.98	365.61
442.35	367.44
442.72	369.32
443.09	371.11
443.46	372.08
443.83	372.65
444.20	373.18
444.57	374.03
444.94	374.32
445.31	374.60
445.68	374.93
446.05	375.02
446.42	374.66
446.79	374.21
447.16	373.83
447.53	373.50
447.90	372.31
448.27	371.09
448.64	369.53
449.01	368.33
449.37	366.38
449.74	364.49
450.11	362.21
450.48	359.69
450.85	357.16
451.22	354.99
451.59	352.94
451.96	350.98
452.33	348.43
452.70	346.05
453.07	343.25
453.43	340.38
453.80	337.62
454.17	334.92
454.54	332.38
454.91	329.58
455.28	326.93
455.65	324.45
456.02	322.05
456.38	319.92
456.75	317.29
457.12	315.02
457.49	312.83
457.86	310.68
458.23	308.84
458.59	306.82
458.96	304.80
459.33	302.97
459.70	301.13
460.07	299.56
460.43	297.84
460.80	296.22
461.17	294.81
461.54	293.33
461.91	291.93
462.27	290.51
462.64	289.32
463.01	287.96
463.38	286.72
463.74	285.34
464.11	284.18
464.48	283.18
464.85	282.09
465.21	281.22
465.58	280.31
465.95	279.21
466.32	278.35
466.68	277.44
467.05	276.52
467.42	275.64
467.78	274.78
468.15	273.94
468.52	273.31
468.88	272.46
469.25	271.67
469.62	271.04
469.98	270.38
470.35	269.71
470.72	269.15
471.08	268.47
471.45	267.93
471.82	267.41
472.18	266.81
472.55	266.40
472.92	265.89
473.28	265.41
473.65	264.98
474.02	264.54
474.38	264.17
474.75	263.87
475.11	263.52
475.48	263.23
475.85	263.02
476.21	262.81
476.58	262.66
476.94	262.55
477.31	262.39
477.67	262.24
478.04	262.17
478.41	262.11
478.77	262.19
479.14	262.15
479.50	262.11
479.87	262.19
480.23	262.28
480.60	262.36
480.96	262.47
481.33	262.65
481.69	262.83
482.06	263.06
482.42	263.27
482.79	263.53
483.15	263.85
483.52	264.23
483.88	264.55
484.25	264.90
484.61	265.32
484.98	265.80
485.34	266.35
485.71	266.94
486.07	267.57
486.44	268.11
486.80	268.83
487.17	269.55
487.53	270.38
487.90	271.24
488.26	272.18
488.62	273.19
488.99	274.24
489.35	275.25
489.72	276.34
490.08	277.54
490.44	278.80
490.81	280.10
491.17	281.50
491.54	282.96
491.90	284.54
492.26	286.18
492.63	287.91
492.99	289.72
493.36	291.61
493.72	293.66
494.08	295.78
494.45	298.04
494.81	300.43
495.17	302.87
495.54	305.49
495.90	308.15
496.26	310.94
496.63	313.95
496.99	317.10
497.35	320.43
497.72	323.83
498.08	327.34
498.44	331.04
498.80	334.89
499.17	338.95
499.53	343.11
499.89	347.52
500.26	352.04
500.62	356.79
500.98	361.73
501.34	366.77
501.71	372.15
502.07	377.61
502.43	383.25
502.79	389.06
503.16	395.12
503.52	401.45
503.88	407.86
504.24	414.51
504.60	421.37
504.97	428.43
505.33	435.85
505.69	443.53
506.05	451.38
506.41	459.35
506.78	467.53
507.14	476.03
507.50	484.78
507.86	493.85
508.22	503.02
508.59	512.30
508.95	521.90
509.31	531.71
509.67	541.87
510.03	552.25
510.39	562.82
510.75	573.61
511.12	584.56
511.48	595.91
511.84	607.29
512.20	618.81
512.56	630.77
512.92	642.91
513.28	655.38
513.64	667.84
514.00	680.49
514.37	693.41
514.73	706.44
515.09	719.48
515.45	732.70
515.81	746.25
516.17	760.24
516.53	774.36
516.89	788.42
517.25	802.51
517.61	816.85
517.97	831.34
518.33	845.72
518.69	860.46
519.05	875.41
519.41	890.57
519.77	906.22
520.13	921.69
520.49	936.99
520.85	952.27
521.21	967.94
521.57	984.21
521.93	999.95
522.29	1016.31
522.65	1032.57
523.01	1048.81
523.37	1064.82
523.73	1080.94
524.09	1096.98
524.45	1113.34
524.81	1129.97
525.17	1146.71
525.53	1163.60
525.89	1180.52
526.25	1197.24
526.61	1213.66
526.97	1230.31
527.33	1246.62
527.68	1263.21
528.04	1279.65
528.40	1296.24
528.76	1313.23
529.12	1329.71
529.48	1346.60
529.84	1362.42
530.20	1378.82
530.56	1395.78
530.91	1413.07
531.27	1429.75
531.63	1446.19
531.99	1462.75
532.35	1478.66
532.71	1494.45
533.07	1510.50
533.42	1526.32
533.78	1542.32
534.14	1558.50
534.50	1573.84
534.86	1589.64
535.21	1604.77
535.57	1620.73
535.93	1636.20
536.29	1651.02
536.65	1666.02
537.00	1680.72
537.36	1696.18
537.72	1710.70
538.08	1725.06
538.44	1738.85
538.79	1752.72
539.15	1766.45
539.51	1780.06
539.87	1794.23
540.22	1807.98
540.58	1821.84
540.94	1835.03
541.29	1847.83
541.65	1860.35
542.01	1873.49
542.37	1885.67
542.72	1897.93
543.08	1909.55
543.44	1921.82
543.79	1932.83
544.15	1943.86
544.51	1955.27
544.87	1966.16
545.22	1976.93
545.58	1987.09
545.94	1996.76
546.29	2006.43
546.65	2016.03
547.01	2025.19
547.36	2033.76
547.72	2042.19
548.07	2049.81
548.43	2057.91
548.79	2066.01
549.14	2073.61
549.50	2080.80
549.86	2088.54
550.21	2095.89
550.57	2103.06
550.92	2109.55
551.28	2116.65
551.64	2123.63
551.99	2130.10
552.35	2136.14
552.70	2142.36
553.06	2148.28
553.41	2154.75
553.77	2160.89
554.13	2167.08
554.48	2173.27
554.84	2178.94
555.19	2184.18
555.55	2189.54
555.90	2194.08
556.26	2198.84
556.61	2203.67
556.97	2208.03
557.32	2212.21
557.68	2216.38
558.03	2220.62
558.39	2224.31
558.74	2229.03
559.10	2232.84
559.45	2236.52
559.81	2240.83
560.16	2244.73
560.52	2247.94
560.87	2251.16
561.23	2253.80
561.58	2256.71
561.94	2259.22
562.29	2261.65
562.64	2264.43
563.00	2266.89
563.35	2270.45
563.71	2273.71
564.06	2276.75
564.42	2279.55
564.77	2282.06
565.12	2284.22
565.48	2286.24
565.83	2288.15
566.19	2289.40
566.54	2290.28
566.89	2291.55
567.25	2292.25
567.60	2293.42
567.96	2295.14
568.31	2295.98
568.66	2297.16
569.02	2297.62
569.37	2298.14
569.72	2299.03
570.08	2299.12
570.43	2299.28
570.78	2298.62
571.14	2297.00
571.49	2295.74
571.84	2295.59
572.20	2294.56
572.55	2293.75
572.90	2292.20
573.26	2290.99
573.61	2289.35
573.96	2287.67
574.31	2284.65
574.67	2281.67
575.02	2278.14
575.37	2274.79
575.72	2271.35
576.08	2267.99
576.43	2264.90
576.78	2261.09
577.13	2257.80
577.49	2254.66
577.84	2251.19
578.19	2247.63
578.54	2244.11
578.90	2239.94
579.25	2234.42
579.60	2229.39
579.95	2224.34
580.30	2219.46
580.66	2214.28
581.01	2209.48
581.36	2204.80
581.71	2200.70
582.06	2196.28
582.42	2191.97
582.77	2186.86
583.12	2182.21
583.47	2177.52
583.82	2172.59
584.17	2167.48
584.53	2162.14
584.88	2156.72
585.23	2150.97
585.58	2145.40
585.93	2140.08
586.28	2135.27
586.63	2130.32
586.98	2125.35
587.34	2120.59
587.69	2115.62
588.04	2110.34
588.39	2104.76
588.74	2098.15
589.09	2092.03
589.44	2085.32
589.79	2079.24
590.14	2073.58
590.49	2067.00
590.84	2060.66
591.19	2054.66
591.54	2048.26
591.89	2040.97
592.25	2034.19
592.60	2026.84
592.95	2019.48
593.30	2011.95
593.65	2004.36
594.00	1997.23
594.35	1990.00
594.70	1981.99
595.05	1974.85
595.40	1967.61
595.75	1959.94
596.10	1953.89
596.45	1947.22
596.80	1941.05
597.15	1934.50
597.50	1927.54
597.85	1921.15
598.19	1914.46
598.54	1907.29
598.89	1900.50
599.24	1894.59
599.59	1887.86
599.94	1881.89
600.29	1875.45
600.64	1869.05
600.99	1861.81
601.34	1855.06
601.69	1848.17
602.04	1841.40
602.39	1834.19
602.74	1827.42
603.08	1820.70
603.43	1813.82
603.78	1806.44
604.13	1799.20
604.48	1791.91
604.83	1785.04
605.18	1777.97
605.53	1770.13
605.87	1762.24
606.22	1755.13
606.57	1747.18
606.92	1739.98
607.27	1732.77
607.62	1725.96
607.96	1718.67
608.31	1712.04
608.66	1704.48
609.01	1696.90
609.36	1689.31
609.70	1681.23
610.05	1673.12
610.40	1665.56
610.75	1657.38
611.10	1649.82
611.44	1641.40
611.79	1633.36
612.14	1624.61
612.49	1615.53
612.83	1607.11
613.18	1598.95
613.53	1590.83
613.88	1582.18
614.22	1573.87
614.57	1565.25
614.92	1557.21
615.27	1549.69
615.61	1541.24
615.96	1533.18
616.31	1525.57
616.65	1518.17
617.00	1510.62
617.35	1502.97
617.70	1494.58
618.04	1486.06
618.39	1477.77
618.74	1470.27
619.08	1461.93
619.43	1454.40
619.78	1447.47
620.12	1440.30
620.47	1432.71
620.82	1424.57
621.16	1417.26
621.51	1409.61
621.85	1402.02
622.20	1393.40
622.55	1384.92
622.89	1377.02
623.24	1369.36
623.59	1362.01
623.93	1354.47
624.28	1347.22
624.62	1339.72
624.97	1332.51
625.32	1325.68
625.66	1318.70
626.01	1311.49
626.35	1304.01
626.70	1296.21
627.04	1288.52
627.39	1280.70
627.73	1273.35
628.08	1266.40
628.43	1259.08
628.77	1251.75
629.12	1244.11
629.46	1237.00
629.81	1229.64
630.15	1222.47
630.50	1215.13
630.84	1206.85
631.19	1198.92
631.53	1191.34
631.88	1183.78
632.22	1176.21
632.57	1168.95
632.91	1161.34
633.26	1153.85
633.60	1146.47
633.95	1139.29
634.29	1132.21
634.64	1125.53
634.98	1118.11
635.32	1110.95
635.67	1104.25
636.01	1097.49
636.36	1090.75
636.70	1084.19
637.05	1077.61
637.39	1071.05
637.73	1064.40
638.08	1058.53
638.42	1052.49
638.77	1046.08
639.11	1039.40
639.45	1032.94
639.80	1026.15
640.14	1019.79
640.49	1013.34
640.83	1007.02
641.17	1000.78
641.52	994.34
641.86	987.90
642.20	981.98
642.55	975.71
642.89	969.35
643.23	962.88
643.58	957.01
643.92	950.82
644.26	944.69
644.61	938.70
644.95	932.78
645.29	926.09
645.64	919.34
645.98	912.95
646.32	907.13
646.66	901.10
647.01	895.31
647.35	889.59
647.69	883.70
648.04	878.22
648.38	872.46
648.72	866.53
649.06	860.43
649.41	854.64
649.75	848.65
650.09	842.71
650.43	836.90
650.78	830.80
651.12	824.76
651.46	819.14
651.80	813.46
652.14	808.07
652.49	802.75
652.83	797.60
653.17	791.94
653.51	786.22
653.85	780.88
654.20	775.31
654.54	769.28
654.88	763.54
655.22	757.59
655.56	751.89
655.90	746.47
656.25	741.20
656.59	735.81
656.93	730.73
657.27	725.56
657.61	720.06
657.95	714.99
658.29	710.00
658.64	704.74
658.98	699.37
659.32	693.85
659.66	688.66
660.00	683.37
660.34	678.40
660.68	673.44
661.02	668.38
661.36	663.59
661.70	659.10
662.05	654.71
662.39	650.38
662.73	645.91
663.07	641.54
663.41	637.05
663.75	632.52
664.09	627.95
664.43	623.55
664.77	619.44
665.11	615.12
665.45	610.94
665.79	606.72
666.13	602.62
666.47	598.51
666.81	594.33
667.15	590.21
667.49	586.34
667.83	582.59
668.17	578.67
668.51	574.67
668.85	570.66
669.19	566.81
669.53	563.02
669.87	559.19
670.21	555.44
670.55	551.86
670.89	548.41
671.23	544.97
671.57	541.38
671.91	537.81
672.25	534.34
672.58	530.81
672.92	527.44
673.26	524.22
673.60	521.08
673.94	517.90
674.28	514.95
674.62	511.96
674.96	508.81
675.30	505.85
675.64	502.94
675.97	500.07
676.31	497.17
676.65	494.18
676.99	491.45
677.33	488.59
677.67	485.80
678.01	482.76
678.34	479.75
678.68	477.01
679.02	474.20
679.36	471.45
679.70	468.76
680.04	466.00
680.37	463.13
680.71	460.32
681.05	457.74
681.39	454.99
681.73	452.35
682.06	449.82
682.40	447.25
682.74	444.70
683.08	442.18
683.42	439.61
683.75	437.13
684.09	434.57
684.43	432.10
684.77	429.59
685.10	427.28
685.44	424.99
685.78	422.60
686.12	420.36
686.45	418.11
686.79	415.76
687.13	413.59
687.46	411.41
687.80	409.28
688.14	407.06
688.48	405.00
688.81	402.75
689.15	400.57
689.49	398.45
689.82	396.37
690.16	394.29
690.50	392.32
690.83	390.39
691.17	388.39
691.51	386.49
691.84	384.63
692.18	382.67
692.52	380.66
692.85	378.69
693.19	376.81
693.52	374.90
693.86	373.08
694.20	371.31
694.53	369.54
694.87	367.69
695.21	365.90
695.54	364.09
695.88	362.38
696.21	360.72
696.55	359.00
696.88	357.32
697.22	355.62
697.56	353.98
697.89	352.32
698.23	350.69
698.56	349.07
698.90	347.49
699.23	345.87
699.57	344.33
699.90	342.83
700.24	341.32
700.58	339.78
700.91	338.31
701.25	336.83
701.58	335.44
701.92	334.04
702.25	332.67
702.59	331.28
702.92	329.95
703.26	328.61
703.59	327.36
703.93	326.12
704.26	324.95
704.60	323.67
704.93	322.39
705.26	321.16
705.60	320.03
705.93	318.83
706.27	317.78
706.60	316.72
706.94	315.64
707.27	314.45
707.61	313.39
707.94	312.33
708.27	311.22
708.61	310.14
708.94	309.15
709.28	308.14
709.61	307.21
709.94	306.26
710.28	305.21
710.61	304.22
710.95	303.17
711.28	302.25
711.61	301.23
711.95	300.29
712.28	299.34
712.61	298.32
712.95	297.42
713.28	296.53
713.61	295.62
713.95	294.72
714.28	293.91
714.61	293.08
714.95	292.26
715.28	291.42
715.61	290.57
715.95	289.69
716.28	288.82
716.61	287.97
716.95	287.11
717.28	286.38
717.61	285.62
717.94	284.86
718.28	284.02
718.61	283.35
718.94	282.67
719.27	282.00
719.61	281.33
719.94	280.66
720.27	279.95
720.60	279.26
720.94	278.64
721.27	278.03
721.60	277.42
721.93	276.79
722.27	276.24
722.60	275.69
722.93	275.11
723.26	274.62
723.59	274.06
723.93	273.52
724.26	272.93
724.59	272.37
724.92	271.86
725.25	271.36
725.59	270.82
725.92	270.30
726.25	269.80
726.58	269.31
726.91	268.80
727.24	268.29
727.57	267.86
727.91	267.35
728.24	266.91
728.57	266.40
728.90	265.96
729.23	265.44
729.56	265.00
729.89	264.54
730.22	264.05
730.55	263.61
730.89	263.16
731.22	262.73
731.55	262.30
731.88	261.87
732.21	261.46
732.54	261.04
732.87	260.61
733.20	260.22
733.53	259.87
733.86	259.52
734.19	259.17
734.52	258.77
734.85	258.45
735.18	258.03
735.51	257.73
735.84	257.34
736.17	257.02
736.50	256.59
736.83	256.36
737.16	256.00
737.49	255.67
737.82	255.34
738.15	255.03
738.48	254.68
738.81	254.32
739.14	253.99
739.47	253.71
739.80	253.41
740.13	253.08
740.46	252.73
740.79	252.41
741.12	252.10
741.45	251.77
741.78	251.43
742.11	251.15
742.44	250.81
742.77	250.53
743.10	250.22
743.43	249.92
743.75	249.52
744.08	249.38
744.41	249.07
744.74	248.80
745.07	248.49
745.40	248.26
745.73	248.02
746.06	247.73
746.39	247.44
746.71	247.20
747.04	246.91
747.37	246.64
747.70	246.37
748.03	246.11
748.36	245.89
748.68	245.65
749.01	245.37
749.34	245.13
749.67	244.87
750.00	244.64
750.33	244.51
750.65	244.30
750.98	243.94
751.31	243.71
751.64	243.48
751.97	243.33
752.29	243.09
752.62	242.87
752.95	242.67
753.28	242.43
753.60	242.19
753.93	242.01
754.26	241.82
754.59	241.59
754.91	241.37
755.24	241.17
755.57	240.97
755.90	240.80
756.22	240.60
756.55	240.45
756.88	240.27
757.20	240.04
757.53	239.87
757.86	239.72
758.19	239.61
758.51	239.45
758.84	239.25
759.17	239.12
759.49	238.93
759.82	238.82
760.15	238.70
760.47	238.56
760.80	238.41
761.13	238.27
761.45	238.11
761.78	237.95
762.11	237.82
762.43	237.65
762.76	237.53
763.08	237.39
763.41	237.24
763.74	237.09
764.06	236.94
764.39	236.79
764.71	236.67
765.04	236.51
765.37	236.36
765.69	236.24
766.02	236.11
766.34	236.01
766.67	235.82
767.00	235.72
767.32	235.64
767.65	235.57
767.97	235.47
768.30	235.37
768.62	235.30
768.95	235.19
769.27	235.10
769.60	234.96
769.92	234.86
770.25	234.73
770.57	234.64
770.90	234.54
771.22	234.45
771.55	234.35
771.87	234.26
772.20	234.17
772.52	234.12
772.85	234.14
773.17	234.04
773.50	233.98
773.82	233.86
774.15	233.72
774.47	233.59
774.80	233.48
775.12	233.38
775.45	233.26
775.77	233.19
776.09	233.15
776.42	233.07
776.74	233.02
777.07	232.94
777.39	232.84
777.72	232.78
778.04	232.73
778.36	232.63
778.69	232.54
779.01	232.47
779.33	232.34
779.66	232.19
779.98	232.12
780.31	232.04
780.63	232.01
780.95	231.97
781.28	231.92
781.60	231.86
781.92	231.83
782.25	231.79
782.57	231.70
782.89	231.58
783.22	231.53
783.54	231.41
783.86	231.36
784.19	231.31
784.51	231.26
784.83	231.15
785.16	231.10
785.48	231.07
785.80	231.04
786.12	230.98
786.45	230.90
786.77	230.90
787.09	230.83
