SpectraSuite Data File
++++++++++++++++++++++++++++++++++++
Date: Fri Feb 01 15:15:20 EST 2013
User: group
Dark Spectrum Present: No
Reference Spectrum Present: No
Number of Sampled Component Spectra: 1
Spectrometers: USB2E7196
Integration Time (usec): 35000 (USB2E7196)
Spectra Averaged: 100 (USB2E7196)
Boxcar Smoothing: 10 (USB2E7196)
Correct for Electrical Dark: No (USB2E7196)
Strobe/Lamp Enabled: No (USB2E7196)
Correct for Detector Non-linearity: No (USB2E7196)
Correct for Stray Light: No (USB2E7196)
Number of Pixels in Processed Spectrum: 2048
>>>>>Begin Processed Spectral Data<<<<<
339.09	0.00
339.48	215.37
339.86	217.07
340.24	217.70
340.63	219.59
341.01	222.16
341.39	221.57
341.78	224.09
342.16	224.82
342.54	225.73
342.93	213.58
343.31	224.39
343.69	224.91
344.07	225.37
344.46	225.82
344.84	226.20
345.22	226.42
345.60	226.71
345.99	226.90
346.37	227.04
346.75	227.11
347.13	227.20
347.52	227.24
347.90	227.36
348.28	227.39
348.66	227.45
349.05	227.42
349.43	227.47
349.81	227.52
350.19	227.56
350.57	227.57
350.96	227.64
351.34	227.70
351.72	227.80
352.10	227.88
352.48	227.94
352.87	227.99
353.25	228.09
353.63	228.13
354.01	228.19
354.39	228.24
354.77	228.31
355.15	228.40
355.54	228.46
355.92	228.47
356.30	228.54
356.68	228.64
357.06	228.74
357.44	228.76
357.82	228.82
358.20	228.90
358.58	228.96
358.97	229.03
359.35	229.10
359.73	229.15
360.11	229.19
360.49	229.24
360.87	229.35
361.25	229.38
361.63	229.44
362.01	229.46
362.39	229.51
362.77	229.54
363.15	229.56
363.53	229.59
363.91	229.62
364.29	229.62
364.67	229.55
365.05	229.57
365.43	229.57
365.81	229.56
366.19	229.59
366.57	229.60
366.95	229.57
367.33	229.54
367.71	229.52
368.09	229.53
368.47	229.53
368.85	229.46
369.23	229.46
369.61	229.39
369.99	229.37
370.37	229.31
370.75	229.33
371.13	229.28
371.51	229.20
371.89	229.15
372.27	229.11
372.65	229.07
373.03	229.00
373.41	228.98
373.78	228.92
374.16	228.80
374.54	228.73
374.92	228.65
375.30	228.58
375.68	228.50
376.06	228.39
376.44	228.30
376.82	228.20
377.19	228.12
377.57	228.02
377.95	227.93
378.33	227.86
378.71	227.72
379.09	227.65
379.47	227.59
379.84	227.50
380.22	227.42
380.60	227.35
380.98	227.31
381.36	227.23
381.73	227.16
382.11	227.14
382.49	227.08
382.87	226.99
383.25	226.91
383.62	226.97
384.00	226.90
384.38	226.84
384.76	226.81
385.13	226.79
385.51	226.78
385.89	226.72
386.27	226.67
386.64	226.65
387.02	226.60
387.40	226.57
387.78	226.55
388.15	226.50
388.53	226.48
388.91	226.40
389.29	226.38
389.66	226.37
390.04	226.32
390.42	226.33
390.79	226.34
391.17	226.38
391.55	226.25
391.92	226.28
392.30	226.30
392.68	226.31
393.05	226.32
393.43	226.33
393.81	226.33
394.18	226.34
394.56	226.36
394.94	226.38
395.31	226.40
395.69	226.43
396.06	226.49
396.44	226.52
396.82	226.60
397.19	226.67
397.57	226.71
397.95	226.77
398.32	226.81
398.70	226.85
399.07	226.95
399.45	227.03
399.82	227.08
400.20	227.14
400.58	227.21
400.95	227.24
401.33	227.33
401.70	227.51
402.08	227.59
402.45	227.66
402.83	227.81
403.20	227.93
403.58	228.02
403.95	228.13
404.33	228.26
404.71	228.36
405.08	228.56
405.46	228.71
405.83	228.87
406.21	229.00
406.58	229.18
406.96	229.30
407.33	229.47
407.70	229.67
408.08	229.93
408.45	230.12
408.83	230.35
409.20	230.58
409.58	230.72
409.95	230.98
410.33	231.27
410.70	231.50
411.08	231.79
411.45	232.13
411.82	232.47
412.20	232.83
412.57	233.25
412.95	233.55
413.32	233.96
413.69	234.38
414.07	234.83
414.44	235.32
414.82	235.82
415.19	236.36
415.56	236.88
415.94	237.42
416.31	238.05
416.68	238.70
417.06	239.40
417.43	240.09
417.81	240.89
418.18	241.66
418.55	242.49
418.93	243.39
419.30	244.30
419.67	245.22
420.04	246.16
420.42	247.16
420.79	248.33
421.16	249.46
421.54	250.64
421.91	251.86
422.28	253.07
422.66	254.38
423.03	255.73
423.40	257.06
423.77	258.46
424.15	259.92
424.52	261.36
424.89	262.99
425.26	264.58
425.64	266.02
426.01	267.65
426.38	269.32
426.75	271.00
427.13	272.74
427.50	274.57
427.87	276.47
428.24	278.33
428.61	280.10
428.99	282.02
429.36	284.13
429.73	286.22
430.10	288.26
430.47	290.37
430.85	292.49
431.22	294.76
431.59	297.15
431.96	299.40
432.33	301.98
432.70	304.33
433.08	307.15
433.45	309.79
433.82	312.38
434.19	315.26
434.56	318.07
434.93	320.74
435.30	323.40
435.68	326.32
436.05	329.18
436.42	332.00
436.79	334.56
437.16	337.26
437.53	340.12
437.90	342.95
438.27	345.73
438.64	348.55
439.01	351.16
439.38	353.38
439.75	355.56
440.13	358.00
440.50	360.41
440.87	362.26
441.24	364.25
441.61	366.44
441.98	367.94
442.35	369.80
442.72	371.68
443.09	373.46
443.46	374.46
443.83	375.04
444.20	375.53
444.57	376.37
444.94	376.67
445.31	376.99
445.68	377.33
446.05	377.38
446.42	376.98
446.79	376.57
447.16	376.17
447.53	375.83
447.90	374.70
448.27	373.48
448.64	371.88
449.01	370.72
449.37	368.71
449.74	366.81
450.11	364.50
450.48	361.96
450.85	359.42
451.22	357.26
451.59	355.19
451.96	353.23
452.33	350.63
452.70	348.23
453.07	345.42
453.43	342.53
453.80	339.76
454.17	337.12
454.54	334.57
454.91	331.87
455.28	329.19
455.65	326.67
456.02	324.23
456.38	322.06
456.75	319.39
457.12	317.14
457.49	314.98
457.86	312.81
458.23	310.99
458.59	308.89
458.96	306.80
459.33	304.99
459.70	303.14
460.07	301.64
460.43	299.92
460.80	298.26
461.17	296.80
461.54	295.27
461.91	293.81
462.27	292.32
462.64	291.01
463.01	289.67
463.38	288.42
463.74	287.08
464.11	285.93
464.48	284.92
464.85	283.82
465.21	282.89
465.58	281.94
465.95	280.80
466.32	279.92
466.68	279.01
467.05	278.04
467.42	277.11
467.78	276.15
468.15	275.28
468.52	274.59
468.88	273.70
469.25	272.91
469.62	272.31
469.98	271.61
470.35	270.99
470.72	270.34
471.08	269.62
471.45	269.08
471.82	268.55
472.18	267.88
472.55	267.43
472.92	266.89
473.28	266.43
473.65	265.99
474.02	265.55
474.38	265.14
474.75	264.84
475.11	264.48
475.48	264.19
475.85	263.98
476.21	263.76
476.58	263.60
476.94	263.46
477.31	263.26
477.67	263.13
478.04	263.02
478.41	263.00
478.77	263.05
479.14	262.97
479.50	262.93
479.87	263.04
480.23	263.13
480.60	263.20
480.96	263.32
481.33	263.52
481.69	263.72
482.06	263.94
482.42	264.16
482.79	264.45
483.15	264.80
483.52	265.20
483.88	265.54
484.25	265.94
484.61	266.39
484.98	266.82
485.34	267.40
485.71	267.95
486.07	268.55
486.44	269.10
486.80	269.81
487.17	270.58
487.53	271.41
487.90	272.23
488.26	273.19
488.62	274.15
488.99	275.15
489.35	276.17
489.72	277.29
490.08	278.47
490.44	279.68
490.81	281.01
491.17	282.27
491.54	283.78
491.90	285.32
492.26	286.96
492.63	288.71
492.99	290.45
493.36	292.34
493.72	294.38
494.08	296.46
494.45	298.66
494.81	301.01
495.17	303.41
495.54	305.99
495.90	308.62
496.26	311.42
496.63	314.35
496.99	317.48
497.35	320.74
497.72	324.13
498.08	327.60
498.44	331.20
498.80	335.15
499.17	339.13
499.53	343.30
499.89	347.65
500.26	352.13
500.62	356.81
500.98	361.81
501.34	366.88
501.71	372.22
502.07	377.70
502.43	383.29
502.79	389.08
503.16	395.14
503.52	401.43
503.88	407.83
504.24	414.44
504.60	421.30
504.97	428.40
505.33	435.75
505.69	443.43
506.05	451.21
506.41	459.03
506.78	467.22
507.14	475.58
507.50	484.27
507.86	493.27
508.22	502.49
508.59	511.69
508.95	521.32
509.31	531.09
509.67	541.19
510.03	551.53
510.39	562.10
510.75	572.94
511.12	583.86
511.48	595.17
511.84	606.67
512.20	618.16
512.56	630.11
512.92	642.25
513.28	654.61
513.64	667.16
514.00	679.94
514.37	692.85
514.73	705.93
515.09	719.01
515.45	732.30
515.81	745.89
516.17	759.83
516.53	773.91
516.89	788.16
517.25	802.31
517.61	816.71
517.97	831.15
518.33	845.48
518.69	860.31
519.05	875.29
519.41	890.38
519.77	905.98
520.13	921.41
520.49	936.87
520.85	952.33
521.21	968.09
521.57	984.26
521.93	1000.10
522.29	1016.59
522.65	1032.89
523.01	1049.16
523.37	1065.28
523.73	1081.52
524.09	1097.67
524.45	1114.03
524.81	1130.73
525.17	1147.66
525.53	1164.59
525.89	1181.53
526.25	1198.37
526.61	1214.83
526.97	1231.68
527.33	1248.19
527.68	1264.94
528.04	1281.52
528.40	1298.29
528.76	1315.40
529.12	1332.20
529.48	1349.13
529.84	1365.14
530.20	1381.75
530.56	1398.96
530.91	1416.33
531.27	1433.19
531.63	1449.67
531.99	1466.29
532.35	1482.28
532.71	1498.18
533.07	1514.53
533.42	1530.52
533.78	1546.64
534.14	1562.91
534.50	1578.34
534.86	1594.29
535.21	1609.54
535.57	1625.43
535.93	1640.91
536.29	1655.69
536.65	1670.81
537.00	1685.69
537.36	1701.08
537.72	1715.78
538.08	1730.16
538.44	1744.05
538.79	1757.97
539.15	1771.84
539.51	1785.79
539.87	1800.24
540.22	1814.06
540.58	1827.96
540.94	1841.53
541.29	1854.56
541.65	1867.33
542.01	1880.68
542.37	1893.05
542.72	1905.57
543.08	1917.58
543.44	1930.06
543.79	1941.42
544.15	1952.38
544.51	1963.95
544.87	1975.01
545.22	1985.76
545.58	1996.00
545.94	2005.86
546.29	2015.73
546.65	2025.63
547.01	2034.70
547.36	2043.50
547.72	2051.99
548.07	2059.88
548.43	2068.02
548.79	2076.04
549.14	2083.81
549.50	2091.18
549.86	2099.03
550.21	2106.28
550.57	2113.27
550.92	2119.94
551.28	2127.00
551.64	2134.12
551.99	2140.73
552.35	2146.83
552.70	2153.17
553.06	2159.25
553.41	2165.63
553.77	2171.64
554.13	2177.65
554.48	2183.74
554.84	2189.14
555.19	2194.47
555.55	2199.54
555.90	2203.86
556.26	2208.76
556.61	2213.35
556.97	2217.50
557.32	2221.58
557.68	2225.80
558.03	2230.20
558.39	2233.92
558.74	2238.46
559.10	2242.39
559.45	2245.88
559.81	2250.34
560.16	2254.12
560.52	2257.33
560.87	2260.68
561.23	2263.25
561.58	2266.25
561.94	2268.83
562.29	2271.31
562.64	2274.02
563.00	2276.62
563.35	2280.24
563.71	2283.32
564.06	2286.48
564.42	2289.39
564.77	2291.78
565.12	2293.89
565.48	2295.68
565.83	2297.25
566.19	2298.54
566.54	2299.47
566.89	2300.65
567.25	2301.15
567.60	2302.42
567.96	2303.93
568.31	2304.70
568.66	2305.79
569.02	2306.29
569.37	2306.74
569.72	2307.45
570.08	2307.53
570.43	2307.44
570.78	2306.61
571.14	2304.98
571.49	2303.62
571.84	2303.04
572.20	2301.79
572.55	2300.73
572.90	2299.31
573.26	2297.99
573.61	2296.24
573.96	2294.27
574.31	2291.19
574.67	2287.91
575.02	2284.12
575.37	2280.70
575.72	2276.79
576.08	2273.57
576.43	2270.08
576.78	2266.20
577.13	2263.01
577.49	2259.82
577.84	2256.38
578.19	2252.75
578.54	2248.99
578.90	2244.66
579.25	2239.14
579.60	2234.08
579.95	2228.96
580.30	2223.68
580.66	2218.51
581.01	2213.36
581.36	2208.32
581.71	2204.07
582.06	2199.54
582.42	2194.98
582.77	2189.60
583.12	2184.88
583.47	2180.00
583.82	2174.79
584.17	2169.41
584.53	2163.74
584.88	2158.04
585.23	2152.05
585.58	2146.39
585.93	2140.90
586.28	2136.15
586.63	2130.99
586.98	2125.77
587.34	2121.03
587.69	2116.01
588.04	2110.48
588.39	2104.87
588.74	2098.39
589.09	2092.09
589.44	2085.13
589.79	2079.00
590.14	2073.40
590.49	2066.82
590.84	2060.30
591.19	2054.18
591.54	2047.66
591.89	2040.14
592.25	2033.08
592.60	2025.76
592.95	2018.15
593.30	2010.69
593.65	2002.92
594.00	1995.80
594.35	1988.61
594.70	1980.52
595.05	1973.13
595.40	1965.85
595.75	1958.24
596.10	1951.78
596.45	1945.05
596.80	1938.95
597.15	1932.23
597.50	1924.95
597.85	1918.63
598.19	1911.85
598.54	1904.88
598.89	1898.27
599.24	1892.34
599.59	1885.63
599.94	1879.47
600.29	1873.00
600.64	1866.37
600.99	1858.68
601.34	1851.81
601.69	1844.82
602.04	1837.66
602.39	1830.41
602.74	1823.55
603.08	1816.64
603.43	1809.96
603.78	1802.61
604.13	1795.47
604.48	1788.02
604.83	1781.22
605.18	1773.98
605.53	1765.99
605.87	1757.85
606.22	1750.54
606.57	1742.57
606.92	1735.32
607.27	1728.08
607.62	1721.13
607.96	1713.86
608.31	1707.27
608.66	1699.56
609.01	1691.94
609.36	1684.36
609.70	1676.29
610.05	1668.20
610.40	1660.67
610.75	1652.42
611.10	1644.74
611.44	1636.36
611.79	1628.60
612.14	1619.93
612.49	1610.89
612.83	1602.50
613.18	1594.40
613.53	1586.23
613.88	1577.72
614.22	1569.35
614.57	1560.75
614.92	1552.87
615.27	1545.28
615.61	1537.06
615.96	1529.12
616.31	1521.50
616.65	1514.27
617.00	1506.66
617.35	1499.10
617.70	1490.57
618.04	1481.96
618.39	1473.69
618.74	1465.96
619.08	1457.60
619.43	1450.05
619.78	1443.18
620.12	1436.03
620.47	1428.54
620.82	1420.50
621.16	1413.12
621.51	1405.55
621.85	1397.96
622.20	1389.35
622.55	1381.05
622.89	1373.18
623.24	1365.48
623.59	1358.08
623.93	1350.50
624.28	1343.35
624.62	1335.68
624.97	1328.57
625.32	1321.93
625.66	1314.94
626.01	1307.71
626.35	1300.21
626.70	1292.34
627.04	1284.49
627.39	1276.77
627.73	1269.30
628.08	1262.23
628.43	1254.91
628.77	1247.51
629.12	1239.83
629.46	1232.64
629.81	1225.23
630.15	1218.00
630.50	1210.63
630.84	1202.52
631.19	1194.68
631.53	1187.17
631.88	1179.68
632.22	1172.11
632.57	1164.73
632.91	1157.19
633.26	1149.77
633.60	1142.56
633.95	1135.62
634.29	1128.64
634.64	1121.93
634.98	1114.58
635.32	1107.61
635.67	1101.08
636.01	1094.47
636.36	1087.76
636.70	1081.33
637.05	1074.75
637.39	1068.34
637.73	1061.90
638.08	1056.12
638.42	1050.15
638.77	1043.68
639.11	1037.13
639.45	1030.77
639.80	1024.19
640.14	1017.85
640.49	1011.41
640.83	1005.03
641.17	998.69
641.52	992.27
641.86	985.89
642.20	980.04
642.55	973.70
642.89	967.18
643.23	960.71
643.58	954.97
643.92	948.67
644.26	942.56
644.61	936.54
644.95	930.54
645.29	923.83
645.64	917.05
645.98	910.74
646.32	904.87
646.66	898.89
647.01	893.03
647.35	887.31
647.69	881.49
648.04	876.00
648.38	870.24
648.72	864.27
649.06	858.15
649.41	852.34
649.75	846.31
650.09	840.32
650.43	834.49
650.78	828.28
651.12	822.34
651.46	816.64
651.80	810.83
652.14	805.35
652.49	799.96
652.83	794.86
653.17	789.27
653.51	783.53
653.85	778.13
654.20	772.50
654.54	766.51
654.88	760.78
655.22	754.83
655.56	749.18
655.90	743.85
656.25	738.63
656.59	733.29
656.93	728.25
657.27	723.06
657.61	717.60
657.95	712.54
658.29	707.47
658.64	702.28
658.98	697.10
659.32	691.66
659.66	686.46
660.00	681.14
660.34	676.12
660.68	671.25
661.02	666.27
661.36	661.55
661.70	657.07
662.05	652.77
662.39	648.44
662.73	644.06
663.07	639.64
663.41	635.24
663.75	630.71
664.09	626.20
664.43	621.92
664.77	617.88
665.11	613.67
665.45	609.67
665.79	605.60
666.13	601.39
666.47	597.35
666.81	593.21
667.15	589.11
667.49	585.27
667.83	581.53
668.17	577.56
668.51	573.56
668.85	569.54
669.19	565.66
669.53	561.93
669.87	557.96
670.21	554.22
670.55	550.58
670.89	547.19
671.23	543.69
671.57	540.18
671.91	536.61
672.25	533.11
672.58	529.58
672.92	526.21
673.26	523.09
673.60	520.00
673.94	516.93
674.28	514.04
674.62	511.05
674.96	507.97
675.30	505.12
675.64	502.22
675.97	499.49
676.31	496.66
676.65	493.72
676.99	491.05
677.33	488.25
677.67	485.40
678.01	482.36
678.34	479.46
678.68	476.61
679.02	473.79
679.36	471.10
679.70	468.35
680.04	465.58
680.37	462.71
680.71	459.89
681.05	457.30
681.39	454.60
681.73	452.01
682.06	449.44
682.40	446.87
682.74	444.36
683.08	441.84
683.42	439.25
683.75	436.73
684.09	434.19
684.43	431.75
684.77	429.36
685.10	427.06
685.44	424.80
685.78	422.51
686.12	420.30
686.45	418.00
686.79	415.72
687.13	413.56
687.46	411.40
687.80	409.26
688.14	407.02
688.48	405.01
688.81	402.72
689.15	400.58
689.49	398.45
689.82	396.31
690.16	394.18
690.50	392.23
690.83	390.31
691.17	388.32
691.51	386.41
691.84	384.58
692.18	382.64
692.52	380.60
692.85	378.68
693.19	376.78
693.52	374.97
693.86	373.18
694.20	371.38
694.53	369.57
694.87	367.78
695.21	366.03
695.54	364.17
695.88	362.44
696.21	360.74
696.55	359.06
696.88	357.43
697.22	355.81
697.56	354.21
697.89	352.59
698.23	351.02
698.56	349.42
698.90	347.80
699.23	346.12
699.57	344.58
699.90	343.08
700.24	341.53
700.58	339.98
700.91	338.48
701.25	337.04
701.58	335.68
701.92	334.34
702.25	332.98
702.59	331.63
702.92	330.32
703.26	329.05
703.59	327.75
703.93	326.57
704.26	325.33
704.60	324.01
704.93	322.74
705.26	321.48
705.60	320.34
705.93	319.21
706.27	318.24
706.60	317.17
706.94	316.06
707.27	314.97
707.61	313.92
707.94	312.90
708.27	311.80
708.61	310.75
708.94	309.74
709.28	308.74
709.61	307.80
709.94	306.90
710.28	305.88
710.61	304.94
710.95	303.85
711.28	302.91
711.61	301.95
711.95	301.01
712.28	300.08
712.61	299.07
712.95	298.12
713.28	297.24
713.61	296.36
713.95	295.49
714.28	294.67
714.61	293.82
714.95	292.97
715.28	292.12
715.61	291.25
715.95	290.37
716.28	289.51
716.61	288.67
716.95	287.83
717.28	287.08
717.61	286.33
717.94	285.63
718.28	284.83
718.61	284.16
718.94	283.49
719.27	282.85
719.61	282.25
719.94	281.60
720.27	280.87
720.60	280.19
720.94	279.56
721.27	278.96
721.60	278.38
721.93	277.80
722.27	277.29
722.60	276.73
722.93	276.16
723.26	275.64
723.59	275.05
723.93	274.53
724.26	273.96
724.59	273.40
724.92	272.85
725.25	272.35
725.59	271.83
725.92	271.30
726.25	270.75
726.58	270.23
726.91	269.76
727.24	269.24
727.57	268.79
727.91	268.28
728.24	267.84
728.57	267.34
728.90	266.87
729.23	266.36
729.56	265.96
729.89	265.46
730.22	264.97
730.55	264.50
730.89	264.04
731.22	263.62
731.55	263.16
731.88	262.74
732.21	262.34
732.54	261.90
732.87	261.47
733.20	261.08
733.53	260.68
733.86	260.27
734.19	259.90
734.52	259.52
734.85	259.25
735.18	258.82
735.51	258.47
735.84	258.10
736.17	257.76
736.50	257.35
736.83	257.15
737.16	256.85
737.49	256.56
737.82	256.19
738.15	255.88
738.48	255.56
738.81	255.23
739.14	254.90
739.47	254.58
739.80	254.29
740.13	253.96
740.46	253.62
740.79	253.31
741.12	252.99
741.45	252.66
741.78	252.29
742.11	251.95
742.44	251.61
742.77	251.31
743.10	250.97
743.43	250.66
743.75	250.26
744.08	250.11
744.41	249.82
744.74	249.56
745.07	249.26
745.40	248.99
745.73	248.76
746.06	248.48
746.39	248.20
746.71	247.92
747.04	247.64
747.37	247.37
747.70	247.11
748.03	246.88
748.36	246.68
748.68	246.44
749.01	246.21
749.34	246.00
749.67	245.78
750.00	245.57
750.33	245.43
750.65	245.21
750.98	244.85
751.31	244.67
751.64	244.47
751.97	244.28
752.29	244.08
752.62	243.84
752.95	243.64
753.28	243.45
753.60	243.23
753.93	243.08
754.26	242.93
754.59	242.73
754.91	242.51
755.24	242.34
755.57	242.15
755.90	241.99
756.22	241.78
756.55	241.57
756.88	241.39
757.20	241.17
757.53	240.97
757.86	240.81
758.19	240.62
758.51	240.46
758.84	240.27
759.17	240.11
759.49	239.96
759.82	239.84
760.15	239.71
760.47	239.59
760.80	239.41
761.13	239.26
761.45	239.10
761.78	238.98
762.11	238.81
762.43	238.65
762.76	238.51
763.08	238.38
763.41	238.29
763.74	238.19
764.06	238.03
764.39	237.90
764.71	237.75
765.04	237.60
765.37	237.46
765.69	237.31
766.02	237.22
766.34	237.07
766.67	236.91
767.00	236.82
767.32	236.74
767.65	236.73
767.97	236.60
768.30	236.49
768.62	236.38
768.95	236.24
769.27	236.14
769.60	236.06
769.92	235.98
770.25	235.85
770.57	235.70
770.90	235.58
771.22	235.49
771.55	235.38
771.87	235.32
772.20	235.24
772.52	235.26
772.85	235.24
773.17	235.15
773.50	235.03
773.82	234.90
774.15	234.73
774.47	234.59
774.80	234.49
775.12	234.40
775.45	234.30
775.77	234.28
776.09	234.19
776.42	234.10
776.74	234.00
777.07	233.93
777.39	233.87
777.72	233.76
778.04	233.72
778.36	233.64
778.69	233.55
779.01	233.47
779.33	233.29
779.66	233.13
779.98	233.04
780.31	233.01
780.63	232.99
780.95	232.97
781.28	232.86
781.60	232.81
781.92	232.71
782.25	232.62
782.57	232.54
782.89	232.46
783.22	232.39
783.54	232.35
783.86	232.30
784.19	232.24
784.51	232.26
784.83	232.15
785.16	232.09
785.48	232.05
785.80	231.98
786.12	231.94
786.45	231.87
786.77	231.84
787.09	231.76
