SpectraSuite Data File
++++++++++++++++++++++++++++++++++++
Date: Fri Feb 01 15:46:46 EST 2013
User: group
Dark Spectrum Present: No
Reference Spectrum Present: No
Number of Sampled Component Spectra: 1
Spectrometers: USB2E7196
Integration Time (usec): 35000 (USB2E7196)
Spectra Averaged: 100 (USB2E7196)
Boxcar Smoothing: 10 (USB2E7196)
Correct for Electrical Dark: No (USB2E7196)
Strobe/Lamp Enabled: No (USB2E7196)
Correct for Detector Non-linearity: No (USB2E7196)
Correct for Stray Light: No (USB2E7196)
Number of Pixels in Processed Spectrum: 2048
>>>>>Begin Processed Spectral Data<<<<<
339.09	0.00
339.48	215.43
339.86	216.75
340.24	218.32
340.63	219.31
341.01	222.24
341.39	221.61
341.78	223.38
342.16	224.66
342.54	224.74
342.93	213.41
343.31	224.19
343.69	224.72
344.07	225.17
344.46	225.59
344.84	225.97
345.22	226.19
345.60	226.45
345.99	226.61
346.37	226.72
346.75	226.83
347.13	226.88
347.52	226.93
347.90	226.95
348.28	226.95
348.66	226.97
349.05	226.95
349.43	226.99
349.81	226.99
350.19	227.03
350.57	227.08
350.96	227.12
351.34	227.16
351.72	227.20
352.10	227.26
352.48	227.30
352.87	227.33
353.25	227.37
353.63	227.42
354.01	227.49
354.39	227.57
354.77	227.62
355.15	227.71
355.54	227.75
355.92	227.80
356.30	227.88
356.68	227.98
357.06	228.07
357.44	228.07
357.82	228.16
358.20	228.21
358.58	228.24
358.97	228.32
359.35	228.41
359.73	228.48
360.11	228.56
360.49	228.60
360.87	228.67
361.25	228.72
361.63	228.80
362.01	228.84
362.39	228.89
362.77	228.94
363.15	228.98
363.53	229.03
363.91	229.08
364.29	229.11
364.67	229.07
365.05	229.07
365.43	229.08
365.81	229.12
366.19	229.19
366.57	229.24
366.95	229.26
367.33	229.25
367.71	229.27
368.09	229.30
368.47	229.32
368.85	229.32
369.23	229.33
369.61	229.25
369.99	229.26
370.37	229.22
370.75	229.23
371.13	229.20
371.51	229.12
371.89	229.09
372.27	229.06
372.65	229.01
373.03	229.00
373.41	228.98
373.78	228.92
374.16	228.80
374.54	228.71
374.92	228.62
375.30	228.61
375.68	228.52
376.06	228.44
376.44	228.36
376.82	228.27
377.19	228.20
377.57	228.14
377.95	228.03
378.33	227.98
378.71	227.87
379.09	227.82
379.47	227.79
379.84	227.70
380.22	227.61
380.60	227.55
380.98	227.44
381.36	227.36
381.73	227.28
382.11	227.27
382.49	227.21
382.87	227.13
383.25	227.04
383.62	227.09
384.00	226.99
384.38	226.97
384.76	226.96
385.13	226.97
385.51	226.93
385.89	226.88
386.27	226.83
386.64	226.79
387.02	226.72
387.40	226.68
387.78	226.69
388.15	226.69
388.53	226.62
388.91	226.59
389.29	226.56
389.66	226.56
390.04	226.50
390.42	226.50
390.79	226.48
391.17	226.46
391.55	226.33
391.92	226.32
392.30	226.29
392.68	226.22
393.05	226.22
393.43	226.24
393.81	226.24
394.18	226.23
394.56	226.22
394.94	226.24
395.31	226.24
395.69	226.26
396.06	226.25
396.44	226.32
396.82	226.35
397.19	226.43
397.57	226.43
397.95	226.50
398.32	226.54
398.70	226.63
399.07	226.70
399.45	226.76
399.82	226.83
400.20	226.89
400.58	226.98
400.95	226.99
401.33	227.09
401.70	227.23
402.08	227.34
402.45	227.45
402.83	227.54
403.20	227.62
403.58	227.72
403.95	227.87
404.33	227.95
404.71	228.07
405.08	228.26
405.46	228.41
405.83	228.58
406.21	228.70
406.58	228.84
406.96	229.03
407.33	229.19
407.70	229.41
408.08	229.67
408.45	229.90
408.83	230.15
409.20	230.37
409.58	230.57
409.95	230.82
410.33	231.10
410.70	231.37
411.08	231.71
411.45	231.99
411.82	232.29
412.20	232.69
412.57	233.12
412.95	233.40
413.32	233.83
413.69	234.21
414.07	234.69
414.44	235.21
414.82	235.68
415.19	236.21
415.56	236.75
415.94	237.31
416.31	237.94
416.68	238.56
417.06	239.27
417.43	239.96
417.81	240.74
418.18	241.55
418.55	242.40
418.93	243.25
419.30	244.18
419.67	245.17
420.04	246.13
420.42	247.12
420.79	248.30
421.16	249.46
421.54	250.67
421.91	251.89
422.28	253.12
422.66	254.48
423.03	255.86
423.40	257.19
423.77	258.61
424.15	260.06
424.52	261.56
424.89	263.17
425.26	264.74
425.64	266.20
426.01	267.76
426.38	269.45
426.75	271.13
427.13	272.84
427.50	274.62
427.87	276.49
428.24	278.35
428.61	280.09
428.99	282.05
429.36	284.12
429.73	286.17
430.10	288.18
430.47	290.21
430.85	292.31
431.22	294.56
431.59	296.91
431.96	299.11
432.33	301.59
432.70	303.99
433.08	306.78
433.45	309.41
433.82	311.99
434.19	314.87
434.56	317.67
434.93	320.31
435.30	322.97
435.68	325.88
436.05	328.73
436.42	331.58
436.79	334.09
437.16	336.79
437.53	339.65
437.90	342.46
438.27	345.21
438.64	348.04
439.01	350.63
439.38	352.91
439.75	355.13
440.13	357.67
440.50	359.91
440.87	361.78
441.24	363.76
441.61	365.95
441.98	367.41
442.35	369.22
442.72	371.08
443.09	372.83
443.46	373.80
443.83	374.37
444.20	374.83
444.57	375.66
444.94	375.98
445.31	376.27
445.68	376.62
446.05	376.68
446.42	376.30
446.79	375.87
447.16	375.42
447.53	375.05
447.90	373.86
448.27	372.77
448.64	371.15
449.01	369.96
449.37	367.98
449.74	366.11
450.11	363.88
450.48	361.43
450.85	358.89
451.22	356.77
451.59	354.74
451.96	352.81
452.33	350.22
452.70	347.84
453.07	345.03
453.43	342.14
453.80	339.37
454.17	336.69
454.54	334.16
454.91	331.40
455.28	328.75
455.65	326.24
456.02	323.78
456.38	321.66
456.75	319.01
457.12	316.79
457.49	314.57
457.86	312.42
458.23	310.58
458.59	308.55
458.96	306.47
459.33	304.64
459.70	302.76
460.07	301.25
460.43	299.52
460.80	297.89
461.17	296.47
461.54	294.97
461.91	293.52
462.27	292.07
462.64	290.85
463.01	289.50
463.38	288.19
463.74	286.83
464.11	285.66
464.48	284.64
464.85	283.50
465.21	282.64
465.58	281.70
465.95	280.59
466.32	279.70
466.68	278.78
467.05	277.87
467.42	276.98
467.78	276.05
468.15	275.18
468.52	274.52
468.88	273.70
469.25	272.89
469.62	272.28
469.98	271.64
470.35	270.99
470.72	270.37
471.08	269.72
471.45	269.25
471.82	268.72
472.18	268.12
472.55	267.71
472.92	267.14
473.28	266.66
473.65	266.19
474.02	265.72
474.38	265.33
474.75	265.00
475.11	264.69
475.48	264.39
475.85	264.16
476.21	263.94
476.58	263.72
476.94	263.63
477.31	263.45
477.67	263.25
478.04	263.15
478.41	263.09
478.77	263.10
479.14	262.97
479.50	262.96
479.87	263.04
480.23	263.07
480.60	263.12
480.96	263.22
481.33	263.41
481.69	263.61
482.06	263.85
482.42	264.06
482.79	264.29
483.15	264.66
483.52	265.05
483.88	265.40
484.25	265.78
484.61	266.17
484.98	266.64
485.34	267.23
485.71	267.80
486.07	268.44
486.44	268.99
486.80	269.69
487.17	270.39
487.53	271.20
487.90	272.05
488.26	273.00
488.62	274.00
488.99	274.96
489.35	276.01
489.72	277.10
490.08	278.28
490.44	279.53
490.81	280.82
491.17	282.20
491.54	283.65
491.90	285.23
492.26	286.88
492.63	288.63
492.99	290.38
493.36	292.26
493.72	294.28
494.08	296.38
494.45	298.63
494.81	301.03
495.17	303.44
495.54	306.02
495.90	308.72
496.26	311.50
496.63	314.46
496.99	317.55
497.35	320.79
497.72	324.20
498.08	327.74
498.44	331.41
498.80	335.33
499.17	339.36
499.53	343.53
499.89	347.88
500.26	352.40
500.62	357.11
500.98	362.11
501.34	367.18
501.71	372.59
502.07	378.04
502.43	383.67
502.79	389.53
503.16	395.61
503.52	401.91
503.88	408.34
504.24	415.00
504.60	421.97
504.97	429.12
505.33	436.51
505.69	444.19
506.05	451.99
506.41	459.85
506.78	468.02
507.14	476.50
507.50	485.24
507.86	494.19
508.22	503.36
508.59	512.57
508.95	522.15
509.31	531.97
509.67	542.14
510.03	552.42
510.39	562.99
510.75	573.81
511.12	584.80
511.48	596.15
511.84	607.60
512.20	619.09
512.56	631.08
512.92	643.23
513.28	655.59
513.64	668.12
514.00	680.77
514.37	693.68
514.73	706.73
515.09	719.77
515.45	733.10
515.81	746.73
516.17	760.77
516.53	774.91
516.89	789.10
517.25	803.18
517.61	817.70
517.97	832.20
518.33	846.54
518.69	861.18
519.05	876.13
519.41	891.31
519.77	906.92
520.13	922.31
520.49	937.66
520.85	953.07
521.21	968.78
521.57	985.05
521.93	1000.85
522.29	1017.24
522.65	1033.43
523.01	1049.68
523.37	1065.71
523.73	1081.88
524.09	1097.97
524.45	1114.19
524.81	1130.86
525.17	1147.60
525.53	1164.48
525.89	1181.41
526.25	1198.32
526.61	1214.72
526.97	1231.41
527.33	1247.80
527.68	1264.44
528.04	1280.94
528.40	1297.65
528.76	1314.57
529.12	1331.25
529.48	1348.09
529.84	1364.09
530.20	1380.76
530.56	1397.90
530.91	1415.32
531.27	1432.07
531.63	1448.47
531.99	1464.96
532.35	1480.86
532.71	1496.70
533.07	1512.86
533.42	1528.74
533.78	1544.79
534.14	1561.12
534.50	1576.61
534.86	1592.45
535.21	1607.69
535.57	1623.65
535.93	1639.06
536.29	1653.96
536.65	1669.08
537.00	1683.89
537.36	1699.07
537.72	1713.66
538.08	1727.96
538.44	1741.75
538.79	1755.63
539.15	1769.35
539.51	1783.30
539.87	1797.73
540.22	1811.50
540.58	1825.35
540.94	1838.70
541.29	1851.61
541.65	1864.26
542.01	1877.36
542.37	1889.66
542.72	1902.13
543.08	1913.89
543.44	1926.37
543.79	1937.69
544.15	1948.71
544.51	1960.31
544.87	1971.53
545.22	1982.34
545.58	1992.54
545.94	2002.30
546.29	2012.08
546.65	2021.99
547.01	2031.23
547.36	2039.91
547.72	2048.46
548.07	2056.28
548.43	2064.62
548.79	2072.65
549.14	2080.16
549.50	2087.51
549.86	2095.19
550.21	2102.35
550.57	2109.62
550.92	2116.07
551.28	2122.93
551.64	2129.91
551.99	2136.42
552.35	2142.50
552.70	2148.62
553.06	2154.62
553.41	2161.08
553.77	2167.19
554.13	2173.39
554.48	2179.46
554.84	2184.94
555.19	2190.25
555.55	2195.34
555.90	2199.72
556.26	2204.51
556.61	2209.30
556.97	2213.56
557.32	2217.71
557.68	2221.83
558.03	2226.06
558.39	2229.78
558.74	2234.51
559.10	2238.34
559.45	2242.02
559.81	2246.28
560.16	2250.05
560.52	2253.23
560.87	2256.57
561.23	2259.21
561.58	2262.09
561.94	2264.58
562.29	2266.97
562.64	2269.52
563.00	2272.14
563.35	2275.68
563.71	2278.89
564.06	2282.06
564.42	2284.87
564.77	2287.47
565.12	2289.85
565.48	2291.78
565.83	2293.72
566.19	2295.04
566.54	2295.83
566.89	2296.91
567.25	2297.46
567.60	2298.89
567.96	2300.59
568.31	2301.37
568.66	2302.40
569.02	2302.77
569.37	2303.15
569.72	2304.03
570.08	2304.11
570.43	2304.19
570.78	2303.51
571.14	2301.91
571.49	2300.54
571.84	2300.20
572.20	2298.98
572.55	2298.05
572.90	2296.54
573.26	2295.08
573.61	2293.37
573.96	2291.64
574.31	2288.60
574.67	2285.64
575.02	2281.91
575.37	2278.52
575.72	2274.60
576.08	2271.32
576.43	2267.96
576.78	2264.22
577.13	2260.97
577.49	2257.94
577.84	2254.35
578.19	2250.62
578.54	2247.03
578.90	2242.61
579.25	2237.14
579.60	2232.13
579.95	2226.89
580.30	2221.77
580.66	2216.60
581.01	2211.63
581.36	2206.85
581.71	2202.75
582.06	2198.19
582.42	2193.67
582.77	2188.39
583.12	2183.93
583.47	2179.19
583.82	2174.30
584.17	2169.04
584.53	2163.55
584.88	2157.86
585.23	2152.12
585.58	2146.58
585.93	2141.17
586.28	2136.54
586.63	2131.46
586.98	2126.42
587.34	2121.70
587.69	2116.79
588.04	2111.52
588.39	2105.78
588.74	2099.16
589.09	2092.97
589.44	2086.10
589.79	2080.32
590.14	2074.82
590.49	2068.23
590.84	2061.87
591.19	2055.80
591.54	2049.23
591.89	2041.75
592.25	2035.08
592.60	2027.78
592.95	2020.17
593.30	2012.65
593.65	2005.03
594.00	1998.01
594.35	1990.69
594.70	1982.72
595.05	1975.35
595.40	1968.07
595.75	1960.61
596.10	1954.47
596.45	1947.68
596.80	1941.67
597.15	1934.89
597.50	1927.65
597.85	1921.17
598.19	1914.41
598.54	1907.22
598.89	1900.77
599.24	1894.89
599.59	1887.98
599.94	1881.90
600.29	1875.59
600.64	1869.05
600.99	1861.61
601.34	1854.75
601.69	1847.93
602.04	1841.09
602.39	1833.88
602.74	1826.92
603.08	1820.16
603.43	1813.30
603.78	1806.03
604.13	1798.75
604.48	1791.34
604.83	1784.51
605.18	1777.32
605.53	1769.34
605.87	1761.40
606.22	1754.00
606.57	1746.07
606.92	1738.76
607.27	1731.40
607.62	1724.46
607.96	1717.19
608.31	1710.59
608.66	1703.01
609.01	1695.36
609.36	1687.56
609.70	1679.43
610.05	1671.45
610.40	1663.62
610.75	1655.36
611.10	1647.69
611.44	1639.25
611.79	1631.22
612.14	1622.59
612.49	1613.64
612.83	1605.27
613.18	1597.15
613.53	1589.06
613.88	1580.57
614.22	1572.21
614.57	1563.81
614.92	1555.65
615.27	1547.99
615.61	1539.56
615.96	1531.41
616.31	1523.86
616.65	1516.57
617.00	1509.07
617.35	1501.39
617.70	1493.10
618.04	1484.66
618.39	1476.40
618.74	1468.85
619.08	1460.57
619.43	1452.87
619.78	1445.90
620.12	1438.74
620.47	1431.19
620.82	1423.16
621.16	1415.72
621.51	1408.33
621.85	1400.64
622.20	1392.22
622.55	1384.03
622.89	1376.26
623.24	1368.70
623.59	1361.30
623.93	1353.86
624.28	1346.60
624.62	1339.01
624.97	1331.92
625.32	1325.10
625.66	1318.19
626.01	1311.04
626.35	1303.54
626.70	1295.90
627.04	1288.22
627.39	1280.44
627.73	1273.03
628.08	1266.01
628.43	1258.69
628.77	1251.19
629.12	1243.59
629.46	1236.39
629.81	1228.92
630.15	1221.69
630.50	1214.22
630.84	1206.04
631.19	1198.15
631.53	1190.59
631.88	1183.06
632.22	1175.34
632.57	1168.10
632.91	1160.46
633.26	1152.97
633.60	1145.67
633.95	1138.57
634.29	1131.56
634.64	1125.01
634.98	1117.74
635.32	1110.55
635.67	1103.96
636.01	1097.34
636.36	1090.49
636.70	1084.04
637.05	1077.38
637.39	1070.93
637.73	1064.37
638.08	1058.46
638.42	1052.29
638.77	1045.98
639.11	1039.31
639.45	1032.99
639.80	1026.23
640.14	1019.85
640.49	1013.37
640.83	1007.07
641.17	1000.71
641.52	994.24
641.86	987.69
642.20	981.71
642.55	975.43
642.89	968.91
643.23	962.42
643.58	956.76
643.92	950.44
644.26	944.40
644.61	938.38
644.95	932.41
645.29	925.79
645.64	919.12
645.98	912.77
646.32	907.03
646.66	900.98
647.01	895.22
647.35	889.34
647.69	883.51
648.04	878.00
648.38	872.17
648.72	866.21
649.06	860.08
649.41	854.22
649.75	848.23
650.09	842.35
650.43	836.52
650.78	830.28
651.12	824.40
651.46	818.74
651.80	812.91
652.14	807.47
652.49	802.12
652.83	796.92
653.17	791.08
653.51	785.36
653.85	780.04
654.20	774.35
654.54	768.37
654.88	762.63
655.22	756.75
655.56	751.18
655.90	745.78
656.25	740.59
656.59	735.26
656.93	730.18
657.27	724.98
657.61	719.52
657.95	714.43
658.29	709.30
658.64	703.98
658.98	698.68
659.32	693.31
659.66	688.08
660.00	682.76
660.34	677.89
660.68	672.94
661.02	667.86
661.36	663.14
661.70	658.70
662.05	654.30
662.39	649.93
662.73	645.43
663.07	641.01
663.41	636.48
663.75	631.95
664.09	627.37
664.43	622.96
664.77	618.90
665.11	614.67
665.45	610.63
665.79	606.59
666.13	602.46
666.47	598.35
666.81	594.11
667.15	590.03
667.49	586.16
667.83	582.38
668.17	578.47
668.51	574.40
668.85	570.35
669.19	566.51
669.53	562.70
669.87	558.78
670.21	555.16
670.55	551.53
670.89	548.14
671.23	544.75
671.57	541.25
671.91	537.75
672.25	534.22
672.58	530.68
672.92	527.26
673.26	524.07
673.60	520.85
673.94	517.81
674.28	514.89
674.62	511.89
674.96	508.86
675.30	505.93
675.64	503.02
675.97	500.30
676.31	497.41
676.65	494.47
676.99	491.83
677.33	488.98
677.67	486.23
678.01	483.14
678.34	480.10
678.68	477.26
679.02	474.37
679.36	471.62
679.70	468.92
680.04	466.14
680.37	463.30
680.71	460.54
681.05	457.87
681.39	455.14
681.73	452.49
682.06	449.90
682.40	447.34
682.74	444.82
683.08	442.25
683.42	439.63
683.75	437.13
684.09	434.54
684.43	432.03
684.77	429.53
685.10	427.20
685.44	424.92
685.78	422.68
686.12	420.41
686.45	418.16
686.79	415.81
687.13	413.64
687.46	411.46
687.80	409.32
688.14	407.16
688.48	405.14
688.81	402.86
689.15	400.72
689.49	398.54
689.82	396.43
690.16	394.37
690.50	392.46
690.83	390.51
691.17	388.54
691.51	386.64
691.84	384.77
692.18	382.83
692.52	380.90
692.85	378.92
693.19	377.00
693.52	375.16
693.86	373.36
694.20	371.58
694.53	369.78
694.87	367.93
695.21	366.13
695.54	364.25
695.88	362.58
696.21	360.83
696.55	359.15
696.88	357.48
697.22	355.77
697.56	354.11
697.89	352.44
698.23	350.81
698.56	349.19
698.90	347.61
699.23	346.01
699.57	344.46
699.90	342.94
700.24	341.45
700.58	339.90
700.91	338.43
701.25	336.95
701.58	335.57
701.92	334.20
702.25	332.84
702.59	331.51
702.92	330.16
703.26	328.88
703.59	327.62
703.93	326.40
704.26	325.19
704.60	323.90
704.93	322.63
705.26	321.43
705.60	320.26
705.93	319.09
706.27	318.03
706.60	316.94
706.94	315.85
707.27	314.70
707.61	313.68
707.94	312.65
708.27	311.60
708.61	310.54
708.94	309.53
709.28	308.53
709.61	307.55
709.94	306.63
710.28	305.61
710.61	304.66
710.95	303.64
711.28	302.73
711.61	301.81
711.95	300.91
712.28	299.95
712.61	299.00
712.95	298.07
713.28	297.20
713.61	296.30
713.95	295.42
714.28	294.60
714.61	293.74
714.95	292.91
715.28	292.05
715.61	291.19
715.95	290.38
716.28	289.50
716.61	288.72
716.95	287.93
717.28	287.20
717.61	286.44
717.94	285.67
718.28	284.86
718.61	284.16
718.94	283.47
719.27	282.81
719.61	282.12
719.94	281.47
720.27	280.73
720.60	280.08
720.94	279.45
721.27	278.87
721.60	278.28
721.93	277.67
722.27	277.13
722.60	276.58
722.93	276.02
723.26	275.52
723.59	274.92
723.93	274.39
724.26	273.83
724.59	273.28
724.92	272.80
725.25	272.33
725.59	271.78
725.92	271.30
726.25	270.80
726.58	270.34
726.91	269.85
727.24	269.42
727.57	268.99
727.91	268.49
728.24	268.00
728.57	267.53
728.90	267.09
729.23	266.61
729.56	266.17
729.89	265.70
730.22	265.23
730.55	264.82
730.89	264.34
731.22	263.89
731.55	263.42
731.88	262.96
732.21	262.50
732.54	262.10
732.87	261.65
733.20	261.24
733.53	260.85
733.86	260.51
734.19	260.09
734.52	259.69
734.85	259.37
735.18	258.96
735.51	258.59
735.84	258.20
736.17	257.86
736.50	257.50
736.83	257.26
737.16	256.89
737.49	256.52
737.82	256.19
738.15	255.84
738.48	255.51
738.81	255.17
739.14	254.86
739.47	254.55
739.80	254.23
740.13	253.94
740.46	253.58
740.79	253.22
741.12	252.94
741.45	252.62
741.78	252.29
742.11	252.00
742.44	251.67
742.77	251.37
743.10	251.08
743.43	250.73
743.75	250.35
744.08	250.23
744.41	249.96
744.74	249.67
745.07	249.36
745.40	249.14
745.73	248.92
746.06	248.63
746.39	248.34
746.71	248.10
747.04	247.81
747.37	247.55
747.70	247.30
748.03	247.02
748.36	246.78
748.68	246.56
749.01	246.30
749.34	246.06
749.67	245.83
750.00	245.55
750.33	245.41
750.65	245.16
750.98	244.81
751.31	244.57
751.64	244.32
751.97	244.22
752.29	243.96
752.62	243.65
752.95	243.46
753.28	243.26
753.60	243.02
753.93	242.85
754.26	242.68
754.59	242.45
754.91	242.27
755.24	242.08
755.57	241.86
755.90	241.69
756.22	241.50
756.55	241.27
756.88	241.10
757.20	240.88
757.53	240.70
757.86	240.55
758.19	240.37
758.51	240.20
758.84	239.97
759.17	239.80
759.49	239.69
759.82	239.58
760.15	239.45
760.47	239.30
760.80	239.12
761.13	238.97
761.45	238.85
761.78	238.67
762.11	238.54
762.43	238.38
762.76	238.23
763.08	238.09
763.41	238.00
763.74	237.88
764.06	237.70
764.39	237.55
764.71	237.39
765.04	237.29
765.37	237.18
765.69	237.03
766.02	236.92
766.34	236.83
766.67	236.67
767.00	236.57
767.32	236.49
767.65	236.44
767.97	236.32
768.30	236.21
768.62	236.12
768.95	235.99
769.27	235.88
769.60	235.81
769.92	235.72
770.25	235.58
770.57	235.47
770.90	235.40
771.22	235.28
771.55	235.22
771.87	235.14
772.20	235.06
772.52	235.06
772.85	235.08
773.17	234.98
773.50	234.85
773.82	234.75
774.15	234.62
774.47	234.47
774.80	234.37
775.12	234.28
775.45	234.20
775.77	234.12
776.09	234.06
776.42	233.94
776.74	233.85
777.07	233.79
777.39	233.73
777.72	233.64
778.04	233.62
778.36	233.54
778.69	233.46
779.01	233.39
779.33	233.22
779.66	233.04
779.98	232.94
780.31	232.90
780.63	232.84
780.95	232.78
781.28	232.72
781.60	232.67
781.92	232.63
782.25	232.54
782.57	232.47
782.89	232.39
783.22	232.34
783.54	232.34
783.86	232.29
784.19	232.23
784.51	232.18
784.83	232.11
785.16	232.03
785.48	231.99
785.80	231.94
786.12	231.91
786.45	231.84
786.77	231.82
787.09	231.77
