SpectraSuite Data File
++++++++++++++++++++++++++++++++++++
Date: Fri Feb 01 16:04:08 EST 2013
User: group
Dark Spectrum Present: No
Reference Spectrum Present: No
Number of Sampled Component Spectra: 1
Spectrometers: USB2E7196
Integration Time (usec): 35000 (USB2E7196)
Spectra Averaged: 100 (USB2E7196)
Boxcar Smoothing: 10 (USB2E7196)
Correct for Electrical Dark: No (USB2E7196)
Strobe/Lamp Enabled: No (USB2E7196)
Correct for Detector Non-linearity: No (USB2E7196)
Correct for Stray Light: No (USB2E7196)
Number of Pixels in Processed Spectrum: 2048
>>>>>Begin Processed Spectral Data<<<<<
339.09	0.00
339.48	214.97
339.86	215.91
340.24	217.33
340.63	219.09
341.01	221.85
341.39	221.94
341.78	222.67
342.16	224.38
342.54	224.44
342.93	213.17
343.31	223.96
343.69	224.48
344.07	224.96
344.46	225.40
344.84	225.79
345.22	226.02
345.60	226.25
345.99	226.46
346.37	226.58
346.75	226.72
347.13	226.81
347.52	226.86
347.90	226.90
348.28	226.92
348.66	227.00
349.05	226.98
349.43	227.00
349.81	227.05
350.19	227.10
350.57	227.15
350.96	227.23
351.34	227.29
351.72	227.38
352.10	227.50
352.48	227.57
352.87	227.63
353.25	227.71
353.63	227.78
354.01	227.87
354.39	227.95
354.77	228.02
355.15	228.10
355.54	228.12
355.92	228.18
356.30	228.29
356.68	228.37
357.06	228.45
357.44	228.50
357.82	228.59
358.20	228.65
358.58	228.72
358.97	228.78
359.35	228.86
359.73	228.91
360.11	228.98
360.49	229.01
360.87	229.04
361.25	229.11
361.63	229.18
362.01	229.22
362.39	229.24
362.77	229.29
363.15	229.35
363.53	229.42
363.91	229.43
364.29	229.44
364.67	229.39
365.05	229.40
365.43	229.43
365.81	229.43
366.19	229.48
366.57	229.51
366.95	229.52
367.33	229.51
367.71	229.52
368.09	229.48
368.47	229.49
368.85	229.47
369.23	229.46
369.61	229.40
369.99	229.40
370.37	229.38
370.75	229.37
371.13	229.26
371.51	229.20
371.89	229.18
372.27	229.09
372.65	229.04
373.03	228.98
373.41	228.90
373.78	228.86
374.16	228.74
374.54	228.70
374.92	228.62
375.30	228.55
375.68	228.45
376.06	228.40
376.44	228.32
376.82	228.26
377.19	228.17
377.57	228.09
377.95	227.96
378.33	227.87
378.71	227.75
379.09	227.69
379.47	227.63
379.84	227.54
380.22	227.49
380.60	227.42
380.98	227.37
381.36	227.32
381.73	227.22
382.11	227.20
382.49	227.09
382.87	227.02
383.25	226.95
383.62	227.01
384.00	226.92
384.38	226.88
384.76	226.84
385.13	226.82
385.51	226.78
385.89	226.76
386.27	226.73
386.64	226.69
387.02	226.62
387.40	226.54
387.78	226.53
388.15	226.49
388.53	226.45
388.91	226.40
389.29	226.35
389.66	226.33
390.04	226.30
390.42	226.29
390.79	226.26
391.17	226.24
391.55	226.13
391.92	226.17
392.30	226.15
392.68	226.12
393.05	226.13
393.43	226.12
393.81	226.11
394.18	226.08
394.56	226.09
394.94	226.15
395.31	226.18
395.69	226.22
396.06	226.29
396.44	226.31
396.82	226.33
397.19	226.43
397.57	226.49
397.95	226.54
398.32	226.60
398.70	226.66
399.07	226.73
399.45	226.81
399.82	226.82
400.20	226.90
400.58	226.95
400.95	226.96
401.33	227.07
401.70	227.24
402.08	227.35
402.45	227.47
402.83	227.59
403.20	227.70
403.58	227.80
403.95	227.91
404.33	228.06
404.71	228.18
405.08	228.34
405.46	228.46
405.83	228.59
406.21	228.72
406.58	228.90
406.96	229.07
407.33	229.22
407.70	229.45
408.08	229.72
408.45	229.95
408.83	230.20
409.20	230.42
409.58	230.59
409.95	230.87
410.33	231.12
410.70	231.37
411.08	231.68
411.45	231.98
411.82	232.28
412.20	232.60
412.57	233.07
412.95	233.38
413.32	233.77
413.69	234.20
414.07	234.64
414.44	235.11
414.82	235.59
415.19	236.14
415.56	236.67
415.94	237.21
416.31	237.86
416.68	238.45
417.06	239.16
417.43	239.81
417.81	240.56
418.18	241.31
418.55	242.16
418.93	243.01
419.30	243.88
419.67	244.80
420.04	245.77
420.42	246.72
420.79	247.91
421.16	249.05
421.54	250.22
421.91	251.44
422.28	252.68
422.66	253.99
423.03	255.28
423.40	256.61
423.77	257.97
424.15	259.38
424.52	260.87
424.89	262.47
425.26	264.02
425.64	265.46
426.01	267.04
426.38	268.71
426.75	270.37
427.13	272.08
427.50	273.90
427.87	275.80
428.24	277.65
428.61	279.39
428.99	281.29
429.36	283.42
429.73	285.46
430.10	287.44
430.47	289.50
430.85	291.60
431.22	293.82
431.59	296.21
431.96	298.43
432.33	300.93
432.70	303.32
433.08	306.13
433.45	308.73
433.82	311.33
434.19	314.19
434.56	316.99
434.93	319.68
435.30	322.29
435.68	325.14
436.05	327.97
436.42	330.77
436.79	333.30
437.16	335.96
437.53	338.79
437.90	341.63
438.27	344.38
438.64	347.27
439.01	349.88
439.38	352.12
439.75	354.34
440.13	356.83
440.50	359.12
440.87	361.00
441.24	362.99
441.61	365.18
441.98	366.65
442.35	368.44
442.72	370.29
443.09	372.10
443.46	373.10
443.83	373.70
444.20	374.15
444.57	375.00
444.94	375.30
445.31	375.62
445.68	375.99
446.05	376.07
446.42	375.63
446.79	375.21
447.16	374.77
447.53	374.41
447.90	373.22
448.27	372.06
448.64	370.46
449.01	369.31
449.37	367.34
449.74	365.48
450.11	363.25
450.48	360.77
450.85	358.28
451.22	356.17
451.59	354.12
451.96	352.22
452.33	349.65
452.70	347.31
453.07	344.49
453.43	341.57
453.80	338.77
454.17	336.08
454.54	333.53
454.91	330.86
455.28	328.17
455.65	325.69
456.02	323.25
456.38	321.10
456.75	318.46
457.12	316.21
457.49	313.99
457.86	311.85
458.23	310.02
458.59	307.93
458.96	305.84
459.33	304.02
459.70	302.17
460.07	300.68
460.43	298.96
460.80	297.36
461.17	295.94
461.54	294.46
461.91	293.04
462.27	291.60
462.64	290.30
463.01	288.99
463.38	287.68
463.74	286.34
464.11	285.20
464.48	284.17
464.85	283.07
465.21	282.21
465.58	281.27
465.95	280.16
466.32	279.24
466.68	278.34
467.05	277.44
467.42	276.56
467.78	275.61
468.15	274.75
468.52	274.11
468.88	273.26
469.25	272.53
469.62	271.92
469.98	271.27
470.35	270.66
470.72	270.07
471.08	269.46
471.45	268.93
471.82	268.36
472.18	267.77
472.55	267.33
472.92	266.82
473.28	266.38
473.65	265.94
474.02	265.51
474.38	265.11
474.75	264.78
475.11	264.41
475.48	264.15
475.85	263.91
476.21	263.67
476.58	263.48
476.94	263.30
477.31	263.13
477.67	262.96
478.04	262.87
478.41	262.81
478.77	262.83
479.14	262.77
479.50	262.82
479.87	262.90
480.23	262.96
480.60	262.98
480.96	263.01
481.33	263.21
481.69	263.41
482.06	263.58
482.42	263.77
482.79	264.02
483.15	264.31
483.52	264.68
483.88	264.99
484.25	265.34
484.61	265.76
484.98	266.21
485.34	266.76
485.71	267.30
486.07	267.87
486.44	268.40
486.80	269.06
487.17	269.75
487.53	270.54
487.90	271.38
488.26	272.30
488.62	273.31
488.99	274.26
489.35	275.30
489.72	276.44
490.08	277.63
490.44	278.84
490.81	280.18
491.17	281.52
491.54	283.01
491.90	284.56
492.26	286.17
492.63	287.88
492.99	289.64
493.36	291.55
493.72	293.58
494.08	295.73
494.45	297.99
494.81	300.38
495.17	302.81
495.54	305.41
495.90	308.14
496.26	310.95
496.63	313.96
496.99	317.10
497.35	320.38
497.72	323.81
498.08	327.41
498.44	331.09
498.80	335.05
499.17	339.10
499.53	343.33
499.89	347.77
500.26	352.34
500.62	357.05
500.98	362.03
501.34	367.17
501.71	372.54
502.07	377.98
502.43	383.57
502.79	389.46
503.16	395.53
503.52	401.84
503.88	408.28
504.24	414.90
504.60	421.85
504.97	428.99
505.33	436.28
505.69	443.92
506.05	451.73
506.41	459.59
506.78	467.79
507.14	476.18
507.50	484.93
507.86	493.98
508.22	503.18
508.59	512.40
508.95	522.00
509.31	531.82
509.67	541.94
510.03	552.30
510.39	562.85
510.75	573.70
511.12	584.62
511.48	595.93
511.84	607.39
512.20	618.87
512.56	630.82
512.92	643.06
513.28	655.50
513.64	667.99
514.00	680.68
514.37	693.63
514.73	706.72
515.09	719.77
515.45	732.97
515.81	746.58
516.17	760.62
516.53	774.78
516.89	788.95
517.25	803.19
517.61	817.56
517.97	832.00
518.33	846.41
518.69	861.11
519.05	876.10
519.41	891.29
519.77	906.90
520.13	922.28
520.49	937.65
520.85	953.01
521.21	968.67
521.57	984.96
521.93	1000.69
522.29	1017.05
522.65	1033.24
523.01	1049.43
523.37	1065.37
523.73	1081.55
524.09	1097.51
524.45	1113.71
524.81	1130.34
525.17	1147.18
525.53	1164.03
525.89	1180.83
526.25	1197.67
526.61	1214.05
526.97	1230.68
527.33	1247.06
527.68	1263.55
528.04	1279.98
528.40	1296.48
528.76	1313.57
529.12	1330.00
529.48	1346.86
529.84	1362.74
530.20	1379.40
530.56	1396.38
530.91	1413.83
531.27	1430.38
531.63	1446.81
531.99	1463.41
532.35	1479.20
532.71	1494.95
533.07	1511.07
533.42	1526.93
533.78	1542.95
534.14	1559.18
534.50	1574.43
534.86	1590.17
535.21	1605.42
535.57	1621.25
535.93	1636.67
536.29	1651.43
536.65	1666.46
537.00	1681.11
537.36	1696.52
537.72	1710.86
538.08	1725.18
538.44	1738.81
538.79	1752.60
539.15	1766.19
539.51	1779.83
539.87	1794.13
540.22	1807.72
540.58	1821.45
540.94	1834.60
541.29	1847.31
541.65	1859.72
542.01	1872.89
542.37	1885.20
542.72	1897.52
543.08	1909.26
543.44	1921.57
543.79	1932.62
544.15	1943.53
544.51	1955.04
544.87	1965.97
545.22	1976.75
545.58	1987.00
545.94	1996.81
546.29	2006.63
546.65	2016.54
547.01	2025.80
547.36	2034.43
547.72	2043.05
548.07	2050.96
548.43	2059.20
548.79	2067.25
549.14	2074.97
549.50	2082.33
549.86	2090.04
550.21	2097.46
550.57	2104.69
550.92	2111.33
551.28	2118.27
551.64	2125.30
551.99	2131.89
552.35	2138.07
552.70	2144.24
553.06	2150.18
553.41	2156.56
553.77	2162.78
554.13	2168.85
554.48	2175.06
554.84	2180.61
555.19	2185.95
555.55	2191.10
555.90	2195.70
556.26	2200.54
556.61	2205.39
556.97	2209.70
557.32	2213.73
557.68	2217.89
558.03	2222.17
558.39	2225.91
558.74	2230.75
559.10	2234.65
559.45	2238.20
559.81	2242.41
560.16	2246.27
560.52	2249.60
560.87	2253.04
561.23	2255.65
561.58	2258.51
561.94	2260.93
562.29	2263.36
562.64	2266.02
563.00	2268.61
563.35	2272.14
563.71	2275.37
564.06	2278.47
564.42	2281.35
564.77	2284.12
565.12	2286.36
565.48	2288.20
565.83	2290.05
566.19	2291.33
566.54	2292.33
566.89	2293.64
567.25	2294.25
567.60	2295.58
567.96	2297.17
568.31	2297.99
568.66	2299.15
569.02	2299.79
569.37	2300.20
569.72	2301.00
570.08	2301.11
570.43	2301.21
570.78	2300.53
571.14	2299.07
571.49	2297.69
571.84	2297.52
572.20	2296.27
572.55	2295.21
572.90	2293.79
573.26	2292.34
573.61	2290.67
573.96	2288.92
574.31	2286.02
574.67	2283.07
575.02	2279.54
575.37	2276.30
575.72	2272.54
576.08	2269.19
576.43	2265.85
576.78	2262.07
577.13	2258.99
577.49	2255.90
577.84	2252.43
578.19	2248.69
578.54	2245.03
578.90	2240.87
579.25	2235.32
579.60	2230.30
579.95	2225.30
580.30	2220.18
580.66	2215.04
581.01	2210.09
581.36	2205.28
581.71	2201.10
582.06	2196.56
582.42	2192.06
582.77	2186.85
583.12	2182.32
583.47	2177.67
583.82	2172.63
584.17	2167.57
584.53	2161.94
584.88	2156.23
585.23	2150.46
585.58	2144.98
585.93	2139.55
586.28	2134.79
586.63	2129.69
586.98	2124.72
587.34	2120.08
587.69	2115.21
588.04	2109.99
588.39	2104.41
588.74	2097.85
589.09	2091.66
589.44	2085.03
589.79	2078.98
590.14	2073.29
590.49	2066.70
590.84	2060.31
591.19	2054.34
591.54	2047.73
591.89	2040.44
592.25	2033.70
592.60	2026.50
592.95	2019.07
593.30	2011.72
593.65	2004.11
594.00	1997.06
594.35	1989.74
594.70	1981.69
595.05	1974.60
595.40	1967.42
595.75	1959.94
596.10	1953.89
596.45	1947.12
596.80	1940.93
597.15	1934.40
597.50	1927.26
597.85	1920.85
598.19	1914.21
598.54	1907.21
598.89	1900.57
599.24	1894.74
599.59	1888.14
599.94	1882.01
600.29	1875.65
600.64	1869.08
600.99	1861.62
601.34	1854.82
601.69	1847.97
602.04	1841.04
602.39	1833.54
602.74	1826.68
603.08	1819.97
603.43	1813.09
603.78	1805.83
604.13	1798.64
604.48	1791.23
604.83	1784.43
605.18	1777.33
605.53	1769.23
605.87	1761.10
606.22	1753.88
606.57	1745.75
606.92	1738.29
607.27	1730.88
607.62	1723.85
607.96	1716.49
608.31	1709.83
608.66	1701.98
609.01	1694.27
609.36	1686.76
609.70	1678.84
610.05	1670.73
610.40	1662.99
610.75	1654.66
611.10	1646.90
611.44	1638.45
611.79	1630.43
612.14	1621.64
612.49	1612.50
612.83	1604.18
613.18	1596.12
613.53	1588.06
613.88	1579.63
614.22	1571.40
614.57	1562.96
614.92	1555.03
615.27	1547.56
615.61	1539.25
615.96	1531.39
616.31	1523.81
616.65	1516.42
617.00	1508.82
617.35	1501.20
617.70	1492.86
618.04	1484.33
618.39	1476.21
618.74	1468.65
619.08	1460.39
619.43	1452.97
619.78	1446.17
620.12	1439.01
620.47	1431.43
620.82	1423.26
621.16	1415.91
621.51	1408.47
621.85	1400.83
622.20	1392.24
622.55	1383.84
622.89	1376.00
623.24	1368.39
623.59	1361.09
623.93	1353.54
624.28	1346.33
624.62	1338.76
624.97	1331.56
625.32	1324.85
625.66	1317.83
626.01	1310.65
626.35	1303.18
626.70	1295.50
627.04	1287.77
627.39	1280.01
627.73	1272.66
628.08	1265.87
628.43	1258.56
628.77	1251.11
629.12	1243.60
629.46	1236.47
629.81	1229.07
630.15	1221.90
630.50	1214.50
630.84	1206.22
631.19	1198.27
631.53	1190.74
631.88	1183.20
632.22	1175.63
632.57	1168.31
632.91	1160.71
633.26	1153.18
633.60	1145.83
633.95	1138.62
634.29	1131.45
634.64	1124.76
634.98	1117.40
635.32	1110.18
635.67	1103.57
636.01	1096.92
636.36	1090.12
636.70	1083.58
637.05	1076.96
637.39	1070.53
637.73	1063.90
638.08	1058.12
638.42	1052.09
638.77	1045.66
639.11	1039.01
639.45	1032.63
639.80	1025.95
640.14	1019.54
640.49	1013.06
640.83	1006.75
641.17	1000.47
641.52	994.20
641.86	987.65
642.20	981.83
642.55	975.48
642.89	968.97
643.23	962.42
643.58	956.53
643.92	950.45
644.26	944.43
644.61	938.33
644.95	932.40
645.29	925.81
645.64	919.17
645.98	912.90
646.32	907.07
646.66	900.96
647.01	895.24
647.35	889.54
647.69	883.68
648.04	878.13
648.38	872.39
648.72	866.38
649.06	860.36
649.41	854.39
649.75	848.41
650.09	842.55
650.43	836.74
650.78	830.65
651.12	824.58
651.46	818.82
651.80	813.10
652.14	807.69
652.49	802.32
652.83	797.16
653.17	791.38
653.51	785.74
653.85	780.34
654.20	774.64
654.54	768.60
654.88	762.93
655.22	757.06
655.56	751.37
655.90	745.96
656.25	740.71
656.59	735.38
656.93	730.32
657.27	725.09
657.61	719.70
657.95	714.56
658.29	709.52
658.64	704.29
658.98	698.98
659.32	693.53
659.66	688.30
660.00	682.91
660.34	678.04
660.68	673.07
661.02	668.03
661.36	663.31
661.70	658.85
662.05	654.47
662.39	650.19
662.73	645.70
663.07	641.31
663.41	636.88
663.75	632.43
664.09	627.84
664.43	623.46
664.77	619.29
665.11	615.07
665.45	610.91
665.79	606.80
666.13	602.68
666.47	598.57
666.81	594.35
667.15	590.23
667.49	586.31
667.83	582.45
668.17	578.55
668.51	574.46
668.85	570.38
669.19	566.51
669.53	562.64
669.87	558.78
670.21	555.05
670.55	551.36
670.89	547.86
671.23	544.46
671.57	540.89
671.91	537.34
672.25	533.81
672.58	530.34
672.92	526.98
673.26	523.77
673.60	520.63
673.94	517.49
674.28	514.62
674.62	511.65
674.96	508.59
675.30	505.66
675.64	502.79
675.97	500.07
676.31	497.17
676.65	494.19
676.99	491.55
677.33	488.69
677.67	485.92
678.01	482.99
678.34	479.96
678.68	477.13
679.02	474.36
679.36	471.62
679.70	468.85
680.04	466.05
680.37	463.17
680.71	460.35
681.05	457.78
681.39	455.03
681.73	452.40
682.06	449.87
682.40	447.34
682.74	444.77
683.08	442.21
683.42	439.63
683.75	437.21
684.09	434.59
684.43	432.13
684.77	429.66
685.10	427.24
685.44	425.00
685.78	422.70
686.12	420.42
686.45	418.12
686.79	415.82
687.13	413.70
687.46	411.56
687.80	409.43
688.14	407.23
688.48	405.20
688.81	402.95
689.15	400.78
689.49	398.62
689.82	396.55
690.16	394.41
690.50	392.49
690.83	390.50
691.17	388.54
691.51	386.64
691.84	384.81
692.18	382.92
692.52	380.94
692.85	379.00
693.19	377.14
693.52	375.33
693.86	373.52
694.20	371.69
694.53	369.91
694.87	368.04
695.21	366.26
695.54	364.44
695.88	362.77
696.21	361.06
696.55	359.37
696.88	357.68
697.22	356.09
697.56	354.48
697.89	352.87
698.23	351.28
698.56	349.66
698.90	348.03
699.23	346.40
699.57	344.82
699.90	343.27
700.24	341.74
700.58	340.20
700.91	338.72
701.25	337.30
701.58	335.93
701.92	334.58
702.25	333.16
702.59	331.76
702.92	330.40
703.26	329.12
703.59	327.81
703.93	326.65
704.26	325.39
704.60	324.04
704.93	322.70
705.26	321.44
705.60	320.24
705.93	319.09
706.27	318.04
706.60	316.98
706.94	315.91
707.27	314.76
707.61	313.66
707.94	312.67
708.27	311.59
708.61	310.53
708.94	309.53
709.28	308.55
709.61	307.63
709.94	306.66
710.28	305.64
710.61	304.71
710.95	303.61
711.28	302.73
711.61	301.77
711.95	300.92
712.28	299.97
712.61	298.97
712.95	298.02
713.28	297.13
713.61	296.23
713.95	295.34
714.28	294.54
714.61	293.68
714.95	292.81
715.28	291.92
715.61	291.01
715.95	290.14
716.28	289.28
716.61	288.42
716.95	287.63
717.28	286.86
717.61	286.09
717.94	285.36
718.28	284.52
718.61	283.83
718.94	283.10
719.27	282.47
719.61	281.85
719.94	281.23
720.27	280.49
720.60	279.83
720.94	279.20
721.27	278.58
721.60	278.00
721.93	277.39
722.27	276.88
722.60	276.37
722.93	275.81
723.26	275.34
723.59	274.75
723.93	274.18
724.26	273.65
724.59	273.06
724.92	272.54
725.25	272.04
725.59	271.50
725.92	270.99
726.25	270.44
726.58	269.96
726.91	269.44
727.24	268.99
727.57	268.57
727.91	268.07
728.24	267.61
728.57	267.13
728.90	266.69
729.23	266.14
729.56	265.66
729.89	265.17
730.22	264.66
730.55	264.23
730.89	263.75
731.22	263.29
731.55	262.86
731.88	262.41
732.21	261.98
732.54	261.53
732.87	261.11
733.20	260.73
733.53	260.32
733.86	259.97
734.19	259.55
734.52	259.16
734.85	258.85
735.18	258.44
735.51	258.07
735.84	257.71
736.17	257.38
736.50	257.00
736.83	256.78
737.16	256.44
737.49	256.10
737.82	255.77
738.15	255.47
738.48	255.15
738.81	254.83
739.14	254.54
739.47	254.22
739.80	253.89
740.13	253.60
740.46	253.28
740.79	252.95
741.12	252.66
741.45	252.33
741.78	251.97
742.11	251.68
742.44	251.35
742.77	251.04
743.10	250.79
743.43	250.50
743.75	250.14
744.08	249.98
744.41	249.72
744.74	249.45
745.07	249.14
745.40	248.91
745.73	248.65
746.06	248.40
746.39	248.14
746.71	247.88
747.04	247.60
747.37	247.35
747.70	247.10
748.03	246.87
748.36	246.65
748.68	246.42
749.01	246.20
749.34	245.99
749.67	245.81
750.00	245.53
750.33	245.37
750.65	245.15
750.98	244.80
751.31	244.59
751.64	244.42
751.97	244.26
752.29	244.01
752.62	243.80
752.95	243.55
753.28	243.37
753.60	243.18
753.93	242.96
754.26	242.74
754.59	242.51
754.91	242.27
755.24	242.07
755.57	241.84
755.90	241.66
756.22	241.45
756.55	241.22
756.88	241.05
757.20	240.81
757.53	240.58
757.86	240.44
758.19	240.28
758.51	240.07
758.84	239.87
759.17	239.72
759.49	239.51
759.82	239.41
760.15	239.26
760.47	239.11
760.80	238.97
761.13	238.88
761.45	238.73
761.78	238.58
762.11	238.43
762.43	238.32
762.76	238.15
763.08	238.00
763.41	237.86
763.74	237.69
764.06	237.53
764.39	237.42
764.71	237.27
765.04	237.15
765.37	237.02
765.69	236.87
766.02	236.72
766.34	236.65
766.67	236.50
767.00	236.38
767.32	236.30
767.65	236.24
767.97	236.10
768.30	235.97
768.62	235.91
768.95	235.77
769.27	235.64
769.60	235.52
769.92	235.42
770.25	235.35
770.57	235.25
770.90	235.21
771.22	235.09
771.55	235.01
771.87	234.90
772.20	234.82
772.52	234.84
772.85	234.88
773.17	234.76
773.50	234.63
773.82	234.55
774.15	234.41
774.47	234.26
774.80	234.15
775.12	234.09
775.45	233.98
775.77	233.92
776.09	233.86
776.42	233.81
776.74	233.77
777.07	233.65
777.39	233.58
777.72	233.48
778.04	233.43
778.36	233.35
778.69	233.24
779.01	233.17
779.33	232.99
779.66	232.84
779.98	232.77
780.31	232.72
780.63	232.67
780.95	232.63
781.28	232.56
781.60	232.50
781.92	232.42
782.25	232.37
782.57	232.30
782.89	232.24
783.22	232.15
783.54	232.08
783.86	232.04
784.19	231.97
784.51	231.92
784.83	231.84
785.16	231.73
785.48	231.70
785.80	231.64
786.12	231.62
786.45	231.53
786.77	231.47
787.09	231.42
