SpectraSuite Data File
++++++++++++++++++++++++++++++++++++
Date: Fri Feb 01 15:40:47 EST 2013
User: group
Dark Spectrum Present: No
Reference Spectrum Present: No
Number of Sampled Component Spectra: 1
Spectrometers: USB2E7196
Integration Time (usec): 35000 (USB2E7196)
Spectra Averaged: 100 (USB2E7196)
Boxcar Smoothing: 10 (USB2E7196)
Correct for Electrical Dark: No (USB2E7196)
Strobe/Lamp Enabled: No (USB2E7196)
Correct for Detector Non-linearity: No (USB2E7196)
Correct for Stray Light: No (USB2E7196)
Number of Pixels in Processed Spectrum: 2048
>>>>>Begin Processed Spectral Data<<<<<
339.09	0.00
339.48	214.76
339.86	216.67
340.24	218.23
340.63	218.96
341.01	222.28
341.39	222.17
341.78	223.37
342.16	224.46
342.54	224.49
342.93	213.35
343.31	224.14
343.69	224.72
344.07	225.16
344.46	225.57
344.84	225.98
345.22	226.21
345.60	226.45
345.99	226.60
346.37	226.73
346.75	226.86
347.13	226.96
347.52	226.98
347.90	227.04
348.28	227.09
348.66	227.13
349.05	227.12
349.43	227.15
349.81	227.24
350.19	227.26
350.57	227.34
350.96	227.41
351.34	227.47
351.72	227.53
352.10	227.62
352.48	227.70
352.87	227.74
353.25	227.79
353.63	227.84
354.01	227.91
354.39	227.98
354.77	228.05
355.15	228.13
355.54	228.19
355.92	228.25
356.30	228.31
356.68	228.44
357.06	228.53
357.44	228.56
357.82	228.58
358.20	228.65
358.58	228.73
358.97	228.77
359.35	228.85
359.73	228.90
360.11	228.93
360.49	228.98
360.87	229.02
361.25	229.08
361.63	229.15
362.01	229.23
362.39	229.24
362.77	229.28
363.15	229.32
363.53	229.34
363.91	229.33
364.29	229.36
364.67	229.28
365.05	229.29
365.43	229.33
365.81	229.36
366.19	229.43
366.57	229.44
366.95	229.42
367.33	229.39
367.71	229.38
368.09	229.39
368.47	229.37
368.85	229.34
369.23	229.32
369.61	229.25
369.99	229.21
370.37	229.24
370.75	229.22
371.13	229.15
371.51	229.09
371.89	229.03
372.27	228.97
372.65	228.92
373.03	228.87
373.41	228.80
373.78	228.73
374.16	228.63
374.54	228.52
374.92	228.45
375.30	228.37
375.68	228.29
376.06	228.24
376.44	228.16
376.82	228.10
377.19	228.05
377.57	227.98
377.95	227.89
378.33	227.79
378.71	227.67
379.09	227.62
379.47	227.58
379.84	227.53
380.22	227.48
380.60	227.39
380.98	227.30
381.36	227.21
381.73	227.11
382.11	227.04
382.49	227.02
382.87	226.99
383.25	226.94
383.62	226.99
384.00	226.94
384.38	226.90
384.76	226.88
385.13	226.86
385.51	226.83
385.89	226.77
386.27	226.74
386.64	226.70
387.02	226.67
387.40	226.63
387.78	226.60
388.15	226.56
388.53	226.55
388.91	226.55
389.29	226.51
389.66	226.51
390.04	226.51
390.42	226.45
390.79	226.43
391.17	226.42
391.55	226.32
391.92	226.30
392.30	226.32
392.68	226.30
393.05	226.28
393.43	226.28
393.81	226.32
394.18	226.35
394.56	226.37
394.94	226.42
395.31	226.44
395.69	226.52
396.06	226.55
396.44	226.59
396.82	226.65
397.19	226.72
397.57	226.76
397.95	226.82
398.32	226.88
398.70	226.96
399.07	227.02
399.45	227.06
399.82	227.16
400.20	227.18
400.58	227.25
400.95	227.29
401.33	227.37
401.70	227.52
402.08	227.61
402.45	227.72
402.83	227.82
403.20	227.92
403.58	228.00
403.95	228.16
404.33	228.29
404.71	228.37
405.08	228.59
405.46	228.74
405.83	228.86
406.21	229.00
406.58	229.16
406.96	229.34
407.33	229.52
407.70	229.69
408.08	229.94
408.45	230.15
408.83	230.42
409.20	230.65
409.58	230.78
409.95	231.02
410.33	231.28
410.70	231.52
411.08	231.81
411.45	232.10
411.82	232.38
412.20	232.72
412.57	233.14
412.95	233.39
413.32	233.80
413.69	234.22
414.07	234.66
414.44	235.13
414.82	235.59
415.19	236.15
415.56	236.71
415.94	237.30
416.31	237.94
416.68	238.54
417.06	239.28
417.43	239.98
417.81	240.72
418.18	241.49
418.55	242.31
418.93	243.17
419.30	244.08
419.67	245.01
420.04	245.99
420.42	246.99
420.79	248.21
421.16	249.36
421.54	250.54
421.91	251.74
422.28	253.00
422.66	254.32
423.03	255.66
423.40	256.98
423.77	258.37
424.15	259.75
424.52	261.27
424.89	262.85
425.26	264.41
425.64	265.88
426.01	267.48
426.38	269.13
426.75	270.82
427.13	272.56
427.50	274.36
427.87	276.21
428.24	278.09
428.61	279.80
428.99	281.72
429.36	283.82
429.73	285.90
430.10	287.92
430.47	289.98
430.85	292.05
431.22	294.26
431.59	296.63
431.96	298.93
432.33	301.40
432.70	303.76
433.08	306.58
433.45	309.20
433.82	311.79
434.19	314.72
434.56	317.54
434.93	320.17
435.30	322.83
435.68	325.71
436.05	328.52
436.42	331.35
436.79	333.89
437.16	336.61
437.53	339.41
437.90	342.23
438.27	344.97
438.64	347.79
439.01	350.44
439.38	352.70
439.75	354.88
440.13	357.38
440.50	359.71
440.87	361.54
441.24	363.51
441.61	365.67
441.98	367.15
442.35	368.92
442.72	370.79
443.09	372.58
443.46	373.61
443.83	374.19
444.20	374.70
444.57	375.52
444.94	375.81
445.31	376.19
445.68	376.56
446.05	376.66
446.42	376.30
446.79	375.83
447.16	375.31
447.53	374.96
447.90	373.80
448.27	372.65
448.64	371.04
449.01	369.88
449.37	367.89
449.74	365.97
450.11	363.75
450.48	361.23
450.85	358.71
451.22	356.54
451.59	354.49
451.96	352.48
452.33	349.94
452.70	347.53
453.07	344.67
453.43	341.70
453.80	338.90
454.17	336.22
454.54	333.70
454.91	331.02
455.28	328.33
455.65	325.84
456.02	323.39
456.38	321.30
456.75	318.67
457.12	316.46
457.49	314.24
457.86	312.04
458.23	310.23
458.59	308.14
458.96	306.07
459.33	304.27
459.70	302.42
460.07	300.85
460.43	299.15
460.80	297.54
461.17	296.15
461.54	294.67
461.91	293.21
462.27	291.73
462.64	290.51
463.01	289.16
463.38	287.85
463.74	286.52
464.11	285.33
464.48	284.31
464.85	283.19
465.21	282.34
465.58	281.44
465.95	280.33
466.32	279.44
466.68	278.59
467.05	277.61
467.42	276.79
467.78	275.88
468.15	275.00
468.52	274.34
468.88	273.49
469.25	272.72
469.62	272.13
469.98	271.48
470.35	270.85
470.72	270.23
471.08	269.63
471.45	269.05
471.82	268.49
472.18	267.91
472.55	267.46
472.92	266.93
473.28	266.46
473.65	266.01
474.02	265.58
474.38	265.18
474.75	264.92
475.11	264.53
475.48	264.28
475.85	264.06
476.21	263.80
476.58	263.60
476.94	263.46
477.31	263.30
477.67	263.18
478.04	263.05
478.41	263.01
478.77	263.04
479.14	263.01
479.50	263.03
479.87	263.08
480.23	263.19
480.60	263.25
480.96	263.37
481.33	263.61
481.69	263.79
482.06	263.97
482.42	264.15
482.79	264.43
483.15	264.72
483.52	265.10
483.88	265.49
484.25	265.90
484.61	266.33
484.98	266.75
485.34	267.29
485.71	267.85
486.07	268.49
486.44	269.04
486.80	269.70
487.17	270.47
487.53	271.24
487.90	272.07
488.26	273.02
488.62	273.98
488.99	274.94
489.35	275.99
489.72	277.11
490.08	278.35
490.44	279.55
490.81	280.90
491.17	282.21
491.54	283.69
491.90	285.22
492.26	286.85
492.63	288.61
492.99	290.41
493.36	292.35
493.72	294.38
494.08	296.49
494.45	298.77
494.81	301.10
495.17	303.53
495.54	306.07
495.90	308.73
496.26	311.54
496.63	314.49
496.99	317.61
497.35	320.87
497.72	324.23
498.08	327.78
498.44	331.41
498.80	335.36
499.17	339.36
499.53	343.54
499.89	347.93
500.26	352.42
500.62	357.08
500.98	362.02
501.34	367.06
501.71	372.35
502.07	377.80
502.43	383.44
502.79	389.28
503.16	395.37
503.52	401.63
503.88	408.04
504.24	414.65
504.60	421.56
504.97	428.73
505.33	436.06
505.69	443.80
506.05	451.65
506.41	459.50
506.78	467.72
507.14	476.17
507.50	484.89
507.86	493.94
508.22	503.11
508.59	512.31
508.95	521.95
509.31	531.82
509.67	541.90
510.03	552.15
510.39	562.71
510.75	573.50
511.12	584.46
511.48	595.75
511.84	607.25
512.20	618.80
512.56	630.75
512.92	642.93
513.28	655.25
513.64	667.67
514.00	680.52
514.37	693.43
514.73	706.48
515.09	719.53
515.45	732.83
515.81	746.47
516.17	760.51
516.53	774.63
516.89	788.76
517.25	802.95
517.61	817.38
517.97	831.84
518.33	846.34
518.69	861.10
519.05	876.09
519.41	891.25
519.77	906.71
520.13	922.12
520.49	937.55
520.85	953.02
521.21	968.89
521.57	985.02
521.93	1000.90
522.29	1017.31
522.65	1033.50
523.01	1049.70
523.37	1065.82
523.73	1082.07
524.09	1098.14
524.45	1114.49
524.81	1131.23
525.17	1148.13
525.53	1164.92
525.89	1181.82
526.25	1198.60
526.61	1215.03
526.97	1231.82
527.33	1248.28
527.68	1265.00
528.04	1281.49
528.40	1297.97
528.76	1314.90
529.12	1331.53
529.48	1348.36
529.84	1364.39
530.20	1381.14
530.56	1398.17
530.91	1415.51
531.27	1432.12
531.63	1448.57
531.99	1465.19
532.35	1481.01
532.71	1496.94
533.07	1513.25
533.42	1529.16
533.78	1545.21
534.14	1561.46
534.50	1576.79
534.86	1592.82
535.21	1607.90
535.57	1623.80
535.93	1639.38
536.29	1654.19
536.65	1669.35
537.00	1684.17
537.36	1699.45
537.72	1713.99
538.08	1728.35
538.44	1742.13
538.79	1756.14
539.15	1769.89
539.51	1783.62
539.87	1797.93
540.22	1811.62
540.58	1825.45
540.94	1838.77
541.29	1851.83
541.65	1864.53
542.01	1877.83
542.37	1890.19
542.72	1902.67
543.08	1914.56
543.44	1926.89
543.79	1938.23
544.15	1949.17
544.51	1960.69
544.87	1971.61
545.22	1982.44
545.58	1992.78
545.94	2002.52
546.29	2012.43
546.65	2022.20
547.01	2031.55
547.36	2040.45
547.72	2048.85
548.07	2056.73
548.43	2064.82
548.79	2072.77
549.14	2080.33
549.50	2087.67
549.86	2095.24
550.21	2102.49
550.57	2109.70
550.92	2116.33
551.28	2123.38
551.64	2130.34
551.99	2136.88
552.35	2143.02
552.70	2149.07
553.06	2154.91
553.41	2161.28
553.77	2167.27
554.13	2173.43
554.48	2179.42
554.84	2184.75
555.19	2190.09
555.55	2195.32
555.90	2199.76
556.26	2204.54
556.61	2209.29
556.97	2213.55
557.32	2217.65
557.68	2221.70
558.03	2226.00
558.39	2229.77
558.74	2234.37
559.10	2238.23
559.45	2241.86
559.81	2246.25
560.16	2250.10
560.52	2253.48
560.87	2256.89
561.23	2259.34
561.58	2262.30
561.94	2264.82
562.29	2267.26
562.64	2269.93
563.00	2272.54
563.35	2276.25
563.71	2279.48
564.06	2282.62
564.42	2285.38
564.77	2287.88
565.12	2290.26
565.48	2291.95
565.83	2293.67
566.19	2294.89
566.54	2295.92
566.89	2297.15
567.25	2297.74
567.60	2298.99
567.96	2300.55
568.31	2301.41
568.66	2302.60
569.02	2303.16
569.37	2303.52
569.72	2304.31
570.08	2304.38
570.43	2304.22
570.78	2303.43
571.14	2301.87
571.49	2300.58
571.84	2300.32
572.20	2299.14
572.55	2298.12
572.90	2296.58
573.26	2295.24
573.61	2293.63
573.96	2291.73
574.31	2288.70
574.67	2285.58
575.02	2281.94
575.37	2278.62
575.72	2274.69
576.08	2271.45
576.43	2268.05
576.78	2264.35
577.13	2261.26
577.49	2258.22
577.84	2254.80
578.19	2251.12
578.54	2247.55
578.90	2243.31
579.25	2237.72
579.60	2232.74
579.95	2227.61
580.30	2222.64
580.66	2217.48
581.01	2212.55
581.36	2207.59
581.71	2203.30
582.06	2198.80
582.42	2194.28
582.77	2188.93
583.12	2184.47
583.47	2179.69
583.82	2174.56
584.17	2169.22
584.53	2163.61
584.88	2157.96
585.23	2152.01
585.58	2146.55
585.93	2140.99
586.28	2136.14
586.63	2131.05
586.98	2125.90
587.34	2121.20
587.69	2116.12
588.04	2110.73
588.39	2104.88
588.74	2098.39
589.09	2092.17
589.44	2085.35
589.79	2079.51
590.14	2073.90
590.49	2067.21
590.84	2060.78
591.19	2054.81
591.54	2048.32
591.89	2040.89
592.25	2033.94
592.60	2026.85
592.95	2019.18
593.30	2011.76
593.65	2004.09
594.00	1997.02
594.35	1989.70
594.70	1981.64
595.05	1974.50
595.40	1967.28
595.75	1959.82
596.10	1953.65
596.45	1946.89
596.80	1940.75
597.15	1933.87
597.50	1926.62
597.85	1920.15
598.19	1913.37
598.54	1906.16
598.89	1899.57
599.24	1893.67
599.59	1887.02
599.94	1880.74
600.29	1874.47
600.64	1867.87
600.99	1860.35
601.34	1853.49
601.69	1846.64
602.04	1839.69
602.39	1832.23
602.74	1825.32
603.08	1818.53
603.43	1811.77
603.78	1804.46
604.13	1797.34
604.48	1790.12
604.83	1783.36
605.18	1776.40
605.53	1768.44
605.87	1760.41
606.22	1753.06
606.57	1745.06
606.92	1737.79
607.27	1730.59
607.62	1723.52
607.96	1716.15
608.31	1709.59
608.66	1701.93
609.01	1694.38
609.36	1686.94
609.70	1678.99
610.05	1670.92
610.40	1663.16
610.75	1654.79
611.10	1647.17
611.44	1638.63
611.79	1630.70
612.14	1621.95
612.49	1612.73
612.83	1604.33
613.18	1596.30
613.53	1588.23
613.88	1579.63
614.22	1571.23
614.57	1562.66
614.92	1554.64
615.27	1547.05
615.61	1538.58
615.96	1530.53
616.31	1522.84
616.65	1515.38
617.00	1507.79
617.35	1500.13
617.70	1491.72
618.04	1483.20
618.39	1474.95
618.74	1467.36
619.08	1459.01
619.43	1451.44
619.78	1444.50
620.12	1437.33
620.47	1429.70
620.82	1421.52
621.16	1414.24
621.51	1406.72
621.85	1399.10
622.20	1390.57
622.55	1382.21
622.89	1374.45
623.24	1366.88
623.59	1359.53
623.93	1352.00
624.28	1344.73
624.62	1337.12
624.97	1329.99
625.32	1323.28
625.66	1316.20
626.01	1308.98
626.35	1301.39
626.70	1293.73
627.04	1285.99
627.39	1278.18
627.73	1270.87
628.08	1264.02
628.43	1256.68
628.77	1249.29
629.12	1241.70
629.46	1234.58
629.81	1227.39
630.15	1220.09
630.50	1212.60
630.84	1204.32
631.19	1196.42
631.53	1189.08
631.88	1181.61
632.22	1173.99
632.57	1166.72
632.91	1159.11
633.26	1151.68
633.60	1144.48
633.95	1137.36
634.29	1130.45
634.64	1123.82
634.98	1116.41
635.32	1109.26
635.67	1102.65
636.01	1096.05
636.36	1089.23
636.70	1082.74
637.05	1076.10
637.39	1069.70
637.73	1063.21
638.08	1057.40
638.42	1051.45
638.77	1044.96
639.11	1038.38
639.45	1032.03
639.80	1025.31
640.14	1019.03
640.49	1012.51
640.83	1006.13
641.17	999.87
641.52	993.42
641.86	987.04
642.20	981.22
642.55	974.83
642.89	968.33
643.23	961.80
643.58	956.10
643.92	949.86
644.26	943.69
644.61	937.77
644.95	931.71
645.29	925.13
645.64	918.31
645.98	911.98
646.32	906.15
646.66	900.15
647.01	894.41
647.35	888.72
647.69	882.85
648.04	877.36
648.38	871.60
648.72	865.64
649.06	859.51
649.41	853.72
649.75	847.77
650.09	841.91
650.43	836.12
650.78	829.99
651.12	824.07
651.46	818.40
651.80	812.60
652.14	807.28
652.49	801.92
652.83	796.87
653.17	791.09
653.51	785.36
653.85	779.95
654.20	774.28
654.54	768.19
654.88	762.57
655.22	756.71
655.56	751.04
655.90	745.69
656.25	740.49
656.59	735.03
656.93	730.04
657.27	724.83
657.61	719.38
657.95	714.25
658.29	709.15
658.64	703.97
658.98	698.73
659.32	693.25
659.66	688.02
660.00	682.60
660.34	677.74
660.68	672.86
661.02	667.82
661.36	663.06
661.70	658.62
662.05	654.21
662.39	649.82
662.73	645.29
663.07	640.86
663.41	636.36
663.75	631.89
664.09	627.27
664.43	622.93
664.77	618.83
665.11	614.57
665.45	610.40
665.79	606.22
666.13	602.03
666.47	597.98
666.81	593.81
667.15	589.75
667.49	585.88
667.83	582.07
668.17	578.17
668.51	574.16
668.85	570.13
669.19	566.28
669.53	562.47
669.87	558.59
670.21	554.91
670.55	551.29
670.89	547.81
671.23	544.39
671.57	540.84
671.91	537.25
672.25	533.78
672.58	530.30
672.92	526.98
673.26	523.83
673.60	520.65
673.94	517.54
674.28	514.64
674.62	511.68
674.96	508.55
675.30	505.62
675.64	502.69
675.97	499.92
676.31	497.11
676.65	494.19
676.99	491.57
677.33	488.77
677.67	485.98
678.01	483.00
678.34	480.02
678.68	477.17
679.02	474.34
679.36	471.56
679.70	468.81
680.04	466.09
680.37	463.21
680.71	460.45
681.05	457.81
681.39	455.08
681.73	452.40
682.06	449.94
682.40	447.45
682.74	444.95
683.08	442.41
683.42	439.85
683.75	437.37
684.09	434.79
684.43	432.23
684.77	429.83
685.10	427.47
685.44	425.19
685.78	422.89
686.12	420.67
686.45	418.39
686.79	416.11
687.13	413.89
687.46	411.74
687.80	409.56
688.14	407.43
688.48	405.39
688.81	403.10
689.15	400.89
689.49	398.70
689.82	396.57
690.16	394.48
690.50	392.46
690.83	390.51
691.17	388.50
691.51	386.60
691.84	384.73
692.18	382.84
692.52	380.87
692.85	378.98
693.19	377.07
693.52	375.24
693.86	373.47
694.20	371.68
694.53	369.82
694.87	368.02
695.21	366.21
695.54	364.39
695.88	362.69
696.21	361.03
696.55	359.36
696.88	357.69
697.22	356.06
697.56	354.45
697.89	352.78
698.23	351.16
698.56	349.54
698.90	347.94
699.23	346.25
699.57	344.67
699.90	343.09
700.24	341.56
700.58	340.04
700.91	338.52
701.25	337.09
701.58	335.77
701.92	334.43
702.25	333.04
702.59	331.63
702.92	330.31
703.26	328.97
703.59	327.65
703.93	326.48
704.26	325.21
704.60	323.94
704.93	322.65
705.26	321.43
705.60	320.28
705.93	319.11
706.27	318.08
706.60	317.01
706.94	315.98
707.27	314.86
707.61	313.77
707.94	312.75
708.27	311.62
708.61	310.53
708.94	309.52
709.28	308.56
709.61	307.63
709.94	306.69
710.28	305.69
710.61	304.72
710.95	303.62
711.28	302.71
711.61	301.73
711.95	300.89
712.28	299.92
712.61	298.95
712.95	298.03
713.28	297.14
713.61	296.23
713.95	295.33
714.28	294.49
714.61	293.62
714.95	292.77
715.28	291.95
715.61	291.10
715.95	290.23
716.28	289.32
716.61	288.45
716.95	287.66
717.28	286.93
717.61	286.16
717.94	285.49
718.28	284.70
718.61	284.00
718.94	283.28
719.27	282.68
719.61	282.05
719.94	281.38
720.27	280.70
720.60	280.06
720.94	279.44
721.27	278.83
721.60	278.27
721.93	277.64
722.27	277.08
722.60	276.54
722.93	275.95
723.26	275.44
723.59	274.92
723.93	274.35
724.26	273.78
724.59	273.24
724.92	272.68
725.25	272.22
725.59	271.71
725.92	271.19
726.25	270.65
726.58	270.15
726.91	269.64
727.24	269.17
727.57	268.73
727.91	268.26
728.24	267.81
728.57	267.34
728.90	266.88
729.23	266.41
729.56	265.95
729.89	265.49
730.22	265.02
730.55	264.55
730.89	264.09
731.22	263.66
731.55	263.25
731.88	262.87
732.21	262.42
732.54	261.98
732.87	261.57
733.20	261.19
733.53	260.78
733.86	260.42
734.19	260.02
734.52	259.64
734.85	259.30
735.18	258.90
735.51	258.54
735.84	258.18
736.17	257.85
736.50	257.47
736.83	257.23
737.16	256.89
737.49	256.52
737.82	256.18
738.15	255.83
738.48	255.48
738.81	255.12
739.14	254.74
739.47	254.38
739.80	254.05
740.13	253.75
740.46	253.43
740.79	253.08
741.12	252.76
741.45	252.43
741.78	252.06
742.11	251.77
742.44	251.42
742.77	251.11
743.10	250.78
743.43	250.46
743.75	250.09
744.08	249.93
744.41	249.70
744.74	249.43
745.07	249.13
745.40	248.90
745.73	248.64
746.06	248.41
746.39	248.17
746.71	247.91
747.04	247.61
747.37	247.36
747.70	247.12
748.03	246.89
748.36	246.66
748.68	246.44
749.01	246.21
749.34	245.99
749.67	245.78
750.00	245.57
750.33	245.44
750.65	245.25
750.98	244.89
751.31	244.65
751.64	244.47
751.97	244.35
752.29	244.09
752.62	243.85
752.95	243.63
753.28	243.40
753.60	243.21
753.93	243.01
754.26	242.81
754.59	242.57
754.91	242.33
755.24	242.10
755.57	241.89
755.90	241.67
756.22	241.50
756.55	241.29
756.88	241.09
757.20	240.84
757.53	240.59
757.86	240.45
758.19	240.33
758.51	240.12
758.84	239.86
759.17	239.70
759.49	239.56
759.82	239.42
760.15	239.32
760.47	239.14
760.80	238.95
761.13	238.80
761.45	238.67
761.78	238.54
762.11	238.41
762.43	238.30
762.76	238.18
763.08	238.05
763.41	237.90
763.74	237.74
764.06	237.59
764.39	237.47
764.71	237.35
765.04	237.21
765.37	237.10
765.69	237.01
766.02	236.87
766.34	236.76
766.67	236.60
767.00	236.47
767.32	236.42
767.65	236.36
767.97	236.26
768.30	236.15
768.62	236.07
768.95	235.95
769.27	235.80
769.60	235.68
769.92	235.58
770.25	235.50
770.57	235.40
770.90	235.30
771.22	235.21
771.55	235.09
771.87	235.01
772.20	234.88
772.52	234.88
772.85	234.90
773.17	234.80
773.50	234.72
773.82	234.64
774.15	234.52
774.47	234.40
774.80	234.31
775.12	234.22
775.45	234.13
775.77	234.06
776.09	233.98
776.42	233.90
776.74	233.85
777.07	233.77
777.39	233.70
777.72	233.61
778.04	233.56
778.36	233.50
778.69	233.41
779.01	233.37
779.33	233.20
779.66	233.04
779.98	232.99
780.31	232.94
780.63	232.90
780.95	232.88
781.28	232.82
781.60	232.78
781.92	232.74
782.25	232.70
782.57	232.64
782.89	232.59
783.22	232.57
783.54	232.49
783.86	232.43
784.19	232.37
784.51	232.37
784.83	232.33
785.16	232.27
785.48	232.24
785.80	232.15
786.12	232.12
786.45	232.05
786.77	231.98
787.09	231.93
