SpectraSuite Data File
++++++++++++++++++++++++++++++++++++
Date: Fri Feb 01 16:12:57 EST 2013
User: group
Dark Spectrum Present: No
Reference Spectrum Present: No
Number of Sampled Component Spectra: 1
Spectrometers: USB2E7196
Integration Time (usec): 35000 (USB2E7196)
Spectra Averaged: 100 (USB2E7196)
Boxcar Smoothing: 10 (USB2E7196)
Correct for Electrical Dark: No (USB2E7196)
Strobe/Lamp Enabled: No (USB2E7196)
Correct for Detector Non-linearity: No (USB2E7196)
Correct for Stray Light: No (USB2E7196)
Number of Pixels in Processed Spectrum: 2048
>>>>>Begin Processed Spectral Data<<<<<
339.09	0.00
339.48	214.45
339.86	216.37
340.24	216.74
340.63	218.68
341.01	221.02
341.39	220.76
341.78	223.10
342.16	224.01
342.54	224.68
342.93	212.79
343.31	223.54
343.69	224.09
344.07	224.52
344.46	224.95
344.84	225.33
345.22	225.59
345.60	225.84
345.99	226.00
346.37	226.11
346.75	226.20
347.13	226.27
347.52	226.29
347.90	226.37
348.28	226.42
348.66	226.46
349.05	226.44
349.43	226.47
349.81	226.51
350.19	226.51
350.57	226.55
350.96	226.61
351.34	226.71
351.72	226.77
352.10	226.85
352.48	226.92
352.87	226.96
353.25	227.03
353.63	227.11
354.01	227.17
354.39	227.24
354.77	227.29
355.15	227.39
355.54	227.46
355.92	227.47
356.30	227.52
356.68	227.64
357.06	227.73
357.44	227.75
357.82	227.77
358.20	227.87
358.58	227.94
358.97	228.03
359.35	228.08
359.73	228.15
360.11	228.20
360.49	228.24
360.87	228.27
361.25	228.31
361.63	228.35
362.01	228.39
362.39	228.43
362.77	228.45
363.15	228.49
363.53	228.53
363.91	228.57
364.29	228.59
364.67	228.51
365.05	228.53
365.43	228.59
365.81	228.61
366.19	228.65
366.57	228.67
366.95	228.66
367.33	228.62
367.71	228.60
368.09	228.62
368.47	228.64
368.85	228.62
369.23	228.64
369.61	228.61
369.99	228.66
370.37	228.65
370.75	228.68
371.13	228.58
371.51	228.53
371.89	228.47
372.27	228.43
372.65	228.39
373.03	228.32
373.41	228.24
373.78	228.21
374.16	228.11
374.54	228.04
374.92	227.99
375.30	227.94
375.68	227.86
376.06	227.81
376.44	227.72
376.82	227.65
377.19	227.58
377.57	227.48
377.95	227.35
378.33	227.29
378.71	227.15
379.09	227.15
379.47	227.09
379.84	227.02
380.22	226.96
380.60	226.87
380.98	226.80
381.36	226.76
381.73	226.70
382.11	226.63
382.49	226.57
382.87	226.49
383.25	226.45
383.62	226.50
384.00	226.41
384.38	226.38
384.76	226.35
385.13	226.29
385.51	226.25
385.89	226.18
386.27	226.13
386.64	226.11
387.02	226.07
387.40	226.01
387.78	225.97
388.15	225.94
388.53	225.91
388.91	225.88
389.29	225.83
389.66	225.77
390.04	225.72
390.42	225.72
390.79	225.70
391.17	225.67
391.55	225.58
391.92	225.58
392.30	225.56
392.68	225.55
393.05	225.54
393.43	225.53
393.81	225.54
394.18	225.52
394.56	225.49
394.94	225.53
395.31	225.53
395.69	225.57
396.06	225.59
396.44	225.63
396.82	225.67
397.19	225.78
397.57	225.83
397.95	225.93
398.32	225.94
398.70	226.01
399.07	226.06
399.45	226.12
399.82	226.19
400.20	226.28
400.58	226.35
400.95	226.41
401.33	226.54
401.70	226.68
402.08	226.77
402.45	226.88
402.83	226.96
403.20	227.10
403.58	227.21
403.95	227.34
404.33	227.49
404.71	227.59
405.08	227.73
405.46	227.85
405.83	227.99
406.21	228.09
406.58	228.25
406.96	228.43
407.33	228.58
407.70	228.80
408.08	229.03
408.45	229.23
408.83	229.46
409.20	229.63
409.58	229.83
409.95	230.10
410.33	230.39
410.70	230.63
411.08	230.91
411.45	231.21
411.82	231.49
412.20	231.83
412.57	232.24
412.95	232.54
413.32	232.94
413.69	233.33
414.07	233.79
414.44	234.26
414.82	234.72
415.19	235.31
415.56	235.84
415.94	236.38
416.31	237.03
416.68	237.66
417.06	238.41
417.43	239.09
417.81	239.88
418.18	240.66
418.55	241.52
418.93	242.39
419.30	243.29
419.67	244.27
420.04	245.22
420.42	246.21
420.79	247.44
421.16	248.57
421.54	249.79
421.91	251.03
422.28	252.27
422.66	253.58
423.03	254.87
423.40	256.21
423.77	257.64
424.15	259.05
424.52	260.54
424.89	262.15
425.26	263.69
425.64	265.12
426.01	266.71
426.38	268.34
426.75	270.03
427.13	271.73
427.50	273.52
427.87	275.36
428.24	277.24
428.61	278.96
428.99	280.94
429.36	283.03
429.73	285.08
430.10	287.09
430.47	289.15
430.85	291.25
431.22	293.44
431.59	295.81
431.96	298.05
432.33	300.53
432.70	302.90
433.08	305.69
433.45	308.35
433.82	310.96
434.19	313.84
434.56	316.66
434.93	319.32
435.30	321.94
435.68	324.83
436.05	327.60
436.42	330.35
436.79	332.87
437.16	335.56
437.53	338.39
437.90	341.23
438.27	343.95
438.64	346.76
439.01	349.34
439.38	351.59
439.75	353.78
440.13	356.23
440.50	358.56
440.87	360.40
441.24	362.26
441.61	364.38
441.98	365.83
442.35	367.62
442.72	369.49
443.09	371.30
443.46	372.29
443.83	372.96
444.20	373.48
444.57	374.25
444.94	374.51
445.31	374.81
445.68	375.09
446.05	375.21
446.42	374.85
446.79	374.47
447.16	373.97
447.53	373.63
447.90	372.46
448.27	371.29
448.64	369.70
449.01	368.59
449.37	366.64
449.74	364.77
450.11	362.49
450.48	360.04
450.85	357.51
451.22	355.32
451.59	353.24
451.96	351.30
452.33	348.74
452.70	346.43
453.07	343.64
453.43	340.80
453.80	338.00
454.17	335.31
454.54	332.75
454.91	330.03
455.28	327.35
455.65	324.86
456.02	322.38
456.38	320.26
456.75	317.60
457.12	315.35
457.49	313.09
457.86	310.95
458.23	309.07
458.59	307.04
458.96	305.00
459.33	303.17
459.70	301.32
460.07	299.84
460.43	298.10
460.80	296.43
461.17	294.97
461.54	293.50
461.91	292.05
462.27	290.58
462.64	289.35
463.01	288.02
463.38	286.78
463.74	285.46
464.11	284.30
464.48	283.32
464.85	282.23
465.21	281.41
465.58	280.49
465.95	279.39
466.32	278.43
466.68	277.57
467.05	276.66
467.42	275.77
467.78	274.86
468.15	273.99
468.52	273.38
468.88	272.54
469.25	271.79
469.62	271.21
469.98	270.60
470.35	270.02
470.72	269.42
471.08	268.76
471.45	268.25
471.82	267.71
472.18	267.11
472.55	266.68
472.92	266.14
473.28	265.70
473.65	265.28
474.02	264.88
474.38	264.53
474.75	264.23
475.11	263.87
475.48	263.58
475.85	263.34
476.21	263.11
476.58	262.96
476.94	262.80
477.31	262.62
477.67	262.43
478.04	262.31
478.41	262.26
478.77	262.28
479.14	262.18
479.50	262.21
479.87	262.28
480.23	262.37
480.60	262.46
480.96	262.54
481.33	262.76
481.69	263.00
482.06	263.19
482.42	263.39
482.79	263.67
483.15	263.95
483.52	264.35
483.88	264.72
484.25	265.08
484.61	265.56
484.98	266.03
485.34	266.64
485.71	267.23
486.07	267.83
486.44	268.44
486.80	269.18
487.17	269.90
487.53	270.72
487.90	271.56
488.26	272.51
488.62	273.50
488.99	274.47
489.35	275.50
489.72	276.61
490.08	277.84
490.44	279.09
490.81	280.45
491.17	281.81
491.54	283.31
491.90	284.86
492.26	286.50
492.63	288.26
492.99	290.06
493.36	291.95
493.72	293.98
494.08	296.07
494.45	298.32
494.81	300.67
495.17	303.10
495.54	305.67
495.90	308.34
496.26	311.19
496.63	314.16
496.99	317.31
497.35	320.56
497.72	323.97
498.08	327.51
498.44	331.21
498.80	335.12
499.17	339.09
499.53	343.27
499.89	347.66
500.26	352.11
500.62	356.81
500.98	361.75
501.34	366.87
501.71	372.22
502.07	377.69
502.43	383.35
502.79	389.13
503.16	395.21
503.52	401.47
503.88	407.84
504.24	414.45
504.60	421.33
504.97	428.50
505.33	435.83
505.69	443.54
506.05	451.34
506.41	459.32
506.78	467.46
507.14	475.94
507.50	484.67
507.86	493.73
508.22	502.90
508.59	512.12
508.95	521.71
509.31	531.53
509.67	541.63
510.03	551.87
510.39	562.56
510.75	573.40
511.12	584.40
511.48	595.74
511.84	607.17
512.20	618.63
512.56	630.63
512.92	642.84
513.28	655.20
513.64	667.62
514.00	680.35
514.37	693.30
514.73	706.36
515.09	719.31
515.45	732.64
515.81	746.21
516.17	760.13
516.53	774.21
516.89	788.38
517.25	802.48
517.61	816.92
517.97	831.29
518.33	845.73
518.69	860.42
519.05	875.31
519.41	890.49
519.77	906.00
520.13	921.32
520.49	936.73
520.85	952.02
521.21	967.67
521.57	983.81
521.93	999.59
522.29	1015.86
522.65	1032.12
523.01	1048.21
523.37	1064.24
523.73	1080.40
524.09	1096.57
524.45	1112.82
524.81	1129.47
525.17	1146.15
525.53	1163.02
525.89	1179.79
526.25	1196.69
526.61	1213.14
526.97	1229.95
527.33	1246.41
527.68	1262.98
528.04	1279.36
528.40	1295.91
528.76	1313.03
529.12	1329.57
529.48	1346.36
529.84	1362.34
530.20	1378.91
530.56	1395.89
530.91	1413.27
531.27	1430.07
531.63	1446.40
531.99	1462.85
532.35	1478.68
532.71	1494.61
533.07	1510.70
533.42	1526.57
533.78	1542.43
534.14	1558.58
534.50	1573.74
534.86	1589.51
535.21	1604.52
535.57	1620.36
535.93	1635.85
536.29	1650.48
536.65	1665.44
537.00	1680.26
537.36	1695.62
537.72	1710.09
538.08	1724.50
538.44	1738.10
538.79	1751.83
539.15	1765.35
539.51	1779.06
539.87	1793.46
540.22	1807.02
540.58	1820.75
540.94	1833.86
541.29	1846.61
541.65	1859.21
542.01	1872.41
542.37	1884.73
542.72	1897.13
543.08	1908.84
543.44	1920.99
543.79	1932.21
544.15	1943.14
544.51	1954.57
544.87	1965.40
545.22	1976.21
545.58	1986.27
545.94	1996.14
546.29	2005.91
546.65	2015.79
547.01	2024.87
547.36	2033.46
547.72	2041.96
548.07	2049.80
548.43	2057.98
548.79	2065.98
549.14	2073.64
549.50	2080.80
549.86	2088.28
550.21	2095.67
550.57	2102.83
550.92	2109.44
551.28	2116.52
551.64	2123.55
551.99	2130.04
552.35	2136.14
552.70	2142.12
553.06	2148.18
553.41	2154.40
553.77	2160.45
554.13	2166.51
554.48	2172.72
554.84	2178.27
555.19	2183.50
555.55	2188.69
555.90	2193.27
556.26	2198.24
556.61	2202.85
556.97	2207.36
557.32	2211.51
557.68	2215.69
558.03	2219.93
558.39	2223.62
558.74	2228.22
559.10	2232.09
559.45	2235.55
559.81	2239.80
560.16	2243.66
560.52	2246.73
560.87	2250.16
561.23	2252.91
561.58	2255.78
561.94	2258.44
562.29	2260.72
562.64	2263.59
563.00	2266.11
563.35	2269.58
563.71	2272.76
564.06	2275.94
564.42	2278.77
564.77	2281.51
565.12	2283.86
565.48	2285.82
565.83	2287.74
566.19	2289.17
566.54	2289.98
566.89	2291.38
567.25	2292.05
567.60	2293.31
567.96	2295.19
568.31	2296.02
568.66	2297.19
569.02	2297.80
569.37	2298.12
569.72	2299.03
570.08	2299.10
570.43	2299.22
570.78	2298.71
571.14	2297.04
571.49	2295.71
571.84	2295.33
572.20	2294.20
572.55	2293.06
572.90	2291.42
573.26	2290.26
573.61	2288.53
573.96	2286.90
574.31	2284.02
574.67	2281.13
575.02	2277.60
575.37	2274.18
575.72	2270.57
576.08	2267.03
576.43	2263.54
576.78	2259.98
577.13	2256.74
577.49	2253.50
577.84	2250.11
578.19	2246.30
578.54	2242.83
578.90	2238.70
579.25	2233.16
579.60	2228.23
579.95	2223.34
580.30	2218.32
580.66	2213.02
581.01	2208.00
581.36	2203.08
581.71	2198.88
582.06	2194.49
582.42	2190.06
582.77	2184.95
583.12	2180.38
583.47	2175.84
583.82	2171.20
584.17	2165.98
584.53	2160.63
584.88	2155.16
585.23	2149.39
585.58	2143.86
585.93	2138.41
586.28	2133.47
586.63	2128.45
586.98	2123.34
587.34	2118.59
587.69	2113.72
588.04	2108.50
588.39	2102.95
588.74	2096.62
589.09	2090.48
589.44	2083.68
589.79	2077.73
590.14	2071.98
590.49	2065.34
590.84	2058.90
591.19	2052.67
591.54	2046.22
591.89	2038.89
592.25	2032.24
592.60	2025.14
592.95	2017.75
593.30	2010.47
593.65	2002.97
594.00	1995.89
594.35	1988.64
594.70	1980.50
595.05	1973.56
595.40	1966.42
595.75	1958.92
596.10	1952.74
596.45	1946.03
596.80	1939.99
597.15	1933.36
597.50	1926.44
597.85	1920.01
598.19	1913.42
598.54	1906.66
598.89	1900.03
599.24	1894.08
599.59	1887.49
599.94	1881.12
600.29	1874.85
600.64	1868.14
600.99	1860.82
601.34	1854.02
601.69	1846.96
602.04	1840.17
602.39	1832.67
602.74	1825.88
603.08	1819.14
603.43	1812.32
603.78	1804.92
604.13	1797.70
604.48	1790.56
604.83	1783.73
605.18	1776.86
605.53	1768.92
605.87	1760.78
606.22	1753.44
606.57	1745.54
606.92	1738.00
607.27	1730.98
607.62	1724.07
607.96	1716.93
608.31	1710.38
608.66	1702.93
609.01	1695.60
609.36	1688.16
609.70	1680.21
610.05	1672.19
610.40	1664.57
610.75	1656.26
611.10	1648.72
611.44	1640.21
611.79	1632.16
612.14	1623.51
612.49	1614.27
612.83	1605.85
613.18	1597.73
613.53	1589.77
613.88	1581.32
614.22	1573.18
614.57	1564.38
614.92	1556.43
615.27	1548.97
615.61	1540.57
615.96	1532.46
616.31	1524.79
616.65	1517.48
617.00	1509.97
617.35	1502.16
617.70	1493.84
618.04	1485.44
618.39	1477.33
618.74	1469.87
619.08	1461.43
619.43	1453.88
619.78	1447.03
620.12	1439.98
620.47	1432.41
620.82	1424.08
621.16	1416.57
621.51	1408.72
621.85	1401.13
622.20	1392.60
622.55	1384.18
622.89	1376.32
623.24	1368.64
623.59	1361.09
623.93	1353.47
624.28	1346.19
624.62	1338.84
624.97	1331.72
625.32	1324.87
625.66	1317.72
626.01	1310.52
626.35	1303.10
626.70	1295.25
627.04	1287.42
627.39	1279.57
627.73	1272.16
628.08	1265.30
628.43	1258.05
628.77	1250.89
629.12	1243.44
629.46	1236.22
629.81	1228.69
630.15	1221.47
630.50	1214.07
630.84	1205.96
631.19	1197.93
631.53	1190.36
631.88	1182.65
632.22	1174.92
632.57	1167.60
632.91	1160.06
633.26	1152.60
633.60	1145.22
633.95	1137.96
634.29	1130.98
634.64	1124.24
634.98	1116.94
635.32	1109.88
635.67	1103.21
636.01	1096.54
636.36	1089.82
636.70	1083.26
637.05	1076.75
637.39	1070.21
637.73	1063.81
638.08	1057.93
638.42	1051.99
638.77	1045.59
639.11	1039.12
639.45	1032.74
639.80	1026.02
640.14	1019.61
640.49	1013.08
640.83	1006.85
641.17	1000.69
641.52	994.40
641.86	987.99
642.20	982.08
642.55	975.65
642.89	969.19
643.23	962.56
643.58	956.70
643.92	950.55
644.26	944.58
644.61	938.55
644.95	932.51
645.29	925.99
645.64	919.25
645.98	912.89
646.32	906.85
646.66	900.79
647.01	895.03
647.35	889.33
647.69	883.40
648.04	877.76
648.38	871.99
648.72	866.06
649.06	860.03
649.41	854.07
649.75	848.16
650.09	842.19
650.43	836.43
650.78	830.29
651.12	824.35
651.46	818.57
651.80	812.96
652.14	807.56
652.49	802.25
652.83	797.13
653.17	791.61
653.51	785.92
653.85	780.50
654.20	774.97
654.54	768.94
654.88	763.23
655.22	757.39
655.56	751.69
655.90	746.14
656.25	740.86
656.59	735.56
656.93	730.51
657.27	725.47
657.61	720.05
657.95	714.97
658.29	709.80
658.64	704.56
658.98	699.18
659.32	693.67
659.66	688.38
660.00	683.06
660.34	678.01
660.68	673.15
661.02	668.20
661.36	663.44
661.70	658.97
662.05	654.65
662.39	650.32
662.73	645.86
663.07	641.54
663.41	637.16
663.75	632.67
664.09	628.08
664.43	623.60
664.77	619.56
665.11	615.31
665.45	611.21
665.79	607.12
666.13	602.99
666.47	598.94
666.81	594.76
667.15	590.61
667.49	586.67
667.83	582.83
668.17	578.87
668.51	574.78
668.85	570.70
669.19	566.85
669.53	563.06
669.87	559.20
670.21	555.47
670.55	551.76
670.89	548.28
671.23	544.82
671.57	541.37
671.91	537.74
672.25	534.18
672.58	530.71
672.92	527.27
673.26	524.09
673.60	520.94
673.94	517.85
674.28	514.92
674.62	511.98
674.96	508.87
675.30	505.96
675.64	503.08
675.97	500.29
676.31	497.43
676.65	494.49
676.99	491.77
677.33	488.86
677.67	486.06
678.01	483.11
678.34	480.17
678.68	477.29
679.02	474.53
679.36	471.78
679.70	468.95
680.04	466.14
680.37	463.27
680.71	460.39
681.05	457.74
681.39	455.02
681.73	452.37
682.06	449.85
682.40	447.28
682.74	444.70
683.08	442.13
683.42	439.48
683.75	436.96
684.09	434.39
684.43	431.93
684.77	429.45
685.10	427.02
685.44	424.67
685.78	422.32
686.12	419.99
686.45	417.68
686.79	415.41
687.13	413.26
687.46	411.05
687.80	408.89
688.14	406.69
688.48	404.66
688.81	402.41
689.15	400.25
689.49	398.08
689.82	395.99
690.16	393.89
690.50	391.90
690.83	389.97
691.17	388.02
691.51	386.13
691.84	384.25
692.18	382.38
692.52	380.40
692.85	378.46
693.19	376.64
693.52	374.78
693.86	372.96
694.20	371.17
694.53	369.45
694.87	367.63
695.21	365.80
695.54	363.95
695.88	362.20
696.21	360.49
696.55	358.78
696.88	357.13
697.22	355.46
697.56	353.84
697.89	352.18
698.23	350.58
698.56	348.93
698.90	347.40
699.23	345.76
699.57	344.21
699.90	342.64
700.24	341.08
700.58	339.59
700.91	338.12
701.25	336.70
701.58	335.32
701.92	333.97
702.25	332.61
702.59	331.23
702.92	329.97
703.26	328.70
703.59	327.44
703.93	326.25
704.26	325.01
704.60	323.76
704.93	322.51
705.26	321.28
705.60	320.12
705.93	318.91
706.27	317.86
706.60	316.81
706.94	315.73
707.27	314.59
707.61	313.55
707.94	312.48
708.27	311.38
708.61	310.27
708.94	309.23
709.28	308.27
709.61	307.35
709.94	306.36
710.28	305.34
710.61	304.33
710.95	303.18
711.28	302.28
711.61	301.33
711.95	300.42
712.28	299.48
712.61	298.52
712.95	297.61
713.28	296.69
713.61	295.78
713.95	294.92
714.28	294.10
714.61	293.21
714.95	292.36
715.28	291.50
715.61	290.65
715.95	289.78
716.28	288.91
716.61	288.07
716.95	287.22
717.28	286.46
717.61	285.76
717.94	285.06
718.28	284.30
718.61	283.56
718.94	282.86
719.27	282.18
719.61	281.51
719.94	280.83
720.27	280.17
720.60	279.54
720.94	278.92
721.27	278.30
721.60	277.72
721.93	277.14
722.27	276.61
722.60	276.02
722.93	275.47
723.26	274.92
723.59	274.34
723.93	273.79
724.26	273.23
724.59	272.62
724.92	272.10
725.25	271.59
725.59	271.05
725.92	270.52
726.25	269.98
726.58	269.48
726.91	269.00
727.24	268.49
727.57	268.00
727.91	267.48
728.24	267.01
728.57	266.53
728.90	266.07
729.23	265.55
729.56	265.18
729.89	264.71
730.22	264.20
730.55	263.73
730.89	263.30
731.22	262.82
731.55	262.40
731.88	261.96
732.21	261.51
732.54	261.05
732.87	260.64
733.20	260.25
733.53	259.86
733.86	259.46
734.19	259.06
734.52	258.65
734.85	258.36
735.18	257.93
735.51	257.57
735.84	257.17
736.17	256.81
736.50	256.38
736.83	256.18
737.16	255.87
737.49	255.53
737.82	255.17
738.15	254.87
738.48	254.53
738.81	254.20
739.14	253.89
739.47	253.58
739.80	253.29
740.13	253.01
740.46	252.71
740.79	252.38
741.12	252.07
741.45	251.76
741.78	251.38
742.11	251.12
742.44	250.75
742.77	250.48
743.10	250.17
743.43	249.87
743.75	249.49
744.08	249.34
744.41	249.07
744.74	248.79
745.07	248.50
745.40	248.26
745.73	248.04
746.06	247.76
746.39	247.52
746.71	247.24
747.04	246.95
747.37	246.67
747.70	246.45
748.03	246.19
748.36	246.00
748.68	245.80
749.01	245.55
749.34	245.36
749.67	245.16
750.00	244.95
750.33	244.79
750.65	244.55
750.98	244.21
751.31	244.05
751.64	243.86
751.97	243.69
752.29	243.48
752.62	243.20
752.95	243.00
753.28	242.80
753.60	242.59
753.93	242.45
754.26	242.30
754.59	242.07
754.91	241.91
755.24	241.72
755.57	241.51
755.90	241.35
756.22	241.18
756.55	240.99
756.88	240.80
757.20	240.59
757.53	240.44
757.86	240.27
758.19	240.08
758.51	239.91
758.84	239.70
759.17	239.52
759.49	239.38
759.82	239.29
760.15	239.12
760.47	238.97
760.80	238.81
761.13	238.66
761.45	238.49
761.78	238.30
762.11	238.14
762.43	238.01
762.76	237.86
763.08	237.72
763.41	237.57
763.74	237.42
764.06	237.25
764.39	237.09
764.71	236.94
765.04	236.79
765.37	236.65
765.69	236.54
766.02	236.44
766.34	236.31
766.67	236.14
767.00	236.05
767.32	235.99
767.65	235.90
767.97	235.74
768.30	235.66
768.62	235.55
768.95	235.41
769.27	235.25
769.60	235.17
769.92	235.05
770.25	234.93
770.57	234.85
770.90	234.73
771.22	234.62
771.55	234.51
771.87	234.44
772.20	234.33
772.52	234.31
772.85	234.28
773.17	234.21
773.50	234.11
773.82	233.98
774.15	233.81
774.47	233.66
774.80	233.58
775.12	233.48
775.45	233.41
775.77	233.32
776.09	233.25
776.42	233.16
776.74	233.10
777.07	233.00
777.39	232.90
777.72	232.80
778.04	232.74
778.36	232.66
778.69	232.57
779.01	232.51
779.33	232.35
779.66	232.17
779.98	232.09
780.31	232.01
780.63	232.02
780.95	231.99
781.28	231.92
781.60	231.84
781.92	231.78
782.25	231.73
782.57	231.69
782.89	231.64
783.22	231.56
783.54	231.50
783.86	231.47
784.19	231.43
784.51	231.48
784.83	231.45
785.16	231.43
785.48	231.40
785.80	231.36
786.12	231.32
786.45	231.30
786.77	231.28
787.09	231.25
