SpectraSuite Data File
++++++++++++++++++++++++++++++++++++
Date: Fri Feb 01 14:52:47 EST 2013
User: group
Dark Spectrum Present: No
Reference Spectrum Present: No
Number of Sampled Component Spectra: 1
Spectrometers: USB2E7196
Integration Time (usec): 35000 (USB2E7196)
Spectra Averaged: 100 (USB2E7196)
Boxcar Smoothing: 10 (USB2E7196)
Correct for Electrical Dark: No (USB2E7196)
Strobe/Lamp Enabled: No (USB2E7196)
Correct for Detector Non-linearity: No (USB2E7196)
Correct for Stray Light: No (USB2E7196)
Number of Pixels in Processed Spectrum: 2048
>>>>>Begin Processed Spectral Data<<<<<
339.09	0.00
339.48	215.58
339.86	217.09
340.24	218.46
340.63	220.22
341.01	223.09
341.39	222.86
341.78	223.85
342.16	225.16
342.54	225.57
342.93	213.98
343.31	224.78
343.69	225.33
344.07	225.83
344.46	226.26
344.84	226.63
345.22	226.83
345.60	227.07
345.99	227.27
346.37	227.39
346.75	227.48
347.13	227.58
347.52	227.64
347.90	227.72
348.28	227.77
348.66	227.81
349.05	227.78
349.43	227.84
349.81	227.88
350.19	227.93
350.57	227.99
350.96	228.06
351.34	228.14
351.72	228.21
352.10	228.29
352.48	228.34
352.87	228.38
353.25	228.49
353.63	228.57
354.01	228.61
354.39	228.68
354.77	228.77
355.15	228.83
355.54	228.86
355.92	228.88
356.30	228.95
356.68	229.04
357.06	229.14
357.44	229.19
357.82	229.27
358.20	229.35
358.58	229.40
358.97	229.45
359.35	229.54
359.73	229.64
360.11	229.65
360.49	229.75
360.87	229.79
361.25	229.81
361.63	229.87
362.01	229.92
362.39	229.99
362.77	230.03
363.15	230.08
363.53	230.10
363.91	230.13
364.29	230.14
364.67	230.06
365.05	230.05
365.43	230.07
365.81	230.06
366.19	230.08
366.57	230.16
366.95	230.16
367.33	230.13
367.71	230.07
368.09	230.06
368.47	230.02
368.85	230.00
369.23	229.99
369.61	229.90
369.99	229.88
370.37	229.84
370.75	229.81
371.13	229.73
371.51	229.69
371.89	229.62
372.27	229.57
372.65	229.53
373.03	229.49
373.41	229.43
373.78	229.38
374.16	229.27
374.54	229.11
374.92	229.03
375.30	228.99
375.68	228.90
376.06	228.88
376.44	228.80
376.82	228.74
377.19	228.65
377.57	228.57
377.95	228.48
378.33	228.39
378.71	228.25
379.09	228.18
379.47	228.14
379.84	228.04
380.22	227.93
380.60	227.85
380.98	227.76
381.36	227.67
381.73	227.59
382.11	227.50
382.49	227.47
382.87	227.36
383.25	227.24
383.62	227.29
384.00	227.16
384.38	227.10
384.76	227.03
385.13	227.00
385.51	226.94
385.89	226.84
386.27	226.76
386.64	226.74
387.02	226.67
387.40	226.58
387.78	226.54
388.15	226.51
388.53	226.46
388.91	226.44
389.29	226.40
389.66	226.37
390.04	226.33
390.42	226.32
390.79	226.31
391.17	226.29
391.55	226.17
391.92	226.16
392.30	226.18
392.68	226.15
393.05	226.15
393.43	226.17
393.81	226.22
394.18	226.27
394.56	226.29
394.94	226.33
395.31	226.35
395.69	226.46
396.06	226.49
396.44	226.53
396.82	226.54
397.19	226.66
397.57	226.69
397.95	226.78
398.32	226.80
398.70	226.87
399.07	227.00
399.45	227.09
399.82	227.16
400.20	227.20
400.58	227.30
400.95	227.35
401.33	227.47
401.70	227.64
402.08	227.73
402.45	227.80
402.83	227.91
403.20	228.08
403.58	228.18
403.95	228.34
404.33	228.50
404.71	228.68
405.08	228.84
405.46	229.02
405.83	229.15
406.21	229.33
406.58	229.52
406.96	229.70
407.33	229.89
407.70	230.12
408.08	230.43
408.45	230.65
408.83	230.91
409.20	231.10
409.58	231.29
409.95	231.57
410.33	231.89
410.70	232.18
411.08	232.46
411.45	232.77
411.82	233.09
412.20	233.43
412.57	233.85
412.95	234.16
413.32	234.56
413.69	235.03
414.07	235.46
414.44	235.94
414.82	236.44
415.19	236.99
415.56	237.56
415.94	238.09
416.31	238.77
416.68	239.41
417.06	240.12
417.43	240.80
417.81	241.57
418.18	242.36
418.55	243.20
418.93	244.08
419.30	244.98
419.67	245.91
420.04	246.88
420.42	247.86
420.79	249.05
421.16	250.20
421.54	251.38
421.91	252.59
422.28	253.85
422.66	255.13
423.03	256.42
423.40	257.73
423.77	259.17
424.15	260.59
424.52	262.08
424.89	263.74
425.26	265.30
425.64	266.72
426.01	268.30
426.38	269.98
426.75	271.61
427.13	273.31
427.50	275.13
427.87	277.00
428.24	278.85
428.61	280.60
428.99	282.53
429.36	284.60
429.73	286.65
430.10	288.67
430.47	290.72
430.85	292.81
431.22	295.00
431.59	297.37
431.96	299.61
432.33	302.09
432.70	304.40
433.08	307.18
433.45	309.87
433.82	312.45
434.19	315.28
434.56	318.07
434.93	320.74
435.30	323.34
435.68	326.18
436.05	328.95
436.42	331.73
436.79	334.27
437.16	336.96
437.53	339.77
437.90	342.57
438.27	345.31
438.64	348.13
439.01	350.75
439.38	352.95
439.75	355.05
440.13	357.54
440.50	359.91
440.87	361.76
441.24	363.68
441.61	365.85
441.98	367.36
442.35	369.17
442.72	371.03
443.09	372.86
443.46	373.90
443.83	374.54
444.20	375.04
444.57	375.87
444.94	376.17
445.31	376.53
445.68	376.87
446.05	376.95
446.42	376.56
446.79	376.18
447.16	375.76
447.53	375.42
447.90	374.27
448.27	373.07
448.64	371.50
449.01	370.35
449.37	368.37
449.74	366.47
450.11	364.22
450.48	361.72
450.85	359.15
451.22	357.06
451.59	355.04
451.96	353.09
452.33	350.50
452.70	348.15
453.07	345.37
453.43	342.50
453.80	339.76
454.17	337.13
454.54	334.57
454.91	331.84
455.28	329.22
455.65	326.74
456.02	324.33
456.38	322.20
456.75	319.53
457.12	317.32
457.49	315.13
457.86	313.04
458.23	311.24
458.59	309.22
458.96	307.11
459.33	305.22
459.70	303.38
460.07	301.87
460.43	300.14
460.80	298.50
461.17	297.08
461.54	295.61
461.91	294.18
462.27	292.70
462.64	291.48
463.01	290.16
463.38	288.87
463.74	287.50
464.11	286.33
464.48	285.28
464.85	284.15
465.21	283.27
465.58	282.32
465.95	281.22
466.32	280.33
466.68	279.40
467.05	278.56
467.42	277.63
467.78	276.70
468.15	275.81
468.52	275.14
468.88	274.26
469.25	273.46
469.62	272.82
469.98	272.13
470.35	271.47
470.72	270.82
471.08	270.09
471.45	269.54
471.82	268.94
472.18	268.34
472.55	267.93
472.92	267.39
473.28	266.92
473.65	266.43
474.02	265.95
474.38	265.58
474.75	265.18
475.11	264.87
475.48	264.57
475.85	264.31
476.21	264.03
476.58	263.84
476.94	263.68
477.31	263.50
477.67	263.36
478.04	263.23
478.41	263.15
478.77	263.17
479.14	263.09
479.50	263.09
479.87	263.15
480.23	263.15
480.60	263.21
480.96	263.25
481.33	263.43
481.69	263.64
482.06	263.79
482.42	264.04
482.79	264.27
483.15	264.57
483.52	264.96
483.88	265.31
484.25	265.66
484.61	266.05
484.98	266.47
485.34	267.02
485.71	267.58
486.07	268.20
486.44	268.77
486.80	269.46
487.17	270.17
487.53	270.97
487.90	271.82
488.26	272.73
488.62	273.71
488.99	274.67
489.35	275.70
489.72	276.86
490.08	277.99
490.44	279.18
490.81	280.51
491.17	281.82
491.54	283.29
491.90	284.83
492.26	286.48
492.63	288.18
492.99	289.96
493.36	291.87
493.72	293.86
494.08	295.97
494.45	298.19
494.81	300.54
495.17	302.91
495.54	305.46
495.90	308.05
496.26	310.84
496.63	313.77
496.99	316.86
497.35	320.01
497.72	323.44
498.08	326.92
498.44	330.53
498.80	334.45
499.17	338.44
499.53	342.54
499.89	346.84
500.26	351.33
500.62	356.02
500.98	360.88
501.34	365.93
501.71	371.18
502.07	376.61
502.43	382.21
502.79	388.01
503.16	394.05
503.52	400.29
503.88	406.62
504.24	413.23
504.60	420.07
504.97	427.19
505.33	434.46
505.69	442.17
506.05	449.94
506.41	457.73
506.78	465.90
507.14	474.30
507.50	482.97
507.86	491.94
508.22	501.05
508.59	510.28
508.95	519.80
509.31	529.64
509.67	539.68
510.03	549.90
510.39	560.46
510.75	571.20
511.12	582.20
511.48	593.50
511.84	604.84
512.20	616.35
512.56	628.24
512.92	640.43
513.28	652.79
513.64	665.23
514.00	677.91
514.37	690.81
514.73	703.86
515.09	716.90
515.45	730.24
515.81	743.77
516.17	757.76
516.53	771.86
516.89	785.91
517.25	800.05
517.61	814.50
517.97	828.89
518.33	843.35
518.69	858.09
519.05	873.11
519.41	888.34
519.77	903.89
520.13	919.45
520.49	934.83
520.85	950.17
521.21	965.94
521.57	982.34
521.93	998.16
522.29	1014.61
522.65	1030.97
523.01	1047.23
523.37	1063.33
523.73	1079.62
524.09	1095.84
524.45	1112.31
524.81	1129.07
525.17	1146.04
525.53	1163.08
525.89	1179.90
526.25	1196.78
526.61	1213.17
526.97	1229.98
527.33	1246.51
527.68	1263.02
528.04	1279.53
528.40	1296.24
528.76	1313.39
529.12	1329.90
529.48	1346.83
529.84	1362.88
530.20	1379.55
530.56	1396.44
530.91	1413.79
531.27	1430.49
531.63	1447.05
531.99	1463.73
532.35	1479.78
532.71	1495.50
533.07	1511.80
533.42	1527.90
533.78	1543.91
534.14	1560.26
534.50	1575.63
534.86	1591.58
535.21	1606.94
535.57	1622.91
535.93	1638.49
536.29	1653.22
536.65	1668.57
537.00	1683.36
537.36	1698.77
537.72	1713.48
538.08	1728.09
538.44	1742.13
538.79	1756.19
539.15	1769.95
539.51	1783.84
539.87	1798.22
540.22	1812.11
540.58	1825.89
540.94	1839.18
541.29	1852.31
541.65	1865.12
542.01	1878.54
542.37	1890.79
542.72	1903.25
543.08	1915.17
543.44	1927.54
543.79	1938.99
544.15	1949.94
544.51	1961.57
544.87	1972.63
545.22	1983.36
545.58	1993.62
545.94	2003.48
546.29	2013.41
546.65	2023.19
547.01	2032.40
547.36	2041.05
547.72	2049.59
548.07	2057.67
548.43	2065.86
548.79	2073.81
549.14	2081.36
549.50	2088.71
549.86	2096.59
550.21	2103.90
550.57	2111.11
550.92	2117.83
551.28	2124.92
551.64	2131.92
551.99	2138.39
552.35	2144.57
552.70	2150.68
553.06	2156.57
553.41	2162.68
553.77	2168.55
554.13	2174.62
554.48	2180.59
554.84	2186.08
555.19	2191.32
555.55	2196.20
555.90	2200.71
556.26	2205.56
556.61	2210.12
556.97	2214.23
557.32	2218.23
557.68	2222.29
558.03	2226.36
558.39	2229.73
558.74	2234.13
559.10	2237.77
559.45	2241.30
559.81	2245.48
560.16	2249.05
560.52	2252.17
560.87	2255.68
561.23	2258.15
561.58	2261.03
561.94	2263.44
562.29	2265.71
562.64	2268.23
563.00	2270.71
563.35	2274.09
563.71	2277.06
564.06	2280.14
564.42	2282.98
564.77	2285.26
565.12	2287.35
565.48	2289.01
565.83	2290.88
566.19	2292.03
566.54	2292.97
566.89	2293.97
567.25	2294.27
567.60	2295.48
567.96	2296.93
568.31	2297.39
568.66	2298.30
569.02	2298.55
569.37	2298.66
569.72	2299.28
570.08	2299.26
570.43	2299.07
570.78	2298.11
571.14	2296.38
571.49	2294.84
571.84	2294.18
572.20	2292.76
572.55	2291.47
572.90	2289.76
573.26	2288.04
573.61	2286.20
573.96	2283.95
574.31	2280.82
574.67	2277.44
575.02	2273.44
575.37	2269.78
575.72	2265.87
576.08	2262.26
576.43	2258.73
576.78	2254.87
577.13	2251.43
577.49	2248.02
577.84	2244.41
578.19	2240.56
578.54	2236.70
578.90	2232.15
579.25	2226.50
579.60	2221.56
579.95	2216.30
580.30	2210.99
580.66	2205.63
581.01	2200.32
581.36	2195.54
581.71	2191.23
582.06	2186.80
582.42	2182.34
582.77	2177.04
583.12	2172.11
583.47	2167.30
583.82	2162.30
584.17	2156.95
584.53	2151.31
584.88	2145.50
585.23	2139.48
585.58	2133.80
585.93	2128.12
586.28	2123.35
586.63	2118.13
586.98	2112.93
587.34	2108.25
587.69	2103.42
588.04	2098.16
588.39	2092.37
588.74	2085.60
589.09	2079.28
589.44	2072.30
589.79	2066.09
590.14	2060.28
590.49	2053.68
590.84	2047.05
591.19	2040.65
591.54	2034.02
591.89	2026.46
592.25	2019.59
592.60	2012.44
592.95	2004.66
593.30	1997.16
593.65	1989.26
594.00	1982.06
594.35	1974.57
594.70	1966.36
595.05	1959.14
595.40	1951.78
595.75	1944.16
596.10	1937.86
596.45	1930.96
596.80	1924.70
597.15	1918.06
597.50	1910.95
597.85	1904.38
598.19	1897.81
598.54	1890.78
598.89	1884.26
599.24	1878.46
599.59	1871.78
599.94	1865.44
600.29	1859.14
600.64	1852.50
600.99	1845.20
601.34	1838.34
601.69	1831.27
602.04	1824.25
602.39	1816.68
602.74	1809.80
603.08	1803.14
603.43	1796.43
603.78	1789.12
604.13	1781.89
604.48	1774.56
604.83	1767.88
605.18	1761.13
605.53	1753.20
605.87	1745.18
606.22	1737.89
606.57	1729.92
606.92	1722.51
607.27	1715.27
607.62	1708.43
607.96	1701.38
608.31	1694.74
608.66	1687.07
609.01	1679.59
609.36	1672.21
609.70	1664.19
610.05	1656.11
610.40	1648.57
610.75	1640.09
611.10	1632.56
611.44	1624.30
611.79	1616.35
612.14	1607.57
612.49	1598.40
612.83	1589.98
613.18	1582.00
613.53	1573.93
613.88	1565.48
614.22	1557.33
614.57	1548.83
614.92	1540.96
615.27	1533.50
615.61	1525.27
615.96	1517.36
616.31	1509.79
616.65	1502.47
617.00	1495.06
617.35	1487.42
617.70	1479.09
618.04	1470.82
618.39	1462.62
618.74	1455.11
619.08	1446.91
619.43	1439.54
619.78	1432.74
620.12	1425.69
620.47	1418.16
620.82	1410.11
621.16	1402.70
621.51	1395.07
621.85	1387.67
622.20	1379.21
622.55	1370.85
622.89	1363.09
623.24	1355.55
623.59	1348.31
623.93	1340.85
624.28	1333.71
624.62	1326.38
624.97	1319.16
625.32	1312.46
625.66	1305.43
626.01	1298.33
626.35	1291.07
626.70	1283.26
627.04	1275.56
627.39	1267.91
627.73	1260.57
628.08	1253.71
628.43	1246.58
628.77	1239.38
629.12	1231.82
629.46	1224.72
629.81	1217.36
630.15	1210.30
630.50	1203.00
630.84	1194.93
631.19	1187.05
631.53	1179.65
631.88	1172.15
632.22	1164.75
632.57	1157.64
632.91	1150.32
633.26	1142.94
633.60	1135.59
633.95	1128.61
634.29	1121.63
634.64	1114.96
634.98	1107.77
635.32	1100.72
635.67	1094.20
636.01	1087.70
636.36	1080.98
636.70	1074.47
637.05	1067.97
637.39	1061.57
637.73	1055.17
638.08	1049.31
638.42	1043.52
638.77	1037.16
639.11	1030.76
639.45	1024.53
639.80	1017.85
640.14	1011.48
640.49	1004.98
640.83	998.80
641.17	992.73
641.52	986.53
641.86	980.18
642.20	974.33
642.55	968.05
642.89	961.62
643.23	955.11
643.58	949.47
643.92	943.42
644.26	937.51
644.61	931.55
644.95	925.55
645.29	919.13
645.64	912.32
645.98	905.97
646.32	900.12
646.66	894.01
647.01	888.32
647.35	882.69
647.69	876.93
648.04	871.41
648.38	865.57
648.72	859.63
649.06	853.73
649.41	847.90
649.75	841.93
650.09	836.02
650.43	830.24
650.78	824.03
651.12	818.00
651.46	812.30
651.80	806.56
652.14	801.24
652.49	795.88
652.83	790.77
653.17	785.15
653.51	779.47
653.85	774.15
654.20	768.58
654.54	762.59
654.88	756.93
655.22	751.10
655.56	745.46
655.90	740.00
656.25	734.75
656.59	729.43
656.93	724.50
657.27	719.41
657.61	714.05
657.95	709.11
658.29	704.13
658.64	698.98
658.98	693.77
659.32	688.32
659.66	683.16
660.00	677.92
660.34	673.10
660.68	668.20
661.02	663.24
661.36	658.58
661.70	654.11
662.05	649.87
662.39	645.58
662.73	641.16
663.07	636.84
663.41	632.39
663.75	627.97
664.09	623.36
664.43	619.06
664.77	615.01
665.11	610.70
665.45	606.60
665.79	602.57
666.13	598.50
666.47	594.44
666.81	590.33
667.15	586.26
667.49	582.33
667.83	578.55
668.17	574.61
668.51	570.60
668.85	566.68
669.19	562.81
669.53	559.02
669.87	555.21
670.21	551.65
670.55	548.13
670.89	544.75
671.23	541.43
671.57	537.91
671.91	534.44
672.25	531.06
672.58	527.61
672.92	524.22
673.26	521.06
673.60	517.97
673.94	514.91
674.28	512.08
674.62	509.25
674.96	506.26
675.30	503.48
675.64	500.55
675.97	497.83
676.31	495.03
676.65	492.12
676.99	489.46
677.33	486.55
677.67	483.71
678.01	480.68
678.34	477.72
678.68	474.96
679.02	472.20
679.36	469.45
679.70	466.79
680.04	464.00
680.37	461.27
680.71	458.55
681.05	455.98
681.39	453.32
681.73	450.71
682.06	448.18
682.40	445.66
682.74	443.19
683.08	440.64
683.42	438.04
683.75	435.59
684.09	433.12
684.43	430.74
684.77	428.33
685.10	425.99
685.44	423.75
685.78	421.42
686.12	419.18
686.45	416.90
686.79	414.65
687.13	412.50
687.46	410.31
687.80	408.17
688.14	405.93
688.48	403.95
688.81	401.72
689.15	399.61
689.49	397.47
689.82	395.39
690.16	393.33
690.50	391.37
690.83	389.46
691.17	387.48
691.51	385.62
691.84	383.82
692.18	381.96
692.52	379.95
692.85	378.07
693.19	376.23
693.52	374.43
693.86	372.62
694.20	370.90
694.53	369.03
694.87	367.21
695.21	365.46
695.54	363.59
695.88	361.87
696.21	360.17
696.55	358.51
696.88	356.88
697.22	355.27
697.56	353.69
697.89	352.00
698.23	350.41
698.56	348.81
698.90	347.21
699.23	345.57
699.57	344.06
699.90	342.53
700.24	340.94
700.58	339.47
700.91	337.98
701.25	336.52
701.58	335.23
701.92	333.86
702.25	332.53
702.59	331.15
702.92	329.84
703.26	328.54
703.59	327.29
703.93	326.10
704.26	324.89
704.60	323.62
704.93	322.38
705.26	321.15
705.60	319.96
705.93	318.82
706.27	317.83
706.60	316.78
706.94	315.72
707.27	314.65
707.61	313.57
707.94	312.59
708.27	311.55
708.61	310.48
708.94	309.50
709.28	308.51
709.61	307.59
709.94	306.64
710.28	305.65
710.61	304.65
710.95	303.55
711.28	302.68
711.61	301.74
711.95	300.84
712.28	299.86
712.61	298.89
712.95	298.02
713.28	297.11
713.61	296.22
713.95	295.36
714.28	294.50
714.61	293.68
714.95	292.83
715.28	292.03
715.61	291.15
715.95	290.31
716.28	289.48
716.61	288.64
716.95	287.86
717.28	287.17
717.61	286.43
717.94	285.72
718.28	284.87
718.61	284.15
718.94	283.47
719.27	282.88
719.61	282.26
719.94	281.57
720.27	280.89
720.60	280.25
720.94	279.60
721.27	279.03
721.60	278.48
721.93	277.88
722.27	277.30
722.60	276.79
722.93	276.21
723.26	275.71
723.59	275.13
723.93	274.60
724.26	274.00
724.59	273.45
724.92	272.97
725.25	272.51
725.59	272.01
725.92	271.50
726.25	271.02
726.58	270.52
726.91	270.04
727.24	269.58
727.57	269.12
727.91	268.61
728.24	268.17
728.57	267.64
728.90	267.20
729.23	266.67
729.56	266.23
729.89	265.78
730.22	265.26
730.55	264.86
730.89	264.40
731.22	263.95
731.55	263.51
731.88	263.06
732.21	262.61
732.54	262.19
732.87	261.78
733.20	261.36
733.53	260.96
733.86	260.58
734.19	260.19
734.52	259.83
734.85	259.55
735.18	259.07
735.51	258.72
735.84	258.36
736.17	258.03
736.50	257.61
736.83	257.35
737.16	257.06
737.49	256.67
737.82	256.33
738.15	256.02
738.48	255.67
738.81	255.31
739.14	255.03
739.47	254.74
739.80	254.42
740.13	254.10
740.46	253.78
740.79	253.42
741.12	253.10
741.45	252.76
741.78	252.44
742.11	252.16
742.44	251.85
742.77	251.56
743.10	251.24
743.43	250.97
743.75	250.57
744.08	250.41
744.41	250.17
744.74	249.91
745.07	249.63
745.40	249.40
745.73	249.22
746.06	248.94
746.39	248.63
746.71	248.39
747.04	248.15
747.37	247.86
747.70	247.65
748.03	247.43
748.36	247.23
748.68	246.97
749.01	246.74
749.34	246.50
749.67	246.31
750.00	246.11
750.33	245.96
750.65	245.79
750.98	245.47
751.31	245.24
751.64	245.06
751.97	244.91
752.29	244.71
752.62	244.44
752.95	244.22
753.28	244.02
753.60	243.79
753.93	243.62
754.26	243.44
754.59	243.22
754.91	242.99
755.24	242.77
755.57	242.59
755.90	242.40
756.22	242.20
756.55	241.95
756.88	241.77
757.20	241.57
757.53	241.39
757.86	241.24
758.19	241.11
758.51	240.93
758.84	240.72
759.17	240.54
759.49	240.41
759.82	240.27
760.15	240.14
760.47	240.00
760.80	239.83
761.13	239.73
761.45	239.57
761.78	239.41
762.11	239.25
762.43	239.10
762.76	238.97
763.08	238.88
763.41	238.75
763.74	238.64
764.06	238.47
764.39	238.32
764.71	238.16
765.04	238.02
765.37	237.88
765.69	237.73
766.02	237.60
766.34	237.46
766.67	237.36
767.00	237.26
767.32	237.18
767.65	237.11
767.97	236.99
768.30	236.91
768.62	236.80
768.95	236.70
769.27	236.60
769.60	236.49
769.92	236.36
770.25	236.24
770.57	236.09
770.90	235.99
771.22	235.88
771.55	235.78
771.87	235.68
772.20	235.57
772.52	235.57
772.85	235.59
773.17	235.48
773.50	235.37
773.82	235.28
774.15	235.14
774.47	234.98
774.80	234.88
775.12	234.81
775.45	234.73
775.77	234.64
776.09	234.57
776.42	234.49
776.74	234.45
777.07	234.39
777.39	234.33
777.72	234.24
778.04	234.18
778.36	234.07
778.69	234.01
779.01	233.93
779.33	233.79
779.66	233.59
779.98	233.55
780.31	233.48
780.63	233.44
780.95	233.43
781.28	233.36
781.60	233.28
781.92	233.22
782.25	233.14
782.57	233.12
782.89	233.06
783.22	233.01
783.54	232.93
783.86	232.85
784.19	232.75
784.51	232.72
784.83	232.62
785.16	232.57
785.48	232.50
785.80	232.48
786.12	232.44
786.45	232.42
786.77	232.34
787.09	232.29
