SpectraSuite Data File
++++++++++++++++++++++++++++++++++++
Date: Fri Feb 01 15:20:08 EST 2013
User: group
Dark Spectrum Present: No
Reference Spectrum Present: No
Number of Sampled Component Spectra: 1
Spectrometers: USB2E7196
Integration Time (usec): 35000 (USB2E7196)
Spectra Averaged: 100 (USB2E7196)
Boxcar Smoothing: 10 (USB2E7196)
Correct for Electrical Dark: No (USB2E7196)
Strobe/Lamp Enabled: No (USB2E7196)
Correct for Detector Non-linearity: No (USB2E7196)
Correct for Stray Light: No (USB2E7196)
Number of Pixels in Processed Spectrum: 2048
>>>>>Begin Processed Spectral Data<<<<<
339.09	0.00
339.48	215.08
339.86	217.18
340.24	217.68
340.63	219.21
341.01	222.48
341.39	222.34
341.78	223.98
342.16	224.27
342.54	225.04
342.93	213.51
343.31	224.30
343.69	224.88
344.07	225.30
344.46	225.74
344.84	226.11
345.22	226.32
345.60	226.56
345.99	226.70
346.37	226.85
346.75	226.92
347.13	226.97
347.52	227.02
347.90	227.09
348.28	227.09
348.66	227.09
349.05	227.12
349.43	227.15
349.81	227.21
350.19	227.23
350.57	227.26
350.96	227.34
351.34	227.43
351.72	227.49
352.10	227.60
352.48	227.67
352.87	227.75
353.25	227.80
353.63	227.86
354.01	227.92
354.39	228.00
354.77	228.08
355.15	228.20
355.54	228.26
355.92	228.31
356.30	228.40
356.68	228.52
357.06	228.58
357.44	228.63
357.82	228.69
358.20	228.77
358.58	228.83
358.97	228.90
359.35	228.95
359.73	229.01
360.11	229.04
360.49	229.11
360.87	229.13
361.25	229.20
361.63	229.32
362.01	229.39
362.39	229.39
362.77	229.46
363.15	229.47
363.53	229.49
363.91	229.50
364.29	229.51
364.67	229.49
365.05	229.51
365.43	229.56
365.81	229.58
366.19	229.63
366.57	229.67
366.95	229.67
367.33	229.62
367.71	229.64
368.09	229.63
368.47	229.59
368.85	229.59
369.23	229.61
369.61	229.52
369.99	229.51
370.37	229.54
370.75	229.55
371.13	229.47
371.51	229.46
371.89	229.40
372.27	229.38
372.65	229.32
373.03	229.26
373.41	229.20
373.78	229.11
374.16	228.99
374.54	228.90
374.92	228.82
375.30	228.77
375.68	228.65
376.06	228.58
376.44	228.52
376.82	228.44
377.19	228.36
377.57	228.29
377.95	228.17
378.33	228.07
378.71	227.94
379.09	227.89
379.47	227.79
379.84	227.74
380.22	227.68
380.60	227.60
380.98	227.54
381.36	227.49
381.73	227.43
382.11	227.40
382.49	227.33
382.87	227.27
383.25	227.20
383.62	227.26
384.00	227.20
384.38	227.14
384.76	227.09
385.13	227.07
385.51	227.04
385.89	226.97
386.27	226.95
386.64	226.93
387.02	226.87
387.40	226.85
387.78	226.82
388.15	226.78
388.53	226.77
388.91	226.71
389.29	226.67
389.66	226.65
390.04	226.63
390.42	226.65
390.79	226.64
391.17	226.64
391.55	226.52
391.92	226.54
392.30	226.56
392.68	226.56
393.05	226.53
393.43	226.52
393.81	226.56
394.18	226.52
394.56	226.50
394.94	226.53
395.31	226.55
395.69	226.57
396.06	226.60
396.44	226.62
396.82	226.65
397.19	226.74
397.57	226.79
397.95	226.82
398.32	226.81
398.70	226.88
399.07	226.97
399.45	227.05
399.82	227.11
400.20	227.17
400.58	227.26
400.95	227.32
401.33	227.42
401.70	227.57
402.08	227.67
402.45	227.79
402.83	227.89
403.20	227.97
403.58	228.09
403.95	228.23
404.33	228.37
404.71	228.51
405.08	228.67
405.46	228.79
405.83	228.96
406.21	229.15
406.58	229.30
406.96	229.44
407.33	229.63
407.70	229.81
408.08	230.07
408.45	230.26
408.83	230.52
409.20	230.72
409.58	230.89
409.95	231.16
410.33	231.42
410.70	231.72
411.08	232.06
411.45	232.37
411.82	232.68
412.20	233.05
412.57	233.44
412.95	233.72
413.32	234.14
413.69	234.54
414.07	234.94
414.44	235.41
414.82	235.87
415.19	236.41
415.56	236.94
415.94	237.49
416.31	238.13
416.68	238.74
417.06	239.45
417.43	240.15
417.81	240.92
418.18	241.70
418.55	242.58
418.93	243.45
419.30	244.35
419.67	245.30
420.04	246.23
420.42	247.22
420.79	248.44
421.16	249.62
421.54	250.81
421.91	252.05
422.28	253.34
422.66	254.70
423.03	256.00
423.40	257.37
423.77	258.78
424.15	260.22
424.52	261.71
424.89	263.34
425.26	264.90
425.64	266.35
426.01	267.94
426.38	269.56
426.75	271.21
427.13	272.93
427.50	274.72
427.87	276.65
428.24	278.51
428.61	280.23
428.99	282.17
429.36	284.31
429.73	286.35
430.10	288.36
430.47	290.43
430.85	292.60
431.22	294.84
431.59	297.23
431.96	299.45
432.33	301.96
432.70	304.33
433.08	307.14
433.45	309.75
433.82	312.41
434.19	315.29
434.56	318.15
434.93	320.80
435.30	323.45
435.68	326.34
436.05	329.21
436.42	332.04
436.79	334.59
437.16	337.28
437.53	340.17
437.90	342.94
438.27	345.73
438.64	348.50
439.01	351.11
439.38	353.34
439.75	355.57
440.13	358.02
440.50	360.37
440.87	362.22
441.24	364.17
441.61	366.34
441.98	367.82
442.35	369.60
442.72	371.51
443.09	373.29
443.46	374.27
443.83	374.82
444.20	375.30
444.57	376.11
444.94	376.40
445.31	376.73
445.68	377.15
446.05	377.20
446.42	376.87
446.79	376.43
447.16	375.99
447.53	375.62
447.90	374.48
448.27	373.30
448.64	371.71
449.01	370.59
449.37	368.57
449.74	366.70
450.11	364.43
450.48	361.92
450.85	359.40
451.22	357.19
451.59	355.22
451.96	353.27
452.33	350.66
452.70	348.25
453.07	345.41
453.43	342.47
453.80	339.70
454.17	337.02
454.54	334.50
454.91	331.78
455.28	329.12
455.65	326.63
456.02	324.17
456.38	322.03
456.75	319.39
457.12	317.16
457.49	314.88
457.86	312.72
458.23	310.83
458.59	308.76
458.96	306.74
459.33	304.84
459.70	303.00
460.07	301.48
460.43	299.77
460.80	298.09
461.17	296.62
461.54	295.11
461.91	293.65
462.27	292.18
462.64	290.91
463.01	289.54
463.38	288.24
463.74	286.86
464.11	285.69
464.48	284.62
464.85	283.47
465.21	282.60
465.58	281.66
465.95	280.60
466.32	279.66
466.68	278.74
467.05	277.83
467.42	276.90
467.78	275.95
468.15	275.09
468.52	274.47
468.88	273.62
469.25	272.86
469.62	272.22
469.98	271.54
470.35	270.90
470.72	270.29
471.08	269.61
471.45	269.10
471.82	268.58
472.18	267.97
472.55	267.54
472.92	267.03
473.28	266.56
473.65	266.12
474.02	265.72
474.38	265.33
474.75	265.00
475.11	264.66
475.48	264.42
475.85	264.19
476.21	263.95
476.58	263.77
476.94	263.64
477.31	263.50
477.67	263.34
478.04	263.22
478.41	263.16
478.77	263.18
479.14	263.14
479.50	263.14
479.87	263.23
480.23	263.31
480.60	263.40
480.96	263.50
481.33	263.71
481.69	263.92
482.06	264.10
482.42	264.32
482.79	264.59
483.15	264.90
483.52	265.29
483.88	265.64
484.25	266.01
484.61	266.42
484.98	266.85
485.34	267.45
485.71	268.04
486.07	268.68
486.44	269.25
486.80	269.92
487.17	270.65
487.53	271.50
487.90	272.35
488.26	273.31
488.62	274.30
488.99	275.26
489.35	276.29
489.72	277.46
490.08	278.66
490.44	279.91
490.81	281.27
491.17	282.58
491.54	284.06
491.90	285.62
492.26	287.26
492.63	289.01
492.99	290.76
493.36	292.68
493.72	294.68
494.08	296.81
494.45	299.09
494.81	301.44
495.17	303.83
495.54	306.41
495.90	309.08
496.26	311.87
496.63	314.83
496.99	317.95
497.35	321.22
497.72	324.59
498.08	328.07
498.44	331.70
498.80	335.61
499.17	339.67
499.53	343.82
499.89	348.18
500.26	352.65
500.62	357.29
500.98	362.21
501.34	367.25
501.71	372.56
502.07	377.96
502.43	383.56
502.79	389.35
503.16	395.38
503.52	401.60
503.88	407.93
504.24	414.53
504.60	421.36
504.97	428.42
505.33	435.78
505.69	443.53
506.05	451.33
506.41	459.20
506.78	467.31
507.14	475.71
507.50	484.39
507.86	493.38
508.22	502.53
508.59	511.73
508.95	521.33
509.31	531.09
509.67	541.18
510.03	551.44
510.39	561.98
510.75	572.82
511.12	583.75
511.48	595.09
511.84	606.56
512.20	618.09
512.56	630.01
512.92	642.18
513.28	654.45
513.64	666.92
514.00	679.62
514.37	692.59
514.73	705.75
515.09	718.81
515.45	732.16
515.81	745.81
516.17	759.86
516.53	773.98
516.89	788.22
517.25	802.50
517.61	816.98
517.97	831.41
518.33	845.88
518.69	860.72
519.05	875.83
519.41	890.99
519.77	906.61
520.13	922.10
520.49	937.54
520.85	953.07
521.21	968.84
521.57	985.13
521.93	1000.97
522.29	1017.38
522.65	1033.60
523.01	1049.90
523.37	1066.00
523.73	1082.16
524.09	1098.30
524.45	1114.62
524.81	1131.23
525.17	1148.14
525.53	1165.15
525.89	1182.04
526.25	1199.02
526.61	1215.34
526.97	1232.21
527.33	1248.74
527.68	1265.44
528.04	1281.99
528.40	1298.58
528.76	1315.65
529.12	1332.32
529.48	1349.28
529.84	1365.39
530.20	1382.19
530.56	1399.39
530.91	1416.95
531.27	1433.80
531.63	1450.51
531.99	1467.32
532.35	1483.44
532.71	1499.42
533.07	1515.72
533.42	1531.72
533.78	1547.68
534.14	1564.15
534.50	1579.49
534.86	1595.52
535.21	1610.70
535.57	1626.78
535.93	1642.47
536.29	1657.41
536.65	1672.57
537.00	1687.41
537.36	1702.87
537.72	1717.49
538.08	1731.86
538.44	1745.68
538.79	1759.62
539.15	1773.18
539.51	1786.89
539.87	1801.27
540.22	1814.98
540.58	1828.94
540.94	1842.41
541.29	1855.48
541.65	1868.24
542.01	1881.50
542.37	1893.80
542.72	1906.38
543.08	1918.19
543.44	1930.55
543.79	1941.81
544.15	1952.83
544.51	1964.44
544.87	1975.36
545.22	1986.08
545.58	1996.25
545.94	2005.99
546.29	2016.01
546.65	2025.84
547.01	2035.08
547.36	2043.80
547.72	2052.28
548.07	2060.14
548.43	2068.23
548.79	2076.28
549.14	2083.79
549.50	2091.32
549.86	2099.05
550.21	2106.28
550.57	2113.45
550.92	2120.05
551.28	2127.16
551.64	2134.31
551.99	2140.92
552.35	2147.12
552.70	2153.31
553.06	2159.31
553.41	2165.60
553.77	2171.59
554.13	2177.71
554.48	2183.87
554.84	2189.31
555.19	2194.77
555.55	2199.86
555.90	2204.42
556.26	2209.17
556.61	2213.81
556.97	2217.89
557.32	2221.98
557.68	2226.16
558.03	2230.45
558.39	2234.20
558.74	2238.85
559.10	2242.67
559.45	2246.30
559.81	2250.50
560.16	2254.35
560.52	2257.65
560.87	2261.12
561.23	2263.56
561.58	2266.60
561.94	2269.15
562.29	2271.54
562.64	2274.13
563.00	2276.76
563.35	2280.15
563.71	2283.43
564.06	2286.64
564.42	2289.57
564.77	2292.09
565.12	2294.22
565.48	2295.98
565.83	2297.80
566.19	2298.96
566.54	2299.97
566.89	2300.96
567.25	2301.47
567.60	2302.82
567.96	2304.30
568.31	2305.28
568.66	2306.52
569.02	2306.95
569.37	2307.21
569.72	2307.96
570.08	2307.86
570.43	2307.79
570.78	2307.09
571.14	2305.49
571.49	2304.24
571.84	2303.87
572.20	2302.46
572.55	2301.48
572.90	2299.98
573.26	2298.47
573.61	2296.79
573.96	2294.80
574.31	2291.69
574.67	2288.75
575.02	2285.02
575.37	2281.65
575.72	2277.66
576.08	2274.23
576.43	2270.96
576.78	2267.19
577.13	2264.14
577.49	2261.13
577.84	2257.63
578.19	2253.92
578.54	2250.05
578.90	2245.55
579.25	2239.95
579.60	2234.95
579.95	2229.82
580.30	2224.58
580.66	2219.40
581.01	2214.24
581.36	2209.23
581.71	2205.08
582.06	2200.49
582.42	2195.77
582.77	2190.46
583.12	2185.61
583.47	2180.68
583.82	2175.44
584.17	2170.15
584.53	2164.45
584.88	2158.54
585.23	2152.66
585.58	2147.19
585.93	2141.69
586.28	2136.92
586.63	2131.75
586.98	2126.73
587.34	2122.05
587.69	2117.32
588.04	2111.99
588.39	2106.20
588.74	2099.71
589.09	2093.40
589.44	2086.46
589.79	2080.49
590.14	2074.81
590.49	2068.28
590.84	2061.79
591.19	2055.75
591.54	2049.24
591.89	2041.59
592.25	2034.87
592.60	2027.49
592.95	2019.64
593.30	2012.19
593.65	2004.47
594.00	1997.36
594.35	1989.97
594.70	1981.85
595.05	1974.32
595.40	1966.88
595.75	1959.42
596.10	1953.03
596.45	1946.28
596.80	1940.08
597.15	1933.26
597.50	1926.07
597.85	1919.71
598.19	1913.12
598.54	1905.92
598.89	1899.26
599.24	1893.43
599.59	1886.62
599.94	1880.49
600.29	1874.20
600.64	1867.55
600.99	1860.11
601.34	1853.15
601.69	1846.10
602.04	1839.06
602.39	1831.71
602.74	1824.93
603.08	1818.25
603.43	1811.51
603.78	1804.12
604.13	1796.94
604.48	1789.77
604.83	1782.94
605.18	1775.68
605.53	1767.60
605.87	1759.55
606.22	1752.13
606.57	1744.22
606.92	1736.93
607.27	1729.60
607.62	1722.65
607.96	1715.32
608.31	1708.67
608.66	1700.98
609.01	1693.59
609.36	1686.00
609.70	1677.93
610.05	1669.87
610.40	1661.97
610.75	1653.58
611.10	1645.95
611.44	1637.52
611.79	1629.49
612.14	1620.79
612.49	1611.91
612.83	1603.66
613.18	1595.67
613.53	1587.57
613.88	1579.02
614.22	1570.72
614.57	1562.16
614.92	1554.01
615.27	1546.50
615.61	1538.28
615.96	1530.48
616.31	1522.77
616.65	1515.45
617.00	1507.85
617.35	1500.12
617.70	1491.82
618.04	1483.40
618.39	1475.07
618.74	1467.43
619.08	1459.11
619.43	1451.40
619.78	1444.38
620.12	1437.13
620.47	1429.59
620.82	1421.42
621.16	1413.99
621.51	1406.44
621.85	1398.81
622.20	1390.43
622.55	1382.12
622.89	1374.11
623.24	1366.37
623.59	1358.98
623.93	1351.45
624.28	1344.32
624.62	1336.81
624.97	1329.72
625.32	1322.96
625.66	1316.04
626.01	1308.82
626.35	1301.38
626.70	1293.74
627.04	1285.95
627.39	1278.14
627.73	1270.68
628.08	1263.74
628.43	1256.47
628.77	1249.03
629.12	1241.42
629.46	1234.22
629.81	1226.73
630.15	1219.54
630.50	1212.15
630.84	1204.01
631.19	1196.07
631.53	1188.61
631.88	1181.02
632.22	1173.37
632.57	1166.03
632.91	1158.46
633.26	1151.13
633.60	1143.83
633.95	1136.78
634.29	1129.82
634.64	1123.14
634.98	1115.76
635.32	1108.71
635.67	1102.11
636.01	1095.52
636.36	1088.74
636.70	1082.19
637.05	1075.70
637.39	1069.31
637.73	1062.81
638.08	1056.96
638.42	1051.03
638.77	1044.49
639.11	1037.82
639.45	1031.55
639.80	1024.96
640.14	1018.53
640.49	1011.91
640.83	1005.60
641.17	999.25
641.52	992.93
641.86	986.53
642.20	980.76
642.55	974.54
642.89	967.97
643.23	961.41
643.58	955.63
643.92	949.41
644.26	943.34
644.61	937.39
644.95	931.26
645.29	924.52
645.64	917.74
645.98	911.47
646.32	905.69
646.66	899.59
647.01	893.74
647.35	888.04
647.69	882.25
648.04	876.80
648.38	871.05
648.72	865.00
649.06	858.94
649.41	853.03
649.75	846.98
650.09	841.07
650.43	835.36
650.78	829.29
651.12	823.36
651.46	817.61
651.80	811.68
652.14	806.42
652.49	801.12
652.83	796.00
653.17	790.32
653.51	784.54
653.85	779.17
654.20	773.52
654.54	767.55
654.88	761.83
655.22	755.82
655.56	750.21
655.90	744.79
656.25	739.49
656.59	734.15
656.93	729.10
657.27	724.01
657.61	718.54
657.95	713.42
658.29	708.42
658.64	703.13
658.98	697.92
659.32	692.43
659.66	687.20
660.00	681.88
660.34	676.87
660.68	672.09
661.02	667.07
661.36	662.44
661.70	657.95
662.05	653.65
662.39	649.39
662.73	644.92
663.07	640.54
663.41	636.10
663.75	631.63
664.09	627.02
664.43	622.60
664.77	618.51
665.11	614.23
665.45	610.11
665.79	606.04
666.13	601.91
666.47	597.81
666.81	593.69
667.15	589.56
667.49	585.66
667.83	581.83
668.17	577.87
668.51	573.76
668.85	569.74
669.19	565.88
669.53	562.04
669.87	558.18
670.21	554.52
670.55	550.91
670.89	547.44
671.23	544.07
671.57	540.61
671.91	537.17
672.25	533.71
672.58	530.18
672.92	526.90
673.26	523.76
673.60	520.65
673.94	517.58
674.28	514.74
674.62	511.86
674.96	508.76
675.30	505.87
675.64	502.92
675.97	500.17
676.31	497.24
676.65	494.28
676.99	491.53
677.33	488.65
677.67	485.84
678.01	482.84
678.34	479.79
678.68	476.94
679.02	474.01
679.36	471.23
679.70	468.55
680.04	465.76
680.37	462.84
680.71	460.10
681.05	457.43
681.39	454.61
681.73	451.94
682.06	449.38
682.40	446.79
682.74	444.29
683.08	441.74
683.42	439.15
683.75	436.66
684.09	434.20
684.43	431.78
684.77	429.31
685.10	426.99
685.44	424.74
685.78	422.46
686.12	420.22
686.45	417.96
686.79	415.61
687.13	413.40
687.46	411.33
687.80	409.11
688.14	406.88
688.48	404.86
688.81	402.62
689.15	400.49
689.49	398.42
689.82	396.31
690.16	394.24
690.50	392.35
690.83	390.43
691.17	388.42
691.51	386.45
691.84	384.60
692.18	382.68
692.52	380.68
692.85	378.74
693.19	376.84
693.52	375.08
693.86	373.29
694.20	371.52
694.53	369.65
694.87	367.89
695.21	366.16
695.54	364.36
695.88	362.66
696.21	360.90
696.55	359.23
696.88	357.60
697.22	355.96
697.56	354.36
697.89	352.68
698.23	351.06
698.56	349.50
698.90	347.90
699.23	346.20
699.57	344.61
699.90	343.07
700.24	341.58
700.58	339.99
700.91	338.50
701.25	337.07
701.58	335.72
701.92	334.35
702.25	333.01
702.59	331.68
702.92	330.34
703.26	329.07
703.59	327.79
703.93	326.59
704.26	325.37
704.60	324.04
704.93	322.80
705.26	321.59
705.60	320.41
705.93	319.31
706.27	318.34
706.60	317.32
706.94	316.26
707.27	315.13
707.61	314.09
707.94	313.07
708.27	311.97
708.61	310.90
708.94	309.88
709.28	308.86
709.61	307.91
709.94	306.98
710.28	305.97
710.61	305.00
710.95	303.92
711.28	302.99
711.61	302.03
711.95	301.12
712.28	300.17
712.61	299.19
712.95	298.24
713.28	297.37
713.61	296.50
713.95	295.61
714.28	294.74
714.61	293.86
714.95	293.03
715.28	292.18
715.61	291.29
715.95	290.39
716.28	289.55
716.61	288.70
716.95	287.86
717.28	287.13
717.61	286.35
717.94	285.62
718.28	284.80
718.61	284.08
718.94	283.38
719.27	282.73
719.61	282.04
719.94	281.41
720.27	280.66
720.60	279.99
720.94	279.35
721.27	278.76
721.60	278.20
721.93	277.54
722.27	277.00
722.60	276.44
722.93	275.90
723.26	275.37
723.59	274.80
723.93	274.27
724.26	273.71
724.59	273.16
724.92	272.65
725.25	272.15
725.59	271.63
725.92	271.12
726.25	270.58
726.58	270.12
726.91	269.59
727.24	269.14
727.57	268.66
727.91	268.13
728.24	267.69
728.57	267.19
728.90	266.76
729.23	266.24
729.56	265.85
729.89	265.43
730.22	264.91
730.55	264.45
730.89	264.03
731.22	263.53
731.55	263.08
731.88	262.63
732.21	262.22
732.54	261.77
732.87	261.35
733.20	260.97
733.53	260.57
733.86	260.23
734.19	259.79
734.52	259.41
734.85	259.13
735.18	258.69
735.51	258.33
735.84	257.99
736.17	257.65
736.50	257.22
736.83	256.92
737.16	256.62
737.49	256.32
737.82	255.97
738.15	255.71
738.48	255.38
738.81	255.07
739.14	254.73
739.47	254.44
739.80	254.13
740.13	253.80
740.46	253.48
740.79	253.13
741.12	252.88
741.45	252.57
741.78	252.22
742.11	251.98
742.44	251.66
742.77	251.38
743.10	251.09
743.43	250.81
743.75	250.46
744.08	250.27
744.41	249.99
744.74	249.73
745.07	249.44
745.40	249.21
745.73	248.98
746.06	248.74
746.39	248.50
746.71	248.23
747.04	247.99
747.37	247.72
747.70	247.48
748.03	247.21
748.36	247.02
748.68	246.80
749.01	246.54
749.34	246.31
749.67	246.06
750.00	245.85
750.33	245.74
750.65	245.54
750.98	245.23
751.31	245.00
751.64	244.78
751.97	244.63
752.29	244.39
752.62	244.10
752.95	243.87
753.28	243.63
753.60	243.40
753.93	243.23
754.26	243.05
754.59	242.85
754.91	242.63
755.24	242.38
755.57	242.17
755.90	241.99
756.22	241.79
756.55	241.58
756.88	241.38
757.20	241.10
757.53	240.90
757.86	240.75
758.19	240.59
758.51	240.43
758.84	240.22
759.17	240.05
759.49	239.93
759.82	239.81
760.15	239.69
760.47	239.60
760.80	239.39
761.13	239.27
761.45	239.10
761.78	238.96
762.11	238.81
762.43	238.65
762.76	238.50
763.08	238.38
763.41	238.26
763.74	238.12
764.06	237.98
764.39	237.85
764.71	237.71
765.04	237.57
765.37	237.40
765.69	237.25
766.02	237.13
766.34	236.98
766.67	236.84
767.00	236.72
767.32	236.61
767.65	236.55
767.97	236.43
768.30	236.31
768.62	236.22
768.95	236.13
769.27	236.02
769.60	235.92
769.92	235.80
770.25	235.69
770.57	235.57
770.90	235.46
771.22	235.32
771.55	235.20
771.87	235.14
772.20	235.04
772.52	235.09
772.85	235.07
773.17	234.99
773.50	234.88
773.82	234.76
774.15	234.64
774.47	234.50
774.80	234.40
775.12	234.33
775.45	234.26
775.77	234.20
776.09	234.14
776.42	234.04
776.74	233.98
777.07	233.90
777.39	233.82
777.72	233.76
778.04	233.71
778.36	233.67
778.69	233.59
779.01	233.55
779.33	233.32
779.66	233.17
779.98	233.11
780.31	233.05
780.63	233.03
780.95	233.00
781.28	232.98
781.60	232.93
781.92	232.87
782.25	232.77
782.57	232.65
782.89	232.59
783.22	232.53
783.54	232.47
783.86	232.42
784.19	232.34
784.51	232.33
784.83	232.28
785.16	232.21
785.48	232.18
785.80	232.13
786.12	232.13
786.45	232.05
786.77	232.03
787.09	231.99
