SpectraSuite Data File
++++++++++++++++++++++++++++++++++++
Date: Fri Feb 01 17:55:51 EST 2013
User: group
Dark Spectrum Present: No
Reference Spectrum Present: No
Number of Sampled Component Spectra: 1
Spectrometers: USB2E7196
Integration Time (usec): 35000 (USB2E7196)
Spectra Averaged: 100 (USB2E7196)
Boxcar Smoothing: 10 (USB2E7196)
Correct for Electrical Dark: No (USB2E7196)
Strobe/Lamp Enabled: No (USB2E7196)
Correct for Detector Non-linearity: No (USB2E7196)
Correct for Stray Light: No (USB2E7196)
Number of Pixels in Processed Spectrum: 2048
>>>>>Begin Processed Spectral Data<<<<<
339.09	0.00
339.48	212.54
339.86	214.31
340.24	215.29
340.63	216.75
341.01	219.19
341.39	219.33
341.78	221.05
342.16	222.33
342.54	222.39
342.93	211.02
343.31	221.68
343.69	222.19
344.07	222.61
344.46	223.04
344.84	223.42
345.22	223.71
345.60	223.97
345.99	224.17
346.37	224.30
346.75	224.43
347.13	224.48
347.52	224.53
347.90	224.59
348.28	224.68
348.66	224.75
349.05	224.75
349.43	224.81
349.81	224.83
350.19	224.93
350.57	225.01
350.96	225.07
351.34	225.18
351.72	225.28
352.10	225.44
352.48	225.54
352.87	225.60
353.25	225.65
353.63	225.74
354.01	225.81
354.39	225.92
354.77	226.00
355.15	226.10
355.54	226.20
355.92	226.25
356.30	226.31
356.68	226.46
357.06	226.56
357.44	226.62
357.82	226.70
358.20	226.74
358.58	226.83
358.97	226.89
359.35	226.99
359.73	227.11
360.11	227.16
360.49	227.20
360.87	227.27
361.25	227.34
361.63	227.42
362.01	227.48
362.39	227.48
362.77	227.49
363.15	227.51
363.53	227.50
363.91	227.57
364.29	227.56
364.67	227.47
365.05	227.50
365.43	227.52
365.81	227.52
366.19	227.57
366.57	227.60
366.95	227.57
367.33	227.53
367.71	227.53
368.09	227.53
368.47	227.53
368.85	227.50
369.23	227.49
369.61	227.41
369.99	227.40
370.37	227.40
370.75	227.44
371.13	227.39
371.51	227.38
371.89	227.34
372.27	227.31
372.65	227.29
373.03	227.25
373.41	227.19
373.78	227.14
374.16	227.01
374.54	226.93
374.92	226.89
375.30	226.81
375.68	226.73
376.06	226.67
376.44	226.59
376.82	226.53
377.19	226.46
377.57	226.40
377.95	226.31
378.33	226.23
378.71	226.09
379.09	226.05
379.47	226.00
379.84	225.91
380.22	225.89
380.60	225.80
380.98	225.71
381.36	225.64
381.73	225.58
382.11	225.55
382.49	225.48
382.87	225.42
383.25	225.37
383.62	225.40
384.00	225.31
384.38	225.27
384.76	225.23
385.13	225.21
385.51	225.15
385.89	225.08
386.27	225.05
386.64	225.05
387.02	224.99
387.40	224.93
387.78	224.89
388.15	224.81
388.53	224.82
388.91	224.78
389.29	224.71
389.66	224.71
390.04	224.70
390.42	224.71
390.79	224.68
391.17	224.66
391.55	224.54
391.92	224.53
392.30	224.53
392.68	224.51
393.05	224.50
393.43	224.52
393.81	224.54
394.18	224.54
394.56	224.54
394.94	224.58
395.31	224.57
395.69	224.64
396.06	224.71
396.44	224.70
396.82	224.73
397.19	224.85
397.57	224.85
397.95	224.87
398.32	224.86
398.70	224.93
399.07	225.01
399.45	225.07
399.82	225.13
400.20	225.21
400.58	225.28
400.95	225.30
401.33	225.38
401.70	225.53
402.08	225.61
402.45	225.71
402.83	225.84
403.20	225.98
403.58	226.06
403.95	226.18
404.33	226.33
404.71	226.49
405.08	226.68
405.46	226.84
405.83	227.05
406.21	227.22
406.58	227.40
406.96	227.60
407.33	227.84
407.70	228.08
408.08	228.37
408.45	228.60
408.83	228.90
409.20	229.16
409.58	229.37
409.95	229.69
410.33	229.99
410.70	230.30
411.08	230.65
411.45	231.04
411.82	231.42
412.20	231.83
412.57	232.32
412.95	232.71
413.32	233.23
413.69	233.72
414.07	234.30
414.44	234.95
414.82	235.56
415.19	236.27
415.56	236.98
415.94	237.68
416.31	238.55
416.68	239.38
417.06	240.31
417.43	241.20
417.81	242.16
418.18	243.17
418.55	244.27
418.93	245.48
419.30	246.63
419.67	247.89
420.04	249.19
420.42	250.51
420.79	252.06
421.16	253.59
421.54	255.18
421.91	256.80
422.28	258.45
422.66	260.21
423.03	261.91
423.40	263.68
423.77	265.59
424.15	267.48
424.52	269.43
424.89	271.59
425.26	273.71
425.64	275.69
426.01	277.88
426.38	280.12
426.75	282.35
427.13	284.73
427.50	287.16
427.87	289.69
428.24	292.20
428.61	294.57
428.99	297.16
429.36	300.00
429.73	302.79
430.10	305.49
430.47	308.20
430.85	311.08
431.22	314.12
431.59	317.29
431.96	320.28
432.33	323.65
432.70	326.83
433.08	330.58
433.45	334.09
433.82	337.53
434.19	341.39
434.56	345.08
434.93	348.61
435.30	352.15
435.68	355.99
436.05	359.75
436.42	363.49
436.79	366.84
437.16	370.40
437.53	374.16
437.90	377.92
438.27	381.62
438.64	385.42
439.01	388.82
439.38	391.86
439.75	394.82
440.13	398.15
440.50	401.31
440.87	403.83
441.24	406.46
441.61	409.42
441.98	411.44
442.35	413.92
442.72	416.42
443.09	418.79
443.46	420.17
443.83	420.98
444.20	421.67
444.57	422.82
444.94	423.23
445.31	423.73
445.68	424.21
446.05	424.38
446.42	423.85
446.79	423.31
447.16	422.70
447.53	422.26
447.90	420.70
448.27	419.15
448.64	417.04
449.01	415.52
449.37	412.87
449.74	410.32
450.11	407.30
450.48	403.99
450.85	400.60
451.22	397.68
451.59	395.00
451.96	392.45
452.33	389.00
452.70	385.86
453.07	382.02
453.43	378.18
453.80	374.47
454.17	370.94
454.54	367.57
454.91	363.94
455.28	360.39
455.65	357.05
456.02	353.69
456.38	350.77
456.75	347.20
457.12	344.20
457.49	341.24
457.86	338.37
458.23	335.86
458.59	333.14
458.96	330.37
459.33	327.84
459.70	325.31
460.07	323.28
460.43	321.00
460.80	318.80
461.17	316.84
461.54	314.78
461.91	312.80
462.27	310.84
462.64	309.12
463.01	307.26
463.38	305.50
463.74	303.71
464.11	302.13
464.48	300.78
464.85	299.24
465.21	298.01
465.58	296.75
465.95	295.27
466.32	294.01
466.68	292.78
467.05	291.55
467.42	290.35
467.78	289.05
468.15	287.86
468.52	287.01
468.88	285.80
469.25	284.78
469.62	283.89
469.98	282.96
470.35	282.10
470.72	281.27
471.08	280.39
471.45	279.65
471.82	278.91
472.18	278.07
472.55	277.51
472.92	276.80
473.28	276.17
473.65	275.56
474.02	274.95
474.38	274.42
474.75	273.97
475.11	273.46
475.48	273.11
475.85	272.77
476.21	272.43
476.58	272.18
476.94	271.92
477.31	271.66
477.67	271.44
478.04	271.25
478.41	271.12
478.77	271.08
479.14	270.94
479.50	270.88
479.87	270.88
480.23	270.85
480.60	270.85
480.96	270.84
481.33	271.02
481.69	271.23
482.06	271.36
482.42	271.51
482.79	271.71
483.15	271.97
483.52	272.31
483.88	272.60
484.25	272.92
484.61	273.35
484.98	273.83
485.34	274.35
485.71	274.92
486.07	275.52
486.44	276.09
486.80	276.83
487.17	277.58
487.53	278.38
487.90	279.29
488.26	280.26
488.62	281.29
488.99	282.29
489.35	283.35
489.72	284.49
490.08	285.78
490.44	287.13
490.81	288.51
491.17	289.91
491.54	291.48
491.90	293.11
492.26	294.80
492.63	296.56
492.99	298.48
493.36	300.45
493.72	302.64
494.08	304.87
494.45	307.24
494.81	309.72
495.17	312.34
495.54	315.04
495.90	317.89
496.26	320.82
496.63	323.94
496.99	327.22
497.35	330.68
497.72	334.25
498.08	337.91
498.44	341.79
498.80	345.92
499.17	350.19
499.53	354.56
499.89	359.18
500.26	363.95
500.62	368.81
500.98	374.07
501.34	379.41
501.71	385.02
502.07	390.72
502.43	396.65
502.79	402.79
503.16	409.17
503.52	415.76
503.88	422.54
504.24	429.57
504.60	436.83
504.97	444.41
505.33	452.20
505.69	460.38
506.05	468.62
506.41	476.97
506.78	485.72
507.14	494.77
507.50	504.09
507.86	513.73
508.22	523.56
508.59	533.37
508.95	543.58
509.31	554.01
509.67	564.83
510.03	575.82
510.39	587.08
510.75	598.59
511.12	610.27
511.48	622.38
511.84	634.63
512.20	646.92
512.56	659.63
512.92	672.62
513.28	685.90
513.64	699.27
514.00	712.84
514.37	726.65
514.73	740.61
515.09	754.54
515.45	768.68
515.81	783.24
516.17	798.25
516.53	813.38
516.89	828.70
517.25	843.97
517.61	859.54
517.97	875.16
518.33	890.69
518.69	906.80
519.05	922.96
519.41	939.40
519.77	956.24
520.13	973.06
520.49	989.75
520.85	1006.44
521.21	1023.52
521.57	1041.26
521.93	1058.43
522.29	1076.27
522.65	1094.04
523.01	1111.91
523.37	1129.39
523.73	1147.13
524.09	1164.79
524.45	1182.65
524.81	1200.84
525.17	1219.13
525.53	1237.66
525.89	1256.28
526.25	1274.69
526.61	1292.80
526.97	1311.29
527.33	1329.50
527.68	1347.78
528.04	1366.01
528.40	1384.30
528.76	1403.07
529.12	1421.36
529.48	1440.10
529.84	1457.89
530.20	1476.41
530.56	1495.18
530.91	1514.60
531.27	1533.27
531.63	1551.66
531.99	1570.09
532.35	1588.00
532.71	1605.94
533.07	1624.12
533.42	1642.04
533.78	1660.08
534.14	1678.43
534.50	1695.70
534.86	1713.67
535.21	1730.92
535.57	1749.01
535.93	1766.58
536.29	1783.49
536.65	1800.60
537.00	1817.29
537.36	1834.81
537.72	1851.34
538.08	1867.88
538.44	1883.67
538.79	1899.72
539.15	1915.40
539.51	1931.20
539.87	1947.66
540.22	1963.52
540.58	1979.42
540.94	1994.78
541.29	2009.73
541.65	2024.42
542.01	2039.68
542.37	2054.07
542.72	2068.53
543.08	2082.39
543.44	2097.14
543.79	2110.63
544.15	2123.73
544.51	2137.62
544.87	2150.77
545.22	2163.83
545.58	2176.20
545.94	2188.07
546.29	2199.95
546.65	2212.02
547.01	2223.50
547.36	2234.37
547.72	2244.94
548.07	2254.82
548.43	2264.95
548.79	2274.83
549.14	2284.31
549.50	2293.60
549.86	2303.13
550.21	2312.48
550.57	2321.61
550.92	2329.85
551.28	2338.74
551.64	2347.82
551.99	2356.23
552.35	2364.12
552.70	2372.16
553.06	2379.94
553.41	2388.17
553.77	2395.97
554.13	2403.74
554.48	2411.73
554.84	2419.14
555.19	2425.90
555.55	2432.83
555.90	2439.11
556.26	2445.99
556.61	2452.39
556.97	2458.39
557.32	2464.23
557.68	2469.88
558.03	2475.77
558.39	2481.10
558.74	2487.32
559.10	2492.78
559.45	2497.91
559.81	2503.58
560.16	2508.87
560.52	2513.63
560.87	2518.40
561.23	2522.52
561.58	2526.89
561.94	2530.71
562.29	2534.10
562.64	2538.31
563.00	2542.11
563.35	2546.93
563.71	2551.19
564.06	2555.76
564.42	2559.99
564.77	2563.84
565.12	2567.62
565.48	2570.81
565.83	2573.95
566.19	2576.57
566.54	2578.32
566.89	2580.61
567.25	2582.40
567.60	2584.63
567.96	2587.33
568.31	2589.17
568.66	2591.25
569.02	2592.70
569.37	2593.75
569.72	2595.67
570.08	2596.63
570.43	2597.52
570.78	2597.77
571.14	2596.84
571.49	2595.96
571.84	2596.19
572.20	2595.74
572.55	2595.24
572.90	2593.88
573.26	2593.00
573.61	2591.34
573.96	2590.31
574.31	2587.62
574.67	2584.86
575.02	2581.37
575.37	2578.15
575.72	2574.59
576.08	2571.13
576.43	2567.92
576.78	2564.44
577.13	2561.30
577.49	2558.12
577.84	2554.77
578.19	2550.77
578.54	2547.30
578.90	2543.25
579.25	2537.49
579.60	2532.19
579.95	2526.78
580.30	2521.65
580.66	2516.01
581.01	2510.89
581.36	2505.57
581.71	2501.23
582.06	2496.50
582.42	2491.86
582.77	2486.32
583.12	2481.38
583.47	2476.68
583.82	2471.35
584.17	2465.88
584.53	2459.86
584.88	2453.97
585.23	2447.68
585.58	2441.78
585.93	2435.78
586.28	2430.37
586.63	2424.78
586.98	2419.15
587.34	2413.87
587.69	2408.48
588.04	2402.90
588.39	2396.71
588.74	2389.44
589.09	2382.68
589.44	2375.24
589.79	2368.43
590.14	2362.02
590.49	2354.58
590.84	2347.35
591.19	2340.68
591.54	2333.33
591.89	2325.21
592.25	2317.57
592.60	2309.38
592.95	2300.98
593.30	2292.56
593.65	2284.04
594.00	2276.24
594.35	2268.17
594.70	2259.09
595.05	2251.16
595.40	2242.79
595.75	2234.39
596.10	2227.52
596.45	2219.72
596.80	2212.73
597.15	2205.22
597.50	2197.43
597.85	2190.05
598.19	2182.37
598.54	2174.20
598.89	2166.63
599.24	2159.79
599.59	2152.29
599.94	2145.06
600.29	2137.91
600.64	2130.42
600.99	2121.95
601.34	2114.00
601.69	2105.95
602.04	2098.25
602.39	2089.60
602.74	2081.71
603.08	2073.82
603.43	2065.82
603.78	2057.33
604.13	2048.89
604.48	2040.65
604.83	2032.55
605.18	2024.64
605.53	2015.60
605.87	2006.31
606.22	1997.84
606.57	1988.54
606.92	1979.88
607.27	1971.81
607.62	1963.64
607.96	1955.29
608.31	1947.66
608.66	1938.79
609.01	1930.02
609.36	1921.08
609.70	1911.80
610.05	1902.50
610.40	1893.53
610.75	1883.90
611.10	1875.05
611.44	1865.09
611.79	1855.61
612.14	1845.57
612.49	1835.00
612.83	1825.07
613.18	1815.68
613.53	1806.19
613.88	1796.27
614.22	1786.54
614.57	1776.23
614.92	1766.80
615.27	1757.99
615.61	1748.22
615.96	1738.91
616.31	1729.98
616.65	1721.31
617.00	1712.48
617.35	1703.52
617.70	1693.91
618.04	1684.09
618.39	1674.26
618.74	1665.59
619.08	1655.80
619.43	1646.80
619.78	1638.54
620.12	1630.11
620.47	1621.23
620.82	1611.62
621.16	1602.93
621.51	1594.01
621.85	1585.11
622.20	1575.12
622.55	1565.31
622.89	1556.15
623.24	1547.14
623.59	1538.37
623.93	1529.52
624.28	1521.03
624.62	1512.16
624.97	1503.59
625.32	1495.63
625.66	1487.45
626.01	1479.03
626.35	1470.45
626.70	1461.36
627.04	1452.36
627.39	1443.24
627.73	1434.65
628.08	1426.52
628.43	1418.09
628.77	1409.57
629.12	1400.80
629.46	1392.47
629.81	1383.60
630.15	1374.96
630.50	1366.33
630.84	1356.84
631.19	1347.61
631.53	1338.82
631.88	1329.90
632.22	1321.09
632.57	1312.52
632.91	1303.74
633.26	1295.08
633.60	1286.38
633.95	1278.01
634.29	1269.76
634.64	1261.97
634.98	1253.33
635.32	1245.06
635.67	1237.24
636.01	1229.43
636.36	1221.51
636.70	1213.88
637.05	1206.24
637.39	1198.79
637.73	1191.25
638.08	1184.33
638.42	1177.29
638.77	1169.71
639.11	1162.13
639.45	1154.60
639.80	1146.81
640.14	1139.40
640.49	1131.71
640.83	1124.38
641.17	1117.17
641.52	1109.82
641.86	1102.27
642.20	1095.44
642.55	1087.98
642.89	1080.43
643.23	1072.70
643.58	1065.99
643.92	1058.82
644.26	1051.86
644.61	1044.77
644.95	1037.75
645.29	1030.20
645.64	1022.40
645.98	1015.03
646.32	1008.16
646.66	1001.21
647.01	994.60
647.35	987.95
647.69	981.20
648.04	974.80
648.38	968.15
648.72	961.27
649.06	954.34
649.41	947.58
649.75	940.79
650.09	933.98
650.43	927.39
650.78	920.33
651.12	913.44
651.46	906.82
651.80	900.32
652.14	894.14
652.49	887.94
652.83	882.03
653.17	875.62
653.51	869.10
653.85	862.89
654.20	856.41
654.54	849.46
654.88	842.84
655.22	836.04
655.56	829.46
655.90	823.16
656.25	817.05
656.59	810.82
656.93	804.97
657.27	799.04
657.61	792.79
657.95	786.85
658.29	781.04
658.64	774.95
658.98	768.78
659.32	762.42
659.66	756.42
660.00	750.35
660.34	744.65
660.68	738.99
661.02	733.23
661.36	727.69
661.70	722.58
662.05	717.62
662.39	712.66
662.73	707.52
663.07	702.46
663.41	697.46
663.75	692.36
664.09	687.08
664.43	681.96
664.77	677.23
665.11	672.41
665.45	667.56
665.79	662.86
666.13	658.13
666.47	653.51
666.81	648.75
667.15	644.03
667.49	639.51
667.83	635.10
668.17	630.59
668.51	625.97
668.85	621.34
669.19	616.91
669.53	612.54
669.87	608.16
670.21	603.85
670.55	599.56
670.89	595.55
671.23	591.67
671.57	587.69
671.91	583.65
672.25	579.62
672.58	575.66
672.92	571.73
673.26	568.06
673.60	564.38
673.94	560.83
674.28	557.44
674.62	554.03
674.96	550.43
675.30	547.05
675.64	543.66
675.97	540.38
676.31	537.08
676.65	533.75
676.99	530.63
677.33	527.32
677.67	524.14
678.01	520.72
678.34	517.28
678.68	513.94
679.02	510.70
679.36	507.51
679.70	504.40
680.04	501.29
680.37	498.12
680.71	494.87
681.05	491.83
681.39	488.73
681.73	485.69
682.06	482.84
682.40	479.96
682.74	477.10
683.08	474.21
683.42	471.22
683.75	468.33
684.09	465.34
684.43	462.55
684.77	459.73
685.10	456.98
685.44	454.27
685.78	451.62
686.12	449.02
686.45	446.32
686.79	443.59
687.13	441.10
687.46	438.55
687.80	436.08
688.14	433.52
688.48	431.14
688.81	428.56
689.15	426.10
689.49	423.56
689.82	421.12
690.16	418.73
690.50	416.43
690.83	414.20
691.17	411.94
691.51	409.78
691.84	407.62
692.18	405.47
692.52	403.25
692.85	401.03
693.19	398.89
693.52	396.80
693.86	394.67
694.20	392.62
694.53	390.51
694.87	388.35
695.21	386.22
695.54	384.05
695.88	382.06
696.21	380.02
696.55	378.10
696.88	376.16
697.22	374.24
697.56	372.38
697.89	370.45
698.23	368.57
698.56	366.69
698.90	364.88
699.23	362.94
699.57	361.13
699.90	359.35
700.24	357.55
700.58	355.85
700.91	354.20
701.25	352.45
701.58	350.91
701.92	349.39
702.25	347.87
702.59	346.39
702.92	344.91
703.26	343.41
703.59	341.93
703.93	340.55
704.26	339.09
704.60	337.60
704.93	336.14
705.26	334.71
705.60	333.35
705.93	331.99
706.27	330.81
706.60	329.57
706.94	328.31
707.27	327.02
707.61	325.72
707.94	324.52
708.27	323.29
708.61	321.98
708.94	320.80
709.28	319.61
709.61	318.45
709.94	317.32
710.28	316.16
710.61	314.99
710.95	313.75
711.28	312.67
711.61	311.56
711.95	310.49
712.28	309.40
712.61	308.23
712.95	307.16
713.28	306.15
713.61	305.15
713.95	304.12
714.28	303.13
714.61	302.14
714.95	301.14
715.28	300.16
715.61	299.17
715.95	298.14
716.28	297.18
716.61	296.18
716.95	295.19
717.28	294.30
717.61	293.43
717.94	292.60
718.28	291.70
718.61	290.89
718.94	290.09
719.27	289.29
719.61	288.52
719.94	287.79
720.27	286.96
720.60	286.17
720.94	285.44
721.27	284.70
721.60	284.07
721.93	283.36
722.27	282.70
722.60	282.10
722.93	281.46
723.26	280.81
723.59	280.18
723.93	279.53
724.26	278.86
724.59	278.19
724.92	277.52
725.25	276.95
725.59	276.31
725.92	275.72
726.25	275.14
726.58	274.59
726.91	273.96
727.24	273.40
727.57	272.86
727.91	272.26
728.24	271.75
728.57	271.14
728.90	270.62
729.23	270.05
729.56	269.48
729.89	268.93
730.22	268.36
730.55	267.84
730.89	267.33
731.22	266.84
731.55	266.35
731.88	265.86
732.21	265.33
732.54	264.84
732.87	264.35
733.20	263.87
733.53	263.39
733.86	262.98
734.19	262.50
734.52	262.07
734.85	261.74
735.18	261.25
735.51	260.83
735.84	260.35
736.17	259.90
736.50	259.48
736.83	259.18
737.16	258.81
737.49	258.40
737.82	257.99
738.15	257.61
738.48	257.21
738.81	256.86
739.14	256.47
739.47	256.13
739.80	255.75
740.13	255.39
740.46	255.04
740.79	254.67
741.12	254.32
741.45	253.96
741.78	253.54
742.11	253.24
742.44	252.89
742.77	252.59
743.10	252.29
743.43	251.93
743.75	251.50
744.08	251.34
744.41	251.03
744.74	250.76
745.07	250.43
745.40	250.16
745.73	249.86
746.06	249.54
746.39	249.24
746.71	248.94
747.04	248.64
747.37	248.34
747.70	248.04
748.03	247.73
748.36	247.44
748.68	247.15
749.01	246.83
749.34	246.57
749.67	246.30
750.00	246.05
750.33	245.87
750.65	245.66
750.98	245.24
751.31	244.98
751.64	244.73
751.97	244.57
752.29	244.32
752.62	244.03
752.95	243.80
753.28	243.54
753.60	243.29
753.93	243.12
754.26	242.92
754.59	242.70
754.91	242.45
755.24	242.24
755.57	242.01
755.90	241.86
756.22	241.62
756.55	241.40
756.88	241.20
757.20	240.94
757.53	240.70
757.86	240.54
758.19	240.37
758.51	240.17
758.84	239.90
759.17	239.70
759.49	239.54
759.82	239.41
760.15	239.22
760.47	239.05
760.80	238.82
761.13	238.64
761.45	238.44
761.78	238.29
762.11	238.10
762.43	237.96
762.76	237.79
763.08	237.64
763.41	237.48
763.74	237.28
764.06	237.13
764.39	236.95
764.71	236.75
765.04	236.59
765.37	236.44
765.69	236.31
766.02	236.14
766.34	236.02
766.67	235.85
767.00	235.76
767.32	235.68
767.65	235.60
767.97	235.49
768.30	235.37
768.62	235.22
768.95	235.11
769.27	234.99
769.60	234.85
769.92	234.71
770.25	234.60
770.57	234.50
770.90	234.37
771.22	234.26
771.55	234.20
771.87	234.05
772.20	233.93
772.52	233.89
772.85	233.90
773.17	233.80
773.50	233.67
773.82	233.53
774.15	233.39
774.47	233.24
774.80	233.11
775.12	233.00
775.45	232.91
775.77	232.79
776.09	232.70
776.42	232.61
776.74	232.57
777.07	232.46
777.39	232.41
777.72	232.29
778.04	232.23
778.36	232.10
778.69	232.02
779.01	231.95
779.33	231.81
779.66	231.63
779.98	231.53
780.31	231.47
780.63	231.45
780.95	231.35
781.28	231.27
781.60	231.19
781.92	231.15
782.25	231.08
782.57	231.02
782.89	230.94
783.22	230.84
783.54	230.76
783.86	230.70
784.19	230.61
784.51	230.61
784.83	230.49
785.16	230.43
785.48	230.40
785.80	230.35
786.12	230.31
786.45	230.28
