SpectraSuite Data File
++++++++++++++++++++++++++++++++++++
Date: Fri Feb 01 17:30:26 EST 2013
User: group
Dark Spectrum Present: No
Reference Spectrum Present: No
Number of Sampled Component Spectra: 1
Spectrometers: USB2E7196
Integration Time (usec): 35000 (USB2E7196)
Spectra Averaged: 100 (USB2E7196)
Boxcar Smoothing: 10 (USB2E7196)
Correct for Electrical Dark: No (USB2E7196)
Strobe/Lamp Enabled: No (USB2E7196)
Correct for Detector Non-linearity: No (USB2E7196)
Correct for Stray Light: No (USB2E7196)
Number of Pixels in Processed Spectrum: 2048
>>>>>Begin Processed Spectral Data<<<<<
339.09	0.00
339.48	212.82
339.86	214.16
340.24	216.29
340.63	217.76
341.01	220.24
341.39	219.94
341.78	221.66
342.16	222.06
342.54	223.00
342.93	211.52
343.31	222.22
343.69	222.77
344.07	223.26
344.46	223.66
344.84	224.00
345.22	224.25
345.60	224.48
345.99	224.64
346.37	224.76
346.75	224.86
347.13	224.90
347.52	224.96
347.90	225.03
348.28	225.04
348.66	225.07
349.05	225.04
349.43	225.08
349.81	225.14
350.19	225.18
350.57	225.23
350.96	225.30
351.34	225.37
351.72	225.45
352.10	225.49
352.48	225.56
352.87	225.61
353.25	225.65
353.63	225.68
354.01	225.75
354.39	225.83
354.77	225.87
355.15	226.00
355.54	226.06
355.92	226.08
356.30	226.14
356.68	226.27
357.06	226.37
357.44	226.39
357.82	226.43
358.20	226.50
358.58	226.55
358.97	226.64
359.35	226.70
359.73	226.78
360.11	226.84
360.49	226.89
360.87	226.96
361.25	227.01
361.63	227.13
362.01	227.17
362.39	227.23
362.77	227.29
363.15	227.28
363.53	227.28
363.91	227.32
364.29	227.36
364.67	227.27
365.05	227.29
365.43	227.32
365.81	227.35
366.19	227.39
366.57	227.41
366.95	227.39
367.33	227.36
367.71	227.32
368.09	227.36
368.47	227.36
368.85	227.34
369.23	227.35
369.61	227.30
369.99	227.34
370.37	227.27
370.75	227.26
371.13	227.24
371.51	227.23
371.89	227.19
372.27	227.13
372.65	227.10
373.03	227.08
373.41	227.03
373.78	226.97
374.16	226.86
374.54	226.79
374.92	226.69
375.30	226.67
375.68	226.61
376.06	226.53
376.44	226.43
376.82	226.37
377.19	226.27
377.57	226.19
377.95	226.11
378.33	226.08
378.71	225.99
379.09	225.94
379.47	225.86
379.84	225.80
380.22	225.75
380.60	225.67
380.98	225.60
381.36	225.54
381.73	225.49
382.11	225.47
382.49	225.41
382.87	225.39
383.25	225.29
383.62	225.34
384.00	225.30
384.38	225.25
384.76	225.23
385.13	225.22
385.51	225.18
385.89	225.09
386.27	225.04
386.64	224.97
387.02	224.92
387.40	224.88
387.78	224.87
388.15	224.83
388.53	224.79
388.91	224.75
389.29	224.69
389.66	224.70
390.04	224.65
390.42	224.64
390.79	224.61
391.17	224.63
391.55	224.49
391.92	224.47
392.30	224.48
392.68	224.42
393.05	224.43
393.43	224.42
393.81	224.43
394.18	224.43
394.56	224.48
394.94	224.49
395.31	224.49
395.69	224.51
396.06	224.53
396.44	224.56
396.82	224.58
397.19	224.68
397.57	224.66
397.95	224.70
398.32	224.72
398.70	224.76
399.07	224.82
399.45	224.88
399.82	224.96
400.20	224.98
400.58	225.08
400.95	225.11
401.33	225.19
401.70	225.34
402.08	225.42
402.45	225.50
402.83	225.63
403.20	225.74
403.58	225.82
403.95	225.94
404.33	226.07
404.71	226.20
405.08	226.36
405.46	226.51
405.83	226.66
406.21	226.84
406.58	226.99
406.96	227.15
407.33	227.36
407.70	227.53
408.08	227.87
408.45	228.11
408.83	228.35
409.20	228.60
409.58	228.77
409.95	229.04
410.33	229.32
410.70	229.54
411.08	229.88
411.45	230.22
411.82	230.53
412.20	230.91
412.57	231.34
412.95	231.66
413.32	232.11
413.69	232.58
414.07	233.02
414.44	233.53
414.82	234.05
415.19	234.56
415.56	235.15
415.94	235.68
416.31	236.35
416.68	236.97
417.06	237.69
417.43	238.43
417.81	239.21
418.18	240.00
418.55	240.91
418.93	241.81
419.30	242.74
419.67	243.70
420.04	244.67
420.42	245.66
420.79	246.87
421.16	248.02
421.54	249.20
421.91	250.42
422.28	251.73
422.66	253.09
423.03	254.44
423.40	255.83
423.77	257.28
424.15	258.72
424.52	260.27
424.89	261.94
425.26	263.52
425.64	265.03
426.01	266.68
426.38	268.37
426.75	270.08
427.13	271.86
427.50	273.75
427.87	275.70
428.24	277.63
428.61	279.43
428.99	281.48
429.36	283.66
429.73	285.81
430.10	287.91
430.47	290.05
430.85	292.27
431.22	294.54
431.59	297.00
431.96	299.32
432.33	301.88
432.70	304.37
433.08	307.31
433.45	310.09
433.82	312.78
434.19	315.81
434.56	318.72
434.93	321.48
435.30	324.19
435.68	327.21
436.05	330.16
436.42	333.11
436.79	335.70
437.16	338.57
437.53	341.50
437.90	344.40
438.27	347.24
438.64	350.19
439.01	352.94
439.38	355.29
439.75	357.55
440.13	360.21
440.50	362.63
440.87	364.55
441.24	366.57
441.61	368.85
441.98	370.39
442.35	372.32
442.72	374.30
443.09	376.23
443.46	377.29
443.83	377.97
444.20	378.51
444.57	379.44
444.94	379.72
445.31	380.10
445.68	380.54
446.05	380.65
446.42	380.31
446.79	379.90
447.16	379.44
447.53	379.17
447.90	377.98
448.27	376.80
448.64	375.21
449.01	374.11
449.37	372.09
449.74	370.17
450.11	367.82
450.48	365.25
450.85	362.64
451.22	360.39
451.59	358.26
451.96	356.24
452.33	353.55
452.70	351.16
453.07	348.23
453.43	345.23
453.80	342.38
454.17	339.61
454.54	336.97
454.91	334.19
455.28	331.39
455.65	328.83
456.02	326.30
456.38	324.07
456.75	321.27
457.12	318.96
457.49	316.60
457.86	314.35
458.23	312.43
458.59	310.28
458.96	308.12
459.33	306.21
459.70	304.26
460.07	302.67
460.43	300.85
460.80	299.18
461.17	297.66
461.54	296.11
461.91	294.63
462.27	293.10
462.64	291.81
463.01	290.41
463.38	289.02
463.74	287.62
464.11	286.39
464.48	285.31
464.85	284.14
465.21	283.27
465.58	282.31
465.95	281.13
466.32	280.21
466.68	279.24
467.05	278.31
467.42	277.37
467.78	276.41
468.15	275.46
468.52	274.74
468.88	273.82
469.25	273.02
469.62	272.34
469.98	271.69
470.35	271.02
470.72	270.40
471.08	269.71
471.45	269.08
471.82	268.51
472.18	267.89
472.55	267.40
472.92	266.86
473.28	266.39
473.65	265.96
474.02	265.49
474.38	265.13
474.75	264.77
475.11	264.41
475.48	264.10
475.85	263.87
476.21	263.64
476.58	263.47
476.94	263.26
477.31	263.04
477.67	262.82
478.04	262.65
478.41	262.58
478.77	262.66
479.14	262.62
479.50	262.62
479.87	262.68
480.23	262.75
480.60	262.82
480.96	262.89
481.33	263.05
481.69	263.25
482.06	263.47
482.42	263.70
482.79	263.99
483.15	264.34
483.52	264.72
483.88	265.08
484.25	265.44
484.61	265.91
484.98	266.40
485.34	266.97
485.71	267.56
486.07	268.13
486.44	268.65
486.80	269.33
487.17	270.05
487.53	270.84
487.90	271.72
488.26	272.64
488.62	273.62
488.99	274.61
489.35	275.65
489.72	276.73
490.08	277.89
490.44	279.12
490.81	280.49
491.17	281.86
491.54	283.36
491.90	284.88
492.26	286.54
492.63	288.24
492.99	290.04
493.36	291.97
493.72	294.03
494.08	296.12
494.45	298.37
494.81	300.77
495.17	303.23
495.54	305.75
495.90	308.44
496.26	311.20
496.63	314.17
496.99	317.24
497.35	320.51
497.72	323.91
498.08	327.41
498.44	331.00
498.80	334.88
499.17	338.92
499.53	343.05
499.89	347.38
500.26	351.89
500.62	356.50
500.98	361.45
501.34	366.42
501.71	371.71
502.07	377.04
502.43	382.51
502.79	388.19
503.16	394.20
503.52	400.41
503.88	406.75
504.24	413.27
504.60	420.07
504.97	427.09
505.33	434.29
505.69	441.91
506.05	449.55
506.41	457.31
506.78	465.28
507.14	473.65
507.50	482.18
507.86	491.00
508.22	499.98
508.59	509.03
508.95	518.44
509.31	528.05
509.67	537.97
510.03	548.08
510.39	558.43
510.75	568.95
511.12	579.57
511.48	590.57
511.84	601.70
512.20	612.90
512.56	624.45
512.92	636.33
513.28	648.35
513.64	660.51
514.00	672.84
514.37	685.44
514.73	698.09
515.09	710.75
515.45	723.70
515.81	736.95
516.17	750.43
516.53	764.19
516.89	777.99
517.25	791.80
517.61	805.83
517.97	819.80
518.33	833.77
518.69	848.15
519.05	862.72
519.41	877.46
519.77	892.53
520.13	907.56
520.49	922.57
520.85	937.51
521.21	952.62
521.57	968.41
521.93	983.57
522.29	999.32
522.65	1015.17
523.01	1030.77
523.37	1046.26
523.73	1061.94
524.09	1077.58
524.45	1093.37
524.81	1109.45
525.17	1125.63
525.53	1142.03
525.89	1158.45
526.25	1174.80
526.61	1190.73
526.97	1207.00
527.33	1223.00
527.68	1239.22
528.04	1255.08
528.40	1271.17
528.76	1287.87
529.12	1303.87
529.48	1320.38
529.84	1336.06
530.20	1352.20
530.56	1368.70
530.91	1385.74
531.27	1402.06
531.63	1418.01
531.99	1434.11
532.35	1449.75
532.71	1465.39
533.07	1481.29
533.42	1496.79
533.78	1512.45
534.14	1528.24
534.50	1543.34
534.86	1558.88
535.21	1573.57
535.57	1589.19
535.93	1604.28
536.29	1618.68
536.65	1633.49
537.00	1647.89
537.36	1662.94
537.72	1677.23
538.08	1691.34
538.44	1704.93
538.79	1718.57
539.15	1732.02
539.51	1745.54
539.87	1759.59
540.22	1773.11
540.58	1786.65
540.94	1799.70
541.29	1812.30
541.65	1824.87
542.01	1837.72
542.37	1849.97
542.72	1862.38
543.08	1874.10
543.44	1886.36
543.79	1897.75
544.15	1908.67
544.51	1920.27
544.87	1931.20
545.22	1941.92
545.58	1952.36
545.94	1962.16
546.29	1972.23
546.65	1982.20
547.01	1991.59
547.36	2000.50
547.72	2008.94
548.07	2017.08
548.43	2025.39
548.79	2033.26
549.14	2041.16
549.50	2048.73
549.86	2056.48
550.21	2063.93
550.57	2071.29
550.92	2078.21
551.28	2085.42
551.64	2092.72
551.99	2099.45
552.35	2105.91
552.70	2112.24
553.06	2118.42
553.41	2124.90
553.77	2131.01
554.13	2137.15
554.48	2143.43
554.84	2149.19
555.19	2154.61
555.55	2160.10
555.90	2164.95
556.26	2170.59
556.61	2175.30
556.97	2180.15
557.32	2184.67
557.68	2189.14
558.03	2193.67
558.39	2197.62
558.74	2202.48
559.10	2206.69
559.45	2210.67
559.81	2215.17
560.16	2219.44
560.52	2223.05
560.87	2226.85
561.23	2229.75
561.58	2233.04
561.94	2236.07
562.29	2238.64
562.64	2242.04
563.00	2244.73
563.35	2248.52
563.71	2251.89
564.06	2255.44
564.42	2258.61
564.77	2261.57
565.12	2264.24
565.48	2266.76
565.83	2269.06
566.19	2270.88
566.54	2272.17
566.89	2273.96
567.25	2275.05
567.60	2276.72
567.96	2278.91
568.31	2280.09
568.66	2281.81
569.02	2282.84
569.37	2283.54
569.72	2284.88
570.08	2285.42
570.43	2285.95
570.78	2285.95
571.14	2284.87
571.49	2283.95
571.84	2283.84
572.20	2283.15
572.55	2282.53
572.90	2281.12
573.26	2280.25
573.61	2278.85
573.96	2277.49
574.31	2274.82
574.67	2272.36
575.02	2269.19
575.37	2266.10
575.72	2262.88
576.08	2259.82
576.43	2256.86
576.78	2253.66
577.13	2250.83
577.49	2247.91
577.84	2244.88
578.19	2241.35
578.54	2238.17
578.90	2234.65
579.25	2229.62
579.60	2225.06
579.95	2220.48
580.30	2215.80
580.66	2210.82
581.01	2206.13
581.36	2201.57
581.71	2197.83
582.06	2193.79
582.42	2189.70
582.77	2184.87
583.12	2180.59
583.47	2176.42
583.82	2171.96
584.17	2167.06
584.53	2161.88
584.88	2156.60
585.23	2151.11
585.58	2146.07
585.93	2140.80
586.28	2136.18
586.63	2131.42
586.98	2126.36
587.34	2121.91
587.69	2117.40
588.04	2112.61
588.39	2107.32
588.74	2101.17
589.09	2095.10
589.44	2088.49
589.79	2082.41
590.14	2076.87
590.49	2070.38
590.84	2064.02
591.19	2058.08
591.54	2051.75
591.89	2044.73
592.25	2038.45
592.60	2031.53
592.95	2024.19
593.30	2017.09
593.65	2009.52
594.00	2002.55
594.35	1995.62
594.70	1987.73
595.05	1980.81
595.40	1973.62
595.75	1966.32
596.10	1960.32
596.45	1953.93
596.80	1947.96
597.15	1941.70
597.50	1935.10
597.85	1928.90
598.19	1922.44
598.54	1915.67
598.89	1909.24
599.24	1903.31
599.59	1896.79
599.94	1890.56
600.29	1884.29
600.64	1877.78
600.99	1870.68
601.34	1864.16
601.69	1857.28
602.04	1850.59
602.39	1843.22
602.74	1836.58
603.08	1830.02
603.43	1823.31
603.78	1815.96
604.13	1808.83
604.48	1801.71
604.83	1794.86
605.18	1788.07
605.53	1780.21
605.87	1772.16
606.22	1764.85
606.57	1756.93
606.92	1749.41
607.27	1742.27
607.62	1735.45
607.96	1728.33
608.31	1721.80
608.66	1714.10
609.01	1706.62
609.36	1699.06
609.70	1691.02
610.05	1683.08
610.40	1675.29
610.75	1666.96
611.10	1659.28
611.44	1650.68
611.79	1642.49
612.14	1633.70
612.49	1624.41
612.83	1615.84
613.18	1607.67
613.53	1599.53
613.88	1591.03
614.22	1582.72
614.57	1573.98
614.92	1565.86
615.27	1558.30
615.61	1549.90
615.96	1541.74
616.31	1533.99
616.65	1526.47
617.00	1518.88
617.35	1510.90
617.70	1502.52
618.04	1494.02
618.39	1485.67
618.74	1478.07
619.08	1469.73
619.43	1462.01
619.78	1454.97
620.12	1447.92
620.47	1440.36
620.82	1432.14
621.16	1424.57
621.51	1416.81
621.85	1409.18
622.20	1400.61
622.55	1392.04
622.89	1384.04
623.24	1376.22
623.59	1368.77
623.93	1361.26
624.28	1354.01
624.62	1346.48
624.97	1339.17
625.32	1332.10
625.66	1324.98
626.01	1317.75
626.35	1310.41
626.70	1302.62
627.04	1294.87
627.39	1286.86
627.73	1279.29
628.08	1272.26
628.43	1265.06
628.77	1257.79
629.12	1250.22
629.46	1242.99
629.81	1235.39
630.15	1228.02
630.50	1220.71
630.84	1212.57
631.19	1204.44
631.53	1196.70
631.88	1189.08
632.22	1181.43
632.57	1174.13
632.91	1166.54
633.26	1159.10
633.60	1151.48
633.95	1144.15
634.29	1137.01
634.64	1130.35
634.98	1122.97
635.32	1115.80
635.67	1108.99
636.01	1102.27
636.36	1095.54
636.70	1088.99
637.05	1082.41
637.39	1075.99
637.73	1069.42
638.08	1063.32
638.42	1057.35
638.77	1051.01
639.11	1044.46
639.45	1037.98
639.80	1031.36
640.14	1024.91
640.49	1018.38
640.83	1012.08
641.17	1005.94
641.52	999.57
641.86	992.96
642.20	987.00
642.55	980.57
642.89	974.07
643.23	967.32
643.58	961.49
643.92	955.23
644.26	949.19
644.61	943.00
644.95	937.00
645.29	930.49
645.64	923.62
645.98	917.21
646.32	911.13
646.66	905.15
647.01	899.26
647.35	893.56
647.69	887.51
648.04	881.83
648.38	875.96
648.72	869.93
649.06	863.88
649.41	857.98
649.75	852.03
650.09	846.07
650.43	840.27
650.78	834.00
651.12	827.98
651.46	822.24
651.80	816.60
652.14	811.12
652.49	805.60
652.83	800.43
653.17	794.76
653.51	789.07
653.85	783.50
654.20	777.91
654.54	771.86
654.88	766.15
655.22	760.27
655.56	754.56
655.90	749.02
656.25	743.78
656.59	738.48
656.93	733.41
657.27	728.26
657.61	722.83
657.95	717.68
658.29	712.53
658.64	707.19
658.98	701.70
659.32	696.15
659.66	691.00
660.00	685.73
660.34	680.70
660.68	675.79
661.02	670.82
661.36	666.02
661.70	661.48
662.05	657.13
662.39	652.84
662.73	648.38
663.07	644.03
663.41	639.61
663.75	635.11
664.09	630.49
664.43	626.09
664.77	621.93
665.11	617.73
665.45	613.62
665.79	609.55
666.13	605.48
666.47	601.39
666.81	597.28
667.15	593.10
667.49	589.17
667.83	585.25
668.17	581.23
668.51	577.25
668.85	573.19
669.19	569.25
669.53	565.39
669.87	561.48
670.21	557.78
670.55	554.09
670.89	550.64
671.23	547.25
671.57	543.70
671.91	540.17
672.25	536.64
672.58	533.07
672.92	529.54
673.26	526.35
673.60	523.13
673.94	519.97
674.28	517.06
674.62	514.13
674.96	511.07
675.30	508.17
675.64	505.21
675.97	502.39
676.31	499.59
676.65	496.63
676.99	493.89
677.33	490.98
677.67	488.15
678.01	485.13
678.34	482.07
678.68	479.14
679.02	476.36
679.36	473.57
679.70	470.82
680.04	468.14
680.37	465.28
680.71	462.52
681.05	459.84
681.39	457.10
681.73	454.43
682.06	451.90
682.40	449.38
682.74	446.78
683.08	444.22
683.42	441.57
683.75	439.10
684.09	436.50
684.43	434.04
684.77	431.56
685.10	429.11
685.44	426.81
685.78	424.50
686.12	422.19
686.45	419.88
686.79	417.64
687.13	415.37
687.46	413.18
687.80	410.95
688.14	408.70
688.48	406.62
688.81	404.36
689.15	402.18
689.49	399.93
689.82	397.82
690.16	395.71
690.50	393.67
690.83	391.64
691.17	389.61
691.51	387.70
691.84	385.82
692.18	383.94
692.52	381.98
692.85	380.00
693.19	378.07
693.52	376.17
693.86	374.29
694.20	372.50
694.53	370.70
694.87	368.82
695.21	366.99
695.54	365.17
695.88	363.38
696.21	361.62
696.55	359.96
696.88	358.26
697.22	356.55
697.56	354.92
697.89	353.27
698.23	351.68
698.56	350.02
698.90	348.39
699.23	346.74
699.57	345.14
699.90	343.58
700.24	342.02
700.58	340.50
700.91	338.95
701.25	337.53
701.58	336.16
701.92	334.83
702.25	333.47
702.59	332.06
702.92	330.74
703.26	329.36
703.59	328.02
703.93	326.84
704.26	325.63
704.60	324.31
704.93	323.03
705.26	321.75
705.60	320.55
705.93	319.40
706.27	318.27
706.60	317.20
706.94	316.12
707.27	314.95
707.61	313.86
707.94	312.86
708.27	311.70
708.61	310.56
708.94	309.48
709.28	308.49
709.61	307.50
709.94	306.54
710.28	305.55
710.61	304.61
710.95	303.48
711.28	302.55
711.61	301.59
711.95	300.69
712.28	299.74
712.61	298.72
712.95	297.75
713.28	296.86
713.61	295.92
713.95	295.01
714.28	294.20
714.61	293.33
714.95	292.43
715.28	291.58
715.61	290.72
715.95	289.89
716.28	288.99
716.61	288.13
716.95	287.26
717.28	286.45
717.61	285.66
717.94	284.96
718.28	284.09
718.61	283.36
718.94	282.65
719.27	281.98
719.61	281.36
719.94	280.67
720.27	279.94
720.60	279.29
720.94	278.66
721.27	278.04
721.60	277.45
721.93	276.84
722.27	276.33
722.60	275.75
722.93	275.16
723.26	274.63
723.59	274.07
723.93	273.50
724.26	272.99
724.59	272.43
724.92	271.90
725.25	271.42
725.59	270.87
725.92	270.35
726.25	269.81
726.58	269.28
726.91	268.79
727.24	268.33
727.57	267.84
727.91	267.31
728.24	266.84
728.57	266.33
728.90	265.89
729.23	265.36
729.56	264.91
729.89	264.44
730.22	263.94
730.55	263.45
730.89	263.03
731.22	262.56
731.55	262.11
731.88	261.65
732.21	261.21
732.54	260.79
732.87	260.39
733.20	260.00
733.53	259.61
733.86	259.24
734.19	258.82
734.52	258.42
734.85	258.15
735.18	257.72
735.51	257.38
735.84	256.98
736.17	256.60
736.50	256.19
736.83	255.93
737.16	255.61
737.49	255.27
737.82	254.91
738.15	254.58
738.48	254.22
738.81	253.86
739.14	253.51
739.47	253.16
739.80	252.82
740.13	252.50
740.46	252.15
740.79	251.80
741.12	251.48
741.45	251.15
741.78	250.75
742.11	250.43
742.44	250.09
742.77	249.77
743.10	249.47
743.43	249.16
743.75	248.75
744.08	248.58
744.41	248.29
744.74	248.05
745.07	247.74
745.40	247.48
745.73	247.26
746.06	246.96
746.39	246.69
746.71	246.39
747.04	246.09
747.37	245.87
747.70	245.59
748.03	245.34
748.36	245.12
748.68	244.89
749.01	244.66
749.34	244.41
749.67	244.16
750.00	243.93
750.33	243.80
750.65	243.61
750.98	243.26
751.31	243.04
751.64	242.80
751.97	242.65
752.29	242.42
752.62	242.19
752.95	242.00
753.28	241.81
753.60	241.60
753.93	241.39
754.26	241.16
754.59	240.97
754.91	240.75
755.24	240.54
755.57	240.33
755.90	240.12
756.22	239.91
756.55	239.72
756.88	239.51
757.20	239.26
757.53	239.06
757.86	238.91
758.19	238.74
758.51	238.58
758.84	238.35
759.17	238.19
759.49	238.01
759.82	237.89
760.15	237.70
760.47	237.56
760.80	237.39
761.13	237.23
761.45	237.08
761.78	236.91
762.11	236.77
762.43	236.61
762.76	236.50
763.08	236.36
763.41	236.22
763.74	236.08
764.06	235.92
764.39	235.79
764.71	235.63
765.04	235.51
765.37	235.34
765.69	235.21
766.02	235.08
766.34	234.95
766.67	234.81
767.00	234.74
767.32	234.62
767.65	234.60
767.97	234.50
768.30	234.37
768.62	234.33
768.95	234.19
769.27	234.10
769.60	233.99
769.92	233.86
770.25	233.75
770.57	233.64
770.90	233.55
771.22	233.46
771.55	233.35
771.87	233.25
772.20	233.15
772.52	233.16
772.85	233.16
773.17	233.08
773.50	232.93
773.82	232.85
774.15	232.74
774.47	232.54
774.80	232.43
775.12	232.36
775.45	232.26
775.77	232.19
776.09	232.12
776.42	232.02
776.74	232.02
777.07	231.94
777.39	231.90
777.72	231.82
778.04	231.73
778.36	231.66
778.69	231.59
779.01	231.53
779.33	231.38
779.66	231.21
779.98	231.13
780.31	231.08
780.63	231.01
780.95	231.00
781.28	230.96
781.60	230.89
781.92	230.83
782.25	230.77
782.57	230.70
782.89	230.63
783.22	230.57
783.54	230.47
783.86	230.44
784.19	230.35
784.51	230.32
784.83	230.27
785.16	230.22
785.48	230.16
785.80	230.12
786.12	230.06
786.45	230.01
786.77	229.96
787.09	229.92
