SpectraSuite Data File
++++++++++++++++++++++++++++++++++++
Date: Fri Feb 01 16:13:52 EST 2013
User: group
Dark Spectrum Present: No
Reference Spectrum Present: No
Number of Sampled Component Spectra: 1
Spectrometers: USB2E7196
Integration Time (usec): 35000 (USB2E7196)
Spectra Averaged: 100 (USB2E7196)
Boxcar Smoothing: 10 (USB2E7196)
Correct for Electrical Dark: No (USB2E7196)
Strobe/Lamp Enabled: No (USB2E7196)
Correct for Detector Non-linearity: No (USB2E7196)
Correct for Stray Light: No (USB2E7196)
Number of Pixels in Processed Spectrum: 2048
>>>>>Begin Processed Spectral Data<<<<<
339.09	0.00
339.48	213.90
339.86	216.24
340.24	217.32
340.63	218.50
341.01	221.44
341.39	221.24
341.78	222.60
342.16	223.54
342.54	224.26
342.93	212.70
343.31	223.45
343.69	224.03
344.07	224.48
344.46	224.91
344.84	225.27
345.22	225.50
345.60	225.73
345.99	225.93
346.37	226.06
346.75	226.15
347.13	226.20
347.52	226.25
347.90	226.32
348.28	226.38
348.66	226.40
349.05	226.42
349.43	226.45
349.81	226.48
350.19	226.54
350.57	226.56
350.96	226.59
351.34	226.65
351.72	226.72
352.10	226.78
352.48	226.84
352.87	226.93
353.25	227.00
353.63	227.04
354.01	227.09
354.39	227.16
354.77	227.26
355.15	227.37
355.54	227.39
355.92	227.45
356.30	227.51
356.68	227.64
357.06	227.71
357.44	227.76
357.82	227.83
358.20	227.87
358.58	227.93
358.97	228.00
359.35	228.10
359.73	228.17
360.11	228.24
360.49	228.25
360.87	228.28
361.25	228.32
361.63	228.42
362.01	228.44
362.39	228.44
362.77	228.45
363.15	228.46
363.53	228.50
363.91	228.49
364.29	228.49
364.67	228.40
365.05	228.41
365.43	228.41
365.81	228.43
366.19	228.47
366.57	228.50
366.95	228.47
367.33	228.43
367.71	228.42
368.09	228.41
368.47	228.43
368.85	228.40
369.23	228.37
369.61	228.32
369.99	228.34
370.37	228.33
370.75	228.33
371.13	228.25
371.51	228.21
371.89	228.18
372.27	228.14
372.65	228.12
373.03	228.08
373.41	228.02
373.78	227.95
374.16	227.86
374.54	227.77
374.92	227.74
375.30	227.66
375.68	227.56
376.06	227.50
376.44	227.41
376.82	227.34
377.19	227.32
377.57	227.25
377.95	227.15
378.33	227.09
378.71	226.96
379.09	226.91
379.47	226.84
379.84	226.75
380.22	226.69
380.60	226.61
380.98	226.54
381.36	226.47
381.73	226.41
382.11	226.41
382.49	226.34
382.87	226.26
383.25	226.23
383.62	226.29
384.00	226.23
384.38	226.21
384.76	226.17
385.13	226.14
385.51	226.11
385.89	226.07
386.27	226.06
386.64	226.04
387.02	226.03
387.40	225.99
387.78	226.01
388.15	225.97
388.53	225.96
388.91	225.92
389.29	225.90
389.66	225.91
390.04	225.86
390.42	225.89
390.79	225.91
391.17	225.89
391.55	225.76
391.92	225.78
392.30	225.75
392.68	225.72
393.05	225.69
393.43	225.73
393.81	225.74
394.18	225.70
394.56	225.75
394.94	225.78
395.31	225.78
395.69	225.82
396.06	225.87
396.44	225.88
396.82	225.91
397.19	226.00
397.57	226.01
397.95	226.06
398.32	226.05
398.70	226.11
399.07	226.18
399.45	226.25
399.82	226.27
400.20	226.33
400.58	226.41
400.95	226.43
401.33	226.49
401.70	226.62
402.08	226.73
402.45	226.80
402.83	226.89
403.20	227.00
403.58	227.12
403.95	227.23
404.33	227.33
404.71	227.46
405.08	227.60
405.46	227.73
405.83	227.86
406.21	228.00
406.58	228.12
406.96	228.29
407.33	228.48
407.70	228.67
408.08	228.96
408.45	229.17
408.83	229.42
409.20	229.63
409.58	229.82
409.95	230.06
410.33	230.33
410.70	230.57
411.08	230.87
411.45	231.14
411.82	231.42
412.20	231.80
412.57	232.24
412.95	232.55
413.32	232.95
413.69	233.37
414.07	233.84
414.44	234.34
414.82	234.79
415.19	235.31
415.56	235.89
415.94	236.41
416.31	237.04
416.68	237.69
417.06	238.38
417.43	239.06
417.81	239.85
418.18	240.62
418.55	241.49
418.93	242.31
419.30	243.22
419.67	244.19
420.04	245.16
420.42	246.13
420.79	247.33
421.16	248.46
421.54	249.67
421.91	250.87
422.28	252.12
422.66	253.46
423.03	254.77
423.40	256.07
423.77	257.45
424.15	258.89
424.52	260.38
424.89	262.00
425.26	263.57
425.64	264.98
426.01	266.58
426.38	268.20
426.75	269.91
427.13	271.62
427.50	273.40
427.87	275.24
428.24	277.12
428.61	278.84
428.99	280.82
429.36	282.89
429.73	284.97
430.10	287.01
430.47	289.07
430.85	291.18
431.22	293.44
431.59	295.84
431.96	298.06
432.33	300.54
432.70	302.92
433.08	305.73
433.45	308.40
433.82	310.96
434.19	313.87
434.56	316.69
434.93	319.36
435.30	322.03
435.68	324.93
436.05	327.76
436.42	330.59
436.79	333.08
437.16	335.77
437.53	338.59
437.90	341.39
438.27	344.13
438.64	346.95
439.01	349.53
439.38	351.75
439.75	353.96
440.13	356.49
440.50	358.86
440.87	360.70
441.24	362.62
441.61	364.85
441.98	366.30
442.35	368.10
442.72	369.91
443.09	371.70
443.46	372.68
443.83	373.25
444.20	373.73
444.57	374.58
444.94	374.95
445.31	375.29
445.68	375.61
446.05	375.69
446.42	375.29
446.79	374.89
447.16	374.45
447.53	374.10
447.90	372.93
448.27	371.71
448.64	370.09
449.01	368.94
449.37	366.97
449.74	365.08
450.11	362.78
450.48	360.35
450.85	357.77
451.22	355.63
451.59	353.61
451.96	351.64
452.33	349.02
452.70	346.62
453.07	343.82
453.43	340.94
453.80	338.17
454.17	335.51
454.54	332.96
454.91	330.26
455.28	327.55
455.65	325.01
456.02	322.58
456.38	320.47
456.75	317.82
457.12	315.53
457.49	313.33
457.86	311.19
458.23	309.34
458.59	307.32
458.96	305.25
459.33	303.39
459.70	301.58
460.07	300.12
460.43	298.36
460.80	296.73
461.17	295.30
461.54	293.82
461.91	292.36
462.27	290.91
462.64	289.67
463.01	288.35
463.38	287.11
463.74	285.73
464.11	284.55
464.48	283.54
464.85	282.44
465.21	281.58
465.58	280.68
465.95	279.54
466.32	278.62
466.68	277.72
467.05	276.82
467.42	275.91
467.78	274.98
468.15	274.10
468.52	273.41
468.88	272.53
469.25	271.79
469.62	271.22
469.98	270.56
470.35	269.91
470.72	269.31
471.08	268.66
471.45	268.15
471.82	267.61
472.18	266.98
472.55	266.57
472.92	266.05
473.28	265.60
473.65	265.22
474.02	264.80
474.38	264.42
474.75	264.12
475.11	263.77
475.48	263.51
475.85	263.29
476.21	263.08
476.58	262.92
476.94	262.77
477.31	262.62
477.67	262.48
478.04	262.42
478.41	262.37
478.77	262.44
479.14	262.36
479.50	262.39
479.87	262.48
480.23	262.56
480.60	262.64
480.96	262.71
481.33	262.93
481.69	263.16
482.06	263.37
482.42	263.57
482.79	263.85
483.15	264.18
483.52	264.58
483.88	264.93
484.25	265.33
484.61	265.76
484.98	266.20
485.34	266.74
485.71	267.34
486.07	267.98
486.44	268.48
486.80	269.19
487.17	269.92
487.53	270.74
487.90	271.61
488.26	272.56
488.62	273.56
488.99	274.52
489.35	275.52
489.72	276.66
490.08	277.86
490.44	279.10
490.81	280.46
491.17	281.84
491.54	283.37
491.90	284.91
492.26	286.55
492.63	288.30
492.99	290.08
493.36	291.93
493.72	293.94
494.08	296.07
494.45	298.33
494.81	300.76
495.17	303.21
495.54	305.76
495.90	308.46
496.26	311.24
496.63	314.19
496.99	317.36
497.35	320.64
497.72	324.08
498.08	327.58
498.44	331.22
498.80	335.12
499.17	339.08
499.53	343.24
499.89	347.67
500.26	352.18
500.62	356.88
500.98	361.81
501.34	366.86
501.71	372.16
502.07	377.59
502.43	383.13
502.79	388.92
503.16	394.99
503.52	401.31
503.88	407.74
504.24	414.38
504.60	421.21
504.97	428.34
505.33	435.61
505.69	443.35
506.05	451.14
506.41	458.98
506.78	467.17
507.14	475.57
507.50	484.22
507.86	493.20
508.22	502.39
508.59	511.65
508.95	521.29
509.31	531.21
509.67	541.26
510.03	551.59
510.39	562.12
510.75	572.88
511.12	583.79
511.48	595.05
511.84	606.49
512.20	618.01
512.56	629.87
512.92	642.11
513.28	654.51
513.64	666.96
514.00	679.75
514.37	692.71
514.73	705.79
515.09	718.82
515.45	732.07
515.81	745.60
516.17	759.59
516.53	773.74
516.89	787.80
517.25	802.00
517.61	816.39
517.97	830.91
518.33	845.33
518.69	860.06
519.05	875.09
519.41	890.23
519.77	905.82
520.13	921.31
520.49	936.53
520.85	951.82
521.21	967.54
521.57	983.74
521.93	999.45
522.29	1015.87
522.65	1032.12
523.01	1048.38
523.37	1064.40
523.73	1080.50
524.09	1096.52
524.45	1112.85
524.81	1129.56
525.17	1146.24
525.53	1162.98
525.89	1179.86
526.25	1196.61
526.61	1212.96
526.97	1229.71
527.33	1246.18
527.68	1262.82
528.04	1279.30
528.40	1295.73
528.76	1312.72
529.12	1329.28
529.48	1346.18
529.84	1362.04
530.20	1378.56
530.56	1395.44
530.91	1412.80
531.27	1429.57
531.63	1446.00
531.99	1462.47
532.35	1478.38
532.71	1494.36
533.07	1510.60
533.42	1526.42
533.78	1542.41
534.14	1558.57
534.50	1573.88
534.86	1589.51
535.21	1604.59
535.57	1620.47
535.93	1635.94
536.29	1650.72
536.65	1665.58
537.00	1680.27
537.36	1695.60
537.72	1710.13
538.08	1724.56
538.44	1738.28
538.79	1751.96
539.15	1765.45
539.51	1779.01
539.87	1793.28
540.22	1806.77
540.58	1820.38
540.94	1833.64
541.29	1846.43
541.65	1859.01
542.01	1871.94
542.37	1884.24
542.72	1896.62
543.08	1908.27
543.44	1920.59
543.79	1931.68
544.15	1942.66
544.51	1954.04
544.87	1964.90
545.22	1975.78
545.58	1985.97
545.94	1995.76
546.29	2005.63
546.65	2015.50
547.01	2024.83
547.36	2033.44
547.72	2041.80
548.07	2049.67
548.43	2057.69
548.79	2065.62
549.14	2073.23
549.50	2080.61
549.86	2088.23
550.21	2095.43
550.57	2102.66
550.92	2109.36
551.28	2116.38
551.64	2123.42
551.99	2129.90
552.35	2136.11
552.70	2142.16
553.06	2148.13
553.41	2154.38
553.77	2160.46
554.13	2166.47
554.48	2172.55
554.84	2178.01
555.19	2183.44
555.55	2188.64
555.90	2193.21
556.26	2198.25
556.61	2202.78
556.97	2207.24
557.32	2211.34
557.68	2215.48
558.03	2219.70
558.39	2223.25
558.74	2227.86
559.10	2231.70
559.45	2235.41
559.81	2239.58
560.16	2243.32
560.52	2246.55
560.87	2249.89
561.23	2252.59
561.58	2255.52
561.94	2258.15
562.29	2260.55
562.64	2263.35
563.00	2265.89
563.35	2269.39
563.71	2272.52
564.06	2275.89
564.42	2278.62
564.77	2281.33
565.12	2283.64
565.48	2285.65
565.83	2287.58
566.19	2289.00
566.54	2289.90
566.89	2291.09
567.25	2291.82
567.60	2293.08
567.96	2294.82
568.31	2295.74
568.66	2296.81
569.02	2297.50
569.37	2297.67
569.72	2298.58
570.08	2298.69
570.43	2298.75
570.78	2298.12
571.14	2296.50
571.49	2295.04
571.84	2294.77
572.20	2293.55
572.55	2292.55
572.90	2290.88
573.26	2289.57
573.61	2287.75
573.96	2286.07
574.31	2283.18
574.67	2280.15
575.02	2276.68
575.37	2273.25
575.72	2269.61
576.08	2266.31
576.43	2262.97
576.78	2259.39
577.13	2256.12
577.49	2252.95
577.84	2249.66
578.19	2245.88
578.54	2242.35
578.90	2238.32
579.25	2232.82
579.60	2228.00
579.95	2223.02
580.30	2218.18
580.66	2213.02
581.01	2208.07
581.36	2203.19
581.71	2198.98
582.06	2194.68
582.42	2190.16
582.77	2185.07
583.12	2180.47
583.47	2175.81
583.82	2170.83
584.17	2165.74
584.53	2160.30
584.88	2154.79
585.23	2148.95
585.58	2143.50
585.93	2138.01
586.28	2133.15
586.63	2128.11
586.98	2123.02
587.34	2118.31
587.69	2113.29
588.04	2108.08
588.39	2102.48
588.74	2096.01
589.09	2089.86
589.44	2083.06
589.79	2077.10
590.14	2071.49
590.49	2064.88
590.84	2058.37
591.19	2052.34
591.54	2045.88
591.89	2038.72
592.25	2032.01
592.60	2024.82
592.95	2017.46
593.30	2010.21
593.65	2002.69
594.00	1995.71
594.35	1988.43
594.70	1980.38
595.05	1973.43
595.40	1966.23
595.75	1958.79
596.10	1952.72
596.45	1946.12
596.80	1940.01
597.15	1933.38
597.50	1926.34
597.85	1919.90
598.19	1913.40
598.54	1906.48
598.89	1899.95
599.24	1893.96
599.59	1887.32
599.94	1881.06
600.29	1874.79
600.64	1868.26
600.99	1860.88
601.34	1854.15
601.69	1847.19
602.04	1840.32
602.39	1832.80
602.74	1825.96
603.08	1819.23
603.43	1812.56
603.78	1805.21
604.13	1797.96
604.48	1790.69
604.83	1783.66
605.18	1776.87
605.53	1768.97
605.87	1760.86
606.22	1753.52
606.57	1745.54
606.92	1738.15
607.27	1731.22
607.62	1724.28
607.96	1717.09
608.31	1710.62
608.66	1702.90
609.01	1695.48
609.36	1687.94
609.70	1680.01
610.05	1672.05
610.40	1664.55
610.75	1656.17
611.10	1648.51
611.44	1640.00
611.79	1631.99
612.14	1623.37
612.49	1614.04
612.83	1605.56
613.18	1597.42
613.53	1589.37
613.88	1580.87
614.22	1572.49
614.57	1563.69
614.92	1555.64
615.27	1548.06
615.61	1539.58
615.96	1531.54
616.31	1523.81
616.65	1516.54
617.00	1509.03
617.35	1501.25
617.70	1492.84
618.04	1484.31
618.39	1476.05
618.74	1468.61
619.08	1460.22
619.43	1452.71
619.78	1445.88
620.12	1438.71
620.47	1431.15
620.82	1422.88
621.16	1415.40
621.51	1407.82
621.85	1400.20
622.20	1391.70
622.55	1383.19
622.89	1375.38
623.24	1367.80
623.59	1360.38
623.93	1352.78
624.28	1345.48
624.62	1337.98
624.97	1330.79
625.32	1323.99
625.66	1317.01
626.01	1309.88
626.35	1302.47
626.70	1294.64
627.04	1286.90
627.39	1279.12
627.73	1271.76
628.08	1264.89
628.43	1257.68
628.77	1250.35
629.12	1242.87
629.46	1235.67
629.81	1228.25
630.15	1220.97
630.50	1213.59
630.84	1205.39
631.19	1197.41
631.53	1189.94
631.88	1182.34
632.22	1174.67
632.57	1167.40
632.91	1159.84
633.26	1152.39
633.60	1145.07
633.95	1137.94
634.29	1130.82
634.64	1123.97
634.98	1116.59
635.32	1109.48
635.67	1102.80
636.01	1096.14
636.36	1089.38
636.70	1082.79
637.05	1076.24
637.39	1069.84
637.73	1063.36
638.08	1057.49
638.42	1051.60
638.77	1045.13
639.11	1038.64
639.45	1032.30
639.80	1025.61
640.14	1019.29
640.49	1012.76
640.83	1006.48
641.17	1000.26
641.52	993.98
641.86	987.63
642.20	981.91
642.55	975.49
642.89	969.06
643.23	962.54
643.58	956.73
643.92	950.61
644.26	944.66
644.61	938.57
644.95	932.49
645.29	925.96
645.64	919.25
645.98	912.98
646.32	907.07
646.66	901.03
647.01	895.34
647.35	889.62
647.69	883.70
648.04	878.14
648.38	872.37
648.72	866.48
649.06	860.52
649.41	854.55
649.75	848.65
650.09	842.71
650.43	836.89
650.78	830.78
651.12	824.77
651.46	819.01
651.80	813.35
652.14	807.98
652.49	802.60
652.83	797.36
653.17	791.58
653.51	785.87
653.85	780.43
654.20	774.69
654.54	768.67
654.88	762.98
655.22	757.06
655.56	751.37
655.90	745.81
656.25	740.52
656.59	735.10
656.93	729.98
657.27	724.80
657.61	719.29
657.95	714.10
658.29	709.04
658.64	703.68
658.98	698.21
659.32	692.67
659.66	687.40
660.00	682.16
660.34	677.23
660.68	672.26
661.02	667.24
661.36	662.54
661.70	658.00
662.05	653.56
662.39	649.31
662.73	644.82
663.07	640.41
663.41	635.97
663.75	631.50
664.09	626.92
664.43	622.53
664.77	618.46
665.11	614.25
665.45	610.09
665.79	606.05
666.13	601.94
666.47	597.85
666.81	593.74
667.15	589.53
667.49	585.63
667.83	581.83
668.17	577.87
668.51	573.79
668.85	569.76
669.19	565.95
669.53	562.08
669.87	558.23
670.21	554.56
670.55	550.90
670.89	547.50
671.23	544.11
671.57	540.58
671.91	537.11
672.25	533.57
672.58	530.11
672.92	526.69
673.26	523.56
673.60	520.48
673.94	517.35
674.28	514.46
674.62	511.50
674.96	508.39
675.30	505.55
675.64	502.66
675.97	499.90
676.31	496.97
676.65	494.03
676.99	491.37
677.33	488.55
677.67	485.79
678.01	482.82
678.34	479.88
678.68	477.00
679.02	474.19
679.36	471.48
679.70	468.76
680.04	466.04
680.37	463.20
680.71	460.39
681.05	457.80
681.39	455.11
681.73	452.46
682.06	449.93
682.40	447.43
682.74	444.89
683.08	442.31
683.42	439.81
683.75	437.38
684.09	434.79
684.43	432.31
684.77	429.85
685.10	427.46
685.44	425.13
685.78	422.88
686.12	420.61
686.45	418.31
686.79	416.03
687.13	413.82
687.46	411.64
687.80	409.49
688.14	407.22
688.48	405.20
688.81	403.00
689.15	400.87
689.49	398.68
689.82	396.58
690.16	394.50
690.50	392.47
690.83	390.47
691.17	388.47
691.51	386.49
691.84	384.61
692.18	382.68
692.52	380.73
692.85	378.77
693.19	376.88
693.52	375.01
693.86	373.17
694.20	371.39
694.53	369.59
694.87	367.73
695.21	365.95
695.54	364.07
695.88	362.31
696.21	360.54
696.55	358.83
696.88	357.11
697.22	355.43
697.56	353.85
697.89	352.18
698.23	350.56
698.56	349.00
698.90	347.41
699.23	345.78
699.57	344.21
699.90	342.67
700.24	341.07
700.58	339.59
700.91	338.08
701.25	336.62
701.58	335.29
701.92	333.94
702.25	332.58
702.59	331.21
702.92	329.90
703.26	328.65
703.59	327.35
703.93	326.18
704.26	324.93
704.60	323.63
704.93	322.34
705.26	321.07
705.60	319.84
705.93	318.66
706.27	317.58
706.60	316.53
706.94	315.42
707.27	314.31
707.61	313.23
707.94	312.22
708.27	311.14
708.61	310.03
708.94	309.01
709.28	308.02
709.61	307.09
709.94	306.15
710.28	305.12
710.61	304.14
710.95	303.09
711.28	302.20
711.61	301.22
711.95	300.32
712.28	299.43
712.61	298.48
712.95	297.56
713.28	296.67
713.61	295.77
713.95	294.92
714.28	294.13
714.61	293.26
714.95	292.38
715.28	291.51
715.61	290.62
715.95	289.79
716.28	288.94
716.61	288.07
716.95	287.22
717.28	286.45
717.61	285.66
717.94	284.91
718.28	284.10
718.61	283.40
718.94	282.72
719.27	282.05
719.61	281.37
719.94	280.71
720.27	279.98
720.60	279.33
720.94	278.72
721.27	278.12
721.60	277.51
721.93	276.93
722.27	276.40
722.60	275.84
722.93	275.26
723.26	274.69
723.59	274.12
723.93	273.62
724.26	273.04
724.59	272.51
724.92	271.99
725.25	271.51
725.59	270.96
725.92	270.46
726.25	269.93
726.58	269.50
726.91	269.01
727.24	268.54
727.57	268.07
727.91	267.55
728.24	267.06
728.57	266.62
728.90	266.15
729.23	265.65
729.56	265.25
729.89	264.77
730.22	264.30
730.55	263.85
730.89	263.38
731.22	262.98
731.55	262.57
731.88	262.12
732.21	261.70
732.54	261.28
732.87	260.85
733.20	260.47
733.53	260.05
733.86	259.70
734.19	259.31
734.52	258.93
734.85	258.57
735.18	258.15
735.51	257.77
735.84	257.42
736.17	257.11
736.50	256.71
736.83	256.48
737.16	256.17
737.49	255.85
737.82	255.51
738.15	255.16
738.48	254.82
738.81	254.51
739.14	254.16
739.47	253.85
739.80	253.55
740.13	253.25
740.46	252.91
740.79	252.54
741.12	252.24
741.45	251.91
741.78	251.60
742.11	251.31
742.44	250.98
742.77	250.66
743.10	250.33
743.43	250.01
743.75	249.64
744.08	249.49
744.41	249.17
744.74	248.93
745.07	248.64
745.40	248.35
745.73	248.12
746.06	247.85
746.39	247.56
746.71	247.25
747.04	246.97
747.37	246.70
747.70	246.48
748.03	246.22
748.36	245.97
748.68	245.71
749.01	245.45
749.34	245.19
749.67	244.95
750.00	244.71
750.33	244.54
750.65	244.27
750.98	243.90
751.31	243.69
751.64	243.42
751.97	243.23
752.29	243.03
752.62	242.76
752.95	242.54
753.28	242.36
753.60	242.18
753.93	242.01
754.26	241.82
754.59	241.59
754.91	241.38
755.24	241.17
755.57	240.97
755.90	240.80
756.22	240.63
756.55	240.41
756.88	240.22
757.20	239.99
757.53	239.81
757.86	239.64
758.19	239.44
758.51	239.31
758.84	239.13
759.17	238.95
759.49	238.79
759.82	238.71
760.15	238.55
760.47	238.40
760.80	238.24
761.13	238.12
761.45	237.98
761.78	237.84
762.11	237.72
762.43	237.58
762.76	237.44
763.08	237.34
763.41	237.26
763.74	237.10
764.06	237.00
764.39	236.85
764.71	236.76
765.04	236.65
765.37	236.51
765.69	236.37
766.02	236.23
766.34	236.10
766.67	235.97
767.00	235.86
767.32	235.84
767.65	235.79
767.97	235.67
768.30	235.59
768.62	235.48
768.95	235.35
769.27	235.27
769.60	235.19
769.92	235.03
770.25	234.89
770.57	234.83
770.90	234.75
771.22	234.70
771.55	234.61
771.87	234.54
772.20	234.42
772.52	234.44
772.85	234.47
773.17	234.40
773.50	234.30
773.82	234.21
774.15	234.07
774.47	233.91
774.80	233.82
775.12	233.73
775.45	233.63
775.77	233.58
776.09	233.50
776.42	233.42
776.74	233.45
777.07	233.39
777.39	233.31
777.72	233.20
778.04	233.12
778.36	233.05
778.69	232.96
779.01	232.94
779.33	232.77
779.66	232.61
779.98	232.55
780.31	232.46
780.63	232.40
780.95	232.34
781.28	232.24
781.60	232.18
781.92	232.11
782.25	232.08
782.57	231.99
782.89	231.93
783.22	231.88
783.54	231.80
783.86	231.76
784.19	231.67
784.51	231.65
784.83	231.60
785.16	231.56
785.48	231.50
785.80	231.42
786.12	231.35
786.45	231.31
786.77	231.29
787.09	231.22
