SpectraSuite Data File
++++++++++++++++++++++++++++++++++++
Date: Fri Feb 01 16:05:58 EST 2013
User: group
Dark Spectrum Present: No
Reference Spectrum Present: No
Number of Sampled Component Spectra: 1
Spectrometers: USB2E7196
Integration Time (usec): 35000 (USB2E7196)
Spectra Averaged: 100 (USB2E7196)
Boxcar Smoothing: 10 (USB2E7196)
Correct for Electrical Dark: No (USB2E7196)
Strobe/Lamp Enabled: No (USB2E7196)
Correct for Detector Non-linearity: No (USB2E7196)
Correct for Stray Light: No (USB2E7196)
Number of Pixels in Processed Spectrum: 2048
>>>>>Begin Processed Spectral Data<<<<<
339.09	0.00
339.48	213.94
339.86	215.78
340.24	217.34
340.63	218.24
341.01	221.80
341.39	221.40
341.78	222.70
342.16	224.03
342.54	224.19
342.93	212.72
343.31	223.47
343.69	224.02
344.07	224.48
344.46	224.88
344.84	225.25
345.22	225.45
345.60	225.67
345.99	225.87
346.37	225.98
346.75	226.09
347.13	226.15
347.52	226.23
347.90	226.30
348.28	226.33
348.66	226.39
349.05	226.39
349.43	226.42
349.81	226.46
350.19	226.48
350.57	226.53
350.96	226.61
351.34	226.71
351.72	226.82
352.10	226.94
352.48	227.02
352.87	227.12
353.25	227.23
353.63	227.33
354.01	227.39
354.39	227.47
354.77	227.56
355.15	227.70
355.54	227.75
355.92	227.78
356.30	227.88
356.68	227.99
357.06	228.10
357.44	228.17
357.82	228.28
358.20	228.38
358.58	228.47
358.97	228.51
359.35	228.59
359.73	228.68
360.11	228.73
360.49	228.81
360.87	228.85
361.25	228.89
361.63	228.94
362.01	229.00
362.39	229.07
362.77	229.09
363.15	229.13
363.53	229.14
363.91	229.15
364.29	229.19
364.67	229.16
365.05	229.16
365.43	229.19
365.81	229.17
366.19	229.24
366.57	229.27
366.95	229.28
367.33	229.26
367.71	229.24
368.09	229.26
368.47	229.28
368.85	229.26
369.23	229.26
369.61	229.25
369.99	229.25
370.37	229.19
370.75	229.22
371.13	229.16
371.51	229.14
371.89	229.14
372.27	229.03
372.65	228.99
373.03	228.95
373.41	228.90
373.78	228.88
374.16	228.80
374.54	228.73
374.92	228.68
375.30	228.59
375.68	228.53
376.06	228.44
376.44	228.37
376.82	228.30
377.19	228.24
377.57	228.16
377.95	228.02
378.33	227.97
378.71	227.84
379.09	227.77
379.47	227.68
379.84	227.60
380.22	227.59
380.60	227.50
380.98	227.43
381.36	227.37
381.73	227.28
382.11	227.17
382.49	227.09
382.87	226.99
383.25	226.92
383.62	226.94
384.00	226.87
384.38	226.80
384.76	226.79
385.13	226.76
385.51	226.71
385.89	226.68
386.27	226.64
386.64	226.63
387.02	226.55
387.40	226.54
387.78	226.49
388.15	226.44
388.53	226.41
388.91	226.39
389.29	226.30
389.66	226.26
390.04	226.25
390.42	226.25
390.79	226.24
391.17	226.25
391.55	226.17
391.92	226.16
392.30	226.13
392.68	226.06
393.05	226.03
393.43	226.03
393.81	226.03
394.18	226.01
394.56	225.99
394.94	226.03
395.31	226.07
395.69	226.12
396.06	226.14
396.44	226.17
396.82	226.17
397.19	226.23
397.57	226.30
397.95	226.35
398.32	226.37
398.70	226.42
399.07	226.49
399.45	226.54
399.82	226.63
400.20	226.72
400.58	226.82
400.95	226.88
401.33	226.98
401.70	227.17
402.08	227.29
402.45	227.41
402.83	227.52
403.20	227.61
403.58	227.72
403.95	227.86
404.33	227.99
404.71	228.14
405.08	228.36
405.46	228.52
405.83	228.66
406.21	228.85
406.58	229.02
406.96	229.20
407.33	229.38
407.70	229.55
408.08	229.82
408.45	230.06
408.83	230.31
409.20	230.51
409.58	230.64
409.95	230.90
410.33	231.16
410.70	231.41
411.08	231.73
411.45	232.05
411.82	232.36
412.20	232.69
412.57	233.11
412.95	233.43
413.32	233.82
413.69	234.23
414.07	234.66
414.44	235.15
414.82	235.62
415.19	236.16
415.56	236.74
415.94	237.26
416.31	237.87
416.68	238.46
417.06	239.18
417.43	239.93
417.81	240.66
418.18	241.44
418.55	242.30
418.93	243.14
419.30	243.97
419.67	244.90
420.04	245.86
420.42	246.84
420.79	248.01
421.16	249.18
421.54	250.38
421.91	251.60
422.28	252.81
422.66	254.13
423.03	255.43
423.40	256.73
423.77	258.14
424.15	259.57
424.52	261.04
424.89	262.66
425.26	264.18
425.64	265.68
426.01	267.25
426.38	268.91
426.75	270.56
427.13	272.32
427.50	274.11
427.87	275.99
428.24	277.84
428.61	279.52
428.99	281.41
429.36	283.51
429.73	285.57
430.10	287.61
430.47	289.64
430.85	291.75
431.22	294.00
431.59	296.43
431.96	298.67
432.33	301.14
432.70	303.46
433.08	306.25
433.45	308.84
433.82	311.45
434.19	314.29
434.56	317.10
434.93	319.72
435.30	322.31
435.68	325.18
436.05	328.03
436.42	330.85
436.79	333.41
437.16	336.07
437.53	338.85
437.90	341.65
438.27	344.40
438.64	347.20
439.01	349.76
439.38	351.93
439.75	354.06
440.13	356.56
440.50	358.88
440.87	360.73
441.24	362.67
441.61	364.82
441.98	366.34
442.35	368.14
442.72	369.99
443.09	371.80
443.46	372.77
443.83	373.31
444.20	373.79
444.57	374.60
444.94	374.87
445.31	375.26
445.68	375.57
446.05	375.66
446.42	375.28
446.79	374.86
447.16	374.41
447.53	374.09
447.90	372.93
448.27	371.77
448.64	370.18
449.01	369.01
449.37	367.06
449.74	365.12
450.11	362.90
450.48	360.43
450.85	357.91
451.22	355.78
451.59	353.77
451.96	351.86
452.33	349.25
452.70	346.92
453.07	344.07
453.43	341.23
453.80	338.43
454.17	335.77
454.54	333.26
454.91	330.57
455.28	327.91
455.65	325.46
456.02	323.04
456.38	320.91
456.75	318.25
457.12	316.02
457.49	313.83
457.86	311.63
458.23	309.79
458.59	307.76
458.96	305.69
459.33	303.92
459.70	302.05
460.07	300.54
460.43	298.84
460.80	297.19
461.17	295.76
461.54	294.28
461.91	292.85
462.27	291.39
462.64	290.14
463.01	288.81
463.38	287.53
463.74	286.18
464.11	285.03
464.48	284.05
464.85	282.95
465.21	282.08
465.58	281.18
465.95	280.10
466.32	279.21
466.68	278.31
467.05	277.40
467.42	276.50
467.78	275.62
468.15	274.72
468.52	274.11
468.88	273.22
469.25	272.44
469.62	271.82
469.98	271.16
470.35	270.54
470.72	269.94
471.08	269.26
471.45	268.74
471.82	268.16
472.18	267.58
472.55	267.14
472.92	266.62
473.28	266.15
473.65	265.71
474.02	265.29
474.38	264.93
474.75	264.61
475.11	264.28
475.48	264.00
475.85	263.77
476.21	263.51
476.58	263.36
476.94	263.23
477.31	263.06
477.67	262.90
478.04	262.77
478.41	262.72
478.77	262.75
479.14	262.66
479.50	262.73
479.87	262.81
480.23	262.85
480.60	262.92
480.96	263.04
481.33	263.24
481.69	263.43
482.06	263.64
482.42	263.80
482.79	264.03
483.15	264.34
483.52	264.72
483.88	265.09
484.25	265.50
484.61	265.92
484.98	266.41
485.34	266.98
485.71	267.59
486.07	268.20
486.44	268.80
486.80	269.48
487.17	270.18
487.53	270.98
487.90	271.85
488.26	272.78
488.62	273.73
488.99	274.70
489.35	275.73
489.72	276.89
490.08	278.08
490.44	279.35
490.81	280.72
491.17	282.08
491.54	283.57
491.90	285.09
492.26	286.78
492.63	288.51
492.99	290.31
493.36	292.17
493.72	294.19
494.08	296.28
494.45	298.59
494.81	300.95
495.17	303.38
495.54	305.96
495.90	308.63
496.26	311.47
496.63	314.44
496.99	317.59
497.35	320.82
497.72	324.21
498.08	327.75
498.44	331.37
498.80	335.32
499.17	339.34
499.53	343.51
499.89	347.86
500.26	352.38
500.62	357.10
500.98	362.10
501.34	367.20
501.71	372.55
502.07	377.97
502.43	383.61
502.79	389.39
503.16	395.48
503.52	401.75
503.88	408.17
504.24	414.84
504.60	421.74
504.97	428.90
505.33	436.27
505.69	443.99
506.05	451.80
506.41	459.71
506.78	467.90
507.14	476.41
507.50	485.14
507.86	494.18
508.22	503.36
508.59	512.57
508.95	522.23
509.31	532.03
509.67	542.14
510.03	552.46
510.39	563.12
510.75	573.92
511.12	584.91
511.48	596.17
511.84	607.60
512.20	619.13
512.56	631.06
512.92	643.22
513.28	655.49
513.64	667.98
514.00	680.63
514.37	693.50
514.73	706.55
515.09	719.62
515.45	732.89
515.81	746.42
516.17	760.41
516.53	774.51
516.89	788.73
517.25	802.90
517.61	817.32
517.97	831.80
518.33	846.20
518.69	860.96
519.05	876.00
519.41	891.10
519.77	906.65
520.13	922.11
520.49	937.47
520.85	952.88
521.21	968.56
521.57	984.79
521.93	1000.65
522.29	1016.98
522.65	1033.29
523.01	1049.51
523.37	1065.50
523.73	1081.59
524.09	1097.72
524.45	1113.96
524.81	1130.57
525.17	1147.36
525.53	1164.19
525.89	1181.10
526.25	1197.94
526.61	1214.28
526.97	1231.07
527.33	1247.49
527.68	1263.99
528.04	1280.47
528.40	1297.03
528.76	1314.06
529.12	1330.66
529.48	1347.49
529.84	1363.50
530.20	1379.93
530.56	1396.85
530.91	1414.23
531.27	1430.93
531.63	1447.24
531.99	1463.85
532.35	1479.71
532.71	1495.55
533.07	1511.77
533.42	1527.63
533.78	1543.58
534.14	1559.72
534.50	1575.03
534.86	1590.84
535.21	1606.07
535.57	1621.84
535.93	1637.29
536.29	1652.06
536.65	1666.97
537.00	1681.82
537.36	1697.06
537.72	1711.54
538.08	1725.98
538.44	1739.67
538.79	1753.58
539.15	1767.19
539.51	1780.76
539.87	1795.10
540.22	1808.73
540.58	1822.31
540.94	1835.54
541.29	1848.35
541.65	1861.12
542.01	1874.49
542.37	1886.78
542.72	1899.04
543.08	1910.75
543.44	1923.11
543.79	1934.28
544.15	1945.26
544.51	1956.67
544.87	1967.60
545.22	1978.42
545.58	1988.47
545.94	1998.23
546.29	2008.05
546.65	2017.88
547.01	2027.22
547.36	2035.96
547.72	2044.36
548.07	2052.30
548.43	2060.42
548.79	2068.37
549.14	2075.84
549.50	2082.83
549.86	2090.44
550.21	2097.77
550.57	2105.05
550.92	2111.69
551.28	2118.84
551.64	2125.87
551.99	2132.21
552.35	2138.38
552.70	2144.68
553.06	2150.77
553.41	2157.14
553.77	2163.19
554.13	2169.26
554.48	2175.37
554.84	2180.85
555.19	2186.25
555.55	2191.41
555.90	2195.79
556.26	2200.83
556.61	2205.58
556.97	2210.01
557.32	2214.24
557.68	2218.46
558.03	2222.81
558.39	2226.27
558.74	2230.80
559.10	2234.72
559.45	2238.43
559.81	2242.69
560.16	2246.36
560.52	2249.55
560.87	2252.92
561.23	2255.52
561.58	2258.48
561.94	2260.92
562.29	2263.19
562.64	2265.85
563.00	2268.37
563.35	2271.97
563.71	2275.05
564.06	2278.21
564.42	2281.01
564.77	2283.56
565.12	2285.92
565.48	2287.65
565.83	2289.63
566.19	2290.75
566.54	2291.72
566.89	2292.89
567.25	2293.54
567.60	2294.85
567.96	2296.54
568.31	2297.43
568.66	2298.69
569.02	2299.23
569.37	2299.59
569.72	2300.53
570.08	2300.66
570.43	2300.63
570.78	2299.92
571.14	2298.30
571.49	2296.91
571.84	2296.69
572.20	2295.46
572.55	2294.33
572.90	2292.85
573.26	2291.57
573.61	2290.14
573.96	2288.30
574.31	2285.37
574.67	2282.44
575.02	2278.89
575.37	2275.62
575.72	2271.77
576.08	2268.26
576.43	2264.92
576.78	2261.24
577.13	2257.97
577.49	2254.89
577.84	2251.49
578.19	2247.95
578.54	2244.41
578.90	2240.21
579.25	2234.48
579.60	2229.53
579.95	2224.41
580.30	2219.48
580.66	2214.34
581.01	2209.30
581.36	2204.49
581.71	2200.37
582.06	2195.81
582.42	2191.30
582.77	2186.08
583.12	2181.61
583.47	2177.11
583.82	2172.37
584.17	2167.23
584.53	2161.90
584.88	2156.31
585.23	2150.54
585.58	2145.09
585.93	2139.65
586.28	2134.91
586.63	2130.01
586.98	2125.00
587.34	2120.38
587.69	2115.45
588.04	2110.23
588.39	2104.67
588.74	2098.16
589.09	2092.07
589.44	2085.44
589.79	2079.49
590.14	2073.78
590.49	2067.27
590.84	2060.73
591.19	2054.53
591.54	2048.08
591.89	2040.78
592.25	2034.02
592.60	2026.89
592.95	2019.42
593.30	2012.16
593.65	2004.60
594.00	1997.56
594.35	1990.39
594.70	1982.36
595.05	1975.23
595.40	1968.04
595.75	1960.48
596.10	1954.37
596.45	1947.59
596.80	1941.42
597.15	1934.71
597.50	1927.64
597.85	1921.26
598.19	1914.75
598.54	1907.70
598.89	1900.99
599.24	1895.18
599.59	1888.53
599.94	1882.33
600.29	1875.93
600.64	1869.24
600.99	1861.86
601.34	1855.12
601.69	1848.13
602.04	1841.28
602.39	1833.95
602.74	1827.07
603.08	1820.29
603.43	1813.53
603.78	1806.17
604.13	1798.97
604.48	1791.60
604.83	1784.80
605.18	1777.72
605.53	1769.64
605.87	1761.59
606.22	1754.50
606.57	1746.31
606.92	1739.01
607.27	1731.77
607.62	1724.93
607.96	1717.77
608.31	1711.25
608.66	1703.47
609.01	1695.92
609.36	1688.37
609.70	1680.33
610.05	1672.31
610.40	1664.71
610.75	1656.33
611.10	1648.59
611.44	1640.11
611.79	1632.26
612.14	1623.45
612.49	1614.36
612.83	1606.00
613.18	1597.87
613.53	1589.64
613.88	1581.21
614.22	1572.84
614.57	1564.20
614.92	1556.00
615.27	1548.35
615.61	1539.96
615.96	1532.02
616.31	1524.31
616.65	1516.93
617.00	1509.28
617.35	1501.52
617.70	1493.21
618.04	1484.68
618.39	1476.63
618.74	1469.02
619.08	1460.69
619.43	1453.15
619.78	1446.17
620.12	1438.96
620.47	1431.49
620.82	1423.26
621.16	1415.88
621.51	1408.31
621.85	1400.82
622.20	1392.33
622.55	1383.96
622.89	1376.10
623.24	1368.48
623.59	1361.12
623.93	1353.55
624.28	1346.38
624.62	1338.90
624.97	1331.71
625.32	1325.04
625.66	1317.96
626.01	1310.71
626.35	1303.31
626.70	1295.63
627.04	1287.88
627.39	1280.18
627.73	1272.69
628.08	1265.82
628.43	1258.42
628.77	1251.07
629.12	1243.50
629.46	1236.38
629.81	1228.99
630.15	1221.72
630.50	1214.27
630.84	1206.09
631.19	1198.22
631.53	1190.69
631.88	1183.13
632.22	1175.53
632.57	1168.16
632.91	1160.56
633.26	1153.14
633.60	1145.73
633.95	1138.68
634.29	1131.73
634.64	1125.09
634.98	1117.83
635.32	1110.71
635.67	1104.13
636.01	1097.48
636.36	1090.64
636.70	1084.08
637.05	1077.51
637.39	1071.14
637.73	1064.72
638.08	1058.90
638.42	1052.83
638.77	1046.44
639.11	1039.88
639.45	1033.42
639.80	1026.78
640.14	1020.42
640.49	1014.00
640.83	1007.68
641.17	1001.37
641.52	994.97
641.86	988.35
642.20	982.50
642.55	976.11
642.89	969.67
643.23	963.01
643.58	957.22
643.92	951.11
644.26	945.15
644.61	939.05
644.95	932.98
645.29	926.37
645.64	919.65
645.98	913.32
646.32	907.47
646.66	901.48
647.01	895.66
647.35	889.94
647.69	884.06
648.04	878.57
648.38	872.74
648.72	866.69
649.06	860.70
649.41	854.78
649.75	848.84
650.09	842.88
650.43	837.17
650.78	831.02
651.12	825.04
651.46	819.22
651.80	813.43
652.14	808.04
652.49	802.67
652.83	797.56
653.17	791.83
653.51	786.05
653.85	780.63
654.20	774.95
654.54	768.99
654.88	763.24
655.22	757.34
655.56	751.67
655.90	746.25
656.25	741.01
656.59	735.65
656.93	730.58
657.27	725.41
657.61	719.90
657.95	714.79
658.29	709.58
658.64	704.31
658.98	699.00
659.32	693.53
659.66	688.29
660.00	682.95
660.34	678.01
660.68	673.08
661.02	668.00
661.36	663.34
661.70	658.80
662.05	654.36
662.39	649.97
662.73	645.45
663.07	641.05
663.41	636.64
663.75	632.15
664.09	627.60
664.43	623.15
664.77	619.12
665.11	614.93
665.45	610.88
665.79	606.77
666.13	602.59
666.47	598.44
666.81	594.24
667.15	590.14
667.49	586.26
667.83	582.45
668.17	578.59
668.51	574.51
668.85	570.52
669.19	566.77
669.53	563.00
669.87	559.26
670.21	555.59
670.55	551.90
670.89	548.45
671.23	545.00
671.57	541.52
671.91	537.92
672.25	534.41
672.58	530.88
672.92	527.45
673.26	524.37
673.60	521.24
673.94	518.17
674.28	515.22
674.62	512.27
674.96	509.17
675.30	506.24
675.64	503.34
675.97	500.50
676.31	497.59
676.65	494.67
676.99	491.92
677.33	489.09
677.67	486.27
678.01	483.24
678.34	480.27
678.68	477.41
679.02	474.61
679.36	471.78
679.70	469.09
680.04	466.37
680.37	463.48
680.71	460.73
681.05	458.10
681.39	455.36
681.73	452.66
682.06	450.15
682.40	447.60
682.74	445.06
683.08	442.58
683.42	439.95
683.75	437.39
684.09	434.84
684.43	432.34
684.77	429.88
685.10	427.52
685.44	425.18
685.78	422.86
686.12	420.62
686.45	418.36
686.79	416.04
687.13	413.86
687.46	411.70
687.80	409.48
688.14	407.24
688.48	405.20
688.81	402.99
689.15	400.83
689.49	398.71
689.82	396.60
690.16	394.47
690.50	392.53
690.83	390.60
691.17	388.55
691.51	386.61
691.84	384.75
692.18	382.80
692.52	380.81
692.85	378.87
693.19	376.96
693.52	375.11
693.86	373.29
694.20	371.48
694.53	369.69
694.87	367.82
695.21	366.03
695.54	364.19
695.88	362.47
696.21	360.71
696.55	358.95
696.88	357.22
697.22	355.57
697.56	353.92
697.89	352.25
698.23	350.66
698.56	349.02
698.90	347.45
699.23	345.82
699.57	344.29
699.90	342.75
700.24	341.21
700.58	339.68
700.91	338.17
701.25	336.73
701.58	335.32
701.92	333.99
702.25	332.60
702.59	331.24
702.92	329.84
703.26	328.53
703.59	327.26
703.93	326.09
704.26	324.82
704.60	323.55
704.93	322.27
705.26	321.05
705.60	319.92
705.93	318.79
706.27	317.71
706.60	316.65
706.94	315.58
707.27	314.47
707.61	313.41
707.94	312.41
708.27	311.31
708.61	310.24
708.94	309.23
709.28	308.31
709.61	307.37
709.94	306.49
710.28	305.47
710.61	304.53
710.95	303.45
711.28	302.51
711.61	301.58
711.95	300.73
712.28	299.78
712.61	298.77
712.95	297.84
713.28	297.00
713.61	296.13
713.95	295.25
714.28	294.40
714.61	293.58
714.95	292.74
715.28	291.91
715.61	291.07
715.95	290.23
716.28	289.35
716.61	288.50
716.95	287.68
717.28	286.95
717.61	286.18
717.94	285.49
718.28	284.75
718.61	284.04
718.94	283.33
719.27	282.68
719.61	282.08
719.94	281.42
720.27	280.68
720.60	280.00
720.94	279.41
721.27	278.84
721.60	278.26
721.93	277.65
722.27	277.14
722.60	276.56
722.93	276.00
723.26	275.49
723.59	274.94
723.93	274.38
724.26	273.80
724.59	273.26
724.92	272.73
725.25	272.24
725.59	271.69
725.92	271.16
726.25	270.67
726.58	270.16
726.91	269.66
727.24	269.21
727.57	268.80
727.91	268.25
728.24	267.75
728.57	267.28
728.90	266.81
729.23	266.26
729.56	265.82
729.89	265.34
730.22	264.86
730.55	264.40
730.89	263.96
731.22	263.51
731.55	263.06
731.88	262.57
732.21	262.12
732.54	261.73
732.87	261.33
733.20	260.89
733.53	260.47
733.86	260.09
734.19	259.68
734.52	259.24
734.85	258.93
735.18	258.50
735.51	258.08
735.84	257.68
736.17	257.33
736.50	256.93
736.83	256.71
737.16	256.35
737.49	255.99
737.82	255.63
738.15	255.30
738.48	254.95
738.81	254.64
739.14	254.32
739.47	253.94
739.80	253.61
740.13	253.31
740.46	252.97
740.79	252.59
741.12	252.28
741.45	251.98
741.78	251.64
742.11	251.37
742.44	251.04
742.77	250.75
743.10	250.44
743.43	250.12
743.75	249.71
744.08	249.54
744.41	249.28
744.74	248.98
745.07	248.68
745.40	248.41
745.73	248.19
746.06	247.88
746.39	247.64
746.71	247.34
747.04	247.04
747.37	246.79
747.70	246.57
748.03	246.31
748.36	246.04
748.68	245.79
749.01	245.55
749.34	245.36
749.67	245.15
750.00	244.93
750.33	244.84
750.65	244.63
750.98	244.29
751.31	244.07
751.64	243.88
751.97	243.75
752.29	243.55
752.62	243.30
752.95	243.15
753.28	242.92
753.60	242.71
753.93	242.56
754.26	242.35
754.59	242.14
754.91	241.94
755.24	241.77
755.57	241.59
755.90	241.43
756.22	241.23
756.55	241.06
756.88	240.87
757.20	240.63
757.53	240.42
757.86	240.29
758.19	240.16
758.51	239.99
758.84	239.83
759.17	239.68
759.49	239.56
759.82	239.43
760.15	239.34
760.47	239.17
760.80	239.02
761.13	238.89
761.45	238.77
761.78	238.65
762.11	238.53
762.43	238.38
762.76	238.26
763.08	238.15
763.41	238.00
763.74	237.90
764.06	237.76
764.39	237.67
764.71	237.51
765.04	237.37
765.37	237.26
765.69	237.12
766.02	237.02
766.34	236.88
766.67	236.73
767.00	236.60
767.32	236.60
767.65	236.54
767.97	236.44
768.30	236.31
768.62	236.20
768.95	236.08
769.27	235.96
769.60	235.84
769.92	235.72
770.25	235.62
770.57	235.48
770.90	235.38
771.22	235.22
771.55	235.14
771.87	235.02
772.20	234.88
772.52	234.86
772.85	234.86
773.17	234.75
773.50	234.65
773.82	234.57
774.15	234.41
774.47	234.28
774.80	234.17
775.12	234.08
775.45	234.00
775.77	233.90
776.09	233.84
776.42	233.73
776.74	233.65
777.07	233.58
777.39	233.49
777.72	233.38
778.04	233.35
778.36	233.24
778.69	233.18
779.01	233.13
779.33	232.90
779.66	232.72
779.98	232.60
780.31	232.54
780.63	232.53
780.95	232.48
781.28	232.38
781.60	232.30
781.92	232.25
782.25	232.17
782.57	232.09
782.89	232.00
783.22	231.95
783.54	231.89
783.86	231.77
784.19	231.72
784.51	231.71
784.83	231.61
785.16	231.59
785.48	231.54
785.80	231.47
786.12	231.47
786.45	231.42
786.77	231.41
787.09	231.36
