SpectraSuite Data File
++++++++++++++++++++++++++++++++++++
Date: Fri Feb 01 15:30:07 EST 2013
User: group
Dark Spectrum Present: No
Reference Spectrum Present: No
Number of Sampled Component Spectra: 1
Spectrometers: USB2E7196
Integration Time (usec): 35000 (USB2E7196)
Spectra Averaged: 100 (USB2E7196)
Boxcar Smoothing: 10 (USB2E7196)
Correct for Electrical Dark: No (USB2E7196)
Strobe/Lamp Enabled: No (USB2E7196)
Correct for Detector Non-linearity: No (USB2E7196)
Correct for Stray Light: No (USB2E7196)
Number of Pixels in Processed Spectrum: 2048
>>>>>Begin Processed Spectral Data<<<<<
339.09	0.00
339.48	215.79
339.86	216.04
340.24	217.99
340.63	219.32
341.01	221.97
341.39	221.93
341.78	223.39
342.16	224.83
342.54	225.38
342.93	213.49
343.31	224.28
343.69	224.81
344.07	225.31
344.46	225.74
344.84	226.14
345.22	226.39
345.60	226.64
345.99	226.83
346.37	226.97
346.75	227.06
347.13	227.15
347.52	227.23
347.90	227.33
348.28	227.40
348.66	227.49
349.05	227.48
349.43	227.52
349.81	227.55
350.19	227.55
350.57	227.57
350.96	227.63
351.34	227.70
351.72	227.77
352.10	227.82
352.48	227.88
352.87	227.93
353.25	227.99
353.63	228.03
354.01	228.10
354.39	228.15
354.77	228.23
355.15	228.30
355.54	228.36
355.92	228.41
356.30	228.45
356.68	228.54
357.06	228.60
357.44	228.64
357.82	228.70
358.20	228.79
358.58	228.86
358.97	228.92
359.35	229.02
359.73	229.08
360.11	229.14
360.49	229.19
360.87	229.24
361.25	229.29
361.63	229.39
362.01	229.40
362.39	229.44
362.77	229.45
363.15	229.49
363.53	229.48
363.91	229.48
364.29	229.50
364.67	229.42
365.05	229.44
365.43	229.45
365.81	229.45
366.19	229.46
366.57	229.48
366.95	229.47
367.33	229.44
367.71	229.41
368.09	229.41
368.47	229.38
368.85	229.35
369.23	229.36
369.61	229.27
369.99	229.27
370.37	229.22
370.75	229.25
371.13	229.19
371.51	229.13
371.89	229.11
372.27	229.04
372.65	229.01
373.03	228.94
373.41	228.87
373.78	228.82
374.16	228.74
374.54	228.66
374.92	228.60
375.30	228.50
375.68	228.43
376.06	228.38
376.44	228.29
376.82	228.20
377.19	228.09
377.57	228.02
377.95	227.91
378.33	227.83
378.71	227.70
379.09	227.65
379.47	227.59
379.84	227.51
380.22	227.42
380.60	227.34
380.98	227.29
381.36	227.24
381.73	227.14
382.11	227.08
382.49	227.03
382.87	226.93
383.25	226.88
383.62	226.91
384.00	226.82
384.38	226.79
384.76	226.78
385.13	226.78
385.51	226.76
385.89	226.72
386.27	226.70
386.64	226.70
387.02	226.63
387.40	226.59
387.78	226.57
388.15	226.56
388.53	226.54
388.91	226.52
389.29	226.47
389.66	226.48
390.04	226.44
390.42	226.43
390.79	226.45
391.17	226.45
391.55	226.37
391.92	226.38
392.30	226.39
392.68	226.37
393.05	226.37
393.43	226.39
393.81	226.44
394.18	226.45
394.56	226.45
394.94	226.51
395.31	226.55
395.69	226.60
396.06	226.66
396.44	226.69
396.82	226.71
397.19	226.83
397.57	226.89
397.95	226.98
398.32	227.02
398.70	227.08
399.07	227.16
399.45	227.24
399.82	227.31
400.20	227.37
400.58	227.46
400.95	227.49
401.33	227.57
401.70	227.72
402.08	227.81
402.45	227.92
402.83	228.04
403.20	228.14
403.58	228.25
403.95	228.37
404.33	228.51
404.71	228.63
405.08	228.80
405.46	228.92
405.83	229.07
406.21	229.25
406.58	229.44
406.96	229.60
407.33	229.76
407.70	229.95
408.08	230.23
408.45	230.44
408.83	230.69
409.20	230.92
409.58	231.07
409.95	231.35
410.33	231.58
410.70	231.82
411.08	232.08
411.45	232.35
411.82	232.64
412.20	233.01
412.57	233.43
412.95	233.69
413.32	234.08
413.69	234.48
414.07	234.89
414.44	235.33
414.82	235.78
415.19	236.33
415.56	236.87
415.94	237.39
416.31	238.03
416.68	238.63
417.06	239.35
417.43	240.07
417.81	240.83
418.18	241.66
418.55	242.52
418.93	243.43
419.30	244.37
419.67	245.34
420.04	246.28
420.42	247.26
420.79	248.46
421.16	249.62
421.54	250.83
421.91	252.02
422.28	253.28
422.66	254.63
423.03	255.94
423.40	257.28
423.77	258.69
424.15	260.08
424.52	261.59
424.89	263.19
425.26	264.72
425.64	266.15
426.01	267.77
426.38	269.42
426.75	271.07
427.13	272.78
427.50	274.56
427.87	276.45
428.24	278.32
428.61	280.06
428.99	282.03
429.36	284.14
429.73	286.22
430.10	288.23
430.47	290.30
430.85	292.44
431.22	294.68
431.59	297.12
431.96	299.45
432.33	301.95
432.70	304.33
433.08	307.16
433.45	309.85
433.82	312.44
434.19	315.30
434.56	318.11
434.93	320.79
435.30	323.45
435.68	326.35
436.05	329.15
436.42	331.97
436.79	334.54
437.16	337.26
437.53	340.11
437.90	342.91
438.27	345.61
438.64	348.44
439.01	351.11
439.38	353.33
439.75	355.46
440.13	357.96
440.50	360.32
440.87	362.20
441.24	364.15
441.61	366.35
441.98	367.90
442.35	369.73
442.72	371.59
443.09	373.38
443.46	374.40
443.83	375.02
444.20	375.50
444.57	376.32
444.94	376.55
445.31	376.86
445.68	377.26
446.05	377.38
446.42	377.00
446.79	376.55
447.16	376.08
447.53	375.77
447.90	374.59
448.27	373.42
448.64	371.78
449.01	370.62
449.37	368.60
449.74	366.71
450.11	364.45
450.48	361.94
450.85	359.42
451.22	357.20
451.59	355.18
451.96	353.27
452.33	350.62
452.70	348.30
453.07	345.51
453.43	342.59
453.80	339.80
454.17	337.06
454.54	334.49
454.91	331.76
455.28	329.05
455.65	326.55
456.02	324.09
456.38	321.93
456.75	319.21
457.12	316.96
457.49	314.71
457.86	312.54
458.23	310.68
458.59	308.63
458.96	306.53
459.33	304.67
459.70	302.74
460.07	301.23
460.43	299.47
460.80	297.80
461.17	296.35
461.54	294.84
461.91	293.45
462.27	291.99
462.64	290.79
463.01	289.40
463.38	288.08
463.74	286.67
464.11	285.54
464.48	284.53
464.85	283.39
465.21	282.50
465.58	281.57
465.95	280.45
466.32	279.52
466.68	278.65
467.05	277.76
467.42	276.88
467.78	275.94
468.15	275.04
468.52	274.39
468.88	273.53
469.25	272.79
469.62	272.15
469.98	271.45
470.35	270.77
470.72	270.21
471.08	269.57
471.45	269.07
471.82	268.53
472.18	267.92
472.55	267.49
472.92	266.95
473.28	266.47
473.65	266.03
474.02	265.59
474.38	265.22
474.75	264.89
475.11	264.53
475.48	264.26
475.85	264.03
476.21	263.82
476.58	263.64
476.94	263.46
477.31	263.29
477.67	263.20
478.04	263.11
478.41	263.06
478.77	263.12
479.14	263.04
479.50	263.03
479.87	263.12
480.23	263.21
480.60	263.31
480.96	263.40
481.33	263.60
481.69	263.82
482.06	264.03
482.42	264.25
482.79	264.54
483.15	264.87
483.52	265.27
483.88	265.60
484.25	265.99
484.61	266.40
484.98	266.87
485.34	267.43
485.71	268.00
486.07	268.62
486.44	269.17
486.80	269.85
487.17	270.56
487.53	271.39
487.90	272.21
488.26	273.13
488.62	274.11
488.99	275.12
489.35	276.18
489.72	277.28
490.08	278.49
490.44	279.74
490.81	281.08
491.17	282.44
491.54	283.93
491.90	285.49
492.26	287.16
492.63	288.87
492.99	290.60
493.36	292.51
493.72	294.50
494.08	296.59
494.45	298.85
494.81	301.23
495.17	303.67
495.54	306.23
495.90	308.95
496.26	311.77
496.63	314.72
496.99	317.80
497.35	321.06
497.72	324.45
498.08	327.97
498.44	331.68
498.80	335.61
499.17	339.61
499.53	343.76
499.89	348.16
500.26	352.69
500.62	357.40
500.98	362.35
501.34	367.43
501.71	372.80
502.07	378.25
502.43	383.90
502.79	389.66
503.16	395.76
503.52	402.00
503.88	408.44
504.24	415.05
504.60	421.90
504.97	429.05
505.33	436.36
505.69	444.07
506.05	451.78
506.41	459.64
506.78	467.83
507.14	476.28
507.50	484.92
507.86	493.90
508.22	503.11
508.59	512.34
508.95	521.97
509.31	531.74
509.67	541.85
510.03	552.08
510.39	562.62
510.75	573.45
511.12	584.38
511.48	595.64
511.84	607.09
512.20	618.63
512.56	630.61
512.92	642.82
513.28	655.07
513.64	667.63
514.00	680.36
514.37	693.33
514.73	706.41
515.09	719.49
515.45	732.85
515.81	746.45
516.17	760.39
516.53	774.50
516.89	788.69
517.25	802.97
517.61	817.45
517.97	832.00
518.33	846.46
518.69	861.33
519.05	876.31
519.41	891.55
519.77	907.14
520.13	922.50
520.49	937.97
520.85	953.50
521.21	969.17
521.57	985.48
521.93	1001.26
522.29	1017.72
522.65	1034.03
523.01	1050.31
523.37	1066.43
523.73	1082.74
524.09	1099.02
524.45	1115.49
524.81	1132.08
525.17	1148.84
525.53	1165.81
525.89	1182.69
526.25	1199.44
526.61	1215.90
526.97	1232.73
527.33	1249.27
527.68	1266.07
528.04	1282.58
528.40	1299.29
528.76	1316.55
529.12	1333.19
529.48	1350.10
529.84	1366.19
530.20	1382.91
530.56	1399.98
530.91	1417.40
531.27	1434.23
531.63	1450.60
531.99	1467.29
532.35	1483.32
532.71	1499.37
533.07	1515.76
533.42	1531.68
533.78	1547.88
534.14	1564.26
534.50	1579.67
534.86	1595.62
535.21	1610.81
535.57	1626.79
535.93	1642.24
536.29	1657.02
536.65	1672.18
537.00	1687.00
537.36	1702.28
537.72	1716.93
538.08	1731.37
538.44	1745.36
538.79	1759.27
539.15	1773.10
539.51	1786.81
539.87	1801.18
540.22	1814.98
540.58	1828.76
540.94	1842.19
541.29	1855.22
541.65	1867.95
542.01	1881.26
542.37	1893.50
542.72	1906.10
543.08	1917.85
543.44	1930.44
543.79	1941.68
544.15	1952.65
544.51	1964.39
544.87	1975.54
545.22	1986.29
545.58	1996.40
545.94	2006.03
546.29	2015.97
546.65	2025.81
547.01	2034.98
547.36	2043.85
547.72	2052.20
548.07	2060.05
548.43	2068.29
548.79	2076.34
549.14	2083.87
549.50	2091.30
549.86	2099.14
550.21	2106.43
550.57	2113.60
550.92	2120.15
551.28	2127.30
551.64	2134.37
551.99	2140.94
552.35	2146.96
552.70	2153.11
553.06	2159.29
553.41	2165.70
553.77	2171.71
554.13	2177.78
554.48	2183.92
554.84	2189.12
555.19	2194.57
555.55	2199.63
555.90	2204.07
556.26	2208.87
556.61	2213.68
556.97	2217.84
557.32	2221.98
557.68	2226.11
558.03	2230.52
558.39	2234.25
558.74	2238.89
559.10	2242.79
559.45	2246.25
559.81	2250.61
560.16	2254.46
560.52	2257.55
560.87	2260.92
561.23	2263.57
561.58	2266.49
561.94	2269.02
562.29	2271.59
562.64	2274.27
563.00	2276.99
563.35	2280.51
563.71	2283.58
564.06	2286.59
564.42	2289.45
564.77	2291.86
565.12	2293.91
565.48	2295.66
565.83	2297.33
566.19	2298.40
566.54	2299.29
566.89	2300.59
567.25	2301.15
567.60	2302.49
567.96	2304.23
568.31	2304.93
568.66	2306.04
569.02	2306.55
569.37	2306.75
569.72	2307.52
570.08	2307.51
570.43	2307.47
570.78	2306.81
571.14	2305.40
571.49	2304.14
571.84	2303.70
572.20	2302.41
572.55	2301.48
572.90	2300.01
573.26	2298.66
573.61	2297.12
573.96	2295.29
574.31	2292.21
574.67	2289.03
575.02	2285.30
575.37	2281.86
575.72	2278.17
576.08	2274.69
576.43	2271.29
576.78	2267.61
577.13	2264.47
577.49	2261.43
577.84	2257.76
578.19	2253.87
578.54	2249.93
578.90	2245.59
579.25	2239.98
579.60	2235.05
579.95	2229.91
580.30	2224.74
580.66	2219.63
581.01	2214.48
581.36	2209.50
581.71	2205.23
582.06	2200.84
582.42	2196.34
582.77	2191.18
583.12	2186.45
583.47	2181.68
583.82	2176.64
584.17	2171.38
584.53	2165.75
584.88	2160.03
585.23	2154.21
585.58	2148.76
585.93	2143.28
586.28	2138.57
586.63	2133.44
586.98	2128.46
587.34	2123.73
587.69	2118.89
588.04	2113.48
588.39	2107.70
588.74	2101.19
589.09	2095.00
589.44	2088.08
589.79	2081.90
590.14	2076.04
590.49	2069.49
590.84	2062.98
591.19	2056.81
591.54	2050.32
591.89	2042.89
592.25	2036.06
592.60	2028.93
592.95	2021.23
593.30	2013.94
593.65	2006.20
594.00	1999.16
594.35	1991.70
594.70	1983.64
595.05	1976.24
595.40	1968.91
595.75	1961.39
596.10	1955.05
596.45	1948.17
596.80	1942.01
597.15	1935.39
597.50	1928.15
597.85	1921.69
598.19	1914.98
598.54	1907.98
598.89	1901.26
599.24	1895.42
599.59	1888.64
599.94	1882.29
600.29	1876.06
600.64	1869.39
600.99	1861.84
601.34	1854.93
601.69	1847.98
602.04	1840.93
602.39	1833.65
602.74	1826.75
603.08	1819.94
603.43	1813.24
603.78	1806.00
604.13	1798.67
604.48	1791.24
604.83	1784.41
605.18	1777.40
605.53	1769.37
605.87	1761.21
606.22	1754.03
606.57	1746.00
606.92	1738.65
607.27	1731.43
607.62	1724.34
607.96	1717.06
608.31	1710.48
608.66	1702.74
609.01	1695.09
609.36	1687.63
609.70	1679.50
610.05	1671.33
610.40	1663.73
610.75	1655.43
611.10	1647.68
611.44	1639.43
611.79	1631.56
612.14	1622.90
612.49	1613.76
612.83	1605.45
613.18	1597.41
613.53	1589.36
613.88	1580.76
614.22	1572.46
614.57	1563.89
614.92	1555.87
615.27	1548.26
615.61	1539.93
615.96	1532.07
616.31	1524.44
616.65	1517.08
617.00	1509.53
617.35	1501.95
617.70	1493.46
618.04	1484.86
618.39	1476.59
618.74	1468.89
619.08	1460.54
619.43	1452.95
619.78	1445.97
620.12	1438.73
620.47	1431.19
620.82	1422.89
621.16	1415.47
621.51	1407.85
621.85	1400.28
622.20	1391.65
622.55	1383.37
622.89	1375.47
623.24	1367.76
623.59	1360.42
623.93	1352.81
624.28	1345.55
624.62	1337.94
624.97	1330.88
625.32	1324.17
625.66	1317.19
626.01	1310.00
626.35	1302.53
626.70	1294.87
627.04	1287.05
627.39	1279.20
627.73	1271.75
628.08	1264.82
628.43	1257.53
628.77	1250.22
629.12	1242.63
629.46	1235.49
629.81	1228.00
630.15	1220.83
630.50	1213.43
630.84	1205.23
631.19	1197.32
631.53	1189.86
631.88	1182.26
632.22	1174.68
632.57	1167.42
632.91	1159.89
633.26	1152.44
633.60	1145.16
633.95	1138.08
634.29	1131.07
634.64	1124.47
634.98	1117.16
635.32	1110.06
635.67	1103.41
636.01	1096.71
636.36	1089.85
636.70	1083.44
637.05	1076.88
637.39	1070.41
637.73	1063.85
638.08	1058.02
638.42	1051.97
638.77	1045.41
639.11	1038.87
639.45	1032.41
639.80	1025.57
640.14	1019.12
640.49	1012.57
640.83	1006.25
641.17	999.95
641.52	993.70
641.86	987.30
642.20	981.43
642.55	975.11
642.89	968.61
643.23	962.05
643.58	956.29
643.92	950.09
644.26	944.00
644.61	937.96
644.95	931.98
645.29	925.31
645.64	918.58
645.98	912.33
646.32	906.52
646.66	900.44
647.01	894.77
647.35	889.10
647.69	883.28
648.04	877.65
648.38	871.85
648.72	865.79
649.06	859.71
649.41	853.77
649.75	847.75
650.09	841.85
650.43	836.05
650.78	829.89
651.12	823.95
651.46	818.22
651.80	812.47
652.14	807.04
652.49	801.69
652.83	796.58
653.17	790.87
653.51	785.10
653.85	779.78
654.20	774.15
654.54	768.14
654.88	762.42
655.22	756.56
655.56	750.88
655.90	745.46
656.25	740.16
656.59	734.88
656.93	729.82
657.27	724.67
657.61	719.23
657.95	714.11
658.29	708.96
658.64	703.82
658.98	698.48
659.32	693.02
659.66	687.78
660.00	682.45
660.34	677.58
660.68	672.70
661.02	667.69
661.36	662.97
661.70	658.45
662.05	654.12
662.39	649.76
662.73	645.30
663.07	640.86
663.41	636.40
663.75	631.87
664.09	627.29
664.43	622.92
664.77	618.86
665.11	614.67
665.45	610.56
665.79	606.37
666.13	602.29
666.47	598.19
666.81	594.12
667.15	589.95
667.49	585.98
667.83	582.22
668.17	578.24
668.51	574.15
668.85	570.12
669.19	566.20
669.53	562.41
669.87	558.55
670.21	554.90
670.55	551.29
670.89	547.84
671.23	544.43
671.57	540.92
671.91	537.37
672.25	533.85
672.58	530.31
672.92	526.93
673.26	523.80
673.60	520.71
673.94	517.53
674.28	514.70
674.62	511.81
674.96	508.68
675.30	505.79
675.64	502.87
675.97	500.11
676.31	497.28
676.65	494.32
676.99	491.57
677.33	488.74
677.67	485.99
678.01	482.96
678.34	479.97
678.68	477.12
679.02	474.27
679.36	471.47
679.70	468.85
680.04	466.11
680.37	463.15
680.71	460.33
681.05	457.70
681.39	454.99
681.73	452.30
682.06	449.82
682.40	447.21
682.74	444.70
683.08	442.14
683.42	439.52
683.75	437.05
684.09	434.48
684.43	431.96
684.77	429.43
685.10	427.11
685.44	424.81
685.78	422.51
686.12	420.31
686.45	418.04
686.79	415.68
687.13	413.51
687.46	411.40
687.80	409.24
688.14	407.00
688.48	404.95
688.81	402.71
689.15	400.55
689.49	398.47
689.82	396.35
690.16	394.24
690.50	392.32
690.83	390.35
691.17	388.39
691.51	386.47
691.84	384.62
692.18	382.69
692.52	380.69
692.85	378.75
693.19	376.86
693.52	375.06
693.86	373.27
694.20	371.47
694.53	369.68
694.87	367.82
695.21	366.07
695.54	364.26
695.88	362.57
696.21	360.86
696.55	359.19
696.88	357.52
697.22	355.92
697.56	354.27
697.89	352.65
698.23	351.07
698.56	349.50
698.90	347.92
699.23	346.25
699.57	344.73
699.90	343.22
700.24	341.68
700.58	340.18
700.91	338.69
701.25	337.25
701.58	335.91
701.92	334.58
702.25	333.21
702.59	331.82
702.92	330.52
703.26	329.20
703.59	327.95
703.93	326.77
704.26	325.52
704.60	324.30
704.93	323.02
705.26	321.80
705.60	320.66
705.93	319.53
706.27	318.53
706.60	317.52
706.94	316.44
707.27	315.32
707.61	314.28
707.94	313.25
708.27	312.16
708.61	311.04
708.94	310.05
709.28	309.08
709.61	308.16
709.94	307.19
710.28	306.17
710.61	305.21
710.95	304.15
711.28	303.28
711.61	302.33
711.95	301.42
712.28	300.43
712.61	299.42
712.95	298.50
713.28	297.60
713.61	296.71
713.95	295.83
714.28	294.97
714.61	294.08
714.95	293.24
715.28	292.43
715.61	291.59
715.95	290.71
716.28	289.86
716.61	289.00
716.95	288.18
717.28	287.45
717.61	286.61
717.94	285.88
718.28	285.07
718.61	284.34
718.94	283.68
719.27	283.06
719.61	282.42
719.94	281.74
720.27	281.05
720.60	280.36
720.94	279.70
721.27	279.13
721.60	278.56
721.93	277.96
722.27	277.39
722.60	276.84
722.93	276.29
723.26	275.76
723.59	275.21
723.93	274.65
724.26	274.10
724.59	273.56
724.92	273.03
725.25	272.51
725.59	271.96
725.92	271.43
726.25	270.90
726.58	270.39
726.91	269.90
727.24	269.42
727.57	268.93
727.91	268.43
728.24	267.93
728.57	267.43
728.90	266.97
729.23	266.47
729.56	266.01
729.89	265.53
730.22	265.03
730.55	264.55
730.89	264.13
731.22	263.63
731.55	263.20
731.88	262.74
732.21	262.25
732.54	261.80
732.87	261.35
733.20	260.97
733.53	260.59
733.86	260.21
734.19	259.84
734.52	259.47
734.85	259.19
735.18	258.76
735.51	258.39
735.84	258.01
736.17	257.65
736.50	257.25
736.83	257.00
737.16	256.68
737.49	256.33
737.82	255.96
738.15	255.61
738.48	255.27
738.81	254.94
739.14	254.68
739.47	254.39
739.80	254.04
740.13	253.71
740.46	253.37
740.79	253.03
741.12	252.71
741.45	252.36
741.78	251.99
742.11	251.73
742.44	251.41
742.77	251.14
743.10	250.82
743.43	250.54
743.75	250.16
744.08	250.00
744.41	249.76
744.74	249.46
745.07	249.21
745.40	248.98
745.73	248.76
746.06	248.46
746.39	248.21
746.71	247.98
747.04	247.71
747.37	247.48
747.70	247.25
748.03	246.99
748.36	246.81
748.68	246.62
749.01	246.37
749.34	246.16
749.67	245.93
750.00	245.74
750.33	245.56
750.65	245.39
750.98	245.07
751.31	244.87
751.64	244.74
751.97	244.62
752.29	244.39
752.62	244.19
752.95	244.00
753.28	243.78
753.60	243.60
753.93	243.45
754.26	243.28
754.59	243.08
754.91	242.87
755.24	242.68
755.57	242.46
755.90	242.27
756.22	242.07
756.55	241.88
756.88	241.68
757.20	241.49
757.53	241.27
757.86	241.10
758.19	240.93
758.51	240.71
758.84	240.46
759.17	240.29
759.49	240.12
759.82	240.01
760.15	239.87
760.47	239.72
760.80	239.54
761.13	239.38
761.45	239.21
761.78	239.06
762.11	238.93
762.43	238.77
762.76	238.67
763.08	238.57
763.41	238.44
763.74	238.32
764.06	238.14
764.39	238.01
764.71	237.86
765.04	237.70
765.37	237.59
765.69	237.50
766.02	237.36
766.34	237.24
766.67	237.10
767.00	236.96
767.32	236.89
767.65	236.81
767.97	236.71
768.30	236.59
768.62	236.47
768.95	236.31
769.27	236.20
769.60	236.06
769.92	235.93
770.25	235.78
770.57	235.64
770.90	235.56
771.22	235.45
771.55	235.36
771.87	235.25
772.20	235.15
772.52	235.09
772.85	235.14
773.17	234.99
773.50	234.86
773.82	234.74
774.15	234.61
774.47	234.47
774.80	234.35
775.12	234.28
775.45	234.19
775.77	234.11
776.09	234.02
776.42	233.93
776.74	233.86
777.07	233.77
777.39	233.74
777.72	233.65
778.04	233.59
778.36	233.52
778.69	233.45
779.01	233.35
779.33	233.23
779.66	233.02
779.98	233.00
780.31	232.95
780.63	232.95
780.95	232.87
781.28	232.77
781.60	232.70
781.92	232.60
782.25	232.54
782.57	232.46
782.89	232.40
783.22	232.33
783.54	232.25
783.86	232.21
784.19	232.15
784.51	232.06
784.83	231.98
785.16	231.93
785.48	231.88
785.80	231.85
786.12	231.82
786.45	231.77
786.77	231.73
787.09	231.67
