SpectraSuite Data File
++++++++++++++++++++++++++++++++++++
Date: Fri Feb 01 15:03:42 EST 2013
User: group
Dark Spectrum Present: No
Reference Spectrum Present: No
Number of Sampled Component Spectra: 1
Spectrometers: USB2E7196
Integration Time (usec): 35000 (USB2E7196)
Spectra Averaged: 100 (USB2E7196)
Boxcar Smoothing: 10 (USB2E7196)
Correct for Electrical Dark: No (USB2E7196)
Strobe/Lamp Enabled: No (USB2E7196)
Correct for Detector Non-linearity: No (USB2E7196)
Correct for Stray Light: No (USB2E7196)
Number of Pixels in Processed Spectrum: 2048
>>>>>Begin Processed Spectral Data<<<<<
339.09	0.00
339.48	214.89
339.86	216.24
340.24	217.94
340.63	219.88
341.01	222.19
341.39	221.92
341.78	223.42
342.16	224.63
342.54	225.69
342.93	213.45
343.31	224.27
343.69	224.83
344.07	225.29
344.46	225.74
344.84	226.09
345.22	226.34
345.60	226.59
345.99	226.78
346.37	226.89
346.75	226.96
347.13	227.04
347.52	227.12
347.90	227.22
348.28	227.27
348.66	227.30
349.05	227.29
349.43	227.31
349.81	227.33
350.19	227.38
350.57	227.45
350.96	227.56
351.34	227.62
351.72	227.68
352.10	227.78
352.48	227.82
352.87	227.89
353.25	227.96
353.63	228.03
354.01	228.10
354.39	228.18
354.77	228.27
355.15	228.41
355.54	228.47
355.92	228.52
356.30	228.60
356.68	228.76
357.06	228.85
357.44	228.90
357.82	228.97
358.20	229.04
358.58	229.11
358.97	229.17
359.35	229.23
359.73	229.33
360.11	229.42
360.49	229.47
360.87	229.52
361.25	229.55
361.63	229.64
362.01	229.68
362.39	229.70
362.77	229.74
363.15	229.73
363.53	229.78
363.91	229.76
364.29	229.76
364.67	229.66
365.05	229.67
365.43	229.70
365.81	229.69
366.19	229.72
366.57	229.76
366.95	229.75
367.33	229.74
367.71	229.70
368.09	229.70
368.47	229.68
368.85	229.64
369.23	229.64
369.61	229.57
369.99	229.56
370.37	229.56
370.75	229.56
371.13	229.51
371.51	229.43
371.89	229.40
372.27	229.39
372.65	229.36
373.03	229.31
373.41	229.24
373.78	229.18
374.16	229.11
374.54	229.00
374.92	228.88
375.30	228.81
375.68	228.73
376.06	228.65
376.44	228.59
376.82	228.55
377.19	228.46
377.57	228.38
377.95	228.27
378.33	228.20
378.71	228.05
379.09	227.97
379.47	227.90
379.84	227.82
380.22	227.71
380.60	227.61
380.98	227.51
381.36	227.44
381.73	227.33
382.11	227.26
382.49	227.17
382.87	227.11
383.25	227.04
383.62	227.08
384.00	226.99
384.38	226.92
384.76	226.85
385.13	226.84
385.51	226.79
385.89	226.75
386.27	226.66
386.64	226.63
387.02	226.57
387.40	226.53
387.78	226.53
388.15	226.48
388.53	226.43
388.91	226.38
389.29	226.37
389.66	226.38
390.04	226.36
390.42	226.38
390.79	226.36
391.17	226.37
391.55	226.25
391.92	226.26
392.30	226.27
392.68	226.22
393.05	226.18
393.43	226.17
393.81	226.19
394.18	226.22
394.56	226.24
394.94	226.29
395.31	226.30
395.69	226.33
396.06	226.38
396.44	226.46
396.82	226.50
397.19	226.58
397.57	226.63
397.95	226.65
398.32	226.68
398.70	226.76
399.07	226.81
399.45	226.89
399.82	226.95
400.20	226.99
400.58	227.12
400.95	227.17
401.33	227.29
401.70	227.47
402.08	227.58
402.45	227.69
402.83	227.81
403.20	227.94
403.58	228.07
403.95	228.17
404.33	228.29
404.71	228.43
405.08	228.58
405.46	228.73
405.83	228.92
406.21	229.10
406.58	229.25
406.96	229.42
407.33	229.60
407.70	229.83
408.08	230.13
408.45	230.36
408.83	230.59
409.20	230.82
409.58	230.97
409.95	231.22
410.33	231.49
410.70	231.76
411.08	232.08
411.45	232.39
411.82	232.73
412.20	233.12
412.57	233.56
412.95	233.87
413.32	234.25
413.69	234.65
414.07	235.05
414.44	235.53
414.82	235.99
415.19	236.58
415.56	237.12
415.94	237.67
416.31	238.30
416.68	238.95
417.06	239.65
417.43	240.33
417.81	241.08
418.18	241.85
418.55	242.67
418.93	243.55
419.30	244.42
419.67	245.35
420.04	246.30
420.42	247.28
420.79	248.49
421.16	249.68
421.54	250.88
421.91	252.09
422.28	253.33
422.66	254.70
423.03	255.98
423.40	257.29
423.77	258.70
424.15	260.10
424.52	261.58
424.89	263.21
425.26	264.76
425.64	266.24
426.01	267.85
426.38	269.48
426.75	271.13
427.13	272.84
427.50	274.63
427.87	276.50
428.24	278.37
428.61	280.12
428.99	282.05
429.36	284.15
429.73	286.24
430.10	288.31
430.47	290.37
430.85	292.49
431.22	294.75
431.59	297.14
431.96	299.42
432.33	301.92
432.70	304.29
433.08	307.14
433.45	309.77
433.82	312.35
434.19	315.25
434.56	318.07
434.93	320.77
435.30	323.37
435.68	326.22
436.05	329.05
436.42	331.89
436.79	334.39
437.16	337.13
437.53	339.99
437.90	342.76
438.27	345.50
438.64	348.33
439.01	350.94
439.38	353.15
439.75	355.27
440.13	357.75
440.50	360.07
440.87	361.93
441.24	363.90
441.61	366.09
441.98	367.59
442.35	369.40
442.72	371.23
443.09	373.08
443.46	374.13
443.83	374.72
444.20	375.20
444.57	376.06
444.94	376.31
445.31	376.64
445.68	376.98
446.05	377.08
446.42	376.69
446.79	376.20
447.16	375.80
447.53	375.48
447.90	374.35
448.27	373.20
448.64	371.57
449.01	370.34
449.37	368.36
449.74	366.47
450.11	364.21
450.48	361.77
450.85	359.21
451.22	357.06
451.59	355.02
451.96	353.04
452.33	350.43
452.70	348.11
453.07	345.28
453.43	342.39
453.80	339.60
454.17	336.90
454.54	334.36
454.91	331.65
455.28	328.99
455.65	326.47
456.02	324.01
456.38	321.86
456.75	319.29
457.12	317.06
457.49	314.86
457.86	312.71
458.23	310.81
458.59	308.77
458.96	306.67
459.33	304.85
459.70	302.96
460.07	301.42
460.43	299.66
460.80	298.00
461.17	296.54
461.54	295.07
461.91	293.64
462.27	292.22
462.64	290.93
463.01	289.59
463.38	288.28
463.74	286.90
464.11	285.73
464.48	284.68
464.85	283.55
465.21	282.66
465.58	281.71
465.95	280.58
466.32	279.68
466.68	278.78
467.05	277.87
467.42	277.00
467.78	276.07
468.15	275.21
468.52	274.55
468.88	273.72
469.25	272.94
469.62	272.32
469.98	271.62
470.35	270.97
470.72	270.37
471.08	269.67
471.45	269.15
471.82	268.61
472.18	268.01
472.55	267.55
472.92	267.00
473.28	266.51
473.65	266.10
474.02	265.62
474.38	265.24
474.75	264.88
475.11	264.51
475.48	264.23
475.85	264.02
476.21	263.78
476.58	263.57
476.94	263.41
477.31	263.20
477.67	263.03
478.04	262.92
478.41	262.85
478.77	262.90
479.14	262.83
479.50	262.81
479.87	262.86
480.23	262.93
480.60	262.99
480.96	263.11
481.33	263.31
481.69	263.49
482.06	263.68
482.42	263.86
482.79	264.12
483.15	264.40
483.52	264.75
483.88	265.13
484.25	265.48
484.61	265.89
484.98	266.35
485.34	266.95
485.71	267.56
486.07	268.18
486.44	268.76
486.80	269.46
487.17	270.19
487.53	270.99
487.90	271.80
488.26	272.74
488.62	273.71
488.99	274.65
489.35	275.70
489.72	276.81
490.08	277.95
490.44	279.16
490.81	280.52
491.17	281.83
491.54	283.30
491.90	284.85
492.26	286.49
492.63	288.21
492.99	289.97
493.36	291.82
493.72	293.82
494.08	295.88
494.45	298.13
494.81	300.52
495.17	302.97
495.54	305.57
495.90	308.23
496.26	310.96
496.63	313.91
496.99	317.02
497.35	320.26
497.72	323.70
498.08	327.23
498.44	330.89
498.80	334.80
499.17	338.75
499.53	342.92
499.89	347.28
500.26	351.77
500.62	356.41
500.98	361.36
501.34	366.40
501.71	371.77
502.07	377.16
502.43	382.77
502.79	388.54
503.16	394.54
503.52	400.79
503.88	407.23
504.24	413.87
504.60	420.74
504.97	427.81
505.33	435.13
505.69	442.80
506.05	450.55
506.41	458.46
506.78	466.67
507.14	475.05
507.50	483.79
507.86	492.78
508.22	501.99
508.59	511.14
508.95	520.76
509.31	530.50
509.67	540.60
510.03	550.83
510.39	561.39
510.75	572.19
511.12	583.16
511.48	594.42
511.84	605.83
512.20	617.40
512.56	629.39
512.92	641.61
513.28	653.91
513.64	666.34
514.00	679.03
514.37	691.92
514.73	705.01
515.09	718.02
515.45	731.34
515.81	744.94
516.17	758.94
516.53	773.08
516.89	787.22
517.25	801.35
517.61	815.83
517.97	830.29
518.33	844.80
518.69	859.62
519.05	874.67
519.41	889.88
519.77	905.44
520.13	920.98
520.49	936.25
520.85	951.74
521.21	967.55
521.57	983.83
521.93	999.69
522.29	1016.20
522.65	1032.57
523.01	1048.80
523.37	1064.95
523.73	1081.19
524.09	1097.27
524.45	1113.71
524.81	1130.49
525.17	1147.48
525.53	1164.50
525.89	1181.37
526.25	1198.19
526.61	1214.62
526.97	1231.45
527.33	1247.96
527.68	1264.62
528.04	1281.31
528.40	1298.07
528.76	1315.23
529.12	1331.90
529.48	1348.88
529.84	1364.82
530.20	1381.47
530.56	1398.66
530.91	1415.99
531.27	1432.99
531.63	1449.54
531.99	1466.18
532.35	1482.23
532.71	1498.02
533.07	1514.41
533.42	1530.36
533.78	1546.52
534.14	1562.90
534.50	1578.21
534.86	1594.15
535.21	1609.35
535.57	1625.35
535.93	1640.82
536.29	1655.63
536.65	1670.94
537.00	1685.89
537.36	1701.38
537.72	1715.98
538.08	1730.35
538.44	1744.35
538.79	1758.26
539.15	1772.18
539.51	1786.02
539.87	1800.52
540.22	1814.44
540.58	1828.22
540.94	1841.85
541.29	1854.81
541.65	1867.55
542.01	1881.20
542.37	1893.72
542.72	1906.20
543.08	1917.97
543.44	1930.55
543.79	1941.86
544.15	1952.70
544.51	1964.28
544.87	1975.21
545.22	1986.06
545.58	1996.45
545.94	2006.16
546.29	2016.02
546.65	2025.74
547.01	2034.97
547.36	2043.66
547.72	2052.25
548.07	2060.13
548.43	2068.27
548.79	2076.28
549.14	2083.97
549.50	2091.16
549.86	2098.75
550.21	2106.12
550.57	2113.32
550.92	2119.90
551.28	2127.04
551.64	2134.23
551.99	2140.72
552.35	2146.98
552.70	2153.13
553.06	2159.01
553.41	2165.38
553.77	2171.40
554.13	2177.53
554.48	2183.68
554.84	2189.08
555.19	2194.30
555.55	2199.27
555.90	2203.77
556.26	2208.56
556.61	2213.13
556.97	2217.25
557.32	2221.45
557.68	2225.57
558.03	2229.89
558.39	2233.55
558.74	2238.04
559.10	2241.82
559.45	2245.35
559.81	2249.63
560.16	2253.42
560.52	2256.68
560.87	2260.14
561.23	2262.79
561.58	2265.76
561.94	2268.20
562.29	2270.55
562.64	2273.26
563.00	2275.99
563.35	2279.45
563.71	2282.65
564.06	2285.94
564.42	2288.83
564.77	2291.17
565.12	2293.38
565.48	2295.14
565.83	2296.80
566.19	2298.00
566.54	2298.87
566.89	2299.98
567.25	2300.42
567.60	2301.64
567.96	2303.08
568.31	2303.65
568.66	2304.47
569.02	2304.78
569.37	2304.99
569.72	2305.66
570.08	2305.45
570.43	2305.21
570.78	2304.29
571.14	2302.62
571.49	2300.88
571.84	2300.37
572.20	2299.03
572.55	2297.83
572.90	2296.14
573.26	2294.55
573.61	2292.80
573.96	2290.69
574.31	2287.59
574.67	2284.43
575.02	2280.76
575.37	2277.33
575.72	2273.38
576.08	2270.15
576.43	2266.82
576.78	2262.96
577.13	2259.61
577.49	2256.50
577.84	2253.04
578.19	2249.17
578.54	2245.33
578.90	2241.11
579.25	2235.44
579.60	2230.30
579.95	2225.14
580.30	2220.01
580.66	2214.91
581.01	2209.84
581.36	2204.96
581.71	2200.59
582.06	2195.94
582.42	2191.21
582.77	2185.78
583.12	2181.20
583.47	2176.15
583.82	2170.90
584.17	2165.69
584.53	2160.09
584.88	2154.27
585.23	2148.23
585.58	2142.71
585.93	2137.23
586.28	2132.40
586.63	2127.09
586.98	2122.10
587.34	2117.23
587.69	2112.20
588.04	2106.82
588.39	2100.96
588.74	2094.41
589.09	2088.13
589.44	2081.30
589.79	2075.15
590.14	2069.48
590.49	2062.76
590.84	2056.32
591.19	2050.22
591.54	2043.56
591.89	2035.97
592.25	2029.01
592.60	2021.80
592.95	2014.12
593.30	2006.54
593.65	1998.78
594.00	1991.73
594.35	1984.44
594.70	1976.42
595.05	1969.11
595.40	1961.77
595.75	1954.36
596.10	1948.07
596.45	1941.26
596.80	1934.96
597.15	1928.19
597.50	1920.91
597.85	1914.49
598.19	1907.76
598.54	1900.64
598.89	1894.05
599.24	1888.22
599.59	1881.52
599.94	1875.17
600.29	1868.65
600.64	1862.06
600.99	1854.54
601.34	1847.64
601.69	1840.49
602.04	1833.40
602.39	1825.96
602.74	1819.06
603.08	1812.14
603.43	1805.27
603.78	1797.93
604.13	1790.71
604.48	1783.43
604.83	1776.72
605.18	1769.69
605.53	1761.65
605.87	1753.65
606.22	1746.28
606.57	1738.25
606.92	1730.99
607.27	1723.81
607.62	1717.02
607.96	1709.67
608.31	1703.00
608.66	1695.30
609.01	1687.74
609.36	1680.33
609.70	1672.56
610.05	1664.44
610.40	1656.79
610.75	1648.46
611.10	1640.92
611.44	1632.74
611.79	1624.86
612.14	1616.09
612.49	1606.91
612.83	1598.63
613.18	1590.43
613.53	1582.43
613.88	1573.91
614.22	1565.58
614.57	1557.12
614.92	1549.08
615.27	1541.60
615.61	1533.27
615.96	1525.35
616.31	1517.88
616.65	1510.41
617.00	1502.69
617.35	1495.09
617.70	1486.74
618.04	1478.24
618.39	1469.87
618.74	1462.17
619.08	1453.88
619.43	1446.43
619.78	1439.64
620.12	1432.41
620.47	1424.95
620.82	1416.87
621.16	1409.57
621.51	1402.05
621.85	1394.37
622.20	1385.93
622.55	1377.65
622.89	1370.01
623.24	1362.45
623.59	1354.91
623.93	1347.46
624.28	1340.27
624.62	1332.75
624.97	1325.60
625.32	1318.81
625.66	1311.87
626.01	1304.63
626.35	1297.23
626.70	1289.45
627.04	1281.65
627.39	1274.01
627.73	1266.61
628.08	1259.64
628.43	1252.26
628.77	1244.89
629.12	1237.37
629.46	1230.19
629.81	1222.89
630.15	1215.72
630.50	1208.38
630.84	1200.34
631.19	1192.52
631.53	1185.11
631.88	1177.61
632.22	1170.05
632.57	1162.95
632.91	1155.52
633.26	1148.15
633.60	1140.72
633.95	1133.70
634.29	1126.72
634.64	1119.98
634.98	1112.63
635.32	1105.62
635.67	1099.24
636.01	1092.68
636.36	1085.90
636.70	1079.47
637.05	1072.93
637.39	1066.41
637.73	1059.95
638.08	1054.07
638.42	1048.12
638.77	1041.72
639.11	1035.16
639.45	1028.87
639.80	1022.17
640.14	1015.78
640.49	1009.39
640.83	1003.16
641.17	997.00
641.52	990.69
641.86	984.34
642.20	978.60
642.55	972.35
642.89	965.83
643.23	959.34
643.58	953.55
643.92	947.26
644.26	941.14
644.61	935.17
644.95	929.06
645.29	922.60
645.64	915.90
645.98	909.60
646.32	903.83
646.66	897.71
647.01	891.98
647.35	886.27
647.69	880.42
648.04	875.02
648.38	869.18
648.72	863.15
649.06	857.14
649.41	851.30
649.75	845.31
650.09	839.44
650.43	833.55
650.78	827.42
651.12	821.50
651.46	815.76
651.80	809.99
652.14	804.63
652.49	799.17
652.83	793.96
653.17	788.25
653.51	782.51
653.85	777.23
654.20	771.62
654.54	765.66
654.88	759.97
655.22	754.04
655.56	748.40
655.90	743.07
656.25	737.73
656.59	732.42
656.93	727.30
657.27	722.14
657.61	716.84
657.95	711.79
658.29	706.80
658.64	701.61
658.98	696.38
659.32	690.97
659.66	685.69
660.00	680.42
660.34	675.45
660.68	670.53
661.02	665.42
661.36	660.69
661.70	656.16
662.05	651.80
662.39	647.50
662.73	643.06
663.07	638.67
663.41	634.31
663.75	629.76
664.09	625.19
664.43	620.81
664.77	616.69
665.11	612.47
665.45	608.31
665.79	604.23
666.13	600.07
666.47	596.05
666.81	591.94
667.15	587.83
667.49	583.94
667.83	580.17
668.17	576.34
668.51	572.28
668.85	568.32
669.19	564.43
669.53	560.55
669.87	556.68
670.21	552.97
670.55	549.36
670.89	545.94
671.23	542.59
671.57	539.10
671.91	535.52
672.25	532.15
672.58	528.71
672.92	525.40
673.26	522.29
673.60	519.15
673.94	516.13
674.28	513.28
674.62	510.33
674.96	507.28
675.30	504.36
675.64	501.51
675.97	498.74
676.31	495.93
676.65	493.04
676.99	490.35
677.33	487.57
677.67	484.83
678.01	481.85
678.34	478.84
678.68	475.98
679.02	473.25
679.36	470.47
679.70	467.76
680.04	464.93
680.37	462.05
680.71	459.32
681.05	456.80
681.39	454.13
681.73	451.52
682.06	449.02
682.40	446.47
682.74	443.97
683.08	441.45
683.42	438.83
683.75	436.38
684.09	433.89
684.43	431.36
684.77	428.88
685.10	426.57
685.44	424.33
685.78	422.04
686.12	419.76
686.45	417.49
686.79	415.20
687.13	413.06
687.46	410.93
687.80	408.80
688.14	406.58
688.48	404.54
688.81	402.33
689.15	400.17
689.49	398.03
689.82	395.97
690.16	393.94
690.50	392.05
690.83	390.16
691.17	388.17
691.51	386.34
691.84	384.54
692.18	382.62
692.52	380.64
692.85	378.78
693.19	376.89
693.52	375.07
693.86	373.29
694.20	371.52
694.53	369.69
694.87	367.85
695.21	366.04
695.54	364.23
695.88	362.53
696.21	360.83
696.55	359.18
696.88	357.50
697.22	355.86
697.56	354.23
697.89	352.50
698.23	350.90
698.56	349.27
698.90	347.66
699.23	345.97
699.57	344.42
699.90	342.89
700.24	341.35
700.58	339.80
700.91	338.31
701.25	336.90
701.58	335.57
701.92	334.19
702.25	332.82
702.59	331.42
702.92	330.13
703.26	328.83
703.59	327.54
703.93	326.33
704.26	325.05
704.60	323.80
704.93	322.57
705.26	321.32
705.60	320.14
705.93	318.95
706.27	317.93
706.60	316.88
706.94	315.78
707.27	314.64
707.61	313.60
707.94	312.59
708.27	311.46
708.61	310.40
708.94	309.38
709.28	308.39
709.61	307.43
709.94	306.47
710.28	305.41
710.61	304.45
710.95	303.35
711.28	302.46
711.61	301.48
711.95	300.53
712.28	299.59
712.61	298.63
712.95	297.71
713.28	296.82
713.61	295.94
713.95	295.02
714.28	294.24
714.61	293.36
714.95	292.47
715.28	291.65
715.61	290.77
715.95	289.89
716.28	289.03
716.61	288.22
716.95	287.37
717.28	286.66
717.61	285.90
717.94	285.19
718.28	284.38
718.61	283.67
718.94	283.05
719.27	282.41
719.61	281.79
719.94	281.15
720.27	280.46
720.60	279.81
720.94	279.22
721.27	278.65
721.60	278.11
721.93	277.57
722.27	277.03
722.60	276.53
722.93	276.00
723.26	275.50
723.59	274.95
723.93	274.47
724.26	273.92
724.59	273.39
724.92	272.91
725.25	272.40
725.59	271.91
725.92	271.41
726.25	270.90
726.58	270.44
726.91	269.99
727.24	269.54
727.57	269.10
727.91	268.64
728.24	268.19
728.57	267.73
728.90	267.25
729.23	266.77
729.56	266.34
729.89	265.88
730.22	265.36
730.55	264.90
730.89	264.45
731.22	264.02
731.55	263.59
731.88	263.16
732.21	262.77
732.54	262.36
732.87	261.92
733.20	261.53
733.53	261.10
733.86	260.71
734.19	260.29
734.52	259.87
734.85	259.54
735.18	259.09
735.51	258.74
735.84	258.40
736.17	258.04
736.50	257.64
736.83	257.38
737.16	257.10
737.49	256.76
737.82	256.37
738.15	256.02
738.48	255.67
738.81	255.32
739.14	255.00
739.47	254.67
739.80	254.34
740.13	254.03
740.46	253.70
740.79	253.38
741.12	253.06
741.45	252.73
741.78	252.33
742.11	252.07
742.44	251.66
742.77	251.34
743.10	251.00
743.43	250.69
743.75	250.31
744.08	250.16
744.41	249.85
744.74	249.60
745.07	249.30
745.40	249.06
745.73	248.85
746.06	248.54
746.39	248.28
746.71	248.00
747.04	247.70
747.37	247.46
747.70	247.20
748.03	246.95
748.36	246.70
748.68	246.47
749.01	246.20
749.34	246.02
749.67	245.77
750.00	245.56
750.33	245.40
750.65	245.17
750.98	244.82
751.31	244.64
751.64	244.44
751.97	244.27
752.29	244.05
752.62	243.81
752.95	243.63
753.28	243.42
753.60	243.24
753.93	243.09
754.26	242.87
754.59	242.62
754.91	242.41
755.24	242.24
755.57	242.09
755.90	241.93
756.22	241.73
756.55	241.55
756.88	241.34
757.20	241.10
757.53	240.93
757.86	240.74
758.19	240.56
758.51	240.38
758.84	240.15
759.17	239.99
759.49	239.86
759.82	239.71
760.15	239.57
760.47	239.43
760.80	239.27
761.13	239.14
761.45	239.01
761.78	238.91
762.11	238.81
762.43	238.65
762.76	238.50
763.08	238.34
763.41	238.25
763.74	238.14
764.06	238.00
764.39	237.85
764.71	237.73
765.04	237.60
765.37	237.51
765.69	237.41
766.02	237.27
766.34	237.10
766.67	236.98
767.00	236.86
767.32	236.79
767.65	236.74
767.97	236.61
768.30	236.53
768.62	236.42
768.95	236.29
769.27	236.19
769.60	236.12
769.92	236.03
770.25	235.88
770.57	235.77
770.90	235.67
771.22	235.55
771.55	235.45
771.87	235.35
772.20	235.24
772.52	235.25
772.85	235.26
773.17	235.17
773.50	235.04
773.82	234.92
774.15	234.77
774.47	234.60
774.80	234.52
775.12	234.39
775.45	234.29
775.77	234.16
776.09	234.08
776.42	233.98
776.74	233.90
777.07	233.81
777.39	233.74
777.72	233.65
778.04	233.61
778.36	233.50
778.69	233.44
779.01	233.36
779.33	233.20
779.66	232.98
779.98	232.91
780.31	232.84
780.63	232.81
780.95	232.77
781.28	232.73
781.60	232.65
781.92	232.57
782.25	232.48
782.57	232.45
782.89	232.37
783.22	232.28
783.54	232.20
783.86	232.15
784.19	232.08
784.51	232.05
784.83	231.97
785.16	231.95
785.48	231.90
785.80	231.84
786.12	231.78
786.45	231.75
786.77	231.73
787.09	231.68
