SpectraSuite Data File
++++++++++++++++++++++++++++++++++++
Date: Fri Feb 01 16:48:37 EST 2013
User: group
Dark Spectrum Present: No
Reference Spectrum Present: No
Number of Sampled Component Spectra: 1
Spectrometers: USB2E7196
Integration Time (usec): 35000 (USB2E7196)
Spectra Averaged: 100 (USB2E7196)
Boxcar Smoothing: 10 (USB2E7196)
Correct for Electrical Dark: No (USB2E7196)
Strobe/Lamp Enabled: No (USB2E7196)
Correct for Detector Non-linearity: No (USB2E7196)
Correct for Stray Light: No (USB2E7196)
Number of Pixels in Processed Spectrum: 2048
>>>>>Begin Processed Spectral Data<<<<<
339.09	0.00
339.48	212.39
339.86	214.88
340.24	216.09
340.63	217.34
341.01	220.02
341.39	220.28
341.78	221.73
342.16	223.11
342.54	223.29
342.93	211.77
343.31	222.48
343.69	223.06
344.07	223.51
344.46	223.93
344.84	224.31
345.22	224.55
345.60	224.77
345.99	224.95
346.37	225.06
346.75	225.17
347.13	225.20
347.52	225.23
347.90	225.30
348.28	225.33
348.66	225.40
349.05	225.40
349.43	225.41
349.81	225.41
350.19	225.42
350.57	225.49
350.96	225.57
351.34	225.65
351.72	225.73
352.10	225.82
352.48	225.90
352.87	225.97
353.25	226.05
353.63	226.14
354.01	226.22
354.39	226.29
354.77	226.36
355.15	226.46
355.54	226.52
355.92	226.55
356.30	226.63
356.68	226.75
357.06	226.82
357.44	226.87
357.82	226.95
358.20	227.05
358.58	227.10
358.97	227.16
359.35	227.23
359.73	227.34
360.11	227.38
360.49	227.44
360.87	227.49
361.25	227.56
361.63	227.62
362.01	227.66
362.39	227.69
362.77	227.75
363.15	227.79
363.53	227.84
363.91	227.88
364.29	227.90
364.67	227.84
365.05	227.87
365.43	227.90
365.81	227.92
366.19	227.94
366.57	227.95
366.95	227.95
367.33	227.91
367.71	227.88
368.09	227.90
368.47	227.88
368.85	227.83
369.23	227.82
369.61	227.75
369.99	227.73
370.37	227.72
370.75	227.69
371.13	227.61
371.51	227.52
371.89	227.47
372.27	227.42
372.65	227.40
373.03	227.28
373.41	227.24
373.78	227.16
374.16	227.07
374.54	226.99
374.92	226.89
375.30	226.84
375.68	226.75
376.06	226.68
376.44	226.60
376.82	226.55
377.19	226.46
377.57	226.40
377.95	226.32
378.33	226.24
378.71	226.14
379.09	226.08
379.47	226.08
379.84	226.00
380.22	225.96
380.60	225.87
380.98	225.83
381.36	225.75
381.73	225.71
382.11	225.66
382.49	225.59
382.87	225.53
383.25	225.49
383.62	225.56
384.00	225.51
384.38	225.49
384.76	225.44
385.13	225.44
385.51	225.40
385.89	225.34
386.27	225.29
386.64	225.24
387.02	225.18
387.40	225.12
387.78	225.10
388.15	225.05
388.53	225.03
388.91	225.01
389.29	224.95
389.66	224.94
390.04	224.89
390.42	224.92
390.79	224.96
391.17	224.96
391.55	224.82
391.92	224.80
392.30	224.79
392.68	224.82
393.05	224.80
393.43	224.81
393.81	224.82
394.18	224.81
394.56	224.84
394.94	224.89
395.31	224.91
395.69	224.95
396.06	225.03
396.44	225.05
396.82	225.08
397.19	225.21
397.57	225.20
397.95	225.27
398.32	225.30
398.70	225.32
399.07	225.37
399.45	225.44
399.82	225.51
400.20	225.56
400.58	225.61
400.95	225.65
401.33	225.73
401.70	225.89
402.08	226.01
402.45	226.13
402.83	226.24
403.20	226.33
403.58	226.40
403.95	226.52
404.33	226.62
404.71	226.75
405.08	226.90
405.46	227.07
405.83	227.19
406.21	227.32
406.58	227.47
406.96	227.62
407.33	227.78
407.70	227.98
408.08	228.22
408.45	228.43
408.83	228.66
409.20	228.89
409.58	229.07
409.95	229.31
410.33	229.54
410.70	229.79
411.08	230.04
411.45	230.31
411.82	230.58
412.20	230.92
412.57	231.32
412.95	231.60
413.32	231.99
413.69	232.38
414.07	232.80
414.44	233.27
414.82	233.75
415.19	234.27
415.56	234.83
415.94	235.35
416.31	235.98
416.68	236.61
417.06	237.31
417.43	237.94
417.81	238.66
418.18	239.45
418.55	240.27
418.93	241.17
419.30	242.08
419.67	243.06
420.04	244.01
420.42	244.97
420.79	246.16
421.16	247.32
421.54	248.54
421.91	249.73
422.28	250.98
422.66	252.31
423.03	253.61
423.40	254.92
423.77	256.35
424.15	257.75
424.52	259.22
424.89	260.85
425.26	262.41
425.64	263.89
426.01	265.49
426.38	267.11
426.75	268.78
427.13	270.50
427.50	272.22
427.87	274.10
428.24	275.97
428.61	277.67
428.99	279.56
429.36	281.62
429.73	283.70
430.10	285.69
430.47	287.73
430.85	289.83
431.22	292.05
431.59	294.40
431.96	296.63
432.33	299.07
432.70	301.39
433.08	304.20
433.45	306.80
433.82	309.37
434.19	312.28
434.56	315.03
434.93	317.67
435.30	320.33
435.68	323.21
436.05	326.01
436.42	328.81
436.79	331.30
437.16	333.96
437.53	336.77
437.90	339.57
438.27	342.27
438.64	345.03
439.01	347.56
439.38	349.74
439.75	351.91
440.13	354.39
440.50	356.67
440.87	358.47
441.24	360.37
441.61	362.51
441.98	364.02
442.35	365.81
442.72	367.65
443.09	369.40
443.46	370.36
443.83	370.94
444.20	371.46
444.57	372.30
444.94	372.61
445.31	372.97
445.68	373.32
446.05	373.45
446.42	373.14
446.79	372.79
447.16	372.38
447.53	372.05
447.90	370.89
448.27	369.80
448.64	368.26
449.01	367.20
449.37	365.27
449.74	363.35
450.11	361.23
450.48	358.77
450.85	356.32
451.22	354.24
451.59	352.23
451.96	350.36
452.33	347.78
452.70	345.48
453.07	342.67
453.43	339.80
453.80	337.07
454.17	334.42
454.54	331.90
454.91	329.24
455.28	326.64
455.65	324.18
456.02	321.78
456.38	319.63
456.75	316.99
457.12	314.79
457.49	312.64
457.86	310.46
458.23	308.63
458.59	306.57
458.96	304.51
459.33	302.72
459.70	300.82
460.07	299.37
460.43	297.62
460.80	296.04
461.17	294.64
461.54	293.14
461.91	291.76
462.27	290.28
462.64	289.05
463.01	287.71
463.38	286.46
463.74	285.10
464.11	283.99
464.48	282.94
464.85	281.81
465.21	280.93
465.58	280.00
465.95	278.92
466.32	278.01
466.68	277.07
467.05	276.13
467.42	275.26
467.78	274.33
468.15	273.49
468.52	272.82
468.88	271.97
469.25	271.18
469.62	270.57
469.98	269.92
470.35	269.26
470.72	268.68
471.08	268.03
471.45	267.47
471.82	266.90
472.18	266.34
472.55	265.88
472.92	265.37
473.28	264.89
473.65	264.49
474.02	264.04
474.38	263.73
474.75	263.43
475.11	263.07
475.48	262.84
475.85	262.62
476.21	262.38
476.58	262.20
476.94	262.07
477.31	261.88
477.67	261.75
478.04	261.63
478.41	261.56
478.77	261.59
479.14	261.54
479.50	261.56
479.87	261.65
480.23	261.78
480.60	261.84
480.96	261.99
481.33	262.20
481.69	262.41
482.06	262.58
482.42	262.80
482.79	263.09
483.15	263.40
483.52	263.76
483.88	264.13
484.25	264.50
484.61	264.89
484.98	265.33
485.34	265.89
485.71	266.51
486.07	267.14
486.44	267.70
486.80	268.40
487.17	269.18
487.53	270.03
487.90	270.87
488.26	271.80
488.62	272.76
488.99	273.70
489.35	274.75
489.72	275.89
490.08	277.08
490.44	278.30
490.81	279.65
491.17	281.02
491.54	282.47
491.90	284.02
492.26	285.68
492.63	287.46
492.99	289.22
493.36	291.11
493.72	293.12
494.08	295.24
494.45	297.48
494.81	299.82
495.17	302.22
495.54	304.78
495.90	307.46
496.26	310.22
496.63	313.16
496.99	316.29
497.35	319.53
497.72	322.93
498.08	326.42
498.44	330.08
498.80	334.00
499.17	338.04
499.53	342.20
499.89	346.62
500.26	351.07
500.62	355.78
500.98	360.66
501.34	365.74
501.71	371.01
502.07	376.42
502.43	381.97
502.79	387.72
503.16	393.74
503.52	400.01
503.88	406.40
504.24	412.99
504.60	419.78
504.97	426.89
505.33	434.18
505.69	441.95
506.05	449.70
506.41	457.56
506.78	465.64
507.14	474.04
507.50	482.64
507.86	491.63
508.22	500.72
508.59	509.95
508.95	519.42
509.31	529.28
509.67	539.33
510.03	549.56
510.39	560.05
510.75	570.81
511.12	581.66
511.48	592.88
511.84	604.34
512.20	615.85
512.56	627.75
512.92	639.78
513.28	652.05
513.64	664.43
514.00	677.06
514.37	689.98
514.73	702.89
515.09	715.94
515.45	729.09
515.81	742.67
516.17	756.60
516.53	770.72
516.89	784.67
517.25	798.76
517.61	813.10
517.97	827.52
518.33	841.83
518.69	856.46
519.05	871.28
519.41	886.35
519.77	901.69
520.13	917.03
520.49	932.36
520.85	947.52
521.21	963.00
521.57	979.04
521.93	994.69
522.29	1010.83
522.65	1026.86
523.01	1042.97
523.37	1058.82
523.73	1074.81
524.09	1090.78
524.45	1106.95
524.81	1123.44
525.17	1140.01
525.53	1156.61
525.89	1173.28
526.25	1190.04
526.61	1206.30
526.97	1222.80
527.33	1239.23
527.68	1255.48
528.04	1271.68
528.40	1288.15
528.76	1305.14
529.12	1321.66
529.48	1338.40
529.84	1354.37
530.20	1370.87
530.56	1387.65
530.91	1404.83
531.27	1421.42
531.63	1437.62
531.99	1454.02
532.35	1469.88
532.71	1485.53
533.07	1501.66
533.42	1517.32
533.78	1533.24
534.14	1549.32
534.50	1564.49
534.86	1579.94
535.21	1595.03
535.57	1610.84
535.93	1626.10
536.29	1640.63
536.65	1655.34
537.00	1669.76
537.36	1684.88
537.72	1699.08
538.08	1713.31
538.44	1726.87
538.79	1740.60
539.15	1754.01
539.51	1767.53
539.87	1781.64
540.22	1795.28
540.58	1808.68
540.94	1821.78
541.29	1834.15
541.65	1846.64
542.01	1859.65
542.37	1871.95
542.72	1884.22
543.08	1895.86
543.44	1908.11
543.79	1919.35
544.15	1930.17
544.51	1941.58
544.87	1952.32
545.22	1963.20
545.58	1973.19
545.94	1982.85
546.29	1992.53
546.65	2002.19
547.01	2011.39
547.36	2019.92
547.72	2028.27
548.07	2036.34
548.43	2044.46
548.79	2052.48
549.14	2060.03
549.50	2067.25
549.86	2074.64
550.21	2081.77
550.57	2088.92
550.92	2095.44
551.28	2102.43
551.64	2109.52
551.99	2116.09
552.35	2122.33
552.70	2128.34
553.06	2134.45
553.41	2140.73
553.77	2146.63
554.13	2152.71
554.48	2158.84
554.84	2164.36
555.19	2169.46
555.55	2174.41
555.90	2178.92
556.26	2183.89
556.61	2188.44
556.97	2192.86
557.32	2197.26
557.68	2201.51
558.03	2205.74
558.39	2209.30
558.74	2213.78
559.10	2217.60
559.45	2221.26
559.81	2225.40
560.16	2229.24
560.52	2232.39
560.87	2235.81
561.23	2238.52
561.58	2241.39
561.94	2244.05
562.29	2246.34
562.64	2249.40
563.00	2252.10
563.35	2255.55
563.71	2258.79
564.06	2262.08
564.42	2264.89
564.77	2267.40
565.12	2269.79
565.48	2271.81
565.83	2273.92
566.19	2275.29
566.54	2276.32
566.89	2277.53
567.25	2278.35
567.60	2279.53
567.96	2281.37
568.31	2282.31
568.66	2283.64
569.02	2284.42
569.37	2284.73
569.72	2285.86
570.08	2286.14
570.43	2286.25
570.78	2286.01
571.14	2284.65
571.49	2283.39
571.84	2283.09
572.20	2282.09
572.55	2281.13
572.90	2279.54
573.26	2278.29
573.61	2276.64
573.96	2275.16
574.31	2272.37
574.67	2269.39
575.02	2265.92
575.37	2262.61
575.72	2258.94
576.08	2255.59
576.43	2252.18
576.78	2248.72
577.13	2245.41
577.49	2242.03
577.84	2238.67
578.19	2234.91
578.54	2231.33
578.90	2227.43
579.25	2222.10
579.60	2217.37
579.95	2212.48
580.30	2207.66
580.66	2202.52
581.01	2197.57
581.36	2192.61
581.71	2188.60
582.06	2184.35
582.42	2180.18
582.77	2175.09
583.12	2170.77
583.47	2166.31
583.82	2161.73
584.17	2156.54
584.53	2151.25
584.88	2146.00
585.23	2140.34
585.58	2134.90
585.93	2129.49
586.28	2124.65
586.63	2119.89
586.98	2114.81
587.34	2109.99
587.69	2105.13
588.04	2100.06
588.39	2094.60
588.74	2088.14
589.09	2082.01
589.44	2075.43
589.79	2069.28
590.14	2063.69
590.49	2057.15
590.84	2050.71
591.19	2044.71
591.54	2038.23
591.89	2031.26
592.25	2024.74
592.60	2017.77
592.95	2010.48
593.30	2003.29
593.65	1995.67
594.00	1988.60
594.35	1981.41
594.70	1973.55
595.05	1966.67
595.40	1959.44
595.75	1952.14
596.10	1946.15
596.45	1939.59
596.80	1933.55
597.15	1927.24
597.50	1920.44
597.85	1914.02
598.19	1907.62
598.54	1900.76
598.89	1894.41
599.24	1888.40
599.59	1881.70
599.94	1875.48
600.29	1868.99
600.64	1862.44
600.99	1855.25
601.34	1848.57
601.69	1841.61
602.04	1834.98
602.39	1827.66
602.74	1821.02
603.08	1814.44
603.43	1807.84
603.78	1800.60
604.13	1793.32
604.48	1786.09
604.83	1779.28
605.18	1772.59
605.53	1764.66
605.87	1756.76
606.22	1749.43
606.57	1741.54
606.92	1734.08
607.27	1727.05
607.62	1720.50
607.96	1713.41
608.31	1707.11
608.66	1699.52
609.01	1692.17
609.36	1684.74
609.70	1676.75
610.05	1668.72
610.40	1661.10
610.75	1652.82
611.10	1645.23
611.44	1636.78
611.79	1628.78
612.14	1620.13
612.49	1610.93
612.83	1602.43
613.18	1594.21
613.53	1586.19
613.88	1577.63
614.22	1569.45
614.57	1560.73
614.92	1552.75
615.27	1545.31
615.61	1537.00
615.96	1529.04
616.31	1521.28
616.65	1513.82
617.00	1506.41
617.35	1498.69
617.70	1490.42
618.04	1482.02
618.39	1473.81
618.74	1466.43
619.08	1458.22
619.43	1450.70
619.78	1443.76
620.12	1436.72
620.47	1429.32
620.82	1421.09
621.16	1413.65
621.51	1406.04
621.85	1398.50
622.20	1389.81
622.55	1381.32
622.89	1373.37
623.24	1365.55
623.59	1358.21
623.93	1350.78
624.28	1343.37
624.62	1335.89
624.97	1328.81
625.32	1321.88
625.66	1314.80
626.01	1307.60
626.35	1300.27
626.70	1292.40
627.04	1284.76
627.39	1276.96
627.73	1269.53
628.08	1262.64
628.43	1255.49
628.77	1248.30
629.12	1240.78
629.46	1233.68
629.81	1226.18
630.15	1218.94
630.50	1211.72
630.84	1203.66
631.19	1195.61
631.53	1188.11
631.88	1180.57
632.22	1172.81
632.57	1165.51
632.91	1157.99
633.26	1150.69
633.60	1143.18
633.95	1136.04
634.29	1128.85
634.64	1122.14
634.98	1114.82
635.32	1107.71
635.67	1101.06
636.01	1094.29
636.36	1087.52
636.70	1081.04
637.05	1074.57
637.39	1068.09
637.73	1061.60
638.08	1055.73
638.42	1049.79
638.77	1043.47
639.11	1036.98
639.45	1030.68
639.80	1024.03
640.14	1017.64
640.49	1011.09
640.83	1004.83
641.17	998.73
641.52	992.52
641.86	986.07
642.20	980.12
642.55	973.84
642.89	967.44
643.23	960.95
643.58	955.22
643.92	949.17
644.26	943.26
644.61	937.13
644.95	931.14
645.29	924.64
645.64	917.96
645.98	911.56
646.32	905.63
646.66	899.54
647.01	893.80
647.35	888.12
647.69	882.23
648.04	876.68
648.38	870.95
648.72	865.06
649.06	859.14
649.41	853.26
649.75	847.34
650.09	841.37
650.43	835.62
650.78	829.48
651.12	823.46
651.46	817.66
651.80	812.05
652.14	806.60
652.49	801.21
652.83	796.05
653.17	790.46
653.51	784.82
653.85	779.39
654.20	773.85
654.54	767.84
654.88	762.05
655.22	756.13
655.56	750.36
655.90	744.82
656.25	739.51
656.59	734.20
656.93	729.08
657.27	723.99
657.61	718.49
657.95	713.40
658.29	708.27
658.64	702.94
658.98	697.63
659.32	692.18
659.66	686.93
660.00	681.62
660.34	676.67
660.68	671.68
661.02	666.68
661.36	661.94
661.70	657.48
662.05	653.13
662.39	648.89
662.73	644.36
663.07	639.99
663.41	635.59
663.75	631.13
664.09	626.55
664.43	622.10
664.77	618.07
665.11	613.79
665.45	609.66
665.79	605.64
666.13	601.53
666.47	597.41
666.81	593.27
667.15	589.18
667.49	585.23
667.83	581.43
668.17	577.47
668.51	573.45
668.85	569.39
669.19	565.53
669.53	561.69
669.87	557.94
670.21	554.24
670.55	550.51
670.89	547.12
671.23	543.75
671.57	540.23
671.91	536.71
672.25	533.25
672.58	529.70
672.92	526.20
673.26	522.97
673.60	519.85
673.94	516.72
674.28	513.79
674.62	510.84
674.96	507.76
675.30	504.93
675.64	501.98
675.97	499.20
676.31	496.34
676.65	493.41
676.99	490.64
677.33	487.75
677.67	485.00
678.01	481.95
678.34	478.95
678.68	476.10
679.02	473.25
679.36	470.43
679.70	467.73
680.04	465.06
680.37	462.28
680.71	459.45
681.05	456.85
681.39	454.09
681.73	451.44
682.06	448.90
682.40	446.32
682.74	443.75
683.08	441.20
683.42	438.61
683.75	436.08
684.09	433.49
684.43	431.08
684.77	428.60
685.10	426.22
685.44	423.90
685.78	421.62
686.12	419.38
686.45	417.10
686.79	414.82
687.13	412.57
687.46	410.37
687.80	408.21
688.14	405.93
688.48	403.88
688.81	401.64
689.15	399.46
689.49	397.28
689.82	395.19
690.16	393.13
690.50	391.13
690.83	389.23
691.17	387.26
691.51	385.28
691.84	383.42
692.18	381.49
692.52	379.59
692.85	377.60
693.19	375.75
693.52	373.89
693.86	372.07
694.20	370.26
694.53	368.47
694.87	366.63
695.21	364.89
695.54	363.05
695.88	361.34
696.21	359.61
696.55	357.94
696.88	356.27
697.22	354.61
697.56	353.02
697.89	351.37
698.23	349.78
698.56	348.22
698.90	346.68
699.23	345.10
699.57	343.50
699.90	342.01
700.24	340.38
700.58	338.89
700.91	337.44
701.25	336.06
701.58	334.68
701.92	333.31
702.25	331.93
702.59	330.61
702.92	329.32
703.26	328.07
703.59	326.80
703.93	325.59
704.26	324.33
704.60	323.04
704.93	321.76
705.26	320.54
705.60	319.31
705.93	318.12
706.27	317.06
706.60	316.03
706.94	314.94
707.27	313.90
707.61	312.82
707.94	311.75
708.27	310.61
708.61	309.53
708.94	308.53
709.28	307.60
709.61	306.62
709.94	305.62
710.28	304.57
710.61	303.57
710.95	302.50
711.28	301.55
711.61	300.59
711.95	299.71
712.28	298.76
712.61	297.83
712.95	296.88
713.28	295.98
713.61	295.06
713.95	294.14
714.28	293.26
714.61	292.42
714.95	291.58
715.28	290.75
715.61	289.88
715.95	289.01
716.28	288.11
716.61	287.24
716.95	286.41
717.28	285.65
717.61	284.89
717.94	284.15
718.28	283.38
718.61	282.66
718.94	281.91
719.27	281.26
719.61	280.60
719.94	279.94
720.27	279.21
720.60	278.55
720.94	277.94
721.27	277.32
721.60	276.70
721.93	276.10
722.27	275.57
722.60	275.02
722.93	274.42
723.26	273.89
723.59	273.33
723.93	272.80
724.26	272.26
724.59	271.69
724.92	271.20
725.25	270.68
725.59	270.16
725.92	269.63
726.25	269.06
726.58	268.54
726.91	268.04
727.24	267.54
727.57	267.07
727.91	266.56
728.24	266.08
728.57	265.56
728.90	265.07
729.23	264.53
729.56	264.09
729.89	263.65
730.22	263.18
730.55	262.72
730.89	262.24
731.22	261.79
731.55	261.36
731.88	260.89
732.21	260.46
732.54	260.05
732.87	259.63
733.20	259.26
733.53	258.85
733.86	258.49
734.19	258.08
734.52	257.72
734.85	257.40
735.18	256.98
735.51	256.65
735.84	256.29
736.17	255.98
736.50	255.57
736.83	255.35
737.16	254.98
737.49	254.66
737.82	254.34
738.15	254.05
738.48	253.73
738.81	253.39
739.14	253.06
739.47	252.75
739.80	252.47
740.13	252.17
740.46	251.88
740.79	251.50
741.12	251.23
741.45	250.91
741.78	250.59
742.11	250.34
742.44	249.98
742.77	249.72
743.10	249.39
743.43	249.10
743.75	248.70
744.08	248.57
744.41	248.26
744.74	247.98
745.07	247.66
745.40	247.43
745.73	247.23
746.06	246.96
746.39	246.68
746.71	246.41
747.04	246.20
747.37	245.94
747.70	245.73
748.03	245.49
748.36	245.26
748.68	245.00
749.01	244.73
749.34	244.54
749.67	244.31
750.00	244.10
750.33	243.92
750.65	243.74
750.98	243.42
751.31	243.19
751.64	243.00
751.97	242.83
752.29	242.59
752.62	242.32
752.95	242.13
753.28	241.90
753.60	241.68
753.93	241.45
754.26	241.26
754.59	241.04
754.91	240.83
755.24	240.61
755.57	240.42
755.90	240.24
756.22	240.01
756.55	239.81
756.88	239.59
757.20	239.36
757.53	239.14
757.86	238.96
758.19	238.81
758.51	238.64
758.84	238.40
759.17	238.23
759.49	238.03
759.82	237.90
760.15	237.73
760.47	237.58
760.80	237.39
761.13	237.26
761.45	237.07
761.78	236.90
762.11	236.74
762.43	236.57
762.76	236.40
763.08	236.31
763.41	236.16
763.74	236.01
764.06	235.86
764.39	235.70
764.71	235.56
765.04	235.42
765.37	235.25
765.69	235.16
766.02	235.03
766.34	234.93
766.67	234.77
767.00	234.65
767.32	234.57
767.65	234.53
767.97	234.38
768.30	234.29
768.62	234.16
768.95	234.05
769.27	233.95
769.60	233.87
769.92	233.71
770.25	233.56
770.57	233.49
770.90	233.39
771.22	233.31
771.55	233.22
771.87	233.13
772.20	233.05
772.52	233.04
772.85	233.05
773.17	232.96
773.50	232.87
773.82	232.81
774.15	232.70
774.47	232.54
774.80	232.45
775.12	232.37
775.45	232.33
775.77	232.28
776.09	232.17
776.42	232.11
776.74	232.08
777.07	232.04
777.39	231.96
777.72	231.90
778.04	231.85
778.36	231.76
778.69	231.74
779.01	231.69
779.33	231.57
779.66	231.41
779.98	231.35
780.31	231.29
780.63	231.25
780.95	231.21
781.28	231.19
781.60	231.13
781.92	231.11
782.25	231.07
782.57	231.02
782.89	231.02
783.22	230.96
783.54	230.88
783.86	230.83
784.19	230.79
784.51	230.75
784.83	230.70
785.16	230.66
785.48	230.57
785.80	230.50
786.12	230.41
786.45	230.38
786.77	230.35
787.09	230.32
