SpectraSuite Data File
++++++++++++++++++++++++++++++++++++
Date: Fri Feb 01 16:28:38 EST 2013
User: group
Dark Spectrum Present: No
Reference Spectrum Present: No
Number of Sampled Component Spectra: 1
Spectrometers: USB2E7196
Integration Time (usec): 35000 (USB2E7196)
Spectra Averaged: 100 (USB2E7196)
Boxcar Smoothing: 10 (USB2E7196)
Correct for Electrical Dark: No (USB2E7196)
Strobe/Lamp Enabled: No (USB2E7196)
Correct for Detector Non-linearity: No (USB2E7196)
Correct for Stray Light: No (USB2E7196)
Number of Pixels in Processed Spectrum: 2048
>>>>>Begin Processed Spectral Data<<<<<
339.09	0.00
339.48	214.33
339.86	215.57
340.24	217.31
340.63	218.26
341.01	221.59
341.39	220.75
341.78	222.75
342.16	223.56
342.54	223.94
342.93	212.69
343.31	223.47
343.69	224.02
344.07	224.49
344.46	224.90
344.84	225.28
345.22	225.50
345.60	225.76
345.99	225.93
346.37	226.06
346.75	226.16
347.13	226.21
347.52	226.25
347.90	226.31
348.28	226.35
348.66	226.37
349.05	226.34
349.43	226.36
349.81	226.41
350.19	226.41
350.57	226.47
350.96	226.51
351.34	226.55
351.72	226.61
352.10	226.69
352.48	226.78
352.87	226.83
353.25	226.89
353.63	226.94
354.01	226.99
354.39	227.05
354.77	227.13
355.15	227.21
355.54	227.30
355.92	227.33
356.30	227.40
356.68	227.51
357.06	227.59
357.44	227.62
357.82	227.64
358.20	227.72
358.58	227.79
358.97	227.84
359.35	227.91
359.73	227.96
360.11	228.01
360.49	228.01
360.87	228.04
361.25	228.09
361.63	228.19
362.01	228.20
362.39	228.24
362.77	228.25
363.15	228.27
363.53	228.27
363.91	228.30
364.29	228.30
364.67	228.25
365.05	228.23
365.43	228.28
365.81	228.30
366.19	228.34
366.57	228.32
366.95	228.31
367.33	228.27
367.71	228.25
368.09	228.30
368.47	228.29
368.85	228.28
369.23	228.29
369.61	228.17
369.99	228.21
370.37	228.19
370.75	228.22
371.13	228.14
371.51	228.09
371.89	228.04
372.27	228.01
372.65	227.97
373.03	227.94
373.41	227.88
373.78	227.83
374.16	227.74
374.54	227.67
374.92	227.62
375.30	227.58
375.68	227.53
376.06	227.43
376.44	227.42
376.82	227.37
377.19	227.30
377.57	227.26
377.95	227.15
378.33	227.06
378.71	226.94
379.09	226.92
379.47	226.89
379.84	226.84
380.22	226.76
380.60	226.69
380.98	226.62
381.36	226.55
381.73	226.48
382.11	226.46
382.49	226.42
382.87	226.33
383.25	226.24
383.62	226.30
384.00	226.23
384.38	226.15
384.76	226.12
385.13	226.10
385.51	226.06
385.89	226.05
386.27	226.00
386.64	225.98
387.02	225.92
387.40	225.85
387.78	225.79
388.15	225.76
388.53	225.70
388.91	225.67
389.29	225.63
389.66	225.61
390.04	225.59
390.42	225.56
390.79	225.57
391.17	225.57
391.55	225.46
391.92	225.43
392.30	225.43
392.68	225.39
393.05	225.38
393.43	225.41
393.81	225.40
394.18	225.39
394.56	225.40
394.94	225.45
395.31	225.44
395.69	225.51
396.06	225.58
396.44	225.63
396.82	225.65
397.19	225.75
397.57	225.77
397.95	225.80
398.32	225.82
398.70	225.88
399.07	225.97
399.45	226.02
399.82	226.09
400.20	226.14
400.58	226.19
400.95	226.23
401.33	226.31
401.70	226.42
402.08	226.52
402.45	226.62
402.83	226.72
403.20	226.83
403.58	226.90
403.95	227.00
404.33	227.14
404.71	227.29
405.08	227.50
405.46	227.64
405.83	227.78
406.21	227.93
406.58	228.11
406.96	228.25
407.33	228.42
407.70	228.62
408.08	228.89
408.45	229.14
408.83	229.36
409.20	229.58
409.58	229.76
409.95	230.05
410.33	230.33
410.70	230.53
411.08	230.87
411.45	231.20
411.82	231.52
412.20	231.85
412.57	232.26
412.95	232.50
413.32	232.92
413.69	233.33
414.07	233.79
414.44	234.24
414.82	234.71
415.19	235.26
415.56	235.83
415.94	236.35
416.31	236.98
416.68	237.63
417.06	238.36
417.43	239.07
417.81	239.82
418.18	240.56
418.55	241.42
418.93	242.28
419.30	243.15
419.67	244.07
420.04	245.03
420.42	245.99
420.79	247.17
421.16	248.29
421.54	249.47
421.91	250.70
422.28	251.92
422.66	253.28
423.03	254.58
423.40	255.89
423.77	257.37
424.15	258.82
424.52	260.26
424.89	261.84
425.26	263.39
425.64	264.83
426.01	266.43
426.38	268.09
426.75	269.78
427.13	271.51
427.50	273.28
427.87	275.17
428.24	277.07
428.61	278.80
428.99	280.74
429.36	282.84
429.73	284.88
430.10	286.93
430.47	288.98
430.85	291.10
431.22	293.38
431.59	295.73
431.96	297.93
432.33	300.47
432.70	302.82
433.08	305.62
433.45	308.23
433.82	310.83
434.19	313.74
434.56	316.51
434.93	319.15
435.30	321.77
435.68	324.59
436.05	327.38
436.42	330.20
436.79	332.70
437.16	335.35
437.53	338.19
437.90	340.97
438.27	343.65
438.64	346.46
439.01	348.98
439.38	351.17
439.75	353.34
440.13	355.78
440.50	358.12
440.87	359.94
441.24	361.83
441.61	363.98
441.98	365.43
442.35	367.22
442.72	369.08
443.09	370.89
443.46	371.93
443.83	372.50
444.20	372.99
444.57	373.83
444.94	374.13
445.31	374.41
445.68	374.75
446.05	374.86
446.42	374.43
446.79	374.02
447.16	373.59
447.53	373.23
447.90	372.04
448.27	370.86
448.64	369.27
449.01	368.19
449.37	366.20
449.74	364.30
450.11	362.06
450.48	359.57
450.85	357.04
451.22	354.92
451.59	352.94
451.96	351.01
452.33	348.40
452.70	346.01
453.07	343.21
453.43	340.36
453.80	337.58
454.17	334.97
454.54	332.42
454.91	329.71
455.28	327.05
455.65	324.61
456.02	322.20
456.38	320.06
456.75	317.40
457.12	315.14
457.49	312.90
457.86	310.76
458.23	308.92
458.59	306.91
458.96	304.77
459.33	302.92
459.70	301.10
460.07	299.61
460.43	297.92
460.80	296.26
461.17	294.79
461.54	293.30
461.91	291.88
462.27	290.47
462.64	289.19
463.01	287.87
463.38	286.57
463.74	285.22
464.11	284.09
464.48	283.11
464.85	282.03
465.21	281.18
465.58	280.20
465.95	279.12
466.32	278.20
466.68	277.31
467.05	276.45
467.42	275.53
467.78	274.62
468.15	273.78
468.52	273.19
468.88	272.36
469.25	271.62
469.62	270.98
469.98	270.32
470.35	269.73
470.72	269.15
471.08	268.51
471.45	267.95
471.82	267.36
472.18	266.73
472.55	266.31
472.92	265.81
473.28	265.37
473.65	264.90
474.02	264.49
474.38	264.14
474.75	263.79
475.11	263.45
475.48	263.17
475.85	262.97
476.21	262.70
476.58	262.55
476.94	262.44
477.31	262.29
477.67	262.16
478.04	262.04
478.41	261.96
478.77	262.02
479.14	262.00
479.50	262.06
479.87	262.15
480.23	262.26
480.60	262.36
480.96	262.49
481.33	262.73
481.69	262.93
482.06	263.10
482.42	263.32
482.79	263.56
483.15	263.92
483.52	264.29
483.88	264.70
484.25	265.08
484.61	265.46
484.98	265.95
485.34	266.46
485.71	267.06
486.07	267.67
486.44	268.21
486.80	268.89
487.17	269.59
487.53	270.43
487.90	271.28
488.26	272.23
488.62	273.20
488.99	274.17
489.35	275.24
489.72	276.42
490.08	277.57
490.44	278.84
490.81	280.18
491.17	281.55
491.54	283.01
491.90	284.53
492.26	286.19
492.63	287.88
492.99	289.70
493.36	291.60
493.72	293.62
494.08	295.71
494.45	297.95
494.81	300.36
495.17	302.80
495.54	305.37
495.90	308.07
496.26	310.87
496.63	313.84
496.99	316.94
497.35	320.22
497.72	323.70
498.08	327.22
498.44	330.90
498.80	334.86
499.17	338.89
499.53	343.12
499.89	347.48
500.26	352.03
500.62	356.71
500.98	361.64
501.34	366.77
501.71	372.11
502.07	377.62
502.43	383.28
502.79	389.05
503.16	395.13
503.52	401.41
503.88	407.92
504.24	414.58
504.60	421.48
504.97	428.55
505.33	435.92
505.69	443.66
506.05	451.41
506.41	459.30
506.78	467.53
507.14	475.97
507.50	484.72
507.86	493.75
508.22	503.03
508.59	512.23
508.95	521.78
509.31	531.64
509.67	541.73
510.03	552.03
510.39	562.63
510.75	573.39
511.12	584.30
511.48	595.55
511.84	606.98
512.20	618.45
512.56	630.48
512.92	642.58
513.28	654.85
513.64	667.31
514.00	679.99
514.37	692.83
514.73	705.85
515.09	718.89
515.45	732.18
515.81	745.71
516.17	759.70
516.53	773.82
516.89	787.91
517.25	801.99
517.61	816.39
517.97	830.81
518.33	845.21
518.69	859.98
519.05	874.81
519.41	889.96
519.77	905.49
520.13	920.79
520.49	936.07
520.85	951.50
521.21	967.15
521.57	983.39
521.93	999.14
522.29	1015.42
522.65	1031.55
523.01	1047.72
523.37	1063.68
523.73	1079.85
524.09	1095.89
524.45	1112.25
524.81	1128.88
525.17	1145.54
525.53	1162.41
525.89	1179.30
526.25	1196.04
526.61	1212.45
526.97	1229.13
527.33	1245.52
527.68	1262.08
528.04	1278.58
528.40	1295.02
528.76	1311.94
529.12	1328.39
529.48	1345.25
529.84	1361.26
530.20	1377.82
530.56	1394.75
530.91	1412.12
531.27	1428.86
531.63	1445.22
531.99	1461.66
532.35	1477.44
532.71	1493.23
533.07	1509.40
533.42	1525.17
533.78	1541.10
534.14	1557.24
534.50	1572.43
534.86	1588.30
535.21	1603.44
535.57	1619.23
535.93	1634.64
536.29	1649.42
536.65	1664.24
537.00	1678.86
537.36	1694.05
537.72	1708.52
538.08	1722.90
538.44	1736.53
538.79	1750.35
539.15	1763.96
539.51	1777.63
539.87	1791.90
540.22	1805.52
540.58	1819.19
540.94	1832.35
541.29	1845.07
541.65	1857.73
542.01	1870.93
542.37	1883.02
542.72	1895.34
543.08	1906.98
543.44	1919.29
543.79	1930.50
544.15	1941.66
544.51	1953.13
544.87	1964.00
545.22	1974.68
545.58	1984.68
545.94	1994.29
546.29	2004.01
546.65	2013.82
547.01	2022.93
547.36	2031.68
547.72	2040.15
548.07	2047.81
548.43	2055.92
548.79	2063.93
549.14	2071.49
549.50	2078.71
549.86	2086.33
550.21	2093.63
550.57	2100.76
550.92	2107.24
551.28	2114.11
551.64	2120.94
551.99	2127.42
552.35	2133.41
552.70	2139.50
553.06	2145.51
553.41	2152.02
553.77	2157.93
554.13	2163.85
554.48	2170.13
554.84	2175.53
555.19	2180.82
555.55	2186.09
555.90	2190.57
556.26	2195.50
556.61	2200.24
556.97	2204.53
557.32	2208.77
557.68	2212.94
558.03	2217.29
558.39	2220.93
558.74	2225.78
559.10	2229.71
559.45	2233.42
559.81	2237.82
560.16	2241.64
560.52	2244.82
560.87	2247.95
561.23	2250.60
561.58	2253.70
561.94	2255.98
562.29	2258.34
562.64	2261.01
563.00	2263.45
563.35	2266.93
563.71	2270.15
564.06	2273.28
564.42	2276.15
564.77	2278.62
565.12	2280.87
565.48	2282.77
565.83	2284.82
566.19	2286.01
566.54	2286.88
566.89	2287.99
567.25	2288.71
567.60	2290.02
567.96	2291.78
568.31	2292.81
568.66	2293.93
569.02	2294.53
569.37	2295.02
569.72	2295.97
570.08	2296.17
570.43	2296.39
570.78	2295.93
571.14	2294.21
571.49	2292.88
571.84	2292.61
572.20	2291.54
572.55	2290.52
572.90	2288.95
573.26	2287.66
573.61	2285.93
573.96	2284.29
574.31	2281.33
574.67	2278.35
575.02	2274.93
575.37	2271.65
575.72	2267.87
576.08	2264.71
576.43	2261.27
576.78	2257.63
577.13	2254.45
577.49	2251.38
577.84	2247.82
578.19	2244.14
578.54	2240.72
578.90	2236.63
579.25	2231.15
579.60	2226.34
579.95	2221.38
580.30	2216.54
580.66	2211.43
581.01	2206.65
581.36	2201.78
581.71	2197.78
582.06	2193.38
582.42	2188.96
582.77	2183.80
583.12	2179.46
583.47	2174.62
583.82	2169.77
584.17	2164.66
584.53	2159.35
584.88	2153.88
585.23	2148.27
585.58	2142.85
585.93	2137.48
586.28	2132.55
586.63	2127.55
586.98	2122.46
587.34	2117.81
587.69	2112.86
588.04	2107.65
588.39	2102.06
588.74	2095.65
589.09	2089.60
589.44	2082.82
589.79	2076.85
590.14	2071.28
590.49	2064.66
590.84	2058.55
591.19	2052.67
591.54	2046.25
591.89	2038.82
592.25	2032.10
592.60	2024.96
592.95	2017.37
593.30	2009.85
593.65	2002.49
594.00	1995.48
594.35	1988.31
594.70	1980.30
595.05	1973.20
595.40	1965.97
595.75	1958.43
596.10	1952.27
596.45	1945.57
596.80	1939.63
597.15	1933.10
597.50	1925.95
597.85	1919.43
598.19	1912.69
598.54	1905.45
598.89	1898.93
599.24	1893.19
599.59	1886.40
599.94	1880.30
600.29	1874.06
600.64	1867.70
600.99	1860.30
601.34	1853.55
601.69	1846.71
602.04	1839.97
602.39	1832.67
602.74	1825.83
603.08	1819.22
603.43	1812.55
603.78	1805.17
604.13	1797.88
604.48	1790.51
604.83	1783.75
605.18	1776.98
605.53	1769.07
605.87	1761.20
606.22	1753.94
606.57	1745.97
606.92	1738.70
607.27	1731.46
607.62	1724.64
607.96	1717.35
608.31	1710.76
608.66	1703.18
609.01	1695.63
609.36	1687.95
609.70	1680.01
610.05	1672.03
610.40	1664.32
610.75	1656.00
611.10	1648.39
611.44	1640.09
611.79	1632.22
612.14	1623.55
612.49	1614.49
612.83	1606.21
613.18	1598.11
613.53	1589.94
613.88	1581.32
614.22	1572.99
614.57	1564.48
614.92	1556.41
615.27	1548.89
615.61	1540.49
615.96	1532.44
616.31	1524.75
616.65	1517.43
617.00	1509.81
617.35	1502.12
617.70	1493.77
618.04	1485.31
618.39	1477.15
618.74	1469.45
619.08	1461.04
619.43	1453.53
619.78	1446.44
620.12	1439.15
620.47	1431.70
620.82	1423.52
621.16	1416.16
621.51	1408.60
621.85	1400.87
622.20	1392.31
622.55	1383.96
622.89	1376.23
623.24	1368.55
623.59	1361.13
623.93	1353.65
624.28	1346.41
624.62	1338.94
624.97	1331.78
625.32	1324.97
625.66	1317.95
626.01	1310.76
626.35	1303.34
626.70	1295.53
627.04	1287.85
627.39	1280.12
627.73	1272.64
628.08	1265.84
628.43	1258.48
628.77	1251.15
629.12	1243.62
629.46	1236.48
629.81	1229.08
630.15	1221.80
630.50	1214.36
630.84	1206.16
631.19	1198.20
631.53	1190.68
631.88	1183.07
632.22	1175.41
632.57	1168.03
632.91	1160.43
633.26	1152.93
633.60	1145.58
633.95	1138.42
634.29	1131.35
634.64	1124.66
634.98	1117.22
635.32	1110.00
635.67	1103.40
636.01	1096.75
636.36	1089.89
636.70	1083.33
637.05	1076.75
637.39	1070.34
637.73	1063.82
638.08	1057.96
638.42	1052.02
638.77	1045.61
639.11	1038.96
639.45	1032.61
639.80	1026.04
640.14	1019.68
640.49	1013.20
640.83	1006.81
641.17	1000.55
641.52	994.28
641.86	987.83
642.20	982.03
642.55	975.81
642.89	969.36
643.23	962.80
643.58	957.09
643.92	950.90
644.26	944.80
644.61	938.64
644.95	932.66
645.29	926.04
645.64	919.27
645.98	912.88
646.32	907.09
646.66	901.05
647.01	895.30
647.35	889.51
647.69	883.70
648.04	878.17
648.38	872.40
648.72	866.30
649.06	860.25
649.41	854.33
649.75	848.26
650.09	842.37
650.43	836.62
650.78	830.47
651.12	824.53
651.46	818.76
651.80	813.04
652.14	807.67
652.49	802.35
652.83	797.19
653.17	791.53
653.51	785.74
653.85	780.35
654.20	774.60
654.54	768.64
654.88	762.83
655.22	757.02
655.56	751.31
655.90	745.94
656.25	740.64
656.59	735.30
656.93	730.22
657.27	725.01
657.61	719.57
657.95	714.46
658.29	709.40
658.64	704.19
658.98	698.89
659.32	693.42
659.66	688.18
660.00	682.84
660.34	677.90
660.68	673.08
661.02	668.04
661.36	663.37
661.70	658.80
662.05	654.50
662.39	650.16
662.73	645.68
663.07	641.30
663.41	636.86
663.75	632.30
664.09	627.76
664.43	623.34
664.77	619.21
665.11	614.90
665.45	610.75
665.79	606.64
666.13	602.60
666.47	598.49
666.81	594.37
667.15	590.25
667.49	586.38
667.83	582.54
668.17	578.58
668.51	574.53
668.85	570.57
669.19	566.68
669.53	562.77
669.87	558.87
670.21	555.17
670.55	551.49
670.89	548.12
671.23	544.65
671.57	541.11
671.91	537.56
672.25	534.09
672.58	530.60
672.92	527.21
673.26	523.96
673.60	520.73
673.94	517.56
674.28	514.65
674.62	511.66
674.96	508.48
675.30	505.54
675.64	502.56
675.97	499.75
676.31	496.90
676.65	493.98
676.99	491.30
677.33	488.41
677.67	485.57
678.01	482.56
678.34	479.57
678.68	476.72
679.02	473.87
679.36	471.10
679.70	468.33
680.04	465.50
680.37	462.65
680.71	459.86
681.05	457.23
681.39	454.53
681.73	451.84
682.06	449.33
682.40	446.76
682.74	444.20
683.08	441.64
683.42	439.03
683.75	436.52
684.09	433.98
684.43	431.53
684.77	429.13
685.10	426.75
685.44	424.48
685.78	422.23
686.12	419.97
686.45	417.70
686.79	415.41
687.13	413.24
687.46	411.08
687.80	409.00
688.14	406.82
688.48	404.75
688.81	402.50
689.15	400.36
689.49	398.26
689.82	396.22
690.16	394.18
690.50	392.21
690.83	390.27
691.17	388.27
691.51	386.36
691.84	384.50
692.18	382.61
692.52	380.61
692.85	378.70
693.19	376.85
693.52	375.03
693.86	373.23
694.20	371.45
694.53	369.68
694.87	367.84
695.21	366.00
695.54	364.17
695.88	362.46
696.21	360.73
696.55	359.06
696.88	357.38
697.22	355.67
697.56	354.05
697.89	352.39
698.23	350.81
698.56	349.15
698.90	347.56
699.23	345.90
699.57	344.38
699.90	342.80
700.24	341.25
700.58	339.66
700.91	338.19
701.25	336.74
701.58	335.33
701.92	333.95
702.25	332.57
702.59	331.20
702.92	329.88
703.26	328.55
703.59	327.21
703.93	326.06
704.26	324.83
704.60	323.53
704.93	322.26
705.26	320.95
705.60	319.78
705.93	318.59
706.27	317.51
706.60	316.41
706.94	315.33
707.27	314.15
707.61	313.10
707.94	312.04
708.27	310.91
708.61	309.82
708.94	308.80
709.28	307.78
709.61	306.83
709.94	305.83
710.28	304.83
710.61	303.86
710.95	302.74
711.28	301.84
711.61	300.92
711.95	299.99
712.28	299.04
712.61	298.05
712.95	297.13
713.28	296.28
713.61	295.37
713.95	294.46
714.28	293.66
714.61	292.78
714.95	291.93
715.28	291.08
715.61	290.21
715.95	289.37
716.28	288.53
716.61	287.65
716.95	286.82
717.28	286.08
717.61	285.29
717.94	284.52
718.28	283.67
718.61	282.92
718.94	282.26
719.27	281.62
719.61	281.01
719.94	280.36
720.27	279.61
720.60	278.93
720.94	278.29
721.27	277.68
721.60	277.11
721.93	276.48
722.27	275.93
722.60	275.34
722.93	274.73
723.26	274.21
723.59	273.66
723.93	273.10
724.26	272.56
724.59	272.06
724.92	271.55
725.25	271.06
725.59	270.56
725.92	270.06
726.25	269.56
726.58	269.05
726.91	268.54
727.24	268.11
727.57	267.67
727.91	267.18
728.24	266.70
728.57	266.23
728.90	265.79
729.23	265.34
729.56	264.94
729.89	264.50
730.22	264.03
730.55	263.56
730.89	263.14
731.22	262.67
731.55	262.22
731.88	261.82
732.21	261.43
732.54	261.00
732.87	260.55
733.20	260.16
733.53	259.80
733.86	259.43
734.19	259.03
734.52	258.65
734.85	258.35
735.18	257.97
735.51	257.67
735.84	257.31
736.17	256.98
736.50	256.61
736.83	256.37
737.16	256.07
737.49	255.76
737.82	255.45
738.15	255.13
738.48	254.85
738.81	254.52
739.14	254.19
739.47	253.88
739.80	253.58
740.13	253.26
740.46	252.94
740.79	252.63
741.12	252.34
741.45	252.05
741.78	251.67
742.11	251.39
742.44	251.03
742.77	250.77
743.10	250.48
743.43	250.18
743.75	249.83
744.08	249.66
744.41	249.40
744.74	249.13
745.07	248.87
745.40	248.60
745.73	248.34
746.06	248.06
746.39	247.81
746.71	247.57
747.04	247.32
747.37	247.06
747.70	246.78
748.03	246.53
748.36	246.29
748.68	246.05
749.01	245.82
749.34	245.61
749.67	245.35
750.00	245.10
750.33	244.94
750.65	244.71
750.98	244.35
751.31	244.12
751.64	243.87
751.97	243.71
752.29	243.47
752.62	243.25
752.95	243.00
753.28	242.80
753.60	242.57
753.93	242.35
754.26	242.12
754.59	241.89
754.91	241.66
755.24	241.46
755.57	241.22
755.90	241.03
756.22	240.80
756.55	240.58
756.88	240.37
757.20	240.10
757.53	239.88
757.86	239.71
758.19	239.53
758.51	239.35
758.84	239.11
759.17	238.92
759.49	238.73
759.82	238.61
760.15	238.41
760.47	238.24
760.80	238.08
761.13	237.95
761.45	237.83
761.78	237.65
762.11	237.50
762.43	237.39
762.76	237.21
763.08	237.07
763.41	236.94
763.74	236.80
764.06	236.67
764.39	236.51
764.71	236.37
765.04	236.23
765.37	236.07
765.69	235.95
766.02	235.84
766.34	235.71
766.67	235.55
767.00	235.45
767.32	235.40
767.65	235.36
767.97	235.22
768.30	235.10
768.62	235.03
768.95	234.90
769.27	234.78
769.60	234.66
769.92	234.56
770.25	234.45
770.57	234.32
770.90	234.18
771.22	234.10
771.55	234.00
771.87	233.90
772.20	233.83
772.52	233.82
772.85	233.85
773.17	233.75
773.50	233.67
773.82	233.58
774.15	233.44
774.47	233.28
774.80	233.21
775.12	233.11
775.45	233.02
775.77	232.92
776.09	232.85
776.42	232.78
776.74	232.73
777.07	232.68
777.39	232.59
777.72	232.59
778.04	232.53
778.36	232.45
778.69	232.39
779.01	232.33
779.33	232.17
779.66	232.02
779.98	231.94
780.31	231.86
780.63	231.84
780.95	231.78
781.28	231.74
781.60	231.65
781.92	231.58
782.25	231.55
782.57	231.50
782.89	231.45
783.22	231.39
783.54	231.33
783.86	231.27
784.19	231.26
784.51	231.20
784.83	231.17
785.16	231.13
785.48	231.10
785.80	231.04
786.12	231.02
786.45	230.93
786.77	230.92
787.09	230.86
