SpectraSuite Data File
++++++++++++++++++++++++++++++++++++
Date: Fri Feb 01 15:27:51 EST 2013
User: group
Dark Spectrum Present: No
Reference Spectrum Present: No
Number of Sampled Component Spectra: 1
Spectrometers: USB2E7196
Integration Time (usec): 35000 (USB2E7196)
Spectra Averaged: 100 (USB2E7196)
Boxcar Smoothing: 10 (USB2E7196)
Correct for Electrical Dark: No (USB2E7196)
Strobe/Lamp Enabled: No (USB2E7196)
Correct for Detector Non-linearity: No (USB2E7196)
Correct for Stray Light: No (USB2E7196)
Number of Pixels in Processed Spectrum: 2048
>>>>>Begin Processed Spectral Data<<<<<
339.09	0.00
339.48	215.32
339.86	216.81
340.24	217.37
340.63	219.35
341.01	222.19
341.39	222.04
341.78	223.83
342.16	224.84
342.54	225.02
342.93	213.41
343.31	224.21
343.69	224.74
344.07	225.18
344.46	225.67
344.84	226.06
345.22	226.26
345.60	226.52
345.99	226.69
346.37	226.81
346.75	226.90
347.13	226.98
347.52	227.03
347.90	227.10
348.28	227.12
348.66	227.18
349.05	227.15
349.43	227.18
349.81	227.24
350.19	227.31
350.57	227.35
350.96	227.46
351.34	227.52
351.72	227.61
352.10	227.72
352.48	227.73
352.87	227.77
353.25	227.88
353.63	227.93
354.01	227.98
354.39	228.07
354.77	228.19
355.15	228.26
355.54	228.33
355.92	228.37
356.30	228.47
356.68	228.64
357.06	228.75
357.44	228.80
357.82	228.86
358.20	228.94
358.58	229.04
358.97	229.09
359.35	229.16
359.73	229.24
360.11	229.27
360.49	229.37
360.87	229.40
361.25	229.44
361.63	229.52
362.01	229.55
362.39	229.58
362.77	229.58
363.15	229.60
363.53	229.59
363.91	229.61
364.29	229.57
364.67	229.44
365.05	229.43
365.43	229.45
365.81	229.43
366.19	229.45
366.57	229.46
366.95	229.44
367.33	229.40
367.71	229.37
368.09	229.37
368.47	229.31
368.85	229.29
369.23	229.26
369.61	229.17
369.99	229.20
370.37	229.15
370.75	229.15
371.13	229.05
371.51	229.02
371.89	228.98
372.27	228.96
372.65	228.92
373.03	228.86
373.41	228.78
373.78	228.74
374.16	228.60
374.54	228.51
374.92	228.47
375.30	228.41
375.68	228.31
376.06	228.24
376.44	228.19
376.82	228.16
377.19	228.11
377.57	228.03
377.95	227.92
378.33	227.84
378.71	227.71
379.09	227.67
379.47	227.62
379.84	227.53
380.22	227.44
380.60	227.35
380.98	227.30
381.36	227.23
381.73	227.15
382.11	227.12
382.49	227.06
382.87	226.96
383.25	226.92
383.62	226.96
384.00	226.87
384.38	226.81
384.76	226.76
385.13	226.71
385.51	226.70
385.89	226.64
386.27	226.61
386.64	226.61
387.02	226.58
387.40	226.51
387.78	226.48
388.15	226.45
388.53	226.45
388.91	226.42
389.29	226.41
389.66	226.39
390.04	226.37
390.42	226.38
390.79	226.39
391.17	226.38
391.55	226.26
391.92	226.26
392.30	226.28
392.68	226.26
393.05	226.26
393.43	226.25
393.81	226.30
394.18	226.32
394.56	226.34
394.94	226.39
395.31	226.46
395.69	226.54
396.06	226.58
396.44	226.61
396.82	226.68
397.19	226.74
397.57	226.80
397.95	226.88
398.32	226.90
398.70	226.96
399.07	227.06
399.45	227.15
399.82	227.27
400.20	227.33
400.58	227.42
400.95	227.50
401.33	227.61
401.70	227.75
402.08	227.83
402.45	227.95
402.83	228.05
403.20	228.18
403.58	228.24
403.95	228.38
404.33	228.50
404.71	228.59
405.08	228.80
405.46	228.96
405.83	229.06
406.21	229.22
406.58	229.38
406.96	229.54
407.33	229.74
407.70	229.93
408.08	230.16
408.45	230.40
408.83	230.63
409.20	230.82
409.58	231.02
409.95	231.26
410.33	231.49
410.70	231.75
411.08	232.02
411.45	232.36
411.82	232.68
412.20	233.03
412.57	233.45
412.95	233.72
413.32	234.08
413.69	234.50
414.07	234.94
414.44	235.40
414.82	235.87
415.19	236.40
415.56	236.92
415.94	237.47
416.31	238.09
416.68	238.71
417.06	239.46
417.43	240.09
417.81	240.87
418.18	241.63
418.55	242.46
418.93	243.33
419.30	244.23
419.67	245.13
420.04	246.06
420.42	247.05
420.79	248.25
421.16	249.43
421.54	250.63
421.91	251.88
422.28	253.15
422.66	254.47
423.03	255.77
423.40	257.12
423.77	258.52
424.15	259.95
424.52	261.42
424.89	263.01
425.26	264.59
425.64	266.08
426.01	267.70
426.38	269.35
426.75	271.04
427.13	272.75
427.50	274.62
427.87	276.54
428.24	278.40
428.61	280.13
428.99	282.03
429.36	284.16
429.73	286.19
430.10	288.22
430.47	290.30
430.85	292.44
431.22	294.70
431.59	297.14
431.96	299.40
432.33	301.91
432.70	304.27
433.08	307.09
433.45	309.72
433.82	312.35
434.19	315.24
434.56	318.06
434.93	320.72
435.30	323.35
435.68	326.28
436.05	329.13
436.42	331.96
436.79	334.52
437.16	337.23
437.53	340.11
437.90	342.94
438.27	345.70
438.64	348.56
439.01	351.16
439.38	353.40
439.75	355.56
440.13	358.06
440.50	360.42
440.87	362.32
441.24	364.26
441.61	366.41
441.98	367.95
442.35	369.77
442.72	371.65
443.09	373.40
443.46	374.37
443.83	374.99
444.20	375.51
444.57	376.40
444.94	376.66
445.31	376.95
445.68	377.29
446.05	377.36
446.42	376.96
446.79	376.51
447.16	376.01
447.53	375.72
447.90	374.57
448.27	373.41
448.64	371.79
449.01	370.69
449.37	368.65
449.74	366.72
450.11	364.45
450.48	361.92
450.85	359.40
451.22	357.24
451.59	355.17
451.96	353.17
452.33	350.54
452.70	348.16
453.07	345.30
453.43	342.41
453.80	339.63
454.17	336.94
454.54	334.41
454.91	331.68
455.28	329.02
455.65	326.44
456.02	323.97
456.38	321.80
456.75	319.06
457.12	316.88
457.49	314.60
457.86	312.39
458.23	310.54
458.59	308.52
458.96	306.39
459.33	304.49
459.70	302.62
460.07	301.04
460.43	299.35
460.80	297.77
461.17	296.32
461.54	294.75
461.91	293.30
462.27	291.83
462.64	290.61
463.01	289.22
463.38	287.96
463.74	286.60
464.11	285.45
464.48	284.47
464.85	283.32
465.21	282.47
465.58	281.57
465.95	280.49
466.32	279.52
466.68	278.66
467.05	277.81
467.42	276.96
467.78	276.10
468.15	275.21
468.52	274.51
468.88	273.65
469.25	272.90
469.62	272.25
469.98	271.58
470.35	270.92
470.72	270.31
471.08	269.68
471.45	269.10
471.82	268.57
472.18	267.90
472.55	267.48
472.92	266.94
473.28	266.49
473.65	266.03
474.02	265.62
474.38	265.26
474.75	264.92
475.11	264.58
475.48	264.29
475.85	264.03
476.21	263.81
476.58	263.66
476.94	263.56
477.31	263.41
477.67	263.26
478.04	263.16
478.41	263.11
478.77	263.14
479.14	263.10
479.50	263.08
479.87	263.21
480.23	263.27
480.60	263.37
480.96	263.44
481.33	263.68
481.69	263.91
482.06	264.10
482.42	264.33
482.79	264.57
483.15	264.86
483.52	265.32
483.88	265.68
484.25	266.03
484.61	266.46
484.98	266.92
485.34	267.46
485.71	268.05
486.07	268.65
486.44	269.22
486.80	269.94
487.17	270.69
487.53	271.49
487.90	272.32
488.26	273.26
488.62	274.27
488.99	275.21
489.35	276.27
489.72	277.38
490.08	278.52
490.44	279.78
490.81	281.12
491.17	282.44
491.54	283.90
491.90	285.48
492.26	287.09
492.63	288.82
492.99	290.61
493.36	292.52
493.72	294.56
494.08	296.66
494.45	298.92
494.81	301.28
495.17	303.71
495.54	306.32
495.90	308.99
496.26	311.77
496.63	314.73
496.99	317.82
497.35	321.07
497.72	324.47
498.08	327.95
498.44	331.63
498.80	335.50
499.17	339.52
499.53	343.62
499.89	347.98
500.26	352.50
500.62	357.15
500.98	362.11
501.34	367.14
501.71	372.45
502.07	377.87
502.43	383.47
502.79	389.27
503.16	395.32
503.52	401.61
503.88	407.97
504.24	414.61
504.60	421.46
504.97	428.62
505.33	435.93
505.69	443.63
506.05	451.43
506.41	459.32
506.78	467.50
507.14	475.94
507.50	484.66
507.86	493.68
508.22	502.90
508.59	512.05
508.95	521.58
509.31	531.41
509.67	541.51
510.03	551.84
510.39	562.40
510.75	573.16
511.12	584.02
511.48	595.38
511.84	606.84
512.20	618.45
512.56	630.40
512.92	642.63
513.28	654.93
513.64	667.38
514.00	680.10
514.37	693.04
514.73	706.10
515.09	719.20
515.45	732.55
515.81	746.10
516.17	760.13
516.53	774.36
516.89	788.54
517.25	802.79
517.61	817.14
517.97	831.68
518.33	846.21
518.69	861.05
519.05	876.07
519.41	891.29
519.77	906.81
520.13	922.27
520.49	937.63
520.85	953.16
521.21	968.86
521.57	985.17
521.93	1001.03
522.29	1017.64
522.65	1033.95
523.01	1050.16
523.37	1066.38
523.73	1082.62
524.09	1098.73
524.45	1115.16
524.81	1131.83
525.17	1148.73
525.53	1165.66
525.89	1182.56
526.25	1199.49
526.61	1215.88
526.97	1232.72
527.33	1249.25
527.68	1265.94
528.04	1282.51
528.40	1299.19
528.76	1316.48
529.12	1333.13
529.48	1350.07
529.84	1366.04
530.20	1382.69
530.56	1399.81
530.91	1417.16
531.27	1434.00
531.63	1450.56
531.99	1467.01
532.35	1483.01
532.71	1499.01
533.07	1515.22
533.42	1531.21
533.78	1547.31
534.14	1563.70
534.50	1578.96
534.86	1594.98
535.21	1610.17
535.57	1626.21
535.93	1641.87
536.29	1656.63
536.65	1671.80
537.00	1686.64
537.36	1702.05
537.72	1716.69
538.08	1731.14
538.44	1744.98
538.79	1758.86
539.15	1772.73
539.51	1786.69
539.87	1801.07
540.22	1814.80
540.58	1828.80
540.94	1842.23
541.29	1855.32
541.65	1868.12
542.01	1881.53
542.37	1893.76
542.72	1906.25
543.08	1918.08
543.44	1930.50
543.79	1941.80
544.15	1952.85
544.51	1964.36
544.87	1975.30
545.22	1986.04
545.58	1996.26
545.94	2006.07
546.29	2015.83
546.65	2025.49
547.01	2034.72
547.36	2043.50
547.72	2051.92
548.07	2059.78
548.43	2067.89
548.79	2075.84
549.14	2083.32
549.50	2090.62
549.86	2098.39
550.21	2105.74
550.57	2112.93
550.92	2119.39
551.28	2126.52
551.64	2133.58
551.99	2140.38
552.35	2146.49
552.70	2152.68
553.06	2158.68
553.41	2165.11
553.77	2171.35
554.13	2177.54
554.48	2183.65
554.84	2189.03
555.19	2194.47
555.55	2199.43
555.90	2203.89
556.26	2208.70
556.61	2213.47
556.97	2217.72
557.32	2221.87
557.68	2225.95
558.03	2230.20
558.39	2234.03
558.74	2238.68
559.10	2242.46
559.45	2245.94
559.81	2250.41
560.16	2254.27
560.52	2257.48
560.87	2260.84
561.23	2263.45
561.58	2266.44
561.94	2269.01
562.29	2271.48
562.64	2274.09
563.00	2276.85
563.35	2280.39
563.71	2283.47
564.06	2286.62
564.42	2289.56
564.77	2291.99
565.12	2294.19
565.48	2296.08
565.83	2297.69
566.19	2298.89
566.54	2299.76
566.89	2300.88
567.25	2301.31
567.60	2302.65
567.96	2304.33
568.31	2305.21
568.66	2306.34
569.02	2306.79
569.37	2307.14
569.72	2307.99
570.08	2308.03
570.43	2307.97
570.78	2307.27
571.14	2305.76
571.49	2304.51
571.84	2304.09
572.20	2302.86
572.55	2301.85
572.90	2300.32
573.26	2299.06
573.61	2297.37
573.96	2295.54
574.31	2292.40
574.67	2289.37
575.02	2285.62
575.37	2282.27
575.72	2278.18
576.08	2274.83
576.43	2271.51
576.78	2267.78
577.13	2264.55
577.49	2261.55
577.84	2257.97
578.19	2254.27
578.54	2250.63
578.90	2246.23
579.25	2240.61
579.60	2235.73
579.95	2230.62
580.30	2225.42
580.66	2220.21
581.01	2215.08
581.36	2210.13
581.71	2205.90
582.06	2201.39
582.42	2196.78
582.77	2191.41
583.12	2186.87
583.47	2181.99
583.82	2176.83
584.17	2171.51
584.53	2165.99
584.88	2160.11
585.23	2154.13
585.58	2148.54
585.93	2143.02
586.28	2138.33
586.63	2133.13
586.98	2127.83
587.34	2123.13
587.69	2118.14
588.04	2112.72
588.39	2106.91
588.74	2100.35
589.09	2094.17
589.44	2087.17
589.79	2081.12
590.14	2075.40
590.49	2068.87
590.84	2062.38
591.19	2056.32
591.54	2049.74
591.89	2042.06
592.25	2035.23
592.60	2028.17
592.95	2020.54
593.30	2013.06
593.65	2005.29
594.00	1998.28
594.35	1990.99
594.70	1982.88
595.05	1975.48
595.40	1968.07
595.75	1960.50
596.10	1954.18
596.45	1947.36
596.80	1941.23
597.15	1934.47
597.50	1927.19
597.85	1920.71
598.19	1914.08
598.54	1906.90
598.89	1900.28
599.24	1894.54
599.59	1887.82
599.94	1881.50
600.29	1875.17
600.64	1868.60
600.99	1861.11
601.34	1854.12
601.69	1847.18
602.04	1840.12
602.39	1832.90
602.74	1826.13
603.08	1819.55
603.43	1812.84
603.78	1805.47
604.13	1798.26
604.48	1791.02
604.83	1784.26
605.18	1777.04
605.53	1768.92
605.87	1760.80
606.22	1753.41
606.57	1745.32
606.92	1738.13
607.27	1730.86
607.62	1723.79
607.96	1716.35
608.31	1709.64
608.66	1701.96
609.01	1694.33
609.36	1686.88
609.70	1678.82
610.05	1670.58
610.40	1662.74
610.75	1654.36
611.10	1646.79
611.44	1638.56
611.79	1630.57
612.14	1621.85
612.49	1612.88
612.83	1604.55
613.18	1596.61
613.53	1588.61
613.88	1580.07
614.22	1571.66
614.57	1563.19
614.92	1555.16
615.27	1547.52
615.61	1539.20
615.96	1531.24
616.31	1523.64
616.65	1516.16
617.00	1508.63
617.35	1501.12
617.70	1492.75
618.04	1484.16
618.39	1475.83
618.74	1468.05
619.08	1459.70
619.43	1452.04
619.78	1445.02
620.12	1437.67
620.47	1430.05
620.82	1421.91
621.16	1414.49
621.51	1406.91
621.85	1399.19
622.20	1390.65
622.55	1382.40
622.89	1374.55
623.24	1366.95
623.59	1359.56
623.93	1352.11
624.28	1344.81
624.62	1337.15
624.97	1329.93
625.32	1323.30
625.66	1316.26
626.01	1309.07
626.35	1301.62
626.70	1293.93
627.04	1286.11
627.39	1278.47
627.73	1270.99
628.08	1263.98
628.43	1256.63
628.77	1249.16
629.12	1241.50
629.46	1234.23
629.81	1226.82
630.15	1219.54
630.50	1212.10
630.84	1204.03
631.19	1196.07
631.53	1188.80
631.88	1181.33
632.22	1173.75
632.57	1166.42
632.91	1158.87
633.26	1151.39
633.60	1144.09
633.95	1137.08
634.29	1130.14
634.64	1123.41
634.98	1116.00
635.32	1108.89
635.67	1102.34
636.01	1095.77
636.36	1089.05
636.70	1082.64
637.05	1076.09
637.39	1069.64
637.73	1063.11
638.08	1057.18
638.42	1051.17
638.77	1044.56
639.11	1037.92
639.45	1031.57
639.80	1024.90
640.14	1018.46
640.49	1011.97
640.83	1005.63
641.17	999.30
641.52	993.02
641.86	986.65
642.20	980.87
642.55	974.65
642.89	968.11
643.23	961.56
643.58	955.79
643.92	949.56
644.26	943.38
644.61	937.42
644.95	931.38
645.29	924.71
645.64	917.98
645.98	911.72
646.32	905.99
646.66	899.97
647.01	894.20
647.35	888.57
647.69	882.70
648.04	877.26
648.38	871.48
648.72	865.45
649.06	859.39
649.41	853.51
649.75	847.42
650.09	841.55
650.43	835.79
650.78	829.68
651.12	823.68
651.46	818.08
651.80	812.24
652.14	806.94
652.49	801.55
652.83	796.34
653.17	790.57
653.51	784.78
653.85	779.48
654.20	773.84
654.54	767.89
654.88	762.17
655.22	756.22
655.56	750.60
655.90	745.16
656.25	739.92
656.59	734.59
656.93	729.49
657.27	724.38
657.61	718.97
657.95	713.90
658.29	708.92
658.64	703.71
658.98	698.45
659.32	692.93
659.66	687.78
660.00	682.48
660.34	677.58
660.68	672.71
661.02	667.62
661.36	662.96
661.70	658.40
662.05	654.09
662.39	649.76
662.73	645.30
663.07	640.94
663.41	636.50
663.75	632.03
664.09	627.51
664.43	623.13
664.77	618.95
665.11	614.64
665.45	610.57
665.79	606.42
666.13	602.30
666.47	598.22
666.81	594.03
667.15	589.93
667.49	586.02
667.83	582.21
668.17	578.25
668.51	574.12
668.85	570.13
669.19	566.26
669.53	562.36
669.87	558.46
670.21	554.77
670.55	551.09
670.89	547.63
671.23	544.15
671.57	540.60
671.91	537.06
672.25	533.61
672.58	530.04
672.92	526.73
673.26	523.58
673.60	520.42
673.94	517.33
674.28	514.41
674.62	511.48
674.96	508.36
675.30	505.41
675.64	502.51
675.97	499.76
676.31	496.89
676.65	493.97
676.99	491.28
677.33	488.40
677.67	485.62
678.01	482.61
678.34	479.67
678.68	476.85
679.02	474.09
679.36	471.31
679.70	468.54
680.04	465.71
680.37	462.80
680.71	460.04
681.05	457.45
681.39	454.76
681.73	452.14
682.06	449.62
682.40	447.17
682.74	444.62
683.08	442.04
683.42	439.44
683.75	436.99
684.09	434.43
684.43	432.01
684.77	429.54
685.10	427.20
685.44	424.90
685.78	422.58
686.12	420.33
686.45	418.03
686.79	415.81
687.13	413.65
687.46	411.55
687.80	409.43
688.14	407.23
688.48	405.18
688.81	402.87
689.15	400.70
689.49	398.49
689.82	396.43
690.16	394.27
690.50	392.37
690.83	390.43
691.17	388.48
691.51	386.57
691.84	384.72
692.18	382.79
692.52	380.82
692.85	378.89
693.19	377.00
693.52	375.24
693.86	373.43
694.20	371.63
694.53	369.83
694.87	367.97
695.21	366.22
695.54	364.43
695.88	362.77
696.21	361.06
696.55	359.38
696.88	357.71
697.22	356.18
697.56	354.52
697.89	352.86
698.23	351.25
698.56	349.62
698.90	347.99
699.23	346.36
699.57	344.80
699.90	343.31
700.24	341.80
700.58	340.22
700.91	338.74
701.25	337.34
701.58	335.96
701.92	334.61
702.25	333.19
702.59	331.84
702.92	330.48
703.26	329.18
703.59	327.94
703.93	326.75
704.26	325.50
704.60	324.20
704.93	322.90
705.26	321.65
705.60	320.52
705.93	319.37
706.27	318.36
706.60	317.33
706.94	316.24
707.27	315.07
707.61	314.04
707.94	312.98
708.27	311.85
708.61	310.79
708.94	309.75
709.28	308.76
709.61	307.80
709.94	306.86
710.28	305.81
710.61	304.83
710.95	303.74
711.28	302.82
711.61	301.89
711.95	301.02
712.28	300.04
712.61	299.05
712.95	298.11
713.28	297.21
713.61	296.24
713.95	295.36
714.28	294.54
714.61	293.67
714.95	292.85
715.28	291.96
715.61	291.11
715.95	290.29
716.28	289.44
716.61	288.58
716.95	287.75
717.28	287.05
717.61	286.23
717.94	285.51
718.28	284.68
718.61	283.95
718.94	283.21
719.27	282.56
719.61	281.92
719.94	281.29
720.27	280.54
720.60	279.89
720.94	279.25
721.27	278.65
721.60	278.07
721.93	277.46
722.27	276.94
722.60	276.37
722.93	275.81
723.26	275.26
723.59	274.71
723.93	274.21
724.26	273.63
724.59	273.13
724.92	272.60
725.25	272.12
725.59	271.61
725.92	271.16
726.25	270.66
726.58	270.18
726.91	269.66
727.24	269.22
727.57	268.77
727.91	268.25
728.24	267.78
728.57	267.27
728.90	266.82
729.23	266.30
729.56	265.88
729.89	265.40
730.22	264.92
730.55	264.45
730.89	263.96
731.22	263.52
731.55	263.10
731.88	262.69
732.21	262.30
732.54	261.84
732.87	261.38
733.20	261.03
733.53	260.63
733.86	260.29
734.19	259.90
734.52	259.54
734.85	259.26
735.18	258.85
735.51	258.52
735.84	258.15
736.17	257.81
736.50	257.38
736.83	257.17
737.16	256.85
737.49	256.53
737.82	256.23
738.15	255.94
738.48	255.59
738.81	255.26
739.14	254.92
739.47	254.65
739.80	254.35
740.13	254.03
740.46	253.70
740.79	253.37
741.12	253.09
741.45	252.77
741.78	252.40
742.11	252.10
742.44	251.75
742.77	251.50
743.10	251.22
743.43	250.96
743.75	250.56
744.08	250.43
744.41	250.14
744.74	249.80
745.07	249.50
745.40	249.30
745.73	249.07
746.06	248.79
746.39	248.52
746.71	248.24
747.04	247.93
747.37	247.67
747.70	247.43
748.03	247.16
748.36	246.94
748.68	246.69
749.01	246.46
749.34	246.27
749.67	246.00
750.00	245.76
750.33	245.59
750.65	245.38
750.98	244.99
751.31	244.76
751.64	244.60
751.97	244.42
752.29	244.16
752.62	243.90
752.95	243.68
753.28	243.44
753.60	243.25
753.93	243.07
754.26	242.90
754.59	242.69
754.91	242.45
755.24	242.22
755.57	242.06
755.90	241.86
756.22	241.63
756.55	241.43
756.88	241.25
757.20	241.01
757.53	240.83
757.86	240.67
758.19	240.55
758.51	240.32
758.84	240.13
759.17	239.97
759.49	239.81
759.82	239.67
760.15	239.54
760.47	239.38
760.80	239.19
761.13	239.03
761.45	238.85
761.78	238.71
762.11	238.59
762.43	238.40
762.76	238.26
763.08	238.17
763.41	238.05
763.74	237.91
764.06	237.75
764.39	237.62
764.71	237.50
765.04	237.37
765.37	237.25
765.69	237.10
766.02	236.95
766.34	236.82
766.67	236.72
767.00	236.64
767.32	236.61
767.65	236.56
767.97	236.42
768.30	236.31
768.62	236.22
768.95	236.11
769.27	236.05
769.60	235.99
769.92	235.84
770.25	235.68
770.57	235.60
770.90	235.51
771.22	235.41
771.55	235.31
771.87	235.24
772.20	235.17
772.52	235.18
772.85	235.21
773.17	235.13
773.50	235.05
773.82	234.95
774.15	234.79
774.47	234.64
774.80	234.54
775.12	234.47
775.45	234.38
775.77	234.30
776.09	234.22
776.42	234.15
776.74	234.11
777.07	234.07
777.39	233.96
777.72	233.91
778.04	233.87
778.36	233.78
778.69	233.65
779.01	233.60
779.33	233.44
779.66	233.29
779.98	233.21
780.31	233.13
780.63	233.09
780.95	233.06
781.28	233.02
781.60	232.95
781.92	232.91
782.25	232.89
782.57	232.86
782.89	232.78
783.22	232.68
783.54	232.61
783.86	232.56
784.19	232.51
784.51	232.48
784.83	232.41
785.16	232.35
785.48	232.32
785.80	232.26
786.12	232.21
786.45	232.16
786.77	232.12
787.09	232.07
