SpectraSuite Data File
++++++++++++++++++++++++++++++++++++
Date: Fri Feb 01 15:09:34 EST 2013
User: group
Dark Spectrum Present: No
Reference Spectrum Present: No
Number of Sampled Component Spectra: 1
Spectrometers: USB2E7196
Integration Time (usec): 35000 (USB2E7196)
Spectra Averaged: 100 (USB2E7196)
Boxcar Smoothing: 10 (USB2E7196)
Correct for Electrical Dark: No (USB2E7196)
Strobe/Lamp Enabled: No (USB2E7196)
Correct for Detector Non-linearity: No (USB2E7196)
Correct for Stray Light: No (USB2E7196)
Number of Pixels in Processed Spectrum: 2048
>>>>>Begin Processed Spectral Data<<<<<
339.09	0.00
339.48	214.88
339.86	217.02
340.24	218.32
340.63	219.44
341.01	222.28
341.39	222.90
341.78	223.56
342.16	224.62
342.54	225.45
342.93	213.61
343.31	224.41
343.69	224.98
344.07	225.42
344.46	225.82
344.84	226.21
345.22	226.43
345.60	226.62
345.99	226.79
346.37	226.93
346.75	227.04
347.13	227.11
347.52	227.21
347.90	227.28
348.28	227.31
348.66	227.34
349.05	227.31
349.43	227.29
349.81	227.36
350.19	227.42
350.57	227.44
350.96	227.53
351.34	227.60
351.72	227.66
352.10	227.78
352.48	227.87
352.87	227.92
353.25	227.98
353.63	228.06
354.01	228.14
354.39	228.20
354.77	228.26
355.15	228.37
355.54	228.42
355.92	228.43
356.30	228.48
356.68	228.59
357.06	228.70
357.44	228.75
357.82	228.80
358.20	228.86
358.58	228.96
358.97	229.02
359.35	229.10
359.73	229.18
360.11	229.21
360.49	229.23
360.87	229.27
361.25	229.36
361.63	229.43
362.01	229.45
362.39	229.43
362.77	229.44
363.15	229.43
363.53	229.44
363.91	229.47
364.29	229.48
364.67	229.42
365.05	229.41
365.43	229.48
365.81	229.51
366.19	229.55
366.57	229.57
366.95	229.56
367.33	229.51
367.71	229.48
368.09	229.49
368.47	229.48
368.85	229.45
369.23	229.42
369.61	229.37
369.99	229.36
370.37	229.40
370.75	229.40
371.13	229.35
371.51	229.29
371.89	229.26
372.27	229.21
372.65	229.16
373.03	229.11
373.41	229.01
373.78	228.96
374.16	228.85
374.54	228.76
374.92	228.65
375.30	228.62
375.68	228.51
376.06	228.45
376.44	228.38
376.82	228.32
377.19	228.25
377.57	228.17
377.95	228.09
378.33	227.98
378.71	227.87
379.09	227.82
379.47	227.77
379.84	227.68
380.22	227.60
380.60	227.52
380.98	227.45
381.36	227.39
381.73	227.29
382.11	227.24
382.49	227.18
382.87	227.14
383.25	227.08
383.62	227.16
384.00	227.07
384.38	227.01
384.76	226.97
385.13	226.94
385.51	226.88
385.89	226.82
386.27	226.76
386.64	226.73
387.02	226.65
387.40	226.58
387.78	226.57
388.15	226.55
388.53	226.52
388.91	226.47
389.29	226.42
389.66	226.40
390.04	226.39
390.42	226.38
390.79	226.32
391.17	226.30
391.55	226.17
391.92	226.18
392.30	226.19
392.68	226.17
393.05	226.17
393.43	226.16
393.81	226.16
394.18	226.17
394.56	226.19
394.94	226.26
395.31	226.32
395.69	226.36
396.06	226.40
396.44	226.43
396.82	226.48
397.19	226.57
397.57	226.63
397.95	226.68
398.32	226.69
398.70	226.82
399.07	226.89
399.45	226.96
399.82	227.03
400.20	227.12
400.58	227.18
400.95	227.22
401.33	227.36
401.70	227.56
402.08	227.68
402.45	227.80
402.83	227.90
403.20	227.99
403.58	228.10
403.95	228.25
404.33	228.42
404.71	228.56
405.08	228.76
405.46	228.92
405.83	229.07
406.21	229.21
406.58	229.37
406.96	229.53
407.33	229.74
407.70	229.93
408.08	230.22
408.45	230.46
408.83	230.73
409.20	230.92
409.58	231.09
409.95	231.37
410.33	231.60
410.70	231.86
411.08	232.21
411.45	232.54
411.82	232.82
412.20	233.13
412.57	233.52
412.95	233.81
413.32	234.20
413.69	234.61
414.07	235.09
414.44	235.53
414.82	236.00
415.19	236.52
415.56	237.07
415.94	237.57
416.31	238.22
416.68	238.83
417.06	239.54
417.43	240.23
417.81	240.95
418.18	241.77
418.55	242.63
418.93	243.45
419.30	244.33
419.67	245.30
420.04	246.28
420.42	247.30
420.79	248.47
421.16	249.65
421.54	250.84
421.91	252.06
422.28	253.31
422.66	254.66
423.03	255.99
423.40	257.32
423.77	258.70
424.15	260.11
424.52	261.60
424.89	263.21
425.26	264.73
425.64	266.19
426.01	267.79
426.38	269.43
426.75	271.12
427.13	272.81
427.50	274.59
427.87	276.47
428.24	278.35
428.61	280.09
428.99	282.00
429.36	284.14
429.73	286.22
430.10	288.22
430.47	290.28
430.85	292.39
431.22	294.63
431.59	297.04
431.96	299.30
432.33	301.78
432.70	304.20
433.08	306.99
433.45	309.64
433.82	312.25
434.19	315.14
434.56	317.99
434.93	320.66
435.30	323.30
435.68	326.17
436.05	329.00
436.42	331.82
436.79	334.33
437.16	337.00
437.53	339.81
437.90	342.65
438.27	345.41
438.64	348.23
439.01	350.87
439.38	353.11
439.75	355.26
440.13	357.80
440.50	360.15
440.87	362.07
441.24	364.02
441.61	366.21
441.98	367.72
442.35	369.49
442.72	371.37
443.09	373.18
443.46	374.20
443.83	374.76
444.20	375.28
444.57	376.15
444.94	376.42
445.31	376.79
445.68	377.12
446.05	377.22
446.42	376.86
446.79	376.44
447.16	376.00
447.53	375.75
447.90	374.61
448.27	373.40
448.64	371.79
449.01	370.65
449.37	368.64
449.74	366.73
450.11	364.50
450.48	362.07
450.85	359.57
451.22	357.42
451.59	355.44
451.96	353.46
452.33	350.82
452.70	348.45
453.07	345.60
453.43	342.73
453.80	339.93
454.17	337.24
454.54	334.68
454.91	331.95
455.28	329.24
455.65	326.72
456.02	324.27
456.38	322.14
456.75	319.44
457.12	317.21
457.49	315.02
457.86	312.83
458.23	310.93
458.59	308.89
458.96	306.82
459.33	304.95
459.70	303.13
460.07	301.64
460.43	299.98
460.80	298.37
461.17	296.93
461.54	295.42
461.91	293.97
462.27	292.50
462.64	291.25
463.01	289.86
463.38	288.53
463.74	287.15
464.11	285.97
464.48	284.97
464.85	283.84
465.21	282.93
465.58	282.01
465.95	280.89
466.32	279.95
466.68	278.99
467.05	278.09
467.42	277.16
467.78	276.17
468.15	275.24
468.52	274.54
468.88	273.67
469.25	272.87
469.62	272.24
469.98	271.58
470.35	270.91
470.72	270.32
471.08	269.68
471.45	269.15
471.82	268.59
472.18	267.94
472.55	267.47
472.92	266.93
473.28	266.43
473.65	266.00
474.02	265.54
474.38	265.18
474.75	264.83
475.11	264.47
475.48	264.23
475.85	263.98
476.21	263.74
476.58	263.54
476.94	263.40
477.31	263.25
477.67	263.05
478.04	262.95
478.41	262.88
478.77	262.89
479.14	262.81
479.50	262.85
479.87	262.94
480.23	263.02
480.60	263.08
480.96	263.19
481.33	263.40
481.69	263.59
482.06	263.78
482.42	264.00
482.79	264.26
483.15	264.59
483.52	264.96
483.88	265.33
484.25	265.69
484.61	266.17
484.98	266.56
485.34	267.13
485.71	267.71
486.07	268.28
486.44	268.85
486.80	269.57
487.17	270.29
487.53	271.12
487.90	271.97
488.26	272.90
488.62	273.85
488.99	274.81
489.35	275.88
489.72	276.96
490.08	278.15
490.44	279.40
490.81	280.71
491.17	282.02
491.54	283.50
491.90	285.05
492.26	286.68
492.63	288.47
492.99	290.25
493.36	292.17
493.72	294.23
494.08	296.34
494.45	298.55
494.81	300.95
495.17	303.36
495.54	305.96
495.90	308.63
496.26	311.44
496.63	314.41
496.99	317.50
497.35	320.76
497.72	324.12
498.08	327.61
498.44	331.27
498.80	335.26
499.17	339.26
499.53	343.43
499.89	347.73
500.26	352.23
500.62	356.93
500.98	361.89
501.34	366.99
501.71	372.33
502.07	377.71
502.43	383.21
502.79	389.01
503.16	395.03
503.52	401.29
503.88	407.69
504.24	414.26
504.60	421.17
504.97	428.32
505.33	435.63
505.69	443.34
506.05	451.06
506.41	458.90
506.78	467.07
507.14	475.54
507.50	484.26
507.86	493.22
508.22	502.36
508.59	511.46
508.95	521.01
509.31	530.78
509.67	540.90
510.03	551.21
510.39	561.73
510.75	572.52
511.12	583.42
511.48	594.67
511.84	606.11
512.20	617.59
512.56	629.50
512.92	641.73
513.28	654.13
513.64	666.66
514.00	679.34
514.37	692.30
514.73	705.33
515.09	718.36
515.45	731.67
515.81	745.27
516.17	759.28
516.53	773.43
516.89	787.64
517.25	801.87
517.61	816.39
517.97	830.90
518.33	845.40
518.69	860.21
519.05	875.30
519.41	890.48
519.77	906.12
520.13	921.72
520.49	937.08
520.85	952.52
521.21	968.23
521.57	984.51
521.93	1000.36
522.29	1016.74
522.65	1033.11
523.01	1049.34
523.37	1065.47
523.73	1081.73
524.09	1097.81
524.45	1114.19
524.81	1130.83
525.17	1147.73
525.53	1164.69
525.89	1181.63
526.25	1198.58
526.61	1214.98
526.97	1231.82
527.33	1248.31
527.68	1264.83
528.04	1281.36
528.40	1298.08
528.76	1315.22
529.12	1331.86
529.48	1348.83
529.84	1365.01
530.20	1381.55
530.56	1398.74
530.91	1416.07
531.27	1432.77
531.63	1449.37
531.99	1465.95
532.35	1481.98
532.71	1497.82
533.07	1514.17
533.42	1530.00
533.78	1546.04
534.14	1562.39
534.50	1577.83
534.86	1593.74
535.21	1609.06
535.57	1625.09
535.93	1640.58
536.29	1655.54
536.65	1670.83
537.00	1685.76
537.36	1701.18
537.72	1715.91
538.08	1730.29
538.44	1744.25
538.79	1758.42
539.15	1772.26
539.51	1786.15
539.87	1800.63
540.22	1814.42
540.58	1828.19
540.94	1841.75
541.29	1854.93
541.65	1867.66
542.01	1881.01
542.37	1893.28
542.72	1905.82
543.08	1917.71
543.44	1930.20
543.79	1941.47
544.15	1952.55
544.51	1964.10
544.87	1975.09
545.22	1985.92
545.58	1996.21
545.94	2006.08
546.29	2016.06
546.65	2025.84
547.01	2035.18
547.36	2043.80
547.72	2052.35
548.07	2060.33
548.43	2068.64
548.79	2076.61
549.14	2084.21
549.50	2091.47
549.86	2099.46
550.21	2106.69
550.57	2113.95
550.92	2120.54
551.28	2127.61
551.64	2134.64
551.99	2141.11
552.35	2147.19
552.70	2153.38
553.06	2159.36
553.41	2165.73
553.77	2171.59
554.13	2177.77
554.48	2183.74
554.84	2189.18
555.19	2194.62
555.55	2199.70
555.90	2203.98
556.26	2208.73
556.61	2213.44
556.97	2217.64
557.32	2221.67
557.68	2225.84
558.03	2230.09
558.39	2233.82
558.74	2238.36
559.10	2242.00
559.45	2245.61
559.81	2249.99
560.16	2253.64
560.52	2256.82
560.87	2260.23
561.23	2263.07
561.58	2265.87
561.94	2268.42
562.29	2270.86
562.64	2273.33
563.00	2276.00
563.35	2279.51
563.71	2282.58
564.06	2285.70
564.42	2288.62
564.77	2290.97
565.12	2293.13
565.48	2294.75
565.83	2296.42
566.19	2297.59
566.54	2298.61
566.89	2299.57
567.25	2299.91
567.60	2301.26
567.96	2302.86
568.31	2303.43
568.66	2304.25
569.02	2304.77
569.37	2305.03
569.72	2305.83
570.08	2305.85
570.43	2305.67
570.78	2304.93
571.14	2303.37
571.49	2301.86
571.84	2301.37
572.20	2300.11
572.55	2299.00
572.90	2297.43
573.26	2295.92
573.61	2294.24
573.96	2292.25
574.31	2289.26
574.67	2286.26
575.02	2282.55
575.37	2279.02
575.72	2275.20
576.08	2271.74
576.43	2268.40
576.78	2264.60
577.13	2261.26
577.49	2258.06
577.84	2254.42
578.19	2250.56
578.54	2246.78
578.90	2242.44
579.25	2236.91
579.60	2231.86
579.95	2226.75
580.30	2221.75
580.66	2216.44
581.01	2211.40
581.36	2206.41
581.71	2202.04
582.06	2197.48
582.42	2192.90
582.77	2187.68
583.12	2183.01
583.47	2178.12
583.82	2172.83
584.17	2167.55
584.53	2161.94
584.88	2156.24
585.23	2150.22
585.58	2144.70
585.93	2139.13
586.28	2134.39
586.63	2129.04
586.98	2123.88
587.34	2119.12
587.69	2113.90
588.04	2108.66
588.39	2102.80
588.74	2096.21
589.09	2089.98
589.44	2083.07
589.79	2076.95
590.14	2071.18
590.49	2064.59
590.84	2058.23
591.19	2052.21
591.54	2045.57
591.89	2038.15
592.25	2031.26
592.60	2024.15
592.95	2016.43
593.30	2008.91
593.65	2001.19
594.00	1994.11
594.35	1986.79
594.70	1978.58
595.05	1971.38
595.40	1964.06
595.75	1956.56
596.10	1950.27
596.45	1943.46
596.80	1937.21
597.15	1930.51
597.50	1923.38
597.85	1916.80
598.19	1910.05
598.54	1902.85
598.89	1896.20
599.24	1890.18
599.59	1883.47
599.94	1877.24
600.29	1870.93
600.64	1864.40
600.99	1856.84
601.34	1850.03
601.69	1843.00
602.04	1836.10
602.39	1828.77
602.74	1821.87
603.08	1815.18
603.43	1808.45
603.78	1801.30
604.13	1794.02
604.48	1786.57
604.83	1779.75
605.18	1772.64
605.53	1764.63
605.87	1756.54
606.22	1749.20
606.57	1741.40
606.92	1734.01
607.27	1726.75
607.62	1719.79
607.96	1712.40
608.31	1705.76
608.66	1697.99
609.01	1690.33
609.36	1682.77
609.70	1674.73
610.05	1666.60
610.40	1658.69
610.75	1650.30
611.10	1642.36
611.44	1634.12
611.79	1626.24
612.14	1617.47
612.49	1608.50
612.83	1600.22
613.18	1592.18
613.53	1584.25
613.88	1575.58
614.22	1567.36
614.57	1558.79
614.92	1550.74
615.27	1543.26
615.61	1535.02
615.96	1527.08
616.31	1519.55
616.65	1512.25
617.00	1504.71
617.35	1497.07
617.70	1488.71
618.04	1480.14
618.39	1471.94
618.74	1464.17
619.08	1455.90
619.43	1448.29
619.78	1441.26
620.12	1433.94
620.47	1426.44
620.82	1418.24
621.16	1411.03
621.51	1403.33
621.85	1395.71
622.20	1387.18
622.55	1378.80
622.89	1370.99
623.24	1363.54
623.59	1356.25
623.93	1348.64
624.28	1341.51
624.62	1333.97
624.97	1326.97
625.32	1320.41
625.66	1313.47
626.01	1306.31
626.35	1298.85
626.70	1291.19
627.04	1283.45
627.39	1275.81
627.73	1268.37
628.08	1261.36
628.43	1253.92
628.77	1246.64
629.12	1239.11
629.46	1232.01
629.81	1224.67
630.15	1217.36
630.50	1209.91
630.84	1201.71
631.19	1193.89
631.53	1186.35
631.88	1178.89
632.22	1171.26
632.57	1163.92
632.91	1156.45
633.26	1149.12
633.60	1141.81
633.95	1134.77
634.29	1127.90
634.64	1121.30
634.98	1113.99
635.32	1106.95
635.67	1100.44
636.01	1093.83
636.36	1087.03
636.70	1080.57
637.05	1074.05
637.39	1067.68
637.73	1061.17
638.08	1055.30
638.42	1049.32
638.77	1042.88
639.11	1036.25
639.45	1030.01
639.80	1023.38
640.14	1016.99
640.49	1010.49
640.83	1004.27
641.17	998.07
641.52	991.73
641.86	985.27
642.20	979.39
642.55	973.12
642.89	966.61
643.23	960.14
643.58	954.41
643.92	948.21
644.26	942.11
644.61	936.11
644.95	930.05
645.29	923.44
645.64	916.67
645.98	910.32
646.32	904.50
646.66	898.40
647.01	892.68
647.35	887.00
647.69	881.14
648.04	875.58
648.38	869.73
648.72	863.71
649.06	857.67
649.41	851.89
649.75	845.84
650.09	839.91
650.43	834.03
650.78	827.95
651.12	821.98
651.46	816.29
651.80	810.46
652.14	805.13
652.49	799.84
652.83	794.70
653.17	789.06
653.51	783.39
653.85	778.01
654.20	772.24
654.54	766.29
654.88	760.62
655.22	754.73
655.56	749.08
655.90	743.71
656.25	738.39
656.59	732.99
656.93	727.97
657.27	722.77
657.61	717.39
657.95	712.21
658.29	707.19
658.64	701.95
658.98	696.75
659.32	691.27
659.66	686.04
660.00	680.67
660.34	675.80
660.68	670.87
661.02	665.82
661.36	661.12
661.70	656.59
662.05	652.23
662.39	647.91
662.73	643.45
663.07	639.02
663.41	634.59
663.75	630.06
664.09	625.53
664.43	621.23
664.77	617.12
665.11	612.89
665.45	608.73
665.79	604.70
666.13	600.53
666.47	596.50
666.81	592.34
667.15	588.30
667.49	584.36
667.83	580.56
668.17	576.64
668.51	572.67
668.85	568.67
669.19	564.86
669.53	560.96
669.87	557.07
670.21	553.32
670.55	549.71
670.89	546.34
671.23	542.89
671.57	539.38
671.91	535.90
672.25	532.53
672.58	529.09
672.92	525.74
673.26	522.63
673.60	519.52
673.94	516.43
674.28	513.55
674.62	510.63
674.96	507.57
675.30	504.67
675.64	501.78
675.97	499.04
676.31	496.25
676.65	493.36
676.99	490.69
677.33	487.90
677.67	485.14
678.01	482.13
678.34	479.17
678.68	476.34
679.02	473.54
679.36	470.76
679.70	468.05
680.04	465.29
680.37	462.44
680.71	459.70
681.05	457.15
681.39	454.53
681.73	451.90
682.06	449.37
682.40	446.85
682.74	444.34
683.08	441.84
683.42	439.22
683.75	436.86
684.09	434.36
684.43	431.94
684.77	429.46
685.10	427.15
685.44	424.87
685.78	422.66
686.12	420.42
686.45	418.17
686.79	415.89
687.13	413.72
687.46	411.53
687.80	409.35
688.14	407.13
688.48	405.00
688.81	402.78
689.15	400.67
689.49	398.57
689.82	396.51
690.16	394.44
690.50	392.46
690.83	390.46
691.17	388.49
691.51	386.62
691.84	384.75
692.18	382.80
692.52	380.82
692.85	378.84
693.19	376.99
693.52	375.19
693.86	373.38
694.20	371.57
694.53	369.87
694.87	368.03
695.21	366.27
695.54	364.52
695.88	362.79
696.21	361.04
696.55	359.35
696.88	357.65
697.22	356.00
697.56	354.45
697.89	352.79
698.23	351.18
698.56	349.54
698.90	347.95
699.23	346.32
699.57	344.78
699.90	343.25
700.24	341.68
700.58	340.13
700.91	338.60
701.25	337.17
701.58	335.73
701.92	334.38
702.25	332.94
702.59	331.52
702.92	330.22
703.26	328.91
703.59	327.63
703.93	326.44
704.26	325.17
704.60	323.82
704.93	322.57
705.26	321.30
705.60	320.15
705.93	319.03
706.27	318.02
706.60	316.94
706.94	315.91
707.27	314.79
707.61	313.71
707.94	312.71
708.27	311.57
708.61	310.51
708.94	309.52
709.28	308.57
709.61	307.65
709.94	306.65
710.28	305.65
710.61	304.65
710.95	303.55
711.28	302.65
711.61	301.70
711.95	300.80
712.28	299.86
712.61	298.84
712.95	297.90
713.28	297.02
713.61	296.14
713.95	295.20
714.28	294.39
714.61	293.50
714.95	292.62
715.28	291.78
715.61	290.91
715.95	290.05
716.28	289.23
716.61	288.42
716.95	287.65
717.28	286.93
717.61	286.20
717.94	285.50
718.28	284.73
718.61	284.04
718.94	283.34
719.27	282.70
719.61	282.09
719.94	281.46
720.27	280.75
720.60	280.10
720.94	279.48
721.27	278.86
721.60	278.32
721.93	277.78
722.27	277.30
722.60	276.73
722.93	276.16
723.26	275.63
723.59	275.08
723.93	274.53
724.26	274.00
724.59	273.47
724.92	272.91
725.25	272.41
725.59	271.90
725.92	271.39
726.25	270.89
726.58	270.40
726.91	269.88
727.24	269.40
727.57	268.94
727.91	268.45
728.24	267.99
728.57	267.51
728.90	267.07
729.23	266.55
729.56	266.18
729.89	265.74
730.22	265.23
730.55	264.76
730.89	264.31
731.22	263.84
731.55	263.41
731.88	263.01
732.21	262.57
732.54	262.16
732.87	261.73
733.20	261.36
733.53	260.98
733.86	260.63
734.19	260.21
734.52	259.81
734.85	259.54
735.18	259.15
735.51	258.78
735.84	258.41
736.17	258.03
736.50	257.60
736.83	257.35
737.16	257.01
737.49	256.64
737.82	256.29
738.15	255.97
738.48	255.59
738.81	255.26
739.14	254.91
739.47	254.57
739.80	254.26
740.13	253.94
740.46	253.59
740.79	253.23
741.12	252.96
741.45	252.63
741.78	252.23
742.11	251.91
742.44	251.60
742.77	251.28
743.10	250.99
743.43	250.69
743.75	250.33
744.08	250.17
744.41	249.88
744.74	249.61
745.07	249.33
745.40	249.09
745.73	248.84
746.06	248.56
746.39	248.33
746.71	248.08
747.04	247.80
747.37	247.52
747.70	247.30
748.03	247.03
748.36	246.83
748.68	246.61
749.01	246.36
749.34	246.07
749.67	245.84
750.00	245.62
750.33	245.45
750.65	245.22
750.98	244.89
751.31	244.71
751.64	244.51
751.97	244.35
752.29	244.13
752.62	243.88
752.95	243.70
753.28	243.50
753.60	243.27
753.93	243.10
754.26	242.92
754.59	242.72
754.91	242.50
755.24	242.28
755.57	242.09
755.90	241.93
756.22	241.77
756.55	241.61
756.88	241.43
757.20	241.21
757.53	241.01
757.86	240.85
758.19	240.71
758.51	240.54
758.84	240.34
759.17	240.16
759.49	240.04
759.82	239.92
760.15	239.72
760.47	239.57
760.80	239.42
761.13	239.31
761.45	239.15
761.78	239.03
762.11	238.94
762.43	238.78
762.76	238.62
763.08	238.51
763.41	238.36
763.74	238.25
764.06	238.12
764.39	237.95
764.71	237.82
765.04	237.65
765.37	237.52
765.69	237.41
766.02	237.28
766.34	237.14
766.67	237.01
767.00	236.94
767.32	236.89
767.65	236.81
767.97	236.68
768.30	236.58
768.62	236.49
768.95	236.37
769.27	236.30
769.60	236.19
769.92	236.08
770.25	235.96
770.57	235.83
770.90	235.72
771.22	235.66
771.55	235.54
771.87	235.44
772.20	235.33
772.52	235.32
772.85	235.37
773.17	235.25
773.50	235.14
773.82	235.02
774.15	234.89
774.47	234.76
774.80	234.67
775.12	234.58
775.45	234.49
775.77	234.41
776.09	234.35
776.42	234.28
776.74	234.23
777.07	234.16
777.39	234.09
777.72	234.01
778.04	233.93
778.36	233.86
778.69	233.80
779.01	233.73
779.33	233.57
779.66	233.36
779.98	233.29
780.31	233.21
780.63	233.17
780.95	233.14
781.28	233.06
781.60	233.01
781.92	232.93
782.25	232.85
782.57	232.79
782.89	232.69
783.22	232.64
783.54	232.53
783.86	232.50
784.19	232.44
784.51	232.41
784.83	232.35
785.16	232.29
785.48	232.23
785.80	232.18
786.12	232.13
786.45	232.05
786.77	232.02
787.09	231.98
