SpectraSuite Data File
++++++++++++++++++++++++++++++++++++
Date: Fri Feb 01 14:51:15 EST 2013
User: group
Dark Spectrum Present: No
Reference Spectrum Present: No
Number of Sampled Component Spectra: 1
Spectrometers: USB2E7196
Integration Time (usec): 35000 (USB2E7196)
Spectra Averaged: 100 (USB2E7196)
Boxcar Smoothing: 10 (USB2E7196)
Correct for Electrical Dark: No (USB2E7196)
Strobe/Lamp Enabled: No (USB2E7196)
Correct for Detector Non-linearity: No (USB2E7196)
Correct for Stray Light: No (USB2E7196)
Number of Pixels in Processed Spectrum: 2048
>>>>>Begin Processed Spectral Data<<<<<
339.09	0.00
339.48	215.65
339.86	215.88
340.24	218.12
340.63	219.72
341.01	222.12
341.39	222.34
341.78	224.20
342.16	224.75
342.54	225.32
342.93	213.81
343.31	224.62
343.69	225.18
344.07	225.70
344.46	226.14
344.84	226.54
345.22	226.80
345.60	227.05
345.99	227.24
346.37	227.39
346.75	227.51
347.13	227.54
347.52	227.61
347.90	227.66
348.28	227.71
348.66	227.76
349.05	227.79
349.43	227.82
349.81	227.88
350.19	227.92
350.57	227.98
350.96	228.04
351.34	228.14
351.72	228.22
352.10	228.32
352.48	228.38
352.87	228.42
353.25	228.49
353.63	228.58
354.01	228.61
354.39	228.66
354.77	228.72
355.15	228.81
355.54	228.85
355.92	228.91
356.30	228.94
356.68	229.05
357.06	229.12
357.44	229.18
357.82	229.24
358.20	229.31
358.58	229.39
358.97	229.46
359.35	229.51
359.73	229.57
360.11	229.62
360.49	229.68
360.87	229.70
361.25	229.77
361.63	229.82
362.01	229.88
362.39	229.91
362.77	229.96
363.15	229.99
363.53	230.02
363.91	230.05
364.29	230.09
364.67	229.98
365.05	229.98
365.43	229.98
365.81	229.94
366.19	229.96
366.57	229.95
366.95	229.91
367.33	229.86
367.71	229.79
368.09	229.77
368.47	229.72
368.85	229.70
369.23	229.66
369.61	229.59
369.99	229.58
370.37	229.54
370.75	229.53
371.13	229.46
371.51	229.42
371.89	229.36
372.27	229.30
372.65	229.25
373.03	229.21
373.41	229.11
373.78	229.06
374.16	228.93
374.54	228.83
374.92	228.74
375.30	228.66
375.68	228.62
376.06	228.55
376.44	228.47
376.82	228.38
377.19	228.31
377.57	228.20
377.95	228.11
378.33	228.03
378.71	227.89
379.09	227.80
379.47	227.72
379.84	227.63
380.22	227.54
380.60	227.45
380.98	227.37
381.36	227.31
381.73	227.21
382.11	227.17
382.49	227.10
382.87	227.01
383.25	226.94
383.62	226.97
384.00	226.88
384.38	226.84
384.76	226.78
385.13	226.76
385.51	226.74
385.89	226.65
386.27	226.59
386.64	226.57
387.02	226.53
387.40	226.49
387.78	226.45
388.15	226.44
388.53	226.42
388.91	226.42
389.29	226.40
389.66	226.40
390.04	226.37
390.42	226.39
390.79	226.40
391.17	226.42
391.55	226.32
391.92	226.33
392.30	226.33
392.68	226.34
393.05	226.34
393.43	226.33
393.81	226.37
394.18	226.40
394.56	226.43
394.94	226.48
395.31	226.51
395.69	226.57
396.06	226.62
396.44	226.69
396.82	226.71
397.19	226.82
397.57	226.86
397.95	226.94
398.32	226.98
398.70	227.04
399.07	227.14
399.45	227.23
399.82	227.33
400.20	227.42
400.58	227.53
400.95	227.58
401.33	227.70
401.70	227.86
402.08	227.98
402.45	228.08
402.83	228.18
403.20	228.31
403.58	228.43
403.95	228.59
404.33	228.74
404.71	228.88
405.08	229.08
405.46	229.27
405.83	229.41
406.21	229.61
406.58	229.82
406.96	230.00
407.33	230.20
407.70	230.40
408.08	230.68
408.45	230.93
408.83	231.15
409.20	231.37
409.58	231.58
409.95	231.82
410.33	232.10
410.70	232.39
411.08	232.67
411.45	233.01
411.82	233.29
412.20	233.63
412.57	234.03
412.95	234.31
413.32	234.68
413.69	235.07
414.07	235.51
414.44	235.99
414.82	236.44
415.19	236.97
415.56	237.50
415.94	238.05
416.31	238.65
416.68	239.28
417.06	240.01
417.43	240.68
417.81	241.47
418.18	242.24
418.55	243.06
418.93	243.94
419.30	244.83
419.67	245.75
420.04	246.68
420.42	247.63
420.79	248.81
421.16	249.95
421.54	251.17
421.91	252.34
422.28	253.53
422.66	254.90
423.03	256.19
423.40	257.51
423.77	258.90
424.15	260.34
424.52	261.79
424.89	263.36
425.26	264.89
425.64	266.32
426.01	267.89
426.38	269.51
426.75	271.18
427.13	272.87
427.50	274.66
427.87	276.53
428.24	278.41
428.61	280.15
428.99	282.07
429.36	284.16
429.73	286.20
430.10	288.21
430.47	290.22
430.85	292.35
431.22	294.62
431.59	297.03
431.96	299.23
432.33	301.72
432.70	304.12
433.08	306.97
433.45	309.59
433.82	312.21
434.19	315.09
434.56	317.92
434.93	320.57
435.30	323.29
435.68	326.18
436.05	329.03
436.42	331.81
436.79	334.36
437.16	337.05
437.53	339.92
437.90	342.76
438.27	345.53
438.64	348.32
439.01	350.88
439.38	353.09
439.75	355.24
440.13	357.75
440.50	360.09
440.87	361.93
441.24	363.91
441.61	366.04
441.98	367.59
442.35	369.38
442.72	371.22
443.09	373.01
443.46	374.01
443.83	374.63
444.20	375.17
444.57	376.01
444.94	376.31
445.31	376.62
445.68	376.99
446.05	377.06
446.42	376.70
446.79	376.33
447.16	375.90
447.53	375.60
447.90	374.46
448.27	373.31
448.64	371.74
449.01	370.56
449.37	368.64
449.74	366.72
450.11	364.48
450.48	362.04
450.85	359.49
451.22	357.37
451.59	355.33
451.96	353.35
452.33	350.75
452.70	348.42
453.07	345.60
453.43	342.71
453.80	339.98
454.17	337.32
454.54	334.76
454.91	332.00
455.28	329.37
455.65	326.90
456.02	324.43
456.38	322.26
456.75	319.67
457.12	317.43
457.49	315.23
457.86	313.02
458.23	311.17
458.59	309.15
458.96	307.04
459.33	305.17
459.70	303.32
460.07	301.86
460.43	300.13
460.80	298.52
461.17	297.10
461.54	295.59
461.91	294.17
462.27	292.70
462.64	291.48
463.01	290.12
463.38	288.77
463.74	287.40
464.11	286.22
464.48	285.16
464.85	284.02
465.21	283.16
465.58	282.24
465.95	281.13
466.32	280.19
466.68	279.30
467.05	278.39
467.42	277.50
467.78	276.54
468.15	275.64
468.52	274.95
468.88	274.04
469.25	273.22
469.62	272.58
469.98	271.88
470.35	271.20
470.72	270.58
471.08	269.95
471.45	269.36
471.82	268.81
472.18	268.18
472.55	267.73
472.92	267.18
473.28	266.71
473.65	266.26
474.02	265.78
474.38	265.36
474.75	265.05
475.11	264.70
475.48	264.40
475.85	264.15
476.21	263.89
476.58	263.69
476.94	263.55
477.31	263.34
477.67	263.19
478.04	263.10
478.41	263.03
478.77	263.05
479.14	263.00
479.50	263.00
479.87	263.05
480.23	263.11
480.60	263.13
480.96	263.20
481.33	263.39
481.69	263.57
482.06	263.74
482.42	263.88
482.79	264.13
483.15	264.41
483.52	264.78
483.88	265.16
484.25	265.52
484.61	265.91
484.98	266.33
485.34	266.89
485.71	267.42
486.07	268.01
486.44	268.56
486.80	269.27
487.17	269.99
487.53	270.79
487.90	271.62
488.26	272.59
488.62	273.54
488.99	274.47
489.35	275.52
489.72	276.67
490.08	277.87
490.44	279.07
490.81	280.42
491.17	281.75
491.54	283.23
491.90	284.78
492.26	286.42
492.63	288.18
492.99	289.91
493.36	291.79
493.72	293.81
494.08	295.89
494.45	298.07
494.81	300.41
495.17	302.79
495.54	305.38
495.90	308.01
496.26	310.80
496.63	313.73
496.99	316.83
497.35	320.05
497.72	323.46
498.08	326.99
498.44	330.60
498.80	334.50
499.17	338.43
499.53	342.57
499.89	346.92
500.26	351.36
500.62	356.03
500.98	360.99
501.34	366.09
501.71	371.38
502.07	376.82
502.43	382.35
502.79	388.17
503.16	394.20
503.52	400.49
503.88	406.88
504.24	413.54
504.60	420.37
504.97	427.47
505.33	434.77
505.69	442.40
506.05	450.10
506.41	457.89
506.78	466.06
507.14	474.47
507.50	483.17
507.86	492.14
508.22	501.20
508.59	510.37
508.95	519.85
509.31	529.61
509.67	539.63
510.03	549.94
510.39	560.43
510.75	571.19
511.12	582.04
511.48	593.22
511.84	604.61
512.20	616.09
512.56	628.05
512.92	640.13
513.28	652.46
513.64	664.98
514.00	677.76
514.37	690.74
514.73	703.70
515.09	716.65
515.45	729.97
515.81	743.53
516.17	757.46
516.53	771.51
516.89	785.68
517.25	799.79
517.61	814.17
517.97	828.65
518.33	843.06
518.69	857.88
519.05	872.97
519.41	888.17
519.77	903.68
520.13	919.12
520.49	934.49
520.85	949.93
521.21	965.65
521.57	981.94
521.93	997.76
522.29	1014.25
522.65	1030.52
523.01	1046.79
523.37	1062.97
523.73	1079.17
524.09	1095.40
524.45	1111.73
524.81	1128.56
525.17	1145.51
525.53	1162.38
525.89	1179.27
526.25	1196.06
526.61	1212.40
526.97	1229.11
527.33	1245.75
527.68	1262.38
528.04	1278.99
528.40	1295.59
528.76	1312.69
529.12	1329.25
529.48	1346.14
529.84	1362.27
530.20	1378.99
530.56	1396.03
530.91	1413.48
531.27	1430.32
531.63	1446.82
531.99	1463.54
532.35	1479.57
532.71	1495.37
533.07	1511.69
533.42	1527.58
533.78	1543.72
534.14	1560.01
534.50	1575.38
534.86	1591.21
535.21	1606.52
535.57	1622.64
535.93	1638.26
536.29	1653.05
536.65	1668.20
537.00	1683.08
537.36	1698.40
537.72	1713.03
538.08	1727.43
538.44	1741.29
538.79	1755.22
539.15	1769.18
539.51	1783.01
539.87	1797.45
540.22	1811.30
540.58	1825.22
540.94	1838.73
541.29	1851.62
541.65	1864.35
542.01	1877.82
542.37	1890.22
542.72	1902.72
543.08	1914.36
543.44	1926.74
543.79	1938.09
544.15	1949.05
544.51	1960.54
544.87	1971.50
545.22	1982.25
545.58	1992.62
545.94	2002.32
546.29	2012.28
546.65	2021.85
547.01	2030.96
547.36	2039.71
547.72	2048.10
548.07	2055.94
548.43	2064.12
548.79	2072.30
549.14	2080.03
549.50	2087.34
549.86	2094.94
550.21	2102.06
550.57	2109.27
550.92	2115.94
551.28	2123.16
551.64	2130.17
551.99	2136.68
552.35	2142.83
552.70	2148.97
553.06	2154.84
553.41	2161.17
553.77	2167.06
554.13	2173.04
554.48	2179.16
554.84	2184.38
555.19	2189.67
555.55	2194.76
555.90	2199.11
556.26	2203.71
556.61	2208.33
556.97	2212.39
557.32	2216.38
557.68	2220.45
558.03	2224.66
558.39	2228.24
558.74	2232.55
559.10	2236.24
559.45	2239.82
559.81	2243.94
560.16	2247.58
560.52	2250.72
560.87	2254.09
561.23	2256.64
561.58	2259.61
561.94	2261.98
562.29	2264.37
562.64	2266.87
563.00	2269.38
563.35	2272.88
563.71	2275.97
564.06	2278.86
564.42	2281.63
564.77	2284.10
565.12	2286.25
565.48	2287.95
565.83	2289.52
566.19	2290.58
566.54	2291.49
566.89	2292.34
567.25	2292.87
567.60	2294.07
567.96	2295.58
568.31	2296.09
568.66	2296.91
569.02	2297.18
569.37	2297.23
569.72	2297.76
570.08	2297.68
570.43	2297.31
570.78	2296.23
571.14	2294.41
571.49	2292.84
571.84	2292.29
572.20	2290.85
572.55	2289.47
572.90	2287.69
573.26	2285.97
573.61	2284.11
573.96	2282.10
574.31	2278.89
574.67	2275.56
575.02	2271.65
575.37	2267.94
575.72	2264.00
576.08	2260.57
576.43	2257.05
576.78	2253.17
577.13	2249.84
577.49	2246.56
577.84	2243.04
578.19	2239.19
578.54	2235.27
578.90	2230.79
579.25	2224.97
579.60	2219.91
579.95	2214.82
580.30	2209.57
580.66	2204.28
581.01	2199.21
581.36	2194.15
581.71	2189.77
582.06	2185.10
582.42	2180.47
582.77	2175.12
583.12	2170.23
583.47	2165.22
583.82	2159.99
584.17	2154.69
584.53	2148.92
584.88	2143.15
585.23	2137.12
585.58	2131.72
585.93	2126.13
586.28	2121.32
586.63	2116.07
586.98	2110.86
587.34	2106.00
587.69	2100.95
588.04	2095.70
588.39	2089.79
588.74	2083.25
589.09	2077.06
589.44	2070.27
589.79	2064.22
590.14	2058.32
590.49	2051.73
590.84	2045.14
591.19	2039.01
591.54	2032.34
591.89	2024.78
592.25	2017.84
592.60	2010.49
592.95	2002.50
593.30	1995.03
593.65	1987.17
594.00	1980.04
594.35	1972.68
594.70	1964.53
595.05	1957.37
595.40	1949.91
595.75	1942.37
596.10	1935.95
596.45	1928.93
596.80	1922.58
597.15	1915.79
597.50	1908.64
597.85	1902.29
598.19	1895.71
598.54	1888.74
598.89	1882.18
599.24	1876.32
599.59	1869.44
599.94	1863.17
600.29	1856.86
600.64	1850.29
600.99	1842.94
601.34	1836.18
601.69	1829.11
602.04	1822.21
602.39	1814.87
602.74	1808.08
603.08	1801.33
603.43	1794.56
603.78	1787.37
604.13	1780.11
604.48	1772.81
604.83	1765.99
605.18	1758.86
605.53	1750.89
605.87	1742.76
606.22	1735.48
606.57	1727.61
606.92	1720.57
607.27	1713.36
607.62	1706.56
607.96	1699.24
608.31	1692.70
608.66	1685.05
609.01	1677.61
609.36	1670.14
609.70	1661.96
610.05	1653.96
610.40	1646.30
610.75	1638.02
611.10	1630.39
611.44	1622.18
611.79	1614.30
612.14	1605.75
612.49	1596.77
612.83	1588.49
613.18	1580.45
613.53	1572.51
613.88	1564.03
614.22	1555.76
614.57	1547.38
614.92	1539.38
615.27	1531.96
615.61	1523.67
615.96	1515.71
616.31	1508.17
616.65	1500.81
617.00	1493.43
617.35	1485.77
617.70	1477.43
618.04	1469.04
618.39	1461.04
618.74	1453.48
619.08	1445.27
619.43	1437.84
619.78	1431.03
620.12	1423.90
620.47	1416.41
620.82	1408.32
621.16	1401.00
621.51	1393.49
621.85	1385.90
622.20	1377.53
622.55	1369.31
622.89	1361.59
623.24	1354.11
623.59	1346.84
623.93	1339.44
624.28	1332.36
624.62	1324.96
624.97	1317.91
625.32	1311.26
625.66	1304.27
626.01	1297.16
626.35	1289.78
626.70	1282.08
627.04	1274.36
627.39	1266.67
627.73	1259.35
628.08	1252.58
628.43	1245.35
628.77	1238.02
629.12	1230.49
629.46	1223.38
629.81	1216.11
630.15	1209.01
630.50	1201.76
630.84	1193.61
631.19	1185.78
631.53	1178.35
631.88	1170.85
632.22	1163.36
632.57	1156.14
632.91	1148.72
633.26	1141.46
633.60	1134.22
633.95	1127.34
634.29	1120.36
634.64	1113.79
634.98	1106.50
635.32	1099.40
635.67	1092.88
636.01	1086.35
636.36	1079.79
636.70	1073.42
637.05	1066.96
637.39	1060.65
637.73	1054.23
638.08	1048.47
638.42	1042.52
638.77	1036.14
639.11	1029.71
639.45	1023.53
639.80	1016.92
640.14	1010.60
640.49	1004.10
640.83	997.83
641.17	991.59
641.52	985.38
641.86	979.09
642.20	973.40
642.55	967.18
642.89	960.84
643.23	954.39
643.58	948.58
643.92	942.43
644.26	936.36
644.61	930.40
644.95	924.29
645.29	917.72
645.64	911.04
645.98	904.68
646.32	898.95
646.66	892.92
647.01	887.23
647.35	881.50
647.69	875.77
648.04	870.38
648.38	864.68
648.72	858.75
649.06	852.73
649.41	846.89
649.75	840.90
650.09	834.95
650.43	829.20
650.78	823.11
651.12	817.24
651.46	811.59
651.80	805.85
652.14	800.66
652.49	795.39
652.83	790.26
653.17	784.65
653.51	778.94
653.85	773.63
654.20	768.02
654.54	762.11
654.88	756.46
655.22	750.55
655.56	744.88
655.90	739.50
656.25	734.29
656.59	728.98
656.93	724.00
657.27	718.97
657.61	713.63
657.95	708.61
658.29	703.58
658.64	698.39
658.98	693.15
659.32	687.69
659.66	682.56
660.00	677.39
660.34	672.56
660.68	667.74
661.02	662.72
661.36	658.05
661.70	653.61
662.05	649.23
662.39	644.99
662.73	640.62
663.07	636.32
663.41	631.92
663.75	627.55
664.09	623.01
664.43	618.65
664.77	614.61
665.11	610.42
665.45	606.36
665.79	602.33
666.13	598.23
666.47	594.18
666.81	590.04
667.15	585.94
667.49	582.12
667.83	578.33
668.17	574.40
668.51	570.41
668.85	566.49
669.19	562.70
669.53	558.87
669.87	554.98
670.21	551.31
670.55	547.75
670.89	544.35
671.23	540.95
671.57	537.50
671.91	534.00
672.25	530.57
672.58	527.09
672.92	523.81
673.26	520.70
673.60	517.63
673.94	514.56
674.28	511.73
674.62	508.81
674.96	505.73
675.30	502.93
675.64	500.03
675.97	497.33
676.31	494.51
676.65	491.69
676.99	489.07
677.33	486.24
677.67	483.46
678.01	480.43
678.34	477.52
678.68	474.69
679.02	471.95
679.36	469.20
679.70	466.49
680.04	463.66
680.37	460.85
680.71	458.10
681.05	455.54
681.39	452.89
681.73	450.28
682.06	447.79
682.40	445.27
682.74	442.80
683.08	440.26
683.42	437.68
683.75	435.20
684.09	432.66
684.43	430.22
684.77	427.83
685.10	425.55
685.44	423.28
685.78	421.03
686.12	418.77
686.45	416.57
686.79	414.35
687.13	412.23
687.46	410.11
687.80	407.99
688.14	405.78
688.48	403.77
688.81	401.51
689.15	399.43
689.49	397.32
689.82	395.31
690.16	393.25
690.50	391.37
690.83	389.45
691.17	387.52
691.51	385.67
691.84	383.80
692.18	381.88
692.52	379.91
692.85	378.03
693.19	376.16
693.52	374.33
693.86	372.59
694.20	370.83
694.53	369.05
694.87	367.22
695.21	365.51
695.54	363.68
695.88	362.00
696.21	360.28
696.55	358.56
696.88	356.86
697.22	355.22
697.56	353.64
697.89	351.98
698.23	350.38
698.56	348.75
698.90	347.18
699.23	345.53
699.57	344.02
699.90	342.47
700.24	340.96
700.58	339.43
700.91	337.88
701.25	336.42
701.58	335.11
701.92	333.74
702.25	332.30
702.59	330.98
702.92	329.67
703.26	328.42
703.59	327.21
703.93	326.04
704.26	324.86
704.60	323.56
704.93	322.32
705.26	321.10
705.60	319.96
705.93	318.81
706.27	317.84
706.60	316.80
706.94	315.72
707.27	314.60
707.61	313.52
707.94	312.53
708.27	311.47
708.61	310.32
708.94	309.35
709.28	308.43
709.61	307.45
709.94	306.49
710.28	305.43
710.61	304.40
710.95	303.34
711.28	302.41
711.61	301.47
711.95	300.58
712.28	299.66
712.61	298.70
712.95	297.78
713.28	296.86
713.61	295.96
713.95	295.10
714.28	294.30
714.61	293.50
714.95	292.65
715.28	291.81
715.61	291.02
715.95	290.17
716.28	289.30
716.61	288.47
716.95	287.69
717.28	286.99
717.61	286.28
717.94	285.58
718.28	284.77
718.61	284.04
718.94	283.37
719.27	282.73
719.61	282.08
719.94	281.43
720.27	280.76
720.60	280.14
720.94	279.50
721.27	278.91
721.60	278.34
721.93	277.78
722.27	277.27
722.60	276.70
722.93	276.12
723.26	275.62
723.59	275.10
723.93	274.53
724.26	273.98
724.59	273.42
724.92	272.88
725.25	272.41
725.59	271.91
725.92	271.40
726.25	270.87
726.58	270.41
726.91	269.92
727.24	269.45
727.57	269.00
727.91	268.50
728.24	268.02
728.57	267.54
728.90	267.06
729.23	266.53
729.56	266.14
729.89	265.68
730.22	265.17
730.55	264.71
730.89	264.29
731.22	263.83
731.55	263.41
731.88	263.00
732.21	262.56
732.54	262.13
732.87	261.74
733.20	261.35
733.53	260.97
733.86	260.55
734.19	260.16
734.52	259.76
734.85	259.48
735.18	259.07
735.51	258.69
735.84	258.33
736.17	257.99
736.50	257.58
736.83	257.34
737.16	257.03
737.49	256.69
737.82	256.33
738.15	256.07
738.48	255.71
738.81	255.38
739.14	255.03
739.47	254.71
739.80	254.39
740.13	254.04
740.46	253.68
740.79	253.39
741.12	253.09
741.45	252.79
741.78	252.44
742.11	252.15
742.44	251.80
742.77	251.53
743.10	251.22
743.43	250.89
743.75	250.51
744.08	250.35
744.41	250.07
744.74	249.81
745.07	249.49
745.40	249.27
745.73	249.03
746.06	248.80
746.39	248.56
746.71	248.30
747.04	248.02
747.37	247.79
747.70	247.54
748.03	247.28
748.36	247.01
748.68	246.78
749.01	246.54
749.34	246.35
749.67	246.09
750.00	245.88
750.33	245.76
750.65	245.56
750.98	245.24
751.31	244.99
751.64	244.81
751.97	244.67
752.29	244.45
752.62	244.21
752.95	244.02
753.28	243.78
753.60	243.58
753.93	243.43
754.26	243.24
754.59	243.05
754.91	242.84
755.24	242.65
755.57	242.46
755.90	242.29
756.22	242.08
756.55	241.90
756.88	241.68
757.20	241.46
757.53	241.27
757.86	241.12
758.19	240.98
758.51	240.78
758.84	240.56
759.17	240.39
759.49	240.24
759.82	240.11
760.15	239.99
760.47	239.80
760.80	239.66
761.13	239.51
761.45	239.37
761.78	239.25
762.11	239.16
762.43	239.03
762.76	238.89
763.08	238.81
763.41	238.72
763.74	238.63
764.06	238.48
764.39	238.35
764.71	238.18
765.04	238.07
765.37	237.96
765.69	237.81
766.02	237.69
766.34	237.56
766.67	237.40
767.00	237.29
767.32	237.25
767.65	237.19
767.97	237.08
768.30	236.98
768.62	236.87
768.95	236.73
769.27	236.65
769.60	236.56
769.92	236.40
770.25	236.28
770.57	236.17
770.90	236.07
771.22	235.97
771.55	235.89
771.87	235.79
772.20	235.69
772.52	235.73
772.85	235.75
773.17	235.65
773.50	235.55
773.82	235.48
774.15	235.34
774.47	235.17
774.80	235.09
775.12	234.97
775.45	234.88
775.77	234.78
776.09	234.65
776.42	234.57
776.74	234.52
777.07	234.42
777.39	234.32
777.72	234.24
778.04	234.17
778.36	234.06
778.69	234.01
779.01	233.93
779.33	233.74
779.66	233.56
779.98	233.51
780.31	233.43
780.63	233.40
780.95	233.33
781.28	233.24
781.60	233.13
781.92	233.09
782.25	233.03
782.57	232.98
782.89	232.94
783.22	232.83
783.54	232.77
783.86	232.72
784.19	232.67
784.51	232.65
784.83	232.59
785.16	232.53
785.48	232.45
785.80	232.41
786.12	232.39
786.45	232.36
786.77	232.30
787.09	232.24
