SpectraSuite Data File
++++++++++++++++++++++++++++++++++++
Date: Fri Feb 01 17:58:38 EST 2013
User: group
Dark Spectrum Present: No
Reference Spectrum Present: No
Number of Sampled Component Spectra: 1
Spectrometers: USB2E7196
Integration Time (usec): 35000 (USB2E7196)
Spectra Averaged: 100 (USB2E7196)
Boxcar Smoothing: 10 (USB2E7196)
Correct for Electrical Dark: No (USB2E7196)
Strobe/Lamp Enabled: No (USB2E7196)
Correct for Detector Non-linearity: No (USB2E7196)
Correct for Stray Light: No (USB2E7196)
Number of Pixels in Processed Spectrum: 2048
>>>>>Begin Processed Spectral Data<<<<<
339.09	0.00
339.48	212.95
339.86	213.79
340.24	215.51
340.63	216.80
341.01	219.92
341.39	219.54
341.78	221.24
342.16	222.27
342.54	222.76
342.93	211.23
343.31	221.89
343.69	222.41
344.07	222.89
344.46	223.31
344.84	223.73
345.22	223.96
345.60	224.20
345.99	224.37
346.37	224.50
346.75	224.61
347.13	224.67
347.52	224.75
347.90	224.84
348.28	224.86
348.66	224.93
349.05	224.94
349.43	224.98
349.81	225.02
350.19	225.06
350.57	225.15
350.96	225.21
351.34	225.32
351.72	225.45
352.10	225.52
352.48	225.60
352.87	225.66
353.25	225.75
353.63	225.83
354.01	225.89
354.39	225.98
354.77	226.08
355.15	226.22
355.54	226.27
355.92	226.32
356.30	226.43
356.68	226.54
357.06	226.62
357.44	226.68
357.82	226.76
358.20	226.82
358.58	226.89
358.97	226.96
359.35	227.03
359.73	227.10
360.11	227.22
360.49	227.30
360.87	227.30
361.25	227.36
361.63	227.46
362.01	227.53
362.39	227.57
362.77	227.59
363.15	227.59
363.53	227.63
363.91	227.68
364.29	227.69
364.67	227.63
365.05	227.65
365.43	227.66
365.81	227.70
366.19	227.73
366.57	227.77
366.95	227.79
367.33	227.77
367.71	227.77
368.09	227.74
368.47	227.72
368.85	227.75
369.23	227.71
369.61	227.65
369.99	227.67
370.37	227.67
370.75	227.68
371.13	227.62
371.51	227.59
371.89	227.53
372.27	227.50
372.65	227.44
373.03	227.40
373.41	227.36
373.78	227.30
374.16	227.23
374.54	227.15
374.92	227.07
375.30	227.03
375.68	226.91
376.06	226.89
376.44	226.82
376.82	226.71
377.19	226.68
377.57	226.61
377.95	226.51
378.33	226.39
378.71	226.29
379.09	226.28
379.47	226.20
379.84	226.12
380.22	226.06
380.60	226.02
380.98	225.95
381.36	225.88
381.73	225.80
382.11	225.76
382.49	225.69
382.87	225.64
383.25	225.57
383.62	225.64
384.00	225.54
384.38	225.49
384.76	225.50
385.13	225.49
385.51	225.44
385.89	225.39
386.27	225.36
386.64	225.31
387.02	225.23
387.40	225.18
387.78	225.17
388.15	225.14
388.53	225.11
388.91	225.09
389.29	225.08
389.66	225.08
390.04	225.01
390.42	225.00
390.79	224.97
391.17	224.98
391.55	224.85
391.92	224.84
392.30	224.86
392.68	224.82
393.05	224.78
393.43	224.77
393.81	224.78
394.18	224.75
394.56	224.77
394.94	224.81
395.31	224.85
395.69	224.84
396.06	224.82
396.44	224.83
396.82	224.82
397.19	224.86
397.57	224.88
397.95	224.95
398.32	224.96
398.70	225.00
399.07	225.04
399.45	225.09
399.82	225.17
400.20	225.23
400.58	225.32
400.95	225.35
401.33	225.47
401.70	225.59
402.08	225.70
402.45	225.77
402.83	225.87
403.20	225.94
403.58	226.08
403.95	226.23
404.33	226.37
404.71	226.50
405.08	226.70
405.46	226.83
405.83	226.99
406.21	227.18
406.58	227.37
406.96	227.57
407.33	227.78
407.70	227.97
408.08	228.24
408.45	228.51
408.83	228.81
409.20	229.07
409.58	229.33
409.95	229.66
410.33	230.00
410.70	230.34
411.08	230.73
411.45	231.10
411.82	231.52
412.20	231.96
412.57	232.52
412.95	232.89
413.32	233.44
413.69	233.99
414.07	234.57
414.44	235.20
414.82	235.81
415.19	236.53
415.56	237.26
415.94	238.03
416.31	238.84
416.68	239.68
417.06	240.65
417.43	241.53
417.81	242.54
418.18	243.59
418.55	244.73
418.93	245.89
419.30	247.11
419.67	248.37
420.04	249.68
420.42	251.01
420.79	252.62
421.16	254.15
421.54	255.73
421.91	257.37
422.28	259.04
422.66	260.86
423.03	262.59
423.40	264.39
423.77	266.27
424.15	268.22
424.52	270.20
424.89	272.36
425.26	274.47
425.64	276.44
426.01	278.60
426.38	280.80
426.75	283.04
427.13	285.35
427.50	287.79
427.87	290.32
428.24	292.82
428.61	295.22
428.99	297.82
429.36	300.73
429.73	303.54
430.10	306.31
430.47	309.07
430.85	311.99
431.22	314.98
431.59	318.12
431.96	321.12
432.33	324.46
432.70	327.62
433.08	331.44
433.45	334.97
433.82	338.46
434.19	342.34
434.56	346.16
434.93	349.73
435.30	353.25
435.68	357.16
436.05	360.97
436.42	364.71
436.79	368.10
437.16	371.66
437.53	375.45
437.90	379.22
438.27	382.88
438.64	386.71
439.01	390.20
439.38	393.32
439.75	396.24
440.13	399.63
440.50	402.82
440.87	405.21
441.24	407.87
441.61	410.75
441.98	412.79
442.35	415.18
442.72	417.76
443.09	420.20
443.46	421.52
443.83	422.32
444.20	423.00
444.57	424.17
444.94	424.59
445.31	425.01
445.68	425.45
446.05	425.62
446.42	425.08
446.79	424.53
447.16	423.89
447.53	423.51
447.90	421.94
448.27	420.38
448.64	418.32
449.01	416.78
449.37	414.14
449.74	411.59
450.11	408.56
450.48	405.22
450.85	401.83
451.22	398.96
451.59	396.28
451.96	393.65
452.33	390.13
452.70	386.96
453.07	383.19
453.43	379.29
453.80	375.51
454.17	371.90
454.54	368.51
454.91	364.84
455.28	361.23
455.65	357.89
456.02	354.55
456.38	351.65
456.75	348.03
457.12	345.02
457.49	341.99
457.86	339.08
458.23	336.50
458.59	333.70
458.96	330.86
459.33	328.30
459.70	325.80
460.07	323.73
460.43	321.39
460.80	319.18
461.17	317.25
461.54	315.24
461.91	313.31
462.27	311.30
462.64	309.58
463.01	307.73
463.38	305.95
463.74	304.12
464.11	302.52
464.48	301.14
464.85	299.58
465.21	298.41
465.58	297.14
465.95	295.67
466.32	294.45
466.68	293.23
467.05	291.98
467.42	290.75
467.78	289.48
468.15	288.27
468.52	287.35
468.88	286.14
469.25	285.09
469.62	284.19
469.98	283.30
470.35	282.45
470.72	281.63
471.08	280.72
471.45	279.97
471.82	279.24
472.18	278.42
472.55	277.85
472.92	277.12
473.28	276.47
473.65	275.83
474.02	275.21
474.38	274.64
474.75	274.18
475.11	273.68
475.48	273.28
475.85	272.96
476.21	272.60
476.58	272.34
476.94	272.07
477.31	271.83
477.67	271.59
478.04	271.39
478.41	271.24
478.77	271.22
479.14	271.08
479.50	271.02
479.87	271.01
480.23	271.01
480.60	271.06
480.96	271.10
481.33	271.29
481.69	271.46
482.06	271.65
482.42	271.80
482.79	272.06
483.15	272.37
483.52	272.70
483.88	273.01
484.25	273.40
484.61	273.84
484.98	274.29
485.34	274.84
485.71	275.38
486.07	275.99
486.44	276.54
486.80	277.25
487.17	277.96
487.53	278.82
487.90	279.68
488.26	280.61
488.62	281.64
488.99	282.66
489.35	283.73
489.72	284.91
490.08	286.18
490.44	287.50
490.81	288.91
491.17	290.33
491.54	291.94
491.90	293.52
492.26	295.25
492.63	297.07
492.99	298.90
493.36	300.93
493.72	303.07
494.08	305.31
494.45	307.70
494.81	310.21
495.17	312.78
495.54	315.51
495.90	318.34
496.26	321.28
496.63	324.39
496.99	327.66
497.35	331.11
497.72	334.70
498.08	338.40
498.44	342.24
498.80	346.40
499.17	350.67
499.53	355.11
499.89	359.73
500.26	364.45
500.62	369.45
500.98	374.69
501.34	380.10
501.71	385.73
502.07	391.48
502.43	397.44
502.79	403.57
503.16	410.00
503.52	416.66
503.88	423.47
504.24	430.49
504.60	437.82
504.97	445.45
505.33	453.27
505.69	461.41
506.05	469.69
506.41	478.01
506.78	486.63
507.14	495.67
507.50	504.94
507.86	514.58
508.22	524.34
508.59	534.16
508.95	544.33
509.31	554.74
509.67	565.47
510.03	576.49
510.39	587.71
510.75	599.22
511.12	610.93
511.48	622.97
511.84	635.28
512.20	647.53
512.56	660.22
512.92	673.20
513.28	686.49
513.64	699.91
514.00	713.59
514.37	727.47
514.73	741.48
515.09	755.49
515.45	769.84
515.81	784.58
516.17	799.71
516.53	814.99
516.89	830.37
517.25	845.66
517.61	861.32
517.97	877.10
518.33	892.73
518.69	908.74
519.05	925.02
519.41	941.42
519.77	958.36
520.13	975.19
520.49	991.93
520.85	1008.66
521.21	1025.78
521.57	1043.47
521.93	1060.76
522.29	1078.55
522.65	1096.39
523.01	1113.96
523.37	1131.40
523.73	1149.04
524.09	1166.66
524.45	1184.43
524.81	1202.77
525.17	1221.07
525.53	1239.67
525.89	1258.37
526.25	1276.93
526.61	1294.99
526.97	1313.51
527.33	1331.64
527.68	1350.02
528.04	1368.33
528.40	1386.68
528.76	1405.50
529.12	1424.02
529.48	1442.78
529.84	1460.69
530.20	1479.12
530.56	1498.19
530.91	1517.72
531.27	1536.61
531.63	1554.97
531.99	1573.56
532.35	1591.56
532.71	1609.57
533.07	1627.81
533.42	1645.57
533.78	1663.74
534.14	1682.16
534.50	1699.51
534.86	1717.49
535.21	1734.71
535.57	1752.79
535.93	1770.48
536.29	1787.44
536.65	1804.58
537.00	1821.40
537.36	1838.82
537.72	1855.41
538.08	1872.00
538.44	1887.84
538.79	1903.83
539.15	1919.69
539.51	1935.65
539.87	1952.12
540.22	1968.06
540.58	1984.13
540.94	1999.71
541.29	2014.60
541.65	2029.50
542.01	2045.07
542.37	2059.70
542.72	2074.38
543.08	2088.31
543.44	2103.04
543.79	2116.55
544.15	2129.61
544.51	2143.52
544.87	2156.67
545.22	2169.96
545.58	2182.39
545.94	2194.34
546.29	2206.21
546.65	2218.38
547.01	2229.79
547.36	2240.72
547.72	2251.22
548.07	2261.02
548.43	2271.17
548.79	2281.29
549.14	2290.93
549.50	2300.12
549.86	2309.79
550.21	2319.13
550.57	2328.33
550.92	2336.86
551.28	2345.82
551.64	2354.99
551.99	2363.50
552.35	2371.71
552.70	2379.58
553.06	2387.40
553.41	2395.56
553.77	2403.47
554.13	2411.25
554.48	2419.36
554.84	2426.72
555.19	2433.62
555.55	2440.64
555.90	2446.97
556.26	2453.74
556.61	2460.06
556.97	2466.21
557.32	2471.93
557.68	2477.61
558.03	2483.52
558.39	2488.66
558.74	2494.93
559.10	2500.29
559.45	2505.35
559.81	2511.00
560.16	2516.34
560.52	2521.04
560.87	2525.92
561.23	2529.92
561.58	2534.28
561.94	2538.04
562.29	2541.50
562.64	2545.66
563.00	2549.32
563.35	2554.11
563.71	2558.50
564.06	2563.06
564.42	2567.11
564.77	2570.94
565.12	2574.54
565.48	2577.62
565.83	2580.57
566.19	2583.01
566.54	2584.85
566.89	2587.18
567.25	2588.87
567.60	2591.25
567.96	2594.02
568.31	2595.79
568.66	2598.02
569.02	2599.54
569.37	2600.69
569.72	2602.60
570.08	2603.67
570.43	2604.48
570.78	2604.63
571.14	2603.60
571.49	2602.74
571.84	2603.23
572.20	2602.87
572.55	2602.24
572.90	2601.10
573.26	2600.36
573.61	2599.10
573.96	2597.98
574.31	2595.20
574.67	2592.54
575.02	2588.98
575.37	2585.74
575.72	2582.23
576.08	2578.74
576.43	2575.35
576.78	2571.83
577.13	2568.58
577.49	2565.43
577.84	2562.05
578.19	2558.28
578.54	2554.88
578.90	2550.62
579.25	2544.52
579.60	2539.13
579.95	2534.09
580.30	2528.81
580.66	2523.33
581.01	2517.91
581.36	2512.55
581.71	2508.19
582.06	2503.62
582.42	2498.92
582.77	2493.31
583.12	2488.33
583.47	2483.51
583.82	2478.43
584.17	2472.75
584.53	2466.82
584.88	2460.75
585.23	2454.58
585.58	2448.60
585.93	2442.59
586.28	2437.31
586.63	2431.97
586.98	2426.41
587.34	2421.18
587.69	2415.83
588.04	2410.14
588.39	2404.11
588.74	2397.03
589.09	2390.17
589.44	2382.60
589.79	2375.83
590.14	2369.46
590.49	2362.14
590.84	2354.95
591.19	2348.04
591.54	2340.78
591.89	2332.63
592.25	2325.08
592.60	2316.96
592.95	2308.66
593.30	2300.28
593.65	2291.77
594.00	2283.82
594.35	2275.57
594.70	2266.43
595.05	2258.36
595.40	2249.95
595.75	2241.27
596.10	2234.21
596.45	2226.55
596.80	2219.38
597.15	2211.92
597.50	2204.02
597.85	2196.50
598.19	2188.93
598.54	2180.90
598.89	2173.22
599.24	2166.44
599.59	2158.91
599.94	2151.75
600.29	2144.28
600.64	2136.54
600.99	2128.07
601.34	2120.23
601.69	2112.31
602.04	2104.32
602.39	2095.85
602.74	2088.12
603.08	2080.44
603.43	2072.54
603.78	2064.03
604.13	2055.62
604.48	2047.33
604.83	2039.37
605.18	2031.45
605.53	2022.15
605.87	2012.78
606.22	2004.50
606.57	1995.24
606.92	1986.36
607.27	1977.92
607.62	1969.83
607.96	1961.50
608.31	1953.73
608.66	1944.70
609.01	1935.89
609.36	1927.14
609.70	1917.71
610.05	1908.28
610.40	1899.20
610.75	1889.41
611.10	1880.50
611.44	1870.64
611.79	1861.17
612.14	1851.01
612.49	1840.22
612.83	1830.47
613.18	1821.01
613.53	1811.35
613.88	1801.34
614.22	1791.73
614.57	1781.70
614.92	1772.28
615.27	1763.47
615.61	1753.65
615.96	1744.36
616.31	1735.33
616.65	1726.71
617.00	1717.83
617.35	1708.83
617.70	1699.11
618.04	1689.35
618.39	1679.67
618.74	1670.83
619.08	1661.07
619.43	1652.02
619.78	1643.94
620.12	1635.64
620.47	1626.71
620.82	1617.14
621.16	1608.47
621.51	1599.50
621.85	1590.55
622.20	1580.62
622.55	1570.66
622.89	1561.55
623.24	1552.45
623.59	1543.66
623.93	1534.68
624.28	1526.16
624.62	1517.31
624.97	1508.77
625.32	1500.67
625.66	1492.28
626.01	1483.75
626.35	1475.00
626.70	1465.82
627.04	1456.69
627.39	1447.19
627.73	1438.44
628.08	1430.41
628.43	1421.85
628.77	1413.32
629.12	1404.43
629.46	1395.90
629.81	1387.10
630.15	1378.49
630.50	1369.80
630.84	1360.28
631.19	1350.99
631.53	1342.09
631.88	1333.11
632.22	1324.25
632.57	1315.67
632.91	1306.94
633.26	1298.26
633.60	1289.58
633.95	1281.28
634.29	1273.01
634.64	1265.40
634.98	1256.82
635.32	1248.36
635.67	1240.48
636.01	1232.65
636.36	1224.67
636.70	1217.03
637.05	1209.35
637.39	1201.82
637.73	1194.26
638.08	1187.32
638.42	1180.27
638.77	1172.85
639.11	1165.19
639.45	1157.72
639.80	1150.01
640.14	1142.60
640.49	1135.09
640.83	1127.76
641.17	1120.61
641.52	1113.18
641.86	1105.72
642.20	1098.94
642.55	1091.62
642.89	1084.14
643.23	1076.45
643.58	1069.81
643.92	1062.73
644.26	1055.88
644.61	1048.77
644.95	1041.88
645.29	1034.30
645.64	1026.52
645.98	1019.11
646.32	1012.28
646.66	1005.27
647.01	998.59
647.35	991.92
647.69	984.98
648.04	978.51
648.38	971.75
648.72	964.88
649.06	957.85
649.41	951.04
649.75	944.14
650.09	937.26
650.43	930.55
650.78	923.40
651.12	916.46
651.46	909.80
651.80	903.24
652.14	896.87
652.49	890.62
652.83	884.66
653.17	878.16
653.51	871.61
653.85	865.31
654.20	858.68
654.54	851.75
654.88	845.19
655.22	838.40
655.56	831.77
655.90	825.48
656.25	819.39
656.59	813.15
656.93	807.27
657.27	801.32
657.61	795.07
657.95	789.22
658.29	783.33
658.64	777.14
658.98	770.97
659.32	764.65
659.66	758.70
660.00	752.55
660.34	746.83
660.68	741.07
661.02	735.24
661.36	729.84
661.70	724.62
662.05	719.64
662.39	714.69
662.73	709.61
663.07	704.54
663.41	699.39
663.75	694.24
664.09	688.96
664.43	683.92
664.77	679.20
665.11	674.21
665.45	669.48
665.79	664.87
666.13	660.14
666.47	655.43
666.81	650.59
667.15	645.86
667.49	641.35
667.83	636.92
668.17	632.49
668.51	627.81
668.85	623.17
669.19	618.68
669.53	614.28
669.87	609.81
670.21	605.50
670.55	601.23
670.89	597.24
671.23	593.29
671.57	589.17
671.91	585.12
672.25	581.05
672.58	576.92
672.92	572.96
673.26	569.26
673.60	565.63
673.94	562.08
674.28	558.69
674.62	555.26
674.96	551.75
675.30	548.36
675.64	544.89
675.97	541.66
676.31	538.39
676.65	534.96
676.99	531.84
677.33	528.50
677.67	525.31
678.01	521.90
678.34	518.46
678.68	515.15
679.02	511.85
679.36	508.71
679.70	505.65
680.04	502.47
680.37	499.20
680.71	495.95
681.05	492.91
681.39	489.87
681.73	486.76
682.06	483.84
682.40	480.93
682.74	478.04
683.08	475.04
683.42	471.96
683.75	469.09
684.09	466.06
684.43	463.22
684.77	460.36
685.10	457.61
685.44	454.95
685.78	452.29
686.12	449.68
686.45	447.03
686.79	444.30
687.13	441.73
687.46	439.22
687.80	436.73
688.14	434.17
688.48	431.73
688.81	429.13
689.15	426.62
689.49	424.08
689.82	421.72
690.16	419.35
690.50	417.15
690.83	414.93
691.17	412.72
691.51	410.55
691.84	408.38
692.18	406.12
692.52	403.84
692.85	401.59
693.19	399.46
693.52	397.31
693.86	395.23
694.20	393.16
694.53	391.12
694.87	388.96
695.21	386.88
695.54	384.76
695.88	382.83
696.21	380.87
696.55	378.95
696.88	376.98
697.22	375.07
697.56	373.18
697.89	371.25
698.23	369.34
698.56	367.53
698.90	365.71
699.23	363.81
699.57	362.02
699.90	360.28
700.24	358.49
700.58	356.72
700.91	355.00
701.25	353.33
701.58	351.71
701.92	350.16
702.25	348.58
702.59	347.05
702.92	345.51
703.26	344.00
703.59	342.51
703.93	341.15
704.26	339.70
704.60	338.18
704.93	336.67
705.26	335.24
705.60	333.78
705.93	332.45
706.27	331.27
706.60	330.00
706.94	328.72
707.27	327.42
707.61	326.21
707.94	325.02
708.27	323.76
708.61	322.49
708.94	321.30
709.28	320.17
709.61	319.01
709.94	317.87
710.28	316.68
710.61	315.52
710.95	314.21
711.28	313.15
711.61	312.06
711.95	311.02
712.28	309.93
712.61	308.83
712.95	307.67
713.28	306.63
713.61	305.63
713.95	304.59
714.28	303.59
714.61	302.55
714.95	301.56
715.28	300.54
715.61	299.53
715.95	298.52
716.28	297.51
716.61	296.49
716.95	295.48
717.28	294.60
717.61	293.71
717.94	292.88
718.28	291.90
718.61	291.06
718.94	290.25
719.27	289.50
719.61	288.75
719.94	288.01
720.27	287.16
720.60	286.39
720.94	285.65
721.27	284.94
721.60	284.28
721.93	283.61
722.27	282.97
722.60	282.33
722.93	281.65
723.26	281.00
723.59	280.40
723.93	279.78
724.26	279.14
724.59	278.48
724.92	277.84
725.25	277.31
725.59	276.69
725.92	276.10
726.25	275.50
726.58	274.94
726.91	274.37
727.24	273.80
727.57	273.23
727.91	272.72
728.24	272.22
728.57	271.62
728.90	271.07
729.23	270.48
729.56	269.96
729.89	269.47
730.22	268.89
730.55	268.33
730.89	267.86
731.22	267.36
731.55	266.91
731.88	266.45
732.21	265.93
732.54	265.43
732.87	264.91
733.20	264.45
733.53	263.98
733.86	263.53
734.19	263.12
734.52	262.68
734.85	262.24
735.18	261.76
735.51	261.37
735.84	260.92
736.17	260.53
736.50	260.08
736.83	259.78
737.16	259.43
737.49	259.06
737.82	258.63
738.15	258.21
738.48	257.80
738.81	257.41
739.14	257.04
739.47	256.65
739.80	256.32
740.13	255.95
740.46	255.53
740.79	255.19
741.12	254.82
741.45	254.49
741.78	254.08
742.11	253.70
742.44	253.32
742.77	253.03
743.10	252.67
743.43	252.30
743.75	251.85
744.08	251.64
744.41	251.31
744.74	251.00
745.07	250.69
745.40	250.40
745.73	250.10
746.06	249.79
746.39	249.51
746.71	249.18
747.04	248.86
747.37	248.57
747.70	248.29
748.03	247.99
748.36	247.73
748.68	247.48
749.01	247.19
749.34	246.91
749.67	246.60
750.00	246.34
750.33	246.16
750.65	245.90
750.98	245.51
751.31	245.25
751.64	245.03
751.97	244.82
752.29	244.54
752.62	244.23
752.95	243.97
753.28	243.69
753.60	243.47
753.93	243.29
754.26	243.09
754.59	242.81
754.91	242.53
755.24	242.25
755.57	242.00
755.90	241.82
756.22	241.61
756.55	241.34
756.88	241.16
757.20	240.92
757.53	240.73
757.86	240.54
758.19	240.34
758.51	240.11
758.84	239.86
759.17	239.69
759.49	239.54
759.82	239.40
760.15	239.25
760.47	239.08
760.80	238.85
761.13	238.68
761.45	238.50
761.78	238.37
762.11	238.20
762.43	238.02
762.76	237.84
763.08	237.71
763.41	237.59
763.74	237.38
764.06	237.19
764.39	237.01
764.71	236.85
765.04	236.69
765.37	236.55
765.69	236.42
766.02	236.26
766.34	236.11
766.67	235.95
767.00	235.86
767.32	235.76
767.65	235.71
767.97	235.55
768.30	235.42
768.62	235.27
768.95	235.15
769.27	235.04
769.60	234.93
769.92	234.80
770.25	234.65
770.57	234.57
770.90	234.44
771.22	234.32
771.55	234.20
771.87	234.11
772.20	234.01
772.52	233.97
772.85	233.99
773.17	233.87
773.50	233.75
773.82	233.60
774.15	233.44
774.47	233.22
774.80	233.12
775.12	233.03
775.45	232.96
775.77	232.89
776.09	232.80
776.42	232.72
776.74	232.66
777.07	232.60
777.39	232.50
777.72	232.43
778.04	232.35
778.36	232.23
778.69	232.16
779.01	232.10
779.33	231.92
779.66	231.72
779.98	231.66
780.31	231.59
780.63	231.55
780.95	231.53
781.28	231.50
781.60	231.43
781.92	231.37
782.25	231.29
782.57	231.20
782.89	231.12
783.22	231.01
783.54	230.91
783.86	230.84
784.19	230.79
784.51	230.74
784.83	230.70
785.16	230.66
785.48	230.58
785.80	230.47
786.12	230.45
786.45	230.42
