SpectraSuite Data File
++++++++++++++++++++++++++++++++++++
Date: Fri Feb 01 16:47:51 EST 2013
User: group
Dark Spectrum Present: No
Reference Spectrum Present: No
Number of Sampled Component Spectra: 1
Spectrometers: USB2E7196
Integration Time (usec): 35000 (USB2E7196)
Spectra Averaged: 100 (USB2E7196)
Boxcar Smoothing: 10 (USB2E7196)
Correct for Electrical Dark: No (USB2E7196)
Strobe/Lamp Enabled: No (USB2E7196)
Correct for Detector Non-linearity: No (USB2E7196)
Correct for Stray Light: No (USB2E7196)
Number of Pixels in Processed Spectrum: 2048
>>>>>Begin Processed Spectral Data<<<<<
339.09	0.00
339.48	213.10
339.86	214.38
340.24	215.95
340.63	217.49
341.01	220.53
341.39	220.39
341.78	221.36
342.16	222.55
342.54	223.15
342.93	211.66
343.31	222.35
343.69	222.89
344.07	223.38
344.46	223.84
344.84	224.21
345.22	224.43
345.60	224.66
345.99	224.87
346.37	224.98
346.75	225.12
347.13	225.20
347.52	225.29
347.90	225.39
348.28	225.45
348.66	225.51
349.05	225.54
349.43	225.58
349.81	225.64
350.19	225.71
350.57	225.77
350.96	225.87
351.34	225.98
351.72	226.09
352.10	226.20
352.48	226.26
352.87	226.35
353.25	226.44
353.63	226.51
354.01	226.56
354.39	226.68
354.77	226.75
355.15	226.85
355.54	226.91
355.92	226.95
356.30	227.02
356.68	227.13
357.06	227.20
357.44	227.24
357.82	227.29
358.20	227.36
358.58	227.41
358.97	227.46
359.35	227.53
359.73	227.62
360.11	227.66
360.49	227.75
360.87	227.80
361.25	227.88
361.63	228.00
362.01	228.04
362.39	228.06
362.77	228.07
363.15	228.09
363.53	228.08
363.91	228.12
364.29	228.10
364.67	228.03
365.05	228.04
365.43	228.05
365.81	228.07
366.19	228.09
366.57	228.13
366.95	228.13
367.33	228.09
367.71	228.05
368.09	228.06
368.47	228.01
368.85	227.96
369.23	227.92
369.61	227.82
369.99	227.84
370.37	227.81
370.75	227.82
371.13	227.75
371.51	227.68
371.89	227.64
372.27	227.61
372.65	227.53
373.03	227.48
373.41	227.43
373.78	227.37
374.16	227.27
374.54	227.19
374.92	227.11
375.30	227.08
375.68	227.01
376.06	226.94
376.44	226.85
376.82	226.82
377.19	226.75
377.57	226.68
377.95	226.57
378.33	226.49
378.71	226.39
379.09	226.35
379.47	226.33
379.84	226.26
380.22	226.20
380.60	226.13
380.98	226.09
381.36	226.04
381.73	225.93
382.11	225.90
382.49	225.81
382.87	225.74
383.25	225.66
383.62	225.69
384.00	225.62
384.38	225.59
384.76	225.55
385.13	225.51
385.51	225.45
385.89	225.41
386.27	225.36
386.64	225.31
387.02	225.27
387.40	225.19
387.78	225.12
388.15	225.08
388.53	225.07
388.91	225.01
389.29	224.97
389.66	224.98
390.04	224.93
390.42	224.96
390.79	224.95
391.17	224.96
391.55	224.86
391.92	224.85
392.30	224.85
392.68	224.82
393.05	224.80
393.43	224.81
393.81	224.83
394.18	224.83
394.56	224.86
394.94	224.85
395.31	224.91
395.69	224.96
396.06	224.97
396.44	225.04
396.82	225.05
397.19	225.14
397.57	225.15
397.95	225.20
398.32	225.22
398.70	225.30
399.07	225.34
399.45	225.38
399.82	225.41
400.20	225.49
400.58	225.55
400.95	225.59
401.33	225.66
401.70	225.81
402.08	225.88
402.45	225.95
402.83	226.08
403.20	226.16
403.58	226.25
403.95	226.39
404.33	226.51
404.71	226.61
405.08	226.72
405.46	226.84
405.83	226.97
406.21	227.11
406.58	227.26
406.96	227.41
407.33	227.58
407.70	227.75
408.08	228.00
408.45	228.20
408.83	228.46
409.20	228.70
409.58	228.85
409.95	229.11
410.33	229.39
410.70	229.63
411.08	229.92
411.45	230.22
411.82	230.49
412.20	230.80
412.57	231.21
412.95	231.54
413.32	231.97
413.69	232.38
414.07	232.76
414.44	233.18
414.82	233.65
415.19	234.19
415.56	234.72
415.94	235.26
416.31	235.89
416.68	236.49
417.06	237.14
417.43	237.80
417.81	238.57
418.18	239.34
418.55	240.16
418.93	241.04
419.30	241.94
419.67	242.90
420.04	243.86
420.42	244.87
420.79	246.05
421.16	247.18
421.54	248.37
421.91	249.62
422.28	250.89
422.66	252.19
423.03	253.49
423.40	254.86
423.77	256.27
424.15	257.64
424.52	259.12
424.89	260.76
425.26	262.31
425.64	263.74
426.01	265.34
426.38	267.03
426.75	268.69
427.13	270.41
427.50	272.19
427.87	274.04
428.24	275.90
428.61	277.61
428.99	279.52
429.36	281.63
429.73	283.68
430.10	285.69
430.47	287.76
430.85	289.84
431.22	292.04
431.59	294.34
431.96	296.61
432.33	299.07
432.70	301.43
433.08	304.24
433.45	306.87
433.82	309.41
434.19	312.26
434.56	315.00
434.93	317.63
435.30	320.26
435.68	323.12
436.05	325.91
436.42	328.72
436.79	331.26
437.16	333.91
437.53	336.66
437.90	339.47
438.27	342.20
438.64	345.02
439.01	347.62
439.38	349.86
439.75	351.98
440.13	354.42
440.50	356.73
440.87	358.57
441.24	360.47
441.61	362.64
441.98	364.08
442.35	365.88
442.72	367.71
443.09	369.50
443.46	370.47
443.83	371.05
444.20	371.52
444.57	372.36
444.94	372.65
445.31	373.04
445.68	373.36
446.05	373.45
446.42	373.08
446.79	372.66
447.16	372.21
447.53	371.96
447.90	370.85
448.27	369.74
448.64	368.23
449.01	367.13
449.37	365.24
449.74	363.36
450.11	361.15
450.48	358.73
450.85	356.20
451.22	354.12
451.59	352.16
451.96	350.26
452.33	347.69
452.70	345.32
453.07	342.54
453.43	339.69
453.80	336.95
454.17	334.31
454.54	331.78
454.91	329.11
455.28	326.43
455.65	323.96
456.02	321.53
456.38	319.34
456.75	316.72
457.12	314.45
457.49	312.30
457.86	310.16
458.23	308.31
458.59	306.28
458.96	304.21
459.33	302.34
459.70	300.47
460.07	298.99
460.43	297.32
460.80	295.68
461.17	294.27
461.54	292.79
461.91	291.41
462.27	289.98
462.64	288.73
463.01	287.42
463.38	286.16
463.74	284.79
464.11	283.64
464.48	282.59
464.85	281.45
465.21	280.59
465.58	279.70
465.95	278.61
466.32	277.70
466.68	276.81
467.05	275.96
467.42	275.10
467.78	274.19
468.15	273.34
468.52	272.70
468.88	271.84
469.25	271.08
469.62	270.47
469.98	269.80
470.35	269.21
470.72	268.63
471.08	268.00
471.45	267.49
471.82	266.99
472.18	266.44
472.55	266.03
472.92	265.45
473.28	265.02
473.65	264.61
474.02	264.22
474.38	263.87
474.75	263.60
475.11	263.26
475.48	262.97
475.85	262.76
476.21	262.54
476.58	262.40
476.94	262.29
477.31	262.11
477.67	261.97
478.04	261.85
478.41	261.78
478.77	261.84
479.14	261.77
479.50	261.76
479.87	261.84
480.23	261.95
480.60	262.09
480.96	262.15
481.33	262.35
481.69	262.56
482.06	262.75
482.42	262.89
482.79	263.14
483.15	263.46
483.52	263.85
483.88	264.21
484.25	264.58
484.61	264.97
484.98	265.45
485.34	266.04
485.71	266.68
486.07	267.29
486.44	267.84
486.80	268.55
487.17	269.31
487.53	270.07
487.90	270.92
488.26	271.87
488.62	272.89
488.99	273.87
489.35	274.89
489.72	276.00
490.08	277.22
490.44	278.45
490.81	279.82
491.17	281.15
491.54	282.61
491.90	284.16
492.26	285.84
492.63	287.53
492.99	289.32
493.36	291.17
493.72	293.22
494.08	295.30
494.45	297.55
494.81	299.87
495.17	302.33
495.54	304.87
495.90	307.54
496.26	310.31
496.63	313.27
496.99	316.38
497.35	319.67
497.72	323.05
498.08	326.58
498.44	330.26
498.80	334.16
499.17	338.20
499.53	342.34
499.89	346.67
500.26	351.22
500.62	355.85
500.98	360.84
501.34	365.89
501.71	371.24
502.07	376.65
502.43	382.30
502.79	388.12
503.16	394.17
503.52	400.41
503.88	406.86
504.24	413.48
504.60	420.36
504.97	427.43
505.33	434.80
505.69	442.55
506.05	450.38
506.41	458.29
506.78	466.46
507.14	474.90
507.50	483.59
507.86	492.52
508.22	501.73
508.59	510.89
508.95	520.47
509.31	530.28
509.67	540.35
510.03	550.57
510.39	561.08
510.75	571.83
511.12	582.76
511.48	593.98
511.84	605.36
512.20	616.83
512.56	628.75
512.92	640.87
513.28	653.16
513.64	665.48
514.00	678.10
514.37	691.03
514.73	704.00
515.09	717.00
515.45	730.19
515.81	743.66
516.17	757.55
516.53	771.57
516.89	785.65
517.25	799.79
517.61	814.25
517.97	828.61
518.33	842.97
518.69	857.58
519.05	872.52
519.41	887.50
519.77	902.92
520.13	918.22
520.49	933.52
520.85	948.68
521.21	964.27
521.57	980.42
521.93	995.99
522.29	1012.20
522.65	1028.27
523.01	1044.34
523.37	1060.29
523.73	1076.29
524.09	1092.22
524.45	1108.30
524.81	1124.77
525.17	1141.29
525.53	1157.97
525.89	1174.71
526.25	1191.48
526.61	1207.62
526.97	1224.34
527.33	1240.56
527.68	1257.01
528.04	1273.35
528.40	1289.78
528.76	1306.73
529.12	1323.10
529.48	1339.88
529.84	1355.68
530.20	1372.13
530.56	1388.95
530.91	1406.20
531.27	1422.83
531.63	1439.11
531.99	1455.46
532.35	1471.28
532.71	1487.12
533.07	1503.28
533.42	1518.91
533.78	1534.77
534.14	1550.94
534.50	1565.99
534.86	1581.71
535.21	1596.72
535.57	1612.27
535.93	1627.59
536.29	1642.15
536.65	1657.00
537.00	1671.46
537.36	1686.67
537.72	1700.95
538.08	1715.28
538.44	1728.78
538.79	1742.48
539.15	1755.99
539.51	1769.67
539.87	1783.72
540.22	1797.10
540.58	1810.60
540.94	1823.69
541.29	1836.30
541.65	1848.84
542.01	1861.92
542.37	1874.13
542.72	1886.43
543.08	1898.21
543.44	1910.41
543.79	1921.60
544.15	1932.32
544.51	1943.65
544.87	1954.48
545.22	1965.37
545.58	1975.41
545.94	1985.09
546.29	1994.67
546.65	2004.55
547.01	2013.69
547.36	2022.48
547.72	2030.92
548.07	2038.83
548.43	2046.97
548.79	2054.72
549.14	2062.30
549.50	2069.60
549.86	2077.05
550.21	2084.19
550.57	2091.27
550.92	2097.71
551.28	2104.62
551.64	2111.79
551.99	2118.27
552.35	2124.34
552.70	2130.35
553.06	2136.25
553.41	2142.46
553.77	2148.47
554.13	2154.25
554.48	2160.28
554.84	2165.80
555.19	2170.88
555.55	2175.95
555.90	2180.46
556.26	2185.63
556.61	2190.05
556.97	2194.30
557.32	2198.54
557.68	2202.63
558.03	2206.80
558.39	2210.64
558.74	2215.12
559.10	2218.88
559.45	2222.54
559.81	2226.73
560.16	2230.67
560.52	2234.02
560.87	2237.64
561.23	2240.41
561.58	2243.35
561.94	2246.06
562.29	2248.16
562.64	2251.17
563.00	2253.72
563.35	2257.30
563.71	2260.40
564.06	2263.71
564.42	2266.63
564.77	2269.39
565.12	2271.93
565.48	2273.99
565.83	2275.90
566.19	2277.44
566.54	2278.35
566.89	2279.72
567.25	2280.49
567.60	2281.67
567.96	2283.50
568.31	2284.26
568.66	2285.56
569.02	2286.43
569.37	2286.64
569.72	2287.89
570.08	2288.16
570.43	2288.34
570.78	2287.92
571.14	2286.50
571.49	2285.26
571.84	2285.13
572.20	2284.10
572.55	2283.12
572.90	2281.55
573.26	2280.36
573.61	2278.82
573.96	2277.50
574.31	2274.66
574.67	2271.82
575.02	2268.39
575.37	2265.06
575.72	2261.54
576.08	2258.16
576.43	2254.80
576.78	2251.40
577.13	2247.96
577.49	2244.65
577.84	2241.17
578.19	2237.49
578.54	2234.04
578.90	2230.06
579.25	2224.53
579.60	2219.55
579.95	2214.56
580.30	2209.60
580.66	2204.51
581.01	2199.53
581.36	2194.54
581.71	2190.44
582.06	2186.20
582.42	2181.83
582.77	2176.80
583.12	2172.20
583.47	2167.85
583.82	2162.93
584.17	2157.74
584.53	2152.39
584.88	2147.03
585.23	2141.45
585.58	2135.96
585.93	2130.43
586.28	2125.44
586.63	2120.49
586.98	2115.57
587.34	2111.01
587.69	2106.17
588.04	2101.11
588.39	2095.59
588.74	2089.18
589.09	2083.15
589.44	2076.31
589.79	2070.16
590.14	2064.37
590.49	2057.85
590.84	2051.34
591.19	2045.46
591.54	2039.26
591.89	2032.21
592.25	2025.61
592.60	2018.49
592.95	2011.14
593.30	2003.92
593.65	1996.60
594.00	1989.69
594.35	1982.50
594.70	1974.50
595.05	1967.63
595.40	1960.24
595.75	1952.91
596.10	1946.83
596.45	1940.17
596.80	1934.18
597.15	1927.84
597.50	1921.09
597.85	1914.66
598.19	1908.08
598.54	1901.13
598.89	1894.45
599.24	1888.50
599.59	1881.90
599.94	1875.71
600.29	1869.39
600.64	1862.81
600.99	1855.52
601.34	1848.61
601.69	1841.60
602.04	1834.86
602.39	1827.44
602.74	1820.74
603.08	1813.98
603.43	1807.25
603.78	1799.99
604.13	1792.91
604.48	1785.77
604.83	1778.81
605.18	1772.21
605.53	1764.40
605.87	1756.37
606.22	1749.14
606.57	1741.32
606.92	1733.98
607.27	1727.03
607.62	1720.20
607.96	1713.20
608.31	1706.85
608.66	1699.45
609.01	1692.02
609.36	1684.49
609.70	1676.67
610.05	1668.76
610.40	1661.19
610.75	1653.12
611.10	1645.53
611.44	1637.11
611.79	1629.06
612.14	1620.54
612.49	1611.33
612.83	1603.00
613.18	1594.94
613.53	1586.85
613.88	1578.31
614.22	1570.11
614.57	1561.44
614.92	1553.53
615.27	1545.95
615.61	1537.48
615.96	1529.38
616.31	1521.72
616.65	1514.46
617.00	1506.83
617.35	1499.10
617.70	1490.81
618.04	1482.29
618.39	1474.04
618.74	1466.45
619.08	1458.17
619.43	1450.59
619.78	1443.60
620.12	1436.43
620.47	1428.96
620.82	1420.87
621.16	1413.39
621.51	1405.78
621.85	1398.17
622.20	1389.50
622.55	1381.13
622.89	1373.25
623.24	1365.72
623.59	1358.42
623.93	1350.90
624.28	1343.79
624.62	1336.42
624.97	1329.30
625.32	1322.47
625.66	1315.52
626.01	1308.45
626.35	1301.07
626.70	1293.28
627.04	1285.65
627.39	1277.76
627.73	1270.36
628.08	1263.44
628.43	1256.27
628.77	1248.88
629.12	1241.33
629.46	1234.24
629.81	1226.82
630.15	1219.53
630.50	1212.18
630.84	1204.03
631.19	1196.09
631.53	1188.55
631.88	1180.86
632.22	1173.15
632.57	1165.86
632.91	1158.32
633.26	1150.87
633.60	1143.52
633.95	1136.36
634.29	1129.23
634.64	1122.62
634.98	1115.33
635.32	1108.16
635.67	1101.57
636.01	1094.97
636.36	1088.24
636.70	1081.70
637.05	1075.14
637.39	1068.79
637.73	1062.24
638.08	1056.26
638.42	1050.20
638.77	1043.73
639.11	1037.27
639.45	1030.87
639.80	1024.21
640.14	1017.80
640.49	1011.28
640.83	1004.98
641.17	998.88
641.52	992.62
641.86	986.14
642.20	980.24
642.55	973.80
642.89	967.29
643.23	960.67
643.58	954.89
643.92	948.72
644.26	942.76
644.61	936.61
644.95	930.62
645.29	924.15
645.64	917.45
645.98	911.11
646.32	905.17
646.66	899.22
647.01	893.37
647.35	887.61
647.69	881.72
648.04	876.23
648.38	870.36
648.72	864.47
649.06	858.49
649.41	852.60
649.75	846.80
650.09	840.87
650.43	835.08
650.78	828.94
651.12	822.97
651.46	817.21
651.80	811.57
652.14	806.17
652.49	800.82
652.83	795.68
653.17	790.06
653.51	784.45
653.85	778.94
654.20	773.37
654.54	767.44
654.88	761.73
655.22	755.76
655.56	750.09
655.90	744.57
656.25	739.29
656.59	733.93
656.93	728.88
657.27	723.82
657.61	718.51
657.95	713.43
658.29	708.41
658.64	703.12
658.98	697.78
659.32	692.31
659.66	687.07
660.00	681.75
660.34	676.78
660.68	671.84
661.02	666.86
661.36	662.16
661.70	657.76
662.05	653.36
662.39	649.07
662.73	644.62
663.07	640.26
663.41	635.91
663.75	631.49
664.09	626.89
664.43	622.48
664.77	618.32
665.11	614.02
665.45	609.86
665.79	605.81
666.13	601.72
666.47	597.63
666.81	593.43
667.15	589.29
667.49	585.33
667.83	581.38
668.17	577.48
668.51	573.38
668.85	569.23
669.19	565.42
669.53	561.56
669.87	557.75
670.21	554.02
670.55	550.31
670.89	546.81
671.23	543.38
671.57	539.84
671.91	536.32
672.25	532.88
672.58	529.40
672.92	525.92
673.26	522.69
673.60	519.56
673.94	516.53
674.28	513.63
674.62	510.76
674.96	507.74
675.30	504.85
675.64	501.99
675.97	499.23
676.31	496.36
676.65	493.44
676.99	490.70
677.33	487.80
677.67	484.97
678.01	481.95
678.34	479.00
678.68	476.04
679.02	473.19
679.36	470.35
679.70	467.66
680.04	464.99
680.37	462.10
680.71	459.32
681.05	456.65
681.39	453.91
681.73	451.20
682.06	448.70
682.40	446.12
682.74	443.56
683.08	440.98
683.42	438.34
683.75	435.87
684.09	433.28
684.43	430.85
684.77	428.38
685.10	426.06
685.44	423.69
685.78	421.46
686.12	419.22
686.45	416.96
686.79	414.59
687.13	412.38
687.46	410.26
687.80	408.01
688.14	405.80
688.48	403.76
688.81	401.57
689.15	399.36
689.49	397.21
689.82	395.15
690.16	393.10
690.50	391.19
690.83	389.22
691.17	387.28
691.51	385.38
691.84	383.54
692.18	381.64
692.52	379.74
692.85	377.81
693.19	375.91
693.52	374.10
693.86	372.28
694.20	370.52
694.53	368.73
694.87	366.94
695.21	365.17
695.54	363.35
695.88	361.63
696.21	359.93
696.55	358.27
696.88	356.54
697.22	354.87
697.56	353.22
697.89	351.56
698.23	349.91
698.56	348.26
698.90	346.68
699.23	345.05
699.57	343.50
699.90	341.97
700.24	340.43
700.58	338.92
700.91	337.45
701.25	335.96
701.58	334.59
701.92	333.24
702.25	331.86
702.59	330.50
702.92	329.18
703.26	327.86
703.59	326.56
703.93	325.43
704.26	324.21
704.60	322.95
704.93	321.72
705.26	320.51
705.60	319.31
705.93	318.14
706.27	317.07
706.60	316.01
706.94	314.91
707.27	313.80
707.61	312.73
707.94	311.72
708.27	310.63
708.61	309.54
708.94	308.49
709.28	307.49
709.61	306.52
709.94	305.55
710.28	304.54
710.61	303.54
710.95	302.43
711.28	301.51
711.61	300.50
711.95	299.58
712.28	298.63
712.61	297.67
712.95	296.74
713.28	295.87
713.61	294.95
713.95	294.07
714.28	293.20
714.61	292.36
714.95	291.49
715.28	290.61
715.61	289.72
715.95	288.86
716.28	288.00
716.61	287.13
716.95	286.27
717.28	285.50
717.61	284.74
717.94	284.01
718.28	283.19
718.61	282.47
718.94	281.79
719.27	281.12
719.61	280.49
719.94	279.81
720.27	279.09
720.60	278.41
720.94	277.80
721.27	277.23
721.60	276.65
721.93	276.04
722.27	275.54
722.60	275.00
722.93	274.47
723.26	273.96
723.59	273.44
723.93	272.95
724.26	272.42
724.59	271.84
724.92	271.31
725.25	270.83
725.59	270.29
725.92	269.78
726.25	269.29
726.58	268.80
726.91	268.30
727.24	267.83
727.57	267.37
727.91	266.84
728.24	266.36
728.57	265.83
728.90	265.36
729.23	264.85
729.56	264.44
729.89	263.96
730.22	263.47
730.55	263.00
730.89	262.53
731.22	262.09
731.55	261.70
731.88	261.28
732.21	260.83
732.54	260.42
732.87	259.97
733.20	259.54
733.53	259.14
733.86	258.75
734.19	258.37
734.52	258.00
734.85	257.71
735.18	257.32
735.51	257.00
735.84	256.63
736.17	256.28
736.50	255.88
736.83	255.63
737.16	255.29
737.49	254.95
737.82	254.60
738.15	254.26
738.48	253.92
738.81	253.61
739.14	253.27
739.47	252.98
739.80	252.69
740.13	252.39
740.46	252.07
740.79	251.74
741.12	251.42
741.45	251.09
741.78	250.72
742.11	250.44
742.44	250.08
742.77	249.82
743.10	249.49
743.43	249.20
743.75	248.83
744.08	248.68
744.41	248.38
744.74	248.12
745.07	247.81
745.40	247.51
745.73	247.26
746.06	247.01
746.39	246.72
746.71	246.44
747.04	246.18
747.37	245.91
747.70	245.71
748.03	245.41
748.36	245.18
748.68	244.95
749.01	244.65
749.34	244.45
749.67	244.21
750.00	244.03
750.33	243.84
750.65	243.62
750.98	243.29
751.31	243.05
751.64	242.81
751.97	242.64
752.29	242.46
752.62	242.21
752.95	241.96
753.28	241.76
753.60	241.52
753.93	241.32
754.26	241.14
754.59	240.88
754.91	240.70
755.24	240.46
755.57	240.25
755.90	240.09
756.22	239.90
756.55	239.68
756.88	239.48
757.20	239.23
757.53	239.03
757.86	238.81
758.19	238.70
758.51	238.55
758.84	238.38
759.17	238.16
759.49	238.00
759.82	237.89
760.15	237.73
760.47	237.60
760.80	237.40
761.13	237.25
761.45	237.10
761.78	236.95
762.11	236.85
762.43	236.70
762.76	236.56
763.08	236.41
763.41	236.29
763.74	236.17
764.06	236.03
764.39	235.90
764.71	235.79
765.04	235.62
765.37	235.47
765.69	235.36
766.02	235.23
766.34	235.12
766.67	234.97
767.00	234.89
767.32	234.79
767.65	234.73
767.97	234.62
768.30	234.56
768.62	234.46
768.95	234.34
769.27	234.25
769.60	234.15
769.92	234.06
770.25	233.94
770.57	233.83
770.90	233.75
771.22	233.63
771.55	233.56
771.87	233.49
772.20	233.42
772.52	233.38
772.85	233.43
773.17	233.35
773.50	233.27
773.82	233.17
774.15	233.08
774.47	232.93
774.80	232.82
775.12	232.68
775.45	232.62
775.77	232.56
776.09	232.49
776.42	232.40
776.74	232.35
777.07	232.25
777.39	232.17
777.72	232.08
778.04	232.04
778.36	231.95
778.69	231.86
779.01	231.79
779.33	231.62
779.66	231.45
779.98	231.36
780.31	231.30
780.63	231.25
780.95	231.20
781.28	231.15
781.60	231.10
781.92	231.08
782.25	231.00
782.57	230.91
782.89	230.84
783.22	230.76
783.54	230.70
783.86	230.67
784.19	230.62
784.51	230.61
784.83	230.56
785.16	230.49
785.48	230.46
785.80	230.42
786.12	230.40
786.45	230.34
786.77	230.29
787.09	230.25
