SpectraSuite Data File
++++++++++++++++++++++++++++++++++++
Date: Fri Feb 01 15:38:10 EST 2013
User: group
Dark Spectrum Present: No
Reference Spectrum Present: No
Number of Sampled Component Spectra: 1
Spectrometers: USB2E7196
Integration Time (usec): 35000 (USB2E7196)
Spectra Averaged: 100 (USB2E7196)
Boxcar Smoothing: 10 (USB2E7196)
Correct for Electrical Dark: No (USB2E7196)
Strobe/Lamp Enabled: No (USB2E7196)
Correct for Detector Non-linearity: No (USB2E7196)
Correct for Stray Light: No (USB2E7196)
Number of Pixels in Processed Spectrum: 2048
>>>>>Begin Processed Spectral Data<<<<<
339.09	0.00
339.48	215.02
339.86	216.23
340.24	218.06
340.63	218.68
341.01	221.86
341.39	221.83
341.78	223.02
342.16	224.68
342.54	225.47
342.93	213.34
343.31	224.13
343.69	224.67
344.07	225.14
344.46	225.54
344.84	225.96
345.22	226.18
345.60	226.41
345.99	226.62
346.37	226.76
346.75	226.86
347.13	226.93
347.52	227.02
347.90	227.07
348.28	227.07
348.66	227.10
349.05	227.11
349.43	227.15
349.81	227.16
350.19	227.20
350.57	227.24
350.96	227.29
351.34	227.37
351.72	227.45
352.10	227.55
352.48	227.63
352.87	227.67
353.25	227.76
353.63	227.82
354.01	227.87
354.39	227.92
354.77	227.98
355.15	228.10
355.54	228.16
355.92	228.22
356.30	228.31
356.68	228.44
357.06	228.54
357.44	228.59
357.82	228.69
358.20	228.76
358.58	228.84
358.97	228.88
359.35	228.94
359.73	229.02
360.11	229.05
360.49	229.09
360.87	229.15
361.25	229.22
361.63	229.31
362.01	229.36
362.39	229.38
362.77	229.43
363.15	229.43
363.53	229.44
363.91	229.43
364.29	229.45
364.67	229.38
365.05	229.38
365.43	229.39
365.81	229.39
366.19	229.42
366.57	229.42
366.95	229.43
367.33	229.40
367.71	229.37
368.09	229.39
368.47	229.35
368.85	229.31
369.23	229.29
369.61	229.23
369.99	229.22
370.37	229.23
370.75	229.26
371.13	229.22
371.51	229.14
371.89	229.12
372.27	229.08
372.65	229.02
373.03	228.96
373.41	228.90
373.78	228.81
374.16	228.71
374.54	228.65
374.92	228.56
375.30	228.49
375.68	228.41
376.06	228.37
376.44	228.32
376.82	228.26
377.19	228.18
377.57	228.07
377.95	227.95
378.33	227.85
378.71	227.66
379.09	227.57
379.47	227.55
379.84	227.48
380.22	227.39
380.60	227.32
380.98	227.24
381.36	227.14
381.73	227.05
382.11	227.00
382.49	226.93
382.87	226.84
383.25	226.80
383.62	226.86
384.00	226.74
384.38	226.71
384.76	226.66
385.13	226.61
385.51	226.58
385.89	226.54
386.27	226.53
386.64	226.51
387.02	226.47
387.40	226.40
387.78	226.34
388.15	226.31
388.53	226.27
388.91	226.23
389.29	226.24
389.66	226.25
390.04	226.21
390.42	226.19
390.79	226.19
391.17	226.17
391.55	226.04
391.92	226.04
392.30	226.04
392.68	226.05
393.05	226.07
393.43	226.07
393.81	226.06
394.18	226.05
394.56	226.09
394.94	226.10
395.31	226.16
395.69	226.25
396.06	226.28
396.44	226.33
396.82	226.38
397.19	226.47
397.57	226.50
397.95	226.58
398.32	226.61
398.70	226.68
399.07	226.77
399.45	226.84
399.82	226.91
400.20	226.97
400.58	227.05
400.95	227.10
401.33	227.22
401.70	227.41
402.08	227.51
402.45	227.61
402.83	227.74
403.20	227.82
403.58	227.93
403.95	228.07
404.33	228.20
404.71	228.34
405.08	228.50
405.46	228.66
405.83	228.82
406.21	229.00
406.58	229.18
406.96	229.33
407.33	229.53
407.70	229.73
408.08	229.98
408.45	230.18
408.83	230.43
409.20	230.62
409.58	230.78
409.95	231.05
410.33	231.30
410.70	231.59
411.08	231.90
411.45	232.18
411.82	232.48
412.20	232.84
412.57	233.26
412.95	233.54
413.32	233.97
413.69	234.37
414.07	234.78
414.44	235.28
414.82	235.79
415.19	236.33
415.56	236.84
415.94	237.43
416.31	238.05
416.68	238.65
417.06	239.38
417.43	240.07
417.81	240.84
418.18	241.64
418.55	242.43
418.93	243.31
419.30	244.23
419.67	245.19
420.04	246.18
420.42	247.19
420.79	248.37
421.16	249.53
421.54	250.70
421.91	251.93
422.28	253.14
422.66	254.44
423.03	255.70
423.40	257.05
423.77	258.43
424.15	259.86
424.52	261.37
424.89	262.98
425.26	264.50
425.64	265.92
426.01	267.51
426.38	269.21
426.75	270.87
427.13	272.53
427.50	274.31
427.87	276.15
428.24	277.94
428.61	279.67
428.99	281.59
429.36	283.67
429.73	285.73
430.10	287.75
430.47	289.82
430.85	291.96
431.22	294.24
431.59	296.59
431.96	298.85
432.33	301.34
432.70	303.71
433.08	306.52
433.45	309.12
433.82	311.71
434.19	314.56
434.56	317.39
434.93	320.08
435.30	322.70
435.68	325.60
436.05	328.47
436.42	331.27
436.79	333.79
437.16	336.51
437.53	339.35
437.90	342.22
438.27	344.96
438.64	347.83
439.01	350.42
439.38	352.69
439.75	354.89
440.13	357.37
440.50	359.74
440.87	361.62
441.24	363.60
441.61	365.82
441.98	367.31
442.35	369.12
442.72	371.02
443.09	372.86
443.46	373.87
443.83	374.47
444.20	374.96
444.57	375.82
444.94	376.11
445.31	376.45
445.68	376.77
446.05	376.86
446.42	376.46
446.79	376.02
447.16	375.57
447.53	375.24
447.90	374.04
448.27	372.86
448.64	371.29
449.01	370.18
449.37	368.12
449.74	366.20
450.11	363.95
450.48	361.44
450.85	358.91
451.22	356.74
451.59	354.69
451.96	352.74
452.33	350.10
452.70	347.76
453.07	344.91
453.43	342.01
453.80	339.22
454.17	336.53
454.54	334.01
454.91	331.28
455.28	328.60
455.65	326.14
456.02	323.68
456.38	321.52
456.75	318.84
457.12	316.64
457.49	314.47
457.86	312.26
458.23	310.42
458.59	308.36
458.96	306.26
459.33	304.43
459.70	302.59
460.07	301.09
460.43	299.33
460.80	297.72
461.17	296.26
461.54	294.77
461.91	293.36
462.27	291.96
462.64	290.71
463.01	289.35
463.38	288.05
463.74	286.66
464.11	285.52
464.48	284.51
464.85	283.42
465.21	282.54
465.58	281.64
465.95	280.52
466.32	279.62
466.68	278.72
467.05	277.81
467.42	276.92
467.78	275.99
468.15	275.11
468.52	274.44
468.88	273.60
469.25	272.80
469.62	272.12
469.98	271.40
470.35	270.77
470.72	270.16
471.08	269.50
471.45	268.98
471.82	268.43
472.18	267.86
472.55	267.38
472.92	266.82
473.28	266.39
473.65	265.93
474.02	265.50
474.38	265.12
474.75	264.81
475.11	264.46
475.48	264.21
475.85	264.00
476.21	263.78
476.58	263.61
476.94	263.47
477.31	263.34
477.67	263.18
478.04	263.07
478.41	263.00
478.77	263.02
479.14	262.91
479.50	262.90
479.87	262.95
480.23	263.00
480.60	263.08
480.96	263.16
481.33	263.39
481.69	263.56
482.06	263.74
482.42	263.96
482.79	264.20
483.15	264.50
483.52	264.88
483.88	265.19
484.25	265.59
484.61	266.03
484.98	266.47
485.34	267.04
485.71	267.61
486.07	268.24
486.44	268.82
486.80	269.60
487.17	270.31
487.53	271.10
487.90	271.99
488.26	272.92
488.62	273.90
488.99	274.85
489.35	275.88
489.72	277.04
490.08	278.23
490.44	279.46
490.81	280.82
491.17	282.15
491.54	283.67
491.90	285.16
492.26	286.82
492.63	288.55
492.99	290.32
493.36	292.24
493.72	294.25
494.08	296.37
494.45	298.62
494.81	300.99
495.17	303.39
495.54	305.96
495.90	308.65
496.26	311.43
496.63	314.40
496.99	317.56
497.35	320.78
497.72	324.16
498.08	327.72
498.44	331.38
498.80	335.34
499.17	339.32
499.53	343.52
499.89	347.91
500.26	352.45
500.62	357.18
500.98	362.12
501.34	367.24
501.71	372.56
502.07	377.98
502.43	383.63
502.79	389.49
503.16	395.58
503.52	401.85
503.88	408.25
504.24	414.88
504.60	421.76
504.97	428.89
505.33	436.24
505.69	443.98
506.05	451.77
506.41	459.66
506.78	467.94
507.14	476.42
507.50	485.16
507.86	494.20
508.22	503.38
508.59	512.59
508.95	522.15
509.31	531.92
509.67	542.02
510.03	552.27
510.39	562.81
510.75	573.58
511.12	584.52
511.48	595.82
511.84	607.32
512.20	618.78
512.56	630.82
512.92	642.99
513.28	655.29
513.64	667.70
514.00	680.32
514.37	693.22
514.73	706.25
515.09	719.24
515.45	732.45
515.81	745.99
516.17	760.05
516.53	774.11
516.89	788.29
517.25	802.46
517.61	816.88
517.97	831.37
518.33	845.82
518.69	860.63
519.05	875.73
519.41	890.95
519.77	906.60
520.13	921.97
520.49	937.37
520.85	952.82
521.21	968.63
521.57	984.91
521.93	1000.72
522.29	1017.09
522.65	1033.35
523.01	1049.72
523.37	1065.77
523.73	1081.97
524.09	1098.15
524.45	1114.47
524.81	1131.16
525.17	1148.13
525.53	1165.04
525.89	1181.92
526.25	1198.78
526.61	1215.10
526.97	1231.74
527.33	1248.17
527.68	1264.82
528.04	1281.27
528.40	1297.80
528.76	1314.86
529.12	1331.45
529.48	1348.24
529.84	1364.33
530.20	1381.00
530.56	1398.00
530.91	1415.44
531.27	1432.21
531.63	1448.67
531.99	1465.34
532.35	1481.30
532.71	1497.18
533.07	1513.41
533.42	1529.31
533.78	1545.35
534.14	1561.61
534.50	1577.02
534.86	1592.94
535.21	1608.10
535.57	1624.21
535.93	1639.80
536.29	1654.54
536.65	1669.72
537.00	1684.56
537.36	1699.85
537.72	1714.35
538.08	1728.62
538.44	1742.48
538.79	1756.46
539.15	1770.31
539.51	1783.98
539.87	1798.32
540.22	1812.02
540.58	1825.86
540.94	1839.31
541.29	1852.29
541.65	1865.00
542.01	1878.26
542.37	1890.66
542.72	1903.07
543.08	1914.76
543.44	1927.19
543.79	1938.53
544.15	1949.56
544.51	1961.24
544.87	1972.22
545.22	1983.18
545.58	1993.45
545.94	2003.12
546.29	2012.86
546.65	2022.57
547.01	2031.95
547.36	2040.64
547.72	2049.03
548.07	2056.94
548.43	2065.05
548.79	2073.05
549.14	2080.61
549.50	2087.85
549.86	2095.51
550.21	2103.01
550.57	2110.17
550.92	2116.64
551.28	2123.82
551.64	2130.84
551.99	2137.29
552.35	2143.46
552.70	2149.68
553.06	2155.85
553.41	2162.32
553.77	2168.39
554.13	2174.42
554.48	2180.54
554.84	2185.97
555.19	2191.46
555.55	2196.51
555.90	2200.95
556.26	2205.64
556.61	2210.39
556.97	2214.71
557.32	2218.80
557.68	2222.77
558.03	2227.02
558.39	2230.75
558.74	2235.07
559.10	2238.98
559.45	2242.66
559.81	2247.01
560.16	2250.70
560.52	2253.75
560.87	2257.06
561.23	2259.69
561.58	2262.79
561.94	2265.27
562.29	2267.81
562.64	2270.54
563.00	2273.23
563.35	2276.86
563.71	2280.16
564.06	2283.36
564.42	2286.21
564.77	2288.64
565.12	2291.02
565.48	2293.02
565.83	2294.98
566.19	2296.40
566.54	2297.27
566.89	2298.34
567.25	2298.91
567.60	2300.20
567.96	2301.91
568.31	2302.82
568.66	2303.89
569.02	2304.29
569.37	2304.55
569.72	2305.33
570.08	2305.13
570.43	2305.18
570.78	2304.43
571.14	2302.92
571.49	2301.39
571.84	2301.15
572.20	2299.99
572.55	2298.90
572.90	2297.23
573.26	2295.81
573.61	2294.12
573.96	2292.37
574.31	2289.45
574.67	2286.28
575.02	2282.58
575.37	2279.16
575.72	2275.27
576.08	2271.97
576.43	2268.70
576.78	2265.01
577.13	2261.79
577.49	2258.80
577.84	2255.21
578.19	2251.52
578.54	2247.83
578.90	2243.70
579.25	2238.07
579.60	2233.05
579.95	2227.87
580.30	2222.91
580.66	2217.62
581.01	2212.66
581.36	2207.66
581.71	2203.28
582.06	2198.93
582.42	2194.42
582.77	2189.16
583.12	2184.44
583.47	2179.49
583.82	2174.47
584.17	2169.14
584.53	2163.54
584.88	2157.83
585.23	2151.91
585.58	2146.34
585.93	2140.82
586.28	2136.10
586.63	2130.91
586.98	2125.81
587.34	2121.16
587.69	2116.13
588.04	2110.81
588.39	2105.11
588.74	2098.64
589.09	2092.58
589.44	2085.68
589.79	2079.72
590.14	2074.05
590.49	2067.58
590.84	2061.41
591.19	2055.27
591.54	2048.92
591.89	2041.48
592.25	2034.66
592.60	2027.48
592.95	2019.93
593.30	2012.48
593.65	2004.72
594.00	1997.72
594.35	1990.55
594.70	1982.52
595.05	1975.33
595.40	1968.12
595.75	1960.57
596.10	1954.18
596.45	1947.31
596.80	1941.06
597.15	1934.24
597.50	1927.07
597.85	1920.61
598.19	1913.85
598.54	1906.70
598.89	1900.08
599.24	1894.22
599.59	1887.47
599.94	1881.32
600.29	1874.97
600.64	1868.51
600.99	1861.23
601.34	1854.39
601.69	1847.42
602.04	1840.47
602.39	1833.11
602.74	1826.28
603.08	1819.52
603.43	1812.79
603.78	1805.51
604.13	1798.35
604.48	1791.05
604.83	1784.22
605.18	1777.19
605.53	1769.22
605.87	1761.24
606.22	1753.87
606.57	1745.92
606.92	1738.68
607.27	1731.29
607.62	1724.36
607.96	1716.93
608.31	1710.20
608.66	1702.52
609.01	1694.88
609.36	1687.26
609.70	1679.20
610.05	1671.07
610.40	1663.32
610.75	1655.00
611.10	1647.39
611.44	1638.97
611.79	1630.95
612.14	1622.14
612.49	1612.99
612.83	1604.52
613.18	1596.43
613.53	1588.36
613.88	1579.86
614.22	1571.46
614.57	1563.04
614.92	1554.88
615.27	1547.34
615.61	1539.02
615.96	1531.01
616.31	1523.39
616.65	1516.06
617.00	1508.49
617.35	1500.79
617.70	1492.44
618.04	1483.97
618.39	1475.72
618.74	1468.19
619.08	1459.95
619.43	1452.42
619.78	1445.41
620.12	1438.24
620.47	1430.57
620.82	1422.41
621.16	1415.09
621.51	1407.54
621.85	1399.79
622.20	1391.31
622.55	1382.86
622.89	1374.96
623.24	1367.32
623.59	1359.95
623.93	1352.42
624.28	1345.13
624.62	1337.58
624.97	1330.36
625.32	1323.65
625.66	1316.60
626.01	1309.32
626.35	1301.83
626.70	1294.14
627.04	1286.40
627.39	1278.63
627.73	1271.28
628.08	1264.30
628.43	1256.77
628.77	1249.44
629.12	1241.93
629.46	1234.81
629.81	1227.42
630.15	1220.12
630.50	1212.75
630.84	1204.45
631.19	1196.46
631.53	1188.95
631.88	1181.39
632.22	1173.78
632.57	1166.50
632.91	1158.94
633.26	1151.51
633.60	1144.22
633.95	1137.14
634.29	1130.18
634.64	1123.54
634.98	1116.22
635.32	1109.12
635.67	1102.72
636.01	1096.02
636.36	1089.19
636.70	1082.64
637.05	1076.13
637.39	1069.67
637.73	1063.13
638.08	1057.36
638.42	1051.50
638.77	1045.14
639.11	1038.46
639.45	1032.12
639.80	1025.40
640.14	1019.00
640.49	1012.52
640.83	1006.29
641.17	1000.02
641.52	993.73
641.86	987.32
642.20	981.44
642.55	975.12
642.89	968.49
643.23	961.95
643.58	956.18
643.92	949.94
644.26	943.85
644.61	937.90
644.95	931.91
645.29	925.32
645.64	918.48
645.98	912.10
646.32	906.39
646.66	900.35
647.01	894.58
647.35	888.88
647.69	883.16
648.04	877.63
648.38	871.90
648.72	865.88
649.06	859.70
649.41	853.80
649.75	847.85
650.09	841.92
650.43	836.21
650.78	830.09
651.12	824.14
651.46	818.40
651.80	812.59
652.14	807.24
652.49	801.89
652.83	796.79
653.17	791.07
653.51	785.41
653.85	780.08
654.20	774.44
654.54	768.42
654.88	762.63
655.22	756.63
655.56	750.93
655.90	745.46
656.25	740.30
656.59	734.99
656.93	729.96
657.27	724.81
657.61	719.33
657.95	714.28
658.29	709.26
658.64	704.03
658.98	698.72
659.32	693.22
659.66	688.00
660.00	682.72
660.34	677.79
660.68	672.81
661.02	667.74
661.36	662.98
661.70	658.45
662.05	654.06
662.39	649.79
662.73	645.29
663.07	640.91
663.41	636.45
663.75	631.94
664.09	627.25
664.43	622.83
664.77	618.63
665.11	614.36
665.45	610.17
665.79	606.07
666.13	602.00
666.47	597.90
666.81	593.70
667.15	589.55
667.49	585.72
667.83	581.92
668.17	577.95
668.51	573.87
668.85	569.90
669.19	565.98
669.53	562.15
669.87	558.26
670.21	554.58
670.55	550.95
670.89	547.54
671.23	544.15
671.57	540.69
671.91	537.19
672.25	533.66
672.58	530.15
672.92	526.80
673.26	523.66
673.60	520.50
673.94	517.38
674.28	514.47
674.62	511.47
674.96	508.33
675.30	505.45
675.64	502.57
675.97	499.78
676.31	496.94
676.65	494.00
676.99	491.30
677.33	488.38
677.67	485.54
678.01	482.47
678.34	479.49
678.68	476.59
679.02	473.86
679.36	471.15
679.70	468.45
680.04	465.66
680.37	462.79
680.71	459.96
681.05	457.33
681.39	454.63
681.73	452.04
682.06	449.58
682.40	447.02
682.74	444.46
683.08	441.91
683.42	439.35
683.75	436.84
684.09	434.31
684.43	431.91
684.77	429.50
685.10	427.17
685.44	424.93
685.78	422.67
686.12	420.39
686.45	418.05
686.79	415.75
687.13	413.61
687.46	411.47
687.80	409.34
688.14	407.19
688.48	405.13
688.81	402.86
689.15	400.70
689.49	398.58
689.82	396.55
690.16	394.51
690.50	392.57
690.83	390.64
691.17	388.64
691.51	386.69
691.84	384.83
692.18	382.91
692.52	380.89
692.85	378.95
693.19	377.07
693.52	375.29
693.86	373.49
694.20	371.67
694.53	369.86
694.87	368.06
695.21	366.25
695.54	364.41
695.88	362.67
696.21	360.91
696.55	359.23
696.88	357.53
697.22	355.88
697.56	354.22
697.89	352.59
698.23	350.99
698.56	349.44
698.90	347.85
699.23	346.21
699.57	344.69
699.90	343.21
700.24	341.63
700.58	340.13
700.91	338.65
701.25	337.20
701.58	335.82
701.92	334.44
702.25	333.05
702.59	331.68
702.92	330.34
703.26	329.06
703.59	327.79
703.93	326.59
704.26	325.34
704.60	324.04
704.93	322.76
705.26	321.53
705.60	320.32
705.93	319.14
706.27	318.08
706.60	316.98
706.94	315.86
707.27	314.72
707.61	313.63
707.94	312.57
708.27	311.50
708.61	310.42
708.94	309.42
709.28	308.43
709.61	307.48
709.94	306.57
710.28	305.56
710.61	304.57
710.95	303.54
711.28	302.59
711.61	301.66
711.95	300.75
712.28	299.79
712.61	298.80
712.95	297.86
713.28	296.99
713.61	296.10
713.95	295.21
714.28	294.39
714.61	293.57
714.95	292.73
715.28	291.83
715.61	290.98
715.95	290.11
716.28	289.26
716.61	288.46
716.95	287.63
717.28	286.91
717.61	286.15
717.94	285.40
718.28	284.59
718.61	283.86
718.94	283.22
719.27	282.60
719.61	281.96
719.94	281.34
720.27	280.67
720.60	280.05
720.94	279.45
721.27	278.86
721.60	278.27
721.93	277.69
722.27	277.19
722.60	276.64
722.93	276.09
723.26	275.57
723.59	275.00
723.93	274.47
724.26	273.88
724.59	273.30
724.92	272.79
725.25	272.30
725.59	271.81
725.92	271.25
726.25	270.71
726.58	270.24
726.91	269.72
727.24	269.23
727.57	268.78
727.91	268.28
728.24	267.82
728.57	267.35
728.90	266.90
729.23	266.38
729.56	265.94
729.89	265.47
730.22	264.96
730.55	264.48
730.89	264.05
731.22	263.64
731.55	263.21
731.88	262.77
732.21	262.37
732.54	261.94
732.87	261.55
733.20	261.16
733.53	260.75
733.86	260.40
734.19	260.00
734.52	259.59
734.85	259.28
735.18	258.85
735.51	258.50
735.84	258.12
736.17	257.79
736.50	257.41
736.83	257.19
737.16	256.90
737.49	256.60
737.82	256.22
738.15	255.89
738.48	255.59
738.81	255.26
739.14	254.94
739.47	254.63
739.80	254.33
740.13	254.02
740.46	253.71
740.79	253.36
741.12	253.05
741.45	252.71
741.78	252.31
742.11	252.03
742.44	251.66
742.77	251.39
743.10	251.09
743.43	250.80
743.75	250.42
744.08	250.26
744.41	250.00
744.74	249.71
745.07	249.41
745.40	249.17
745.73	248.95
746.06	248.69
746.39	248.43
746.71	248.12
747.04	247.83
747.37	247.53
747.70	247.28
748.03	247.02
748.36	246.80
748.68	246.60
749.01	246.34
749.34	246.14
749.67	245.87
750.00	245.62
750.33	245.46
750.65	245.19
750.98	244.82
751.31	244.54
751.64	244.37
751.97	244.20
752.29	243.97
752.62	243.69
752.95	243.47
753.28	243.22
753.60	243.01
753.93	242.84
754.26	242.64
754.59	242.42
754.91	242.22
755.24	242.01
755.57	241.79
755.90	241.63
756.22	241.41
756.55	241.22
756.88	241.02
757.20	240.80
757.53	240.64
757.86	240.47
758.19	240.34
758.51	240.14
758.84	239.92
759.17	239.70
759.49	239.55
759.82	239.41
760.15	239.28
760.47	239.14
760.80	238.96
761.13	238.87
761.45	238.70
761.78	238.58
762.11	238.43
762.43	238.31
762.76	238.15
763.08	238.04
763.41	237.93
763.74	237.78
764.06	237.60
764.39	237.45
764.71	237.31
765.04	237.13
765.37	236.99
765.69	236.88
766.02	236.75
766.34	236.63
766.67	236.48
767.00	236.37
767.32	236.31
767.65	236.25
767.97	236.08
768.30	235.98
768.62	235.86
768.95	235.79
769.27	235.65
769.60	235.53
769.92	235.43
770.25	235.28
770.57	235.16
770.90	235.10
771.22	235.00
771.55	234.92
771.87	234.87
772.20	234.78
772.52	234.79
772.85	234.83
773.17	234.74
773.50	234.66
773.82	234.53
774.15	234.38
774.47	234.25
774.80	234.21
775.12	234.13
775.45	234.03
775.77	233.93
776.09	233.88
776.42	233.83
776.74	233.78
777.07	233.72
777.39	233.66
777.72	233.58
778.04	233.51
778.36	233.44
778.69	233.36
779.01	233.29
779.33	233.12
779.66	232.97
779.98	232.88
780.31	232.81
780.63	232.79
780.95	232.73
781.28	232.69
781.60	232.60
781.92	232.54
782.25	232.48
782.57	232.44
782.89	232.36
783.22	232.31
783.54	232.22
783.86	232.16
784.19	232.10
784.51	232.07
784.83	232.01
785.16	231.94
785.48	231.88
785.80	231.87
786.12	231.83
786.45	231.79
786.77	231.76
787.09	231.71
