SpectraSuite Data File
++++++++++++++++++++++++++++++++++++
Date: Fri Feb 01 17:30:49 EST 2013
User: group
Dark Spectrum Present: No
Reference Spectrum Present: No
Number of Sampled Component Spectra: 1
Spectrometers: USB2E7196
Integration Time (usec): 35000 (USB2E7196)
Spectra Averaged: 100 (USB2E7196)
Boxcar Smoothing: 10 (USB2E7196)
Correct for Electrical Dark: No (USB2E7196)
Strobe/Lamp Enabled: No (USB2E7196)
Correct for Detector Non-linearity: No (USB2E7196)
Correct for Stray Light: No (USB2E7196)
Number of Pixels in Processed Spectrum: 2048
>>>>>Begin Processed Spectral Data<<<<<
339.09	0.00
339.48	213.11
339.86	214.36
340.24	216.26
340.63	217.59
341.01	220.15
341.39	220.59
341.78	221.28
342.16	222.41
342.54	223.25
342.93	211.80
343.31	222.51
343.69	223.08
344.07	223.56
344.46	223.98
344.84	224.38
345.22	224.65
345.60	224.92
345.99	225.11
346.37	225.24
346.75	225.33
347.13	225.40
347.52	225.43
347.90	225.49
348.28	225.50
348.66	225.53
349.05	225.49
349.43	225.50
349.81	225.57
350.19	225.62
350.57	225.66
350.96	225.72
351.34	225.79
351.72	225.85
352.10	225.94
352.48	226.01
352.87	226.03
353.25	226.08
353.63	226.12
354.01	226.18
354.39	226.26
354.77	226.33
355.15	226.41
355.54	226.48
355.92	226.52
356.30	226.59
356.68	226.72
357.06	226.79
357.44	226.84
357.82	226.89
358.20	226.90
358.58	226.94
358.97	226.99
359.35	227.07
359.73	227.11
360.11	227.12
360.49	227.13
360.87	227.16
361.25	227.20
361.63	227.23
362.01	227.27
362.39	227.29
362.77	227.36
363.15	227.36
363.53	227.38
363.91	227.34
364.29	227.34
364.67	227.20
365.05	227.19
365.43	227.18
365.81	227.18
366.19	227.26
366.57	227.29
366.95	227.26
367.33	227.19
367.71	227.21
368.09	227.24
368.47	227.22
368.85	227.21
369.23	227.20
369.61	227.12
369.99	227.12
370.37	227.08
370.75	227.04
371.13	227.00
371.51	226.92
371.89	226.90
372.27	226.84
372.65	226.80
373.03	226.77
373.41	226.71
373.78	226.64
374.16	226.49
374.54	226.43
374.92	226.33
375.30	226.30
375.68	226.21
376.06	226.15
376.44	226.10
376.82	226.03
377.19	225.96
377.57	225.88
377.95	225.76
378.33	225.67
378.71	225.57
379.09	225.49
379.47	225.47
379.84	225.44
380.22	225.37
380.60	225.32
380.98	225.26
381.36	225.23
381.73	225.15
382.11	225.12
382.49	225.06
382.87	225.02
383.25	224.96
383.62	225.01
384.00	224.93
384.38	224.91
384.76	224.88
385.13	224.87
385.51	224.82
385.89	224.78
386.27	224.78
386.64	224.75
387.02	224.74
387.40	224.67
387.78	224.63
388.15	224.58
388.53	224.55
388.91	224.53
389.29	224.48
389.66	224.48
390.04	224.50
390.42	224.49
390.79	224.48
391.17	224.48
391.55	224.36
391.92	224.35
392.30	224.34
392.68	224.32
393.05	224.33
393.43	224.35
393.81	224.37
394.18	224.34
394.56	224.35
394.94	224.38
395.31	224.39
395.69	224.46
396.06	224.52
396.44	224.55
396.82	224.55
397.19	224.68
397.57	224.71
397.95	224.74
398.32	224.74
398.70	224.82
399.07	224.90
399.45	224.98
399.82	225.07
400.20	225.11
400.58	225.19
400.95	225.23
401.33	225.34
401.70	225.50
402.08	225.61
402.45	225.70
402.83	225.82
403.20	225.93
403.58	225.97
403.95	226.10
404.33	226.26
404.71	226.40
405.08	226.55
405.46	226.67
405.83	226.81
406.21	226.98
406.58	227.14
406.96	227.31
407.33	227.47
407.70	227.65
408.08	227.93
408.45	228.15
408.83	228.38
409.20	228.59
409.58	228.77
409.95	229.04
410.33	229.32
410.70	229.56
411.08	229.89
411.45	230.23
411.82	230.53
412.20	230.86
412.57	231.29
412.95	231.58
413.32	232.02
413.69	232.46
414.07	232.92
414.44	233.43
414.82	233.91
415.19	234.48
415.56	235.01
415.94	235.60
416.31	236.26
416.68	236.88
417.06	237.62
417.43	238.34
417.81	239.13
418.18	239.93
418.55	240.77
418.93	241.67
419.30	242.61
419.67	243.58
420.04	244.57
420.42	245.58
420.79	246.82
421.16	248.01
421.54	249.23
421.91	250.49
422.28	251.76
422.66	253.13
423.03	254.46
423.40	255.86
423.77	257.27
424.15	258.72
424.52	260.28
424.89	261.96
425.26	263.57
425.64	265.10
426.01	266.75
426.38	268.54
426.75	270.30
427.13	272.11
427.50	274.03
427.87	276.03
428.24	277.98
428.61	279.80
428.99	281.82
429.36	284.02
429.73	286.17
430.10	288.29
430.47	290.45
430.85	292.66
431.22	295.02
431.59	297.52
431.96	299.87
432.33	302.45
432.70	304.92
433.08	307.84
433.45	310.57
433.82	313.30
434.19	316.28
434.56	319.17
434.93	321.87
435.30	324.55
435.68	327.53
436.05	330.49
436.42	333.37
436.79	336.00
437.16	338.76
437.53	341.73
437.90	344.64
438.27	347.49
438.64	350.44
439.01	353.10
439.38	355.44
439.75	357.72
440.13	360.28
440.50	362.73
440.87	364.71
441.24	366.71
441.61	368.94
441.98	370.49
442.35	372.37
442.72	374.33
443.09	376.23
443.46	377.29
443.83	377.87
444.20	378.44
444.57	379.37
444.94	379.73
445.31	380.13
445.68	380.52
446.05	380.61
446.42	380.25
446.79	379.89
447.16	379.46
447.53	379.16
447.90	377.97
448.27	376.75
448.64	375.09
449.01	373.96
449.37	371.95
449.74	370.03
450.11	367.74
450.48	365.22
450.85	362.62
451.22	360.42
451.59	358.34
451.96	356.35
452.33	353.59
452.70	351.14
453.07	348.13
453.43	345.09
453.80	342.21
454.17	339.44
454.54	336.77
454.91	333.94
455.28	331.13
455.65	328.56
456.02	326.06
456.38	323.82
456.75	321.04
457.12	318.70
457.49	316.37
457.86	314.06
458.23	312.10
458.59	309.95
458.96	307.74
459.33	305.81
459.70	303.90
460.07	302.35
460.43	300.58
460.80	298.94
461.17	297.48
461.54	295.93
461.91	294.43
462.27	292.96
462.64	291.68
463.01	290.28
463.38	288.96
463.74	287.51
464.11	286.32
464.48	285.23
464.85	284.08
465.21	283.18
465.58	282.29
465.95	281.17
466.32	280.25
466.68	279.28
467.05	278.38
467.42	277.43
467.78	276.45
468.15	275.49
468.52	274.86
468.88	273.98
469.25	273.17
469.62	272.51
469.98	271.77
470.35	271.08
470.72	270.44
471.08	269.76
471.45	269.24
471.82	268.65
472.18	268.05
472.55	267.61
472.92	267.04
473.28	266.52
473.65	266.09
474.02	265.63
474.38	265.27
474.75	264.92
475.11	264.54
475.48	264.26
475.85	264.03
476.21	263.73
476.58	263.53
476.94	263.37
477.31	263.16
477.67	263.03
478.04	262.89
478.41	262.84
478.77	262.88
479.14	262.76
479.50	262.76
479.87	262.86
480.23	262.90
480.60	262.97
480.96	263.05
481.33	263.26
481.69	263.48
482.06	263.66
482.42	263.88
482.79	264.14
483.15	264.44
483.52	264.82
483.88	265.14
484.25	265.50
484.61	265.92
484.98	266.38
485.34	266.93
485.71	267.51
486.07	268.10
486.44	268.59
486.80	269.32
487.17	270.01
487.53	270.82
487.90	271.64
488.26	272.56
488.62	273.54
488.99	274.50
489.35	275.46
489.72	276.59
490.08	277.76
490.44	278.98
490.81	280.29
491.17	281.61
491.54	283.10
491.90	284.61
492.26	286.22
492.63	287.96
492.99	289.71
493.36	291.58
493.72	293.65
494.08	295.76
494.45	297.94
494.81	300.34
495.17	302.72
495.54	305.29
495.90	308.00
496.26	310.74
496.63	313.66
496.99	316.78
497.35	320.00
497.72	323.37
498.08	326.84
498.44	330.50
498.80	334.41
499.17	338.40
499.53	342.55
499.89	346.87
500.26	351.31
500.62	355.95
500.98	360.86
501.34	365.83
501.71	371.10
502.07	376.53
502.43	382.01
502.79	387.76
503.16	393.75
503.52	399.93
503.88	406.27
504.24	412.78
504.60	419.51
504.97	426.55
505.33	433.72
505.69	441.38
506.05	449.01
506.41	456.74
506.78	464.69
507.14	472.94
507.50	481.52
507.86	490.37
508.22	499.36
508.59	508.46
508.95	517.82
509.31	527.45
509.67	537.30
510.03	547.44
510.39	557.80
510.75	568.30
511.12	578.96
511.48	589.98
511.84	601.19
512.20	612.49
512.56	624.06
512.92	635.89
513.28	647.93
513.64	660.08
514.00	672.51
514.37	685.15
514.73	697.83
515.09	710.47
515.45	723.37
515.81	736.59
516.17	750.10
516.53	763.90
516.89	777.67
517.25	791.38
517.61	805.35
517.97	819.40
518.33	833.52
518.69	847.93
519.05	862.48
519.41	877.24
519.77	892.28
520.13	907.33
520.49	922.35
520.85	937.12
521.21	952.38
521.57	968.11
521.93	983.41
522.29	999.35
522.65	1015.24
523.01	1030.99
523.37	1046.60
523.73	1062.25
524.09	1077.81
524.45	1093.58
524.81	1109.78
525.17	1126.07
525.53	1142.48
525.89	1158.76
526.25	1175.06
526.61	1190.92
526.97	1207.09
527.33	1223.17
527.68	1239.26
528.04	1255.24
528.40	1271.46
528.76	1288.12
529.12	1304.16
529.48	1320.69
529.84	1336.27
530.20	1352.33
530.56	1368.79
530.91	1385.68
531.27	1402.05
531.63	1418.04
531.99	1434.19
532.35	1449.79
532.71	1465.37
533.07	1481.19
533.42	1496.72
533.78	1512.35
534.14	1528.20
534.50	1543.31
534.86	1558.79
535.21	1573.79
535.57	1589.27
535.93	1604.35
536.29	1618.69
536.65	1633.46
537.00	1647.74
537.36	1662.79
537.72	1677.11
538.08	1691.40
538.44	1704.88
538.79	1718.47
539.15	1731.85
539.51	1745.41
539.87	1759.53
540.22	1772.88
540.58	1786.28
540.94	1799.25
541.29	1811.91
541.65	1824.53
542.01	1837.49
542.37	1849.70
542.72	1861.91
543.08	1873.63
543.44	1885.96
543.79	1897.22
544.15	1908.09
544.51	1919.75
544.87	1930.55
545.22	1941.28
545.58	1951.45
545.94	1961.35
546.29	1971.33
546.65	1981.32
547.01	1990.74
547.36	1999.46
547.72	2008.16
548.07	2016.36
548.43	2024.85
548.79	2032.96
549.14	2040.75
549.50	2048.14
549.86	2055.81
550.21	2063.22
550.57	2070.62
550.92	2077.46
551.28	2084.68
551.64	2092.01
551.99	2098.68
552.35	2105.15
552.70	2111.48
553.06	2117.74
553.41	2124.41
553.77	2130.57
554.13	2136.86
554.48	2143.15
554.84	2149.09
555.19	2154.48
555.55	2159.92
555.90	2164.72
556.26	2170.10
556.61	2174.93
556.97	2179.82
557.32	2184.28
557.68	2188.76
558.03	2193.47
558.39	2197.37
558.74	2202.26
559.10	2206.58
559.45	2210.57
559.81	2215.12
560.16	2219.19
560.52	2222.81
560.87	2226.46
561.23	2229.53
561.58	2232.68
561.94	2235.67
562.29	2238.27
562.64	2241.59
563.00	2244.57
563.35	2248.31
563.71	2251.71
564.06	2255.28
564.42	2258.50
564.77	2261.57
565.12	2264.47
565.48	2266.77
565.83	2269.21
566.19	2271.14
566.54	2272.38
566.89	2274.03
567.25	2275.25
567.60	2277.11
567.96	2279.27
568.31	2280.49
568.66	2282.07
569.02	2283.18
569.37	2283.82
569.72	2285.19
570.08	2285.79
570.43	2286.12
570.78	2286.10
571.14	2284.99
571.49	2284.20
571.84	2284.20
572.20	2283.53
572.55	2282.66
572.90	2281.38
573.26	2280.34
573.61	2278.83
573.96	2277.53
574.31	2275.08
574.67	2272.41
575.02	2269.24
575.37	2266.02
575.72	2262.82
576.08	2259.91
576.43	2257.02
576.78	2253.90
577.13	2250.96
577.49	2247.97
577.84	2244.98
578.19	2241.53
578.54	2238.43
578.90	2234.69
579.25	2229.54
579.60	2225.01
579.95	2220.35
580.30	2215.56
580.66	2210.86
581.01	2206.32
581.36	2201.60
581.71	2197.72
582.06	2193.75
582.42	2189.60
582.77	2184.88
583.12	2180.70
583.47	2176.40
583.82	2171.93
584.17	2166.97
584.53	2161.77
584.88	2156.51
585.23	2151.11
585.58	2145.90
585.93	2140.62
586.28	2135.89
586.63	2131.05
586.98	2126.19
587.34	2121.79
587.69	2117.35
588.04	2112.41
588.39	2107.05
588.74	2100.98
589.09	2094.99
589.44	2088.46
589.79	2082.66
590.14	2077.19
590.49	2070.73
590.84	2064.46
591.19	2058.50
591.54	2052.37
591.89	2045.50
592.25	2039.10
592.60	2032.02
592.95	2024.72
593.30	2017.63
593.65	2010.26
594.00	2003.39
594.35	1996.32
594.70	1988.39
595.05	1981.46
595.40	1974.24
595.75	1966.94
596.10	1960.98
596.45	1954.53
596.80	1948.55
597.15	1942.13
597.50	1935.39
597.85	1929.01
598.19	1922.41
598.54	1915.55
598.89	1908.99
599.24	1903.06
599.59	1896.60
599.94	1890.49
600.29	1884.15
600.64	1877.44
600.99	1870.28
601.34	1863.64
601.69	1856.74
602.04	1850.16
602.39	1842.93
602.74	1836.20
603.08	1829.51
603.43	1822.79
603.78	1815.46
604.13	1808.25
604.48	1801.18
604.83	1794.36
605.18	1787.64
605.53	1779.89
605.87	1771.99
606.22	1764.75
606.57	1756.82
606.92	1749.28
607.27	1742.32
607.62	1735.65
607.96	1728.62
608.31	1722.13
608.66	1714.63
609.01	1707.08
609.36	1699.54
609.70	1691.49
610.05	1683.41
610.40	1675.74
610.75	1667.46
611.10	1659.83
611.44	1651.29
611.79	1643.08
612.14	1634.26
612.49	1624.94
612.83	1616.49
613.18	1608.17
613.53	1599.96
613.88	1591.34
614.22	1582.98
614.57	1574.08
614.92	1565.90
615.27	1558.29
615.61	1549.83
615.96	1541.65
616.31	1533.84
616.65	1526.30
617.00	1518.72
617.35	1510.93
617.70	1502.61
618.04	1494.00
618.39	1485.56
618.74	1477.94
619.08	1469.58
619.43	1461.88
619.78	1454.81
620.12	1447.55
620.47	1440.07
620.82	1431.80
621.16	1424.28
621.51	1416.58
621.85	1408.93
622.20	1400.42
622.55	1391.90
622.89	1383.88
623.24	1376.07
623.59	1368.60
623.93	1361.14
624.28	1353.80
624.62	1346.27
624.97	1338.94
625.32	1332.01
625.66	1325.00
626.01	1317.75
626.35	1310.35
626.70	1302.54
627.04	1294.83
627.39	1286.84
627.73	1279.25
628.08	1272.20
628.43	1264.93
628.77	1257.67
629.12	1249.92
629.46	1242.65
629.81	1235.07
630.15	1227.77
630.50	1220.25
630.84	1212.00
631.19	1203.79
631.53	1196.06
631.88	1188.35
632.22	1180.71
632.57	1173.30
632.91	1165.57
633.26	1158.17
633.60	1150.59
633.95	1143.33
634.29	1136.12
634.64	1129.49
634.98	1122.11
635.32	1114.91
635.67	1108.16
636.01	1101.44
636.36	1094.82
636.70	1088.23
637.05	1081.70
637.39	1075.21
637.73	1068.77
638.08	1062.96
638.42	1057.02
638.77	1050.68
639.11	1044.18
639.45	1037.73
639.80	1031.06
640.14	1024.77
640.49	1018.18
640.83	1011.89
641.17	1005.69
641.52	999.44
641.86	992.91
642.20	987.06
642.55	980.68
642.89	974.26
643.23	967.51
643.58	961.62
643.92	955.44
644.26	949.37
644.61	943.32
644.95	937.28
645.29	930.62
645.64	923.84
645.98	917.38
646.32	911.35
646.66	905.21
647.01	899.41
647.35	893.58
647.69	887.56
648.04	881.91
648.38	876.15
648.72	870.09
649.06	863.98
649.41	858.02
649.75	852.16
650.09	846.14
650.43	840.32
650.78	834.13
651.12	828.10
651.46	822.40
651.80	816.74
652.14	811.26
652.49	805.88
652.83	800.64
653.17	795.06
653.51	789.44
653.85	783.97
654.20	778.36
654.54	772.44
654.88	766.71
655.22	760.76
655.56	754.96
655.90	749.38
656.25	744.17
656.59	738.78
656.93	733.60
657.27	728.49
657.61	723.09
657.95	717.96
658.29	712.85
658.64	707.51
658.98	702.05
659.32	696.54
659.66	691.28
660.00	686.03
660.34	681.05
660.68	676.09
661.02	671.09
661.36	666.32
661.70	661.84
662.05	657.48
662.39	653.22
662.73	648.76
663.07	644.45
663.41	639.96
663.75	635.47
664.09	630.91
664.43	626.46
664.77	622.30
665.11	617.98
665.45	613.78
665.79	609.75
666.13	605.64
666.47	601.57
666.81	597.44
667.15	593.18
667.49	589.16
667.83	585.24
668.17	581.29
668.51	577.23
668.85	573.14
669.19	569.25
669.53	565.43
669.87	561.64
670.21	557.85
670.55	554.17
670.89	550.72
671.23	547.29
671.57	543.73
671.91	540.27
672.25	536.78
672.58	533.28
672.92	529.81
673.26	526.54
673.60	523.32
673.94	520.22
674.28	517.31
674.62	514.41
674.96	511.36
675.30	508.53
675.64	505.59
675.97	502.69
676.31	499.83
676.65	496.87
676.99	494.10
677.33	491.22
677.67	488.39
678.01	485.35
678.34	482.35
678.68	479.45
679.02	476.59
679.36	473.82
679.70	471.09
680.04	468.26
680.37	465.47
680.71	462.69
681.05	460.04
681.39	457.30
681.73	454.61
682.06	452.02
682.40	449.40
682.74	446.81
683.08	444.24
683.42	441.62
683.75	439.10
684.09	436.52
684.43	434.09
684.77	431.56
685.10	429.16
685.44	426.82
685.78	424.49
686.12	422.22
686.45	419.91
686.79	417.58
687.13	415.40
687.46	413.14
687.80	410.94
688.14	408.66
688.48	406.60
688.81	404.29
689.15	402.08
689.49	399.91
689.82	397.81
690.16	395.74
690.50	393.75
690.83	391.75
691.17	389.67
691.51	387.71
691.84	385.88
692.18	383.99
692.52	381.95
692.85	380.00
693.19	378.06
693.52	376.15
693.86	374.30
694.20	372.47
694.53	370.66
694.87	368.80
695.21	366.99
695.54	365.12
695.88	363.40
696.21	361.66
696.55	359.94
696.88	358.22
697.22	356.46
697.56	354.76
697.89	353.10
698.23	351.51
698.56	349.92
698.90	348.34
699.23	346.66
699.57	345.08
699.90	343.51
700.24	341.94
700.58	340.45
700.91	338.91
701.25	337.46
701.58	336.09
701.92	334.69
702.25	333.31
702.59	331.93
702.92	330.59
703.26	329.29
703.59	328.02
703.93	326.80
704.26	325.61
704.60	324.34
704.93	323.05
705.26	321.74
705.60	320.49
705.93	319.32
706.27	318.24
706.60	317.21
706.94	316.15
707.27	315.03
707.61	313.91
707.94	312.85
708.27	311.71
708.61	310.60
708.94	309.54
709.28	308.51
709.61	307.50
709.94	306.54
710.28	305.53
710.61	304.49
710.95	303.39
711.28	302.46
711.61	301.48
711.95	300.55
712.28	299.62
712.61	298.65
712.95	297.64
713.28	296.72
713.61	295.78
713.95	294.86
714.28	294.03
714.61	293.17
714.95	292.35
715.28	291.52
715.61	290.66
715.95	289.81
716.28	288.96
716.61	288.13
716.95	287.27
717.28	286.42
717.61	285.63
717.94	284.91
718.28	284.10
718.61	283.33
718.94	282.62
719.27	281.97
719.61	281.31
719.94	280.66
720.27	279.94
720.60	279.29
720.94	278.66
721.27	278.02
721.60	277.44
721.93	276.79
722.27	276.22
722.60	275.67
722.93	275.10
723.26	274.50
723.59	273.96
723.93	273.44
724.26	272.90
724.59	272.32
724.92	271.78
725.25	271.27
725.59	270.75
725.92	270.26
726.25	269.74
726.58	269.22
726.91	268.72
727.24	268.24
727.57	267.75
727.91	267.19
728.24	266.72
728.57	266.20
728.90	265.74
729.23	265.26
729.56	264.80
729.89	264.31
730.22	263.87
730.55	263.38
730.89	262.92
731.22	262.51
731.55	262.09
731.88	261.61
732.21	261.17
732.54	260.71
732.87	260.25
733.20	259.83
733.53	259.44
733.86	259.06
734.19	258.63
734.52	258.23
734.85	257.93
735.18	257.50
735.51	257.18
735.84	256.81
736.17	256.40
736.50	256.01
736.83	255.75
737.16	255.39
737.49	255.07
737.82	254.71
738.15	254.38
738.48	254.03
738.81	253.72
739.14	253.38
739.47	253.07
739.80	252.77
740.13	252.43
740.46	252.10
740.79	251.74
741.12	251.44
741.45	251.10
741.78	250.73
742.11	250.43
742.44	250.07
742.77	249.74
743.10	249.43
743.43	249.09
743.75	248.72
744.08	248.56
744.41	248.24
744.74	247.95
745.07	247.63
745.40	247.39
745.73	247.13
746.06	246.86
746.39	246.61
746.71	246.33
747.04	246.04
747.37	245.72
747.70	245.48
748.03	245.25
748.36	245.03
748.68	244.79
749.01	244.52
749.34	244.30
749.67	244.08
750.00	243.91
750.33	243.78
750.65	243.56
750.98	243.18
751.31	242.97
751.64	242.76
751.97	242.58
752.29	242.37
752.62	242.11
752.95	241.89
753.28	241.66
753.60	241.45
753.93	241.26
754.26	241.09
754.59	240.87
754.91	240.62
755.24	240.40
755.57	240.23
755.90	240.04
756.22	239.83
756.55	239.64
756.88	239.42
757.20	239.16
757.53	238.95
757.86	238.81
758.19	238.65
758.51	238.48
758.84	238.30
759.17	238.14
759.49	237.97
759.82	237.85
760.15	237.71
760.47	237.61
760.80	237.46
761.13	237.38
761.45	237.23
761.78	237.15
762.11	237.01
762.43	236.88
762.76	236.77
763.08	236.68
763.41	236.54
763.74	236.40
764.06	236.29
764.39	236.19
764.71	236.06
765.04	235.93
765.37	235.79
765.69	235.69
766.02	235.58
766.34	235.45
766.67	235.32
767.00	235.23
767.32	235.15
767.65	235.10
767.97	234.96
768.30	234.90
768.62	234.77
768.95	234.65
769.27	234.53
769.60	234.39
769.92	234.23
770.25	234.13
770.57	234.04
770.90	233.93
771.22	233.81
771.55	233.73
771.87	233.67
772.20	233.57
772.52	233.53
772.85	233.51
773.17	233.45
773.50	233.33
773.82	233.19
774.15	233.07
774.47	232.91
774.80	232.83
775.12	232.67
775.45	232.57
775.77	232.49
776.09	232.40
776.42	232.35
776.74	232.35
777.07	232.27
777.39	232.17
777.72	232.07
778.04	231.99
778.36	231.90
778.69	231.80
779.01	231.73
779.33	231.54
779.66	231.37
779.98	231.28
780.31	231.20
780.63	231.15
780.95	231.09
781.28	230.99
781.60	230.89
781.92	230.84
782.25	230.77
782.57	230.68
782.89	230.59
783.22	230.53
783.54	230.40
783.86	230.32
784.19	230.26
784.51	230.24
784.83	230.17
785.16	230.13
785.48	230.08
785.80	230.02
786.12	230.00
786.45	229.94
786.77	229.90
787.09	229.86
