SpectraSuite Data File
++++++++++++++++++++++++++++++++++++
Date: Fri Feb 01 15:39:52 EST 2013
User: group
Dark Spectrum Present: No
Reference Spectrum Present: No
Number of Sampled Component Spectra: 1
Spectrometers: USB2E7196
Integration Time (usec): 35000 (USB2E7196)
Spectra Averaged: 100 (USB2E7196)
Boxcar Smoothing: 10 (USB2E7196)
Correct for Electrical Dark: No (USB2E7196)
Strobe/Lamp Enabled: No (USB2E7196)
Correct for Detector Non-linearity: No (USB2E7196)
Correct for Stray Light: No (USB2E7196)
Number of Pixels in Processed Spectrum: 2048
>>>>>Begin Processed Spectral Data<<<<<
339.09	0.00
339.48	215.67
339.86	216.91
340.24	217.25
340.63	219.15
341.01	221.82
341.39	221.49
341.78	222.95
342.16	224.48
342.54	224.78
342.93	213.25
343.31	224.02
343.69	224.53
344.07	224.95
344.46	225.42
344.84	225.81
345.22	226.07
345.60	226.34
345.99	226.54
346.37	226.64
346.75	226.76
347.13	226.84
347.52	226.87
347.90	226.91
348.28	226.95
348.66	227.01
349.05	227.00
349.43	227.06
349.81	227.09
350.19	227.11
350.57	227.19
350.96	227.27
351.34	227.35
351.72	227.42
352.10	227.52
352.48	227.54
352.87	227.57
353.25	227.63
353.63	227.70
354.01	227.78
354.39	227.90
354.77	227.98
355.15	228.07
355.54	228.12
355.92	228.16
356.30	228.22
356.68	228.38
357.06	228.48
357.44	228.53
357.82	228.60
358.20	228.66
358.58	228.71
358.97	228.79
359.35	228.88
359.73	228.98
360.11	229.04
360.49	229.15
360.87	229.21
361.25	229.26
361.63	229.34
362.01	229.35
362.39	229.35
362.77	229.40
363.15	229.43
363.53	229.45
363.91	229.50
364.29	229.53
364.67	229.42
365.05	229.42
365.43	229.46
365.81	229.47
366.19	229.55
366.57	229.58
366.95	229.56
367.33	229.54
367.71	229.51
368.09	229.50
368.47	229.51
368.85	229.50
369.23	229.50
369.61	229.42
369.99	229.44
370.37	229.46
370.75	229.46
371.13	229.43
371.51	229.39
371.89	229.34
372.27	229.29
372.65	229.29
373.03	229.24
373.41	229.20
373.78	229.16
374.16	229.04
374.54	228.94
374.92	228.91
375.30	228.83
375.68	228.75
376.06	228.69
376.44	228.58
376.82	228.51
377.19	228.43
377.57	228.36
377.95	228.24
378.33	228.13
378.71	228.00
379.09	227.94
379.47	227.87
379.84	227.79
380.22	227.73
380.60	227.59
380.98	227.50
381.36	227.43
381.73	227.35
382.11	227.30
382.49	227.26
382.87	227.14
383.25	227.08
383.62	227.14
384.00	227.06
384.38	227.00
384.76	226.94
385.13	226.96
385.51	226.90
385.89	226.88
386.27	226.85
386.64	226.78
387.02	226.73
387.40	226.68
387.78	226.62
388.15	226.59
388.53	226.62
388.91	226.57
389.29	226.50
389.66	226.49
390.04	226.48
390.42	226.46
390.79	226.48
391.17	226.47
391.55	226.34
391.92	226.38
392.30	226.38
392.68	226.36
393.05	226.34
393.43	226.32
393.81	226.32
394.18	226.30
394.56	226.34
394.94	226.37
395.31	226.39
395.69	226.46
396.06	226.46
396.44	226.48
396.82	226.55
397.19	226.66
397.57	226.67
397.95	226.72
398.32	226.76
398.70	226.79
399.07	226.84
399.45	226.91
399.82	226.93
400.20	226.99
400.58	227.07
400.95	227.12
401.33	227.26
401.70	227.40
402.08	227.55
402.45	227.63
402.83	227.76
403.20	227.92
403.58	228.00
403.95	228.15
404.33	228.28
404.71	228.40
405.08	228.58
405.46	228.73
405.83	228.86
406.21	229.03
406.58	229.22
406.96	229.38
407.33	229.55
407.70	229.76
408.08	230.05
408.45	230.29
408.83	230.53
409.20	230.72
409.58	230.91
409.95	231.15
410.33	231.43
410.70	231.70
411.08	231.97
411.45	232.27
411.82	232.61
412.20	232.95
412.57	233.38
412.95	233.67
413.32	234.11
413.69	234.54
414.07	234.98
414.44	235.44
414.82	235.96
415.19	236.54
415.56	237.11
415.94	237.66
416.31	238.31
416.68	238.93
417.06	239.68
417.43	240.35
417.81	241.12
418.18	241.91
418.55	242.73
418.93	243.60
419.30	244.53
419.67	245.44
420.04	246.40
420.42	247.38
420.79	248.54
421.16	249.67
421.54	250.84
421.91	252.07
422.28	253.31
422.66	254.62
423.03	255.93
423.40	257.24
423.77	258.59
424.15	260.00
424.52	261.50
424.89	263.08
425.26	264.66
425.64	266.06
426.01	267.65
426.38	269.30
426.75	270.97
427.13	272.67
427.50	274.47
427.87	276.35
428.24	278.20
428.61	279.96
428.99	281.89
429.36	284.01
429.73	286.06
430.10	288.09
430.47	290.15
430.85	292.26
431.22	294.51
431.59	296.94
431.96	299.16
432.33	301.59
432.70	304.00
433.08	306.80
433.45	309.45
433.82	312.10
434.19	315.01
434.56	317.82
434.93	320.49
435.30	323.13
435.68	326.03
436.05	328.89
436.42	331.67
436.79	334.20
437.16	336.88
437.53	339.66
437.90	342.49
438.27	345.23
438.64	348.02
439.01	350.61
439.38	352.88
439.75	355.03
440.13	357.57
440.50	359.92
440.87	361.76
441.24	363.70
441.61	365.81
441.98	367.22
442.35	369.04
442.72	370.91
443.09	372.76
443.46	373.72
443.83	374.30
444.20	374.77
444.57	375.61
444.94	375.91
445.31	376.30
445.68	376.66
446.05	376.69
446.42	376.34
446.79	375.90
447.16	375.42
447.53	375.14
447.90	373.96
448.27	372.76
448.64	371.18
449.01	370.06
449.37	368.15
449.74	366.33
450.11	364.06
450.48	361.59
450.85	359.02
451.22	356.87
451.59	354.89
451.96	352.99
452.33	350.40
452.70	348.06
453.07	345.20
453.43	342.29
453.80	339.62
454.17	336.94
454.54	334.40
454.91	331.67
455.28	329.01
455.65	326.52
456.02	324.09
456.38	321.94
456.75	319.26
457.12	316.99
457.49	314.78
457.86	312.60
458.23	310.75
458.59	308.72
458.96	306.65
459.33	304.75
459.70	302.91
460.07	301.39
460.43	299.62
460.80	298.03
461.17	296.57
461.54	295.05
461.91	293.63
462.27	292.22
462.64	290.93
463.01	289.53
463.38	288.25
463.74	286.87
464.11	285.67
464.48	284.65
464.85	283.51
465.21	282.60
465.58	281.68
465.95	280.56
466.32	279.66
466.68	278.77
467.05	277.85
467.42	276.91
467.78	275.98
468.15	275.14
468.52	274.46
468.88	273.62
469.25	272.82
469.62	272.18
469.98	271.46
470.35	270.85
470.72	270.25
471.08	269.61
471.45	269.06
471.82	268.49
472.18	267.88
472.55	267.42
472.92	266.93
473.28	266.47
473.65	265.99
474.02	265.50
474.38	265.12
474.75	264.82
475.11	264.50
475.48	264.23
475.85	263.99
476.21	263.75
476.58	263.57
476.94	263.39
477.31	263.22
477.67	263.08
478.04	262.95
478.41	262.90
478.77	262.93
479.14	262.86
479.50	262.90
479.87	262.92
480.23	263.03
480.60	263.05
480.96	263.16
481.33	263.37
481.69	263.60
482.06	263.80
482.42	264.01
482.79	264.28
483.15	264.56
483.52	264.94
483.88	265.27
484.25	265.63
484.61	266.06
484.98	266.50
485.34	267.11
485.71	267.72
486.07	268.34
486.44	268.92
486.80	269.64
487.17	270.39
487.53	271.25
487.90	272.09
488.26	273.05
488.62	274.04
488.99	275.01
489.35	276.02
489.72	277.13
490.08	278.28
490.44	279.52
490.81	280.90
491.17	282.25
491.54	283.72
491.90	285.27
492.26	286.94
492.63	288.69
492.99	290.42
493.36	292.29
493.72	294.33
494.08	296.43
494.45	298.66
494.81	301.03
495.17	303.48
495.54	306.06
495.90	308.72
496.26	311.52
496.63	314.48
496.99	317.61
497.35	320.91
497.72	324.32
498.08	327.86
498.44	331.55
498.80	335.46
499.17	339.49
499.53	343.70
499.89	348.05
500.26	352.51
500.62	357.22
500.98	362.16
501.34	367.26
501.71	372.58
502.07	378.03
502.43	383.66
502.79	389.49
503.16	395.60
503.52	401.89
503.88	408.31
504.24	414.96
504.60	421.89
504.97	428.97
505.33	436.35
505.69	444.09
506.05	451.87
506.41	459.74
506.78	467.96
507.14	476.37
507.50	485.08
507.86	494.09
508.22	503.32
508.59	512.60
508.95	522.16
509.31	532.00
509.67	542.09
510.03	552.33
510.39	562.85
510.75	573.64
511.12	584.56
511.48	595.91
511.84	607.34
512.20	618.83
512.56	630.85
512.92	643.02
513.28	655.29
513.64	667.74
514.00	680.42
514.37	693.27
514.73	706.41
515.09	719.50
515.45	732.80
515.81	746.35
516.17	760.30
516.53	774.44
516.89	788.62
517.25	802.83
517.61	817.30
517.97	831.80
518.33	846.23
518.69	861.03
519.05	875.97
519.41	891.19
519.77	906.78
520.13	922.22
520.49	937.57
520.85	953.03
521.21	968.77
521.57	985.11
521.93	1000.94
522.29	1017.28
522.65	1033.54
523.01	1049.81
523.37	1065.86
523.73	1082.02
524.09	1098.12
524.45	1114.42
524.81	1131.05
525.17	1147.88
525.53	1164.73
525.89	1181.66
526.25	1198.49
526.61	1214.86
526.97	1231.60
527.33	1248.00
527.68	1264.59
528.04	1281.13
528.40	1297.72
528.76	1314.77
529.12	1331.35
529.48	1348.28
529.84	1364.32
530.20	1380.95
530.56	1398.05
530.91	1415.49
531.27	1432.26
531.63	1448.77
531.99	1465.37
532.35	1481.27
532.71	1497.06
533.07	1513.31
533.42	1529.13
533.78	1545.20
534.14	1561.62
534.50	1577.03
534.86	1592.97
535.21	1608.16
535.57	1624.12
535.93	1639.68
536.29	1654.52
536.65	1669.62
537.00	1684.35
537.36	1699.75
537.72	1714.21
538.08	1728.51
538.44	1742.22
538.79	1756.04
539.15	1769.77
539.51	1783.56
539.87	1798.02
540.22	1811.83
540.58	1825.63
540.94	1838.96
541.29	1852.04
541.65	1864.61
542.01	1877.93
542.37	1890.29
542.72	1902.67
543.08	1914.44
543.44	1926.90
543.79	1938.06
544.15	1949.04
544.51	1960.64
544.87	1971.57
545.22	1982.40
545.58	1992.58
545.94	2002.40
546.29	2012.39
546.65	2022.20
547.01	2031.61
547.36	2040.34
547.72	2048.84
548.07	2056.75
548.43	2064.95
548.79	2072.97
549.14	2080.41
549.50	2087.57
549.86	2095.30
550.21	2102.58
550.57	2109.79
550.92	2116.27
551.28	2123.34
551.64	2130.36
551.99	2136.95
552.35	2143.18
552.70	2149.36
553.06	2155.54
553.41	2162.02
553.77	2168.19
554.13	2174.24
554.48	2180.18
554.84	2185.62
555.19	2190.92
555.55	2196.06
555.90	2200.54
556.26	2205.26
556.61	2210.09
556.97	2214.45
557.32	2218.54
557.68	2222.85
558.03	2227.11
558.39	2230.85
558.74	2235.64
559.10	2239.54
559.45	2243.21
559.81	2247.41
560.16	2251.16
560.52	2254.28
560.87	2257.55
561.23	2260.11
561.58	2263.22
561.94	2265.66
562.29	2268.10
562.64	2270.80
563.00	2273.35
563.35	2276.93
563.71	2279.99
564.06	2283.26
564.42	2286.14
564.77	2288.60
565.12	2290.81
565.48	2292.67
565.83	2294.40
566.19	2295.58
566.54	2296.50
566.89	2297.67
567.25	2298.21
567.60	2299.67
567.96	2301.37
568.31	2302.23
568.66	2303.34
569.02	2303.72
569.37	2304.08
569.72	2304.85
570.08	2304.87
570.43	2304.94
570.78	2304.30
571.14	2302.72
571.49	2301.30
571.84	2300.90
572.20	2299.78
572.55	2298.78
572.90	2297.29
573.26	2296.05
573.61	2294.39
573.96	2292.53
574.31	2289.32
574.67	2286.25
575.02	2282.57
575.37	2279.12
575.72	2275.38
576.08	2271.91
576.43	2268.60
576.78	2264.86
577.13	2261.70
577.49	2258.61
577.84	2255.07
578.19	2251.27
578.54	2247.63
578.90	2243.42
579.25	2237.84
579.60	2232.83
579.95	2227.77
580.30	2222.72
580.66	2217.42
581.01	2212.51
581.36	2207.63
581.71	2203.41
582.06	2198.86
582.42	2194.35
582.77	2189.02
583.12	2184.30
583.47	2179.61
583.82	2174.40
584.17	2169.15
584.53	2163.57
584.88	2157.92
585.23	2152.08
585.58	2146.61
585.93	2141.18
586.28	2136.36
586.63	2131.21
586.98	2126.02
587.34	2121.23
587.69	2116.27
588.04	2110.89
588.39	2105.06
588.74	2098.48
589.09	2092.35
589.44	2085.57
589.79	2079.58
590.14	2074.07
590.49	2067.48
590.84	2061.11
591.19	2055.08
591.54	2048.57
591.89	2041.26
592.25	2034.47
592.60	2027.19
592.95	2019.52
593.30	2012.18
593.65	2004.63
594.00	1997.52
594.35	1990.30
594.70	1982.26
595.05	1975.01
595.40	1967.80
595.75	1960.29
596.10	1954.05
596.45	1947.35
596.80	1941.32
597.15	1934.54
597.50	1927.29
597.85	1920.91
598.19	1914.20
598.54	1907.12
598.89	1900.49
599.24	1894.46
599.59	1887.79
599.94	1881.63
600.29	1875.37
600.64	1868.81
600.99	1861.34
601.34	1854.56
601.69	1847.65
602.04	1840.70
602.39	1833.34
602.74	1826.48
603.08	1819.70
603.43	1812.99
603.78	1805.71
604.13	1798.41
604.48	1791.11
604.83	1784.25
605.18	1777.11
605.53	1769.09
605.87	1761.12
606.22	1753.96
606.57	1746.07
606.92	1738.69
607.27	1731.39
607.62	1724.39
607.96	1716.98
608.31	1710.24
608.66	1702.52
609.01	1694.88
609.36	1687.20
609.70	1679.12
610.05	1671.06
610.40	1663.30
610.75	1655.00
611.10	1647.32
611.44	1639.00
611.79	1630.95
612.14	1622.23
612.49	1613.31
612.83	1604.96
613.18	1596.84
613.53	1588.74
613.88	1580.17
614.22	1571.95
614.57	1563.46
614.92	1555.34
615.27	1547.76
615.61	1539.41
615.96	1531.51
616.31	1523.97
616.65	1516.64
617.00	1509.17
617.35	1501.58
617.70	1493.29
618.04	1484.74
618.39	1476.55
618.74	1468.78
619.08	1460.60
619.43	1453.12
619.78	1446.10
620.12	1438.81
620.47	1431.21
620.82	1423.02
621.16	1415.71
621.51	1408.12
621.85	1400.49
622.20	1392.01
622.55	1383.68
622.89	1375.83
623.24	1368.17
623.59	1360.82
623.93	1353.30
624.28	1345.99
624.62	1338.33
624.97	1331.29
625.32	1324.52
625.66	1317.38
626.01	1310.18
626.35	1302.75
626.70	1294.96
627.04	1287.19
627.39	1279.44
627.73	1272.13
628.08	1265.22
628.43	1257.77
628.77	1250.33
629.12	1242.77
629.46	1235.63
629.81	1228.23
630.15	1220.95
630.50	1213.61
630.84	1205.32
631.19	1197.47
631.53	1189.96
631.88	1182.58
632.22	1174.83
632.57	1167.56
632.91	1160.09
633.26	1152.72
633.60	1145.35
633.95	1138.27
634.29	1131.22
634.64	1124.52
634.98	1117.15
635.32	1109.98
635.67	1103.49
636.01	1096.90
636.36	1090.10
636.70	1083.57
637.05	1077.07
637.39	1070.61
637.73	1064.05
638.08	1058.12
638.42	1052.05
638.77	1045.63
639.11	1038.94
639.45	1032.59
639.80	1025.95
640.14	1019.46
640.49	1012.97
640.83	1006.67
641.17	1000.35
641.52	994.03
641.86	987.64
642.20	981.77
642.55	975.54
642.89	969.03
643.23	962.39
643.58	956.61
643.92	950.44
644.26	944.28
644.61	938.40
644.95	932.33
645.29	925.74
645.64	919.05
645.98	912.69
646.32	906.81
646.66	900.76
647.01	894.91
647.35	889.20
647.69	883.33
648.04	877.79
648.38	872.05
648.72	865.98
649.06	859.88
649.41	853.98
649.75	847.91
650.09	841.89
650.43	836.18
650.78	830.02
651.12	824.03
651.46	818.30
651.80	812.49
652.14	807.12
652.49	801.74
652.83	796.58
653.17	790.89
653.51	785.14
653.85	779.74
654.20	774.13
654.54	768.14
654.88	762.48
655.22	756.58
655.56	750.92
655.90	745.56
656.25	740.39
656.59	735.07
656.93	730.02
657.27	724.83
657.61	719.38
657.95	714.25
658.29	709.21
658.64	703.99
658.98	698.73
659.32	693.25
659.66	688.07
660.00	682.73
660.34	677.82
660.68	672.92
661.02	667.90
661.36	663.21
661.70	658.77
662.05	654.41
662.39	650.05
662.73	645.58
663.07	641.21
663.41	636.75
663.75	632.17
664.09	627.61
664.43	623.26
664.77	619.11
665.11	614.84
665.45	610.75
665.79	606.63
666.13	602.46
666.47	598.37
666.81	594.25
667.15	590.16
667.49	586.26
667.83	582.51
668.17	578.55
668.51	574.41
668.85	570.37
669.19	566.43
669.53	562.61
669.87	558.67
670.21	554.95
670.55	551.27
670.89	547.87
671.23	544.45
671.57	540.91
671.91	537.38
672.25	533.87
672.58	530.34
672.92	526.95
673.26	523.81
673.60	520.68
673.94	517.54
674.28	514.64
674.62	511.66
674.96	508.48
675.30	505.58
675.64	502.72
675.97	499.96
676.31	497.14
676.65	494.18
676.99	491.56
677.33	488.69
677.67	485.88
678.01	482.84
678.34	479.81
678.68	476.95
679.02	474.16
679.36	471.43
679.70	468.71
680.04	465.92
680.37	463.02
680.71	460.26
681.05	457.66
681.39	454.89
681.73	452.25
682.06	449.75
682.40	447.21
682.74	444.65
683.08	442.14
683.42	439.58
683.75	437.12
684.09	434.57
684.43	432.08
684.77	429.65
685.10	427.34
685.44	425.08
685.78	422.85
686.12	420.59
686.45	418.36
686.79	416.11
687.13	413.99
687.46	411.81
687.80	409.66
688.14	407.45
688.48	405.43
688.81	403.19
689.15	401.08
689.49	398.94
689.82	396.85
690.16	394.73
690.50	392.79
690.83	390.82
691.17	388.87
691.51	386.98
691.84	385.16
692.18	383.22
692.52	381.22
692.85	379.32
693.19	377.46
693.52	375.61
693.86	373.83
694.20	372.02
694.53	370.24
694.87	368.37
695.21	366.56
695.54	364.75
695.88	363.01
696.21	361.31
696.55	359.64
696.88	357.99
697.22	356.32
697.56	354.71
697.89	353.06
698.23	351.41
698.56	349.82
698.90	348.18
699.23	346.55
699.57	345.05
699.90	343.47
700.24	341.94
700.58	340.39
700.91	338.85
701.25	337.42
701.58	336.07
701.92	334.70
702.25	333.35
702.59	331.96
702.92	330.65
703.26	329.34
703.59	328.04
703.93	326.89
704.26	325.67
704.60	324.33
704.93	323.08
705.26	321.84
705.60	320.66
705.93	319.53
706.27	318.47
706.60	317.39
706.94	316.33
707.27	315.14
707.61	314.03
707.94	312.97
708.27	311.85
708.61	310.72
708.94	309.74
709.28	308.72
709.61	307.75
709.94	306.83
710.28	305.81
710.61	304.83
710.95	303.72
711.28	302.77
711.61	301.81
711.95	300.86
712.28	299.90
712.61	298.91
712.95	297.98
713.28	297.10
713.61	296.23
713.95	295.30
714.28	294.44
714.61	293.61
714.95	292.78
715.28	291.93
715.61	291.07
715.95	290.16
716.28	289.30
716.61	288.48
716.95	287.65
717.28	286.85
717.61	286.11
717.94	285.41
718.28	284.58
718.61	283.86
718.94	283.16
719.27	282.51
719.61	281.87
719.94	281.20
720.27	280.48
720.60	279.79
720.94	279.17
721.27	278.63
721.60	278.05
721.93	277.45
722.27	276.92
722.60	276.39
722.93	275.85
723.26	275.34
723.59	274.80
723.93	274.23
724.26	273.70
724.59	273.10
724.92	272.53
725.25	272.04
725.59	271.56
725.92	271.06
726.25	270.56
726.58	270.10
726.91	269.60
727.24	269.13
727.57	268.67
727.91	268.15
728.24	267.65
728.57	267.16
728.90	266.72
729.23	266.23
729.56	265.80
729.89	265.33
730.22	264.86
730.55	264.35
730.89	263.90
731.22	263.47
731.55	263.05
731.88	262.63
732.21	262.26
732.54	261.80
732.87	261.38
733.20	261.03
733.53	260.59
733.86	260.23
734.19	259.79
734.52	259.43
734.85	259.12
735.18	258.72
735.51	258.39
735.84	258.03
736.17	257.68
736.50	257.30
736.83	257.09
737.16	256.74
737.49	256.43
737.82	256.08
738.15	255.75
738.48	255.46
738.81	255.13
739.14	254.78
739.47	254.47
739.80	254.19
740.13	253.86
740.46	253.54
740.79	253.21
741.12	252.93
741.45	252.60
741.78	252.29
742.11	252.03
742.44	251.71
742.77	251.39
743.10	251.09
743.43	250.78
743.75	250.40
744.08	250.25
744.41	250.01
744.74	249.76
745.07	249.50
745.40	249.26
745.73	249.02
746.06	248.76
746.39	248.48
746.71	248.20
747.04	247.93
747.37	247.68
747.70	247.43
748.03	247.18
748.36	246.97
748.68	246.72
749.01	246.43
749.34	246.21
749.67	245.97
750.00	245.77
750.33	245.59
750.65	245.38
750.98	245.05
751.31	244.84
751.64	244.61
751.97	244.42
752.29	244.15
752.62	243.90
752.95	243.64
753.28	243.44
753.60	243.23
753.93	243.01
754.26	242.81
754.59	242.57
754.91	242.39
755.24	242.19
755.57	241.97
755.90	241.80
756.22	241.59
756.55	241.41
756.88	241.23
757.20	240.98
757.53	240.77
757.86	240.60
758.19	240.43
758.51	240.25
758.84	240.03
759.17	239.86
759.49	239.70
759.82	239.61
760.15	239.46
760.47	239.34
760.80	239.19
761.13	239.07
761.45	238.94
761.78	238.77
762.11	238.61
762.43	238.48
762.76	238.33
763.08	238.21
763.41	238.07
763.74	237.91
764.06	237.79
764.39	237.63
764.71	237.49
765.04	237.33
765.37	237.19
765.69	237.06
766.02	236.98
766.34	236.85
766.67	236.68
767.00	236.59
767.32	236.48
767.65	236.40
767.97	236.28
768.30	236.14
768.62	236.06
768.95	235.93
769.27	235.82
769.60	235.73
769.92	235.59
770.25	235.49
770.57	235.38
770.90	235.26
771.22	235.17
771.55	235.08
771.87	235.01
772.20	234.91
772.52	234.92
772.85	234.94
773.17	234.86
773.50	234.77
773.82	234.67
774.15	234.54
774.47	234.39
774.80	234.30
775.12	234.21
775.45	234.15
775.77	234.07
776.09	233.99
776.42	233.93
776.74	233.91
777.07	233.80
777.39	233.74
777.72	233.66
778.04	233.60
778.36	233.52
778.69	233.47
779.01	233.41
779.33	233.25
779.66	233.04
779.98	232.97
780.31	232.91
780.63	232.89
780.95	232.87
781.28	232.83
781.60	232.75
781.92	232.72
782.25	232.62
782.57	232.59
782.89	232.52
783.22	232.43
783.54	232.33
783.86	232.30
784.19	232.21
784.51	232.23
784.83	232.18
785.16	232.13
785.48	232.06
785.80	232.00
786.12	231.97
786.45	231.95
786.77	231.92
787.09	231.86
