SpectraSuite Data File
++++++++++++++++++++++++++++++++++++
Date: Fri Feb 01 15:01:09 EST 2013
User: group
Dark Spectrum Present: No
Reference Spectrum Present: No
Number of Sampled Component Spectra: 1
Spectrometers: USB2E7196
Integration Time (usec): 35000 (USB2E7196)
Spectra Averaged: 100 (USB2E7196)
Boxcar Smoothing: 10 (USB2E7196)
Correct for Electrical Dark: No (USB2E7196)
Strobe/Lamp Enabled: No (USB2E7196)
Correct for Detector Non-linearity: No (USB2E7196)
Correct for Stray Light: No (USB2E7196)
Number of Pixels in Processed Spectrum: 2048
>>>>>Begin Processed Spectral Data<<<<<
339.09	0.00
339.48	215.34
339.86	217.28
340.24	218.13
340.63	219.81
341.01	222.64
341.39	222.24
341.78	223.94
342.16	224.95
342.54	224.93
342.93	213.89
343.31	224.72
343.69	225.27
344.07	225.71
344.46	226.14
344.84	226.50
345.22	226.74
345.60	227.00
345.99	227.18
346.37	227.33
346.75	227.45
347.13	227.54
347.52	227.57
347.90	227.66
348.28	227.68
348.66	227.71
349.05	227.69
349.43	227.70
349.81	227.71
350.19	227.75
350.57	227.78
350.96	227.85
351.34	227.92
351.72	228.01
352.10	228.11
352.48	228.18
352.87	228.25
353.25	228.30
353.63	228.33
354.01	228.40
354.39	228.46
354.77	228.53
355.15	228.58
355.54	228.65
355.92	228.63
356.30	228.69
356.68	228.82
357.06	228.89
357.44	228.92
357.82	229.00
358.20	229.05
358.58	229.13
358.97	229.16
359.35	229.20
359.73	229.26
360.11	229.28
360.49	229.33
360.87	229.33
361.25	229.39
361.63	229.46
362.01	229.45
362.39	229.47
362.77	229.49
363.15	229.50
363.53	229.50
363.91	229.58
364.29	229.57
364.67	229.46
365.05	229.49
365.43	229.53
365.81	229.53
366.19	229.55
366.57	229.55
366.95	229.54
367.33	229.51
367.71	229.45
368.09	229.46
368.47	229.43
368.85	229.40
369.23	229.37
369.61	229.29
369.99	229.28
370.37	229.25
370.75	229.25
371.13	229.19
371.51	229.12
371.89	229.07
372.27	229.04
372.65	229.02
373.03	228.93
373.41	228.84
373.78	228.77
374.16	228.63
374.54	228.51
374.92	228.43
375.30	228.34
375.68	228.26
376.06	228.22
376.44	228.11
376.82	228.05
377.19	227.95
377.57	227.87
377.95	227.80
378.33	227.69
378.71	227.54
379.09	227.49
379.47	227.44
379.84	227.31
380.22	227.24
380.60	227.13
380.98	227.02
381.36	226.96
381.73	226.86
382.11	226.84
382.49	226.79
382.87	226.72
383.25	226.64
383.62	226.70
384.00	226.58
384.38	226.55
384.76	226.51
385.13	226.51
385.51	226.46
385.89	226.38
386.27	226.37
386.64	226.35
387.02	226.29
387.40	226.23
387.78	226.21
388.15	226.18
388.53	226.15
388.91	226.13
389.29	226.06
389.66	226.08
390.04	226.03
390.42	226.06
390.79	226.05
391.17	226.06
391.55	225.92
391.92	225.94
392.30	225.94
392.68	225.94
393.05	225.95
393.43	225.97
393.81	226.01
394.18	225.98
394.56	226.02
394.94	226.06
395.31	226.08
395.69	226.15
396.06	226.20
396.44	226.24
396.82	226.32
397.19	226.45
397.57	226.50
397.95	226.56
398.32	226.58
398.70	226.62
399.07	226.71
399.45	226.79
399.82	226.88
400.20	226.94
400.58	227.02
400.95	227.06
401.33	227.16
401.70	227.30
402.08	227.46
402.45	227.57
402.83	227.70
403.20	227.86
403.58	227.94
403.95	228.07
404.33	228.27
404.71	228.38
405.08	228.55
405.46	228.67
405.83	228.84
406.21	229.03
406.58	229.26
406.96	229.46
407.33	229.67
407.70	229.86
408.08	230.20
408.45	230.42
408.83	230.69
409.20	230.95
409.58	231.14
409.95	231.38
410.33	231.64
410.70	231.84
411.08	232.13
411.45	232.49
411.82	232.79
412.20	233.12
412.57	233.54
412.95	233.85
413.32	234.26
413.69	234.69
414.07	235.12
414.44	235.56
414.82	236.04
415.19	236.58
415.56	237.12
415.94	237.61
416.31	238.28
416.68	238.89
417.06	239.58
417.43	240.27
417.81	241.07
418.18	241.86
418.55	242.74
418.93	243.58
419.30	244.46
419.67	245.39
420.04	246.37
420.42	247.35
420.79	248.53
421.16	249.71
421.54	250.91
421.91	252.10
422.28	253.35
422.66	254.67
423.03	256.01
423.40	257.35
423.77	258.78
424.15	260.15
424.52	261.63
424.89	263.25
425.26	264.78
425.64	266.18
426.01	267.77
426.38	269.42
426.75	271.13
427.13	272.84
427.50	274.64
427.87	276.48
428.24	278.34
428.61	280.09
428.99	282.00
429.36	284.09
429.73	286.19
430.10	288.24
430.47	290.29
430.85	292.36
431.22	294.60
431.59	296.99
431.96	299.26
432.33	301.74
432.70	304.09
433.08	306.91
433.45	309.55
433.82	312.18
434.19	315.10
434.56	317.93
434.93	320.60
435.30	323.23
435.68	326.14
436.05	328.98
436.42	331.76
436.79	334.30
437.16	337.01
437.53	339.89
437.90	342.72
438.27	345.49
438.64	348.34
439.01	350.96
439.38	353.15
439.75	355.34
440.13	357.89
440.50	360.26
440.87	362.12
441.24	364.08
441.61	366.25
441.98	367.74
442.35	369.53
442.72	371.41
443.09	373.24
443.46	374.25
443.83	374.81
444.20	375.35
444.57	376.14
444.94	376.45
445.31	376.75
445.68	377.10
446.05	377.14
446.42	376.75
446.79	376.30
447.16	375.87
447.53	375.51
447.90	374.33
448.27	373.16
448.64	371.63
449.01	370.48
449.37	368.52
449.74	366.61
450.11	364.38
450.48	361.89
450.85	359.36
451.22	357.21
451.59	355.21
451.96	353.23
452.33	350.68
452.70	348.28
453.07	345.44
453.43	342.55
453.80	339.78
454.17	337.10
454.54	334.59
454.91	331.88
455.28	329.26
455.65	326.77
456.02	324.31
456.38	322.15
456.75	319.48
457.12	317.19
457.49	314.95
457.86	312.76
458.23	310.91
458.59	308.88
458.96	306.78
459.33	304.93
459.70	303.10
460.07	301.57
460.43	299.87
460.80	298.25
461.17	296.76
461.54	295.27
461.91	293.87
462.27	292.39
462.64	291.10
463.01	289.72
463.38	288.40
463.74	287.06
464.11	285.87
464.48	284.86
464.85	283.76
465.21	282.88
465.58	281.97
465.95	280.86
466.32	279.91
466.68	279.01
467.05	278.10
467.42	277.19
467.78	276.24
468.15	275.34
468.52	274.64
468.88	273.84
469.25	273.09
469.62	272.46
469.98	271.81
470.35	271.21
470.72	270.61
471.08	269.95
471.45	269.37
471.82	268.83
472.18	268.21
472.55	267.74
472.92	267.21
473.28	266.71
473.65	266.27
474.02	265.80
474.38	265.44
474.75	265.12
475.11	264.71
475.48	264.46
475.85	264.23
476.21	264.00
476.58	263.74
476.94	263.56
477.31	263.36
477.67	263.19
478.04	263.07
478.41	262.96
478.77	262.99
479.14	262.91
479.50	262.88
479.87	262.97
480.23	263.06
480.60	263.13
480.96	263.23
481.33	263.38
481.69	263.61
482.06	263.81
482.42	264.00
482.79	264.28
483.15	264.57
483.52	264.95
483.88	265.29
484.25	265.68
484.61	266.12
484.98	266.55
485.34	267.10
485.71	267.68
486.07	268.28
486.44	268.84
486.80	269.56
487.17	270.30
487.53	271.09
487.90	271.93
488.26	272.83
488.62	273.83
488.99	274.81
489.35	275.80
489.72	276.90
490.08	278.07
490.44	279.30
490.81	280.60
491.17	281.89
491.54	283.34
491.90	284.86
492.26	286.46
492.63	288.19
492.99	289.93
493.36	291.79
493.72	293.85
494.08	295.92
494.45	298.15
494.81	300.53
495.17	302.99
495.54	305.53
495.90	308.19
496.26	310.92
496.63	313.88
496.99	316.96
497.35	320.18
497.72	323.57
498.08	327.02
498.44	330.69
498.80	334.61
499.17	338.61
499.53	342.76
499.89	347.11
500.26	351.63
500.62	356.30
500.98	361.26
501.34	366.27
501.71	371.62
502.07	377.00
502.43	382.59
502.79	388.31
503.16	394.41
503.52	400.71
503.88	407.12
504.24	413.71
504.60	420.64
504.97	427.77
505.33	435.11
505.69	442.82
506.05	450.64
506.41	458.53
506.78	466.66
507.14	475.15
507.50	483.85
507.86	492.74
508.22	501.91
508.59	511.06
508.95	520.64
509.31	530.43
509.67	540.49
510.03	550.70
510.39	561.32
510.75	572.00
511.12	582.87
511.48	594.20
511.84	605.63
512.20	617.15
512.56	629.10
512.92	641.31
513.28	653.64
513.64	666.13
514.00	678.83
514.37	691.80
514.73	704.85
515.09	717.94
515.45	731.37
515.81	745.05
516.17	759.10
516.53	773.22
516.89	787.45
517.25	801.68
517.61	816.24
517.97	830.75
518.33	845.34
518.69	860.20
519.05	875.24
519.41	890.44
519.77	906.05
520.13	921.55
520.49	936.83
520.85	952.21
521.21	967.95
521.57	984.18
521.93	1000.03
522.29	1016.41
522.65	1032.61
523.01	1048.91
523.37	1064.98
523.73	1081.25
524.09	1097.44
524.45	1113.78
524.81	1130.41
525.17	1147.22
525.53	1164.23
525.89	1181.09
526.25	1197.97
526.61	1214.33
526.97	1231.14
527.33	1247.68
527.68	1264.29
528.04	1280.86
528.40	1297.77
528.76	1314.92
529.12	1331.68
529.48	1348.69
529.84	1364.83
530.20	1381.75
530.56	1398.86
530.91	1416.27
531.27	1433.08
531.63	1449.54
531.99	1466.22
532.35	1482.41
532.71	1498.35
533.07	1514.44
533.42	1530.45
533.78	1546.54
534.14	1562.96
534.50	1578.38
534.86	1594.33
535.21	1609.57
535.57	1625.75
535.93	1641.20
536.29	1655.93
536.65	1671.21
537.00	1686.14
537.36	1701.57
537.72	1716.04
538.08	1730.48
538.44	1744.44
538.79	1758.39
539.15	1772.36
539.51	1786.02
539.87	1800.37
540.22	1814.21
540.58	1828.27
540.94	1841.73
541.29	1854.80
541.65	1867.55
542.01	1880.84
542.37	1893.28
542.72	1905.84
543.08	1917.59
543.44	1929.94
543.79	1941.31
544.15	1952.19
544.51	1963.61
544.87	1974.67
545.22	1985.49
545.58	1995.65
545.94	2005.51
546.29	2015.42
546.65	2025.04
547.01	2034.43
547.36	2043.21
547.72	2051.76
548.07	2059.59
548.43	2067.78
548.79	2075.85
549.14	2083.47
549.50	2090.94
549.86	2098.56
550.21	2105.98
550.57	2113.13
550.92	2119.83
551.28	2127.00
551.64	2134.00
551.99	2140.54
552.35	2146.71
552.70	2152.91
553.06	2158.89
553.41	2165.12
553.77	2171.18
554.13	2177.41
554.48	2183.56
554.84	2188.96
555.19	2194.25
555.55	2199.31
555.90	2203.79
556.26	2208.55
556.61	2213.16
556.97	2217.17
557.32	2221.28
557.68	2225.28
558.03	2229.49
558.39	2233.13
558.74	2237.58
559.10	2241.50
559.45	2245.17
559.81	2249.53
560.16	2253.26
560.52	2256.55
560.87	2259.95
561.23	2262.47
561.58	2265.31
561.94	2267.78
562.29	2270.18
562.64	2272.67
563.00	2275.38
563.35	2278.76
563.71	2281.95
564.06	2285.02
564.42	2287.90
564.77	2290.35
565.12	2292.45
565.48	2294.26
565.83	2295.97
566.19	2297.15
566.54	2298.02
566.89	2299.15
567.25	2299.40
567.60	2300.66
567.96	2302.15
568.31	2302.86
568.66	2303.87
569.02	2304.40
569.37	2304.64
569.72	2305.34
570.08	2305.29
570.43	2305.01
570.78	2304.26
571.14	2302.40
571.49	2301.14
571.84	2300.71
572.20	2299.25
572.55	2298.19
572.90	2296.56
573.26	2295.03
573.61	2293.36
573.96	2291.28
574.31	2288.01
574.67	2284.82
575.02	2281.12
575.37	2277.75
575.72	2273.73
576.08	2270.47
576.43	2266.98
576.78	2263.12
577.13	2259.77
577.49	2256.65
577.84	2253.21
578.19	2249.45
578.54	2245.67
578.90	2241.17
579.25	2235.58
579.60	2230.59
579.95	2225.25
580.30	2220.11
580.66	2214.88
581.01	2209.71
581.36	2204.66
581.71	2200.29
582.06	2195.84
582.42	2191.08
582.77	2185.47
583.12	2180.77
583.47	2175.65
583.82	2170.52
584.17	2165.12
584.53	2159.53
584.88	2153.74
585.23	2147.55
585.58	2141.92
585.93	2136.43
586.28	2131.63
586.63	2126.33
586.98	2121.17
587.34	2116.56
587.69	2111.51
588.04	2106.12
588.39	2100.39
588.74	2093.94
589.09	2087.70
589.44	2080.67
589.79	2074.66
590.14	2069.07
590.49	2062.45
590.84	2056.09
591.19	2049.86
591.54	2043.38
591.89	2035.78
592.25	2028.81
592.60	2021.63
592.95	2013.85
593.30	2006.45
593.65	1998.61
594.00	1991.66
594.35	1984.36
594.70	1976.25
595.05	1968.89
595.40	1961.57
595.75	1954.01
596.10	1947.68
596.45	1940.89
596.80	1934.65
597.15	1927.84
597.50	1920.55
597.85	1914.03
598.19	1907.23
598.54	1900.24
598.89	1893.50
599.24	1887.59
599.59	1880.84
599.94	1874.63
600.29	1868.21
600.64	1861.56
600.99	1854.05
601.34	1847.00
601.69	1840.00
602.04	1833.04
602.39	1825.64
602.74	1818.84
603.08	1812.01
603.43	1805.24
603.78	1797.92
604.13	1790.69
604.48	1783.40
604.83	1776.62
605.18	1769.58
605.53	1761.47
605.87	1753.36
606.22	1746.19
606.57	1738.23
606.92	1730.93
607.27	1723.69
607.62	1716.86
607.96	1709.55
608.31	1703.01
608.66	1695.38
609.01	1687.72
609.36	1680.17
609.70	1672.33
610.05	1664.21
610.40	1656.58
610.75	1648.26
611.10	1640.63
611.44	1632.38
611.79	1624.37
612.14	1615.69
612.49	1606.67
612.83	1598.41
613.18	1590.26
613.53	1582.13
613.88	1573.79
614.22	1565.63
614.57	1557.16
614.92	1549.02
615.27	1541.43
615.61	1533.05
615.96	1525.05
616.31	1517.54
616.65	1510.09
617.00	1502.54
617.35	1494.90
617.70	1486.45
618.04	1477.82
618.39	1469.55
618.74	1461.94
619.08	1453.71
619.43	1446.16
619.78	1439.17
620.12	1431.85
620.47	1424.36
620.82	1416.13
621.16	1408.68
621.51	1401.11
621.85	1393.36
622.20	1384.93
622.55	1376.53
622.89	1368.78
623.24	1361.32
623.59	1353.93
623.93	1346.43
624.28	1339.05
624.62	1331.51
624.97	1324.39
625.32	1317.79
625.66	1310.78
626.01	1303.44
626.35	1295.94
626.70	1288.36
627.04	1280.58
627.39	1272.96
627.73	1265.52
628.08	1258.73
628.43	1251.35
628.77	1243.95
629.12	1236.44
629.46	1229.36
629.81	1222.24
630.15	1215.04
630.50	1207.58
630.84	1199.35
631.19	1191.59
631.53	1184.31
631.88	1176.81
632.22	1169.29
632.57	1162.06
632.91	1154.57
633.26	1147.21
633.60	1140.08
633.95	1132.96
634.29	1126.02
634.64	1119.49
634.98	1112.18
635.32	1105.09
635.67	1098.63
636.01	1092.09
636.36	1085.43
636.70	1078.98
637.05	1072.34
637.39	1065.90
637.73	1059.47
638.08	1053.69
638.42	1047.74
638.77	1041.20
639.11	1034.63
639.45	1028.25
639.80	1021.58
640.14	1015.17
640.49	1008.79
640.83	1002.42
641.17	996.19
641.52	990.09
641.86	983.74
642.20	978.07
642.55	971.86
642.89	965.29
643.23	958.74
643.58	952.90
643.92	946.63
644.26	940.59
644.61	934.66
644.95	928.61
645.29	922.03
645.64	915.24
645.98	909.06
646.32	903.33
646.66	897.37
647.01	891.64
647.35	886.02
647.69	880.23
648.04	874.82
648.38	869.06
648.72	862.92
649.06	856.75
649.41	850.84
649.75	844.77
650.09	838.92
650.43	833.15
650.78	827.07
651.12	821.18
651.46	815.44
651.80	809.64
652.14	804.31
652.49	799.01
652.83	793.84
653.17	787.99
653.51	782.23
653.85	776.87
654.20	771.23
654.54	765.23
654.88	759.52
655.22	753.63
655.56	747.86
655.90	742.54
656.25	737.32
656.59	731.91
656.93	726.85
657.27	721.72
657.61	716.28
657.95	711.22
658.29	706.11
658.64	700.94
658.98	695.64
659.32	690.16
659.66	684.94
660.00	679.64
660.34	674.79
660.68	669.90
661.02	664.83
661.36	660.14
661.70	655.65
662.05	651.30
662.39	646.95
662.73	642.60
663.07	638.16
663.41	633.76
663.75	629.30
664.09	624.79
664.43	620.40
664.77	616.29
665.11	611.99
665.45	607.90
665.79	603.79
666.13	599.67
666.47	595.61
666.81	591.49
667.15	587.38
667.49	583.52
667.83	579.77
668.17	575.94
668.51	571.91
668.85	567.96
669.19	564.20
669.53	560.34
669.87	556.48
670.21	552.77
670.55	549.12
670.89	545.76
671.23	542.33
671.57	538.85
671.91	535.40
672.25	532.04
672.58	528.57
672.92	525.26
673.26	522.24
673.60	519.12
673.94	516.00
674.28	513.26
674.62	510.31
674.96	507.22
675.30	504.29
675.64	501.38
675.97	498.64
676.31	495.75
676.65	492.89
676.99	490.20
677.33	487.42
677.67	484.64
678.01	481.57
678.34	478.66
678.68	475.81
679.02	472.98
679.36	470.22
679.70	467.48
680.04	464.69
680.37	461.75
680.71	459.01
681.05	456.46
681.39	453.70
681.73	451.14
682.06	448.57
682.40	446.04
682.74	443.58
683.08	441.08
683.42	438.53
683.75	436.08
684.09	433.58
684.43	431.17
684.77	428.76
685.10	426.46
685.44	424.14
685.78	421.89
686.12	419.74
686.45	417.46
686.79	415.23
687.13	413.06
687.46	410.91
687.80	408.72
688.14	406.52
688.48	404.50
688.81	402.29
689.15	400.20
689.49	398.04
689.82	395.93
690.16	393.85
690.50	391.89
690.83	389.94
691.17	387.97
691.51	386.06
691.84	384.21
692.18	382.31
692.52	380.30
692.85	378.40
693.19	376.48
693.52	374.75
693.86	372.96
694.20	371.17
694.53	369.43
694.87	367.65
695.21	365.87
695.54	364.06
695.88	362.34
696.21	360.60
696.55	358.95
696.88	357.31
697.22	355.62
697.56	353.95
697.89	352.25
698.23	350.64
698.56	349.03
698.90	347.40
699.23	345.75
699.57	344.22
699.90	342.68
700.24	341.14
700.58	339.52
700.91	338.00
701.25	336.53
701.58	335.15
701.92	333.79
702.25	332.40
702.59	331.04
702.92	329.69
703.26	328.41
703.59	327.15
703.93	325.97
704.26	324.79
704.60	323.53
704.93	322.29
705.26	321.05
705.60	319.85
705.93	318.74
706.27	317.70
706.60	316.69
706.94	315.58
707.27	314.49
707.61	313.45
707.94	312.44
708.27	311.39
708.61	310.34
708.94	309.32
709.28	308.38
709.61	307.42
709.94	306.50
710.28	305.46
710.61	304.50
710.95	303.43
711.28	302.51
711.61	301.59
711.95	300.69
712.28	299.76
712.61	298.75
712.95	297.81
713.28	297.01
713.61	296.08
713.95	295.25
714.28	294.44
714.61	293.61
714.95	292.81
715.28	291.96
715.61	291.08
715.95	290.27
716.28	289.43
716.61	288.63
716.95	287.85
717.28	287.18
717.61	286.39
717.94	285.65
718.28	284.87
718.61	284.18
718.94	283.52
719.27	282.88
719.61	282.31
719.94	281.68
720.27	280.93
720.60	280.27
720.94	279.68
721.27	279.07
721.60	278.48
721.93	277.88
722.27	277.34
722.60	276.82
722.93	276.22
723.26	275.70
723.59	275.15
723.93	274.58
724.26	274.05
724.59	273.52
724.92	273.01
725.25	272.53
725.59	272.03
725.92	271.54
726.25	271.03
726.58	270.51
726.91	270.02
727.24	269.58
727.57	269.18
727.91	268.66
728.24	268.20
728.57	267.74
728.90	267.30
729.23	266.80
729.56	266.33
729.89	265.86
730.22	265.39
730.55	264.93
730.89	264.46
731.22	264.01
731.55	263.60
731.88	263.17
732.21	262.72
732.54	262.26
732.87	261.83
733.20	261.44
733.53	261.07
733.86	260.72
734.19	260.31
734.52	259.90
734.85	259.59
735.18	259.14
735.51	258.75
735.84	258.35
736.17	258.03
736.50	257.66
736.83	257.42
737.16	257.05
737.49	256.70
737.82	256.33
738.15	255.96
738.48	255.62
738.81	255.30
739.14	254.97
739.47	254.66
739.80	254.31
740.13	253.97
740.46	253.63
740.79	253.28
741.12	252.97
741.45	252.64
741.78	252.25
742.11	251.98
742.44	251.62
742.77	251.36
743.10	251.02
743.43	250.71
743.75	250.32
744.08	250.18
744.41	249.88
744.74	249.61
745.07	249.34
745.40	249.04
745.73	248.77
746.06	248.52
746.39	248.26
746.71	247.97
747.04	247.71
747.37	247.42
747.70	247.14
748.03	246.89
748.36	246.65
748.68	246.47
749.01	246.21
749.34	245.98
749.67	245.75
750.00	245.52
750.33	245.37
750.65	245.15
750.98	244.79
751.31	244.57
751.64	244.37
751.97	244.23
752.29	244.06
752.62	243.82
752.95	243.59
753.28	243.35
753.60	243.18
753.93	243.02
754.26	242.85
754.59	242.65
754.91	242.45
755.24	242.25
755.57	242.01
755.90	241.85
756.22	241.66
756.55	241.48
756.88	241.31
757.20	241.10
757.53	240.96
757.86	240.83
758.19	240.71
758.51	240.59
758.84	240.36
759.17	240.21
759.49	240.08
759.82	240.01
760.15	239.87
760.47	239.70
760.80	239.54
761.13	239.42
761.45	239.30
761.78	239.16
762.11	239.05
762.43	238.94
762.76	238.78
763.08	238.71
763.41	238.57
763.74	238.46
764.06	238.31
764.39	238.15
764.71	238.04
765.04	237.89
765.37	237.72
765.69	237.63
766.02	237.50
766.34	237.41
766.67	237.25
767.00	237.16
767.32	237.09
767.65	237.03
767.97	236.91
768.30	236.80
768.62	236.70
768.95	236.56
769.27	236.45
769.60	236.40
769.92	236.27
770.25	236.13
770.57	235.99
770.90	235.90
771.22	235.82
771.55	235.70
771.87	235.64
772.20	235.55
772.52	235.50
772.85	235.47
773.17	235.37
773.50	235.28
773.82	235.18
774.15	235.04
774.47	234.89
774.80	234.76
775.12	234.69
775.45	234.59
775.77	234.54
776.09	234.46
776.42	234.31
776.74	234.23
777.07	234.17
777.39	234.10
777.72	234.01
778.04	233.92
778.36	233.83
778.69	233.72
779.01	233.70
779.33	233.57
779.66	233.40
779.98	233.28
780.31	233.20
780.63	233.19
780.95	233.14
781.28	233.09
781.60	233.05
781.92	232.94
782.25	232.89
782.57	232.79
782.89	232.69
783.22	232.65
783.54	232.59
783.86	232.53
784.19	232.46
784.51	232.43
784.83	232.35
785.16	232.31
785.48	232.23
785.80	232.17
786.12	232.09
786.45	232.07
786.77	232.04
787.09	232.00
