SpectraSuite Data File
++++++++++++++++++++++++++++++++++++
Date: Fri Feb 01 14:49:08 EST 2013
User: group
Dark Spectrum Present: No
Reference Spectrum Present: No
Number of Sampled Component Spectra: 1
Spectrometers: USB2E7196
Integration Time (usec): 35000 (USB2E7196)
Spectra Averaged: 100 (USB2E7196)
Boxcar Smoothing: 10 (USB2E7196)
Correct for Electrical Dark: No (USB2E7196)
Strobe/Lamp Enabled: No (USB2E7196)
Correct for Detector Non-linearity: No (USB2E7196)
Correct for Stray Light: No (USB2E7196)
Number of Pixels in Processed Spectrum: 2048
>>>>>Begin Processed Spectral Data<<<<<
339.09	0.00
339.48	215.76
339.86	217.34
340.24	218.47
340.63	219.95
341.01	223.12
341.39	222.74
341.78	224.36
342.16	225.18
342.54	225.46
342.93	214.11
343.31	224.93
343.69	225.49
344.07	225.96
344.46	226.38
344.84	226.77
345.22	227.01
345.60	227.28
345.99	227.47
346.37	227.60
346.75	227.72
347.13	227.80
347.52	227.85
347.90	227.89
348.28	227.93
348.66	227.95
349.05	227.93
349.43	227.94
349.81	228.04
350.19	228.11
350.57	228.13
350.96	228.22
351.34	228.30
351.72	228.39
352.10	228.46
352.48	228.54
352.87	228.61
353.25	228.66
353.63	228.72
354.01	228.77
354.39	228.82
354.77	228.92
355.15	229.03
355.54	229.07
355.92	229.14
356.30	229.17
356.68	229.29
357.06	229.37
357.44	229.42
357.82	229.47
358.20	229.49
358.58	229.54
358.97	229.59
359.35	229.66
359.73	229.71
360.11	229.78
360.49	229.83
360.87	229.83
361.25	229.86
361.63	229.90
362.01	229.90
362.39	229.94
362.77	229.91
363.15	229.92
363.53	229.95
363.91	229.96
364.29	230.00
364.67	229.92
365.05	229.90
365.43	229.90
365.81	229.90
366.19	229.98
366.57	230.02
366.95	229.99
367.33	229.94
367.71	229.92
368.09	229.89
368.47	229.85
368.85	229.84
369.23	229.82
369.61	229.75
369.99	229.75
370.37	229.69
370.75	229.74
371.13	229.67
371.51	229.62
371.89	229.57
372.27	229.52
372.65	229.46
373.03	229.44
373.41	229.39
373.78	229.29
374.16	229.15
374.54	229.01
374.92	228.93
375.30	228.89
375.68	228.77
376.06	228.69
376.44	228.62
376.82	228.56
377.19	228.50
377.57	228.42
377.95	228.33
378.33	228.28
378.71	228.12
379.09	228.04
379.47	227.96
379.84	227.88
380.22	227.80
380.60	227.69
380.98	227.60
381.36	227.54
381.73	227.47
382.11	227.43
382.49	227.39
382.87	227.33
383.25	227.28
383.62	227.34
384.00	227.24
384.38	227.19
384.76	227.13
385.13	227.11
385.51	227.10
385.89	227.05
386.27	227.01
386.64	226.98
387.02	226.97
387.40	226.94
387.78	226.92
388.15	226.91
388.53	226.92
388.91	226.88
389.29	226.82
389.66	226.83
390.04	226.80
390.42	226.81
390.79	226.81
391.17	226.79
391.55	226.69
391.92	226.73
392.30	226.74
392.68	226.73
393.05	226.74
393.43	226.74
393.81	226.77
394.18	226.78
394.56	226.81
394.94	226.85
395.31	226.88
395.69	226.96
396.06	227.01
396.44	227.07
396.82	227.16
397.19	227.29
397.57	227.37
397.95	227.46
398.32	227.52
398.70	227.59
399.07	227.72
399.45	227.79
399.82	227.87
400.20	227.94
400.58	228.07
400.95	228.15
401.33	228.28
401.70	228.41
402.08	228.54
402.45	228.66
402.83	228.82
403.20	228.93
403.58	229.02
403.95	229.13
404.33	229.27
404.71	229.41
405.08	229.60
405.46	229.75
405.83	229.90
406.21	230.06
406.58	230.24
406.96	230.36
407.33	230.57
407.70	230.76
408.08	231.04
408.45	231.25
408.83	231.49
409.20	231.70
409.58	231.90
409.95	232.16
410.33	232.46
410.70	232.70
411.08	232.99
411.45	233.30
411.82	233.60
412.20	233.96
412.57	234.37
412.95	234.63
413.32	235.02
413.69	235.42
414.07	235.85
414.44	236.32
414.82	236.82
415.19	237.33
415.56	237.91
415.94	238.45
416.31	239.05
416.68	239.64
417.06	240.35
417.43	241.02
417.81	241.78
418.18	242.50
418.55	243.31
418.93	244.15
419.30	245.03
419.67	245.95
420.04	246.87
420.42	247.84
420.79	249.02
421.16	250.16
421.54	251.34
421.91	252.52
422.28	253.72
422.66	255.03
423.03	256.34
423.40	257.62
423.77	259.05
424.15	260.47
424.52	261.94
424.89	263.50
425.26	265.01
425.64	266.43
426.01	267.99
426.38	269.67
426.75	271.33
427.13	273.06
427.50	274.88
427.87	276.75
428.24	278.57
428.61	280.29
428.99	282.21
429.36	284.30
429.73	286.38
430.10	288.43
430.47	290.48
430.85	292.59
431.22	294.84
431.59	297.22
431.96	299.46
432.33	301.92
432.70	304.29
433.08	307.11
433.45	309.75
433.82	312.35
434.19	315.21
434.56	318.03
434.93	320.67
435.30	323.30
435.68	326.21
436.05	329.07
436.42	331.83
436.79	334.34
437.16	337.05
437.53	339.89
437.90	342.70
438.27	345.41
438.64	348.23
439.01	350.76
439.38	352.92
439.75	355.07
440.13	357.56
440.50	359.87
440.87	361.72
441.24	363.64
441.61	365.80
441.98	367.27
442.35	369.08
442.72	370.96
443.09	372.74
443.46	373.75
443.83	374.36
444.20	374.91
444.57	375.75
444.94	376.03
445.31	376.40
445.68	376.78
446.05	376.89
446.42	376.55
446.79	376.19
447.16	375.86
447.53	375.57
447.90	374.44
448.27	373.34
448.64	371.78
449.01	370.68
449.37	368.73
449.74	366.92
450.11	364.71
450.48	362.24
450.85	359.74
451.22	357.59
451.59	355.56
451.96	353.65
452.33	351.03
452.70	348.67
453.07	345.83
453.43	342.92
453.80	340.18
454.17	337.49
454.54	335.00
454.91	332.24
455.28	329.59
455.65	327.14
456.02	324.70
456.38	322.54
456.75	319.86
457.12	317.63
457.49	315.37
457.86	313.19
458.23	311.33
458.59	309.28
458.96	307.19
459.33	305.34
459.70	303.45
460.07	301.96
460.43	300.25
460.80	298.64
461.17	297.16
461.54	295.67
461.91	294.22
462.27	292.73
462.64	291.45
463.01	290.07
463.38	288.76
463.74	287.39
464.11	286.23
464.48	285.23
464.85	284.11
465.21	283.25
465.58	282.29
465.95	281.12
466.32	280.17
466.68	279.22
467.05	278.29
467.42	277.38
467.78	276.45
468.15	275.56
468.52	274.84
468.88	274.00
469.25	273.17
469.62	272.56
469.98	271.85
470.35	271.19
470.72	270.59
471.08	269.88
471.45	269.29
471.82	268.77
472.18	268.13
472.55	267.68
472.92	267.09
473.28	266.67
473.65	266.23
474.02	265.80
474.38	265.43
474.75	265.11
475.11	264.71
475.48	264.45
475.85	264.20
476.21	263.95
476.58	263.73
476.94	263.61
477.31	263.38
477.67	263.26
478.04	263.13
478.41	263.06
478.77	263.11
479.14	263.08
479.50	263.04
479.87	263.10
480.23	263.12
480.60	263.21
480.96	263.26
481.33	263.48
481.69	263.65
482.06	263.86
482.42	264.04
482.79	264.30
483.15	264.61
483.52	264.99
483.88	265.36
484.25	265.74
484.61	266.14
484.98	266.60
485.34	267.14
485.71	267.75
486.07	268.34
486.44	268.90
486.80	269.59
487.17	270.33
487.53	271.13
487.90	272.03
488.26	272.91
488.62	273.88
488.99	274.84
489.35	275.87
489.72	276.99
490.08	278.16
490.44	279.39
490.81	280.68
491.17	282.01
491.54	283.45
491.90	285.00
492.26	286.62
492.63	288.37
492.99	290.11
493.36	291.98
493.72	294.03
494.08	296.12
494.45	298.31
494.81	300.63
495.17	303.04
495.54	305.60
495.90	308.31
496.26	311.10
496.63	314.06
496.99	317.14
497.35	320.36
497.72	323.74
498.08	327.28
498.44	330.92
498.80	334.82
499.17	338.83
499.53	342.99
499.89	347.32
500.26	351.78
500.62	356.41
500.98	361.31
501.34	366.29
501.71	371.52
502.07	376.92
502.43	382.46
502.79	388.23
503.16	394.22
503.52	400.43
503.88	406.75
504.24	413.29
504.60	420.15
504.97	427.20
505.33	434.48
505.69	442.10
506.05	449.84
506.41	457.66
506.78	465.79
507.14	474.11
507.50	482.79
507.86	491.69
508.22	500.87
508.59	510.01
508.95	519.59
509.31	529.37
509.67	539.45
510.03	549.71
510.39	560.21
510.75	570.98
511.12	581.85
511.48	593.18
511.84	604.60
512.20	616.07
512.56	627.92
512.92	640.06
513.28	652.41
513.64	664.85
514.00	677.51
514.37	690.32
514.73	703.33
515.09	716.30
515.45	729.70
515.81	743.26
516.17	757.24
516.53	771.39
516.89	785.52
517.25	799.64
517.61	814.12
517.97	828.53
518.33	842.90
518.69	857.66
519.05	872.57
519.41	887.72
519.77	903.23
520.13	918.84
520.49	934.21
520.85	949.58
521.21	965.26
521.57	981.62
521.93	997.48
522.29	1013.95
522.65	1030.22
523.01	1046.38
523.37	1062.44
523.73	1078.59
524.09	1094.61
524.45	1111.05
524.81	1127.89
525.17	1144.60
525.53	1161.65
525.89	1178.54
526.25	1195.43
526.61	1211.86
526.97	1228.70
527.33	1245.32
527.68	1261.85
528.04	1278.52
528.40	1295.20
528.76	1312.38
529.12	1328.95
529.48	1345.89
529.84	1361.93
530.20	1378.68
530.56	1395.75
530.91	1413.17
531.27	1430.08
531.63	1446.52
531.99	1463.20
532.35	1479.14
532.71	1495.20
533.07	1511.44
533.42	1527.41
533.78	1543.50
534.14	1559.91
534.50	1575.21
534.86	1591.02
535.21	1606.19
535.57	1622.10
535.93	1637.68
536.29	1652.50
536.65	1667.59
537.00	1682.55
537.36	1697.97
537.72	1712.57
538.08	1727.01
538.44	1740.88
538.79	1754.82
539.15	1768.72
539.51	1782.47
539.87	1796.89
540.22	1810.66
540.58	1824.36
540.94	1837.69
541.29	1850.60
541.65	1863.35
542.01	1876.70
542.37	1888.91
542.72	1901.63
543.08	1913.33
543.44	1925.59
543.79	1936.85
544.15	1947.86
544.51	1959.25
544.87	1970.13
545.22	1980.97
545.58	1991.19
545.94	2000.92
546.29	2010.80
546.65	2020.65
547.01	2029.90
547.36	2038.61
547.72	2047.10
548.07	2055.09
548.43	2063.35
548.79	2071.39
549.14	2078.92
549.50	2086.33
549.86	2094.22
550.21	2101.36
550.57	2108.61
550.92	2115.36
551.28	2122.47
551.64	2129.43
551.99	2135.99
552.35	2142.06
552.70	2148.10
553.06	2154.14
553.41	2160.44
553.77	2166.27
554.13	2172.16
554.48	2178.14
554.84	2183.46
555.19	2188.49
555.55	2193.53
555.90	2197.95
556.26	2202.74
556.61	2207.26
556.97	2211.32
557.32	2215.36
557.68	2219.35
558.03	2223.49
558.39	2226.94
558.74	2231.16
559.10	2234.95
559.45	2238.46
559.81	2242.64
560.16	2246.25
560.52	2249.20
560.87	2252.49
561.23	2255.11
561.58	2257.78
561.94	2260.05
562.29	2262.16
562.64	2264.82
563.00	2267.16
563.35	2270.52
563.71	2273.44
564.06	2276.33
564.42	2278.99
564.77	2281.21
565.12	2283.44
565.48	2285.09
565.83	2286.71
566.19	2287.95
566.54	2288.72
566.89	2289.59
567.25	2289.98
567.60	2291.16
567.96	2292.55
568.31	2293.02
568.66	2293.67
569.02	2294.19
569.37	2294.29
569.72	2294.87
570.08	2294.65
570.43	2294.48
570.78	2293.38
571.14	2291.37
571.49	2289.86
571.84	2289.25
572.20	2287.72
572.55	2286.20
572.90	2284.25
573.26	2282.53
573.61	2280.51
573.96	2278.44
574.31	2275.20
574.67	2271.90
575.02	2267.88
575.37	2264.17
575.72	2260.19
576.08	2256.65
576.43	2253.05
576.78	2249.35
577.13	2245.96
577.49	2242.71
577.84	2239.09
578.19	2235.15
578.54	2231.44
578.90	2227.04
579.25	2221.26
579.60	2216.32
579.95	2211.04
580.30	2205.72
580.66	2200.25
581.01	2195.09
581.36	2189.88
581.71	2185.49
582.06	2180.85
582.42	2176.13
582.77	2170.85
583.12	2165.92
583.47	2161.19
583.82	2156.02
584.17	2150.51
584.53	2144.89
584.88	2139.04
585.23	2132.84
585.58	2127.27
585.93	2121.61
586.28	2116.65
586.63	2111.40
586.98	2106.05
587.34	2101.30
587.69	2096.40
588.04	2091.19
588.39	2085.31
588.74	2078.73
589.09	2072.49
589.44	2065.64
589.79	2059.44
590.14	2053.56
590.49	2047.04
590.84	2040.26
591.19	2033.88
591.54	2027.24
591.89	2019.78
592.25	2012.70
592.60	2005.49
592.95	1997.73
593.30	1990.30
593.65	1982.42
594.00	1975.24
594.35	1967.85
594.70	1959.65
595.05	1952.49
595.40	1945.21
595.75	1937.70
596.10	1931.34
596.45	1924.36
596.80	1917.99
597.15	1911.40
597.50	1904.35
597.85	1897.84
598.19	1891.33
598.54	1884.40
598.89	1877.61
599.24	1871.65
599.59	1865.01
599.94	1858.79
600.29	1852.47
600.64	1845.88
600.99	1838.46
601.34	1831.69
601.69	1824.59
602.04	1817.56
602.39	1810.21
602.74	1803.29
603.08	1796.54
603.43	1789.81
603.78	1782.67
604.13	1775.46
604.48	1768.24
604.83	1761.48
605.18	1754.47
605.53	1746.34
605.87	1738.34
606.22	1731.23
606.57	1723.33
606.92	1716.07
607.27	1708.86
607.62	1702.03
607.96	1694.75
608.31	1688.30
608.66	1680.64
609.01	1673.33
609.36	1666.03
609.70	1658.09
610.05	1650.17
610.40	1642.75
610.75	1634.52
611.10	1626.97
611.44	1618.75
611.79	1610.85
612.14	1602.11
612.49	1593.03
612.83	1584.95
613.18	1576.89
613.53	1568.88
613.88	1560.38
614.22	1552.30
614.57	1543.87
614.92	1536.05
615.27	1528.70
615.61	1520.47
615.96	1512.63
616.31	1505.05
616.65	1497.75
617.00	1490.25
617.35	1482.61
617.70	1474.33
618.04	1465.88
618.39	1457.70
618.74	1450.18
619.08	1442.03
619.43	1434.64
619.78	1427.93
620.12	1420.79
620.47	1413.39
620.82	1405.41
621.16	1398.14
621.51	1390.57
621.85	1383.10
622.20	1374.63
622.55	1366.38
622.89	1358.65
623.24	1351.20
623.59	1344.01
623.93	1336.61
624.28	1329.51
624.62	1322.10
624.97	1315.01
625.32	1308.46
625.66	1301.53
626.01	1294.51
626.35	1287.17
626.70	1279.47
627.04	1271.95
627.39	1264.32
627.73	1257.09
628.08	1250.29
628.43	1243.08
628.77	1235.86
629.12	1228.47
629.46	1221.43
629.81	1214.18
630.15	1207.09
630.50	1199.74
630.84	1191.62
631.19	1183.78
631.53	1176.40
631.88	1169.05
632.22	1161.60
632.57	1154.50
632.91	1147.16
633.26	1139.88
633.60	1132.62
633.95	1125.72
634.29	1118.63
634.64	1111.96
634.98	1104.78
635.32	1097.73
635.67	1091.32
636.01	1084.79
636.36	1078.07
636.70	1071.70
637.05	1065.24
637.39	1058.95
637.73	1052.72
638.08	1047.03
638.42	1041.19
638.77	1034.78
639.11	1028.26
639.45	1021.87
639.80	1015.24
640.14	1008.92
640.49	1002.46
640.83	996.32
641.17	990.18
641.52	984.06
641.86	977.85
642.20	972.13
642.55	965.94
642.89	959.58
643.23	953.17
643.58	947.52
643.92	941.44
644.26	935.46
644.61	929.46
644.95	923.48
645.29	916.94
645.64	910.28
645.98	904.05
646.32	898.28
646.66	892.37
647.01	886.68
647.35	880.99
647.69	875.26
648.04	869.74
648.38	864.07
648.72	858.14
649.06	852.14
649.41	846.17
649.75	840.25
650.09	834.32
650.43	828.56
650.78	822.42
651.12	816.44
651.46	810.76
651.80	805.08
652.14	799.66
652.49	794.32
652.83	789.19
653.17	783.61
653.51	777.94
653.85	772.60
654.20	767.00
654.54	761.10
654.88	755.39
655.22	749.56
655.56	743.88
655.90	738.46
656.25	733.21
656.59	727.96
656.93	722.92
657.27	717.85
657.61	712.53
657.95	707.57
658.29	702.62
658.64	697.38
658.98	692.17
659.32	686.83
659.66	681.75
660.00	676.53
660.34	671.67
660.68	666.86
661.02	661.95
661.36	657.30
661.70	652.91
662.05	648.65
662.39	644.37
662.73	639.96
663.07	635.66
663.41	631.33
663.75	626.94
664.09	622.48
664.43	618.14
664.77	614.06
665.11	609.80
665.45	605.72
665.79	601.81
666.13	597.71
666.47	593.69
666.81	589.52
667.15	585.49
667.49	581.64
667.83	577.84
668.17	573.93
668.51	569.97
668.85	566.02
669.19	562.24
669.53	558.50
669.87	554.74
670.21	551.14
670.55	547.53
670.89	544.17
671.23	540.74
671.57	537.33
671.91	533.86
672.25	530.47
672.58	526.96
672.92	523.61
673.26	520.55
673.60	517.48
673.94	514.50
674.28	511.60
674.62	508.73
674.96	505.73
675.30	502.87
675.64	499.98
675.97	497.26
676.31	494.46
676.65	491.56
676.99	488.92
677.33	486.06
677.67	483.30
678.01	480.27
678.34	477.37
678.68	474.53
679.02	471.78
679.36	469.08
679.70	466.40
680.04	463.64
680.37	460.79
680.71	458.03
681.05	455.45
681.39	452.82
681.73	450.16
682.06	447.68
682.40	445.14
682.74	442.65
683.08	440.14
683.42	437.57
683.75	435.12
684.09	432.61
684.43	430.23
684.77	427.82
685.10	425.52
685.44	423.25
685.78	420.95
686.12	418.69
686.45	416.43
686.79	414.23
687.13	412.07
687.46	409.95
687.80	407.83
688.14	405.62
688.48	403.63
688.81	401.44
689.15	399.32
689.49	397.26
689.82	395.21
690.16	393.14
690.50	391.23
690.83	389.33
691.17	387.34
691.51	385.43
691.84	383.58
692.18	381.66
692.52	379.70
692.85	377.81
693.19	375.92
693.52	374.06
693.86	372.28
694.20	370.53
694.53	368.73
694.87	366.83
695.21	365.08
695.54	363.23
695.88	361.58
696.21	359.88
696.55	358.20
696.88	356.51
697.22	354.86
697.56	353.23
697.89	351.55
698.23	349.95
698.56	348.36
698.90	346.81
699.23	345.19
699.57	343.65
699.90	342.11
700.24	340.57
700.58	339.12
700.91	337.58
701.25	336.13
701.58	334.76
701.92	333.46
702.25	332.11
702.59	330.77
702.92	329.46
703.26	328.15
703.59	326.86
703.93	325.69
704.26	324.50
704.60	323.22
704.93	322.00
705.26	320.80
705.60	319.63
705.93	318.48
706.27	317.50
706.60	316.53
706.94	315.48
707.27	314.40
707.61	313.35
707.94	312.39
708.27	311.33
708.61	310.24
708.94	309.28
709.28	308.31
709.61	307.35
709.94	306.39
710.28	305.41
710.61	304.47
710.95	303.40
711.28	302.51
711.61	301.56
711.95	300.67
712.28	299.74
712.61	298.80
712.95	297.92
713.28	297.07
713.61	296.15
713.95	295.32
714.28	294.47
714.61	293.65
714.95	292.85
715.28	292.06
715.61	291.25
715.95	290.40
716.28	289.56
716.61	288.76
716.95	287.96
717.28	287.23
717.61	286.46
717.94	285.77
718.28	284.98
718.61	284.29
718.94	283.66
719.27	283.05
719.61	282.43
719.94	281.78
720.27	281.06
720.60	280.43
720.94	279.80
721.27	279.31
721.60	278.72
721.93	278.12
722.27	277.55
722.60	277.00
722.93	276.46
723.26	275.95
723.59	275.43
723.93	274.89
724.26	274.35
724.59	273.82
724.92	273.32
725.25	272.83
725.59	272.34
725.92	271.82
726.25	271.28
726.58	270.79
726.91	270.31
727.24	269.87
727.57	269.39
727.91	268.91
728.24	268.40
728.57	267.91
728.90	267.46
729.23	266.97
729.56	266.56
729.89	266.08
730.22	265.60
730.55	265.13
730.89	264.69
731.22	264.24
731.55	263.81
731.88	263.41
732.21	262.99
732.54	262.58
732.87	262.16
733.20	261.77
733.53	261.37
733.86	260.97
734.19	260.53
734.52	260.14
734.85	259.81
735.18	259.38
735.51	258.97
735.84	258.57
736.17	258.23
736.50	257.81
736.83	257.58
737.16	257.21
737.49	256.87
737.82	256.52
738.15	256.19
738.48	255.83
738.81	255.45
739.14	255.11
739.47	254.76
739.80	254.40
740.13	254.10
740.46	253.77
740.79	253.42
741.12	253.11
741.45	252.78
741.78	252.41
742.11	252.15
742.44	251.86
742.77	251.58
743.10	251.29
743.43	251.00
743.75	250.63
744.08	250.49
744.41	250.23
744.74	249.95
745.07	249.69
745.40	249.47
745.73	249.26
746.06	249.01
746.39	248.75
746.71	248.52
747.04	248.23
747.37	247.99
747.70	247.78
748.03	247.56
748.36	247.34
748.68	247.12
749.01	246.84
749.34	246.61
749.67	246.37
750.00	246.14
750.33	245.96
750.65	245.74
750.98	245.42
751.31	245.18
751.64	244.99
751.97	244.84
752.29	244.59
752.62	244.36
752.95	244.13
753.28	243.95
753.60	243.76
753.93	243.60
754.26	243.42
754.59	243.20
754.91	243.03
755.24	242.86
755.57	242.68
755.90	242.57
756.22	242.41
756.55	242.24
756.88	242.07
757.20	241.85
757.53	241.64
757.86	241.46
758.19	241.32
758.51	241.15
758.84	240.96
759.17	240.79
759.49	240.65
759.82	240.55
760.15	240.37
760.47	240.23
760.80	240.09
761.13	239.93
761.45	239.79
761.78	239.64
762.11	239.49
762.43	239.36
762.76	239.19
763.08	239.06
763.41	238.94
763.74	238.80
764.06	238.67
764.39	238.56
764.71	238.47
765.04	238.33
765.37	238.19
765.69	238.01
766.02	237.90
766.34	237.73
766.67	237.59
767.00	237.51
767.32	237.38
767.65	237.34
767.97	237.25
768.30	237.12
768.62	236.98
768.95	236.85
769.27	236.74
769.60	236.65
769.92	236.53
770.25	236.39
770.57	236.30
770.90	236.21
771.22	236.09
771.55	235.97
771.87	235.85
772.20	235.75
772.52	235.78
772.85	235.77
773.17	235.70
773.50	235.60
773.82	235.48
774.15	235.36
774.47	235.18
774.80	235.05
775.12	234.94
775.45	234.83
775.77	234.74
776.09	234.65
776.42	234.59
776.74	234.51
777.07	234.41
777.39	234.33
777.72	234.22
778.04	234.15
778.36	234.07
778.69	233.99
779.01	233.91
779.33	233.73
779.66	233.56
779.98	233.44
780.31	233.37
780.63	233.32
780.95	233.28
781.28	233.18
781.60	233.09
781.92	233.04
782.25	232.99
782.57	232.90
782.89	232.84
783.22	232.70
783.54	232.63
783.86	232.58
784.19	232.49
784.51	232.47
784.83	232.41
785.16	232.34
785.48	232.28
785.80	232.26
786.12	232.21
786.45	232.15
786.77	232.14
787.09	232.06
