SpectraSuite Data File
++++++++++++++++++++++++++++++++++++
Date: Fri Feb 01 16:01:31 EST 2013
User: group
Dark Spectrum Present: No
Reference Spectrum Present: No
Number of Sampled Component Spectra: 1
Spectrometers: USB2E7196
Integration Time (usec): 35000 (USB2E7196)
Spectra Averaged: 100 (USB2E7196)
Boxcar Smoothing: 10 (USB2E7196)
Correct for Electrical Dark: No (USB2E7196)
Strobe/Lamp Enabled: No (USB2E7196)
Correct for Detector Non-linearity: No (USB2E7196)
Correct for Stray Light: No (USB2E7196)
Number of Pixels in Processed Spectrum: 2048
>>>>>Begin Processed Spectral Data<<<<<
339.09	0.00
339.48	214.58
339.86	215.88
340.24	218.09
340.63	218.35
341.01	221.84
341.39	221.60
341.78	223.41
342.16	223.90
342.54	224.78
342.93	213.07
343.31	223.84
343.69	224.38
344.07	224.89
344.46	225.29
344.84	225.68
345.22	225.91
345.60	226.18
345.99	226.34
346.37	226.49
346.75	226.60
347.13	226.69
347.52	226.76
347.90	226.80
348.28	226.85
348.66	226.90
349.05	226.87
349.43	226.90
349.81	226.93
350.19	226.94
350.57	226.95
350.96	227.05
351.34	227.13
351.72	227.22
352.10	227.26
352.48	227.34
352.87	227.38
353.25	227.44
353.63	227.46
354.01	227.54
354.39	227.61
354.77	227.66
355.15	227.74
355.54	227.79
355.92	227.87
356.30	227.95
356.68	228.11
357.06	228.18
357.44	228.24
357.82	228.29
358.20	228.38
358.58	228.47
358.97	228.54
359.35	228.62
359.73	228.69
360.11	228.76
360.49	228.81
360.87	228.89
361.25	228.96
361.63	229.02
362.01	229.04
362.39	229.08
362.77	229.13
363.15	229.16
363.53	229.22
363.91	229.23
364.29	229.26
364.67	229.17
365.05	229.21
365.43	229.24
365.81	229.27
366.19	229.35
366.57	229.42
366.95	229.42
367.33	229.38
367.71	229.38
368.09	229.40
368.47	229.39
368.85	229.34
369.23	229.33
369.61	229.31
369.99	229.32
370.37	229.27
370.75	229.28
371.13	229.24
371.51	229.16
371.89	229.10
372.27	229.06
372.65	229.00
373.03	228.95
373.41	228.87
373.78	228.82
374.16	228.69
374.54	228.57
374.92	228.51
375.30	228.45
375.68	228.34
376.06	228.27
376.44	228.18
376.82	228.13
377.19	228.04
377.57	227.95
377.95	227.86
378.33	227.79
378.71	227.71
379.09	227.63
379.47	227.57
379.84	227.47
380.22	227.38
380.60	227.30
380.98	227.21
381.36	227.15
381.73	227.03
382.11	226.99
382.49	226.93
382.87	226.82
383.25	226.72
383.62	226.79
384.00	226.71
384.38	226.66
384.76	226.65
385.13	226.65
385.51	226.61
385.89	226.58
386.27	226.55
386.64	226.46
387.02	226.45
387.40	226.39
387.78	226.38
388.15	226.35
388.53	226.32
388.91	226.29
389.29	226.26
389.66	226.29
390.04	226.24
390.42	226.25
390.79	226.22
391.17	226.25
391.55	226.11
391.92	226.10
392.30	226.09
392.68	226.06
393.05	226.00
393.43	226.03
393.81	226.02
394.18	226.02
394.56	226.06
394.94	226.04
395.31	226.06
395.69	226.12
396.06	226.15
396.44	226.17
396.82	226.21
397.19	226.29
397.57	226.27
397.95	226.32
398.32	226.31
398.70	226.39
399.07	226.44
399.45	226.52
399.82	226.60
400.20	226.68
400.58	226.76
400.95	226.82
401.33	226.88
401.70	227.06
402.08	227.14
402.45	227.24
402.83	227.36
403.20	227.47
403.58	227.58
403.95	227.70
404.33	227.84
404.71	227.95
405.08	228.15
405.46	228.34
405.83	228.53
406.21	228.69
406.58	228.87
406.96	229.07
407.33	229.26
407.70	229.43
408.08	229.70
408.45	229.91
408.83	230.16
409.20	230.37
409.58	230.53
409.95	230.82
410.33	231.07
410.70	231.34
411.08	231.68
411.45	231.97
411.82	232.31
412.20	232.66
412.57	233.09
412.95	233.38
413.32	233.77
413.69	234.18
414.07	234.65
414.44	235.13
414.82	235.60
415.19	236.13
415.56	236.73
415.94	237.26
416.31	237.94
416.68	238.57
417.06	239.30
417.43	240.00
417.81	240.75
418.18	241.56
418.55	242.41
418.93	243.23
419.30	244.14
419.67	245.05
420.04	245.99
420.42	246.98
420.79	248.17
421.16	249.33
421.54	250.49
421.91	251.67
422.28	252.88
422.66	254.22
423.03	255.55
423.40	256.85
423.77	258.23
424.15	259.63
424.52	261.12
424.89	262.78
425.26	264.30
425.64	265.76
426.01	267.30
426.38	268.93
426.75	270.63
427.13	272.32
427.50	274.15
427.87	276.03
428.24	277.89
428.61	279.62
428.99	281.55
429.36	283.68
429.73	285.74
430.10	287.78
430.47	289.85
430.85	291.93
431.22	294.20
431.59	296.63
431.96	298.83
432.33	301.30
432.70	303.61
433.08	306.40
433.45	308.97
433.82	311.56
434.19	314.44
434.56	317.23
434.93	319.92
435.30	322.49
435.68	325.37
436.05	328.19
436.42	330.97
436.79	333.49
437.16	336.15
437.53	338.99
437.90	341.79
438.27	344.50
438.64	347.31
439.01	349.86
439.38	352.08
439.75	354.27
440.13	356.71
440.50	359.03
440.87	360.91
441.24	362.89
441.61	365.08
441.98	366.58
442.35	368.33
442.72	370.16
443.09	372.00
443.46	373.01
443.83	373.60
444.20	374.16
444.57	374.96
444.94	375.24
445.31	375.55
445.68	375.88
446.05	375.94
446.42	375.55
446.79	375.11
447.16	374.66
447.53	374.34
447.90	373.20
448.27	372.02
448.64	370.41
449.01	369.29
449.37	367.32
449.74	365.42
450.11	363.21
450.48	360.70
450.85	358.16
451.22	355.97
451.59	353.92
451.96	351.95
452.33	349.39
452.70	347.03
453.07	344.20
453.43	341.34
453.80	338.58
454.17	335.90
454.54	333.38
454.91	330.63
455.28	327.94
455.65	325.48
456.02	323.07
456.38	320.93
456.75	318.22
457.12	315.97
457.49	313.76
457.86	311.61
458.23	309.81
458.59	307.77
458.96	305.72
459.33	303.89
459.70	302.00
460.07	300.48
460.43	298.79
460.80	297.19
461.17	295.74
461.54	294.26
461.91	292.85
462.27	291.42
462.64	290.17
463.01	288.82
463.38	287.53
463.74	286.15
464.11	284.96
464.48	283.95
464.85	282.86
465.21	282.02
465.58	281.10
465.95	279.98
466.32	279.11
466.68	278.23
467.05	277.34
467.42	276.43
467.78	275.50
468.15	274.63
468.52	273.99
468.88	273.15
469.25	272.37
469.62	271.78
469.98	271.11
470.35	270.50
470.72	269.90
471.08	269.24
471.45	268.73
471.82	268.22
472.18	267.61
472.55	267.16
472.92	266.61
473.28	266.13
473.65	265.69
474.02	265.23
474.38	264.87
474.75	264.50
475.11	264.18
475.48	263.93
475.85	263.70
476.21	263.48
476.58	263.28
476.94	263.15
477.31	262.96
477.67	262.83
478.04	262.72
478.41	262.67
478.77	262.72
479.14	262.70
479.50	262.73
479.87	262.87
480.23	262.94
480.60	263.00
480.96	263.11
481.33	263.34
481.69	263.56
482.06	263.76
482.42	264.04
482.79	264.29
483.15	264.62
483.52	265.01
483.88	265.38
484.25	265.77
484.61	266.18
484.98	266.64
485.34	267.17
485.71	267.72
486.07	268.35
486.44	268.96
486.80	269.62
487.17	270.33
487.53	271.14
487.90	272.01
488.26	272.94
488.62	273.91
488.99	274.88
489.35	275.86
489.72	277.00
490.08	278.13
490.44	279.42
490.81	280.76
491.17	282.09
491.54	283.57
491.90	285.14
492.26	286.80
492.63	288.55
492.99	290.33
493.36	292.32
493.72	294.36
494.08	296.48
494.45	298.76
494.81	301.17
495.17	303.60
495.54	306.16
495.90	308.88
496.26	311.69
496.63	314.68
496.99	317.84
497.35	321.08
497.72	324.53
498.08	327.97
498.44	331.63
498.80	335.55
499.17	339.58
499.53	343.76
499.89	348.13
500.26	352.60
500.62	357.35
500.98	362.32
501.34	367.37
501.71	372.66
502.07	378.09
502.43	383.68
502.79	389.51
503.16	395.58
503.52	401.90
503.88	408.31
504.24	414.95
504.60	421.87
504.97	429.00
505.33	436.36
505.69	444.13
506.05	451.88
506.41	459.84
506.78	467.96
507.14	476.39
507.50	485.11
507.86	494.21
508.22	503.40
508.59	512.56
508.95	522.20
509.31	532.06
509.67	542.22
510.03	552.49
510.39	563.06
510.75	573.91
511.12	584.81
511.48	596.19
511.84	607.66
512.20	619.09
512.56	631.00
512.92	643.26
513.28	655.64
513.64	668.08
514.00	680.75
514.37	693.70
514.73	706.76
515.09	719.74
515.45	733.03
515.81	746.56
516.17	760.55
516.53	774.67
516.89	788.84
517.25	802.94
517.61	817.38
517.97	831.82
518.33	846.18
518.69	860.99
519.05	875.87
519.41	891.01
519.77	906.54
520.13	922.02
520.49	937.27
520.85	952.60
521.21	968.42
521.57	984.74
521.93	1000.45
522.29	1016.85
522.65	1033.08
523.01	1049.26
523.37	1065.39
523.73	1081.48
524.09	1097.54
524.45	1113.86
524.81	1130.55
525.17	1147.28
525.53	1164.21
525.89	1181.05
526.25	1197.68
526.61	1214.15
526.97	1230.91
527.33	1247.35
527.68	1263.86
528.04	1280.24
528.40	1296.86
528.76	1313.84
529.12	1330.26
529.48	1347.07
529.84	1363.03
530.20	1379.71
530.56	1396.71
530.91	1413.99
531.27	1430.72
531.63	1447.09
531.99	1463.62
532.35	1479.47
532.71	1495.46
533.07	1511.69
533.42	1527.55
533.78	1543.73
534.14	1559.91
534.50	1575.06
534.86	1590.94
535.21	1606.16
535.57	1622.05
535.93	1637.50
536.29	1652.21
536.65	1667.30
537.00	1682.21
537.36	1697.52
537.72	1711.98
538.08	1726.36
538.44	1740.09
538.79	1754.09
539.15	1767.82
539.51	1781.39
539.87	1795.82
540.22	1809.37
540.58	1823.05
540.94	1836.43
541.29	1849.31
541.65	1861.95
542.01	1875.19
542.37	1887.49
542.72	1900.01
543.08	1911.80
543.44	1924.14
543.79	1935.37
544.15	1946.34
544.51	1957.96
544.87	1968.90
545.22	1979.66
545.58	1989.80
545.94	1999.61
546.29	2009.23
546.65	2018.95
547.01	2028.19
547.36	2036.66
547.72	2045.06
548.07	2052.80
548.43	2060.93
548.79	2068.85
549.14	2076.48
549.50	2083.76
549.86	2091.45
550.21	2098.63
550.57	2105.78
550.92	2112.27
551.28	2119.35
551.64	2126.26
551.99	2132.55
552.35	2138.70
552.70	2144.87
553.06	2150.86
553.41	2157.23
553.77	2163.41
554.13	2169.61
554.48	2175.84
554.84	2181.38
555.19	2186.75
555.55	2191.93
555.90	2196.46
556.26	2201.44
556.61	2206.22
556.97	2210.59
557.32	2214.80
557.68	2219.02
558.03	2223.37
558.39	2227.14
558.74	2231.72
559.10	2235.67
559.45	2239.41
559.81	2243.71
560.16	2247.61
560.52	2250.82
560.87	2254.09
561.23	2256.74
561.58	2259.59
561.94	2262.12
562.29	2264.48
562.64	2267.04
563.00	2269.69
563.35	2273.09
563.71	2276.09
564.06	2279.27
564.42	2281.99
564.77	2284.33
565.12	2286.44
565.48	2288.43
565.83	2290.38
566.19	2291.71
566.54	2292.68
566.89	2293.74
567.25	2294.27
567.60	2295.41
567.96	2297.14
568.31	2298.11
568.66	2299.22
569.02	2299.83
569.37	2300.07
569.72	2301.02
570.08	2301.28
570.43	2301.43
570.78	2300.88
571.14	2299.42
571.49	2297.99
571.84	2297.92
572.20	2297.02
572.55	2296.08
572.90	2294.52
573.26	2293.08
573.61	2291.41
573.96	2289.64
574.31	2286.76
574.67	2283.84
575.02	2280.33
575.37	2276.88
575.72	2273.10
576.08	2269.81
576.43	2266.53
576.78	2262.87
577.13	2259.75
577.49	2256.73
577.84	2253.04
578.19	2249.42
578.54	2245.85
578.90	2241.61
579.25	2235.89
579.60	2230.91
579.95	2225.97
580.30	2220.90
580.66	2215.77
581.01	2210.79
581.36	2205.84
581.71	2201.74
582.06	2197.30
582.42	2192.97
582.77	2187.79
583.12	2183.21
583.47	2178.38
583.82	2173.38
584.17	2168.26
584.53	2162.85
584.88	2157.19
585.23	2151.46
585.58	2146.03
585.93	2140.62
586.28	2135.97
586.63	2131.04
586.98	2125.87
587.34	2121.01
587.69	2116.14
588.04	2110.76
588.39	2105.23
588.74	2098.92
589.09	2092.76
589.44	2085.86
589.79	2079.85
590.14	2074.35
590.49	2067.68
590.84	2061.38
591.19	2055.34
591.54	2048.87
591.89	2041.37
592.25	2034.57
592.60	2027.43
592.95	2019.67
593.30	2012.15
593.65	2004.55
594.00	1997.48
594.35	1990.20
594.70	1982.23
595.05	1975.08
595.40	1967.92
595.75	1960.45
596.10	1954.21
596.45	1947.43
596.80	1941.29
597.15	1934.59
597.50	1927.41
597.85	1921.15
598.19	1914.44
598.54	1907.32
598.89	1900.64
599.24	1894.84
599.59	1888.04
599.94	1881.88
600.29	1875.73
600.64	1869.28
600.99	1861.70
601.34	1854.89
601.69	1847.99
602.04	1841.14
602.39	1833.59
602.74	1826.84
603.08	1819.99
603.43	1813.24
603.78	1805.78
604.13	1798.66
604.48	1791.23
604.83	1784.42
605.18	1777.32
605.53	1769.32
605.87	1761.36
606.22	1754.23
606.57	1746.20
606.92	1738.99
607.27	1731.77
607.62	1724.72
607.96	1717.38
608.31	1710.78
608.66	1703.24
609.01	1695.63
609.36	1688.12
609.70	1680.17
610.05	1672.10
610.40	1664.43
610.75	1655.99
611.10	1648.56
611.44	1640.10
611.79	1632.18
612.14	1623.36
612.49	1614.30
612.83	1605.94
613.18	1597.75
613.53	1589.52
613.88	1580.95
614.22	1572.64
614.57	1564.05
614.92	1556.00
615.27	1548.34
615.61	1540.00
615.96	1531.83
616.31	1524.28
616.65	1516.91
617.00	1509.34
617.35	1501.68
617.70	1493.27
618.04	1484.79
618.39	1476.49
618.74	1468.94
619.08	1460.52
619.43	1453.04
619.78	1446.08
620.12	1438.96
620.47	1431.45
620.82	1423.30
621.16	1415.95
621.51	1408.36
621.85	1400.77
622.20	1392.36
622.55	1384.04
622.89	1376.21
623.24	1368.64
623.59	1361.19
623.93	1353.52
624.28	1346.32
624.62	1338.69
624.97	1331.61
625.32	1324.90
625.66	1317.86
626.01	1310.60
626.35	1303.25
626.70	1295.47
627.04	1287.76
627.39	1279.93
627.73	1272.57
628.08	1265.62
628.43	1258.32
628.77	1250.93
629.12	1243.35
629.46	1236.20
629.81	1228.82
630.15	1221.59
630.50	1214.10
630.84	1205.91
631.19	1198.09
631.53	1190.59
631.88	1182.99
632.22	1175.38
632.57	1167.99
632.91	1160.44
633.26	1153.02
633.60	1145.68
633.95	1138.61
634.29	1131.52
634.64	1124.91
634.98	1117.46
635.32	1110.34
635.67	1103.76
636.01	1097.11
636.36	1090.24
636.70	1083.69
637.05	1077.09
637.39	1070.64
637.73	1064.29
638.08	1058.37
638.42	1052.36
638.77	1045.92
639.11	1039.35
639.45	1032.84
639.80	1026.22
640.14	1019.76
640.49	1013.26
640.83	1006.93
641.17	1000.66
641.52	994.31
641.86	987.82
642.20	982.03
642.55	975.73
642.89	969.22
643.23	962.78
643.58	956.99
643.92	950.77
644.26	944.68
644.61	938.67
644.95	932.49
645.29	925.91
645.64	919.11
645.98	912.80
646.32	907.02
646.66	901.05
647.01	895.21
647.35	889.53
647.69	883.67
648.04	878.18
648.38	872.41
648.72	866.42
649.06	860.37
649.41	854.53
649.75	848.56
650.09	842.60
650.43	836.82
650.78	830.71
651.12	824.72
651.46	818.97
651.80	813.26
652.14	807.88
652.49	802.54
652.83	797.43
653.17	791.65
653.51	785.88
653.85	780.50
654.20	774.88
654.54	768.85
654.88	763.18
655.22	757.27
655.56	751.54
655.90	746.10
656.25	740.74
656.59	735.31
656.93	730.21
657.27	725.06
657.61	719.53
657.95	714.44
658.29	709.42
658.64	704.23
658.98	698.87
659.32	693.45
659.66	688.22
660.00	682.90
660.34	678.04
660.68	673.20
661.02	668.17
661.36	663.42
661.70	658.99
662.05	654.62
662.39	650.27
662.73	645.76
663.07	641.37
663.41	637.03
663.75	632.56
664.09	628.00
664.43	623.56
664.77	619.48
665.11	615.20
665.45	610.98
665.79	606.89
666.13	602.79
666.47	598.63
666.81	594.51
667.15	590.40
667.49	586.50
667.83	582.64
668.17	578.69
668.51	574.70
668.85	570.64
669.19	566.79
669.53	562.97
669.87	559.11
670.21	555.48
670.55	551.80
670.89	548.35
671.23	544.87
671.57	541.39
671.91	537.76
672.25	534.25
672.58	530.73
672.92	527.33
673.26	524.10
673.60	521.01
673.94	517.88
674.28	515.00
674.62	512.02
674.96	508.95
675.30	506.00
675.64	503.08
675.97	500.29
676.31	497.37
676.65	494.43
676.99	491.78
677.33	488.87
677.67	486.14
678.01	483.09
678.34	480.14
678.68	477.31
679.02	474.56
679.36	471.78
679.70	469.09
680.04	466.32
680.37	463.45
680.71	460.63
681.05	458.03
681.39	455.26
681.73	452.61
682.06	450.03
682.40	447.51
682.74	444.93
683.08	442.37
683.42	439.87
683.75	437.36
684.09	434.77
684.43	432.31
684.77	429.73
685.10	427.38
685.44	425.10
685.78	422.76
686.12	420.45
686.45	418.17
686.79	415.81
687.13	413.58
687.46	411.45
687.80	409.33
688.14	407.10
688.48	405.03
688.81	402.76
689.15	400.62
689.49	398.43
689.82	396.35
690.16	394.23
690.50	392.24
690.83	390.26
691.17	388.30
691.51	386.39
691.84	384.58
692.18	382.62
692.52	380.63
692.85	378.71
693.19	376.83
693.52	375.04
693.86	373.31
694.20	371.60
694.53	369.80
694.87	367.91
695.21	366.12
695.54	364.31
695.88	362.55
696.21	360.81
696.55	359.11
696.88	357.42
697.22	355.79
697.56	354.15
697.89	352.55
698.23	350.95
698.56	349.33
698.90	347.76
699.23	346.14
699.57	344.61
699.90	343.09
700.24	341.59
700.58	340.07
700.91	338.53
701.25	337.08
701.58	335.71
701.92	334.38
702.25	333.01
702.59	331.65
702.92	330.38
703.26	329.11
703.59	327.88
703.93	326.71
704.26	325.48
704.60	324.21
704.93	322.91
705.26	321.65
705.60	320.45
705.93	319.28
706.27	318.23
706.60	317.19
706.94	316.11
707.27	315.01
707.61	313.95
707.94	312.95
708.27	311.84
708.61	310.74
708.94	309.73
709.28	308.77
709.61	307.81
709.94	306.87
710.28	305.89
710.61	304.90
710.95	303.83
711.28	302.94
711.61	301.97
711.95	301.03
712.28	300.09
712.61	299.15
712.95	298.23
713.28	297.37
713.61	296.49
713.95	295.62
714.28	294.78
714.61	293.90
714.95	293.04
715.28	292.18
715.61	291.30
715.95	290.44
716.28	289.56
716.61	288.71
716.95	287.88
717.28	287.11
717.61	286.35
717.94	285.60
718.28	284.78
718.61	284.04
718.94	283.39
719.27	282.73
719.61	282.05
719.94	281.35
720.27	280.62
720.60	279.92
720.94	279.24
721.27	278.61
721.60	278.05
721.93	277.45
722.27	276.87
722.60	276.33
722.93	275.74
723.26	275.21
723.59	274.61
723.93	274.02
724.26	273.45
724.59	272.86
724.92	272.34
725.25	271.85
725.59	271.33
725.92	270.82
726.25	270.31
726.58	269.83
726.91	269.33
727.24	268.85
727.57	268.34
727.91	267.83
728.24	267.35
728.57	266.82
728.90	266.33
729.23	265.83
729.56	265.41
729.89	264.93
730.22	264.40
730.55	263.95
730.89	263.54
731.22	263.05
731.55	262.63
731.88	262.19
732.21	261.74
732.54	261.32
732.87	260.89
733.20	260.49
733.53	260.07
733.86	259.70
734.19	259.31
734.52	258.96
734.85	258.67
735.18	258.26
735.51	257.91
735.84	257.58
736.17	257.23
736.50	256.81
736.83	256.58
737.16	256.28
737.49	255.97
737.82	255.63
738.15	255.35
738.48	254.98
738.81	254.68
739.14	254.33
739.47	254.00
739.80	253.69
740.13	253.38
740.46	253.04
740.79	252.72
741.12	252.41
741.45	252.12
741.78	251.77
742.11	251.51
742.44	251.19
742.77	250.88
743.10	250.62
743.43	250.35
743.75	250.00
744.08	249.87
744.41	249.56
744.74	249.30
745.07	249.00
745.40	248.79
745.73	248.55
746.06	248.28
746.39	248.02
746.71	247.78
747.04	247.51
747.37	247.30
747.70	247.06
748.03	246.81
748.36	246.59
748.68	246.35
749.01	246.08
749.34	245.86
749.67	245.65
750.00	245.39
750.33	245.20
750.65	244.97
750.98	244.60
751.31	244.42
751.64	244.21
751.97	244.05
752.29	243.79
752.62	243.52
752.95	243.33
753.28	243.09
753.60	242.86
753.93	242.72
754.26	242.50
754.59	242.27
754.91	242.04
755.24	241.80
755.57	241.62
755.90	241.44
756.22	241.26
756.55	241.05
756.88	240.88
757.20	240.68
757.53	240.47
757.86	240.29
758.19	240.12
758.51	239.92
758.84	239.71
759.17	239.56
759.49	239.41
759.82	239.28
760.15	239.15
760.47	238.98
760.80	238.78
761.13	238.62
761.45	238.43
761.78	238.29
762.11	238.19
762.43	238.01
762.76	237.85
763.08	237.71
763.41	237.56
763.74	237.40
764.06	237.23
764.39	237.08
764.71	236.98
765.04	236.79
765.37	236.70
765.69	236.55
766.02	236.41
766.34	236.31
766.67	236.15
767.00	236.04
767.32	235.98
767.65	235.89
767.97	235.81
768.30	235.72
768.62	235.59
768.95	235.45
769.27	235.35
769.60	235.29
769.92	235.15
770.25	235.04
770.57	234.91
770.90	234.84
771.22	234.73
771.55	234.61
771.87	234.54
772.20	234.41
772.52	234.41
772.85	234.44
773.17	234.30
773.50	234.20
773.82	234.07
774.15	233.93
774.47	233.79
774.80	233.69
775.12	233.59
775.45	233.54
775.77	233.44
776.09	233.36
776.42	233.25
776.74	233.22
777.07	233.16
777.39	233.10
777.72	233.01
778.04	232.99
778.36	232.91
778.69	232.86
779.01	232.82
779.33	232.66
779.66	232.49
779.98	232.46
780.31	232.40
780.63	232.42
780.95	232.39
781.28	232.33
781.60	232.27
781.92	232.24
782.25	232.16
782.57	232.13
782.89	232.06
783.22	232.01
783.54	231.90
783.86	231.86
784.19	231.84
784.51	231.79
784.83	231.74
785.16	231.71
785.48	231.67
785.80	231.61
786.12	231.59
786.45	231.55
786.77	231.51
787.09	231.45
