SpectraSuite Data File
++++++++++++++++++++++++++++++++++++
Date: Fri Feb 01 15:18:59 EST 2013
User: group
Dark Spectrum Present: No
Reference Spectrum Present: No
Number of Sampled Component Spectra: 1
Spectrometers: USB2E7196
Integration Time (usec): 35000 (USB2E7196)
Spectra Averaged: 100 (USB2E7196)
Boxcar Smoothing: 10 (USB2E7196)
Correct for Electrical Dark: No (USB2E7196)
Strobe/Lamp Enabled: No (USB2E7196)
Correct for Detector Non-linearity: No (USB2E7196)
Correct for Stray Light: No (USB2E7196)
Number of Pixels in Processed Spectrum: 2048
>>>>>Begin Processed Spectral Data<<<<<
339.09	0.00
339.48	215.33
339.86	217.12
340.24	217.22
340.63	219.35
341.01	221.92
341.39	221.79
341.78	223.04
342.16	224.61
342.54	224.45
342.93	213.33
343.31	224.13
343.69	224.65
344.07	225.08
344.46	225.52
344.84	225.89
345.22	226.14
345.60	226.40
345.99	226.61
346.37	226.73
346.75	226.84
347.13	226.91
347.52	226.96
347.90	227.02
348.28	227.05
348.66	227.09
349.05	227.06
349.43	227.09
349.81	227.15
350.19	227.20
350.57	227.23
350.96	227.32
351.34	227.39
351.72	227.47
352.10	227.52
352.48	227.60
352.87	227.65
353.25	227.72
353.63	227.79
354.01	227.82
354.39	227.88
354.77	227.95
355.15	228.04
355.54	228.13
355.92	228.17
356.30	228.26
356.68	228.37
357.06	228.43
357.44	228.47
357.82	228.52
358.20	228.58
358.58	228.63
358.97	228.69
359.35	228.77
359.73	228.81
360.11	228.88
360.49	228.92
360.87	228.97
361.25	229.02
361.63	229.07
362.01	229.15
362.39	229.19
362.77	229.24
363.15	229.27
363.53	229.27
363.91	229.31
364.29	229.30
364.67	229.22
365.05	229.25
365.43	229.28
365.81	229.31
366.19	229.34
366.57	229.38
366.95	229.38
367.33	229.34
367.71	229.37
368.09	229.39
368.47	229.37
368.85	229.36
369.23	229.35
369.61	229.31
369.99	229.28
370.37	229.25
370.75	229.26
371.13	229.20
371.51	229.20
371.89	229.15
372.27	229.14
372.65	229.12
373.03	229.08
373.41	229.03
373.78	228.95
374.16	228.87
374.54	228.75
374.92	228.70
375.30	228.65
375.68	228.54
376.06	228.48
376.44	228.42
376.82	228.35
377.19	228.27
377.57	228.20
377.95	228.09
378.33	228.05
378.71	227.93
379.09	227.88
379.47	227.78
379.84	227.67
380.22	227.61
380.60	227.52
380.98	227.44
381.36	227.36
381.73	227.28
382.11	227.24
382.49	227.20
382.87	227.08
383.25	227.00
383.62	227.07
384.00	226.98
384.38	226.92
384.76	226.91
385.13	226.85
385.51	226.79
385.89	226.75
386.27	226.70
386.64	226.63
387.02	226.55
387.40	226.53
387.78	226.50
388.15	226.43
388.53	226.39
388.91	226.35
389.29	226.31
389.66	226.33
390.04	226.27
390.42	226.30
390.79	226.32
391.17	226.27
391.55	226.16
391.92	226.16
392.30	226.20
392.68	226.16
393.05	226.20
393.43	226.23
393.81	226.23
394.18	226.22
394.56	226.27
394.94	226.33
395.31	226.35
395.69	226.42
396.06	226.47
396.44	226.53
396.82	226.56
397.19	226.65
397.57	226.66
397.95	226.71
398.32	226.70
398.70	226.76
399.07	226.89
399.45	226.95
399.82	227.01
400.20	227.06
400.58	227.16
400.95	227.17
401.33	227.25
401.70	227.43
402.08	227.51
402.45	227.62
402.83	227.71
403.20	227.80
403.58	227.91
403.95	228.02
404.33	228.14
404.71	228.27
405.08	228.47
405.46	228.63
405.83	228.79
406.21	228.94
406.58	229.10
406.96	229.24
407.33	229.39
407.70	229.58
408.08	229.88
408.45	230.08
408.83	230.32
409.20	230.53
409.58	230.73
409.95	231.02
410.33	231.27
410.70	231.53
411.08	231.82
411.45	232.13
411.82	232.46
412.20	232.81
412.57	233.22
412.95	233.50
413.32	233.89
413.69	234.30
414.07	234.77
414.44	235.27
414.82	235.75
415.19	236.33
415.56	236.90
415.94	237.40
416.31	238.04
416.68	238.71
417.06	239.44
417.43	240.08
417.81	240.83
418.18	241.64
418.55	242.52
418.93	243.40
419.30	244.34
419.67	245.27
420.04	246.26
420.42	247.26
420.79	248.47
421.16	249.62
421.54	250.85
421.91	252.07
422.28	253.32
422.66	254.67
423.03	256.00
423.40	257.36
423.77	258.78
424.15	260.20
424.52	261.65
424.89	263.26
425.26	264.84
425.64	266.30
426.01	267.87
426.38	269.53
426.75	271.21
427.13	272.92
427.50	274.73
427.87	276.62
428.24	278.52
428.61	280.21
428.99	282.18
429.36	284.28
429.73	286.35
430.10	288.36
430.47	290.42
430.85	292.48
431.22	294.68
431.59	297.09
431.96	299.37
432.33	301.90
432.70	304.29
433.08	307.16
433.45	309.84
433.82	312.49
434.19	315.42
434.56	318.26
434.93	320.92
435.30	323.57
435.68	326.44
436.05	329.27
436.42	332.07
436.79	334.64
437.16	337.33
437.53	340.21
437.90	342.99
438.27	345.76
438.64	348.62
439.01	351.24
439.38	353.45
439.75	355.59
440.13	358.05
440.50	360.37
440.87	362.15
441.24	364.08
441.61	366.21
441.98	367.64
442.35	369.41
442.72	371.27
443.09	373.06
443.46	374.13
443.83	374.68
444.20	375.22
444.57	376.01
444.94	376.29
445.31	376.60
445.68	377.03
446.05	377.10
446.42	376.73
446.79	376.34
447.16	375.93
447.53	375.64
447.90	374.52
448.27	373.36
448.64	371.78
449.01	370.61
449.37	368.65
449.74	366.78
450.11	364.52
450.48	362.01
450.85	359.47
451.22	357.27
451.59	355.30
451.96	353.32
452.33	350.70
452.70	348.34
453.07	345.50
453.43	342.58
453.80	339.78
454.17	337.10
454.54	334.52
454.91	331.80
455.28	329.12
455.65	326.59
456.02	324.16
456.38	322.02
456.75	319.38
457.12	317.12
457.49	314.91
457.86	312.76
458.23	310.93
458.59	308.88
458.96	306.77
459.33	304.87
459.70	302.99
460.07	301.50
460.43	299.77
460.80	298.13
461.17	296.66
461.54	295.22
461.91	293.78
462.27	292.35
462.64	291.07
463.01	289.67
463.38	288.40
463.74	286.98
464.11	285.84
464.48	284.75
464.85	283.63
465.21	282.72
465.58	281.78
465.95	280.68
466.32	279.75
466.68	278.86
467.05	278.00
467.42	277.13
467.78	276.20
468.15	275.35
468.52	274.67
468.88	273.81
469.25	272.99
469.62	272.38
469.98	271.71
470.35	271.09
470.72	270.52
471.08	269.85
471.45	269.31
471.82	268.71
472.18	268.17
472.55	267.73
472.92	267.19
473.28	266.71
473.65	266.24
474.02	265.81
474.38	265.44
474.75	265.08
475.11	264.72
475.48	264.47
475.85	264.18
476.21	263.94
476.58	263.72
476.94	263.55
477.31	263.32
477.67	263.12
478.04	262.98
478.41	262.92
478.77	262.94
479.14	262.87
479.50	262.88
479.87	262.92
480.23	263.01
480.60	263.09
480.96	263.16
481.33	263.39
481.69	263.56
482.06	263.73
482.42	263.94
482.79	264.18
483.15	264.46
483.52	264.85
483.88	265.19
484.25	265.59
484.61	266.01
484.98	266.49
485.34	267.03
485.71	267.60
486.07	268.16
486.44	268.72
486.80	269.42
487.17	270.15
487.53	270.95
487.90	271.80
488.26	272.73
488.62	273.72
488.99	274.64
489.35	275.69
489.72	276.79
490.08	277.96
490.44	279.21
490.81	280.55
491.17	281.89
491.54	283.40
491.90	284.94
492.26	286.59
492.63	288.33
492.99	290.15
493.36	292.04
493.72	294.10
494.08	296.20
494.45	298.48
494.81	300.83
495.17	303.26
495.54	305.79
495.90	308.47
496.26	311.27
496.63	314.23
496.99	317.32
497.35	320.59
497.72	324.01
498.08	327.56
498.44	331.19
498.80	335.13
499.17	339.11
499.53	343.29
499.89	347.65
500.26	352.14
500.62	356.82
500.98	361.83
501.34	366.91
501.71	372.26
502.07	377.70
502.43	383.32
502.79	389.16
503.16	395.26
503.52	401.57
503.88	408.02
504.24	414.67
504.60	421.60
504.97	428.73
505.33	436.05
505.69	443.79
506.05	451.59
506.41	459.49
506.78	467.74
507.14	476.18
507.50	484.91
507.86	493.95
508.22	503.17
508.59	512.33
508.95	521.96
509.31	531.74
509.67	541.82
510.03	552.13
510.39	562.71
510.75	573.51
511.12	584.41
511.48	595.71
511.84	607.20
512.20	618.75
512.56	630.75
512.92	642.93
513.28	655.17
513.64	667.65
514.00	680.32
514.37	693.23
514.73	706.31
515.09	719.37
515.45	732.70
515.81	746.28
516.17	760.28
516.53	774.36
516.89	788.63
517.25	802.87
517.61	817.34
517.97	831.85
518.33	846.33
518.69	861.05
519.05	876.02
519.41	891.16
519.77	906.68
520.13	922.18
520.49	937.60
520.85	953.07
521.21	968.99
521.57	985.38
521.93	1001.19
522.29	1017.62
522.65	1033.93
523.01	1050.26
523.37	1066.26
523.73	1082.45
524.09	1098.52
524.45	1114.87
524.81	1131.51
525.17	1148.39
525.53	1165.35
525.89	1182.32
526.25	1199.24
526.61	1215.67
526.97	1232.41
527.33	1248.94
527.68	1265.56
528.04	1282.07
528.40	1298.74
528.76	1315.71
529.12	1332.34
529.48	1349.26
529.84	1365.46
530.20	1382.09
530.56	1399.14
530.91	1416.70
531.27	1433.59
531.63	1450.18
531.99	1466.79
532.35	1482.89
532.71	1498.85
533.07	1515.06
533.42	1530.96
533.78	1547.01
534.14	1563.35
534.50	1578.81
534.86	1594.80
535.21	1610.00
535.57	1625.96
535.93	1641.56
536.29	1656.38
536.65	1671.51
537.00	1686.54
537.36	1701.78
537.72	1716.40
538.08	1730.81
538.44	1744.54
538.79	1758.50
539.15	1772.32
539.51	1786.16
539.87	1800.53
540.22	1814.18
540.58	1828.11
540.94	1841.61
541.29	1854.77
541.65	1867.52
542.01	1880.87
542.37	1893.08
542.72	1905.70
543.08	1917.62
543.44	1930.00
543.79	1941.29
544.15	1952.22
544.51	1963.57
544.87	1974.60
545.22	1985.46
545.58	1995.64
545.94	2005.53
546.29	2015.50
546.65	2025.31
547.01	2034.49
547.36	2043.33
547.72	2051.85
548.07	2059.60
548.43	2067.81
548.79	2075.85
549.14	2083.49
549.50	2090.92
549.86	2098.90
550.21	2106.08
550.57	2113.35
550.92	2120.00
551.28	2127.13
551.64	2134.19
551.99	2140.91
552.35	2147.17
552.70	2153.32
553.06	2159.31
553.41	2165.73
553.77	2171.67
554.13	2177.88
554.48	2184.06
554.84	2189.31
555.19	2194.86
555.55	2199.99
555.90	2204.26
556.26	2209.07
556.61	2213.78
556.97	2217.78
557.32	2221.78
557.68	2225.97
558.03	2230.33
558.39	2234.02
558.74	2238.61
559.10	2242.61
559.45	2246.13
559.81	2250.35
560.16	2254.25
560.52	2257.57
560.87	2260.92
561.23	2263.64
561.58	2266.58
561.94	2269.05
562.29	2271.66
562.64	2274.26
563.00	2276.93
563.35	2280.56
563.71	2283.64
564.06	2286.87
564.42	2289.87
564.77	2292.36
565.12	2294.56
565.48	2296.28
565.83	2298.02
566.19	2299.41
566.54	2300.39
566.89	2301.67
567.25	2302.23
567.60	2303.47
567.96	2304.93
568.31	2305.72
568.66	2306.65
569.02	2307.07
569.37	2307.31
569.72	2307.98
570.08	2307.92
570.43	2308.00
570.78	2307.20
571.14	2305.58
571.49	2304.13
571.84	2303.71
572.20	2302.48
572.55	2301.47
572.90	2299.85
573.26	2298.49
573.61	2296.64
573.96	2294.73
574.31	2291.46
574.67	2288.27
575.02	2284.52
575.37	2281.17
575.72	2277.23
576.08	2273.87
576.43	2270.57
576.78	2266.86
577.13	2263.64
577.49	2260.56
577.84	2256.91
578.19	2253.16
578.54	2249.38
578.90	2245.03
579.25	2239.45
579.60	2234.27
579.95	2229.06
580.30	2224.04
580.66	2218.74
581.01	2213.63
581.36	2208.48
581.71	2204.29
582.06	2199.78
582.42	2195.24
582.77	2189.91
583.12	2185.25
583.47	2180.31
583.82	2175.02
584.17	2169.75
584.53	2164.07
584.88	2158.31
585.23	2152.30
585.58	2146.69
585.93	2141.19
586.28	2136.34
586.63	2131.18
586.98	2126.05
587.34	2121.33
587.69	2116.17
588.04	2110.90
588.39	2105.14
588.74	2098.67
589.09	2092.46
589.44	2085.59
589.79	2079.44
590.14	2073.74
590.49	2067.12
590.84	2060.66
591.19	2054.56
591.54	2048.04
591.89	2040.51
592.25	2033.58
592.60	2026.47
592.95	2018.79
593.30	2011.41
593.65	2003.72
594.00	1996.52
594.35	1989.29
594.70	1981.21
595.05	1973.92
595.40	1966.58
595.75	1958.94
596.10	1952.50
596.45	1945.68
596.80	1939.46
597.15	1932.75
597.50	1925.61
597.85	1919.23
598.19	1912.53
598.54	1905.39
598.89	1898.62
599.24	1892.70
599.59	1885.98
599.94	1879.71
600.29	1873.45
600.64	1866.86
600.99	1859.38
601.34	1852.62
601.69	1845.57
602.04	1838.53
602.39	1831.27
602.74	1824.44
603.08	1817.80
603.43	1811.20
603.78	1803.84
604.13	1796.71
604.48	1789.34
604.83	1782.55
605.18	1775.40
605.53	1767.37
605.87	1759.44
606.22	1752.22
606.57	1744.41
606.92	1737.08
607.27	1729.89
607.62	1722.90
607.96	1715.55
608.31	1708.90
608.66	1701.27
609.01	1693.67
609.36	1686.18
609.70	1678.03
610.05	1669.80
610.40	1662.17
610.75	1653.80
611.10	1646.15
611.44	1637.65
611.79	1629.71
612.14	1620.91
612.49	1611.78
612.83	1603.52
613.18	1595.41
613.53	1587.32
613.88	1578.70
614.22	1570.40
614.57	1561.83
614.92	1553.76
615.27	1546.15
615.61	1537.84
615.96	1529.80
616.31	1522.20
616.65	1514.81
617.00	1507.39
617.35	1499.89
617.70	1491.47
618.04	1482.92
618.39	1474.62
618.74	1467.02
619.08	1458.76
619.43	1451.18
619.78	1444.37
620.12	1437.07
620.47	1429.48
620.82	1421.30
621.16	1413.94
621.51	1406.39
621.85	1398.78
622.20	1390.32
622.55	1382.01
622.89	1374.14
623.24	1366.61
623.59	1359.21
623.93	1351.67
624.28	1344.30
624.62	1336.68
624.97	1329.56
625.32	1322.85
625.66	1315.92
626.01	1308.68
626.35	1301.19
626.70	1293.54
627.04	1285.68
627.39	1278.02
627.73	1270.64
628.08	1263.74
628.43	1256.32
628.77	1248.78
629.12	1241.12
629.46	1233.90
629.81	1226.59
630.15	1219.29
630.50	1211.78
630.84	1203.62
631.19	1195.75
631.53	1188.32
631.88	1180.76
632.22	1173.13
632.57	1165.74
632.91	1158.08
633.26	1150.85
633.60	1143.59
633.95	1136.40
634.29	1129.45
634.64	1122.76
634.98	1115.35
635.32	1108.18
635.67	1101.64
636.01	1095.13
636.36	1088.32
636.70	1081.95
637.05	1075.24
637.39	1068.92
637.73	1062.34
638.08	1056.53
638.42	1050.51
638.77	1044.11
639.11	1037.49
639.45	1031.08
639.80	1024.43
640.14	1018.15
640.49	1011.53
640.83	1005.15
641.17	998.92
641.52	992.53
641.86	986.11
642.20	980.34
642.55	974.08
642.89	967.57
643.23	961.04
643.58	955.29
643.92	949.00
644.26	942.97
644.61	936.98
644.95	930.95
645.29	924.24
645.64	917.46
645.98	911.10
646.32	905.31
646.66	899.28
647.01	893.53
647.35	887.79
647.69	881.98
648.04	876.51
648.38	870.73
648.72	864.84
649.06	858.78
649.41	852.84
649.75	846.81
650.09	840.91
650.43	835.19
650.78	829.05
651.12	823.09
651.46	817.40
651.80	811.52
652.14	806.25
652.49	800.91
652.83	795.78
653.17	790.11
653.51	784.32
653.85	778.97
654.20	773.33
654.54	767.31
654.88	761.52
655.22	755.62
655.56	749.96
655.90	744.48
656.25	739.21
656.59	733.91
656.93	728.91
657.27	723.76
657.61	718.28
657.95	713.12
658.29	707.98
658.64	702.73
658.98	697.50
659.32	691.99
659.66	686.80
660.00	681.47
660.34	676.57
660.68	671.72
661.02	666.68
661.36	661.96
661.70	657.49
662.05	653.17
662.39	648.86
662.73	644.40
663.07	640.04
663.41	635.56
663.75	631.01
664.09	626.46
664.43	622.06
664.77	617.92
665.11	613.73
665.45	609.68
665.79	605.63
666.13	601.56
666.47	597.43
666.81	593.28
667.15	589.23
667.49	585.32
667.83	581.54
668.17	577.57
668.51	573.56
668.85	569.53
669.19	565.66
669.53	561.81
669.87	557.87
670.21	554.18
670.55	550.55
670.89	547.16
671.23	543.68
671.57	540.20
671.91	536.70
672.25	533.25
672.58	529.74
672.92	526.34
673.26	523.20
673.60	520.08
673.94	516.98
674.28	514.07
674.62	511.11
674.96	508.02
675.30	505.11
675.64	502.17
675.97	499.42
676.31	496.58
676.65	493.65
676.99	491.03
677.33	488.21
677.67	485.44
678.01	482.47
678.34	479.48
678.68	476.61
679.02	473.81
679.36	471.05
679.70	468.35
680.04	465.60
680.37	462.70
680.71	459.94
681.05	457.32
681.39	454.61
681.73	452.01
682.06	449.43
682.40	446.88
682.74	444.33
683.08	441.84
683.42	439.30
683.75	436.83
684.09	434.28
684.43	431.75
684.77	429.28
685.10	426.90
685.44	424.68
685.78	422.42
686.12	420.20
686.45	417.94
686.79	415.65
687.13	413.44
687.46	411.32
687.80	409.18
688.14	407.01
688.48	405.00
688.81	402.71
689.15	400.57
689.49	398.43
689.82	396.38
690.16	394.27
690.50	392.33
690.83	390.39
691.17	388.44
691.51	386.58
691.84	384.76
692.18	382.85
692.52	380.81
692.85	378.90
693.19	377.01
693.52	375.22
693.86	373.42
694.20	371.68
694.53	369.81
694.87	367.97
695.21	366.24
695.54	364.39
695.88	362.67
696.21	360.96
696.55	359.32
696.88	357.69
697.22	356.05
697.56	354.41
697.89	352.72
698.23	351.09
698.56	349.47
698.90	347.90
699.23	346.23
699.57	344.71
699.90	343.15
700.24	341.61
700.58	340.06
700.91	338.57
701.25	337.09
701.58	335.76
701.92	334.39
702.25	332.98
702.59	331.59
702.92	330.29
703.26	329.00
703.59	327.73
703.93	326.55
704.26	325.28
704.60	323.96
704.93	322.73
705.26	321.50
705.60	320.33
705.93	319.12
706.27	318.13
706.60	317.08
706.94	315.99
707.27	314.82
707.61	313.78
707.94	312.74
708.27	311.64
708.61	310.57
708.94	309.59
709.28	308.61
709.61	307.67
709.94	306.70
710.28	305.68
710.61	304.72
710.95	303.61
711.28	302.75
711.61	301.82
711.95	300.88
712.28	299.96
712.61	298.98
712.95	298.06
713.28	297.17
713.61	296.24
713.95	295.34
714.28	294.53
714.61	293.65
714.95	292.77
715.28	291.95
715.61	291.09
715.95	290.20
716.28	289.33
716.61	288.50
716.95	287.69
717.28	286.93
717.61	286.18
717.94	285.47
718.28	284.63
718.61	283.92
718.94	283.23
719.27	282.58
719.61	281.93
719.94	281.30
720.27	280.59
720.60	279.99
720.94	279.39
721.27	278.81
721.60	278.24
721.93	277.71
722.27	277.17
722.60	276.63
722.93	276.08
723.26	275.56
723.59	275.00
723.93	274.49
724.26	273.97
724.59	273.39
724.92	272.83
725.25	272.34
725.59	271.81
725.92	271.30
726.25	270.77
726.58	270.30
726.91	269.78
727.24	269.31
727.57	268.80
727.91	268.28
728.24	267.85
728.57	267.35
728.90	266.87
729.23	266.34
729.56	265.94
729.89	265.50
730.22	265.02
730.55	264.55
730.89	264.06
731.22	263.60
731.55	263.20
731.88	262.80
732.21	262.36
732.54	261.93
732.87	261.51
733.20	261.12
733.53	260.71
733.86	260.38
734.19	259.96
734.52	259.59
734.85	259.30
735.18	258.86
735.51	258.52
735.84	258.19
736.17	257.87
736.50	257.42
736.83	257.18
737.16	256.87
737.49	256.55
737.82	256.25
738.15	255.93
738.48	255.59
738.81	255.25
739.14	254.93
739.47	254.64
739.80	254.35
740.13	254.03
740.46	253.74
740.79	253.43
741.12	253.17
741.45	252.85
741.78	252.46
742.11	252.15
742.44	251.82
742.77	251.52
743.10	251.23
743.43	250.99
743.75	250.66
744.08	250.50
744.41	250.22
744.74	249.95
745.07	249.68
745.40	249.43
745.73	249.21
746.06	248.92
746.39	248.69
746.71	248.45
747.04	248.17
747.37	247.91
747.70	247.62
748.03	247.34
748.36	247.14
748.68	246.94
749.01	246.72
749.34	246.50
749.67	246.21
750.00	245.98
750.33	245.79
750.65	245.48
750.98	245.14
751.31	244.97
751.64	244.75
751.97	244.58
752.29	244.33
752.62	244.06
752.95	243.87
753.28	243.60
753.60	243.37
753.93	243.20
754.26	242.99
754.59	242.75
754.91	242.52
755.24	242.31
755.57	242.11
755.90	241.95
756.22	241.73
756.55	241.55
756.88	241.36
757.20	241.11
757.53	240.93
757.86	240.77
758.19	240.55
758.51	240.35
758.84	240.09
759.17	239.90
759.49	239.75
759.82	239.62
760.15	239.48
760.47	239.32
760.80	239.11
761.13	238.98
761.45	238.82
761.78	238.69
762.11	238.54
762.43	238.35
762.76	238.17
763.08	238.06
763.41	237.92
763.74	237.76
764.06	237.64
764.39	237.47
764.71	237.29
765.04	237.14
765.37	237.01
765.69	236.94
766.02	236.84
766.34	236.71
766.67	236.59
767.00	236.47
767.32	236.41
767.65	236.38
767.97	236.25
768.30	236.17
768.62	236.07
768.95	235.94
769.27	235.87
769.60	235.78
769.92	235.63
770.25	235.51
770.57	235.43
770.90	235.31
771.22	235.24
771.55	235.15
771.87	235.08
772.20	235.02
772.52	234.96
772.85	234.96
773.17	234.91
773.50	234.80
773.82	234.71
774.15	234.58
774.47	234.45
774.80	234.35
775.12	234.27
775.45	234.20
775.77	234.16
776.09	234.07
776.42	233.99
776.74	233.95
777.07	233.88
777.39	233.80
777.72	233.76
778.04	233.70
778.36	233.64
778.69	233.58
779.01	233.51
779.33	233.36
779.66	233.21
779.98	233.10
780.31	233.04
780.63	233.04
780.95	232.98
781.28	232.92
781.60	232.84
781.92	232.78
782.25	232.74
782.57	232.65
782.89	232.58
783.22	232.54
783.54	232.47
783.86	232.45
784.19	232.38
784.51	232.36
784.83	232.29
785.16	232.22
785.48	232.15
785.80	232.11
786.12	232.08
786.45	232.04
786.77	232.00
787.09	231.94
