SpectraSuite Data File
++++++++++++++++++++++++++++++++++++
Date: Fri Feb 01 15:13:49 EST 2013
User: group
Dark Spectrum Present: No
Reference Spectrum Present: No
Number of Sampled Component Spectra: 1
Spectrometers: USB2E7196
Integration Time (usec): 35000 (USB2E7196)
Spectra Averaged: 100 (USB2E7196)
Boxcar Smoothing: 10 (USB2E7196)
Correct for Electrical Dark: No (USB2E7196)
Strobe/Lamp Enabled: No (USB2E7196)
Correct for Detector Non-linearity: No (USB2E7196)
Correct for Stray Light: No (USB2E7196)
Number of Pixels in Processed Spectrum: 2048
>>>>>Begin Processed Spectral Data<<<<<
339.09	0.00
339.48	215.14
339.86	216.67
340.24	217.71
340.63	218.84
341.01	222.53
341.39	221.65
341.78	223.72
342.16	224.38
342.54	225.26
342.93	213.50
343.31	224.31
343.69	224.86
344.07	225.35
344.46	225.79
344.84	226.19
345.22	226.42
345.60	226.69
345.99	226.87
346.37	227.04
346.75	227.13
347.13	227.19
347.52	227.26
347.90	227.32
348.28	227.35
348.66	227.38
349.05	227.38
349.43	227.41
349.81	227.42
350.19	227.46
350.57	227.56
350.96	227.62
351.34	227.70
351.72	227.75
352.10	227.82
352.48	227.87
352.87	227.92
353.25	227.97
353.63	228.02
354.01	228.03
354.39	228.09
354.77	228.17
355.15	228.26
355.54	228.30
355.92	228.34
356.30	228.41
356.68	228.55
357.06	228.59
357.44	228.61
357.82	228.71
358.20	228.79
358.58	228.83
358.97	228.89
359.35	228.94
359.73	229.04
360.11	229.08
360.49	229.15
360.87	229.16
361.25	229.25
361.63	229.30
362.01	229.37
362.39	229.36
362.77	229.38
363.15	229.41
363.53	229.45
363.91	229.47
364.29	229.48
364.67	229.37
365.05	229.37
365.43	229.41
365.81	229.40
366.19	229.42
366.57	229.45
366.95	229.42
367.33	229.41
367.71	229.40
368.09	229.39
368.47	229.36
368.85	229.38
369.23	229.33
369.61	229.27
369.99	229.25
370.37	229.26
370.75	229.30
371.13	229.25
371.51	229.20
371.89	229.16
372.27	229.13
372.65	229.09
373.03	229.07
373.41	229.04
373.78	229.00
374.16	228.91
374.54	228.81
374.92	228.76
375.30	228.66
375.68	228.57
376.06	228.49
376.44	228.42
376.82	228.35
377.19	228.29
377.57	228.24
377.95	228.18
378.33	228.08
378.71	227.94
379.09	227.91
379.47	227.83
379.84	227.75
380.22	227.64
380.60	227.60
380.98	227.54
381.36	227.45
381.73	227.32
382.11	227.25
382.49	227.20
382.87	227.13
383.25	227.10
383.62	227.16
384.00	227.10
384.38	227.05
384.76	227.02
385.13	226.99
385.51	226.97
385.89	226.91
386.27	226.88
386.64	226.85
387.02	226.77
387.40	226.74
387.78	226.71
388.15	226.69
388.53	226.64
388.91	226.59
389.29	226.57
389.66	226.57
390.04	226.56
390.42	226.55
390.79	226.54
391.17	226.55
391.55	226.42
391.92	226.43
392.30	226.45
392.68	226.44
393.05	226.45
393.43	226.44
393.81	226.44
394.18	226.43
394.56	226.46
394.94	226.49
395.31	226.50
395.69	226.53
396.06	226.58
396.44	226.60
396.82	226.64
397.19	226.71
397.57	226.75
397.95	226.81
398.32	226.87
398.70	226.92
399.07	226.98
399.45	227.03
399.82	227.10
400.20	227.16
400.58	227.26
400.95	227.26
401.33	227.39
401.70	227.55
402.08	227.65
402.45	227.73
402.83	227.88
403.20	228.01
403.58	228.15
403.95	228.29
404.33	228.45
404.71	228.63
405.08	228.81
405.46	228.97
405.83	229.10
406.21	229.23
406.58	229.41
406.96	229.59
407.33	229.80
407.70	229.98
408.08	230.26
408.45	230.47
408.83	230.72
409.20	230.89
409.58	231.06
409.95	231.35
410.33	231.62
410.70	231.86
411.08	232.18
411.45	232.47
411.82	232.81
412.20	233.18
412.57	233.55
412.95	233.82
413.32	234.20
413.69	234.62
414.07	235.08
414.44	235.55
414.82	236.02
415.19	236.60
415.56	237.18
415.94	237.72
416.31	238.37
416.68	239.04
417.06	239.79
417.43	240.47
417.81	241.23
418.18	242.02
418.55	242.85
418.93	243.73
419.30	244.62
419.67	245.55
420.04	246.49
420.42	247.49
420.79	248.73
421.16	249.93
421.54	251.14
421.91	252.36
422.28	253.61
422.66	254.97
423.03	256.24
423.40	257.57
423.77	258.98
424.15	260.39
424.52	261.88
424.89	263.47
425.26	265.04
425.64	266.51
426.01	268.13
426.38	269.80
426.75	271.44
427.13	273.18
427.50	274.94
427.87	276.81
428.24	278.69
428.61	280.39
428.99	282.33
429.36	284.42
429.73	286.48
430.10	288.50
430.47	290.53
430.85	292.67
431.22	294.94
431.59	297.30
431.96	299.58
432.33	302.08
432.70	304.48
433.08	307.32
433.45	309.95
433.82	312.60
434.19	315.50
434.56	318.38
434.93	321.02
435.30	323.66
435.68	326.58
436.05	329.41
436.42	332.22
436.79	334.76
437.16	337.43
437.53	340.23
437.90	343.05
438.27	345.83
438.64	348.65
439.01	351.19
439.38	353.46
439.75	355.65
440.13	358.13
440.50	360.46
440.87	362.29
441.24	364.22
441.61	366.36
441.98	367.84
442.35	369.62
442.72	371.47
443.09	373.33
443.46	374.28
443.83	374.85
444.20	375.37
444.57	376.19
444.94	376.50
445.31	376.87
445.68	377.23
446.05	377.32
446.42	376.98
446.79	376.60
447.16	376.13
447.53	375.79
447.90	374.61
448.27	373.44
448.64	371.85
449.01	370.71
449.37	368.76
449.74	366.86
450.11	364.61
450.48	362.12
450.85	359.53
451.22	357.39
451.59	355.38
451.96	353.44
452.33	350.81
452.70	348.45
453.07	345.60
453.43	342.66
453.80	339.84
454.17	337.12
454.54	334.54
454.91	331.82
455.28	329.11
455.65	326.62
456.02	324.20
456.38	322.04
456.75	319.37
457.12	317.07
457.49	314.84
457.86	312.66
458.23	310.82
458.59	308.79
458.96	306.71
459.33	304.86
459.70	302.98
460.07	301.51
460.43	299.78
460.80	298.17
461.17	296.77
461.54	295.30
461.91	293.85
462.27	292.41
462.64	291.17
463.01	289.84
463.38	288.54
463.74	287.14
464.11	285.97
464.48	284.95
464.85	283.80
465.21	282.89
465.58	281.95
465.95	280.85
466.32	279.92
466.68	279.00
467.05	278.08
467.42	277.16
467.78	276.16
468.15	275.31
468.52	274.64
468.88	273.75
469.25	272.94
469.62	272.33
469.98	271.68
470.35	271.01
470.72	270.37
471.08	269.70
471.45	269.16
471.82	268.60
472.18	268.00
472.55	267.55
472.92	267.03
473.28	266.60
473.65	266.16
474.02	265.72
474.38	265.36
474.75	265.07
475.11	264.71
475.48	264.48
475.85	264.24
476.21	264.00
476.58	263.80
476.94	263.66
477.31	263.44
477.67	263.26
478.04	263.17
478.41	263.12
478.77	263.15
479.14	263.04
479.50	263.04
479.87	263.10
480.23	263.20
480.60	263.27
480.96	263.34
481.33	263.53
481.69	263.69
482.06	263.86
482.42	264.02
482.79	264.29
483.15	264.58
483.52	264.94
483.88	265.29
484.25	265.64
484.61	266.11
484.98	266.55
485.34	267.09
485.71	267.65
486.07	268.27
486.44	268.86
486.80	269.58
487.17	270.31
487.53	271.09
487.90	271.91
488.26	272.81
488.62	273.83
488.99	274.81
489.35	275.86
489.72	277.03
490.08	278.24
490.44	279.45
490.81	280.79
491.17	282.15
491.54	283.62
491.90	285.18
492.26	286.75
492.63	288.48
492.99	290.26
493.36	292.17
493.72	294.21
494.08	296.27
494.45	298.51
494.81	300.86
495.17	303.31
495.54	305.90
495.90	308.59
496.26	311.33
496.63	314.26
496.99	317.38
497.35	320.58
497.72	323.96
498.08	327.47
498.44	331.11
498.80	335.02
499.17	339.04
499.53	343.19
499.89	347.61
500.26	352.10
500.62	356.79
500.98	361.71
501.34	366.75
501.71	372.09
502.07	377.52
502.43	383.15
502.79	388.97
503.16	395.10
503.52	401.35
503.88	407.78
504.24	414.38
504.60	421.26
504.97	428.39
505.33	435.67
505.69	443.36
506.05	451.18
506.41	459.10
506.78	467.21
507.14	475.70
507.50	484.41
507.86	493.47
508.22	502.63
508.59	511.88
508.95	521.51
509.31	531.26
509.67	541.34
510.03	551.65
510.39	562.12
510.75	572.92
511.12	583.88
511.48	595.22
511.84	606.67
512.20	618.20
512.56	630.11
512.92	642.39
513.28	654.71
513.64	667.20
514.00	679.91
514.37	692.93
514.73	705.96
515.09	719.01
515.45	732.29
515.81	745.93
516.17	759.94
516.53	774.06
516.89	788.31
517.25	802.49
517.61	816.93
517.97	831.51
518.33	845.95
518.69	860.84
519.05	875.86
519.41	891.18
519.77	906.72
520.13	922.32
520.49	937.73
520.85	953.27
521.21	968.96
521.57	985.24
521.93	1000.97
522.29	1017.44
522.65	1033.72
523.01	1049.96
523.37	1066.03
523.73	1082.20
524.09	1098.30
524.45	1114.65
524.81	1131.39
525.17	1148.25
525.53	1165.13
525.89	1182.03
526.25	1198.82
526.61	1215.19
526.97	1231.91
527.33	1248.43
527.68	1265.02
528.04	1281.53
528.40	1298.15
528.76	1315.29
529.12	1331.92
529.48	1348.87
529.84	1364.98
530.20	1381.71
530.56	1398.88
530.91	1416.31
531.27	1433.14
531.63	1449.68
531.99	1466.40
532.35	1482.40
532.71	1498.27
533.07	1514.56
533.42	1530.57
533.78	1546.67
534.14	1563.04
534.50	1578.41
534.86	1594.46
535.21	1609.70
535.57	1625.76
535.93	1641.35
536.29	1656.28
536.65	1671.46
537.00	1686.38
537.36	1701.75
537.72	1716.36
538.08	1730.78
538.44	1744.73
538.79	1758.76
539.15	1772.55
539.51	1786.27
539.87	1800.77
540.22	1814.71
540.58	1828.60
540.94	1842.16
541.29	1855.25
541.65	1868.05
542.01	1881.38
542.37	1893.76
542.72	1906.20
543.08	1918.01
543.44	1930.36
543.79	1941.66
544.15	1952.68
544.51	1964.28
544.87	1975.22
545.22	1986.10
545.58	1996.39
545.94	2006.27
546.29	2016.20
546.65	2026.00
547.01	2035.28
547.36	2044.05
547.72	2052.48
548.07	2060.37
548.43	2068.38
548.79	2076.40
549.14	2083.90
549.50	2091.29
549.86	2098.92
550.21	2106.29
550.57	2113.55
550.92	2120.32
551.28	2127.37
551.64	2134.48
551.99	2141.12
552.35	2147.37
552.70	2153.46
553.06	2159.46
553.41	2165.63
553.77	2171.67
554.13	2177.86
554.48	2184.11
554.84	2189.42
555.19	2194.87
555.55	2200.04
555.90	2204.47
556.26	2209.34
556.61	2214.09
556.97	2218.29
557.32	2222.54
557.68	2226.71
558.03	2230.95
558.39	2234.64
558.74	2239.20
559.10	2242.98
559.45	2246.45
559.81	2250.67
560.16	2254.38
560.52	2257.70
560.87	2261.13
561.23	2263.71
561.58	2266.71
561.94	2269.15
562.29	2271.57
562.64	2274.15
563.00	2276.78
563.35	2280.28
563.71	2283.27
564.06	2286.39
564.42	2289.19
564.77	2291.58
565.12	2293.67
565.48	2295.44
565.83	2297.16
566.19	2298.52
566.54	2299.53
566.89	2300.67
567.25	2301.30
567.60	2302.72
567.96	2304.29
568.31	2305.02
568.66	2306.06
569.02	2306.49
569.37	2306.59
569.72	2307.35
570.08	2307.28
570.43	2307.00
570.78	2306.18
571.14	2304.56
571.49	2303.01
571.84	2302.72
572.20	2301.35
572.55	2300.27
572.90	2298.74
573.26	2297.18
573.61	2295.14
573.96	2293.14
574.31	2290.13
574.67	2286.88
575.02	2283.13
575.37	2279.52
575.72	2275.61
576.08	2272.25
576.43	2268.77
576.78	2265.18
577.13	2261.93
577.49	2258.81
577.84	2255.46
578.19	2251.72
578.54	2247.94
578.90	2243.64
579.25	2237.97
579.60	2232.81
579.95	2227.79
580.30	2222.56
580.66	2217.36
581.01	2212.47
581.36	2207.37
581.71	2203.09
582.06	2198.55
582.42	2194.02
582.77	2188.64
583.12	2184.07
583.47	2179.08
583.82	2174.02
584.17	2168.61
584.53	2162.98
584.88	2157.16
585.23	2151.14
585.58	2145.57
585.93	2140.16
586.28	2135.54
586.63	2130.34
586.98	2125.32
587.34	2120.52
587.69	2115.65
588.04	2110.30
588.39	2104.44
588.74	2098.14
589.09	2091.86
589.44	2085.04
589.79	2078.82
590.14	2073.11
590.49	2066.54
590.84	2060.13
591.19	2054.08
591.54	2047.75
591.89	2040.30
592.25	2033.54
592.60	2026.39
592.95	2018.80
593.30	2011.33
593.65	2003.59
594.00	1996.47
594.35	1989.28
594.70	1981.19
595.05	1973.75
595.40	1966.33
595.75	1958.76
596.10	1952.28
596.45	1945.44
596.80	1939.15
597.15	1932.42
597.50	1925.32
597.85	1918.72
598.19	1912.02
598.54	1904.84
598.89	1898.02
599.24	1892.09
599.59	1885.29
599.94	1878.94
600.29	1872.54
600.64	1865.91
600.99	1858.33
601.34	1851.33
601.69	1844.13
602.04	1837.14
602.39	1829.82
602.74	1823.16
603.08	1816.45
603.43	1809.67
603.78	1802.42
604.13	1795.21
604.48	1787.88
604.83	1781.05
605.18	1774.00
605.53	1765.94
605.87	1757.87
606.22	1750.54
606.57	1742.50
606.92	1735.13
607.27	1727.90
607.62	1721.00
607.96	1713.66
608.31	1707.05
608.66	1699.50
609.01	1692.04
609.36	1684.51
609.70	1676.55
610.05	1668.29
610.40	1660.59
610.75	1652.36
611.10	1644.60
611.44	1636.27
611.79	1628.24
612.14	1619.56
612.49	1610.44
612.83	1602.10
613.18	1594.02
613.53	1585.90
613.88	1577.43
614.22	1569.23
614.57	1560.74
614.92	1552.71
615.27	1545.14
615.61	1536.79
615.96	1528.84
616.31	1521.19
616.65	1513.82
617.00	1506.22
617.35	1498.61
617.70	1490.24
618.04	1481.59
618.39	1473.32
618.74	1465.64
619.08	1457.38
619.43	1449.83
619.78	1442.87
620.12	1435.65
620.47	1428.00
620.82	1419.86
621.16	1412.46
621.51	1404.80
621.85	1397.10
622.20	1388.53
622.55	1380.20
622.89	1372.37
623.24	1364.72
623.59	1357.39
623.93	1349.91
624.28	1342.72
624.62	1335.13
624.97	1328.03
625.32	1321.46
625.66	1314.50
626.01	1307.36
626.35	1299.95
626.70	1292.12
627.04	1284.46
627.39	1276.79
627.73	1269.46
628.08	1262.51
628.43	1255.21
628.77	1247.83
629.12	1240.29
629.46	1233.14
629.81	1225.79
630.15	1218.57
630.50	1211.12
630.84	1202.90
631.19	1194.95
631.53	1187.38
631.88	1179.90
632.22	1172.32
632.57	1164.86
632.91	1157.36
633.26	1149.95
633.60	1142.69
633.95	1135.68
634.29	1128.62
634.64	1121.98
634.98	1114.65
635.32	1107.57
635.67	1101.02
636.01	1094.46
636.36	1087.62
636.70	1081.20
637.05	1074.64
637.39	1068.20
637.73	1061.77
638.08	1055.90
638.42	1049.99
638.77	1043.65
639.11	1037.05
639.45	1030.67
639.80	1024.08
640.14	1017.64
640.49	1011.17
640.83	1004.85
641.17	998.57
641.52	992.33
641.86	985.91
642.20	980.14
642.55	973.94
642.89	967.49
643.23	961.00
643.58	955.26
643.92	948.95
644.26	942.88
644.61	936.86
644.95	930.86
645.29	924.26
645.64	917.49
645.98	911.13
646.32	905.40
646.66	899.29
647.01	893.55
647.35	887.90
647.69	882.07
648.04	876.58
648.38	870.79
648.72	864.67
649.06	858.52
649.41	852.51
649.75	846.38
650.09	840.32
650.43	834.48
650.78	828.37
651.12	822.50
651.46	816.73
651.80	810.96
652.14	805.57
652.49	800.29
652.83	795.08
653.17	789.32
653.51	783.48
653.85	778.10
654.20	772.44
654.54	766.48
654.88	760.72
655.22	754.85
655.56	749.21
655.90	743.84
656.25	738.61
656.59	733.35
656.93	728.38
657.27	723.26
657.61	717.76
657.95	712.71
658.29	707.64
658.64	702.48
658.98	697.19
659.32	691.68
659.66	686.46
660.00	681.15
660.34	676.26
660.68	671.43
661.02	666.47
661.36	661.76
661.70	657.23
662.05	652.78
662.39	648.43
662.73	644.00
663.07	639.55
663.41	635.17
663.75	630.69
664.09	626.14
664.43	621.77
664.77	617.78
665.11	613.52
665.45	609.37
665.79	605.29
666.13	601.23
666.47	597.24
666.81	593.01
667.15	588.95
667.49	585.10
667.83	581.28
668.17	577.34
668.51	573.31
668.85	569.30
669.19	565.57
669.53	561.66
669.87	557.80
670.21	554.21
670.55	550.62
670.89	547.17
671.23	543.74
671.57	540.28
671.91	536.74
672.25	533.28
672.58	529.82
672.92	526.47
673.26	523.35
673.60	520.24
673.94	517.21
674.28	514.31
674.62	511.36
674.96	508.29
675.30	505.39
675.64	502.48
675.97	499.77
676.31	496.91
676.65	494.06
676.99	491.35
677.33	488.47
677.67	485.61
678.01	482.54
678.34	479.58
678.68	476.75
679.02	473.91
679.36	471.15
679.70	468.45
680.04	465.66
680.37	462.72
680.71	459.92
681.05	457.35
681.39	454.64
681.73	452.03
682.06	449.52
682.40	446.97
682.74	444.48
683.08	441.92
683.42	439.32
683.75	436.84
684.09	434.31
684.43	431.90
684.77	429.49
685.10	427.20
685.44	424.86
685.78	422.57
686.12	420.39
686.45	418.11
686.79	415.79
687.13	413.61
687.46	411.52
687.80	409.34
688.14	407.13
688.48	405.06
688.81	402.81
689.15	400.60
689.49	398.47
689.82	396.42
690.16	394.33
690.50	392.40
690.83	390.42
691.17	388.43
691.51	386.47
691.84	384.59
692.18	382.63
692.52	380.66
692.85	378.73
693.19	376.83
693.52	375.01
693.86	373.22
694.20	371.42
694.53	369.63
694.87	367.81
695.21	366.00
695.54	364.20
695.88	362.48
696.21	360.77
696.55	359.08
696.88	357.38
697.22	355.72
697.56	354.12
697.89	352.50
698.23	350.96
698.56	349.34
698.90	347.75
699.23	346.12
699.57	344.58
699.90	343.06
700.24	341.53
700.58	339.96
700.91	338.45
701.25	337.00
701.58	335.61
701.92	334.25
702.25	332.88
702.59	331.49
702.92	330.19
703.26	328.89
703.59	327.63
703.93	326.47
704.26	325.24
704.60	323.93
704.93	322.64
705.26	321.37
705.60	320.21
705.93	319.05
706.27	318.05
706.60	317.02
706.94	315.93
707.27	314.80
707.61	313.79
707.94	312.73
708.27	311.70
708.61	310.60
708.94	309.62
709.28	308.65
709.61	307.69
709.94	306.70
710.28	305.68
710.61	304.70
710.95	303.62
711.28	302.72
711.61	301.77
711.95	300.82
712.28	299.87
712.61	298.90
712.95	297.99
713.28	297.09
713.61	296.18
713.95	295.30
714.28	294.48
714.61	293.57
714.95	292.75
715.28	291.88
715.61	291.02
715.95	290.13
716.28	289.27
716.61	288.44
716.95	287.67
717.28	286.96
717.61	286.23
717.94	285.49
718.28	284.66
718.61	283.93
718.94	283.27
719.27	282.65
719.61	282.03
719.94	281.39
720.27	280.71
720.60	280.05
720.94	279.43
721.27	278.84
721.60	278.30
721.93	277.72
722.27	277.18
722.60	276.63
722.93	276.07
723.26	275.56
723.59	275.04
723.93	274.52
724.26	273.95
724.59	273.38
724.92	272.88
725.25	272.43
725.59	271.92
725.92	271.42
726.25	270.90
726.58	270.40
726.91	269.94
727.24	269.45
727.57	269.00
727.91	268.52
728.24	268.04
728.57	267.53
728.90	267.10
729.23	266.61
729.56	266.21
729.89	265.77
730.22	265.25
730.55	264.76
730.89	264.29
731.22	263.86
731.55	263.42
731.88	263.01
732.21	262.50
732.54	262.05
732.87	261.65
733.20	261.26
733.53	260.87
733.86	260.45
734.19	260.04
734.52	259.66
734.85	259.30
735.18	258.89
735.51	258.55
735.84	258.16
736.17	257.76
736.50	257.35
736.83	257.12
737.16	256.81
737.49	256.49
737.82	256.15
738.15	255.83
738.48	255.46
738.81	255.14
739.14	254.84
739.47	254.56
739.80	254.22
740.13	253.87
740.46	253.50
740.79	253.17
741.12	252.86
741.45	252.53
741.78	252.20
742.11	251.88
742.44	251.56
742.77	251.29
743.10	251.04
743.43	250.72
743.75	250.27
744.08	250.09
744.41	249.79
744.74	249.50
745.07	249.20
745.40	248.99
745.73	248.75
746.06	248.51
746.39	248.22
746.71	247.94
747.04	247.72
747.37	247.51
747.70	247.26
748.03	247.01
748.36	246.80
748.68	246.55
749.01	246.32
749.34	246.07
749.67	245.81
750.00	245.55
750.33	245.39
750.65	245.21
750.98	244.88
751.31	244.67
751.64	244.47
751.97	244.30
752.29	244.09
752.62	243.83
752.95	243.61
753.28	243.43
753.60	243.27
753.93	243.12
754.26	242.89
754.59	242.68
754.91	242.52
755.24	242.30
755.57	242.13
755.90	241.97
756.22	241.81
756.55	241.63
756.88	241.46
757.20	241.24
757.53	241.06
757.86	240.92
758.19	240.79
758.51	240.63
758.84	240.43
759.17	240.24
759.49	240.07
759.82	239.96
760.15	239.76
760.47	239.58
760.80	239.37
761.13	239.25
761.45	239.09
761.78	238.90
762.11	238.79
762.43	238.63
762.76	238.49
763.08	238.34
763.41	238.21
763.74	238.07
764.06	237.96
764.39	237.84
764.71	237.68
765.04	237.50
765.37	237.36
765.69	237.24
766.02	237.12
766.34	237.01
766.67	236.87
767.00	236.81
767.32	236.76
767.65	236.72
767.97	236.61
768.30	236.53
768.62	236.44
768.95	236.31
769.27	236.21
769.60	236.11
769.92	236.00
770.25	235.90
770.57	235.78
770.90	235.65
771.22	235.53
771.55	235.44
771.87	235.41
772.20	235.29
772.52	235.27
772.85	235.31
773.17	235.18
773.50	235.08
773.82	234.99
774.15	234.84
774.47	234.68
774.80	234.56
775.12	234.46
775.45	234.38
775.77	234.32
776.09	234.21
776.42	234.12
776.74	234.08
777.07	233.98
777.39	233.88
777.72	233.78
778.04	233.73
778.36	233.65
778.69	233.53
779.01	233.49
779.33	233.35
779.66	233.16
779.98	233.11
780.31	233.02
780.63	232.97
780.95	232.88
781.28	232.78
781.60	232.72
781.92	232.64
782.25	232.55
782.57	232.49
782.89	232.43
783.22	232.38
783.54	232.29
783.86	232.22
784.19	232.19
784.51	232.16
784.83	232.09
785.16	232.03
785.48	231.99
785.80	231.93
786.12	231.87
786.45	231.81
786.77	231.77
787.09	231.69
