SpectraSuite Data File
++++++++++++++++++++++++++++++++++++
Date: Fri Feb 01 15:16:07 EST 2013
User: group
Dark Spectrum Present: No
Reference Spectrum Present: No
Number of Sampled Component Spectra: 1
Spectrometers: USB2E7196
Integration Time (usec): 35000 (USB2E7196)
Spectra Averaged: 100 (USB2E7196)
Boxcar Smoothing: 10 (USB2E7196)
Correct for Electrical Dark: No (USB2E7196)
Strobe/Lamp Enabled: No (USB2E7196)
Correct for Detector Non-linearity: No (USB2E7196)
Correct for Stray Light: No (USB2E7196)
Number of Pixels in Processed Spectrum: 2048
>>>>>Begin Processed Spectral Data<<<<<
339.09	0.00
339.48	215.09
339.86	216.59
340.24	217.85
340.63	219.61
341.01	222.44
341.39	221.59
341.78	223.35
342.16	224.21
342.54	225.21
342.93	213.39
343.31	224.19
343.69	224.74
344.07	225.17
344.46	225.61
344.84	225.94
345.22	226.14
345.60	226.41
345.99	226.55
346.37	226.70
346.75	226.80
347.13	226.89
347.52	226.88
347.90	226.96
348.28	226.97
348.66	227.02
349.05	227.00
349.43	227.04
349.81	227.10
350.19	227.11
350.57	227.14
350.96	227.20
351.34	227.27
351.72	227.36
352.10	227.48
352.48	227.52
352.87	227.57
353.25	227.64
353.63	227.70
354.01	227.76
354.39	227.85
354.77	227.89
355.15	227.98
355.54	228.10
355.92	228.17
356.30	228.24
356.68	228.36
357.06	228.44
357.44	228.50
357.82	228.55
358.20	228.66
358.58	228.70
358.97	228.77
359.35	228.84
359.73	228.93
360.11	228.97
360.49	229.04
360.87	229.08
361.25	229.15
361.63	229.22
362.01	229.29
362.39	229.31
362.77	229.38
363.15	229.41
363.53	229.43
363.91	229.46
364.29	229.48
364.67	229.39
365.05	229.44
365.43	229.43
365.81	229.44
366.19	229.51
366.57	229.59
366.95	229.58
367.33	229.55
367.71	229.51
368.09	229.52
368.47	229.53
368.85	229.52
369.23	229.57
369.61	229.52
369.99	229.53
370.37	229.51
370.75	229.53
371.13	229.47
371.51	229.41
371.89	229.39
372.27	229.35
372.65	229.37
373.03	229.30
373.41	229.29
373.78	229.25
374.16	229.10
374.54	228.98
374.92	228.92
375.30	228.87
375.68	228.77
376.06	228.74
376.44	228.62
376.82	228.56
377.19	228.41
377.57	228.34
377.95	228.23
378.33	228.14
378.71	227.99
379.09	227.95
379.47	227.92
379.84	227.82
380.22	227.73
380.60	227.63
380.98	227.59
381.36	227.48
381.73	227.42
382.11	227.38
382.49	227.33
382.87	227.25
383.25	227.15
383.62	227.21
384.00	227.09
384.38	227.08
384.76	227.05
385.13	227.05
385.51	226.98
385.89	226.95
386.27	226.88
386.64	226.87
387.02	226.78
387.40	226.71
387.78	226.71
388.15	226.67
388.53	226.62
388.91	226.51
389.29	226.47
389.66	226.45
390.04	226.39
390.42	226.36
390.79	226.35
391.17	226.35
391.55	226.21
391.92	226.22
392.30	226.19
392.68	226.17
393.05	226.17
393.43	226.15
393.81	226.17
394.18	226.17
394.56	226.15
394.94	226.21
395.31	226.21
395.69	226.22
396.06	226.28
396.44	226.31
396.82	226.35
397.19	226.45
397.57	226.46
397.95	226.53
398.32	226.55
398.70	226.57
399.07	226.64
399.45	226.72
399.82	226.77
400.20	226.85
400.58	226.89
400.95	226.93
401.33	227.03
401.70	227.18
402.08	227.29
402.45	227.40
402.83	227.51
403.20	227.64
403.58	227.74
403.95	227.83
404.33	227.96
404.71	228.10
405.08	228.27
405.46	228.43
405.83	228.61
406.21	228.79
406.58	228.99
406.96	229.16
407.33	229.34
407.70	229.52
408.08	229.80
408.45	230.04
408.83	230.30
409.20	230.53
409.58	230.69
409.95	230.97
410.33	231.24
410.70	231.50
411.08	231.78
411.45	232.09
411.82	232.44
412.20	232.82
412.57	233.25
412.95	233.55
413.32	233.95
413.69	234.33
414.07	234.81
414.44	235.28
414.82	235.78
415.19	236.33
415.56	236.94
415.94	237.47
416.31	238.16
416.68	238.78
417.06	239.50
417.43	240.20
417.81	240.97
418.18	241.77
418.55	242.61
418.93	243.51
419.30	244.46
419.67	245.40
420.04	246.38
420.42	247.38
420.79	248.59
421.16	249.75
421.54	250.96
421.91	252.14
422.28	253.43
422.66	254.76
423.03	256.08
423.40	257.43
423.77	258.88
424.15	260.30
424.52	261.78
424.89	263.38
425.26	264.93
425.64	266.37
426.01	267.98
426.38	269.61
426.75	271.29
427.13	273.00
427.50	274.80
427.87	276.68
428.24	278.55
428.61	280.28
428.99	282.24
429.36	284.37
429.73	286.44
430.10	288.45
430.47	290.52
430.85	292.64
431.22	294.84
431.59	297.19
431.96	299.43
432.33	301.97
432.70	304.37
433.08	307.19
433.45	309.91
433.82	312.54
434.19	315.49
434.56	318.34
434.93	320.98
435.30	323.59
435.68	326.51
436.05	329.35
436.42	332.17
436.79	334.69
437.16	337.38
437.53	340.23
437.90	343.07
438.27	345.82
438.64	348.66
439.01	351.26
439.38	353.53
439.75	355.69
440.13	358.19
440.50	360.52
440.87	362.40
441.24	364.29
441.61	366.42
441.98	367.90
442.35	369.68
442.72	371.55
443.09	373.36
443.46	374.34
443.83	374.94
444.20	375.42
444.57	376.24
444.94	376.54
445.31	376.86
445.68	377.22
446.05	377.29
446.42	376.89
446.79	376.46
447.16	375.97
447.53	375.62
447.90	374.42
448.27	373.29
448.64	371.68
449.01	370.50
449.37	368.56
449.74	366.61
450.11	364.36
450.48	361.86
450.85	359.35
451.22	357.23
451.59	355.15
451.96	353.20
452.33	350.56
452.70	348.21
453.07	345.38
453.43	342.41
453.80	339.62
454.17	336.96
454.54	334.39
454.91	331.65
455.28	328.99
455.65	326.45
456.02	323.96
456.38	321.82
456.75	319.19
457.12	316.91
457.49	314.69
457.86	312.52
458.23	310.65
458.59	308.57
458.96	306.42
459.33	304.60
459.70	302.73
460.07	301.26
460.43	299.52
460.80	297.88
461.17	296.42
461.54	294.96
461.91	293.52
462.27	292.12
462.64	290.92
463.01	289.58
463.38	288.30
463.74	286.94
464.11	285.76
464.48	284.72
464.85	283.61
465.21	282.74
465.58	281.79
465.95	280.71
466.32	279.82
466.68	278.95
467.05	278.04
467.42	277.14
467.78	276.21
468.15	275.33
468.52	274.67
468.88	273.83
469.25	273.04
469.62	272.40
469.98	271.70
470.35	271.02
470.72	270.40
471.08	269.72
471.45	269.19
471.82	268.65
472.18	268.02
472.55	267.59
472.92	267.07
473.28	266.63
473.65	266.17
474.02	265.73
474.38	265.34
474.75	265.00
475.11	264.64
475.48	264.37
475.85	264.14
476.21	263.88
476.58	263.69
476.94	263.55
477.31	263.40
477.67	263.26
478.04	263.16
478.41	263.09
478.77	263.14
479.14	263.07
479.50	263.08
479.87	263.17
480.23	263.22
480.60	263.30
480.96	263.39
481.33	263.59
481.69	263.75
482.06	263.95
482.42	264.16
482.79	264.45
483.15	264.75
483.52	265.14
483.88	265.52
484.25	265.91
484.61	266.35
484.98	266.75
485.34	267.29
485.71	267.89
486.07	268.50
486.44	269.05
486.80	269.73
487.17	270.42
487.53	271.23
487.90	272.09
488.26	272.98
488.62	273.93
488.99	274.89
489.35	275.95
489.72	277.08
490.08	278.29
490.44	279.52
490.81	280.84
491.17	282.20
491.54	283.64
491.90	285.24
492.26	286.80
492.63	288.55
492.99	290.33
493.36	292.22
493.72	294.28
494.08	296.39
494.45	298.65
494.81	301.02
495.17	303.44
495.54	305.94
495.90	308.65
496.26	311.49
496.63	314.44
496.99	317.52
497.35	320.72
497.72	324.08
498.08	327.60
498.44	331.26
498.80	335.12
499.17	339.19
499.53	343.33
499.89	347.71
500.26	352.22
500.62	356.88
500.98	361.84
501.34	366.87
501.71	372.18
502.07	377.61
502.43	383.20
502.79	389.02
503.16	395.14
503.52	401.40
503.88	407.77
504.24	414.42
504.60	421.29
504.97	428.41
505.33	435.75
505.69	443.42
506.05	451.17
506.41	459.07
506.78	467.21
507.14	475.60
507.50	484.34
507.86	493.32
508.22	502.49
508.59	511.68
508.95	521.26
509.31	531.08
509.67	541.16
510.03	551.49
510.39	562.04
510.75	572.80
511.12	583.71
511.48	595.00
511.84	606.49
512.20	618.01
512.56	630.02
512.92	642.19
513.28	654.44
513.64	666.96
514.00	679.65
514.37	692.53
514.73	705.63
515.09	718.70
515.45	732.05
515.81	745.65
516.17	759.63
516.53	773.81
516.89	787.99
517.25	802.19
517.61	816.61
517.97	831.10
518.33	845.53
518.69	860.33
519.05	875.39
519.41	890.51
519.77	906.00
520.13	921.49
520.49	936.88
520.85	952.47
521.21	968.21
521.57	984.52
521.93	1000.39
522.29	1016.83
522.65	1033.05
523.01	1049.41
523.37	1065.53
523.73	1081.73
524.09	1097.90
524.45	1114.29
524.81	1130.97
525.17	1147.89
525.53	1164.86
525.89	1181.93
526.25	1198.87
526.61	1215.27
526.97	1232.05
527.33	1248.67
527.68	1265.26
528.04	1281.89
528.40	1298.45
528.76	1315.56
529.12	1332.27
529.48	1349.15
529.84	1365.26
530.20	1381.99
530.56	1399.03
530.91	1416.45
531.27	1433.34
531.63	1449.85
531.99	1466.53
532.35	1482.54
532.71	1498.35
533.07	1514.70
533.42	1530.56
533.78	1546.58
534.14	1562.83
534.50	1578.31
534.86	1594.35
535.21	1609.59
535.57	1625.61
535.93	1641.27
536.29	1656.09
536.65	1671.24
537.00	1686.28
537.36	1701.52
537.72	1716.19
538.08	1730.68
538.44	1744.64
538.79	1758.54
539.15	1772.41
539.51	1786.15
539.87	1800.67
540.22	1814.67
540.58	1828.68
540.94	1842.19
541.29	1855.25
541.65	1868.19
542.01	1881.57
542.37	1893.91
542.72	1906.54
543.08	1918.28
543.44	1930.78
543.79	1942.07
544.15	1953.11
544.51	1964.62
544.87	1975.73
545.22	1986.54
545.58	1996.75
545.94	2006.53
546.29	2016.50
546.65	2026.21
547.01	2035.54
547.36	2044.44
547.72	2052.87
548.07	2060.49
548.43	2068.61
548.79	2076.60
549.14	2084.16
549.50	2091.56
549.86	2099.20
550.21	2106.39
550.57	2113.56
550.92	2120.10
551.28	2127.20
551.64	2134.25
551.99	2140.84
552.35	2147.02
552.70	2153.25
553.06	2159.27
553.41	2165.62
553.77	2171.55
554.13	2177.68
554.48	2183.77
554.84	2189.01
555.19	2194.44
555.55	2199.71
555.90	2204.07
556.26	2208.94
556.61	2213.67
556.97	2217.68
557.32	2221.75
557.68	2225.87
558.03	2230.31
558.39	2234.02
558.74	2238.75
559.10	2242.65
559.45	2246.23
559.81	2250.42
560.16	2253.98
560.52	2257.15
560.87	2260.56
561.23	2263.24
561.58	2266.11
561.94	2268.66
562.29	2271.12
562.64	2273.62
563.00	2276.25
563.35	2279.91
563.71	2283.07
564.06	2286.31
564.42	2289.23
564.77	2291.73
565.12	2293.87
565.48	2295.62
565.83	2297.41
566.19	2298.49
566.54	2299.42
566.89	2300.47
567.25	2301.09
567.60	2302.64
567.96	2304.30
568.31	2305.05
568.66	2306.02
569.02	2306.69
569.37	2306.92
569.72	2307.72
570.08	2307.64
570.43	2307.46
570.78	2306.73
571.14	2305.12
571.49	2303.71
571.84	2303.26
572.20	2302.05
572.55	2301.08
572.90	2299.50
573.26	2297.97
573.61	2296.33
573.96	2294.32
574.31	2291.32
574.67	2288.19
575.02	2284.38
575.37	2280.99
575.72	2277.08
576.08	2273.77
576.43	2270.22
576.78	2266.46
577.13	2263.04
577.49	2260.10
577.84	2256.47
578.19	2252.67
578.54	2248.91
578.90	2244.51
579.25	2238.94
579.60	2233.89
579.95	2228.74
580.30	2223.61
580.66	2218.45
581.01	2213.37
581.36	2208.35
581.71	2204.02
582.06	2199.56
582.42	2194.94
582.77	2189.43
583.12	2184.74
583.47	2179.82
583.82	2174.67
584.17	2169.28
584.53	2163.71
584.88	2157.85
585.23	2151.92
585.58	2146.33
585.93	2140.77
586.28	2135.97
586.63	2130.76
586.98	2125.54
587.34	2120.78
587.69	2115.88
588.04	2110.41
588.39	2104.68
588.74	2098.23
589.09	2092.04
589.44	2085.10
589.79	2079.14
590.14	2073.55
590.49	2066.87
590.84	2060.51
591.19	2054.42
591.54	2047.90
591.89	2040.45
592.25	2033.51
592.60	2026.31
592.95	2018.51
593.30	2011.09
593.65	2003.33
594.00	1996.33
594.35	1989.08
594.70	1980.91
595.05	1973.42
595.40	1966.23
595.75	1958.66
596.10	1952.33
596.45	1945.41
596.80	1939.21
597.15	1932.40
597.50	1925.14
597.85	1918.86
598.19	1912.08
598.54	1904.94
598.89	1898.34
599.24	1892.49
599.59	1885.75
599.94	1879.53
600.29	1873.37
600.64	1866.78
600.99	1859.15
601.34	1852.11
601.69	1845.16
602.04	1838.24
602.39	1830.90
602.74	1824.09
603.08	1817.37
603.43	1810.54
603.78	1803.30
604.13	1795.98
604.48	1788.62
604.83	1781.81
605.18	1774.62
605.53	1766.65
605.87	1758.63
606.22	1751.42
606.57	1743.39
606.92	1736.14
607.27	1728.99
607.62	1721.92
607.96	1714.51
608.31	1708.01
608.66	1700.36
609.01	1692.72
609.36	1685.19
609.70	1677.16
610.05	1668.97
610.40	1661.22
610.75	1652.88
611.10	1645.10
611.44	1636.77
611.79	1628.87
612.14	1620.14
612.49	1611.01
612.83	1602.68
613.18	1594.63
613.53	1586.43
613.88	1577.84
614.22	1569.50
614.57	1560.91
614.92	1552.83
615.27	1545.35
615.61	1536.92
615.96	1529.04
616.31	1521.55
616.65	1514.14
617.00	1506.73
617.35	1499.10
617.70	1490.62
618.04	1482.11
618.39	1473.97
618.74	1466.40
619.08	1458.04
619.43	1450.50
619.78	1443.61
620.12	1436.29
620.47	1428.68
620.82	1420.53
621.16	1413.10
621.51	1405.56
621.85	1398.01
622.20	1389.57
622.55	1381.21
622.89	1373.46
623.24	1365.81
623.59	1358.39
623.93	1350.85
624.28	1343.52
624.62	1335.99
624.97	1328.88
625.32	1322.15
625.66	1315.08
626.01	1307.75
626.35	1300.26
626.70	1292.53
627.04	1284.72
627.39	1277.00
627.73	1269.60
628.08	1262.63
628.43	1255.33
628.77	1247.93
629.12	1240.25
629.46	1232.97
629.81	1225.54
630.15	1218.31
630.50	1210.92
630.84	1202.65
631.19	1194.88
631.53	1187.42
631.88	1179.85
632.22	1172.26
632.57	1164.97
632.91	1157.50
633.26	1150.20
633.60	1142.88
633.95	1135.84
634.29	1128.98
634.64	1122.40
634.98	1115.08
635.32	1107.97
635.67	1101.48
636.01	1094.85
636.36	1088.15
636.70	1081.80
637.05	1075.30
637.39	1068.85
637.73	1062.35
638.08	1056.59
638.42	1050.61
638.77	1044.15
639.11	1037.55
639.45	1031.26
639.80	1024.61
640.14	1018.10
640.49	1011.61
640.83	1005.39
641.17	999.12
641.52	992.71
641.86	986.29
642.20	980.55
642.55	974.31
642.89	967.79
643.23	961.26
643.58	955.48
643.92	949.11
644.26	942.96
644.61	936.99
644.95	930.87
645.29	924.14
645.64	917.32
645.98	910.99
646.32	905.18
646.66	899.08
647.01	893.34
647.35	887.66
647.69	881.86
648.04	876.39
648.38	870.57
648.72	864.54
649.06	858.40
649.41	852.46
649.75	846.44
650.09	840.48
650.43	834.72
650.78	828.48
651.12	822.69
651.46	817.00
651.80	811.17
652.14	805.83
652.49	800.52
652.83	795.43
653.17	789.67
653.51	783.86
653.85	778.47
654.20	772.84
654.54	766.84
654.88	761.10
655.22	755.15
655.56	749.51
655.90	743.99
656.25	738.75
656.59	733.37
656.93	728.28
657.27	723.23
657.61	717.76
657.95	712.69
658.29	707.56
658.64	702.35
658.98	697.10
659.32	691.67
659.66	686.50
660.00	681.15
660.34	676.27
660.68	671.44
661.02	666.41
661.36	661.64
661.70	657.18
662.05	652.79
662.39	648.47
662.73	644.03
663.07	639.69
663.41	635.23
663.75	630.79
664.09	626.28
664.43	621.84
664.77	617.76
665.11	613.51
665.45	609.47
665.79	605.34
666.13	601.26
666.47	597.18
666.81	592.96
667.15	588.81
667.49	584.94
667.83	581.21
668.17	577.29
668.51	573.28
668.85	569.31
669.19	565.46
669.53	561.64
669.87	557.70
670.21	554.10
670.55	550.50
670.89	547.10
671.23	543.70
671.57	540.22
671.91	536.75
672.25	533.32
672.58	529.83
672.92	526.47
673.26	523.31
673.60	520.18
673.94	517.20
674.28	514.37
674.62	511.46
674.96	508.35
675.30	505.46
675.64	502.54
675.97	499.80
676.31	496.97
676.65	494.05
676.99	491.37
677.33	488.50
677.67	485.72
678.01	482.67
678.34	479.66
678.68	476.79
679.02	473.96
679.36	471.23
679.70	468.50
680.04	465.80
680.37	462.90
680.71	460.10
681.05	457.39
681.39	454.66
681.73	452.01
682.06	449.45
682.40	446.95
682.74	444.40
683.08	441.90
683.42	439.31
683.75	436.75
684.09	434.21
684.43	431.74
684.77	429.30
685.10	426.97
685.44	424.70
685.78	422.43
686.12	420.19
686.45	417.85
686.79	415.55
687.13	413.33
687.46	411.23
687.80	409.12
688.14	406.96
688.48	404.92
688.81	402.66
689.15	400.55
689.49	398.35
689.82	396.33
690.16	394.24
690.50	392.29
690.83	390.40
691.17	388.44
691.51	386.55
691.84	384.71
692.18	382.76
692.52	380.74
692.85	378.78
693.19	376.92
693.52	375.15
693.86	373.37
694.20	371.61
694.53	369.81
694.87	367.99
695.21	366.24
695.54	364.39
695.88	362.68
696.21	360.92
696.55	359.27
696.88	357.57
697.22	355.88
697.56	354.24
697.89	352.57
698.23	351.00
698.56	349.44
698.90	347.80
699.23	346.16
699.57	344.67
699.90	343.17
700.24	341.59
700.58	340.02
700.91	338.50
701.25	337.04
701.58	335.64
701.92	334.26
702.25	332.83
702.59	331.52
702.92	330.19
703.26	328.85
703.59	327.55
703.93	326.37
704.26	325.14
704.60	323.85
704.93	322.62
705.26	321.35
705.60	320.17
705.93	319.06
706.27	318.03
706.60	316.98
706.94	315.88
707.27	314.77
707.61	313.71
707.94	312.70
708.27	311.63
708.61	310.58
708.94	309.57
709.28	308.64
709.61	307.65
709.94	306.72
710.28	305.72
710.61	304.77
710.95	303.72
711.28	302.84
711.61	301.92
711.95	300.95
712.28	300.02
712.61	299.02
712.95	298.08
713.28	297.20
713.61	296.26
713.95	295.41
714.28	294.59
714.61	293.77
714.95	292.94
715.28	292.00
715.61	291.13
715.95	290.26
716.28	289.37
716.61	288.57
716.95	287.77
717.28	287.06
717.61	286.29
717.94	285.56
718.28	284.73
718.61	284.03
718.94	283.39
719.27	282.73
719.61	282.08
719.94	281.41
720.27	280.68
720.60	280.06
720.94	279.39
721.27	278.78
721.60	278.23
721.93	277.62
722.27	277.16
722.60	276.60
722.93	276.02
723.26	275.51
723.59	274.94
723.93	274.41
724.26	273.87
724.59	273.34
724.92	272.84
725.25	272.36
725.59	271.85
725.92	271.35
726.25	270.88
726.58	270.37
726.91	269.87
727.24	269.45
727.57	268.99
727.91	268.50
728.24	268.07
728.57	267.55
728.90	267.12
729.23	266.63
729.56	266.20
729.89	265.76
730.22	265.32
730.55	264.89
730.89	264.42
731.22	263.95
731.55	263.48
731.88	263.02
732.21	262.59
732.54	262.11
732.87	261.66
733.20	261.26
733.53	260.90
733.86	260.54
734.19	260.12
734.52	259.73
734.85	259.43
735.18	258.99
735.51	258.62
735.84	258.26
736.17	257.89
736.50	257.48
736.83	257.24
737.16	256.85
737.49	256.50
737.82	256.17
738.15	255.84
738.48	255.51
738.81	255.18
739.14	254.87
739.47	254.58
739.80	254.30
740.13	253.96
740.46	253.60
740.79	253.28
741.12	252.94
741.45	252.56
741.78	252.20
742.11	251.92
742.44	251.60
742.77	251.27
743.10	250.95
743.43	250.68
743.75	250.30
744.08	250.14
744.41	249.83
744.74	249.55
745.07	249.26
745.40	249.02
745.73	248.77
746.06	248.48
746.39	248.19
746.71	247.90
747.04	247.63
747.37	247.39
747.70	247.13
748.03	246.89
748.36	246.74
748.68	246.50
749.01	246.23
749.34	245.99
749.67	245.74
750.00	245.50
750.33	245.35
750.65	245.13
750.98	244.78
751.31	244.59
751.64	244.39
751.97	244.24
752.29	243.98
752.62	243.75
752.95	243.52
753.28	243.31
753.60	243.10
753.93	242.93
754.26	242.73
754.59	242.47
754.91	242.30
755.24	242.07
755.57	241.88
755.90	241.70
756.22	241.54
756.55	241.34
756.88	241.16
757.20	240.88
757.53	240.71
757.86	240.58
758.19	240.38
758.51	240.22
758.84	240.02
759.17	239.89
759.49	239.75
759.82	239.64
760.15	239.50
760.47	239.36
760.80	239.17
761.13	239.04
761.45	238.91
761.78	238.75
762.11	238.57
762.43	238.47
762.76	238.36
763.08	238.21
763.41	238.11
763.74	237.99
764.06	237.88
764.39	237.72
764.71	237.55
765.04	237.41
765.37	237.28
765.69	237.13
766.02	237.01
766.34	236.87
766.67	236.71
767.00	236.65
767.32	236.60
767.65	236.56
767.97	236.45
768.30	236.35
768.62	236.25
768.95	236.17
769.27	236.05
769.60	235.94
769.92	235.82
770.25	235.69
770.57	235.55
770.90	235.43
771.22	235.35
771.55	235.29
771.87	235.23
772.20	235.17
772.52	235.14
772.85	235.14
773.17	235.03
773.50	234.97
773.82	234.82
774.15	234.67
774.47	234.51
774.80	234.41
775.12	234.33
775.45	234.26
775.77	234.19
776.09	234.11
776.42	234.05
776.74	234.03
777.07	233.99
777.39	233.98
777.72	233.91
778.04	233.84
778.36	233.76
778.69	233.67
779.01	233.58
779.33	233.44
779.66	233.26
779.98	233.22
780.31	233.13
780.63	233.12
780.95	233.09
781.28	233.02
781.60	232.97
781.92	232.87
782.25	232.77
782.57	232.70
782.89	232.61
783.22	232.53
783.54	232.44
783.86	232.38
784.19	232.28
784.51	232.27
784.83	232.18
785.16	232.12
785.48	232.07
785.80	232.02
786.12	231.98
786.45	231.89
786.77	231.83
787.09	231.79
