SpectraSuite Data File
++++++++++++++++++++++++++++++++++++
Date: Fri Feb 01 17:28:29 EST 2013
User: group
Dark Spectrum Present: No
Reference Spectrum Present: No
Number of Sampled Component Spectra: 1
Spectrometers: USB2E7196
Integration Time (usec): 35000 (USB2E7196)
Spectra Averaged: 100 (USB2E7196)
Boxcar Smoothing: 10 (USB2E7196)
Correct for Electrical Dark: No (USB2E7196)
Strobe/Lamp Enabled: No (USB2E7196)
Correct for Detector Non-linearity: No (USB2E7196)
Correct for Stray Light: No (USB2E7196)
Number of Pixels in Processed Spectrum: 2048
>>>>>Begin Processed Spectral Data<<<<<
339.09	0.00
339.48	213.09
339.86	214.44
340.24	215.91
340.63	217.38
341.01	220.64
341.39	219.73
341.78	221.43
342.16	222.52
342.54	223.15
342.93	211.50
343.31	222.19
343.69	222.73
344.07	223.20
344.46	223.60
344.84	223.97
345.22	224.16
345.60	224.42
345.99	224.54
346.37	224.66
346.75	224.76
347.13	224.80
347.52	224.89
347.90	224.92
348.28	224.92
348.66	224.94
349.05	224.91
349.43	224.94
349.81	224.98
350.19	225.01
350.57	225.05
350.96	225.09
351.34	225.16
351.72	225.20
352.10	225.28
352.48	225.39
352.87	225.41
353.25	225.46
353.63	225.53
354.01	225.64
354.39	225.72
354.77	225.77
355.15	225.89
355.54	225.92
355.92	225.95
356.30	226.03
356.68	226.15
357.06	226.23
357.44	226.28
357.82	226.34
358.20	226.42
358.58	226.47
358.97	226.56
359.35	226.66
359.73	226.76
360.11	226.79
360.49	226.81
360.87	226.89
361.25	226.98
361.63	227.03
362.01	227.07
362.39	227.10
362.77	227.18
363.15	227.21
363.53	227.25
363.91	227.33
364.29	227.37
364.67	227.33
365.05	227.34
365.43	227.36
365.81	227.37
366.19	227.41
366.57	227.48
366.95	227.45
367.33	227.40
367.71	227.36
368.09	227.41
368.47	227.42
368.85	227.41
369.23	227.39
369.61	227.35
369.99	227.36
370.37	227.33
370.75	227.33
371.13	227.27
371.51	227.22
371.89	227.16
372.27	227.15
372.65	227.09
373.03	227.09
373.41	227.06
373.78	227.01
374.16	226.91
374.54	226.84
374.92	226.81
375.30	226.77
375.68	226.76
376.06	226.70
376.44	226.64
376.82	226.58
377.19	226.52
377.57	226.46
377.95	226.38
378.33	226.31
378.71	226.19
379.09	226.16
379.47	226.12
379.84	226.04
380.22	225.97
380.60	225.91
380.98	225.83
381.36	225.73
381.73	225.64
382.11	225.60
382.49	225.55
382.87	225.45
383.25	225.39
383.62	225.41
384.00	225.30
384.38	225.25
384.76	225.23
385.13	225.22
385.51	225.19
385.89	225.12
386.27	225.08
386.64	225.06
387.02	224.99
387.40	224.96
387.78	224.92
388.15	224.85
388.53	224.84
388.91	224.80
389.29	224.75
389.66	224.78
390.04	224.71
390.42	224.68
390.79	224.69
391.17	224.69
391.55	224.59
391.92	224.59
392.30	224.59
392.68	224.54
393.05	224.51
393.43	224.50
393.81	224.53
394.18	224.53
394.56	224.51
394.94	224.52
395.31	224.51
395.69	224.58
396.06	224.62
396.44	224.66
396.82	224.65
397.19	224.77
397.57	224.77
397.95	224.85
398.32	224.83
398.70	224.87
399.07	224.92
399.45	224.95
399.82	225.02
400.20	225.04
400.58	225.09
400.95	225.11
401.33	225.18
401.70	225.31
402.08	225.40
402.45	225.47
402.83	225.58
403.20	225.68
403.58	225.77
403.95	225.88
404.33	225.98
404.71	226.16
405.08	226.29
405.46	226.44
405.83	226.59
406.21	226.76
406.58	226.93
406.96	227.10
407.33	227.27
407.70	227.47
408.08	227.77
408.45	228.00
408.83	228.26
409.20	228.50
409.58	228.67
409.95	228.94
410.33	229.27
410.70	229.54
411.08	229.83
411.45	230.13
411.82	230.45
412.20	230.84
412.57	231.22
412.95	231.56
413.32	231.97
413.69	232.38
414.07	232.87
414.44	233.35
414.82	233.83
415.19	234.41
415.56	234.95
415.94	235.51
416.31	236.20
416.68	236.84
417.06	237.61
417.43	238.32
417.81	239.10
418.18	239.87
418.55	240.73
418.93	241.64
419.30	242.60
419.67	243.57
420.04	244.53
420.42	245.57
420.79	246.79
421.16	248.00
421.54	249.24
421.91	250.52
422.28	251.83
422.66	253.25
423.03	254.61
423.40	256.00
423.77	257.46
424.15	258.90
424.52	260.44
424.89	262.09
425.26	263.67
425.64	265.20
426.01	266.87
426.38	268.62
426.75	270.36
427.13	272.14
427.50	274.02
427.87	275.97
428.24	277.88
428.61	279.68
428.99	281.71
429.36	283.92
429.73	286.05
430.10	288.16
430.47	290.26
430.85	292.48
431.22	294.81
431.59	297.30
431.96	299.63
432.33	302.25
432.70	304.69
433.08	307.64
433.45	310.35
433.82	313.10
434.19	316.12
434.56	319.06
434.93	321.80
435.30	324.54
435.68	327.62
436.05	330.55
436.42	333.49
436.79	336.06
437.16	338.83
437.53	341.78
437.90	344.65
438.27	347.48
438.64	350.36
439.01	353.05
439.38	355.37
439.75	357.61
440.13	360.17
440.50	362.58
440.87	364.52
441.24	366.53
441.61	368.72
441.98	370.23
442.35	372.13
442.72	374.05
443.09	375.93
443.46	376.91
443.83	377.51
444.20	378.07
444.57	379.00
444.94	379.31
445.31	379.67
445.68	380.09
446.05	380.19
446.42	379.83
446.79	379.43
447.16	378.96
447.53	378.73
447.90	377.57
448.27	376.42
448.64	374.78
449.01	373.63
449.37	371.65
449.74	369.70
450.11	367.36
450.48	364.84
450.85	362.25
451.22	360.02
451.59	358.00
451.96	356.02
452.33	353.29
452.70	350.84
453.07	347.86
453.43	344.85
453.80	341.99
454.17	339.23
454.54	336.58
454.91	333.76
455.28	330.95
455.65	328.38
456.02	325.81
456.38	323.56
456.75	320.79
457.12	318.42
457.49	316.10
457.86	313.83
458.23	311.85
458.59	309.70
458.96	307.54
459.33	305.62
459.70	303.64
460.07	302.07
460.43	300.30
460.80	298.63
461.17	297.10
461.54	295.52
461.91	294.03
462.27	292.53
462.64	291.22
463.01	289.80
463.38	288.41
463.74	287.00
464.11	285.80
464.48	284.74
464.85	283.64
465.21	282.73
465.58	281.76
465.95	280.64
466.32	279.69
466.68	278.76
467.05	277.75
467.42	276.83
467.78	275.86
468.15	274.93
468.52	274.24
468.88	273.39
469.25	272.60
469.62	271.94
469.98	271.25
470.35	270.64
470.72	270.03
471.08	269.36
471.45	268.83
471.82	268.28
472.18	267.68
472.55	267.20
472.92	266.70
473.28	266.22
473.65	265.79
474.02	265.33
474.38	264.94
474.75	264.64
475.11	264.30
475.48	264.04
475.85	263.79
476.21	263.55
476.58	263.35
476.94	263.22
477.31	263.05
477.67	262.88
478.04	262.73
478.41	262.64
478.77	262.69
479.14	262.61
479.50	262.67
479.87	262.71
480.23	262.78
480.60	262.81
480.96	262.94
481.33	263.14
481.69	263.37
482.06	263.56
482.42	263.77
482.79	263.99
483.15	264.29
483.52	264.70
483.88	265.06
484.25	265.45
484.61	265.87
484.98	266.35
485.34	266.89
485.71	267.48
486.07	268.07
486.44	268.63
486.80	269.31
487.17	269.98
487.53	270.80
487.90	271.63
488.26	272.55
488.62	273.48
488.99	274.46
489.35	275.47
489.72	276.59
490.08	277.80
490.44	279.08
490.81	280.44
491.17	281.80
491.54	283.32
491.90	284.84
492.26	286.49
492.63	288.19
492.99	289.95
493.36	291.83
493.72	293.90
494.08	295.98
494.45	298.24
494.81	300.58
495.17	302.97
495.54	305.55
495.90	308.25
496.26	311.04
496.63	313.97
496.99	317.04
497.35	320.29
497.72	323.62
498.08	327.08
498.44	330.69
498.80	334.57
499.17	338.54
499.53	342.68
499.89	347.00
500.26	351.49
500.62	356.10
500.98	361.03
501.34	366.07
501.71	371.32
502.07	376.69
502.43	382.27
502.79	388.03
503.16	394.00
503.52	400.23
503.88	406.58
504.24	413.10
504.60	419.86
504.97	426.85
505.33	434.09
505.69	441.64
506.05	449.26
506.41	456.97
506.78	464.98
507.14	473.32
507.50	481.84
507.86	490.69
508.22	499.76
508.59	508.78
508.95	518.06
509.31	527.75
509.67	537.64
510.03	547.71
510.39	558.04
510.75	568.68
511.12	579.29
511.48	590.35
511.84	601.58
512.20	612.83
512.56	624.53
512.92	636.40
513.28	648.51
513.64	660.71
514.00	673.18
514.37	685.90
514.73	698.63
515.09	711.38
515.45	724.36
515.81	737.60
516.17	751.20
516.53	765.05
516.89	778.82
517.25	792.52
517.61	806.52
517.97	820.52
518.33	834.54
518.69	849.02
519.05	863.51
519.41	878.24
519.77	893.39
520.13	908.39
520.49	923.32
520.85	938.19
521.21	953.40
521.57	969.11
521.93	984.34
522.29	1000.10
522.65	1015.84
523.01	1031.49
523.37	1047.06
523.73	1062.82
524.09	1078.48
524.45	1094.28
524.81	1110.60
525.17	1126.89
525.53	1143.24
525.89	1159.58
526.25	1175.82
526.61	1191.79
526.97	1208.03
527.33	1224.09
527.68	1240.27
528.04	1256.29
528.40	1272.49
528.76	1289.12
529.12	1305.17
529.48	1321.63
529.84	1337.29
530.20	1353.47
530.56	1370.01
530.91	1386.89
531.27	1403.20
531.63	1419.24
531.99	1435.34
532.35	1450.88
532.71	1466.36
533.07	1482.36
533.42	1497.99
533.78	1513.72
534.14	1529.57
534.50	1544.52
534.86	1559.95
535.21	1574.74
535.57	1590.35
535.93	1605.50
536.29	1620.06
536.65	1634.89
537.00	1649.29
537.36	1664.37
537.72	1678.72
538.08	1692.90
538.44	1706.55
538.79	1720.13
539.15	1733.38
539.51	1746.89
539.87	1761.00
540.22	1774.60
540.58	1788.00
540.94	1800.89
541.29	1813.36
541.65	1825.84
542.01	1839.01
542.37	1851.17
542.72	1863.58
543.08	1875.31
543.44	1887.56
543.79	1898.73
544.15	1909.66
544.51	1921.18
544.87	1932.02
545.22	1942.91
545.58	1953.17
545.94	1962.94
546.29	1972.99
546.65	1983.03
547.01	1992.45
547.36	2001.15
547.72	2009.65
548.07	2017.88
548.43	2026.28
548.79	2034.44
549.14	2042.24
549.50	2049.58
549.86	2057.37
550.21	2064.80
550.57	2072.06
550.92	2078.95
551.28	2086.28
551.64	2093.63
551.99	2100.36
552.35	2106.85
552.70	2113.14
553.06	2119.45
553.41	2125.98
553.77	2132.12
554.13	2138.50
554.48	2144.90
554.84	2150.91
555.19	2156.49
555.55	2161.82
555.90	2166.74
556.26	2172.16
556.61	2177.17
556.97	2181.99
557.32	2186.52
557.68	2190.99
558.03	2195.63
558.39	2199.46
558.74	2204.13
559.10	2208.36
559.45	2212.47
559.81	2216.81
560.16	2220.89
560.52	2224.36
560.87	2228.06
561.23	2231.04
561.58	2234.17
561.94	2236.96
562.29	2239.44
562.64	2242.71
563.00	2245.68
563.35	2249.40
563.71	2252.90
564.06	2256.43
564.42	2259.77
564.77	2262.79
565.12	2265.62
565.48	2268.04
565.83	2270.63
566.19	2272.49
566.54	2273.55
566.89	2275.17
567.25	2276.39
567.60	2278.01
567.96	2280.24
568.31	2281.43
568.66	2283.01
569.02	2284.10
569.37	2284.84
569.72	2286.24
570.08	2286.74
570.43	2287.23
570.78	2287.25
571.14	2286.07
571.49	2285.15
571.84	2284.87
572.20	2284.03
572.55	2283.16
572.90	2281.84
573.26	2280.72
573.61	2279.24
573.96	2278.13
574.31	2275.46
574.67	2272.81
575.02	2269.70
575.37	2266.63
575.72	2263.39
576.08	2260.32
576.43	2257.30
576.78	2254.27
577.13	2251.34
577.49	2248.42
577.84	2245.36
578.19	2241.88
578.54	2238.69
578.90	2234.97
579.25	2230.09
579.60	2225.62
579.95	2221.07
580.30	2216.41
580.66	2211.56
581.01	2207.01
581.36	2202.33
581.71	2198.53
582.06	2194.56
582.42	2190.41
582.77	2185.44
583.12	2181.21
583.47	2177.06
583.82	2172.53
584.17	2167.53
584.53	2162.24
584.88	2157.08
585.23	2151.60
585.58	2146.34
585.93	2141.01
586.28	2136.28
586.63	2131.35
586.98	2126.51
587.34	2122.13
587.69	2117.38
588.04	2112.41
588.39	2107.11
588.74	2100.81
589.09	2094.87
589.44	2088.37
589.79	2082.33
590.14	2076.94
590.49	2070.65
590.84	2064.36
591.19	2058.54
591.54	2052.25
591.89	2045.40
592.25	2038.81
592.60	2031.86
592.95	2024.70
593.30	2017.76
593.65	2010.30
594.00	2003.48
594.35	1996.34
594.70	1988.31
595.05	1981.61
595.40	1974.55
595.75	1967.27
596.10	1961.37
596.45	1954.82
596.80	1948.75
597.15	1942.58
597.50	1935.85
597.85	1929.47
598.19	1923.08
598.54	1916.27
598.89	1909.70
599.24	1903.72
599.59	1897.25
599.94	1890.91
600.29	1884.55
600.64	1878.03
600.99	1870.84
601.34	1864.07
601.69	1857.12
602.04	1850.46
602.39	1843.15
602.74	1836.40
603.08	1829.65
603.43	1823.01
603.78	1815.80
604.13	1808.75
604.48	1801.64
604.83	1794.66
605.18	1787.91
605.53	1779.89
605.87	1771.88
606.22	1764.66
606.57	1756.80
606.92	1749.22
607.27	1742.20
607.62	1735.35
607.96	1728.24
608.31	1721.84
608.66	1714.32
609.01	1707.05
609.36	1699.49
609.70	1691.37
610.05	1683.34
610.40	1675.83
610.75	1667.39
611.10	1659.77
611.44	1651.19
611.79	1642.95
612.14	1634.34
612.49	1625.02
612.83	1616.56
613.18	1608.22
613.53	1600.18
613.88	1591.71
614.22	1583.45
614.57	1574.73
614.92	1566.65
615.27	1559.00
615.61	1550.56
615.96	1542.38
616.31	1534.45
616.65	1526.95
617.00	1519.43
617.35	1511.60
617.70	1503.17
618.04	1494.67
618.39	1486.21
618.74	1478.62
619.08	1470.32
619.43	1462.63
619.78	1455.62
620.12	1448.42
620.47	1440.85
620.82	1432.49
621.16	1424.80
621.51	1417.17
621.85	1409.47
622.20	1400.86
622.55	1392.35
622.89	1384.38
623.24	1376.72
623.59	1369.26
623.93	1361.64
624.28	1354.24
624.62	1346.72
624.97	1339.32
625.32	1332.32
625.66	1325.19
626.01	1317.90
626.35	1310.52
626.70	1302.67
627.04	1294.84
627.39	1286.86
627.73	1279.33
628.08	1272.35
628.43	1265.10
628.77	1257.70
629.12	1250.11
629.46	1242.79
629.81	1235.06
630.15	1227.74
630.50	1220.26
630.84	1211.97
631.19	1204.01
631.53	1196.36
631.88	1188.56
632.22	1181.01
632.57	1173.72
632.91	1166.17
633.26	1158.68
633.60	1151.07
633.95	1143.82
634.29	1136.72
634.64	1129.96
634.98	1122.62
635.32	1115.42
635.67	1108.65
636.01	1101.84
636.36	1095.03
636.70	1088.49
637.05	1081.98
637.39	1075.45
637.73	1068.82
638.08	1062.96
638.42	1056.88
638.77	1050.39
639.11	1043.88
639.45	1037.34
639.80	1030.61
640.14	1024.21
640.49	1017.66
640.83	1011.32
641.17	1005.12
641.52	998.74
641.86	992.22
642.20	986.22
642.55	979.75
642.89	973.32
643.23	966.76
643.58	960.92
643.92	954.64
644.26	948.64
644.61	942.48
644.95	936.45
645.29	929.90
645.64	923.12
645.98	916.74
646.32	910.73
646.66	904.76
647.01	898.95
647.35	893.18
647.69	887.24
648.04	881.65
648.38	875.85
648.72	869.93
649.06	863.98
649.41	858.11
649.75	852.28
650.09	846.30
650.43	840.54
650.78	834.37
651.12	828.46
651.46	822.69
651.80	817.10
652.14	811.63
652.49	806.16
652.83	801.01
653.17	795.50
653.51	789.96
653.85	784.41
654.20	778.82
654.54	772.83
654.88	767.09
655.22	761.24
655.56	755.48
655.90	749.92
656.25	744.65
656.59	739.31
656.93	734.15
657.27	728.96
657.61	723.42
657.95	718.34
658.29	713.26
658.64	707.96
658.98	702.48
659.32	697.10
659.66	691.89
660.00	686.61
660.34	681.59
660.68	676.58
661.02	671.60
661.36	666.88
661.70	662.36
662.05	658.01
662.39	653.70
662.73	649.23
663.07	644.90
663.41	640.45
663.75	635.96
664.09	631.37
664.43	627.03
664.77	622.99
665.11	618.68
665.45	614.49
665.79	610.35
666.13	606.27
666.47	602.15
666.81	598.01
667.15	593.81
667.49	589.84
667.83	585.97
668.17	581.96
668.51	577.85
668.85	573.77
669.19	569.87
669.53	565.99
669.87	562.12
670.21	558.37
670.55	554.65
670.89	551.14
671.23	547.73
671.57	544.11
671.91	540.56
672.25	537.01
672.58	533.43
672.92	530.04
673.26	526.84
673.60	523.66
673.94	520.47
674.28	517.49
674.62	514.48
674.96	511.35
675.30	508.48
675.64	505.55
675.97	502.70
676.31	499.78
676.65	496.81
676.99	494.05
677.33	491.10
677.67	488.21
678.01	485.21
678.34	482.24
678.68	479.34
679.02	476.51
679.36	473.70
679.70	470.97
680.04	468.19
680.37	465.29
680.71	462.42
681.05	459.78
681.39	457.07
681.73	454.39
682.06	451.78
682.40	449.19
682.74	446.58
683.08	444.04
683.42	441.41
683.75	438.91
684.09	436.34
684.43	433.81
684.77	431.37
685.10	428.97
685.44	426.59
685.78	424.27
686.12	421.96
686.45	419.70
686.79	417.42
687.13	415.15
687.46	412.98
687.80	410.84
688.14	408.53
688.48	406.39
688.81	404.17
689.15	402.04
689.49	399.82
689.82	397.71
690.16	395.57
690.50	393.66
690.83	391.65
691.17	389.64
691.51	387.76
691.84	385.84
692.18	383.91
692.52	381.98
692.85	379.98
693.19	378.06
693.52	376.18
693.86	374.30
694.20	372.51
694.53	370.68
694.87	368.76
695.21	366.99
695.54	365.19
695.88	363.38
696.21	361.63
696.55	359.99
696.88	358.29
697.22	356.58
697.56	354.86
697.89	353.22
698.23	351.65
698.56	350.05
698.90	348.48
699.23	346.80
699.57	345.23
699.90	343.69
700.24	342.15
700.58	340.59
700.91	339.07
701.25	337.61
701.58	336.21
701.92	334.85
702.25	333.48
702.59	332.09
702.92	330.79
703.26	329.48
703.59	328.15
703.93	326.96
704.26	325.71
704.60	324.44
704.93	323.11
705.26	321.78
705.60	320.55
705.93	319.36
706.27	318.34
706.60	317.21
706.94	316.12
707.27	314.97
707.61	313.89
707.94	312.86
708.27	311.75
708.61	310.66
708.94	309.65
709.28	308.65
709.61	307.67
709.94	306.70
710.28	305.69
710.61	304.66
710.95	303.53
711.28	302.63
711.61	301.66
711.95	300.74
712.28	299.77
712.61	298.79
712.95	297.86
713.28	296.93
713.61	296.00
713.95	295.09
714.28	294.23
714.61	293.35
714.95	292.49
715.28	291.63
715.61	290.73
715.95	289.81
716.28	288.91
716.61	288.05
716.95	287.19
717.28	286.39
717.61	285.63
717.94	284.90
718.28	284.03
718.61	283.32
718.94	282.62
719.27	282.01
719.61	281.34
719.94	280.66
720.27	279.92
720.60	279.25
720.94	278.61
721.27	277.99
721.60	277.39
721.93	276.76
722.27	276.20
722.60	275.60
722.93	275.08
723.26	274.60
723.59	273.99
723.93	273.42
724.26	272.83
724.59	272.25
724.92	271.68
725.25	271.19
725.59	270.62
725.92	270.08
726.25	269.52
726.58	268.99
726.91	268.49
727.24	267.98
727.57	267.49
727.91	266.96
728.24	266.51
728.57	265.98
728.90	265.50
729.23	264.99
729.56	264.56
729.89	264.03
730.22	263.48
730.55	263.05
730.89	262.59
731.22	262.16
731.55	261.74
731.88	261.29
732.21	260.86
732.54	260.41
732.87	259.98
733.20	259.58
733.53	259.17
733.86	258.79
734.19	258.41
734.52	258.02
734.85	257.72
735.18	257.25
735.51	256.88
735.84	256.50
736.17	256.15
736.50	255.76
736.83	255.53
737.16	255.21
737.49	254.88
737.82	254.53
738.15	254.19
738.48	253.86
738.81	253.54
739.14	253.19
739.47	252.90
739.80	252.58
740.13	252.24
740.46	251.95
740.79	251.59
741.12	251.29
741.45	250.99
741.78	250.65
742.11	250.40
742.44	250.11
742.77	249.83
743.10	249.53
743.43	249.22
743.75	248.85
744.08	248.70
744.41	248.45
744.74	248.20
745.07	247.92
745.40	247.67
745.73	247.49
746.06	247.22
746.39	246.96
746.71	246.71
747.04	246.46
747.37	246.18
747.70	245.94
748.03	245.69
748.36	245.48
748.68	245.22
749.01	244.95
749.34	244.74
749.67	244.46
750.00	244.23
750.33	244.08
750.65	243.85
750.98	243.50
751.31	243.21
751.64	243.01
751.97	242.85
752.29	242.61
752.62	242.29
752.95	242.10
753.28	241.86
753.60	241.64
753.93	241.44
754.26	241.25
754.59	241.04
754.91	240.81
755.24	240.57
755.57	240.37
755.90	240.18
756.22	239.97
756.55	239.81
756.88	239.59
757.20	239.33
757.53	239.11
757.86	238.95
758.19	238.78
758.51	238.61
758.84	238.41
759.17	238.23
759.49	238.10
759.82	237.97
760.15	237.78
760.47	237.63
760.80	237.48
761.13	237.33
761.45	237.19
761.78	237.02
762.11	236.86
762.43	236.71
762.76	236.58
763.08	236.44
763.41	236.31
763.74	236.19
764.06	236.07
764.39	235.98
764.71	235.80
765.04	235.67
765.37	235.49
765.69	235.36
766.02	235.26
766.34	235.09
766.67	234.94
767.00	234.89
767.32	234.81
767.65	234.76
767.97	234.65
768.30	234.52
768.62	234.41
768.95	234.27
769.27	234.18
769.60	234.07
769.92	233.94
770.25	233.82
770.57	233.69
770.90	233.61
771.22	233.46
771.55	233.40
771.87	233.36
772.20	233.27
772.52	233.26
772.85	233.30
773.17	233.21
773.50	233.12
773.82	232.99
774.15	232.89
774.47	232.71
774.80	232.59
775.12	232.52
775.45	232.46
775.77	232.42
776.09	232.34
776.42	232.26
776.74	232.22
777.07	232.16
777.39	232.10
777.72	231.98
778.04	231.93
778.36	231.83
778.69	231.72
779.01	231.67
779.33	231.55
779.66	231.33
779.98	231.28
780.31	231.21
780.63	231.23
780.95	231.15
781.28	231.10
781.60	231.02
781.92	230.97
782.25	230.92
782.57	230.88
782.89	230.83
783.22	230.76
783.54	230.69
783.86	230.63
784.19	230.57
784.51	230.56
784.83	230.51
785.16	230.44
785.48	230.42
785.80	230.38
786.12	230.29
786.45	230.26
786.77	230.20
787.09	230.16
