SpectraSuite Data File
++++++++++++++++++++++++++++++++++++
Date: Fri Feb 01 15:51:00 EST 2013
User: group
Dark Spectrum Present: No
Reference Spectrum Present: No
Number of Sampled Component Spectra: 1
Spectrometers: USB2E7196
Integration Time (usec): 35000 (USB2E7196)
Spectra Averaged: 100 (USB2E7196)
Boxcar Smoothing: 10 (USB2E7196)
Correct for Electrical Dark: No (USB2E7196)
Strobe/Lamp Enabled: No (USB2E7196)
Correct for Detector Non-linearity: No (USB2E7196)
Correct for Stray Light: No (USB2E7196)
Number of Pixels in Processed Spectrum: 2048
>>>>>Begin Processed Spectral Data<<<<<
339.09	0.00
339.48	214.66
339.86	216.05
340.24	217.41
340.63	219.28
341.01	221.71
341.39	221.49
341.78	222.53
342.16	223.70
342.54	224.90
342.93	213.13
343.31	223.90
343.69	224.46
344.07	224.96
344.46	225.42
344.84	225.80
345.22	226.05
345.60	226.30
345.99	226.52
346.37	226.69
346.75	226.78
347.13	226.82
347.52	226.90
347.90	226.94
348.28	226.96
348.66	227.03
349.05	227.03
349.43	227.09
349.81	227.13
350.19	227.19
350.57	227.23
350.96	227.31
351.34	227.38
351.72	227.44
352.10	227.52
352.48	227.61
352.87	227.67
353.25	227.73
353.63	227.81
354.01	227.88
354.39	227.93
354.77	228.04
355.15	228.18
355.54	228.23
355.92	228.32
356.30	228.40
356.68	228.52
357.06	228.59
357.44	228.63
357.82	228.71
358.20	228.80
358.58	228.87
358.97	228.96
359.35	229.06
359.73	229.15
360.11	229.21
360.49	229.27
360.87	229.30
361.25	229.35
361.63	229.43
362.01	229.49
362.39	229.55
362.77	229.57
363.15	229.60
363.53	229.62
363.91	229.64
364.29	229.63
364.67	229.56
365.05	229.57
365.43	229.58
365.81	229.57
366.19	229.58
366.57	229.59
366.95	229.54
367.33	229.51
367.71	229.50
368.09	229.52
368.47	229.46
368.85	229.45
369.23	229.45
369.61	229.38
369.99	229.36
370.37	229.33
370.75	229.30
371.13	229.24
371.51	229.19
371.89	229.13
372.27	229.08
372.65	229.04
373.03	228.99
373.41	228.94
373.78	228.87
374.16	228.78
374.54	228.70
374.92	228.62
375.30	228.55
375.68	228.44
376.06	228.35
376.44	228.26
376.82	228.17
377.19	228.10
377.57	228.02
377.95	227.91
378.33	227.82
378.71	227.68
379.09	227.61
379.47	227.53
379.84	227.45
380.22	227.38
380.60	227.28
380.98	227.20
381.36	227.11
381.73	227.04
382.11	226.99
382.49	226.93
382.87	226.88
383.25	226.79
383.62	226.85
384.00	226.75
384.38	226.70
384.76	226.67
385.13	226.64
385.51	226.58
385.89	226.53
386.27	226.48
386.64	226.47
387.02	226.43
387.40	226.35
387.78	226.35
388.15	226.32
388.53	226.30
388.91	226.27
389.29	226.27
389.66	226.29
390.04	226.22
390.42	226.21
390.79	226.19
391.17	226.22
391.55	226.11
391.92	226.11
392.30	226.12
392.68	226.11
393.05	226.10
393.43	226.14
393.81	226.15
394.18	226.17
394.56	226.21
394.94	226.23
395.31	226.27
395.69	226.32
396.06	226.35
396.44	226.41
396.82	226.44
397.19	226.53
397.57	226.56
397.95	226.69
398.32	226.74
398.70	226.85
399.07	226.93
399.45	226.97
399.82	227.05
400.20	227.12
400.58	227.20
400.95	227.20
401.33	227.29
401.70	227.44
402.08	227.55
402.45	227.66
402.83	227.79
403.20	227.94
403.58	228.04
403.95	228.19
404.33	228.29
404.71	228.44
405.08	228.59
405.46	228.72
405.83	228.86
406.21	229.03
406.58	229.16
406.96	229.29
407.33	229.47
407.70	229.67
408.08	229.96
408.45	230.19
408.83	230.46
409.20	230.68
409.58	230.86
409.95	231.10
410.33	231.34
410.70	231.59
411.08	231.86
411.45	232.13
411.82	232.45
412.20	232.80
412.57	233.20
412.95	233.51
413.32	233.90
413.69	234.26
414.07	234.67
414.44	235.13
414.82	235.62
415.19	236.20
415.56	236.75
415.94	237.26
416.31	237.89
416.68	238.51
417.06	239.21
417.43	239.93
417.81	240.71
418.18	241.45
418.55	242.28
418.93	243.19
419.30	244.11
419.67	245.05
420.04	245.99
420.42	246.96
420.79	248.13
421.16	249.28
421.54	250.48
421.91	251.68
422.28	252.93
422.66	254.26
423.03	255.57
423.40	256.88
423.77	258.31
424.15	259.75
424.52	261.22
424.89	262.83
425.26	264.34
425.64	265.77
426.01	267.37
426.38	269.03
426.75	270.62
427.13	272.31
427.50	274.11
427.87	276.03
428.24	277.89
428.61	279.60
428.99	281.51
429.36	283.58
429.73	285.65
430.10	287.66
430.47	289.72
430.85	291.80
431.22	294.04
431.59	296.41
431.96	298.62
432.33	301.11
432.70	303.49
433.08	306.30
433.45	308.94
433.82	311.55
434.19	314.43
434.56	317.26
434.93	319.92
435.30	322.52
435.68	325.39
436.05	328.23
436.42	331.05
436.79	333.54
437.16	336.28
437.53	339.10
437.90	341.93
438.27	344.68
438.64	347.52
439.01	350.10
439.38	352.32
439.75	354.49
440.13	356.98
440.50	359.31
440.87	361.12
441.24	363.05
441.61	365.26
441.98	366.72
442.35	368.52
442.72	370.38
443.09	372.20
443.46	373.19
443.83	373.79
444.20	374.27
444.57	375.16
444.94	375.48
445.31	375.81
445.68	376.15
446.05	376.26
446.42	375.88
446.79	375.45
447.16	375.00
447.53	374.69
447.90	373.52
448.27	372.33
448.64	370.79
449.01	369.62
449.37	367.64
449.74	365.75
450.11	363.53
450.48	361.08
450.85	358.54
451.22	356.40
451.59	354.40
451.96	352.50
452.33	349.87
452.70	347.49
453.07	344.64
453.43	341.72
453.80	338.92
454.17	336.29
454.54	333.76
454.91	331.03
455.28	328.36
455.65	325.92
456.02	323.52
456.38	321.33
456.75	318.71
457.12	316.43
457.49	314.24
457.86	312.09
458.23	310.25
458.59	308.22
458.96	306.15
459.33	304.28
459.70	302.43
460.07	300.95
460.43	299.22
460.80	297.63
461.17	296.22
461.54	294.71
461.91	293.24
462.27	291.82
462.64	290.61
463.01	289.27
463.38	287.94
463.74	286.57
464.11	285.44
464.48	284.41
464.85	283.30
465.21	282.39
465.58	281.44
465.95	280.32
466.32	279.43
466.68	278.48
467.05	277.55
467.42	276.60
467.78	275.65
468.15	274.75
468.52	274.09
468.88	273.25
469.25	272.46
469.62	271.88
469.98	271.15
470.35	270.52
470.72	269.91
471.08	269.25
471.45	268.70
471.82	268.17
472.18	267.57
472.55	267.13
472.92	266.63
473.28	266.17
473.65	265.71
474.02	265.25
474.38	264.89
474.75	264.61
475.11	264.26
475.48	264.01
475.85	263.81
476.21	263.57
476.58	263.36
476.94	263.25
477.31	263.06
477.67	262.92
478.04	262.79
478.41	262.74
478.77	262.80
479.14	262.75
479.50	262.77
479.87	262.85
480.23	262.94
480.60	263.00
480.96	263.10
481.33	263.29
481.69	263.47
482.06	263.66
482.42	263.84
482.79	264.13
483.15	264.43
483.52	264.83
483.88	265.18
484.25	265.57
484.61	266.02
484.98	266.44
485.34	267.00
485.71	267.58
486.07	268.15
486.44	268.75
486.80	269.43
487.17	270.14
487.53	270.97
487.90	271.82
488.26	272.77
488.62	273.78
488.99	274.80
489.35	275.87
489.72	277.04
490.08	278.27
490.44	279.50
490.81	280.86
491.17	282.16
491.54	283.65
491.90	285.20
492.26	286.81
492.63	288.55
492.99	290.35
493.36	292.24
493.72	294.30
494.08	296.38
494.45	298.66
494.81	301.05
495.17	303.48
495.54	306.04
495.90	308.69
496.26	311.47
496.63	314.40
496.99	317.52
497.35	320.79
497.72	324.18
498.08	327.68
498.44	331.36
498.80	335.35
499.17	339.42
499.53	343.57
499.89	347.98
500.26	352.51
500.62	357.15
500.98	362.11
501.34	367.22
501.71	372.55
502.07	377.95
502.43	383.61
502.79	389.45
503.16	395.54
503.52	401.88
503.88	408.30
504.24	414.97
504.60	421.84
504.97	428.93
505.33	436.29
505.69	444.02
506.05	451.76
506.41	459.63
506.78	467.71
507.14	476.19
507.50	484.92
507.86	493.99
508.22	503.22
508.59	512.41
508.95	522.03
509.31	531.82
509.67	541.99
510.03	552.22
510.39	562.77
510.75	573.60
511.12	584.53
511.48	595.83
511.84	607.31
512.20	618.89
512.56	630.85
512.92	643.04
513.28	655.34
513.64	667.85
514.00	680.62
514.37	693.58
514.73	706.74
515.09	719.72
515.45	732.95
515.81	746.54
516.17	760.57
516.53	774.69
516.89	788.94
517.25	803.01
517.61	817.49
517.97	831.94
518.33	846.29
518.69	861.10
519.05	876.09
519.41	891.11
519.77	906.57
520.13	922.04
520.49	937.29
520.85	952.66
521.21	968.43
521.57	984.60
521.93	1000.34
522.29	1016.64
522.65	1032.88
523.01	1049.09
523.37	1065.13
523.73	1081.29
524.09	1097.35
524.45	1113.66
524.81	1130.32
525.17	1147.05
525.53	1163.97
525.89	1180.93
526.25	1197.71
526.61	1214.13
526.97	1230.90
527.33	1247.37
527.68	1263.97
528.04	1280.48
528.40	1297.11
528.76	1314.16
529.12	1330.75
529.48	1347.67
529.84	1363.73
530.20	1380.32
530.56	1397.40
530.91	1414.85
531.27	1431.57
531.63	1448.03
531.99	1464.52
532.35	1480.50
532.71	1496.27
533.07	1512.37
533.42	1528.15
533.78	1544.17
534.14	1560.39
534.50	1575.76
534.86	1591.68
535.21	1606.86
535.57	1622.74
535.93	1638.33
536.29	1652.93
536.65	1667.86
537.00	1682.60
537.36	1697.89
537.72	1712.52
538.08	1726.83
538.44	1740.48
538.79	1754.29
539.15	1767.92
539.51	1781.65
539.87	1796.02
540.22	1809.91
540.58	1823.74
540.94	1837.11
541.29	1849.98
541.65	1862.63
542.01	1875.93
542.37	1888.13
542.72	1900.50
543.08	1912.29
543.44	1924.57
543.79	1935.87
544.15	1947.05
544.51	1958.58
544.87	1969.51
545.22	1980.23
545.58	1990.51
545.94	2000.33
546.29	2010.33
546.65	2020.12
547.01	2029.43
547.36	2038.14
547.72	2046.49
548.07	2054.33
548.43	2062.50
548.79	2070.54
549.14	2078.07
549.50	2085.29
549.86	2093.04
550.21	2100.35
550.57	2107.53
550.92	2114.16
551.28	2121.16
551.64	2128.16
551.99	2134.64
552.35	2140.76
552.70	2146.97
553.06	2152.86
553.41	2159.34
553.77	2165.36
554.13	2171.49
554.48	2177.51
554.84	2182.90
555.19	2188.40
555.55	2193.42
555.90	2197.84
556.26	2202.63
556.61	2207.50
556.97	2211.70
557.32	2215.76
557.68	2219.83
558.03	2224.11
558.39	2227.76
558.74	2232.54
559.10	2236.45
559.45	2240.14
559.81	2244.50
560.16	2248.32
560.52	2251.55
560.87	2254.78
561.23	2257.56
561.58	2260.63
561.94	2263.21
562.29	2265.66
562.64	2268.27
563.00	2270.92
563.35	2274.43
563.71	2277.53
564.06	2280.58
564.42	2283.54
564.77	2285.99
565.12	2288.41
565.48	2290.34
565.83	2292.34
566.19	2293.70
566.54	2294.41
566.89	2295.56
567.25	2296.12
567.60	2297.42
567.96	2299.17
568.31	2300.18
568.66	2301.09
569.02	2301.48
569.37	2301.66
569.72	2302.44
570.08	2302.47
570.43	2302.60
570.78	2302.01
571.14	2300.49
571.49	2299.15
571.84	2298.73
572.20	2297.61
572.55	2296.47
572.90	2294.89
573.26	2293.30
573.61	2291.47
573.96	2289.83
574.31	2286.87
574.67	2283.78
575.02	2280.11
575.37	2276.87
575.72	2272.97
576.08	2269.63
576.43	2266.28
576.78	2262.64
577.13	2259.53
577.49	2256.52
577.84	2252.98
578.19	2249.31
578.54	2245.73
578.90	2241.64
579.25	2236.18
579.60	2231.20
579.95	2226.26
580.30	2221.31
580.66	2216.24
581.01	2211.30
581.36	2206.43
581.71	2202.30
582.06	2197.84
582.42	2193.33
582.77	2187.98
583.12	2183.44
583.47	2178.67
583.82	2173.81
584.17	2168.56
584.53	2162.84
584.88	2157.21
585.23	2151.48
585.58	2145.92
585.93	2140.44
586.28	2135.51
586.63	2130.38
586.98	2125.39
587.34	2120.63
587.69	2115.76
588.04	2110.36
588.39	2104.73
588.74	2098.24
589.09	2092.01
589.44	2085.23
589.79	2079.35
590.14	2073.67
590.49	2066.94
590.84	2060.62
591.19	2054.54
591.54	2048.17
591.89	2040.90
592.25	2034.08
592.60	2026.86
592.95	2019.47
593.30	2012.08
593.65	2004.53
594.00	1997.55
594.35	1990.36
594.70	1982.37
595.05	1975.09
595.40	1967.99
595.75	1960.50
596.10	1954.15
596.45	1947.43
596.80	1941.26
597.15	1934.51
597.50	1927.26
597.85	1920.87
598.19	1914.15
598.54	1907.00
598.89	1900.34
599.24	1894.41
599.59	1887.56
599.94	1881.38
600.29	1874.98
600.64	1868.51
600.99	1861.17
601.34	1854.25
601.69	1847.23
602.04	1840.28
602.39	1832.94
602.74	1825.98
603.08	1819.13
603.43	1812.50
603.78	1805.23
604.13	1797.95
604.48	1790.66
604.83	1783.87
605.18	1776.85
605.53	1768.88
605.87	1760.82
606.22	1753.69
606.57	1745.81
606.92	1738.64
607.27	1731.51
607.62	1724.47
607.96	1717.18
608.31	1710.40
608.66	1702.90
609.01	1695.35
609.36	1687.73
609.70	1679.73
610.05	1671.67
610.40	1663.96
610.75	1655.59
611.10	1647.75
611.44	1639.37
611.79	1631.43
612.14	1622.74
612.49	1613.68
612.83	1605.32
613.18	1597.21
613.53	1589.06
613.88	1580.54
614.22	1572.26
614.57	1563.57
614.92	1555.49
615.27	1547.85
615.61	1539.53
615.96	1531.50
616.31	1523.87
616.65	1516.46
617.00	1508.86
617.35	1501.25
617.70	1492.88
618.04	1484.41
618.39	1476.38
618.74	1468.86
619.08	1460.49
619.43	1452.88
619.78	1445.89
620.12	1438.69
620.47	1431.24
620.82	1422.94
621.16	1415.57
621.51	1408.01
621.85	1400.29
622.20	1391.87
622.55	1383.48
622.89	1375.64
623.24	1368.01
623.59	1360.60
623.93	1353.20
624.28	1346.02
624.62	1338.45
624.97	1331.33
625.32	1324.54
625.66	1317.52
626.01	1310.32
626.35	1302.90
626.70	1295.25
627.04	1287.44
627.39	1279.65
627.73	1272.24
628.08	1265.49
628.43	1258.11
628.77	1250.65
629.12	1243.13
629.46	1235.91
629.81	1228.61
630.15	1221.48
630.50	1214.10
630.84	1205.98
631.19	1198.07
631.53	1190.51
631.88	1183.02
632.22	1175.47
632.57	1168.13
632.91	1160.54
633.26	1153.07
633.60	1145.63
633.95	1138.53
634.29	1131.66
634.64	1124.97
634.98	1117.62
635.32	1110.38
635.67	1103.86
636.01	1097.23
636.36	1090.55
636.70	1084.03
637.05	1077.42
637.39	1070.86
637.73	1064.31
638.08	1058.37
638.42	1052.26
638.77	1045.77
639.11	1039.10
639.45	1032.70
639.80	1026.09
640.14	1019.70
640.49	1013.15
640.83	1006.87
641.17	1000.61
641.52	994.24
641.86	987.78
642.20	981.95
642.55	975.69
642.89	969.17
643.23	962.65
643.58	956.77
643.92	950.62
644.26	944.47
644.61	938.51
644.95	932.42
645.29	925.76
645.64	919.11
645.98	912.88
646.32	907.07
646.66	901.05
647.01	895.25
647.35	889.51
647.69	883.71
648.04	878.27
648.38	872.52
648.72	866.48
649.06	860.52
649.41	854.56
649.75	848.51
650.09	842.53
650.43	836.73
650.78	830.54
651.12	824.56
651.46	818.89
651.80	813.13
652.14	807.77
652.49	802.52
652.83	797.32
653.17	791.61
653.51	785.87
653.85	780.46
654.20	774.78
654.54	768.82
654.88	763.06
655.22	757.15
655.56	751.43
655.90	746.03
656.25	740.77
656.59	735.48
656.93	730.39
657.27	725.26
657.61	719.82
657.95	714.73
658.29	709.68
658.64	704.44
658.98	699.09
659.32	693.59
659.66	688.31
660.00	682.95
660.34	677.95
660.68	673.00
661.02	667.94
661.36	663.24
661.70	658.72
662.05	654.38
662.39	650.08
662.73	645.61
663.07	641.22
663.41	636.74
663.75	632.22
664.09	627.67
664.43	623.30
664.77	619.18
665.11	614.93
665.45	610.80
665.79	606.67
666.13	602.55
666.47	598.49
666.81	594.36
667.15	590.30
667.49	586.44
667.83	582.70
668.17	578.74
668.51	574.66
668.85	570.68
669.19	566.83
669.53	562.90
669.87	558.95
670.21	555.24
670.55	551.59
670.89	548.17
671.23	544.76
671.57	541.17
671.91	537.58
672.25	534.10
672.58	530.60
672.92	527.19
673.26	524.02
673.60	520.85
673.94	517.70
674.28	514.73
674.62	511.74
674.96	508.60
675.30	505.65
675.64	502.74
675.97	499.93
676.31	497.09
676.65	494.16
676.99	491.54
677.33	488.64
677.67	485.82
678.01	482.73
678.34	479.74
678.68	476.89
679.02	474.12
679.36	471.36
679.70	468.60
680.04	465.87
680.37	462.96
680.71	460.18
681.05	457.58
681.39	454.86
681.73	452.22
682.06	449.75
682.40	447.21
682.74	444.71
683.08	442.18
683.42	439.56
683.75	437.07
684.09	434.49
684.43	432.05
684.77	429.58
685.10	427.26
685.44	424.99
685.78	422.75
686.12	420.45
686.45	418.19
686.79	415.88
687.13	413.67
687.46	411.53
687.80	409.42
688.14	407.21
688.48	405.14
688.81	402.89
689.15	400.71
689.49	398.61
689.82	396.55
690.16	394.49
690.50	392.53
690.83	390.59
691.17	388.61
691.51	386.67
691.84	384.81
692.18	382.87
692.52	380.91
692.85	378.97
693.19	377.14
693.52	375.31
693.86	373.52
694.20	371.74
694.53	369.96
694.87	368.10
695.21	366.34
695.54	364.54
695.88	362.86
696.21	361.16
696.55	359.49
696.88	357.74
697.22	356.01
697.56	354.40
697.89	352.74
698.23	351.16
698.56	349.59
698.90	348.01
699.23	346.36
699.57	344.76
699.90	343.21
700.24	341.62
700.58	340.05
700.91	338.57
701.25	337.12
701.58	335.76
701.92	334.43
702.25	333.04
702.59	331.68
702.92	330.36
703.26	329.03
703.59	327.74
703.93	326.58
704.26	325.40
704.60	324.09
704.93	322.82
705.26	321.56
705.60	320.43
705.93	319.27
706.27	318.24
706.60	317.17
706.94	316.07
707.27	314.98
707.61	313.93
707.94	312.89
708.27	311.82
708.61	310.74
708.94	309.72
709.28	308.70
709.61	307.72
709.94	306.76
710.28	305.76
710.61	304.76
710.95	303.69
711.28	302.74
711.61	301.78
711.95	300.89
712.28	299.97
712.61	298.93
712.95	298.00
713.28	297.14
713.61	296.28
713.95	295.39
714.28	294.54
714.61	293.69
714.95	292.82
715.28	291.92
715.61	291.03
715.95	290.18
716.28	289.35
716.61	288.55
716.95	287.74
717.28	286.97
717.61	286.19
717.94	285.46
718.28	284.65
718.61	283.93
718.94	283.21
719.27	282.54
719.61	281.90
719.94	281.22
720.27	280.49
720.60	279.82
720.94	279.19
721.27	278.59
721.60	277.98
721.93	277.40
722.27	276.85
722.60	276.28
722.93	275.72
723.26	275.18
723.59	274.58
723.93	273.99
724.26	273.44
724.59	272.88
724.92	272.37
725.25	271.87
725.59	271.35
725.92	270.86
726.25	270.34
726.58	269.84
726.91	269.34
727.24	268.88
727.57	268.37
727.91	267.87
728.24	267.41
728.57	266.95
728.90	266.49
729.23	266.00
729.56	265.60
729.89	265.15
730.22	264.64
730.55	264.22
730.89	263.81
731.22	263.37
731.55	262.95
731.88	262.49
732.21	262.04
732.54	261.61
732.87	261.16
733.20	260.77
733.53	260.42
733.86	260.07
734.19	259.70
734.52	259.38
734.85	259.09
735.18	258.71
735.51	258.34
735.84	257.98
736.17	257.65
736.50	257.25
736.83	256.99
737.16	256.70
737.49	256.35
737.82	256.02
738.15	255.67
738.48	255.34
738.81	255.01
739.14	254.73
739.47	254.40
739.80	254.13
740.13	253.83
740.46	253.46
740.79	253.13
741.12	252.77
741.45	252.45
741.78	252.08
742.11	251.78
742.44	251.48
742.77	251.16
743.10	250.87
743.43	250.53
743.75	250.14
744.08	249.95
744.41	249.67
744.74	249.37
745.07	249.08
745.40	248.82
745.73	248.57
746.06	248.26
746.39	248.02
746.71	247.73
747.04	247.44
747.37	247.19
747.70	246.93
748.03	246.67
748.36	246.45
748.68	246.21
749.01	245.96
749.34	245.74
749.67	245.53
750.00	245.29
750.33	245.18
750.65	244.95
750.98	244.64
751.31	244.45
751.64	244.24
751.97	244.11
752.29	243.93
752.62	243.68
752.95	243.47
753.28	243.26
753.60	243.06
753.93	242.91
754.26	242.70
754.59	242.47
754.91	242.32
755.24	242.12
755.57	241.93
755.90	241.76
756.22	241.53
756.55	241.30
756.88	241.13
757.20	240.90
757.53	240.69
757.86	240.51
758.19	240.33
758.51	240.13
758.84	239.92
759.17	239.75
759.49	239.62
759.82	239.56
760.15	239.38
760.47	239.22
760.80	239.04
761.13	238.96
761.45	238.81
761.78	238.63
762.11	238.46
762.43	238.32
762.76	238.17
763.08	238.07
763.41	237.96
763.74	237.81
764.06	237.65
764.39	237.53
764.71	237.38
765.04	237.25
765.37	237.13
765.69	237.00
766.02	236.85
766.34	236.73
766.67	236.54
767.00	236.48
767.32	236.43
767.65	236.33
767.97	236.18
768.30	236.11
768.62	236.01
768.95	235.89
769.27	235.81
769.60	235.66
769.92	235.54
770.25	235.39
770.57	235.28
770.90	235.18
771.22	235.07
771.55	235.01
771.87	234.91
772.20	234.82
772.52	234.78
772.85	234.81
773.17	234.70
773.50	234.62
773.82	234.51
774.15	234.34
774.47	234.19
774.80	234.09
775.12	233.97
775.45	233.88
775.77	233.80
776.09	233.69
776.42	233.66
776.74	233.60
777.07	233.55
777.39	233.49
777.72	233.41
778.04	233.32
778.36	233.22
778.69	233.14
779.01	233.07
779.33	232.93
779.66	232.74
779.98	232.66
780.31	232.58
780.63	232.53
780.95	232.53
781.28	232.48
781.60	232.42
781.92	232.34
782.25	232.28
782.57	232.24
782.89	232.17
783.22	232.09
783.54	232.03
783.86	231.99
784.19	231.93
784.51	231.94
784.83	231.88
785.16	231.84
785.48	231.80
785.80	231.78
786.12	231.76
786.45	231.73
786.77	231.73
787.09	231.70
