SpectraSuite Data File
++++++++++++++++++++++++++++++++++++
Date: Fri Feb 01 16:23:07 EST 2013
User: group
Dark Spectrum Present: No
Reference Spectrum Present: No
Number of Sampled Component Spectra: 1
Spectrometers: USB2E7196
Integration Time (usec): 35000 (USB2E7196)
Spectra Averaged: 100 (USB2E7196)
Boxcar Smoothing: 10 (USB2E7196)
Correct for Electrical Dark: No (USB2E7196)
Strobe/Lamp Enabled: No (USB2E7196)
Correct for Detector Non-linearity: No (USB2E7196)
Correct for Stray Light: No (USB2E7196)
Number of Pixels in Processed Spectrum: 2048
>>>>>Begin Processed Spectral Data<<<<<
339.09	0.00
339.48	213.61
339.86	216.42
340.24	217.34
340.63	218.51
341.01	221.46
341.39	221.11
341.78	222.35
342.16	223.38
342.54	224.11
342.93	212.64
343.31	223.39
343.69	223.97
344.07	224.41
344.46	224.83
344.84	225.21
345.22	225.46
345.60	225.73
345.99	225.92
346.37	226.05
346.75	226.16
347.13	226.24
347.52	226.28
347.90	226.33
348.28	226.40
348.66	226.46
349.05	226.46
349.43	226.51
349.81	226.56
350.19	226.60
350.57	226.67
350.96	226.71
351.34	226.80
351.72	226.87
352.10	226.96
352.48	227.00
352.87	227.05
353.25	227.10
353.63	227.15
354.01	227.23
354.39	227.31
354.77	227.37
355.15	227.48
355.54	227.57
355.92	227.61
356.30	227.67
356.68	227.77
357.06	227.82
357.44	227.83
357.82	227.86
358.20	227.94
358.58	228.01
358.97	228.09
359.35	228.15
359.73	228.24
360.11	228.26
360.49	228.32
360.87	228.35
361.25	228.39
361.63	228.45
362.01	228.47
362.39	228.52
362.77	228.58
363.15	228.57
363.53	228.59
363.91	228.60
364.29	228.66
364.67	228.56
365.05	228.58
365.43	228.59
365.81	228.62
366.19	228.64
366.57	228.65
366.95	228.60
367.33	228.55
367.71	228.51
368.09	228.52
368.47	228.49
368.85	228.46
369.23	228.46
369.61	228.41
369.99	228.39
370.37	228.39
370.75	228.37
371.13	228.33
371.51	228.28
371.89	228.22
372.27	228.16
372.65	228.12
373.03	228.05
373.41	228.02
373.78	227.93
374.16	227.82
374.54	227.76
374.92	227.69
375.30	227.63
375.68	227.56
376.06	227.48
376.44	227.44
376.82	227.37
377.19	227.31
377.57	227.24
377.95	227.14
378.33	227.03
378.71	226.90
379.09	226.84
379.47	226.78
379.84	226.72
380.22	226.63
380.60	226.58
380.98	226.52
381.36	226.44
381.73	226.41
382.11	226.35
382.49	226.27
382.87	226.21
383.25	226.19
383.62	226.25
384.00	226.19
384.38	226.12
384.76	226.10
385.13	226.09
385.51	226.05
385.89	225.99
386.27	225.95
386.64	225.92
387.02	225.87
387.40	225.79
387.78	225.79
388.15	225.75
388.53	225.71
388.91	225.67
389.29	225.64
389.66	225.60
390.04	225.56
390.42	225.60
390.79	225.56
391.17	225.54
391.55	225.43
391.92	225.45
392.30	225.48
392.68	225.47
393.05	225.48
393.43	225.48
393.81	225.53
394.18	225.53
394.56	225.55
394.94	225.61
395.31	225.64
395.69	225.67
396.06	225.75
396.44	225.79
396.82	225.85
397.19	225.98
397.57	226.00
397.95	226.06
398.32	226.06
398.70	226.18
399.07	226.25
399.45	226.31
399.82	226.35
400.20	226.41
400.58	226.49
400.95	226.51
401.33	226.62
401.70	226.76
402.08	226.86
402.45	226.95
402.83	227.03
403.20	227.15
403.58	227.25
403.95	227.35
404.33	227.46
404.71	227.58
405.08	227.72
405.46	227.87
405.83	228.00
406.21	228.12
406.58	228.26
406.96	228.44
407.33	228.59
407.70	228.80
408.08	229.06
408.45	229.26
408.83	229.52
409.20	229.69
409.58	229.85
409.95	230.12
410.33	230.39
410.70	230.64
411.08	230.95
411.45	231.22
411.82	231.51
412.20	231.87
412.57	232.24
412.95	232.55
413.32	232.99
413.69	233.41
414.07	233.87
414.44	234.30
414.82	234.76
415.19	235.35
415.56	235.87
415.94	236.41
416.31	237.04
416.68	237.63
417.06	238.36
417.43	239.02
417.81	239.75
418.18	240.51
418.55	241.33
418.93	242.19
419.30	243.10
419.67	244.07
420.04	245.01
420.42	246.02
420.79	247.19
421.16	248.29
421.54	249.51
421.91	250.74
422.28	252.03
422.66	253.36
423.03	254.64
423.40	256.00
423.77	257.40
424.15	258.81
424.52	260.27
424.89	261.86
425.26	263.39
425.64	264.84
426.01	266.43
426.38	268.07
426.75	269.74
427.13	271.46
427.50	273.24
427.87	275.12
428.24	276.95
428.61	278.66
428.99	280.62
429.36	282.65
429.73	284.69
430.10	286.71
430.47	288.74
430.85	290.83
431.22	293.04
431.59	295.37
431.96	297.61
432.33	300.10
432.70	302.50
433.08	305.34
433.45	308.01
433.82	310.63
434.19	313.51
434.56	316.28
434.93	318.93
435.30	321.59
435.68	324.43
436.05	327.26
436.42	330.04
436.79	332.52
437.16	335.24
437.53	338.06
437.90	340.85
438.27	343.57
438.64	346.36
439.01	348.92
439.38	351.14
439.75	353.28
440.13	355.77
440.50	358.10
440.87	359.93
441.24	361.83
441.61	363.95
441.98	365.41
442.35	367.21
442.72	369.06
443.09	370.81
443.46	371.81
443.83	372.41
444.20	372.92
444.57	373.74
444.94	374.05
445.31	374.36
445.68	374.71
446.05	374.78
446.42	374.42
446.79	374.00
447.16	373.57
447.53	373.28
447.90	372.12
448.27	370.91
448.64	369.30
449.01	368.14
449.37	366.22
449.74	364.37
450.11	362.12
450.48	359.67
450.85	357.16
451.22	355.04
451.59	353.03
451.96	351.10
452.33	348.55
452.70	346.21
453.07	343.40
453.43	340.52
453.80	337.82
454.17	335.18
454.54	332.65
454.91	329.93
455.28	327.25
455.65	324.78
456.02	322.38
456.38	320.28
456.75	317.65
457.12	315.36
457.49	313.15
457.86	310.98
458.23	309.12
458.59	307.07
458.96	305.00
459.33	303.16
459.70	301.33
460.07	299.84
460.43	298.10
460.80	296.48
461.17	295.05
461.54	293.51
461.91	292.04
462.27	290.62
462.64	289.42
463.01	288.05
463.38	286.74
463.74	285.38
464.11	284.22
464.48	283.21
464.85	282.14
465.21	281.30
465.58	280.40
465.95	279.31
466.32	278.39
466.68	277.47
467.05	276.58
467.42	275.62
467.78	274.70
468.15	273.81
468.52	273.13
468.88	272.27
469.25	271.53
469.62	270.94
469.98	270.30
470.35	269.65
470.72	269.08
471.08	268.47
471.45	267.96
471.82	267.42
472.18	266.83
472.55	266.38
472.92	265.85
473.28	265.41
473.65	264.97
474.02	264.55
474.38	264.21
474.75	263.90
475.11	263.59
475.48	263.32
475.85	263.12
476.21	262.96
476.58	262.80
476.94	262.65
477.31	262.51
477.67	262.36
478.04	262.27
478.41	262.23
478.77	262.26
479.14	262.20
479.50	262.21
479.87	262.29
480.23	262.38
480.60	262.42
480.96	262.51
481.33	262.71
481.69	262.93
482.06	263.13
482.42	263.34
482.79	263.62
483.15	263.93
483.52	264.30
483.88	264.63
484.25	264.99
484.61	265.41
484.98	265.84
485.34	266.41
485.71	267.00
486.07	267.60
486.44	268.20
486.80	268.92
487.17	269.66
487.53	270.50
487.90	271.38
488.26	272.38
488.62	273.37
488.99	274.35
489.35	275.40
489.72	276.55
490.08	277.79
490.44	279.05
490.81	280.41
491.17	281.79
491.54	283.27
491.90	284.82
492.26	286.48
492.63	288.24
492.99	290.02
493.36	291.93
493.72	293.96
494.08	296.04
494.45	298.27
494.81	300.64
495.17	303.07
495.54	305.61
495.90	308.32
496.26	311.13
496.63	314.10
496.99	317.23
497.35	320.49
497.72	323.90
498.08	327.45
498.44	331.11
498.80	334.99
499.17	339.05
499.53	343.29
499.89	347.64
500.26	352.17
500.62	356.85
500.98	361.83
501.34	366.88
501.71	372.22
502.07	377.62
502.43	383.26
502.79	389.08
503.16	395.16
503.52	401.40
503.88	407.81
504.24	414.51
504.60	421.42
504.97	428.55
505.33	435.82
505.69	443.46
506.05	451.25
506.41	459.11
506.78	467.29
507.14	475.67
507.50	484.39
507.86	493.37
508.22	502.55
508.59	511.75
508.95	521.35
509.31	531.22
509.67	541.34
510.03	551.58
510.39	562.11
510.75	572.95
511.12	583.88
511.48	595.16
511.84	606.59
512.20	618.08
512.56	630.04
512.92	642.22
513.28	654.54
513.64	667.08
514.00	679.79
514.37	692.70
514.73	705.75
515.09	718.79
515.45	732.13
515.81	745.77
516.17	759.77
516.53	773.87
516.89	787.96
517.25	802.09
517.61	816.50
517.97	830.95
518.33	845.27
518.69	860.01
519.05	874.97
519.41	890.09
519.77	905.59
520.13	920.95
520.49	936.33
520.85	951.79
521.21	967.37
521.57	983.60
521.93	999.31
522.29	1015.70
522.65	1031.91
523.01	1048.05
523.37	1064.04
523.73	1080.09
524.09	1096.13
524.45	1112.47
524.81	1129.12
525.17	1145.89
525.53	1162.75
525.89	1179.66
526.25	1196.51
526.61	1212.77
526.97	1229.49
527.33	1245.88
527.68	1262.41
528.04	1278.93
528.40	1295.41
528.76	1312.37
529.12	1328.88
529.48	1345.78
529.84	1361.70
530.20	1378.31
530.56	1395.29
530.91	1412.64
531.27	1429.42
531.63	1445.75
531.99	1462.23
532.35	1478.10
532.71	1493.88
533.07	1509.99
533.42	1525.80
533.78	1541.79
534.14	1558.06
534.50	1573.35
534.86	1589.13
535.21	1604.26
535.57	1619.95
535.93	1635.47
536.29	1650.27
536.65	1665.22
537.00	1679.83
537.36	1695.03
537.72	1709.54
538.08	1723.88
538.44	1737.57
538.79	1751.31
539.15	1764.97
539.51	1778.59
539.87	1792.77
540.22	1806.53
540.58	1820.20
540.94	1833.44
541.29	1846.04
541.65	1858.65
542.01	1871.75
542.37	1883.99
542.72	1896.23
543.08	1907.89
543.44	1920.22
543.79	1931.26
544.15	1942.16
544.51	1953.64
544.87	1964.55
545.22	1975.29
545.58	1985.36
545.94	1994.89
546.29	2004.75
546.65	2014.63
547.01	2023.65
547.36	2032.30
547.72	2040.71
548.07	2048.50
548.43	2056.55
548.79	2064.63
549.14	2072.13
549.50	2079.39
549.86	2086.99
550.21	2094.37
550.57	2101.50
550.92	2107.89
551.28	2114.99
551.64	2122.08
551.99	2128.55
552.35	2134.58
552.70	2140.62
553.06	2146.52
553.41	2152.95
553.77	2158.91
554.13	2164.82
554.48	2171.20
554.84	2176.85
555.19	2182.05
555.55	2187.21
555.90	2191.72
556.26	2196.57
556.61	2201.38
556.97	2205.81
557.32	2210.00
557.68	2214.06
558.03	2218.34
558.39	2222.13
558.74	2226.82
559.10	2230.67
559.45	2234.34
559.81	2238.73
560.16	2242.61
560.52	2245.95
560.87	2249.32
561.23	2252.01
561.58	2255.16
561.94	2257.54
562.29	2259.80
562.64	2262.46
563.00	2265.06
563.35	2268.64
563.71	2271.78
564.06	2274.90
564.42	2277.66
564.77	2280.22
565.12	2282.58
565.48	2284.52
565.83	2286.39
566.19	2287.68
566.54	2288.52
566.89	2289.65
567.25	2290.31
567.60	2291.60
567.96	2293.30
568.31	2294.17
568.66	2295.35
569.02	2295.78
569.37	2296.20
569.72	2297.22
570.08	2297.47
570.43	2297.59
570.78	2297.00
571.14	2295.52
571.49	2294.23
571.84	2293.85
572.20	2292.85
572.55	2291.85
572.90	2290.40
573.26	2289.00
573.61	2287.46
573.96	2285.96
574.31	2283.08
574.67	2280.16
575.02	2276.58
575.37	2273.21
575.72	2269.50
576.08	2266.14
576.43	2262.92
576.78	2259.29
577.13	2256.00
577.49	2252.99
577.84	2249.44
578.19	2245.74
578.54	2242.24
578.90	2238.04
579.25	2232.61
579.60	2227.66
579.95	2222.69
580.30	2217.77
580.66	2212.73
581.01	2207.74
581.36	2202.74
581.71	2198.65
582.06	2194.06
582.42	2189.59
582.77	2184.52
583.12	2180.01
583.47	2175.38
583.82	2170.41
584.17	2165.25
584.53	2159.87
584.88	2154.30
585.23	2148.74
585.58	2143.38
585.93	2138.14
586.28	2133.39
586.63	2128.34
586.98	2123.35
587.34	2118.67
587.69	2113.75
588.04	2108.55
588.39	2102.97
588.74	2096.66
589.09	2090.49
589.44	2083.89
589.79	2078.01
590.14	2072.54
590.49	2066.10
590.84	2059.77
591.19	2053.76
591.54	2047.36
591.89	2040.07
592.25	2033.27
592.60	2026.09
592.95	2018.49
593.30	2011.09
593.65	2003.44
594.00	1996.51
594.35	1989.24
594.70	1981.31
595.05	1974.25
595.40	1966.94
595.75	1959.53
596.10	1953.32
596.45	1946.78
596.80	1940.76
597.15	1934.05
597.50	1926.76
597.85	1920.33
598.19	1913.66
598.54	1906.53
598.89	1899.80
599.24	1894.05
599.59	1887.38
599.94	1881.19
600.29	1874.98
600.64	1868.33
600.99	1861.05
601.34	1854.25
601.69	1847.32
602.04	1840.51
602.39	1833.17
602.74	1826.37
603.08	1819.44
603.43	1812.68
603.78	1805.26
604.13	1797.97
604.48	1790.73
604.83	1783.98
605.18	1776.97
605.53	1769.09
605.87	1761.21
606.22	1754.05
606.57	1746.00
606.92	1738.79
607.27	1731.68
607.62	1724.76
607.96	1717.42
608.31	1710.85
608.66	1703.31
609.01	1695.86
609.36	1688.21
609.70	1680.28
610.05	1672.32
610.40	1664.76
610.75	1656.55
611.10	1648.96
611.44	1640.64
611.79	1632.74
612.14	1624.09
612.49	1614.87
612.83	1606.45
613.18	1598.32
613.53	1590.24
613.88	1581.65
614.22	1573.41
614.57	1564.78
614.92	1556.64
615.27	1549.23
615.61	1540.88
615.96	1532.80
616.31	1525.14
616.65	1517.81
617.00	1510.03
617.35	1502.25
617.70	1493.88
618.04	1485.39
618.39	1477.17
618.74	1469.56
619.08	1461.24
619.43	1453.62
619.78	1446.83
620.12	1439.69
620.47	1432.30
620.82	1424.18
621.16	1416.78
621.51	1409.12
621.85	1401.40
622.20	1392.94
622.55	1384.48
622.89	1376.60
623.24	1369.00
623.59	1361.52
623.93	1353.96
624.28	1346.83
624.62	1339.35
624.97	1332.17
625.32	1325.30
625.66	1318.15
626.01	1310.84
626.35	1303.35
626.70	1295.60
627.04	1287.81
627.39	1279.94
627.73	1272.50
628.08	1265.62
628.43	1258.32
628.77	1250.96
629.12	1243.54
629.46	1236.37
629.81	1228.94
630.15	1221.70
630.50	1214.28
630.84	1206.09
631.19	1198.22
631.53	1190.73
631.88	1183.22
632.22	1175.65
632.57	1168.35
632.91	1160.90
633.26	1153.49
633.60	1146.10
633.95	1138.99
634.29	1131.98
634.64	1125.40
634.98	1117.98
635.32	1110.73
635.67	1104.08
636.01	1097.39
636.36	1090.47
636.70	1083.87
637.05	1077.36
637.39	1070.87
637.73	1064.32
638.08	1058.41
638.42	1052.39
638.77	1045.93
639.11	1039.28
639.45	1032.86
639.80	1026.18
640.14	1019.79
640.49	1013.29
640.83	1006.99
641.17	1000.78
641.52	994.30
641.86	987.77
642.20	981.88
642.55	975.49
642.89	969.03
643.23	962.46
643.58	956.71
643.92	950.57
644.26	944.44
644.61	938.46
644.95	932.37
645.29	925.81
645.64	919.00
645.98	912.65
646.32	906.83
646.66	900.76
647.01	895.06
647.35	889.33
647.69	883.46
648.04	877.87
648.38	872.10
648.72	866.24
649.06	860.18
649.41	854.28
649.75	848.36
650.09	842.47
650.43	836.69
650.78	830.51
651.12	824.50
651.46	818.73
651.80	812.99
652.14	807.61
652.49	802.23
652.83	797.14
653.17	791.45
653.51	785.71
653.85	780.35
654.20	774.63
654.54	768.62
654.88	762.91
655.22	757.07
655.56	751.34
655.90	745.89
656.25	740.67
656.59	735.32
656.93	730.28
657.27	725.12
657.61	719.70
657.95	714.67
658.29	709.60
658.64	704.46
658.98	699.18
659.32	693.72
659.66	688.49
660.00	683.14
660.34	678.23
660.68	673.31
661.02	668.26
661.36	663.49
661.70	658.97
662.05	654.64
662.39	650.31
662.73	645.83
663.07	641.47
663.41	636.98
663.75	632.44
664.09	627.83
664.43	623.43
664.77	619.29
665.11	614.96
665.45	610.81
665.79	606.67
666.13	602.49
666.47	598.47
666.81	594.31
667.15	590.18
667.49	586.22
667.83	582.42
668.17	578.48
668.51	574.45
668.85	570.41
669.19	566.55
669.53	562.68
669.87	558.83
670.21	555.01
670.55	551.33
670.89	547.98
671.23	544.58
671.57	541.06
671.91	537.53
672.25	534.04
672.58	530.55
672.92	527.15
673.26	523.93
673.60	520.71
673.94	517.63
674.28	514.68
674.62	511.79
674.96	508.65
675.30	505.78
675.64	502.85
675.97	500.04
676.31	497.13
676.65	494.20
676.99	491.49
677.33	488.69
677.67	485.92
678.01	482.87
678.34	479.87
678.68	476.98
679.02	474.06
679.36	471.28
679.70	468.56
680.04	465.82
680.37	462.95
680.71	460.13
681.05	457.52
681.39	454.79
681.73	452.06
682.06	449.52
682.40	446.99
682.74	444.44
683.08	441.90
683.42	439.34
683.75	436.79
684.09	434.25
684.43	431.74
684.77	429.25
685.10	426.89
685.44	424.62
685.78	422.33
686.12	420.14
686.45	417.86
686.79	415.54
687.13	413.34
687.46	411.23
687.80	409.11
688.14	406.84
688.48	404.78
688.81	402.52
689.15	400.38
689.49	398.14
689.82	396.05
690.16	393.96
690.50	392.03
690.83	390.10
691.17	388.10
691.51	386.22
691.84	384.36
692.18	382.42
692.52	380.39
692.85	378.45
693.19	376.54
693.52	374.68
693.86	372.88
694.20	371.07
694.53	369.23
694.87	367.36
695.21	365.62
695.54	363.78
695.88	362.08
696.21	360.39
696.55	358.77
696.88	357.11
697.22	355.45
697.56	353.77
697.89	352.14
698.23	350.56
698.56	348.92
698.90	347.33
699.23	345.75
699.57	344.22
699.90	342.71
700.24	341.21
700.58	339.73
700.91	338.22
701.25	336.80
701.58	335.46
701.92	334.14
702.25	332.75
702.59	331.42
702.92	330.14
703.26	328.87
703.59	327.57
703.93	326.41
704.26	325.15
704.60	323.86
704.93	322.59
705.26	321.29
705.60	320.12
705.93	318.98
706.27	317.92
706.60	316.86
706.94	315.78
707.27	314.62
707.61	313.55
707.94	312.53
708.27	311.42
708.61	310.33
708.94	309.30
709.28	308.31
709.61	307.36
709.94	306.38
710.28	305.30
710.61	304.31
710.95	303.20
711.28	302.34
711.61	301.40
711.95	300.46
712.28	299.50
712.61	298.54
712.95	297.62
713.28	296.72
713.61	295.83
713.95	294.94
714.28	294.12
714.61	293.24
714.95	292.38
715.28	291.50
715.61	290.61
715.95	289.73
716.28	288.85
716.61	287.99
716.95	287.12
717.28	286.41
717.61	285.62
717.94	284.90
718.28	284.02
718.61	283.29
718.94	282.63
719.27	281.94
719.61	281.27
719.94	280.56
720.27	279.83
720.60	279.14
720.94	278.48
721.27	277.83
721.60	277.21
721.93	276.63
722.27	276.09
722.60	275.51
722.93	274.92
723.26	274.36
723.59	273.74
723.93	273.21
724.26	272.58
724.59	272.02
724.92	271.49
725.25	271.01
725.59	270.44
725.92	269.87
726.25	269.39
726.58	268.88
726.91	268.35
727.24	267.91
727.57	267.39
727.91	266.89
728.24	266.44
728.57	265.94
728.90	265.49
729.23	264.99
729.56	264.57
729.89	264.14
730.22	263.68
730.55	263.28
730.89	262.85
731.22	262.45
731.55	262.04
731.88	261.58
732.21	261.15
732.54	260.73
732.87	260.37
733.20	259.97
733.53	259.59
733.86	259.26
734.19	258.82
734.52	258.47
734.85	258.17
735.18	257.79
735.51	257.45
735.84	257.11
736.17	256.78
736.50	256.39
736.83	256.15
737.16	255.82
737.49	255.47
737.82	255.09
738.15	254.76
738.48	254.41
738.81	254.10
739.14	253.77
739.47	253.48
739.80	253.16
740.13	252.86
740.46	252.53
740.79	252.19
741.12	251.92
741.45	251.60
741.78	251.26
742.11	250.98
742.44	250.69
742.77	250.43
743.10	250.11
743.43	249.82
743.75	249.43
744.08	249.31
744.41	249.04
744.74	248.81
745.07	248.53
745.40	248.31
745.73	248.07
746.06	247.82
746.39	247.57
746.71	247.32
747.04	247.02
747.37	246.82
747.70	246.59
748.03	246.33
748.36	246.15
748.68	245.93
749.01	245.66
749.34	245.44
749.67	245.14
750.00	244.94
750.33	244.78
750.65	244.57
750.98	244.20
751.31	244.00
751.64	243.76
751.97	243.61
752.29	243.35
752.62	243.14
752.95	242.95
753.28	242.70
753.60	242.46
753.93	242.31
754.26	242.08
754.59	241.84
754.91	241.59
755.24	241.36
755.57	241.14
755.90	240.97
756.22	240.74
756.55	240.58
756.88	240.38
757.20	240.13
757.53	239.93
757.86	239.77
758.19	239.60
758.51	239.45
758.84	239.19
759.17	239.05
759.49	238.86
759.82	238.70
760.15	238.58
760.47	238.48
760.80	238.31
761.13	238.20
761.45	238.02
761.78	237.89
762.11	237.72
762.43	237.57
762.76	237.38
763.08	237.30
763.41	237.14
763.74	236.99
764.06	236.85
764.39	236.72
764.71	236.56
765.04	236.44
765.37	236.29
765.69	236.18
766.02	236.04
766.34	235.91
766.67	235.76
767.00	235.63
767.32	235.52
767.65	235.47
767.97	235.31
768.30	235.22
768.62	235.12
768.95	235.03
769.27	234.92
769.60	234.85
769.92	234.71
770.25	234.59
770.57	234.48
770.90	234.38
771.22	234.24
771.55	234.14
771.87	234.05
772.20	233.97
772.52	233.95
772.85	233.98
773.17	233.88
773.50	233.79
773.82	233.72
774.15	233.60
774.47	233.44
774.80	233.35
775.12	233.33
775.45	233.24
775.77	233.13
776.09	233.06
776.42	232.99
776.74	232.94
777.07	232.87
777.39	232.80
777.72	232.74
778.04	232.70
778.36	232.62
778.69	232.57
779.01	232.47
779.33	232.34
779.66	232.17
779.98	232.08
780.31	232.03
780.63	231.98
780.95	231.94
781.28	231.92
781.60	231.87
781.92	231.79
782.25	231.78
782.57	231.72
782.89	231.68
783.22	231.62
783.54	231.54
783.86	231.50
784.19	231.45
784.51	231.44
784.83	231.36
785.16	231.33
785.48	231.29
785.80	231.29
786.12	231.24
786.45	231.23
786.77	231.21
787.09	231.15
