SpectraSuite Data File
++++++++++++++++++++++++++++++++++++
Date: Fri Feb 01 16:50:08 EST 2013
User: group
Dark Spectrum Present: No
Reference Spectrum Present: No
Number of Sampled Component Spectra: 1
Spectrometers: USB2E7196
Integration Time (usec): 35000 (USB2E7196)
Spectra Averaged: 100 (USB2E7196)
Boxcar Smoothing: 10 (USB2E7196)
Correct for Electrical Dark: No (USB2E7196)
Strobe/Lamp Enabled: No (USB2E7196)
Correct for Detector Non-linearity: No (USB2E7196)
Correct for Stray Light: No (USB2E7196)
Number of Pixels in Processed Spectrum: 2048
>>>>>Begin Processed Spectral Data<<<<<
339.09	0.00
339.48	213.72
339.86	214.96
340.24	215.92
340.63	218.21
341.01	220.26
341.39	220.41
341.78	222.02
342.16	222.71
342.54	223.76
342.93	211.92
343.31	222.61
343.69	223.15
344.07	223.60
344.46	224.04
344.84	224.38
345.22	224.62
345.60	224.85
345.99	225.02
346.37	225.14
346.75	225.21
347.13	225.25
347.52	225.33
347.90	225.40
348.28	225.41
348.66	225.43
349.05	225.39
349.43	225.41
349.81	225.44
350.19	225.48
350.57	225.50
350.96	225.56
351.34	225.65
351.72	225.71
352.10	225.80
352.48	225.85
352.87	225.91
353.25	225.99
353.63	226.05
354.01	226.11
354.39	226.20
354.77	226.28
355.15	226.37
355.54	226.43
355.92	226.49
356.30	226.55
356.68	226.68
357.06	226.78
357.44	226.82
357.82	226.85
358.20	226.90
358.58	226.98
358.97	227.02
359.35	227.09
359.73	227.14
360.11	227.19
360.49	227.25
360.87	227.28
361.25	227.32
361.63	227.39
362.01	227.41
362.39	227.42
362.77	227.46
363.15	227.48
363.53	227.48
363.91	227.49
364.29	227.51
364.67	227.45
365.05	227.47
365.43	227.50
365.81	227.52
366.19	227.59
366.57	227.63
366.95	227.60
367.33	227.56
367.71	227.56
368.09	227.57
368.47	227.53
368.85	227.52
369.23	227.53
369.61	227.48
369.99	227.49
370.37	227.46
370.75	227.46
371.13	227.41
371.51	227.35
371.89	227.28
372.27	227.23
372.65	227.20
373.03	227.16
373.41	227.08
373.78	227.03
374.16	226.93
374.54	226.82
374.92	226.78
375.30	226.74
375.68	226.67
376.06	226.58
376.44	226.52
376.82	226.48
377.19	226.38
377.57	226.30
377.95	226.23
378.33	226.18
378.71	226.07
379.09	226.03
379.47	225.98
379.84	225.95
380.22	225.88
380.60	225.77
380.98	225.69
381.36	225.63
381.73	225.58
382.11	225.53
382.49	225.52
382.87	225.45
383.25	225.38
383.62	225.44
384.00	225.39
384.38	225.36
384.76	225.31
385.13	225.31
385.51	225.28
385.89	225.22
386.27	225.16
386.64	225.15
387.02	225.09
387.40	225.07
387.78	225.04
388.15	225.02
388.53	225.01
388.91	224.99
389.29	224.96
389.66	224.93
390.04	224.87
390.42	224.88
390.79	224.87
391.17	224.85
391.55	224.73
391.92	224.73
392.30	224.72
392.68	224.69
393.05	224.67
393.43	224.68
393.81	224.67
394.18	224.67
394.56	224.67
394.94	224.72
395.31	224.70
395.69	224.74
396.06	224.75
396.44	224.79
396.82	224.81
397.19	224.87
397.57	224.90
397.95	224.96
398.32	224.95
398.70	225.01
399.07	225.08
399.45	225.14
399.82	225.19
400.20	225.23
400.58	225.31
400.95	225.35
401.33	225.43
401.70	225.57
402.08	225.66
402.45	225.70
402.83	225.79
403.20	225.88
403.58	225.94
403.95	226.07
404.33	226.19
404.71	226.30
405.08	226.47
405.46	226.59
405.83	226.74
406.21	226.88
406.58	227.01
406.96	227.19
407.33	227.34
407.70	227.54
408.08	227.80
408.45	227.93
408.83	228.13
409.20	228.29
409.58	228.45
409.95	228.70
410.33	228.97
410.70	229.21
411.08	229.49
411.45	229.81
411.82	230.09
412.20	230.38
412.57	230.82
412.95	231.13
413.32	231.51
413.69	231.89
414.07	232.29
414.44	232.71
414.82	233.16
415.19	233.68
415.56	234.18
415.94	234.72
416.31	235.43
416.68	236.06
417.06	236.79
417.43	237.50
417.81	238.25
418.18	239.04
418.55	239.88
418.93	240.78
419.30	241.67
419.67	242.59
420.04	243.60
420.42	244.58
420.79	245.77
421.16	246.91
421.54	248.09
421.91	249.31
422.28	250.60
422.66	251.95
423.03	253.28
423.40	254.62
423.77	256.03
424.15	257.41
424.52	258.90
424.89	260.51
425.26	262.04
425.64	263.51
426.01	265.11
426.38	266.76
426.75	268.46
427.13	270.17
427.50	271.98
427.87	273.84
428.24	275.69
428.61	277.44
428.99	279.38
429.36	281.47
429.73	283.51
430.10	285.52
430.47	287.58
430.85	289.63
431.22	291.89
431.59	294.27
431.96	296.48
432.33	298.92
432.70	301.29
433.08	304.08
433.45	306.72
433.82	309.29
434.19	312.17
434.56	314.93
434.93	317.58
435.30	320.21
435.68	323.04
436.05	325.86
436.42	328.59
436.79	331.09
437.16	333.76
437.53	336.64
437.90	339.42
438.27	342.10
438.64	344.97
439.01	347.50
439.38	349.68
439.75	351.87
440.13	354.34
440.50	356.61
440.87	358.45
441.24	360.34
441.61	362.48
441.98	363.91
442.35	365.70
442.72	367.55
443.09	369.30
443.46	370.31
443.83	370.89
444.20	371.42
444.57	372.29
444.94	372.62
445.31	372.92
445.68	373.29
446.05	373.38
446.42	372.98
446.79	372.57
447.16	372.15
447.53	371.81
447.90	370.72
448.27	369.61
448.64	368.02
449.01	366.86
449.37	364.94
449.74	363.05
450.11	360.82
450.48	358.36
450.85	355.89
451.22	353.74
451.59	351.72
451.96	349.77
452.33	347.16
452.70	344.78
453.07	341.99
453.43	339.05
453.80	336.31
454.17	333.67
454.54	331.16
454.91	328.46
455.28	325.83
455.65	323.35
456.02	320.91
456.38	318.80
456.75	316.19
457.12	313.94
457.49	311.77
457.86	309.62
458.23	307.78
458.59	305.77
458.96	303.74
459.33	301.89
459.70	300.05
460.07	298.56
460.43	296.91
460.80	295.30
461.17	293.93
461.54	292.44
461.91	291.01
462.27	289.62
462.64	288.40
463.01	287.08
463.38	285.82
463.74	284.48
464.11	283.33
464.48	282.35
464.85	281.26
465.21	280.42
465.58	279.51
465.95	278.44
466.32	277.53
466.68	276.65
467.05	275.77
467.42	274.94
467.78	274.06
468.15	273.19
468.52	272.55
468.88	271.69
469.25	270.97
469.62	270.37
469.98	269.68
470.35	269.07
470.72	268.47
471.08	267.81
471.45	267.28
471.82	266.79
472.18	266.19
472.55	265.79
472.92	265.27
473.28	264.82
473.65	264.40
474.02	263.98
474.38	263.64
474.75	263.36
475.11	263.03
475.48	262.75
475.85	262.55
476.21	262.29
476.58	262.18
476.94	262.03
477.31	261.88
477.67	261.77
478.04	261.69
478.41	261.69
478.77	261.75
479.14	261.72
479.50	261.74
479.87	261.84
480.23	261.93
480.60	262.04
480.96	262.15
481.33	262.37
481.69	262.58
482.06	262.78
482.42	262.94
482.79	263.20
483.15	263.54
483.52	263.92
483.88	264.30
484.25	264.64
484.61	265.11
484.98	265.55
485.34	266.12
485.71	266.70
486.07	267.27
486.44	267.84
486.80	268.55
487.17	269.31
487.53	270.10
487.90	270.92
488.26	271.83
488.62	272.82
488.99	273.81
489.35	274.88
489.72	276.00
490.08	277.23
490.44	278.47
490.81	279.76
491.17	281.12
491.54	282.61
491.90	284.12
492.26	285.72
492.63	287.48
492.99	289.28
493.36	291.16
493.72	293.22
494.08	295.31
494.45	297.56
494.81	299.85
495.17	302.29
495.54	304.82
495.90	307.56
496.26	310.38
496.63	313.32
496.99	316.39
497.35	319.61
497.72	323.00
498.08	326.56
498.44	330.28
498.80	334.20
499.17	338.23
499.53	342.41
499.89	346.79
500.26	351.28
500.62	355.90
500.98	360.90
501.34	365.96
501.71	371.28
502.07	376.67
502.43	382.29
502.79	388.08
503.16	394.15
503.52	400.34
503.88	406.71
504.24	413.30
504.60	420.18
504.97	427.34
505.33	434.63
505.69	442.28
506.05	449.96
506.41	457.77
506.78	465.87
507.14	474.31
507.50	482.96
507.86	491.92
508.22	501.07
508.59	510.17
508.95	519.72
509.31	529.44
509.67	539.54
510.03	549.75
510.39	560.27
510.75	570.94
511.12	581.79
511.48	593.00
511.84	604.39
512.20	615.78
512.56	627.60
512.92	639.68
513.28	652.00
513.64	664.40
514.00	677.03
514.37	689.90
514.73	702.80
515.09	715.69
515.45	728.89
515.81	742.30
516.17	756.15
516.53	770.13
516.89	784.24
517.25	798.14
517.61	812.42
517.97	826.67
518.33	841.04
518.69	855.66
519.05	870.52
519.41	885.51
519.77	900.93
520.13	916.20
520.49	931.41
520.85	946.55
521.21	962.07
521.57	978.23
521.93	993.74
522.29	1009.91
522.65	1026.03
523.01	1042.00
523.37	1057.89
523.73	1073.86
524.09	1089.87
524.45	1105.92
524.81	1122.53
525.17	1139.07
525.53	1155.86
525.89	1172.46
526.25	1189.14
526.61	1205.25
526.97	1221.78
527.33	1238.06
527.68	1254.36
528.04	1270.66
528.40	1286.85
528.76	1303.75
529.12	1319.99
529.48	1336.71
529.84	1352.52
530.20	1368.98
530.56	1385.70
530.91	1402.88
531.27	1419.47
531.63	1435.57
531.99	1452.00
532.35	1467.68
532.71	1483.52
533.07	1499.57
533.42	1515.41
533.78	1531.25
534.14	1547.38
534.50	1562.54
534.86	1578.07
535.21	1593.17
535.57	1608.86
535.93	1624.28
536.29	1638.70
536.65	1653.57
537.00	1668.11
537.36	1683.29
537.72	1697.49
538.08	1711.94
538.44	1725.61
538.79	1739.40
539.15	1752.78
539.51	1766.28
539.87	1780.49
540.22	1793.82
540.58	1807.19
540.94	1820.01
541.29	1832.59
541.65	1844.99
542.01	1858.00
542.37	1870.30
542.72	1882.49
543.08	1894.20
543.44	1906.37
543.79	1917.59
544.15	1928.32
544.51	1939.84
544.87	1950.70
545.22	1961.41
545.58	1971.31
545.94	1980.84
546.29	1990.36
546.65	2000.16
547.01	2009.27
547.36	2017.78
547.72	2026.25
548.07	2034.26
548.43	2042.51
548.79	2050.32
549.14	2058.00
549.50	2065.21
549.86	2072.72
550.21	2080.07
550.57	2086.96
550.92	2093.46
551.28	2100.42
551.64	2107.55
551.99	2113.96
552.35	2120.09
552.70	2126.23
553.06	2132.33
553.41	2138.72
553.77	2144.73
554.13	2150.68
554.48	2156.76
554.84	2162.35
555.19	2167.57
555.55	2172.63
555.90	2177.10
556.26	2182.14
556.61	2186.57
556.97	2191.07
557.32	2195.28
557.68	2199.24
558.03	2203.49
558.39	2207.21
558.74	2211.84
559.10	2215.67
559.45	2219.30
559.81	2223.39
560.16	2227.17
560.52	2230.28
560.87	2233.66
561.23	2236.40
561.58	2239.31
561.94	2241.89
562.29	2244.12
562.64	2247.03
563.00	2249.62
563.35	2253.25
563.71	2256.57
564.06	2259.85
564.42	2262.69
564.77	2265.25
565.12	2267.95
565.48	2270.07
565.83	2272.14
566.19	2273.67
566.54	2274.66
566.89	2275.98
567.25	2276.90
567.60	2278.33
567.96	2280.27
568.31	2281.13
568.66	2282.30
569.02	2283.21
569.37	2283.58
569.72	2284.68
570.08	2284.82
570.43	2285.02
570.78	2284.71
571.14	2283.26
571.49	2281.90
571.84	2281.57
572.20	2280.64
572.55	2279.55
572.90	2278.06
573.26	2276.77
573.61	2275.09
573.96	2273.45
574.31	2270.60
574.67	2267.73
575.02	2264.24
575.37	2260.91
575.72	2257.47
576.08	2254.18
576.43	2250.83
576.78	2247.54
577.13	2244.33
577.49	2241.26
577.84	2237.88
578.19	2234.01
578.54	2230.49
578.90	2226.74
579.25	2221.30
579.60	2216.52
579.95	2211.65
580.30	2206.84
580.66	2201.81
581.01	2196.99
581.36	2192.15
581.71	2188.22
582.06	2184.05
582.42	2179.78
582.77	2174.65
583.12	2170.16
583.47	2165.81
583.82	2161.15
584.17	2156.09
584.53	2150.75
584.88	2145.36
585.23	2139.72
585.58	2134.45
585.93	2129.15
586.28	2124.27
586.63	2119.42
586.98	2114.28
587.34	2109.71
587.69	2104.86
588.04	2100.00
588.39	2094.42
588.74	2088.26
589.09	2082.02
589.44	2075.18
589.79	2069.05
590.14	2063.49
590.49	2057.08
590.84	2050.66
591.19	2044.68
591.54	2038.19
591.89	2031.19
592.25	2024.63
592.60	2017.54
592.95	2010.13
593.30	2002.92
593.65	1995.39
594.00	1988.27
594.35	1981.23
594.70	1973.00
595.05	1966.05
595.40	1958.78
595.75	1951.39
596.10	1945.26
596.45	1938.84
596.80	1932.87
597.15	1926.50
597.50	1919.78
597.85	1913.40
598.19	1906.89
598.54	1900.13
598.89	1893.63
599.24	1887.71
599.59	1881.30
599.94	1875.17
600.29	1868.90
600.64	1862.31
600.99	1855.13
601.34	1848.64
601.69	1841.68
602.04	1835.17
602.39	1827.86
602.74	1821.06
603.08	1814.46
603.43	1807.67
603.78	1800.20
604.13	1792.99
604.48	1785.97
604.83	1779.16
605.18	1772.33
605.53	1764.44
605.87	1756.24
606.22	1748.97
606.57	1740.97
606.92	1733.40
607.27	1726.35
607.62	1719.62
607.96	1712.61
608.31	1706.22
608.66	1698.65
609.01	1691.36
609.36	1683.90
609.70	1676.04
610.05	1668.09
610.40	1660.45
610.75	1652.30
611.10	1644.81
611.44	1636.36
611.79	1628.23
612.14	1619.62
612.49	1610.38
612.83	1602.04
613.18	1594.09
613.53	1586.08
613.88	1577.67
614.22	1569.34
614.57	1560.74
614.92	1552.68
615.27	1545.05
615.61	1536.71
615.96	1528.77
616.31	1520.95
616.65	1513.51
617.00	1506.02
617.35	1498.26
617.70	1490.10
618.04	1481.70
618.39	1473.51
618.74	1466.03
619.08	1457.71
619.43	1450.03
619.78	1443.14
620.12	1436.04
620.47	1428.51
620.82	1420.31
621.16	1412.89
621.51	1405.29
621.85	1397.60
622.20	1389.14
622.55	1380.70
622.89	1372.77
623.24	1365.14
623.59	1357.76
623.93	1350.21
624.28	1342.88
624.62	1335.41
624.97	1328.16
625.32	1321.30
625.66	1314.21
626.01	1307.13
626.35	1299.80
626.70	1291.98
627.04	1284.34
627.39	1276.59
627.73	1269.16
628.08	1262.30
628.43	1255.07
628.77	1247.95
629.12	1240.49
629.46	1233.30
629.81	1225.93
630.15	1218.71
630.50	1211.35
630.84	1203.21
631.19	1195.33
631.53	1187.79
631.88	1180.26
632.22	1172.64
632.57	1165.31
632.91	1157.88
633.26	1150.48
633.60	1143.19
633.95	1136.03
634.29	1128.93
634.64	1122.15
634.98	1114.84
635.32	1107.75
635.67	1101.04
636.01	1094.30
636.36	1087.59
636.70	1081.06
637.05	1074.50
637.39	1068.11
637.73	1061.68
638.08	1055.79
638.42	1049.85
638.77	1043.46
639.11	1036.95
639.45	1030.56
639.80	1024.02
640.14	1017.63
640.49	1011.16
640.83	1004.82
641.17	998.71
641.52	992.46
641.86	986.03
642.20	980.10
642.55	973.72
642.89	967.35
643.23	960.76
643.58	955.05
643.92	948.84
644.26	942.94
644.61	936.83
644.95	930.74
645.29	924.28
645.64	917.57
645.98	911.25
646.32	905.24
646.66	899.17
647.01	893.34
647.35	887.65
647.69	881.68
648.04	876.09
648.38	870.41
648.72	864.51
649.06	858.54
649.41	852.66
649.75	846.76
650.09	840.87
650.43	835.18
650.78	828.98
651.12	823.08
651.46	817.25
651.80	811.60
652.14	806.19
652.49	800.81
652.83	795.59
653.17	790.01
653.51	784.43
653.85	779.05
654.20	773.48
654.54	767.41
654.88	761.72
655.22	755.84
655.56	750.00
655.90	744.44
656.25	739.16
656.59	733.85
656.93	728.77
657.27	723.62
657.61	718.16
657.95	713.08
658.29	707.98
658.64	702.79
658.98	697.39
659.32	692.00
659.66	686.77
660.00	681.52
660.34	676.46
660.68	671.49
661.02	666.49
661.36	661.79
661.70	657.34
662.05	653.02
662.39	648.71
662.73	644.35
663.07	639.97
663.41	635.48
663.75	631.06
664.09	626.47
664.43	622.01
664.77	617.96
665.11	613.74
665.45	609.60
665.79	605.53
666.13	601.51
666.47	597.34
666.81	593.22
667.15	589.14
667.49	585.30
667.83	581.51
668.17	577.60
668.51	573.51
668.85	569.50
669.19	565.61
669.53	561.85
669.87	557.98
670.21	554.28
670.55	550.69
670.89	547.24
671.23	543.85
671.57	540.38
671.91	536.86
672.25	533.25
672.58	529.75
672.92	526.31
673.26	523.13
673.60	519.95
673.94	516.90
674.28	513.94
674.62	511.03
674.96	507.91
675.30	505.04
675.64	502.12
675.97	499.30
676.31	496.47
676.65	493.51
676.99	490.86
677.33	488.01
677.67	485.22
678.01	482.19
678.34	479.27
678.68	476.35
679.02	473.52
679.36	470.81
679.70	468.06
680.04	465.27
680.37	462.42
680.71	459.64
681.05	456.95
681.39	454.25
681.73	451.52
682.06	449.01
682.40	446.51
682.74	443.95
683.08	441.41
683.42	438.79
683.75	436.29
684.09	433.63
684.43	431.12
684.77	428.64
685.10	426.28
685.44	423.92
685.78	421.65
686.12	419.36
686.45	417.07
686.79	414.77
687.13	412.62
687.46	410.42
687.80	408.26
688.14	406.01
688.48	403.92
688.81	401.71
689.15	399.54
689.49	397.30
689.82	395.21
690.16	393.09
690.50	391.13
690.83	389.18
691.17	387.21
691.51	385.34
691.84	383.49
692.18	381.62
692.52	379.65
692.85	377.69
693.19	375.82
693.52	373.96
693.86	372.15
694.20	370.31
694.53	368.52
694.87	366.66
695.21	364.87
695.54	363.05
695.88	361.28
696.21	359.53
696.55	357.87
696.88	356.17
697.22	354.51
697.56	352.82
697.89	351.14
698.23	349.57
698.56	347.96
698.90	346.42
699.23	344.76
699.57	343.21
699.90	341.71
700.24	340.14
700.58	338.63
700.91	337.19
701.25	335.75
701.58	334.41
701.92	333.07
702.25	331.77
702.59	330.39
702.92	329.09
703.26	327.80
703.59	326.53
703.93	325.36
704.26	324.11
704.60	322.83
704.93	321.56
705.26	320.27
705.60	319.02
705.93	317.81
706.27	316.72
706.60	315.68
706.94	314.59
707.27	313.49
707.61	312.41
707.94	311.36
708.27	310.25
708.61	309.12
708.94	308.08
709.28	307.06
709.61	306.12
709.94	305.14
710.28	304.16
710.61	303.17
710.95	302.07
711.28	301.18
711.61	300.27
711.95	299.36
712.28	298.42
712.61	297.51
712.95	296.59
713.28	295.72
713.61	294.81
713.95	293.90
714.28	293.08
714.61	292.23
714.95	291.37
715.28	290.53
715.61	289.66
715.95	288.79
716.28	287.93
716.61	287.08
716.95	286.24
717.28	285.47
717.61	284.68
717.94	283.95
718.28	283.12
718.61	282.39
718.94	281.71
719.27	281.07
719.61	280.40
719.94	279.74
720.27	279.00
720.60	278.34
720.94	277.72
721.27	277.10
721.60	276.49
721.93	275.87
722.27	275.34
722.60	274.74
722.93	274.21
723.26	273.68
723.59	273.13
723.93	272.63
724.26	272.06
724.59	271.47
724.92	270.95
725.25	270.49
725.59	269.94
725.92	269.45
726.25	268.93
726.58	268.43
726.91	267.92
727.24	267.46
727.57	266.97
727.91	266.45
728.24	265.97
728.57	265.49
728.90	265.02
729.23	264.54
729.56	264.15
729.89	263.66
730.22	263.17
730.55	262.68
730.89	262.20
731.22	261.78
731.55	261.36
731.88	260.92
732.21	260.46
732.54	260.00
732.87	259.57
733.20	259.14
733.53	258.76
733.86	258.42
734.19	258.02
734.52	257.64
734.85	257.32
735.18	256.91
735.51	256.56
735.84	256.22
736.17	255.85
736.50	255.44
736.83	255.18
737.16	254.86
737.49	254.52
737.82	254.17
738.15	253.83
738.48	253.46
738.81	253.14
739.14	252.82
739.47	252.55
739.80	252.24
740.13	251.95
740.46	251.62
740.79	251.26
741.12	250.93
741.45	250.64
741.78	250.31
742.11	250.07
742.44	249.75
742.77	249.45
743.10	249.13
743.43	248.82
743.75	248.47
744.08	248.35
744.41	248.09
744.74	247.87
745.07	247.59
745.40	247.38
745.73	247.15
746.06	246.89
746.39	246.60
746.71	246.34
747.04	246.04
747.37	245.77
747.70	245.57
748.03	245.36
748.36	245.13
748.68	244.89
749.01	244.62
749.34	244.40
749.67	244.19
750.00	244.01
750.33	243.88
750.65	243.66
750.98	243.29
751.31	243.08
751.64	242.85
751.97	242.69
752.29	242.48
752.62	242.24
752.95	242.03
753.28	241.86
753.60	241.66
753.93	241.52
754.26	241.37
754.59	241.12
754.91	240.87
755.24	240.69
755.57	240.52
755.90	240.33
756.22	240.14
756.55	239.94
756.88	239.77
757.20	239.54
757.53	239.37
757.86	239.22
758.19	239.07
758.51	238.88
758.84	238.69
759.17	238.50
759.49	238.34
759.82	238.24
760.15	238.09
760.47	237.92
760.80	237.72
761.13	237.58
761.45	237.45
761.78	237.33
762.11	237.19
762.43	237.00
762.76	236.86
763.08	236.71
763.41	236.57
763.74	236.39
764.06	236.25
764.39	236.10
764.71	235.95
765.04	235.81
765.37	235.69
765.69	235.53
766.02	235.44
766.34	235.29
766.67	235.09
767.00	234.99
767.32	234.92
767.65	234.83
767.97	234.68
768.30	234.59
768.62	234.47
768.95	234.34
769.27	234.25
769.60	234.14
769.92	234.03
770.25	233.94
770.57	233.84
770.90	233.72
771.22	233.63
771.55	233.50
771.87	233.42
772.20	233.30
772.52	233.29
772.85	233.29
773.17	233.22
773.50	233.13
773.82	233.00
774.15	232.87
774.47	232.73
774.80	232.64
775.12	232.52
775.45	232.42
775.77	232.33
776.09	232.27
776.42	232.19
776.74	232.13
777.07	232.03
777.39	231.93
777.72	231.86
778.04	231.81
778.36	231.74
778.69	231.66
779.01	231.60
779.33	231.43
779.66	231.25
779.98	231.15
780.31	231.11
780.63	231.09
780.95	231.03
781.28	231.02
781.60	230.97
781.92	230.92
782.25	230.86
782.57	230.80
782.89	230.72
783.22	230.63
783.54	230.55
783.86	230.52
784.19	230.47
784.51	230.45
784.83	230.37
785.16	230.32
785.48	230.29
785.80	230.25
786.12	230.26
786.45	230.26
786.77	230.23
787.09	230.16
