SpectraSuite Data File
++++++++++++++++++++++++++++++++++++
Date: Fri Feb 01 16:19:32 EST 2013
User: group
Dark Spectrum Present: No
Reference Spectrum Present: No
Number of Sampled Component Spectra: 1
Spectrometers: USB2E7196
Integration Time (usec): 35000 (USB2E7196)
Spectra Averaged: 100 (USB2E7196)
Boxcar Smoothing: 10 (USB2E7196)
Correct for Electrical Dark: No (USB2E7196)
Strobe/Lamp Enabled: No (USB2E7196)
Correct for Detector Non-linearity: No (USB2E7196)
Correct for Stray Light: No (USB2E7196)
Number of Pixels in Processed Spectrum: 2048
>>>>>Begin Processed Spectral Data<<<<<
339.09	0.00
339.48	213.52
339.86	215.35
340.24	216.85
340.63	218.28
341.01	220.42
341.39	220.41
341.78	222.12
342.16	223.28
342.54	223.98
342.93	212.22
343.31	222.95
343.69	223.50
344.07	223.95
344.46	224.36
344.84	224.73
345.22	224.98
345.60	225.25
345.99	225.43
346.37	225.55
346.75	225.62
347.13	225.69
347.52	225.74
347.90	225.80
348.28	225.84
348.66	225.90
349.05	225.87
349.43	225.92
349.81	225.95
350.19	226.02
350.57	226.09
350.96	226.17
351.34	226.28
351.72	226.38
352.10	226.50
352.48	226.59
352.87	226.67
353.25	226.76
353.63	226.82
354.01	226.90
354.39	226.98
354.77	227.09
355.15	227.22
355.54	227.26
355.92	227.31
356.30	227.35
356.68	227.48
357.06	227.60
357.44	227.67
357.82	227.79
358.20	227.87
358.58	227.95
358.97	227.98
359.35	228.03
359.73	228.11
360.11	228.17
360.49	228.20
360.87	228.28
361.25	228.36
361.63	228.46
362.01	228.53
362.39	228.58
362.77	228.61
363.15	228.64
363.53	228.68
363.91	228.75
364.29	228.80
364.67	228.74
365.05	228.74
365.43	228.76
365.81	228.74
366.19	228.79
366.57	228.80
366.95	228.84
367.33	228.81
367.71	228.78
368.09	228.80
368.47	228.83
368.85	228.77
369.23	228.75
369.61	228.69
369.99	228.67
370.37	228.66
370.75	228.69
371.13	228.65
371.51	228.59
371.89	228.55
372.27	228.53
372.65	228.48
373.03	228.43
373.41	228.38
373.78	228.36
374.16	228.23
374.54	228.15
374.92	228.08
375.30	228.01
375.68	227.95
376.06	227.88
376.44	227.77
376.82	227.70
377.19	227.62
377.57	227.52
377.95	227.43
378.33	227.34
378.71	227.21
379.09	227.12
379.47	227.07
379.84	226.98
380.22	226.92
380.60	226.82
380.98	226.75
381.36	226.68
381.73	226.55
382.11	226.52
382.49	226.46
382.87	226.34
383.25	226.32
383.62	226.36
384.00	226.26
384.38	226.18
384.76	226.13
385.13	226.14
385.51	226.06
385.89	226.00
386.27	225.95
386.64	225.93
387.02	225.89
387.40	225.83
387.78	225.80
388.15	225.76
388.53	225.72
388.91	225.67
389.29	225.63
389.66	225.63
390.04	225.57
390.42	225.55
390.79	225.57
391.17	225.55
391.55	225.43
391.92	225.40
392.30	225.46
392.68	225.42
393.05	225.36
393.43	225.40
393.81	225.38
394.18	225.38
394.56	225.40
394.94	225.42
395.31	225.43
395.69	225.49
396.06	225.51
396.44	225.57
396.82	225.61
397.19	225.70
397.57	225.72
397.95	225.77
398.32	225.81
398.70	225.86
399.07	225.93
399.45	225.98
399.82	226.09
400.20	226.14
400.58	226.25
400.95	226.30
401.33	226.39
401.70	226.56
402.08	226.65
402.45	226.72
402.83	226.85
403.20	226.98
403.58	227.07
403.95	227.19
404.33	227.31
404.71	227.47
405.08	227.63
405.46	227.78
405.83	227.93
406.21	228.10
406.58	228.31
406.96	228.47
407.33	228.70
407.70	228.87
408.08	229.14
408.45	229.38
408.83	229.63
409.20	229.84
409.58	230.03
409.95	230.30
410.33	230.59
410.70	230.79
411.08	231.07
411.45	231.36
411.82	231.68
412.20	232.06
412.57	232.41
412.95	232.74
413.32	233.18
413.69	233.62
414.07	234.06
414.44	234.48
414.82	234.97
415.19	235.49
415.56	236.06
415.94	236.59
416.31	237.18
416.68	237.79
417.06	238.51
417.43	239.20
417.81	239.98
418.18	240.77
418.55	241.62
418.93	242.48
419.30	243.38
419.67	244.30
420.04	245.27
420.42	246.25
420.79	247.40
421.16	248.50
421.54	249.65
421.91	250.82
422.28	252.07
422.66	253.39
423.03	254.66
423.40	255.96
423.77	257.39
424.15	258.83
424.52	260.31
424.89	261.90
425.26	263.43
425.64	264.87
426.01	266.43
426.38	268.09
426.75	269.79
427.13	271.52
427.50	273.30
427.87	275.14
428.24	277.02
428.61	278.73
428.99	280.69
429.36	282.74
429.73	284.81
430.10	286.85
430.47	288.90
430.85	291.02
431.22	293.25
431.59	295.61
431.96	297.81
432.33	300.31
432.70	302.66
433.08	305.44
433.45	308.05
433.82	310.65
434.19	313.56
434.56	316.36
434.93	318.99
435.30	321.61
435.68	324.48
436.05	327.30
436.42	330.12
436.79	332.59
437.16	335.33
437.53	338.14
437.90	340.91
438.27	343.62
438.64	346.44
439.01	349.03
439.38	351.21
439.75	353.37
440.13	355.80
440.50	358.14
440.87	360.00
441.24	361.97
441.61	364.18
441.98	365.63
442.35	367.40
442.72	369.27
443.09	371.10
443.46	372.10
443.83	372.71
444.20	373.21
444.57	374.10
444.94	374.39
445.31	374.74
445.68	375.08
446.05	375.17
446.42	374.81
446.79	374.40
447.16	374.01
447.53	373.77
447.90	372.68
448.27	371.52
448.64	369.95
449.01	368.83
449.37	366.85
449.74	364.95
450.11	362.76
450.48	360.29
450.85	357.74
451.22	355.64
451.59	353.62
451.96	351.65
452.33	349.02
452.70	346.65
453.07	343.86
453.43	340.96
453.80	338.22
454.17	335.54
454.54	333.01
454.91	330.30
455.28	327.58
455.65	325.11
456.02	322.70
456.38	320.54
456.75	317.84
457.12	315.58
457.49	313.35
457.86	311.18
458.23	309.34
458.59	307.31
458.96	305.19
459.33	303.32
459.70	301.49
460.07	300.02
460.43	298.34
460.80	296.66
461.17	295.28
461.54	293.77
461.91	292.34
462.27	290.87
462.64	289.64
463.01	288.26
463.38	286.95
463.74	285.54
464.11	284.39
464.48	283.39
464.85	282.29
465.21	281.42
465.58	280.47
465.95	279.36
466.32	278.43
466.68	277.54
467.05	276.65
467.42	275.76
467.78	274.82
468.15	273.91
468.52	273.28
468.88	272.41
469.25	271.68
469.62	271.09
469.98	270.45
470.35	269.81
470.72	269.29
471.08	268.62
471.45	268.09
471.82	267.56
472.18	266.93
472.55	266.48
472.92	265.94
473.28	265.49
473.65	265.04
474.02	264.60
474.38	264.25
474.75	263.91
475.11	263.56
475.48	263.33
475.85	263.13
476.21	262.87
476.58	262.69
476.94	262.53
477.31	262.29
477.67	262.14
478.04	262.05
478.41	261.98
478.77	262.04
479.14	262.03
479.50	262.04
479.87	262.15
480.23	262.21
480.60	262.33
480.96	262.45
481.33	262.67
481.69	262.87
482.06	263.03
482.42	263.29
482.79	263.54
483.15	263.86
483.52	264.25
483.88	264.62
484.25	265.02
484.61	265.43
484.98	265.93
485.34	266.50
485.71	267.05
486.07	267.64
486.44	268.21
486.80	268.93
487.17	269.68
487.53	270.52
487.90	271.40
488.26	272.34
488.62	273.30
488.99	274.29
489.35	275.40
489.72	276.56
490.08	277.74
490.44	279.00
490.81	280.34
491.17	281.64
491.54	283.16
491.90	284.69
492.26	286.36
492.63	288.08
492.99	289.85
493.36	291.77
493.72	293.84
494.08	295.98
494.45	298.20
494.81	300.55
495.17	302.95
495.54	305.54
495.90	308.18
496.26	310.99
496.63	313.96
496.99	317.06
497.35	320.35
497.72	323.74
498.08	327.27
498.44	330.92
498.80	334.87
499.17	338.89
499.53	343.09
499.89	347.49
500.26	352.00
500.62	356.70
500.98	361.65
501.34	366.74
501.71	372.08
502.07	377.50
502.43	383.09
502.79	388.92
503.16	395.01
503.52	401.31
503.88	407.74
504.24	414.40
504.60	421.27
504.97	428.43
505.33	435.79
505.69	443.53
506.05	451.34
506.41	459.24
506.78	467.38
507.14	475.83
507.50	484.50
507.86	493.64
508.22	502.85
508.59	512.03
508.95	521.64
509.31	531.39
509.67	541.53
510.03	551.88
510.39	562.42
510.75	573.21
511.12	584.24
511.48	595.54
511.84	606.95
512.20	618.43
512.56	630.34
512.92	642.58
513.28	654.95
513.64	667.40
514.00	680.15
514.37	693.12
514.73	706.13
515.09	719.21
515.45	732.40
515.81	746.00
516.17	760.03
516.53	774.18
516.89	788.40
517.25	802.58
517.61	816.98
517.97	831.47
518.33	845.80
518.69	860.56
519.05	875.51
519.41	890.64
519.77	906.19
520.13	921.55
520.49	936.79
520.85	952.11
521.21	967.81
521.57	984.10
521.93	999.84
522.29	1016.36
522.65	1032.52
523.01	1048.70
523.37	1064.68
523.73	1080.79
524.09	1096.77
524.45	1112.98
524.81	1129.61
525.17	1146.44
525.53	1163.26
525.89	1180.10
526.25	1196.82
526.61	1213.14
526.97	1229.84
527.33	1246.27
527.68	1262.80
528.04	1279.25
528.40	1295.73
528.76	1312.71
529.12	1329.19
529.48	1345.94
529.84	1361.80
530.20	1378.38
530.56	1395.33
530.91	1412.66
531.27	1429.42
531.63	1445.74
531.99	1462.27
532.35	1478.10
532.71	1493.80
533.07	1510.08
533.42	1526.11
533.78	1542.22
534.14	1558.50
534.50	1573.84
534.86	1589.62
535.21	1604.78
535.57	1620.55
535.93	1636.14
536.29	1650.87
536.65	1665.86
537.00	1680.57
537.36	1695.77
537.72	1710.32
538.08	1724.63
538.44	1738.40
538.79	1752.27
539.15	1765.93
539.51	1779.62
539.87	1793.92
540.22	1807.61
540.58	1821.25
540.94	1834.49
541.29	1847.14
541.65	1859.74
542.01	1872.81
542.37	1885.02
542.72	1897.43
543.08	1909.33
543.44	1921.63
543.79	1932.83
544.15	1943.67
544.51	1955.24
544.87	1966.21
545.22	1976.75
545.58	1986.97
545.94	1996.65
546.29	2006.37
546.65	2016.21
547.01	2025.42
547.36	2034.21
547.72	2042.61
548.07	2050.38
548.43	2058.49
548.79	2066.62
549.14	2074.09
549.50	2081.40
549.86	2089.01
550.21	2096.31
550.57	2103.31
550.92	2109.91
551.28	2116.93
551.64	2124.01
551.99	2130.43
552.35	2136.54
552.70	2142.87
553.06	2148.68
553.41	2154.94
553.77	2160.91
554.13	2167.01
554.48	2173.19
554.84	2178.48
555.19	2183.72
555.55	2188.96
555.90	2193.44
556.26	2198.17
556.61	2202.97
556.97	2207.32
557.32	2211.57
557.68	2215.68
558.03	2220.04
558.39	2223.73
558.74	2228.38
559.10	2232.23
559.45	2235.83
559.81	2240.14
560.16	2243.95
560.52	2247.43
560.87	2250.87
561.23	2253.54
561.58	2256.30
561.94	2258.84
562.29	2261.26
562.64	2263.95
563.00	2266.33
563.35	2269.71
563.71	2272.86
564.06	2276.00
564.42	2278.87
564.77	2281.37
565.12	2283.66
565.48	2285.71
565.83	2287.55
566.19	2288.98
566.54	2289.90
566.89	2291.15
567.25	2291.78
567.60	2293.08
567.96	2294.76
568.31	2295.62
568.66	2296.84
569.02	2297.58
569.37	2297.88
569.72	2298.84
570.08	2299.03
570.43	2299.37
570.78	2298.84
571.14	2297.23
571.49	2295.87
571.84	2295.57
572.20	2294.54
572.55	2293.61
572.90	2291.93
573.26	2290.53
573.61	2288.72
573.96	2287.04
574.31	2284.19
574.67	2281.08
575.02	2277.45
575.37	2274.09
575.72	2270.49
576.08	2267.07
576.43	2263.73
576.78	2260.15
577.13	2256.91
577.49	2253.92
577.84	2250.43
578.19	2246.75
578.54	2243.34
578.90	2239.22
579.25	2233.78
579.60	2228.88
579.95	2223.87
580.30	2218.82
580.66	2213.72
581.01	2208.89
581.36	2204.09
581.71	2199.95
582.06	2195.66
582.42	2191.22
582.77	2186.06
583.12	2181.48
583.47	2176.98
583.82	2172.13
584.17	2166.89
584.53	2161.46
584.88	2155.93
585.23	2150.17
585.58	2144.77
585.93	2139.28
586.28	2134.58
586.63	2129.56
586.98	2124.43
587.34	2119.74
587.69	2115.02
588.04	2109.88
588.39	2104.34
588.74	2097.74
589.09	2091.57
589.44	2084.93
589.79	2079.23
590.14	2073.67
590.49	2067.06
590.84	2060.66
591.19	2054.70
591.54	2048.32
591.89	2041.01
592.25	2034.24
592.60	2027.03
592.95	2019.42
593.30	2012.19
593.65	2004.70
594.00	1997.63
594.35	1990.58
594.70	1982.61
595.05	1975.59
595.40	1968.30
595.75	1960.69
596.10	1954.57
596.45	1947.93
596.80	1941.87
597.15	1935.17
597.50	1927.98
597.85	1921.73
598.19	1914.99
598.54	1907.76
598.89	1901.11
599.24	1895.30
599.59	1888.58
599.94	1882.39
600.29	1875.96
600.64	1869.36
600.99	1861.90
601.34	1855.12
601.69	1848.09
602.04	1841.25
602.39	1833.82
602.74	1826.93
603.08	1820.27
603.43	1813.58
603.78	1806.19
604.13	1798.87
604.48	1791.47
604.83	1784.67
605.18	1777.61
605.53	1769.71
605.87	1761.78
606.22	1754.65
606.57	1746.66
606.92	1739.44
607.27	1732.34
607.62	1725.64
607.96	1718.38
608.31	1711.77
608.66	1704.27
609.01	1696.71
609.36	1689.05
609.70	1680.94
610.05	1673.13
610.40	1665.44
610.75	1657.09
611.10	1649.59
611.44	1641.13
611.79	1633.19
612.14	1624.54
612.49	1615.35
612.83	1607.08
613.18	1598.98
613.53	1590.84
613.88	1582.24
614.22	1573.91
614.57	1565.26
614.92	1557.18
615.27	1549.66
615.61	1541.33
615.96	1533.18
616.31	1525.63
616.65	1518.35
617.00	1510.85
617.35	1502.93
617.70	1494.61
618.04	1486.15
618.39	1477.86
618.74	1470.23
619.08	1462.01
619.43	1454.50
619.78	1447.63
620.12	1440.24
620.47	1432.66
620.82	1424.54
621.16	1417.17
621.51	1409.47
621.85	1401.86
622.20	1393.36
622.55	1385.02
622.89	1377.21
623.24	1369.58
623.59	1362.15
623.93	1354.53
624.28	1347.35
624.62	1339.96
624.97	1332.79
625.32	1326.03
625.66	1319.02
626.01	1311.87
626.35	1304.36
626.70	1296.47
627.04	1288.65
627.39	1281.03
627.73	1273.67
628.08	1266.78
628.43	1259.48
628.77	1252.12
629.12	1244.55
629.46	1237.40
629.81	1229.91
630.15	1222.54
630.50	1215.14
630.84	1206.86
631.19	1198.98
631.53	1191.24
631.88	1183.62
632.22	1175.91
632.57	1168.59
632.91	1160.98
633.26	1153.59
633.60	1146.16
633.95	1139.01
634.29	1132.00
634.64	1125.22
634.98	1117.86
635.32	1110.53
635.67	1103.90
636.01	1097.27
636.36	1090.45
636.70	1083.91
637.05	1077.28
637.39	1070.86
637.73	1064.35
638.08	1058.51
638.42	1052.48
638.77	1046.16
639.11	1039.58
639.45	1033.18
639.80	1026.56
640.14	1020.13
640.49	1013.57
640.83	1007.27
641.17	1001.13
641.52	994.71
641.86	988.25
642.20	982.28
642.55	975.95
642.89	969.38
643.23	962.81
643.58	957.05
643.92	950.82
644.26	944.81
644.61	938.75
644.95	932.63
645.29	926.10
645.64	919.41
645.98	913.05
646.32	907.23
646.66	901.17
647.01	895.26
647.35	889.65
647.69	883.73
648.04	878.14
648.38	872.24
648.72	866.34
649.06	860.31
649.41	854.52
649.75	848.67
650.09	842.79
650.43	837.02
650.78	830.82
651.12	824.81
651.46	819.05
651.80	813.34
652.14	807.98
652.49	802.50
652.83	797.29
653.17	791.62
653.51	785.83
653.85	780.46
654.20	774.83
654.54	768.73
654.88	763.06
655.22	757.15
655.56	751.53
655.90	746.04
656.25	740.75
656.59	735.34
656.93	730.21
657.27	725.03
657.61	719.62
657.95	714.58
658.29	709.49
658.64	704.28
658.98	699.02
659.32	693.53
659.66	688.30
660.00	682.99
660.34	678.04
660.68	673.09
661.02	668.06
661.36	663.32
661.70	658.82
662.05	654.43
662.39	650.15
662.73	645.65
663.07	641.32
663.41	636.87
663.75	632.42
664.09	627.81
664.43	623.46
664.77	619.28
665.11	614.95
665.45	610.85
665.79	606.66
666.13	602.49
666.47	598.46
666.81	594.33
667.15	590.18
667.49	586.19
667.83	582.46
668.17	578.53
668.51	574.45
668.85	570.43
669.19	566.63
669.53	562.81
669.87	558.91
670.21	555.16
670.55	551.51
670.89	548.03
671.23	544.63
671.57	541.11
671.91	537.62
672.25	534.17
672.58	530.65
672.92	527.25
673.26	524.10
673.60	520.92
673.94	517.77
674.28	514.86
674.62	511.92
674.96	508.75
675.30	505.81
675.64	502.87
675.97	500.09
676.31	497.21
676.65	494.25
676.99	491.59
677.33	488.78
677.67	485.95
678.01	482.94
678.34	479.92
678.68	477.03
679.02	474.17
679.36	471.40
679.70	468.66
680.04	465.98
680.37	463.05
680.71	460.25
681.05	457.65
681.39	454.95
681.73	452.36
682.06	449.84
682.40	447.25
682.74	444.73
683.08	442.17
683.42	439.53
683.75	437.06
684.09	434.47
684.43	431.97
684.77	429.57
685.10	427.20
685.44	424.96
685.78	422.67
686.12	420.45
686.45	418.14
686.79	415.84
687.13	413.57
687.46	411.40
687.80	409.21
688.14	406.95
688.48	404.88
688.81	402.59
689.15	400.41
689.49	398.27
689.82	396.24
690.16	394.14
690.50	392.20
690.83	390.26
691.17	388.27
691.51	386.35
691.84	384.42
692.18	382.49
692.52	380.44
692.85	378.47
693.19	376.57
693.52	374.70
693.86	372.89
694.20	371.13
694.53	369.31
694.87	367.44
695.21	365.67
695.54	363.84
695.88	362.12
696.21	360.44
696.55	358.76
696.88	357.03
697.22	355.36
697.56	353.73
697.89	352.00
698.23	350.38
698.56	348.70
698.90	347.14
699.23	345.52
699.57	343.98
699.90	342.47
700.24	340.94
700.58	339.42
700.91	337.91
701.25	336.47
701.58	335.14
701.92	333.81
702.25	332.42
702.59	331.05
702.92	329.73
703.26	328.38
703.59	327.09
703.93	325.91
704.26	324.65
704.60	323.32
704.93	322.09
705.26	320.82
705.60	319.66
705.93	318.50
706.27	317.47
706.60	316.38
706.94	315.28
707.27	314.16
707.61	313.09
707.94	312.05
708.27	310.95
708.61	309.83
708.94	308.82
709.28	307.84
709.61	306.88
709.94	305.94
710.28	304.91
710.61	303.93
710.95	302.87
711.28	301.97
711.61	301.00
711.95	300.08
712.28	299.16
712.61	298.18
712.95	297.24
713.28	296.32
713.61	295.47
713.95	294.60
714.28	293.75
714.61	292.93
714.95	292.10
715.28	291.25
715.61	290.38
715.95	289.53
716.28	288.68
716.61	287.85
716.95	287.02
717.28	286.30
717.61	285.54
717.94	284.80
718.28	284.00
718.61	283.34
718.94	282.66
719.27	282.01
719.61	281.39
719.94	280.72
720.27	280.01
720.60	279.34
720.94	278.72
721.27	278.12
721.60	277.48
721.93	276.89
722.27	276.34
722.60	275.81
722.93	275.25
723.26	274.72
723.59	274.16
723.93	273.60
724.26	273.08
724.59	272.54
724.92	272.02
725.25	271.53
725.59	270.98
725.92	270.46
726.25	269.95
726.58	269.47
726.91	269.01
727.24	268.57
727.57	268.08
727.91	267.52
728.24	267.08
728.57	266.62
728.90	266.20
729.23	265.74
729.56	265.29
729.89	264.80
730.22	264.34
730.55	263.91
730.89	263.46
731.22	263.00
731.55	262.56
731.88	262.10
732.21	261.69
732.54	261.26
732.87	260.83
733.20	260.44
733.53	260.08
733.86	259.66
734.19	259.28
734.52	258.92
734.85	258.64
735.18	258.24
735.51	257.89
735.84	257.49
736.17	257.11
736.50	256.73
736.83	256.53
737.16	256.22
737.49	255.88
737.82	255.49
738.15	255.14
738.48	254.78
738.81	254.46
739.14	254.12
739.47	253.81
739.80	253.48
740.13	253.14
740.46	252.76
740.79	252.47
741.12	252.12
741.45	251.78
741.78	251.42
742.11	251.13
742.44	250.79
742.77	250.52
743.10	250.24
743.43	249.92
743.75	249.50
744.08	249.30
744.41	249.00
744.74	248.75
745.07	248.48
745.40	248.27
745.73	248.06
746.06	247.76
746.39	247.50
746.71	247.25
747.04	247.01
747.37	246.78
747.70	246.51
748.03	246.26
748.36	246.05
748.68	245.79
749.01	245.54
749.34	245.29
749.67	245.05
750.00	244.80
750.33	244.65
750.65	244.43
750.98	244.09
751.31	243.86
751.64	243.66
751.97	243.51
752.29	243.28
752.62	243.02
752.95	242.82
753.28	242.58
753.60	242.38
753.93	242.17
754.26	241.95
754.59	241.71
754.91	241.50
755.24	241.31
755.57	241.15
755.90	240.95
756.22	240.77
756.55	240.52
756.88	240.33
757.20	240.09
757.53	239.94
757.86	239.75
758.19	239.61
758.51	239.44
758.84	239.21
759.17	239.07
759.49	238.93
759.82	238.81
760.15	238.70
760.47	238.54
760.80	238.37
761.13	238.24
761.45	238.08
761.78	237.95
762.11	237.80
762.43	237.63
762.76	237.49
763.08	237.37
763.41	237.24
763.74	237.09
764.06	236.97
764.39	236.83
764.71	236.69
765.04	236.53
765.37	236.40
765.69	236.25
766.02	236.11
766.34	235.93
766.67	235.78
767.00	235.65
767.32	235.59
767.65	235.55
767.97	235.42
768.30	235.32
768.62	235.20
768.95	235.07
769.27	234.94
769.60	234.81
769.92	234.66
770.25	234.55
770.57	234.42
770.90	234.29
771.22	234.16
771.55	234.09
771.87	234.01
772.20	233.90
772.52	233.93
772.85	233.95
773.17	233.87
773.50	233.77
773.82	233.67
774.15	233.51
774.47	233.36
774.80	233.28
775.12	233.19
775.45	233.09
775.77	233.01
776.09	232.95
776.42	232.90
776.74	232.86
777.07	232.79
777.39	232.75
777.72	232.69
778.04	232.62
778.36	232.53
778.69	232.48
779.01	232.43
779.33	232.22
779.66	232.04
779.98	232.00
780.31	231.93
780.63	231.91
780.95	231.89
781.28	231.84
781.60	231.74
781.92	231.68
782.25	231.62
782.57	231.56
782.89	231.50
783.22	231.44
783.54	231.39
783.86	231.32
784.19	231.26
784.51	231.25
784.83	231.19
785.16	231.13
785.48	231.10
785.80	231.04
786.12	231.04
786.45	231.00
786.77	230.95
787.09	230.88
