SpectraSuite Data File
++++++++++++++++++++++++++++++++++++
Date: Fri Feb 01 15:44:35 EST 2013
User: group
Dark Spectrum Present: No
Reference Spectrum Present: No
Number of Sampled Component Spectra: 1
Spectrometers: USB2E7196
Integration Time (usec): 35000 (USB2E7196)
Spectra Averaged: 100 (USB2E7196)
Boxcar Smoothing: 10 (USB2E7196)
Correct for Electrical Dark: No (USB2E7196)
Strobe/Lamp Enabled: No (USB2E7196)
Correct for Detector Non-linearity: No (USB2E7196)
Correct for Stray Light: No (USB2E7196)
Number of Pixels in Processed Spectrum: 2048
>>>>>Begin Processed Spectral Data<<<<<
339.09	0.00
339.48	214.35
339.86	215.81
340.24	217.47
340.63	218.56
341.01	221.68
341.39	221.63
341.78	222.97
342.16	224.69
342.54	224.57
342.93	213.09
343.31	223.87
343.69	224.43
344.07	224.93
344.46	225.36
344.84	225.75
345.22	225.99
345.60	226.22
345.99	226.41
346.37	226.54
346.75	226.63
347.13	226.71
347.52	226.78
347.90	226.88
348.28	226.86
348.66	226.88
349.05	226.87
349.43	226.88
349.81	226.93
350.19	226.96
350.57	227.02
350.96	227.10
351.34	227.17
351.72	227.27
352.10	227.35
352.48	227.44
352.87	227.52
353.25	227.60
353.63	227.66
354.01	227.71
354.39	227.80
354.77	227.88
355.15	227.96
355.54	228.03
355.92	228.04
356.30	228.13
356.68	228.30
357.06	228.39
357.44	228.45
357.82	228.54
358.20	228.63
358.58	228.68
358.97	228.76
359.35	228.86
359.73	228.92
360.11	228.97
360.49	229.01
360.87	229.05
361.25	229.08
361.63	229.18
362.01	229.22
362.39	229.23
362.77	229.25
363.15	229.31
363.53	229.33
363.91	229.41
364.29	229.43
364.67	229.33
365.05	229.32
365.43	229.37
365.81	229.34
366.19	229.35
366.57	229.39
366.95	229.38
367.33	229.31
367.71	229.29
368.09	229.31
368.47	229.32
368.85	229.29
369.23	229.29
369.61	229.24
369.99	229.24
370.37	229.20
370.75	229.26
371.13	229.17
371.51	229.10
371.89	229.03
372.27	228.99
372.65	228.96
373.03	228.93
373.41	228.86
373.78	228.79
374.16	228.70
374.54	228.62
374.92	228.53
375.30	228.48
375.68	228.39
376.06	228.34
376.44	228.24
376.82	228.15
377.19	228.09
377.57	228.01
377.95	227.92
378.33	227.91
378.71	227.75
379.09	227.71
379.47	227.66
379.84	227.56
380.22	227.48
380.60	227.40
380.98	227.34
381.36	227.24
381.73	227.17
382.11	227.12
382.49	227.05
382.87	226.98
383.25	226.92
383.62	226.99
384.00	226.90
384.38	226.86
384.76	226.87
385.13	226.85
385.51	226.76
385.89	226.70
386.27	226.60
386.64	226.56
387.02	226.52
387.40	226.45
387.78	226.41
388.15	226.37
388.53	226.33
388.91	226.29
389.29	226.27
389.66	226.26
390.04	226.21
390.42	226.21
390.79	226.21
391.17	226.21
391.55	226.07
391.92	226.05
392.30	226.04
392.68	226.00
393.05	226.02
393.43	226.02
393.81	226.07
394.18	226.07
394.56	226.10
394.94	226.14
395.31	226.18
395.69	226.27
396.06	226.30
396.44	226.34
396.82	226.38
397.19	226.48
397.57	226.51
397.95	226.60
398.32	226.61
398.70	226.67
399.07	226.76
399.45	226.81
399.82	226.88
400.20	226.93
400.58	227.01
400.95	227.07
401.33	227.16
401.70	227.30
402.08	227.39
402.45	227.45
402.83	227.58
403.20	227.69
403.58	227.76
403.95	227.90
404.33	228.05
404.71	228.17
405.08	228.35
405.46	228.48
405.83	228.59
406.21	228.76
406.58	228.92
406.96	229.05
407.33	229.24
407.70	229.42
408.08	229.70
408.45	229.91
408.83	230.13
409.20	230.39
409.58	230.54
409.95	230.81
410.33	231.11
410.70	231.35
411.08	231.64
411.45	231.96
411.82	232.26
412.20	232.62
412.57	233.02
412.95	233.27
413.32	233.70
413.69	234.14
414.07	234.62
414.44	235.08
414.82	235.56
415.19	236.10
415.56	236.68
415.94	237.20
416.31	237.81
416.68	238.41
417.06	239.11
417.43	239.81
417.81	240.58
418.18	241.38
418.55	242.20
418.93	243.07
419.30	243.95
419.67	244.92
420.04	245.85
420.42	246.84
420.79	248.06
421.16	249.17
421.54	250.40
421.91	251.53
422.28	252.79
422.66	254.12
423.03	255.43
423.40	256.77
423.77	258.19
424.15	259.66
424.52	261.17
424.89	262.80
425.26	264.35
425.64	265.79
426.01	267.38
426.38	269.04
426.75	270.71
427.13	272.46
427.50	274.25
427.87	276.15
428.24	278.04
428.61	279.79
428.99	281.78
429.36	283.88
429.73	285.98
430.10	288.02
430.47	290.09
430.85	292.23
431.22	294.46
431.59	296.84
431.96	299.04
432.33	301.51
432.70	303.90
433.08	306.71
433.45	309.37
433.82	311.99
434.19	314.88
434.56	317.72
434.93	320.35
435.30	322.97
435.68	325.84
436.05	328.68
436.42	331.45
436.79	333.96
437.16	336.63
437.53	339.44
437.90	342.27
438.27	345.03
438.64	347.85
439.01	350.46
439.38	352.68
439.75	354.89
440.13	357.40
440.50	359.70
440.87	361.53
441.24	363.45
441.61	365.59
441.98	367.05
442.35	368.84
442.72	370.72
443.09	372.51
443.46	373.50
443.83	374.02
444.20	374.53
444.57	375.30
444.94	375.56
445.31	375.90
445.68	376.22
446.05	376.26
446.42	375.85
446.79	375.38
447.16	374.93
447.53	374.57
447.90	373.39
448.27	372.24
448.64	370.69
449.01	369.50
449.37	367.51
449.74	365.61
450.11	363.37
450.48	360.89
450.85	358.34
451.22	356.19
451.59	354.17
451.96	352.21
452.33	349.64
452.70	347.27
453.07	344.46
453.43	341.56
453.80	338.83
454.17	336.17
454.54	333.64
454.91	330.93
455.28	328.27
455.65	325.79
456.02	323.31
456.38	321.14
456.75	318.49
457.12	316.23
457.49	314.02
457.86	311.83
458.23	309.97
458.59	307.93
458.96	305.84
459.33	304.01
459.70	302.16
460.07	300.63
460.43	298.96
460.80	297.33
461.17	295.93
461.54	294.42
461.91	292.99
462.27	291.53
462.64	290.23
463.01	288.88
463.38	287.57
463.74	286.21
464.11	285.05
464.48	284.06
464.85	282.97
465.21	282.11
465.58	281.18
465.95	280.07
466.32	279.14
466.68	278.25
467.05	277.33
467.42	276.42
467.78	275.53
468.15	274.67
468.52	274.05
468.88	273.15
469.25	272.38
469.62	271.81
469.98	271.19
470.35	270.61
470.72	270.02
471.08	269.37
471.45	268.87
471.82	268.34
472.18	267.77
472.55	267.34
472.92	266.87
473.28	266.47
473.65	266.06
474.02	265.67
474.38	265.32
474.75	265.04
475.11	264.76
475.48	264.51
475.85	264.27
476.21	264.05
476.58	263.90
476.94	263.76
477.31	263.57
477.67	263.43
478.04	263.32
478.41	263.27
478.77	263.32
479.14	263.26
479.50	263.26
479.87	263.35
480.23	263.43
480.60	263.46
480.96	263.53
481.33	263.72
481.69	263.92
482.06	264.13
482.42	264.34
482.79	264.59
483.15	264.89
483.52	265.29
483.88	265.61
484.25	265.99
484.61	266.40
484.98	266.83
485.34	267.38
485.71	267.99
486.07	268.60
486.44	269.15
486.80	269.84
487.17	270.58
487.53	271.37
487.90	272.19
488.26	273.09
488.62	274.08
488.99	275.08
489.35	276.11
489.72	277.24
490.08	278.42
490.44	279.65
490.81	280.96
491.17	282.27
491.54	283.77
491.90	285.25
492.26	286.88
492.63	288.63
492.99	290.38
493.36	292.24
493.72	294.27
494.08	296.37
494.45	298.60
494.81	300.95
495.17	303.38
495.54	305.96
495.90	308.67
496.26	311.46
496.63	314.40
496.99	317.48
497.35	320.74
497.72	324.17
498.08	327.70
498.44	331.38
498.80	335.34
499.17	339.30
499.53	343.49
499.89	347.86
500.26	352.31
500.62	357.00
500.98	361.95
501.34	367.05
501.71	372.37
502.07	377.79
502.43	383.39
502.79	389.22
503.16	395.25
503.52	401.52
503.88	407.94
504.24	414.53
504.60	421.43
504.97	428.56
505.33	435.85
505.69	443.48
506.05	451.26
506.41	459.07
506.78	467.26
507.14	475.71
507.50	484.48
507.86	493.57
508.22	502.73
508.59	511.95
508.95	521.55
509.31	531.39
509.67	541.55
510.03	551.79
510.39	562.33
510.75	573.20
511.12	584.20
511.48	595.55
511.84	607.04
512.20	618.52
512.56	630.40
512.92	642.59
513.28	655.00
513.64	667.53
514.00	680.25
514.37	693.22
514.73	706.35
515.09	719.38
515.45	732.64
515.81	746.24
516.17	760.23
516.53	774.30
516.89	788.45
517.25	802.67
517.61	817.19
517.97	831.70
518.33	846.13
518.69	860.90
519.05	875.79
519.41	890.93
519.77	906.52
520.13	921.99
520.49	937.35
520.85	952.76
521.21	968.51
521.57	984.71
521.93	1000.47
522.29	1016.84
522.65	1033.11
523.01	1049.34
523.37	1065.48
523.73	1081.59
524.09	1097.65
524.45	1113.99
524.81	1130.62
525.17	1147.37
525.53	1164.22
525.89	1181.16
526.25	1197.92
526.61	1214.29
526.97	1231.16
527.33	1247.67
527.68	1264.35
528.04	1280.90
528.40	1297.53
528.76	1314.54
529.12	1331.19
529.48	1348.08
529.84	1364.04
530.20	1380.61
530.56	1397.65
530.91	1415.02
531.27	1431.85
531.63	1448.37
531.99	1464.96
532.35	1480.89
532.71	1496.76
533.07	1512.98
533.42	1528.84
533.78	1544.90
534.14	1561.27
534.50	1576.48
534.86	1592.32
535.21	1607.51
535.57	1623.49
535.93	1639.01
536.29	1653.70
536.65	1668.73
537.00	1683.56
537.36	1698.85
537.72	1713.47
538.08	1727.91
538.44	1741.62
538.79	1755.47
539.15	1769.14
539.51	1782.91
539.87	1797.24
540.22	1811.17
540.58	1824.97
540.94	1838.27
541.29	1851.20
541.65	1863.85
542.01	1877.11
542.37	1889.44
542.72	1901.76
543.08	1913.52
543.44	1925.70
543.79	1937.09
544.15	1948.13
544.51	1959.65
544.87	1970.67
545.22	1981.39
545.58	1991.56
545.94	2001.43
546.29	2011.29
546.65	2021.26
547.01	2030.47
547.36	2039.27
547.72	2047.58
548.07	2055.48
548.43	2063.61
548.79	2071.67
549.14	2079.20
549.50	2086.55
549.86	2094.38
550.21	2101.70
550.57	2108.73
550.92	2115.37
551.28	2122.49
551.64	2129.54
551.99	2136.02
552.35	2142.08
552.70	2148.20
553.06	2154.23
553.41	2160.48
553.77	2166.49
554.13	2172.51
554.48	2178.66
554.84	2184.00
555.19	2189.41
555.55	2194.57
555.90	2198.90
556.26	2203.79
556.61	2208.56
556.97	2212.83
557.32	2216.86
557.68	2220.98
558.03	2225.33
558.39	2229.17
558.74	2233.75
559.10	2237.55
559.45	2241.27
559.81	2245.82
560.16	2249.74
560.52	2252.84
560.87	2256.30
561.23	2259.06
561.58	2262.01
561.94	2264.45
562.29	2266.80
562.64	2269.34
563.00	2271.88
563.35	2275.53
563.71	2278.49
564.06	2281.72
564.42	2284.58
564.77	2287.16
565.12	2289.56
565.48	2291.49
565.83	2293.28
566.19	2294.44
566.54	2295.35
566.89	2296.60
567.25	2296.98
567.60	2298.30
567.96	2299.98
568.31	2300.89
568.66	2301.94
569.02	2302.42
569.37	2302.73
569.72	2303.58
570.08	2303.89
570.43	2303.86
570.78	2303.25
571.14	2301.88
571.49	2300.55
571.84	2300.24
572.20	2298.98
572.55	2297.84
572.90	2296.30
573.26	2294.95
573.61	2293.27
573.96	2291.55
574.31	2288.49
574.67	2285.47
575.02	2281.89
575.37	2278.54
575.72	2274.63
576.08	2271.32
576.43	2268.03
576.78	2264.36
577.13	2261.26
577.49	2258.14
577.84	2254.83
578.19	2251.15
578.54	2247.37
578.90	2243.01
579.25	2237.40
579.60	2232.42
579.95	2227.34
580.30	2222.36
580.66	2217.13
581.01	2212.17
581.36	2207.24
581.71	2203.01
582.06	2198.54
582.42	2194.00
582.77	2188.78
583.12	2184.16
583.47	2179.29
583.82	2174.30
584.17	2169.01
584.53	2163.45
584.88	2157.64
585.23	2151.67
585.58	2146.20
585.93	2140.75
586.28	2135.96
586.63	2130.83
586.98	2125.76
587.34	2121.07
587.69	2116.03
588.04	2110.79
588.39	2105.08
588.74	2098.60
589.09	2092.43
589.44	2085.65
589.79	2079.73
590.14	2074.04
590.49	2067.43
590.84	2061.14
591.19	2055.10
591.54	2048.66
591.89	2041.22
592.25	2034.46
592.60	2027.21
592.95	2019.50
593.30	2012.15
593.65	2004.69
594.00	1997.63
594.35	1990.28
594.70	1982.30
595.05	1974.98
595.40	1967.58
595.75	1960.06
596.10	1953.82
596.45	1946.93
596.80	1940.64
597.15	1933.87
597.50	1926.78
597.85	1920.42
598.19	1913.74
598.54	1906.55
598.89	1899.93
599.24	1894.05
599.59	1887.33
599.94	1881.15
600.29	1874.81
600.64	1868.15
600.99	1860.56
601.34	1853.76
601.69	1846.89
602.04	1840.00
602.39	1832.77
602.74	1825.98
603.08	1819.36
603.43	1812.62
603.78	1805.35
604.13	1798.17
604.48	1790.84
604.83	1784.03
605.18	1776.95
605.53	1768.95
605.87	1760.95
606.22	1753.71
606.57	1745.74
606.92	1738.47
607.27	1731.18
607.62	1724.31
607.96	1717.03
608.31	1710.41
608.66	1702.76
609.01	1695.11
609.36	1687.50
609.70	1679.51
610.05	1671.47
610.40	1663.63
610.75	1655.18
611.10	1647.68
611.44	1639.31
611.79	1631.35
612.14	1622.50
612.49	1613.33
612.83	1604.95
613.18	1596.92
613.53	1588.74
613.88	1580.17
614.22	1571.80
614.57	1563.35
614.92	1555.25
615.27	1547.67
615.61	1539.41
615.96	1531.55
616.31	1523.97
616.65	1516.61
617.00	1509.01
617.35	1501.31
617.70	1492.89
618.04	1484.52
618.39	1476.19
618.74	1468.58
619.08	1460.25
619.43	1452.85
619.78	1445.99
620.12	1438.69
620.47	1431.07
620.82	1423.00
621.16	1415.64
621.51	1408.12
621.85	1400.57
622.20	1392.03
622.55	1383.74
622.89	1375.84
623.24	1368.04
623.59	1360.70
623.93	1353.04
624.28	1345.85
624.62	1338.36
624.97	1331.32
625.32	1324.50
625.66	1317.42
626.01	1310.18
626.35	1302.68
626.70	1294.81
627.04	1287.12
627.39	1279.41
627.73	1272.04
628.08	1265.20
628.43	1257.86
628.77	1250.43
629.12	1242.81
629.46	1235.73
629.81	1228.36
630.15	1221.16
630.50	1213.77
630.84	1205.52
631.19	1197.70
631.53	1190.18
631.88	1182.60
632.22	1174.97
632.57	1167.63
632.91	1160.13
633.26	1152.78
633.60	1145.49
633.95	1138.48
634.29	1131.36
634.64	1124.67
634.98	1117.38
635.32	1110.17
635.67	1103.56
636.01	1096.84
636.36	1090.08
636.70	1083.47
637.05	1076.80
637.39	1070.35
637.73	1063.86
638.08	1058.02
638.42	1051.93
638.77	1045.49
639.11	1038.81
639.45	1032.34
639.80	1025.69
640.14	1019.26
640.49	1012.75
640.83	1006.41
641.17	1000.12
641.52	993.81
641.86	987.38
642.20	981.45
642.55	975.05
642.89	968.66
643.23	962.18
643.58	956.35
643.92	950.24
644.26	944.14
644.61	938.11
644.95	932.07
645.29	925.53
645.64	918.85
645.98	912.52
646.32	906.75
646.66	900.82
647.01	895.07
647.35	889.35
647.69	883.48
648.04	877.90
648.38	872.16
648.72	866.18
649.06	860.17
649.41	854.28
649.75	848.34
650.09	842.34
650.43	836.62
650.78	830.47
651.12	824.43
651.46	818.74
651.80	812.86
652.14	807.46
652.49	802.04
652.83	796.94
653.17	791.18
653.51	785.45
653.85	780.08
654.20	774.48
654.54	768.48
654.88	762.76
655.22	756.92
655.56	751.20
655.90	745.74
656.25	740.42
656.59	735.04
656.93	729.95
657.27	724.78
657.61	719.29
657.95	714.20
658.29	709.14
658.64	703.94
658.98	698.79
659.32	693.39
659.66	688.19
660.00	682.82
660.34	677.93
660.68	672.99
661.02	667.96
661.36	663.16
661.70	658.67
662.05	654.34
662.39	650.02
662.73	645.63
663.07	641.24
663.41	636.87
663.75	632.43
664.09	627.91
664.43	623.54
664.77	619.44
665.11	615.17
665.45	611.03
665.79	606.95
666.13	602.75
666.47	598.65
666.81	594.46
667.15	590.36
667.49	586.48
667.83	582.79
668.17	578.84
668.51	574.89
668.85	570.89
669.19	567.03
669.53	563.18
669.87	559.28
670.21	555.54
670.55	551.85
670.89	548.37
671.23	544.87
671.57	541.35
671.91	537.78
672.25	534.32
672.58	530.89
672.92	527.43
673.26	524.21
673.60	520.99
673.94	517.90
674.28	514.99
674.62	512.06
674.96	508.84
675.30	505.90
675.64	502.89
675.97	500.09
676.31	497.19
676.65	494.23
676.99	491.49
677.33	488.66
677.67	485.83
678.01	482.79
678.34	479.82
678.68	476.99
679.02	474.20
679.36	471.40
679.70	468.64
680.04	465.92
680.37	463.09
680.71	460.33
681.05	457.70
681.39	454.95
681.73	452.24
682.06	449.75
682.40	447.19
682.74	444.66
683.08	442.14
683.42	439.54
683.75	437.07
684.09	434.55
684.43	432.08
684.77	429.60
685.10	427.25
685.44	424.91
685.78	422.58
686.12	420.31
686.45	418.02
686.79	415.70
687.13	413.49
687.46	411.35
687.80	409.22
688.14	407.03
688.48	404.95
688.81	402.69
689.15	400.52
689.49	398.38
689.82	396.34
690.16	394.23
690.50	392.29
690.83	390.35
691.17	388.35
691.51	386.45
691.84	384.65
692.18	382.71
692.52	380.76
692.85	378.81
693.19	376.92
693.52	375.12
693.86	373.29
694.20	371.53
694.53	369.70
694.87	367.82
695.21	365.98
695.54	364.23
695.88	362.53
696.21	360.83
696.55	359.21
696.88	357.51
697.22	355.86
697.56	354.25
697.89	352.56
698.23	350.99
698.56	349.45
698.90	347.79
699.23	346.19
699.57	344.69
699.90	343.19
700.24	341.65
700.58	340.09
700.91	338.63
701.25	337.16
701.58	335.84
701.92	334.53
702.25	333.18
702.59	331.79
702.92	330.44
703.26	329.13
703.59	327.82
703.93	326.66
704.26	325.42
704.60	324.10
704.93	322.89
705.26	321.67
705.60	320.44
705.93	319.35
706.27	318.32
706.60	317.25
706.94	316.18
707.27	315.07
707.61	314.09
707.94	313.06
708.27	312.00
708.61	310.91
708.94	309.90
709.28	308.96
709.61	307.99
709.94	307.09
710.28	306.07
710.61	305.09
710.95	304.04
711.28	303.17
711.61	302.27
711.95	301.31
712.28	300.35
712.61	299.38
712.95	298.45
713.28	297.58
713.61	296.66
713.95	295.75
714.28	294.92
714.61	294.01
714.95	293.20
715.28	292.33
715.61	291.47
715.95	290.55
716.28	289.66
716.61	288.86
716.95	288.04
717.28	287.31
717.61	286.55
717.94	285.75
718.28	284.91
718.61	284.17
718.94	283.47
719.27	282.83
719.61	282.18
719.94	281.50
720.27	280.75
720.60	280.11
720.94	279.49
721.27	278.86
721.60	278.31
721.93	277.70
722.27	277.18
722.60	276.56
722.93	276.01
723.26	275.49
723.59	274.89
723.93	274.30
724.26	273.72
724.59	273.16
724.92	272.65
725.25	272.16
725.59	271.62
725.92	271.11
726.25	270.57
726.58	270.08
726.91	269.58
727.24	269.10
727.57	268.64
727.91	268.10
728.24	267.64
728.57	267.12
728.90	266.67
729.23	266.16
729.56	265.75
729.89	265.30
730.22	264.80
730.55	264.34
730.89	263.90
731.22	263.45
731.55	263.04
731.88	262.56
732.21	262.11
732.54	261.65
732.87	261.21
733.20	260.79
733.53	260.38
733.86	260.01
734.19	259.61
734.52	259.22
734.85	258.95
735.18	258.53
735.51	258.17
735.84	257.76
736.17	257.40
736.50	257.01
736.83	256.77
737.16	256.45
737.49	256.12
737.82	255.77
738.15	255.45
738.48	255.09
738.81	254.81
739.14	254.50
739.47	254.20
739.80	253.92
740.13	253.59
740.46	253.27
740.79	252.93
741.12	252.65
741.45	252.32
741.78	251.96
742.11	251.70
742.44	251.37
742.77	251.07
743.10	250.76
743.43	250.46
743.75	250.14
744.08	249.98
744.41	249.70
744.74	249.46
745.07	249.15
745.40	248.89
745.73	248.69
746.06	248.41
746.39	248.17
746.71	247.91
747.04	247.66
747.37	247.41
747.70	247.19
748.03	246.91
748.36	246.69
748.68	246.44
749.01	246.18
749.34	245.95
749.67	245.72
750.00	245.53
750.33	245.39
750.65	245.12
750.98	244.80
751.31	244.59
751.64	244.36
751.97	244.24
752.29	244.03
752.62	243.78
752.95	243.59
753.28	243.40
753.60	243.22
753.93	243.05
754.26	242.86
754.59	242.63
754.91	242.44
755.24	242.27
755.57	242.08
755.90	241.91
756.22	241.76
756.55	241.56
756.88	241.37
757.20	241.12
757.53	240.92
757.86	240.72
758.19	240.57
758.51	240.39
758.84	240.16
759.17	239.98
759.49	239.79
759.82	239.64
760.15	239.49
760.47	239.34
760.80	239.15
761.13	239.03
761.45	238.87
761.78	238.74
762.11	238.59
762.43	238.41
762.76	238.27
763.08	238.10
763.41	237.98
763.74	237.84
764.06	237.71
764.39	237.57
764.71	237.45
765.04	237.31
765.37	237.22
765.69	237.10
766.02	236.99
766.34	236.88
766.67	236.73
767.00	236.64
767.32	236.50
767.65	236.49
767.97	236.34
768.30	236.25
768.62	236.14
768.95	236.03
769.27	235.95
769.60	235.83
769.92	235.72
770.25	235.58
770.57	235.48
770.90	235.35
771.22	235.28
771.55	235.20
771.87	235.10
772.20	234.96
772.52	234.96
772.85	234.96
773.17	234.88
773.50	234.79
773.82	234.66
774.15	234.55
774.47	234.37
774.80	234.29
775.12	234.21
775.45	234.12
775.77	233.99
776.09	233.92
776.42	233.83
776.74	233.78
777.07	233.71
777.39	233.60
777.72	233.49
778.04	233.38
778.36	233.30
778.69	233.23
779.01	233.17
779.33	232.99
779.66	232.83
779.98	232.72
780.31	232.64
780.63	232.61
780.95	232.57
781.28	232.49
781.60	232.43
781.92	232.34
782.25	232.26
782.57	232.24
782.89	232.16
783.22	232.09
783.54	232.00
783.86	231.94
784.19	231.90
784.51	231.94
784.83	231.91
785.16	231.82
785.48	231.79
785.80	231.72
786.12	231.68
786.45	231.63
786.77	231.58
787.09	231.53
