SpectraSuite Data File
++++++++++++++++++++++++++++++++++++
Date: Fri Feb 01 15:55:11 EST 2013
User: group
Dark Spectrum Present: No
Reference Spectrum Present: No
Number of Sampled Component Spectra: 1
Spectrometers: USB2E7196
Integration Time (usec): 35000 (USB2E7196)
Spectra Averaged: 100 (USB2E7196)
Boxcar Smoothing: 10 (USB2E7196)
Correct for Electrical Dark: No (USB2E7196)
Strobe/Lamp Enabled: No (USB2E7196)
Correct for Detector Non-linearity: No (USB2E7196)
Correct for Stray Light: No (USB2E7196)
Number of Pixels in Processed Spectrum: 2048
>>>>>Begin Processed Spectral Data<<<<<
339.09	0.00
339.48	215.46
339.86	216.32
340.24	218.08
340.63	219.99
341.01	222.22
341.39	222.66
341.78	223.01
342.16	225.12
342.54	224.81
342.93	213.49
343.31	224.28
343.69	224.83
344.07	225.31
344.46	225.74
344.84	226.07
345.22	226.32
345.60	226.54
345.99	226.75
346.37	226.86
346.75	226.99
347.13	227.06
347.52	227.09
347.90	227.14
348.28	227.15
348.66	227.19
349.05	227.17
349.43	227.19
349.81	227.21
350.19	227.27
350.57	227.33
350.96	227.40
351.34	227.45
351.72	227.50
352.10	227.54
352.48	227.60
352.87	227.64
353.25	227.68
353.63	227.72
354.01	227.75
354.39	227.80
354.77	227.85
355.15	227.93
355.54	227.99
355.92	228.02
356.30	228.07
356.68	228.18
357.06	228.23
357.44	228.29
357.82	228.36
358.20	228.40
358.58	228.44
358.97	228.51
359.35	228.60
359.73	228.65
360.11	228.70
360.49	228.72
360.87	228.76
361.25	228.81
361.63	228.88
362.01	228.91
362.39	228.92
362.77	228.95
363.15	228.95
363.53	228.98
363.91	228.98
364.29	228.98
364.67	228.89
365.05	228.91
365.43	228.91
365.81	228.92
366.19	228.99
366.57	229.04
366.95	229.03
367.33	229.01
367.71	229.00
368.09	229.05
368.47	229.05
368.85	229.03
369.23	228.99
369.61	228.91
369.99	228.90
370.37	228.84
370.75	228.84
371.13	228.80
371.51	228.71
371.89	228.69
372.27	228.66
372.65	228.64
373.03	228.59
373.41	228.54
373.78	228.48
374.16	228.35
374.54	228.26
374.92	228.17
375.30	228.09
375.68	228.02
376.06	227.93
376.44	227.87
376.82	227.83
377.19	227.78
377.57	227.73
377.95	227.65
378.33	227.61
378.71	227.48
379.09	227.41
379.47	227.37
379.84	227.31
380.22	227.24
380.60	227.15
380.98	227.09
381.36	227.01
381.73	226.94
382.11	226.92
382.49	226.85
382.87	226.79
383.25	226.72
383.62	226.77
384.00	226.70
384.38	226.64
384.76	226.59
385.13	226.59
385.51	226.55
385.89	226.49
386.27	226.46
386.64	226.46
387.02	226.39
387.40	226.36
387.78	226.32
388.15	226.30
388.53	226.27
388.91	226.25
389.29	226.24
389.66	226.23
390.04	226.19
390.42	226.18
390.79	226.19
391.17	226.19
391.55	226.07
391.92	226.08
392.30	226.09
392.68	226.06
393.05	226.02
393.43	226.05
393.81	226.11
394.18	226.11
394.56	226.12
394.94	226.15
395.31	226.15
395.69	226.22
396.06	226.28
396.44	226.34
396.82	226.33
397.19	226.43
397.57	226.47
397.95	226.53
398.32	226.55
398.70	226.62
399.07	226.73
399.45	226.80
399.82	226.86
400.20	226.95
400.58	227.05
400.95	227.13
401.33	227.21
401.70	227.35
402.08	227.46
402.45	227.54
402.83	227.69
403.20	227.81
403.58	227.93
403.95	228.03
404.33	228.16
404.71	228.29
405.08	228.46
405.46	228.60
405.83	228.74
406.21	228.94
406.58	229.12
406.96	229.24
407.33	229.42
407.70	229.61
408.08	229.87
408.45	230.06
408.83	230.29
409.20	230.49
409.58	230.67
409.95	230.94
410.33	231.24
410.70	231.53
411.08	231.81
411.45	232.11
411.82	232.43
412.20	232.79
412.57	233.23
412.95	233.51
413.32	233.94
413.69	234.33
414.07	234.76
414.44	235.21
414.82	235.68
415.19	236.26
415.56	236.81
415.94	237.35
416.31	238.00
416.68	238.62
417.06	239.32
417.43	239.99
417.81	240.75
418.18	241.48
418.55	242.27
418.93	243.16
419.30	244.07
419.67	245.04
420.04	245.98
420.42	246.98
420.79	248.18
421.16	249.34
421.54	250.55
421.91	251.75
422.28	252.98
422.66	254.34
423.03	255.65
423.40	256.95
423.77	258.37
424.15	259.79
424.52	261.26
424.89	262.91
425.26	264.46
425.64	265.91
426.01	267.50
426.38	269.17
426.75	270.84
427.13	272.55
427.50	274.33
427.87	276.20
428.24	278.08
428.61	279.78
428.99	281.65
429.36	283.78
429.73	285.83
430.10	287.86
430.47	289.90
430.85	291.96
431.22	294.21
431.59	296.58
431.96	298.80
432.33	301.32
432.70	303.69
433.08	306.48
433.45	309.11
433.82	311.74
434.19	314.62
434.56	317.46
434.93	320.07
435.30	322.66
435.68	325.56
436.05	328.36
436.42	331.16
436.79	333.74
437.16	336.40
437.53	339.26
437.90	342.09
438.27	344.86
438.64	347.68
439.01	350.29
439.38	352.50
439.75	354.70
440.13	357.16
440.50	359.47
440.87	361.34
441.24	363.29
441.61	365.44
441.98	366.90
442.35	368.64
442.72	370.53
443.09	372.32
443.46	373.33
443.83	373.94
444.20	374.47
444.57	375.27
444.94	375.55
445.31	375.85
445.68	376.16
446.05	376.25
446.42	375.89
446.79	375.45
447.16	375.03
447.53	374.67
447.90	373.52
448.27	372.35
448.64	370.71
449.01	369.56
449.37	367.60
449.74	365.73
450.11	363.47
450.48	360.94
450.85	358.42
451.22	356.25
451.59	354.22
451.96	352.25
452.33	349.68
452.70	347.32
453.07	344.53
453.43	341.69
453.80	338.90
454.17	336.19
454.54	333.65
454.91	330.95
455.28	328.30
455.65	325.83
456.02	323.42
456.38	321.31
456.75	318.64
457.12	316.37
457.49	314.15
457.86	312.01
458.23	310.16
458.59	308.14
458.96	306.03
459.33	304.16
459.70	302.29
460.07	300.79
460.43	299.04
460.80	297.43
461.17	295.97
461.54	294.45
461.91	293.07
462.27	291.64
462.64	290.36
463.01	289.04
463.38	287.74
463.74	286.41
464.11	285.27
464.48	284.27
464.85	283.19
465.21	282.31
465.58	281.40
465.95	280.34
466.32	279.47
466.68	278.61
467.05	277.74
467.42	276.87
467.78	275.94
468.15	275.12
468.52	274.46
468.88	273.60
469.25	272.86
469.62	272.22
469.98	271.55
470.35	270.94
470.72	270.35
471.08	269.76
471.45	269.22
471.82	268.64
472.18	268.06
472.55	267.61
472.92	267.09
473.28	266.64
473.65	266.21
474.02	265.72
474.38	265.34
474.75	265.00
475.11	264.66
475.48	264.42
475.85	264.18
476.21	263.95
476.58	263.78
476.94	263.64
477.31	263.46
477.67	263.33
478.04	263.26
478.41	263.20
478.77	263.18
479.14	263.08
479.50	263.11
479.87	263.19
480.23	263.28
480.60	263.37
480.96	263.46
481.33	263.66
481.69	263.84
482.06	264.02
482.42	264.23
482.79	264.49
483.15	264.78
483.52	265.16
483.88	265.49
484.25	265.87
484.61	266.28
484.98	266.73
485.34	267.24
485.71	267.76
486.07	268.35
486.44	268.89
486.80	269.59
487.17	270.32
487.53	271.11
487.90	271.93
488.26	272.85
488.62	273.85
488.99	274.83
489.35	275.88
489.72	277.01
490.08	278.23
490.44	279.46
490.81	280.79
491.17	282.17
491.54	283.64
491.90	285.16
492.26	286.85
492.63	288.60
492.99	290.41
493.36	292.31
493.72	294.34
494.08	296.49
494.45	298.71
494.81	301.08
495.17	303.51
495.54	306.09
495.90	308.79
496.26	311.58
496.63	314.53
496.99	317.67
497.35	320.93
497.72	324.37
498.08	327.90
498.44	331.58
498.80	335.50
499.17	339.50
499.53	343.68
499.89	348.04
500.26	352.54
500.62	357.22
500.98	362.19
501.34	367.26
501.71	372.55
502.07	378.02
502.43	383.59
502.79	389.46
503.16	395.52
503.52	401.81
503.88	408.21
504.24	414.83
504.60	421.71
504.97	428.85
505.33	436.11
505.69	443.80
506.05	451.59
506.41	459.46
506.78	467.69
507.14	476.18
507.50	484.86
507.86	493.86
508.22	503.02
508.59	512.21
508.95	521.80
509.31	531.64
509.67	541.76
510.03	552.04
510.39	562.57
510.75	573.34
511.12	584.24
511.48	595.58
511.84	607.05
512.20	618.57
512.56	630.56
512.92	642.76
513.28	655.12
513.64	667.56
514.00	680.28
514.37	693.22
514.73	706.25
515.09	719.36
515.45	732.70
515.81	746.30
516.17	760.27
516.53	774.43
516.89	788.63
517.25	802.83
517.61	817.33
517.97	831.80
518.33	846.29
518.69	861.11
519.05	876.06
519.41	891.20
519.77	906.80
520.13	922.16
520.49	937.50
520.85	952.86
521.21	968.60
521.57	984.82
521.93	1000.51
522.29	1016.99
522.65	1033.25
523.01	1049.39
523.37	1065.40
523.73	1081.59
524.09	1097.71
524.45	1113.91
524.81	1130.50
525.17	1147.19
525.53	1164.05
525.89	1180.94
526.25	1197.67
526.61	1214.11
526.97	1230.86
527.33	1247.23
527.68	1263.89
528.04	1280.32
528.40	1296.94
528.76	1313.99
529.12	1330.58
529.48	1347.40
529.84	1363.29
530.20	1379.83
530.56	1396.90
530.91	1414.36
531.27	1431.10
531.63	1447.52
531.99	1464.12
532.35	1480.00
532.71	1495.91
533.07	1512.13
533.42	1528.01
533.78	1544.07
534.14	1560.28
534.50	1575.53
534.86	1591.41
535.21	1606.58
535.57	1622.56
535.93	1638.03
536.29	1652.81
536.65	1667.78
537.00	1682.57
537.36	1697.87
537.72	1712.43
538.08	1726.72
538.44	1740.35
538.79	1754.14
539.15	1767.79
539.51	1781.48
539.87	1795.89
540.22	1809.62
540.58	1823.31
540.94	1836.53
541.29	1849.39
541.65	1862.04
542.01	1875.30
542.37	1887.57
542.72	1899.98
543.08	1911.72
543.44	1924.00
543.79	1935.13
544.15	1946.16
544.51	1957.74
544.87	1968.67
545.22	1979.46
545.58	1989.72
545.94	1999.53
546.29	2009.40
546.65	2019.25
547.01	2028.43
547.36	2036.98
547.72	2045.40
548.07	2053.13
548.43	2061.26
548.79	2069.23
549.14	2076.72
549.50	2084.02
549.86	2091.69
550.21	2098.94
550.57	2106.04
550.92	2112.67
551.28	2119.69
551.64	2126.74
551.99	2133.29
552.35	2139.48
552.70	2145.58
553.06	2151.47
553.41	2157.78
553.77	2163.78
554.13	2169.87
554.48	2176.19
554.84	2181.63
555.19	2186.98
555.55	2192.28
555.90	2196.83
556.26	2201.71
556.61	2206.60
556.97	2210.77
557.32	2214.93
557.68	2219.07
558.03	2223.40
558.39	2227.11
558.74	2231.82
559.10	2235.63
559.45	2239.29
559.81	2243.50
560.16	2247.24
560.52	2250.48
560.87	2253.84
561.23	2256.55
561.58	2259.48
561.94	2261.96
562.29	2264.56
562.64	2267.30
563.00	2269.90
563.35	2273.40
563.71	2276.60
564.06	2279.62
564.42	2282.63
564.77	2285.08
565.12	2287.27
565.48	2289.08
565.83	2290.95
566.19	2292.15
566.54	2293.10
566.89	2294.19
567.25	2294.82
567.60	2296.19
567.96	2297.92
568.31	2298.80
568.66	2300.00
569.02	2300.57
569.37	2300.79
569.72	2301.63
570.08	2301.67
570.43	2301.63
570.78	2301.02
571.14	2299.40
571.49	2298.11
571.84	2297.72
572.20	2296.73
572.55	2295.75
572.90	2294.35
573.26	2293.00
573.61	2291.44
573.96	2289.68
574.31	2286.74
574.67	2283.73
575.02	2280.28
575.37	2276.91
575.72	2273.15
576.08	2269.81
576.43	2266.49
576.78	2262.82
577.13	2259.60
577.49	2256.51
577.84	2253.10
578.19	2249.29
578.54	2245.73
578.90	2241.49
579.25	2235.88
579.60	2230.72
579.95	2225.77
580.30	2220.64
580.66	2215.43
581.01	2210.50
581.36	2205.56
581.71	2201.42
582.06	2196.90
582.42	2192.11
582.77	2186.84
583.12	2182.25
583.47	2177.28
583.82	2172.21
584.17	2166.99
584.53	2161.44
584.88	2155.78
585.23	2149.97
585.58	2144.50
585.93	2138.97
586.28	2134.32
586.63	2129.28
586.98	2124.25
587.34	2119.50
587.69	2114.61
588.04	2109.30
588.39	2103.52
588.74	2097.07
589.09	2090.87
589.44	2084.15
589.79	2078.34
590.14	2072.89
590.49	2066.30
590.84	2060.19
591.19	2054.20
591.54	2047.75
591.89	2040.33
592.25	2033.52
592.60	2026.37
592.95	2018.86
593.30	2011.54
593.65	2003.88
594.00	1997.01
594.35	1989.83
594.70	1981.73
595.05	1974.54
595.40	1967.39
595.75	1960.01
596.10	1953.77
596.45	1947.08
596.80	1940.95
597.15	1934.30
597.50	1926.98
597.85	1920.58
598.19	1913.83
598.54	1906.69
598.89	1899.99
599.24	1894.15
599.59	1887.38
599.94	1881.15
600.29	1874.71
600.64	1868.14
600.99	1860.69
601.34	1853.76
601.69	1846.82
602.04	1840.08
602.39	1832.76
602.74	1825.77
603.08	1818.93
603.43	1812.16
603.78	1804.82
604.13	1797.60
604.48	1790.22
604.83	1783.39
605.18	1776.42
605.53	1768.40
605.87	1760.44
606.22	1753.20
606.57	1745.32
606.92	1738.11
607.27	1730.89
607.62	1724.02
607.96	1716.79
608.31	1710.13
608.66	1702.52
609.01	1694.94
609.36	1687.23
609.70	1679.30
610.05	1671.35
610.40	1663.66
610.75	1655.39
611.10	1647.72
611.44	1639.33
611.79	1631.44
612.14	1622.75
612.49	1613.62
612.83	1605.30
613.18	1597.17
613.53	1589.19
613.88	1580.51
614.22	1572.33
614.57	1563.80
614.92	1555.80
615.27	1548.13
615.61	1539.89
615.96	1531.82
616.31	1524.20
616.65	1516.96
617.00	1509.35
617.35	1501.63
617.70	1493.23
618.04	1484.78
618.39	1476.53
618.74	1468.89
619.08	1460.47
619.43	1452.99
619.78	1446.05
620.12	1438.68
620.47	1431.10
620.82	1422.85
621.16	1415.53
621.51	1407.82
621.85	1400.16
622.20	1391.59
622.55	1383.35
622.89	1375.40
623.24	1367.88
623.59	1360.43
623.93	1352.75
624.28	1345.58
624.62	1338.09
624.97	1330.98
625.32	1324.15
625.66	1317.06
626.01	1309.80
626.35	1302.48
626.70	1294.63
627.04	1286.89
627.39	1279.20
627.73	1271.81
628.08	1264.89
628.43	1257.42
628.77	1250.10
629.12	1242.58
629.46	1235.49
629.81	1228.00
630.15	1220.80
630.50	1213.35
630.84	1205.16
631.19	1197.37
631.53	1189.72
631.88	1182.20
632.22	1174.65
632.57	1167.37
632.91	1159.85
633.26	1152.44
633.60	1144.98
633.95	1137.95
634.29	1130.96
634.64	1124.32
634.98	1116.86
635.32	1109.76
635.67	1103.35
636.01	1096.71
636.36	1089.82
636.70	1083.27
637.05	1076.68
637.39	1070.23
637.73	1063.69
638.08	1057.84
638.42	1051.83
638.77	1045.44
639.11	1038.85
639.45	1032.45
639.80	1025.80
640.14	1019.42
640.49	1012.95
640.83	1006.71
641.17	1000.47
641.52	994.08
641.86	987.71
642.20	981.97
642.55	975.67
642.89	969.14
643.23	962.61
643.58	956.86
643.92	950.64
644.26	944.56
644.61	938.56
644.95	932.49
645.29	925.91
645.64	919.13
645.98	912.81
646.32	906.91
646.66	900.87
647.01	895.00
647.35	889.30
647.69	883.47
648.04	877.89
648.38	872.10
648.72	866.10
649.06	859.95
649.41	854.12
649.75	848.12
650.09	842.11
650.43	836.31
650.78	830.14
651.12	824.21
651.46	818.52
651.80	812.73
652.14	807.37
652.49	802.02
652.83	796.86
653.17	791.12
653.51	785.48
653.85	780.09
654.20	774.45
654.54	768.46
654.88	762.69
655.22	756.85
655.56	751.16
655.90	745.75
656.25	740.58
656.59	735.14
656.93	730.06
657.27	724.93
657.61	719.49
657.95	714.51
658.29	709.47
658.64	704.18
658.98	698.91
659.32	693.46
659.66	688.23
660.00	682.85
660.34	677.94
660.68	673.02
661.02	667.99
661.36	663.23
661.70	658.75
662.05	654.46
662.39	650.14
662.73	645.62
663.07	641.24
663.41	636.77
663.75	632.34
664.09	627.77
664.43	623.46
664.77	619.31
665.11	615.02
665.45	610.92
665.79	606.88
666.13	602.69
666.47	598.58
666.81	594.43
667.15	590.35
667.49	586.43
667.83	582.63
668.17	578.66
668.51	574.67
668.85	570.58
669.19	566.73
669.53	562.84
669.87	558.97
670.21	555.28
670.55	551.66
670.89	548.18
671.23	544.74
671.57	541.15
671.91	537.63
672.25	534.11
672.58	530.54
672.92	527.15
673.26	524.02
673.60	520.86
673.94	517.74
674.28	514.90
674.62	511.88
674.96	508.75
675.30	505.85
675.64	502.90
675.97	500.21
676.31	497.29
676.65	494.39
676.99	491.74
677.33	488.93
677.67	486.11
678.01	483.13
678.34	480.14
678.68	477.31
679.02	474.47
679.36	471.72
679.70	469.04
680.04	466.28
680.37	463.37
680.71	460.63
681.05	458.05
681.39	455.27
681.73	452.67
682.06	450.16
682.40	447.62
682.74	445.10
683.08	442.50
683.42	439.87
683.75	437.37
684.09	434.81
684.43	432.32
684.77	429.77
685.10	427.37
685.44	425.08
685.78	422.78
686.12	420.53
686.45	418.23
686.79	415.91
687.13	413.70
687.46	411.59
687.80	409.46
688.14	407.22
688.48	405.15
688.81	402.90
689.15	400.73
689.49	398.55
689.82	396.48
690.16	394.45
690.50	392.57
690.83	390.65
691.17	388.65
691.51	386.76
691.84	384.95
692.18	383.06
692.52	381.07
692.85	379.20
693.19	377.33
693.52	375.49
693.86	373.71
694.20	371.97
694.53	370.16
694.87	368.25
695.21	366.47
695.54	364.70
695.88	362.99
696.21	361.25
696.55	359.60
696.88	357.96
697.22	356.30
697.56	354.68
697.89	353.01
698.23	351.46
698.56	349.83
698.90	348.28
699.23	346.63
699.57	345.10
699.90	343.54
700.24	342.07
700.58	340.57
700.91	339.07
701.25	337.63
701.58	336.22
701.92	334.89
702.25	333.52
702.59	332.12
702.92	330.81
703.26	329.50
703.59	328.19
703.93	326.98
704.26	325.73
704.60	324.38
704.93	323.11
705.26	321.79
705.60	320.62
705.93	319.43
706.27	318.38
706.60	317.29
706.94	316.19
707.27	315.02
707.61	313.94
707.94	312.91
708.27	311.81
708.61	310.77
708.94	309.74
709.28	308.72
709.61	307.73
709.94	306.83
710.28	305.82
710.61	304.87
710.95	303.77
711.28	302.85
711.61	301.90
711.95	300.99
712.28	300.06
712.61	299.06
712.95	298.14
713.28	297.26
713.61	296.37
713.95	295.48
714.28	294.67
714.61	293.77
714.95	292.91
715.28	292.08
715.61	291.19
715.95	290.29
716.28	289.47
716.61	288.72
716.95	287.84
717.28	287.10
717.61	286.30
717.94	285.60
718.28	284.80
718.61	284.06
718.94	283.39
719.27	282.74
719.61	282.09
719.94	281.38
720.27	280.65
720.60	280.00
720.94	279.36
721.27	278.74
721.60	278.15
721.93	277.55
722.27	276.97
722.60	276.39
722.93	275.83
723.26	275.29
723.59	274.70
723.93	274.20
724.26	273.61
724.59	273.05
724.92	272.50
725.25	272.02
725.59	271.50
725.92	270.98
726.25	270.45
726.58	269.99
726.91	269.51
727.24	269.04
727.57	268.55
727.91	268.06
728.24	267.59
728.57	267.12
728.90	266.66
729.23	266.19
729.56	265.82
729.89	265.40
730.22	264.88
730.55	264.38
730.89	263.96
731.22	263.51
731.55	263.07
731.88	262.66
732.21	262.21
732.54	261.79
732.87	261.34
733.20	260.98
733.53	260.55
733.86	260.21
734.19	259.82
734.52	259.49
734.85	259.18
735.18	258.78
735.51	258.43
735.84	258.06
736.17	257.69
736.50	257.24
736.83	257.00
737.16	256.70
737.49	256.35
737.82	255.97
738.15	255.65
738.48	255.33
738.81	254.99
739.14	254.69
739.47	254.38
739.80	254.12
740.13	253.84
740.46	253.53
740.79	253.16
741.12	252.84
741.45	252.51
741.78	252.14
742.11	251.85
742.44	251.49
742.77	251.22
743.10	250.92
743.43	250.62
743.75	250.27
744.08	250.12
744.41	249.85
744.74	249.59
745.07	249.33
745.40	249.08
745.73	248.82
746.06	248.53
746.39	248.30
746.71	247.99
747.04	247.67
747.37	247.37
747.70	247.11
748.03	246.86
748.36	246.63
748.68	246.38
749.01	246.10
749.34	245.90
749.67	245.63
750.00	245.41
750.33	245.27
750.65	245.03
750.98	244.66
751.31	244.44
751.64	244.20
751.97	244.01
752.29	243.78
752.62	243.52
752.95	243.29
753.28	243.03
753.60	242.84
753.93	242.66
754.26	242.50
754.59	242.31
754.91	242.12
755.24	241.89
755.57	241.72
755.90	241.52
756.22	241.31
756.55	241.14
756.88	240.93
757.20	240.66
757.53	240.44
757.86	240.27
758.19	240.10
758.51	239.91
758.84	239.72
759.17	239.56
759.49	239.39
759.82	239.29
760.15	239.18
760.47	239.04
760.80	238.86
761.13	238.72
761.45	238.58
761.78	238.41
762.11	238.30
762.43	238.15
762.76	238.06
763.08	237.96
763.41	237.83
763.74	237.69
764.06	237.57
764.39	237.45
764.71	237.34
765.04	237.22
765.37	237.11
765.69	236.97
766.02	236.83
766.34	236.75
766.67	236.59
767.00	236.47
767.32	236.40
767.65	236.37
767.97	236.24
768.30	236.10
768.62	236.02
768.95	235.90
769.27	235.79
769.60	235.67
769.92	235.55
770.25	235.45
770.57	235.34
770.90	235.23
771.22	235.15
771.55	235.06
771.87	234.99
772.20	234.89
772.52	234.90
772.85	234.95
773.17	234.84
773.50	234.74
773.82	234.65
774.15	234.54
774.47	234.38
774.80	234.29
775.12	234.23
775.45	234.15
775.77	234.07
776.09	234.02
776.42	233.96
776.74	233.92
777.07	233.83
777.39	233.77
777.72	233.75
778.04	233.69
778.36	233.61
778.69	233.55
779.01	233.50
779.33	233.35
779.66	233.18
779.98	233.10
780.31	233.06
780.63	233.01
780.95	232.93
781.28	232.84
781.60	232.77
781.92	232.74
782.25	232.70
782.57	232.68
782.89	232.60
783.22	232.54
783.54	232.43
783.86	232.36
784.19	232.30
784.51	232.24
784.83	232.19
785.16	232.10
785.48	232.02
785.80	231.98
786.12	231.96
786.45	231.89
786.77	231.87
787.09	231.81
