SpectraSuite Data File
++++++++++++++++++++++++++++++++++++
Date: Fri Feb 01 17:04:21 EST 2013
User: group
Dark Spectrum Present: No
Reference Spectrum Present: No
Number of Sampled Component Spectra: 1
Spectrometers: USB2E7196
Integration Time (usec): 35000 (USB2E7196)
Spectra Averaged: 100 (USB2E7196)
Boxcar Smoothing: 10 (USB2E7196)
Correct for Electrical Dark: No (USB2E7196)
Strobe/Lamp Enabled: No (USB2E7196)
Correct for Detector Non-linearity: No (USB2E7196)
Correct for Stray Light: No (USB2E7196)
Number of Pixels in Processed Spectrum: 2048
>>>>>Begin Processed Spectral Data<<<<<
339.09	0.00
339.48	213.41
339.86	214.59
340.24	215.76
340.63	216.92
341.01	220.09
341.39	220.02
341.78	221.51
342.16	222.66
342.54	223.36
342.93	211.63
343.31	222.36
343.69	222.91
344.07	223.40
344.46	223.85
344.84	224.27
345.22	224.50
345.60	224.74
345.99	224.94
346.37	225.08
346.75	225.18
347.13	225.26
347.52	225.35
347.90	225.44
348.28	225.50
348.66	225.52
349.05	225.53
349.43	225.58
349.81	225.61
350.19	225.67
350.57	225.72
350.96	225.80
351.34	225.86
351.72	225.96
352.10	226.07
352.48	226.13
352.87	226.19
353.25	226.30
353.63	226.39
354.01	226.44
354.39	226.51
354.77	226.60
355.15	226.72
355.54	226.75
355.92	226.78
356.30	226.85
356.68	226.99
357.06	227.06
357.44	227.12
357.82	227.19
358.20	227.26
358.58	227.34
358.97	227.43
359.35	227.51
359.73	227.56
360.11	227.60
360.49	227.65
360.87	227.69
361.25	227.73
361.63	227.80
362.01	227.86
362.39	227.89
362.77	227.90
363.15	227.92
363.53	227.95
363.91	227.96
364.29	227.95
364.67	227.88
365.05	227.90
365.43	227.91
365.81	227.92
366.19	227.95
366.57	227.98
366.95	227.91
367.33	227.88
367.71	227.85
368.09	227.81
368.47	227.78
368.85	227.77
369.23	227.74
369.61	227.67
369.99	227.65
370.37	227.61
370.75	227.64
371.13	227.57
371.51	227.50
371.89	227.51
372.27	227.47
372.65	227.39
373.03	227.33
373.41	227.27
373.78	227.17
374.16	227.03
374.54	226.91
374.92	226.86
375.30	226.80
375.68	226.74
376.06	226.70
376.44	226.65
376.82	226.57
377.19	226.50
377.57	226.48
377.95	226.40
378.33	226.36
378.71	226.26
379.09	226.23
379.47	226.17
379.84	226.07
380.22	226.03
380.60	225.95
380.98	225.87
381.36	225.82
381.73	225.74
382.11	225.70
382.49	225.68
382.87	225.62
383.25	225.54
383.62	225.56
384.00	225.51
384.38	225.46
384.76	225.44
385.13	225.43
385.51	225.34
385.89	225.27
386.27	225.21
386.64	225.18
387.02	225.10
387.40	225.06
387.78	225.04
388.15	225.01
388.53	225.01
388.91	225.01
389.29	224.96
389.66	224.97
390.04	224.97
390.42	224.93
390.79	224.89
391.17	224.89
391.55	224.82
391.92	224.80
392.30	224.80
392.68	224.77
393.05	224.74
393.43	224.75
393.81	224.78
394.18	224.79
394.56	224.82
394.94	224.84
395.31	224.89
395.69	224.93
396.06	225.00
396.44	225.03
396.82	225.03
397.19	225.14
397.57	225.18
397.95	225.25
398.32	225.26
398.70	225.34
399.07	225.43
399.45	225.45
399.82	225.51
400.20	225.58
400.58	225.61
400.95	225.66
401.33	225.74
401.70	225.88
402.08	225.98
402.45	226.02
402.83	226.14
403.20	226.20
403.58	226.26
403.95	226.30
404.33	226.41
404.71	226.53
405.08	226.69
405.46	226.81
405.83	226.92
406.21	227.08
406.58	227.21
406.96	227.37
407.33	227.54
407.70	227.73
408.08	227.97
408.45	228.21
408.83	228.43
409.20	228.64
409.58	228.75
409.95	228.98
410.33	229.23
410.70	229.44
411.08	229.78
411.45	230.10
411.82	230.45
412.20	230.77
412.57	231.19
412.95	231.45
413.32	231.84
413.69	232.27
414.07	232.68
414.44	233.14
414.82	233.61
415.19	234.15
415.56	234.66
415.94	235.21
416.31	235.84
416.68	236.46
417.06	237.18
417.43	237.91
417.81	238.66
418.18	239.46
418.55	240.30
418.93	241.14
419.30	242.04
419.67	242.91
420.04	243.88
420.42	244.86
420.79	246.02
421.16	247.17
421.54	248.34
421.91	249.55
422.28	250.80
422.66	252.11
423.03	253.43
423.40	254.76
423.77	256.13
424.15	257.54
424.52	259.01
424.89	260.61
425.26	262.17
425.64	263.59
426.01	265.18
426.38	266.89
426.75	268.55
427.13	270.30
427.50	272.12
427.87	273.99
428.24	275.81
428.61	277.54
428.99	279.45
429.36	281.53
429.73	283.59
430.10	285.63
430.47	287.68
430.85	289.79
431.22	291.99
431.59	294.38
431.96	296.64
432.33	299.09
432.70	301.46
433.08	304.21
433.45	306.86
433.82	309.45
434.19	312.27
434.56	315.07
434.93	317.68
435.30	320.29
435.68	323.16
436.05	326.00
436.42	328.79
436.79	331.32
437.16	333.98
437.53	336.78
437.90	339.56
438.27	342.25
438.64	345.07
439.01	347.66
439.38	349.88
439.75	352.03
440.13	354.54
440.50	356.81
440.87	358.66
441.24	360.59
441.61	362.74
441.98	364.19
442.35	365.92
442.72	367.76
443.09	369.56
443.46	370.56
443.83	371.13
444.20	371.67
444.57	372.52
444.94	372.82
445.31	373.19
445.68	373.51
446.05	373.59
446.42	373.19
446.79	372.80
447.16	372.38
447.53	372.03
447.90	370.87
448.27	369.81
448.64	368.26
449.01	367.11
449.37	365.15
449.74	363.31
450.11	361.11
450.48	358.68
450.85	356.19
451.22	354.04
451.59	352.09
451.96	350.16
452.33	347.58
452.70	345.26
453.07	342.46
453.43	339.64
453.80	336.91
454.17	334.26
454.54	331.73
454.91	329.02
455.28	326.37
455.65	323.99
456.02	321.52
456.38	319.37
456.75	316.77
457.12	314.51
457.49	312.32
457.86	310.18
458.23	308.34
458.59	306.29
458.96	304.22
459.33	302.35
459.70	300.47
460.07	298.95
460.43	297.27
460.80	295.70
461.17	294.27
461.54	292.80
461.91	291.42
462.27	290.00
462.64	288.79
463.01	287.50
463.38	286.16
463.74	284.86
464.11	283.70
464.48	282.67
464.85	281.61
465.21	280.76
465.58	279.83
465.95	278.75
466.32	277.85
466.68	277.01
467.05	276.15
467.42	275.29
467.78	274.38
468.15	273.52
468.52	272.86
468.88	272.04
469.25	271.28
469.62	270.67
469.98	269.99
470.35	269.34
470.72	268.72
471.08	268.09
471.45	267.53
471.82	267.04
472.18	266.47
472.55	266.04
472.92	265.53
473.28	265.11
473.65	264.69
474.02	264.31
474.38	263.96
474.75	263.64
475.11	263.30
475.48	263.04
475.85	262.81
476.21	262.55
476.58	262.34
476.94	262.22
477.31	262.04
477.67	261.90
478.04	261.82
478.41	261.79
478.77	261.80
479.14	261.74
479.50	261.72
479.87	261.81
480.23	261.88
480.60	261.98
480.96	262.09
481.33	262.31
481.69	262.46
482.06	262.67
482.42	262.87
482.79	263.17
483.15	263.52
483.52	263.90
483.88	264.27
484.25	264.69
484.61	265.12
484.98	265.59
485.34	266.18
485.71	266.77
486.07	267.38
486.44	267.97
486.80	268.69
487.17	269.43
487.53	270.25
487.90	271.09
488.26	272.00
488.62	272.98
488.99	273.94
489.35	275.02
489.72	276.11
490.08	277.31
490.44	278.54
490.81	279.86
491.17	281.19
491.54	282.69
491.90	284.19
492.26	285.77
492.63	287.50
492.99	289.23
493.36	291.09
493.72	293.12
494.08	295.23
494.45	297.49
494.81	299.79
495.17	302.17
495.54	304.72
495.90	307.35
496.26	310.12
496.63	313.07
496.99	316.13
497.35	319.34
497.72	322.71
498.08	326.21
498.44	329.85
498.80	333.73
499.17	337.73
499.53	341.83
499.89	346.22
500.26	350.66
500.62	355.30
500.98	360.25
501.34	365.28
501.71	370.58
502.07	375.91
502.43	381.52
502.79	387.29
503.16	393.27
503.52	399.51
503.88	405.84
504.24	412.40
504.60	419.28
504.97	426.40
505.33	433.54
505.69	441.17
506.05	448.86
506.41	456.68
506.78	464.70
507.14	473.12
507.50	481.73
507.86	490.66
508.22	499.77
508.59	508.87
508.95	518.30
509.31	527.95
509.67	537.94
510.03	548.11
510.39	558.54
510.75	569.15
511.12	579.95
511.48	591.12
511.84	602.40
512.20	613.68
512.56	625.44
512.92	637.56
513.28	649.67
513.64	661.99
514.00	674.53
514.37	687.35
514.73	700.19
515.09	712.93
515.45	726.02
515.81	739.45
516.17	753.15
516.53	767.10
516.89	781.07
517.25	795.09
517.61	809.28
517.97	823.47
518.33	837.67
518.69	852.15
519.05	866.91
519.41	881.74
519.77	896.96
520.13	912.04
520.49	927.06
520.85	942.17
521.21	957.53
521.57	973.46
521.93	988.81
522.29	1004.84
522.65	1020.79
523.01	1036.63
523.37	1052.29
523.73	1068.07
524.09	1083.82
524.45	1099.76
524.81	1115.92
525.17	1132.25
525.53	1148.81
525.89	1165.42
526.25	1181.98
526.61	1197.92
526.97	1214.32
527.33	1230.50
527.68	1246.82
528.04	1262.93
528.40	1279.14
528.76	1295.78
529.12	1311.96
529.48	1328.66
529.84	1344.21
530.20	1360.49
530.56	1377.04
530.91	1393.91
531.27	1410.40
531.63	1426.48
531.99	1442.64
532.35	1458.37
532.71	1474.02
533.07	1489.93
533.42	1505.38
533.78	1520.99
534.14	1536.84
534.50	1551.85
534.86	1567.29
535.21	1582.09
535.57	1597.70
535.93	1612.76
536.29	1627.20
536.65	1641.86
537.00	1656.09
537.36	1671.17
537.72	1685.30
538.08	1699.45
538.44	1712.99
538.79	1726.47
539.15	1739.77
539.51	1753.10
539.87	1766.99
540.22	1780.28
540.58	1793.63
540.94	1806.52
541.29	1818.96
541.65	1831.39
542.01	1844.39
542.37	1856.51
542.72	1868.59
543.08	1880.13
543.44	1892.30
543.79	1903.30
544.15	1914.13
544.51	1925.49
544.87	1936.20
545.22	1946.99
545.58	1957.09
545.94	1966.80
546.29	1976.53
546.65	1986.30
547.01	1995.44
547.36	2004.03
547.72	2012.42
548.07	2020.24
548.43	2028.40
548.79	2036.39
549.14	2043.80
549.50	2050.95
549.86	2058.41
550.21	2065.65
550.57	2072.71
550.92	2079.25
551.28	2086.28
551.64	2093.30
551.99	2099.73
552.35	2105.82
552.70	2111.90
553.06	2117.76
553.41	2123.98
553.77	2129.88
554.13	2135.83
554.48	2141.97
554.84	2147.55
555.19	2152.71
555.55	2157.86
555.90	2162.39
556.26	2167.28
556.61	2172.01
556.97	2176.43
557.32	2180.73
557.68	2184.97
558.03	2189.32
558.39	2192.87
558.74	2197.62
559.10	2201.49
559.45	2205.27
559.81	2209.45
560.16	2213.27
560.52	2216.68
560.87	2220.15
561.23	2223.06
561.58	2226.00
561.94	2228.55
562.29	2230.78
562.64	2233.74
563.00	2236.31
563.35	2239.89
563.71	2243.18
564.06	2246.47
564.42	2249.36
564.77	2251.84
565.12	2254.41
565.48	2256.59
565.83	2258.80
566.19	2260.25
566.54	2261.21
566.89	2262.52
567.25	2263.48
567.60	2264.85
567.96	2266.69
568.31	2267.53
568.66	2268.72
569.02	2269.56
569.37	2270.26
569.72	2271.57
570.08	2271.89
570.43	2272.11
570.78	2271.74
571.14	2270.40
571.49	2269.18
571.84	2269.07
572.20	2268.31
572.55	2267.44
572.90	2265.87
573.26	2264.74
573.61	2263.11
573.96	2261.77
574.31	2258.99
574.67	2256.24
575.02	2253.01
575.37	2249.65
575.72	2246.38
576.08	2243.11
576.43	2239.85
576.78	2236.44
577.13	2233.24
577.49	2230.20
577.84	2227.09
578.19	2223.57
578.54	2220.32
578.90	2216.56
579.25	2211.20
579.60	2206.46
579.95	2201.51
580.30	2196.69
580.66	2191.69
581.01	2187.01
581.36	2182.23
581.71	2178.31
582.06	2174.19
582.42	2169.90
582.77	2165.03
583.12	2160.56
583.47	2156.25
583.82	2151.66
584.17	2146.56
584.53	2141.29
584.88	2136.09
585.23	2130.60
585.58	2125.34
585.93	2119.92
586.28	2115.28
586.63	2110.56
586.98	2105.70
587.34	2101.17
587.69	2096.46
588.04	2091.48
588.39	2086.09
588.74	2079.77
589.09	2073.81
589.44	2067.21
589.79	2061.29
590.14	2055.77
590.49	2049.46
590.84	2043.22
591.19	2037.31
591.54	2031.08
591.89	2024.17
592.25	2017.59
592.60	2010.45
592.95	2003.17
593.30	1996.04
593.65	1988.64
594.00	1981.70
594.35	1974.52
594.70	1966.64
595.05	1959.88
595.40	1952.80
595.75	1945.39
596.10	1939.39
596.45	1932.95
596.80	1927.00
597.15	1920.66
597.50	1913.89
597.85	1907.51
598.19	1901.14
598.54	1894.22
598.89	1887.65
599.24	1881.66
599.59	1875.22
599.94	1869.18
600.29	1862.90
600.64	1856.45
600.99	1849.10
601.34	1842.44
601.69	1835.61
602.04	1829.02
602.39	1821.68
602.74	1814.93
603.08	1808.20
603.43	1801.57
603.78	1794.32
604.13	1787.10
604.48	1779.98
604.83	1773.12
605.18	1766.39
605.53	1758.49
605.87	1750.63
606.22	1743.43
606.57	1735.61
606.92	1728.24
607.27	1721.24
607.62	1714.48
607.96	1707.38
608.31	1701.05
608.66	1693.53
609.01	1686.10
609.36	1678.64
609.70	1670.62
610.05	1662.72
610.40	1655.26
610.75	1646.96
611.10	1639.38
611.44	1631.04
611.79	1622.97
612.14	1614.51
612.49	1605.32
612.83	1596.94
613.18	1588.90
613.53	1580.99
613.88	1572.67
614.22	1564.41
614.57	1555.80
614.92	1547.75
615.27	1540.30
615.61	1532.00
615.96	1524.02
616.31	1516.40
616.65	1508.99
617.00	1501.66
617.35	1493.97
617.70	1485.80
618.04	1477.47
618.39	1469.31
618.74	1461.80
619.08	1453.48
619.43	1445.97
619.78	1439.10
620.12	1432.03
620.47	1424.49
620.82	1416.28
621.16	1408.69
621.51	1401.18
621.85	1393.55
622.20	1385.17
622.55	1376.80
622.89	1368.97
623.24	1361.32
623.59	1353.91
623.93	1346.52
624.28	1339.19
624.62	1331.80
624.97	1324.59
625.32	1317.82
625.66	1310.78
626.01	1303.69
626.35	1296.47
626.70	1288.59
627.04	1280.91
627.39	1273.11
627.73	1265.82
628.08	1259.09
628.43	1252.08
628.77	1244.68
629.12	1237.30
629.46	1230.19
629.81	1222.74
630.15	1215.41
630.50	1208.10
630.84	1200.08
631.19	1192.11
631.53	1184.66
631.88	1177.03
632.22	1169.49
632.57	1162.18
632.91	1154.70
633.26	1147.26
633.60	1139.82
633.95	1132.77
634.29	1125.78
634.64	1119.14
634.98	1111.80
635.32	1104.62
635.67	1097.89
636.01	1091.31
636.36	1084.60
636.70	1077.95
637.05	1071.40
637.39	1065.05
637.73	1058.56
638.08	1052.70
638.42	1046.80
638.77	1040.38
639.11	1033.93
639.45	1027.46
639.80	1020.88
640.14	1014.52
640.49	1008.10
640.83	1001.87
641.17	995.74
641.52	989.51
641.86	983.03
642.20	977.21
642.55	970.90
642.89	964.48
643.23	957.99
643.58	952.20
643.92	946.13
644.26	940.20
644.61	934.21
644.95	928.30
645.29	921.72
645.64	914.97
645.98	908.69
646.32	902.85
646.66	896.89
647.01	891.06
647.35	885.38
647.69	879.51
648.04	873.94
648.38	868.15
648.72	862.17
649.06	856.26
649.41	850.35
649.75	844.42
650.09	838.53
650.43	832.78
650.78	826.61
651.12	820.63
651.46	814.93
651.80	809.20
652.14	803.80
652.49	798.54
652.83	793.46
653.17	787.87
653.51	782.20
653.85	776.82
654.20	771.29
654.54	765.34
654.88	759.52
655.22	753.71
655.56	748.08
655.90	742.63
656.25	737.31
656.59	732.05
656.93	727.02
657.27	721.88
657.61	716.43
657.95	711.35
658.29	706.34
658.64	701.07
658.98	695.76
659.32	690.36
659.66	685.16
660.00	679.87
660.34	674.89
660.68	670.02
661.02	665.06
661.36	660.38
661.70	655.87
662.05	651.65
662.39	647.34
662.73	642.83
663.07	638.49
663.41	634.13
663.75	629.67
664.09	625.12
664.43	620.82
664.77	616.76
665.11	612.57
665.45	608.44
665.79	604.37
666.13	600.25
666.47	596.12
666.81	591.94
667.15	587.82
667.49	583.92
667.83	580.02
668.17	576.06
668.51	571.95
668.85	567.94
669.19	564.04
669.53	560.24
669.87	556.48
670.21	552.79
670.55	549.20
670.89	545.78
671.23	542.34
671.57	538.81
671.91	535.34
672.25	531.79
672.58	528.33
672.92	524.96
673.26	521.87
673.60	518.80
673.94	515.70
674.28	512.77
674.62	509.85
674.96	506.80
675.30	503.96
675.64	501.12
675.97	498.35
676.31	495.52
676.65	492.61
676.99	489.93
677.33	487.08
677.67	484.18
678.01	481.17
678.34	478.26
678.68	475.40
679.02	472.59
679.36	469.81
679.70	467.07
680.04	464.30
680.37	461.47
680.71	458.63
681.05	456.06
681.39	453.34
681.73	450.72
682.06	448.18
682.40	445.67
682.74	443.14
683.08	440.60
683.42	438.04
683.75	435.51
684.09	432.91
684.43	430.43
684.77	428.04
685.10	425.69
685.44	423.34
685.78	420.99
686.12	418.72
686.45	416.46
686.79	414.13
687.13	411.95
687.46	409.77
687.80	407.64
688.14	405.40
688.48	403.36
688.81	401.17
689.15	399.02
689.49	396.81
689.82	394.73
690.16	392.62
690.50	390.67
690.83	388.76
691.17	386.74
691.51	384.82
691.84	382.96
692.18	381.04
692.52	379.09
692.85	377.19
693.19	375.32
693.52	373.49
693.86	371.72
694.20	369.93
694.53	368.11
694.87	366.22
695.21	364.46
695.54	362.62
695.88	360.86
696.21	359.15
696.55	357.48
696.88	355.78
697.22	354.09
697.56	352.42
697.89	350.73
698.23	349.20
698.56	347.59
698.90	346.00
699.23	344.39
699.57	342.83
699.90	341.28
700.24	339.74
700.58	338.23
700.91	336.77
701.25	335.32
701.58	334.01
701.92	332.67
702.25	331.28
702.59	329.96
702.92	328.61
703.26	327.35
703.59	326.08
703.93	324.91
704.26	323.69
704.60	322.46
704.93	321.22
705.26	319.98
705.60	318.82
705.93	317.68
706.27	316.63
706.60	315.60
706.94	314.57
707.27	313.44
707.61	312.41
707.94	311.32
708.27	310.26
708.61	309.15
708.94	308.18
709.28	307.20
709.61	306.27
709.94	305.34
710.28	304.32
710.61	303.34
710.95	302.31
711.28	301.45
711.61	300.47
711.95	299.57
712.28	298.65
712.61	297.64
712.95	296.71
713.28	295.78
713.61	294.86
713.95	293.98
714.28	293.16
714.61	292.30
714.95	291.51
715.28	290.67
715.61	289.82
715.95	288.92
716.28	288.09
716.61	287.27
716.95	286.47
717.28	285.67
717.61	284.91
717.94	284.14
718.28	283.30
718.61	282.58
718.94	281.85
719.27	281.18
719.61	280.55
719.94	279.90
720.27	279.22
720.60	278.58
720.94	277.93
721.27	277.32
721.60	276.75
721.93	276.13
722.27	275.60
722.60	275.02
722.93	274.48
723.26	273.92
723.59	273.34
723.93	272.76
724.26	272.22
724.59	271.65
724.92	271.11
725.25	270.64
725.59	270.13
725.92	269.64
726.25	269.12
726.58	268.66
726.91	268.15
727.24	267.68
727.57	267.20
727.91	266.68
728.24	266.20
728.57	265.66
728.90	265.19
729.23	264.66
729.56	264.26
729.89	263.75
730.22	263.24
730.55	262.77
730.89	262.31
731.22	261.89
731.55	261.45
731.88	260.98
732.21	260.53
732.54	260.11
732.87	259.68
733.20	259.27
733.53	258.85
733.86	258.44
734.19	258.04
734.52	257.65
734.85	257.34
735.18	256.93
735.51	256.56
735.84	256.19
736.17	255.86
736.50	255.41
736.83	255.20
737.16	254.89
737.49	254.52
737.82	254.22
738.15	253.87
738.48	253.56
738.81	253.28
739.14	252.96
739.47	252.65
739.80	252.32
740.13	252.02
740.46	251.72
740.79	251.41
741.12	251.11
741.45	250.79
741.78	250.44
742.11	250.17
742.44	249.85
742.77	249.60
743.10	249.30
743.43	249.01
743.75	248.62
744.08	248.46
744.41	248.22
744.74	247.95
745.07	247.66
745.40	247.40
745.73	247.17
746.06	246.90
746.39	246.67
746.71	246.40
747.04	246.15
747.37	245.91
747.70	245.71
748.03	245.47
748.36	245.27
748.68	245.05
749.01	244.78
749.34	244.59
749.67	244.36
750.00	244.17
750.33	244.03
750.65	243.80
750.98	243.45
751.31	243.21
751.64	243.00
751.97	242.88
752.29	242.66
752.62	242.41
752.95	242.17
753.28	241.93
753.60	241.74
753.93	241.52
754.26	241.31
754.59	241.06
754.91	240.85
755.24	240.63
755.57	240.43
755.90	240.26
756.22	240.06
756.55	239.82
756.88	239.62
757.20	239.37
757.53	239.16
757.86	239.03
758.19	238.90
758.51	238.73
758.84	238.49
759.17	238.33
759.49	238.18
759.82	238.08
760.15	237.92
760.47	237.79
760.80	237.61
761.13	237.47
761.45	237.30
761.78	237.18
762.11	237.03
762.43	236.88
762.76	236.78
763.08	236.64
763.41	236.51
763.74	236.34
764.06	236.20
764.39	236.10
764.71	235.94
765.04	235.83
765.37	235.68
765.69	235.57
766.02	235.41
766.34	235.26
766.67	235.10
767.00	235.00
767.32	234.91
767.65	234.86
767.97	234.73
768.30	234.63
768.62	234.49
768.95	234.37
769.27	234.23
769.60	234.10
769.92	233.93
770.25	233.82
770.57	233.71
770.90	233.59
771.22	233.49
771.55	233.40
771.87	233.27
772.20	233.17
772.52	233.14
772.85	233.17
773.17	233.05
773.50	232.95
773.82	232.85
774.15	232.69
774.47	232.53
774.80	232.46
775.12	232.34
775.45	232.26
775.77	232.17
776.09	232.10
776.42	232.01
776.74	232.00
777.07	231.91
777.39	231.83
777.72	231.74
778.04	231.64
778.36	231.55
778.69	231.48
779.01	231.40
779.33	231.22
779.66	231.03
779.98	230.97
780.31	230.89
780.63	230.87
780.95	230.85
781.28	230.79
781.60	230.72
781.92	230.67
782.25	230.58
782.57	230.53
782.89	230.48
783.22	230.45
783.54	230.36
783.86	230.29
784.19	230.24
784.51	230.26
784.83	230.23
785.16	230.18
785.48	230.12
785.80	230.10
786.12	230.09
786.45	230.06
786.77	230.04
787.09	230.00
