SpectraSuite Data File
++++++++++++++++++++++++++++++++++++
Date: Fri Feb 01 16:11:07 EST 2013
User: group
Dark Spectrum Present: No
Reference Spectrum Present: No
Number of Sampled Component Spectra: 1
Spectrometers: USB2E7196
Integration Time (usec): 35000 (USB2E7196)
Spectra Averaged: 100 (USB2E7196)
Boxcar Smoothing: 10 (USB2E7196)
Correct for Electrical Dark: No (USB2E7196)
Strobe/Lamp Enabled: No (USB2E7196)
Correct for Detector Non-linearity: No (USB2E7196)
Correct for Stray Light: No (USB2E7196)
Number of Pixels in Processed Spectrum: 2048
>>>>>Begin Processed Spectral Data<<<<<
339.09	0.00
339.48	214.51
339.86	215.54
340.24	217.40
340.63	218.79
341.01	221.43
341.39	221.37
341.78	222.60
342.16	224.15
342.54	224.21
342.93	212.77
343.31	223.52
343.69	224.05
344.07	224.50
344.46	224.93
344.84	225.28
345.22	225.51
345.60	225.75
345.99	225.94
346.37	226.04
346.75	226.14
347.13	226.19
347.52	226.23
347.90	226.27
348.28	226.31
348.66	226.33
349.05	226.32
349.43	226.38
349.81	226.42
350.19	226.45
350.57	226.50
350.96	226.57
351.34	226.65
351.72	226.73
352.10	226.84
352.48	226.91
352.87	226.96
353.25	227.04
353.63	227.12
354.01	227.20
354.39	227.30
354.77	227.38
355.15	227.49
355.54	227.57
355.92	227.63
356.30	227.66
356.68	227.79
357.06	227.85
357.44	227.87
357.82	227.92
358.20	228.00
358.58	228.05
358.97	228.11
359.35	228.19
359.73	228.27
360.11	228.30
360.49	228.38
360.87	228.44
361.25	228.50
361.63	228.57
362.01	228.61
362.39	228.61
362.77	228.67
363.15	228.67
363.53	228.66
363.91	228.69
364.29	228.77
364.67	228.72
365.05	228.76
365.43	228.79
365.81	228.85
366.19	228.92
366.57	228.94
366.95	228.93
367.33	228.91
367.71	228.90
368.09	228.93
368.47	228.88
368.85	228.86
369.23	228.83
369.61	228.79
369.99	228.80
370.37	228.79
370.75	228.77
371.13	228.73
371.51	228.69
371.89	228.68
372.27	228.63
372.65	228.58
373.03	228.52
373.41	228.46
373.78	228.41
374.16	228.30
374.54	228.26
374.92	228.19
375.30	228.12
375.68	228.04
376.06	227.98
376.44	227.92
376.82	227.87
377.19	227.79
377.57	227.69
377.95	227.58
378.33	227.50
378.71	227.39
379.09	227.33
379.47	227.28
379.84	227.18
380.22	227.09
380.60	227.03
380.98	226.96
381.36	226.89
381.73	226.82
382.11	226.74
382.49	226.64
382.87	226.57
383.25	226.53
383.62	226.57
384.00	226.50
384.38	226.44
384.76	226.37
385.13	226.36
385.51	226.29
385.89	226.23
386.27	226.20
386.64	226.15
387.02	226.13
387.40	226.05
387.78	226.05
388.15	226.01
388.53	225.97
388.91	225.92
389.29	225.89
389.66	225.86
390.04	225.86
390.42	225.88
390.79	225.87
391.17	225.85
391.55	225.74
391.92	225.71
392.30	225.72
392.68	225.73
393.05	225.71
393.43	225.73
393.81	225.76
394.18	225.77
394.56	225.82
394.94	225.84
395.31	225.88
395.69	225.91
396.06	225.96
396.44	226.00
396.82	226.06
397.19	226.14
397.57	226.18
397.95	226.22
398.32	226.24
398.70	226.31
399.07	226.38
399.45	226.43
399.82	226.53
400.20	226.60
400.58	226.68
400.95	226.76
401.33	226.87
401.70	227.00
402.08	227.04
402.45	227.12
402.83	227.25
403.20	227.34
403.58	227.42
403.95	227.56
404.33	227.67
404.71	227.81
405.08	227.97
405.46	228.10
405.83	228.26
406.21	228.42
406.58	228.58
406.96	228.75
407.33	228.93
407.70	229.12
408.08	229.38
408.45	229.59
408.83	229.79
409.20	230.01
409.58	230.21
409.95	230.49
410.33	230.76
410.70	230.99
411.08	231.31
411.45	231.65
411.82	231.93
412.20	232.27
412.57	232.69
412.95	232.98
413.32	233.40
413.69	233.81
414.07	234.27
414.44	234.71
414.82	235.18
415.19	235.74
415.56	236.29
415.94	236.82
416.31	237.47
416.68	238.10
417.06	238.81
417.43	239.48
417.81	240.24
418.18	241.04
418.55	241.86
418.93	242.71
419.30	243.58
419.67	244.51
420.04	245.46
420.42	246.41
420.79	247.60
421.16	248.75
421.54	249.94
421.91	251.13
422.28	252.41
422.66	253.77
423.03	255.07
423.40	256.37
423.77	257.75
424.15	259.16
424.52	260.63
424.89	262.26
425.26	263.79
425.64	265.24
426.01	266.82
426.38	268.48
426.75	270.16
427.13	271.88
427.50	273.68
427.87	275.59
428.24	277.45
428.61	279.18
428.99	281.12
429.36	283.21
429.73	285.26
430.10	287.24
430.47	289.26
430.85	291.36
431.22	293.59
431.59	295.99
431.96	298.25
432.33	300.70
432.70	303.02
433.08	305.81
433.45	308.41
433.82	311.02
434.19	313.89
434.56	316.66
434.93	319.34
435.30	321.96
435.68	324.82
436.05	327.66
436.42	330.44
436.79	332.92
437.16	335.58
437.53	338.42
437.90	341.25
438.27	343.96
438.64	346.77
439.01	349.37
439.38	351.57
439.75	353.75
440.13	356.26
440.50	358.60
440.87	360.47
441.24	362.39
441.61	364.53
441.98	366.00
442.35	367.78
442.72	369.60
443.09	371.38
443.46	372.39
443.83	372.94
444.20	373.46
444.57	374.30
444.94	374.61
445.31	374.91
445.68	375.26
446.05	375.35
446.42	374.96
446.79	374.60
447.16	374.14
447.53	373.79
447.90	372.62
448.27	371.46
448.64	369.86
449.01	368.73
449.37	366.73
449.74	364.81
450.11	362.65
450.48	360.20
450.85	357.68
451.22	355.49
451.59	353.48
451.96	351.54
452.33	348.92
452.70	346.57
453.07	343.80
453.43	340.89
453.80	338.08
454.17	335.41
454.54	332.79
454.91	330.09
455.28	327.41
455.65	324.94
456.02	322.51
456.38	320.36
456.75	317.75
457.12	315.54
457.49	313.34
457.86	311.11
458.23	309.23
458.59	307.17
458.96	305.10
459.33	303.27
459.70	301.40
460.07	299.88
460.43	298.14
460.80	296.50
461.17	295.09
461.54	293.66
461.91	292.23
462.27	290.78
462.64	289.55
463.01	288.25
463.38	286.96
463.74	285.60
464.11	284.46
464.48	283.43
464.85	282.34
465.21	281.47
465.58	280.60
465.95	279.54
466.32	278.66
466.68	277.78
467.05	276.89
467.42	275.99
467.78	275.06
468.15	274.20
468.52	273.53
468.88	272.67
469.25	271.87
469.62	271.27
469.98	270.63
470.35	270.03
470.72	269.39
471.08	268.74
471.45	268.21
471.82	267.67
472.18	267.03
472.55	266.61
472.92	266.12
473.28	265.63
473.65	265.19
474.02	264.75
474.38	264.37
474.75	264.07
475.11	263.73
475.48	263.52
475.85	263.34
476.21	263.10
476.58	262.93
476.94	262.81
477.31	262.63
477.67	262.50
478.04	262.36
478.41	262.29
478.77	262.33
479.14	262.27
479.50	262.26
479.87	262.38
480.23	262.45
480.60	262.53
480.96	262.62
481.33	262.86
481.69	263.06
482.06	263.24
482.42	263.38
482.79	263.65
483.15	263.92
483.52	264.28
483.88	264.66
484.25	265.02
484.61	265.41
484.98	265.89
485.34	266.42
485.71	267.01
486.07	267.63
486.44	268.19
486.80	268.86
487.17	269.62
487.53	270.39
487.90	271.22
488.26	272.16
488.62	273.15
488.99	274.08
489.35	275.12
489.72	276.28
490.08	277.52
490.44	278.74
490.81	280.10
491.17	281.45
491.54	282.94
491.90	284.50
492.26	286.18
492.63	287.90
492.99	289.70
493.36	291.62
493.72	293.65
494.08	295.80
494.45	298.08
494.81	300.44
495.17	302.94
495.54	305.51
495.90	308.23
496.26	311.06
496.63	314.06
496.99	317.24
497.35	320.51
497.72	323.93
498.08	327.50
498.44	331.21
498.80	335.15
499.17	339.20
499.53	343.39
499.89	347.76
500.26	352.31
500.62	356.98
500.98	361.92
501.34	367.07
501.71	372.41
502.07	377.90
502.43	383.56
502.79	389.35
503.16	395.45
503.52	401.73
503.88	408.16
504.24	414.78
504.60	421.68
504.97	428.84
505.33	436.17
505.69	443.85
506.05	451.66
506.41	459.53
506.78	467.69
507.14	476.15
507.50	484.89
507.86	493.96
508.22	503.19
508.59	512.43
508.95	521.95
509.31	531.72
509.67	541.80
510.03	552.10
510.39	562.68
510.75	573.50
511.12	584.40
511.48	595.67
511.84	607.12
512.20	618.61
512.56	630.52
512.92	642.72
513.28	655.06
513.64	667.52
514.00	680.24
514.37	693.17
514.73	706.29
515.09	719.34
515.45	732.56
515.81	746.12
516.17	760.08
516.53	774.22
516.89	788.46
517.25	802.61
517.61	817.04
517.97	831.46
518.33	845.83
518.69	860.56
519.05	875.58
519.41	890.72
519.77	906.26
520.13	921.71
520.49	937.06
520.85	952.49
521.21	968.11
521.57	984.20
521.93	1000.02
522.29	1016.36
522.65	1032.66
523.01	1048.80
523.37	1064.81
523.73	1080.92
524.09	1097.03
524.45	1113.33
524.81	1129.93
525.17	1146.66
525.53	1163.52
525.89	1180.37
526.25	1197.29
526.61	1213.67
526.97	1230.45
527.33	1246.86
527.68	1263.46
528.04	1279.93
528.40	1296.44
528.76	1313.54
529.12	1330.22
529.48	1347.00
529.84	1362.95
530.20	1379.45
530.56	1396.54
530.91	1413.86
531.27	1430.68
531.63	1447.09
531.99	1463.66
532.35	1479.57
532.71	1495.39
533.07	1511.65
533.42	1527.54
533.78	1543.51
534.14	1559.67
534.50	1574.86
534.86	1590.72
535.21	1605.81
535.57	1621.55
535.93	1637.00
536.29	1651.72
536.65	1666.58
537.00	1681.24
537.36	1696.52
537.72	1710.91
538.08	1725.15
538.44	1738.98
538.79	1752.80
539.15	1766.20
539.51	1779.76
539.87	1794.06
540.22	1807.72
540.58	1821.21
540.94	1834.36
541.29	1847.07
541.65	1859.56
542.01	1872.68
542.37	1884.95
542.72	1897.17
543.08	1908.94
543.44	1921.21
543.79	1932.35
544.15	1943.31
544.51	1954.85
544.87	1965.73
545.22	1976.61
545.58	1986.80
545.94	1996.43
546.29	2006.19
546.65	2016.16
547.01	2025.45
547.36	2034.10
547.72	2042.57
548.07	2050.47
548.43	2058.72
548.79	2066.75
549.14	2074.34
549.50	2081.69
549.86	2089.22
550.21	2096.65
550.57	2103.76
550.92	2110.32
551.28	2117.38
551.64	2124.54
551.99	2130.96
552.35	2137.09
552.70	2143.14
553.06	2149.15
553.41	2155.48
553.77	2161.58
554.13	2167.62
554.48	2173.69
554.84	2179.21
555.19	2184.47
555.55	2189.68
555.90	2194.08
556.26	2199.02
556.61	2203.74
556.97	2208.14
557.32	2212.31
557.68	2216.58
558.03	2220.99
558.39	2224.67
558.74	2229.31
559.10	2233.11
559.45	2236.84
559.81	2241.20
560.16	2245.13
560.52	2248.35
560.87	2251.80
561.23	2254.21
561.58	2257.15
561.94	2259.64
562.29	2261.98
562.64	2264.66
563.00	2267.31
563.35	2270.90
563.71	2273.98
564.06	2277.10
564.42	2279.91
564.77	2282.52
565.12	2284.69
565.48	2286.50
565.83	2288.52
566.19	2289.87
566.54	2290.76
566.89	2291.95
567.25	2292.58
567.60	2293.82
567.96	2295.57
568.31	2296.44
568.66	2297.82
569.02	2298.45
569.37	2298.77
569.72	2299.79
570.08	2300.05
570.43	2300.18
570.78	2299.72
571.14	2298.22
571.49	2296.95
571.84	2296.68
572.20	2295.53
572.55	2294.43
572.90	2292.88
573.26	2291.56
573.61	2289.87
573.96	2288.20
574.31	2285.23
574.67	2282.21
575.02	2278.56
575.37	2275.14
575.72	2271.42
576.08	2267.89
576.43	2264.65
576.78	2261.10
577.13	2257.85
577.49	2254.55
577.84	2251.07
578.19	2247.26
578.54	2243.68
578.90	2239.54
579.25	2233.89
579.60	2228.88
579.95	2224.04
580.30	2219.16
580.66	2213.87
581.01	2208.90
581.36	2204.00
581.71	2199.86
582.06	2195.53
582.42	2191.14
582.77	2185.94
583.12	2181.34
583.47	2176.84
583.82	2171.94
584.17	2166.63
584.53	2161.11
584.88	2155.65
585.23	2149.82
585.58	2144.33
585.93	2138.83
586.28	2133.98
586.63	2129.10
586.98	2124.22
587.34	2119.50
587.69	2114.57
588.04	2109.43
588.39	2103.82
588.74	2097.42
589.09	2091.28
589.44	2084.42
589.79	2078.33
590.14	2072.76
590.49	2066.16
590.84	2059.73
591.19	2053.62
591.54	2047.31
591.89	2039.86
592.25	2033.11
592.60	2026.12
592.95	2018.58
593.30	2011.24
593.65	2003.81
594.00	1996.69
594.35	1989.35
594.70	1981.17
595.05	1974.23
595.40	1966.95
595.75	1959.65
596.10	1953.49
596.45	1946.83
596.80	1940.85
597.15	1934.37
597.50	1927.37
597.85	1921.03
598.19	1914.51
598.54	1907.46
598.89	1900.70
599.24	1894.92
599.59	1888.25
599.94	1881.90
600.29	1875.57
600.64	1869.07
600.99	1861.74
601.34	1854.84
601.69	1847.98
602.04	1841.30
602.39	1833.78
602.74	1826.99
603.08	1820.06
603.43	1813.33
603.78	1805.97
604.13	1798.63
604.48	1791.33
604.83	1784.38
605.18	1777.49
605.53	1769.36
605.87	1761.22
606.22	1753.96
606.57	1745.88
606.92	1738.53
607.27	1731.36
607.62	1724.41
607.96	1717.12
608.31	1710.42
608.66	1702.88
609.01	1695.19
609.36	1687.48
609.70	1679.41
610.05	1671.34
610.40	1663.61
610.75	1655.21
611.10	1647.53
611.44	1639.04
611.79	1631.00
612.14	1622.35
612.49	1613.04
612.83	1604.66
613.18	1596.70
613.53	1588.71
613.88	1580.18
614.22	1571.93
614.57	1563.30
614.92	1555.41
615.27	1547.99
615.61	1539.62
615.96	1531.62
616.31	1524.10
616.65	1516.84
617.00	1509.29
617.35	1501.63
617.70	1493.34
618.04	1484.93
618.39	1476.71
618.74	1469.21
619.08	1460.93
619.43	1453.29
619.78	1446.47
620.12	1439.33
620.47	1431.78
620.82	1423.59
621.16	1416.24
621.51	1408.56
621.85	1400.94
622.20	1392.28
622.55	1383.82
622.89	1376.03
623.24	1368.33
623.59	1360.91
623.93	1353.32
624.28	1346.08
624.62	1338.44
624.97	1331.22
625.32	1324.47
625.66	1317.47
626.01	1310.25
626.35	1302.81
626.70	1295.07
627.04	1287.32
627.39	1279.46
627.73	1272.05
628.08	1265.17
628.43	1257.95
628.77	1250.65
629.12	1243.16
629.46	1236.13
629.81	1228.63
630.15	1221.38
630.50	1214.06
630.84	1205.85
631.19	1197.87
631.53	1190.44
631.88	1183.00
632.22	1175.42
632.57	1168.06
632.91	1160.52
633.26	1153.07
633.60	1145.65
633.95	1138.62
634.29	1131.49
634.64	1124.87
634.98	1117.50
635.32	1110.28
635.67	1103.66
636.01	1096.97
636.36	1090.11
636.70	1083.52
637.05	1077.05
637.39	1070.47
637.73	1063.96
638.08	1058.10
638.42	1052.13
638.77	1045.71
639.11	1039.15
639.45	1032.78
639.80	1026.11
640.14	1019.73
640.49	1013.32
640.83	1007.05
641.17	1000.80
641.52	994.50
641.86	987.99
642.20	982.20
642.55	975.82
642.89	969.31
643.23	962.74
643.58	956.93
643.92	950.74
644.26	944.63
644.61	938.71
644.95	932.68
645.29	926.18
645.64	919.51
645.98	913.13
646.32	907.23
646.66	901.13
647.01	895.38
647.35	889.61
647.69	883.69
648.04	878.09
648.38	872.23
648.72	866.30
649.06	860.34
649.41	854.35
649.75	848.41
650.09	842.44
650.43	836.69
650.78	830.54
651.12	824.55
651.46	818.90
651.80	813.14
652.14	807.73
652.49	802.25
652.83	797.05
653.17	791.39
653.51	785.67
653.85	780.30
654.20	774.62
654.54	768.62
654.88	762.82
655.22	757.04
655.56	751.35
655.90	745.85
656.25	740.49
656.59	735.17
656.93	730.18
657.27	725.05
657.61	719.63
657.95	714.61
658.29	709.56
658.64	704.15
658.98	698.80
659.32	693.32
659.66	688.13
660.00	682.76
660.34	677.78
660.68	672.88
661.02	667.80
661.36	663.03
661.70	658.46
662.05	654.14
662.39	649.73
662.73	645.27
663.07	640.87
663.41	636.54
663.75	632.02
664.09	627.42
664.43	623.09
664.77	618.99
665.11	614.64
665.45	610.57
665.79	606.57
666.13	602.43
666.47	598.38
666.81	594.22
667.15	590.16
667.49	586.27
667.83	582.39
668.17	578.55
668.51	574.52
668.85	570.54
669.19	566.67
669.53	562.84
669.87	559.03
670.21	555.34
670.55	551.62
670.89	548.27
671.23	544.86
671.57	541.30
671.91	537.75
672.25	534.30
672.58	530.76
672.92	527.33
673.26	524.16
673.60	520.97
673.94	517.92
674.28	514.97
674.62	512.00
674.96	508.93
675.30	505.98
675.64	503.02
675.97	500.29
676.31	497.41
676.65	494.48
676.99	491.74
677.33	488.90
677.67	486.14
678.01	483.07
678.34	480.06
678.68	477.16
679.02	474.34
679.36	471.56
679.70	468.75
680.04	466.03
680.37	463.18
680.71	460.38
681.05	457.72
681.39	454.99
681.73	452.35
682.06	449.80
682.40	447.28
682.74	444.76
683.08	442.16
683.42	439.58
683.75	437.08
684.09	434.51
684.43	432.03
684.77	429.54
685.10	427.16
685.44	424.85
685.78	422.60
686.12	420.32
686.45	418.04
686.79	415.78
687.13	413.51
687.46	411.34
687.80	409.12
688.14	406.89
688.48	404.88
688.81	402.62
689.15	400.45
689.49	398.23
689.82	396.13
690.16	394.06
690.50	392.14
690.83	390.21
691.17	388.21
691.51	386.29
691.84	384.38
692.18	382.47
692.52	380.46
692.85	378.50
693.19	376.63
693.52	374.75
693.86	372.92
694.20	371.14
694.53	369.29
694.87	367.47
695.21	365.64
695.54	363.77
695.88	362.04
696.21	360.30
696.55	358.63
696.88	356.93
697.22	355.23
697.56	353.58
697.89	351.93
698.23	350.34
698.56	348.71
698.90	347.13
699.23	345.45
699.57	343.89
699.90	342.35
700.24	340.80
700.58	339.29
700.91	337.76
701.25	336.32
701.58	334.96
701.92	333.62
702.25	332.27
702.59	330.92
702.92	329.58
703.26	328.29
703.59	327.06
703.93	325.93
704.26	324.71
704.60	323.41
704.93	322.07
705.26	320.79
705.60	319.62
705.93	318.46
706.27	317.44
706.60	316.38
706.94	315.32
707.27	314.19
707.61	313.16
707.94	312.18
708.27	311.09
708.61	309.99
708.94	309.01
709.28	308.00
709.61	307.01
709.94	306.10
710.28	305.06
710.61	304.07
710.95	302.95
711.28	302.03
711.61	301.12
711.95	300.25
712.28	299.33
712.61	298.39
712.95	297.47
713.28	296.59
713.61	295.72
713.95	294.86
714.28	294.04
714.61	293.19
714.95	292.35
715.28	291.53
715.61	290.68
715.95	289.82
716.28	289.00
716.61	288.18
716.95	287.35
717.28	286.67
717.61	285.93
717.94	285.25
718.28	284.46
718.61	283.72
718.94	283.03
719.27	282.36
719.61	281.75
719.94	281.11
720.27	280.41
720.60	279.75
720.94	279.10
721.27	278.51
721.60	277.87
721.93	277.25
722.27	276.70
722.60	276.22
722.93	275.61
723.26	275.07
723.59	274.51
723.93	273.91
724.26	273.34
724.59	272.75
724.92	272.20
725.25	271.72
725.59	271.19
725.92	270.69
726.25	270.21
726.58	269.68
726.91	269.16
727.24	268.70
727.57	268.24
727.91	267.74
728.24	267.28
728.57	266.84
728.90	266.40
729.23	265.90
729.56	265.43
729.89	264.98
730.22	264.51
730.55	264.08
730.89	263.69
731.22	263.22
731.55	262.82
731.88	262.38
732.21	261.92
732.54	261.48
732.87	261.02
733.20	260.58
733.53	260.20
733.86	259.84
734.19	259.39
734.52	259.03
734.85	258.73
735.18	258.29
735.51	257.87
735.84	257.49
736.17	257.12
736.50	256.72
736.83	256.46
737.16	256.13
737.49	255.77
737.82	255.42
738.15	255.08
738.48	254.69
738.81	254.37
739.14	254.01
739.47	253.68
739.80	253.40
740.13	253.11
740.46	252.75
740.79	252.40
741.12	252.07
741.45	251.71
741.78	251.33
742.11	251.02
742.44	250.74
742.77	250.44
743.10	250.16
743.43	249.90
743.75	249.54
744.08	249.38
744.41	249.11
744.74	248.82
745.07	248.53
745.40	248.31
745.73	248.09
746.06	247.84
746.39	247.56
746.71	247.24
747.04	246.97
747.37	246.71
747.70	246.48
748.03	246.29
748.36	246.10
748.68	245.86
749.01	245.64
749.34	245.41
749.67	245.17
750.00	244.94
750.33	244.74
750.65	244.52
750.98	244.19
751.31	243.99
751.64	243.79
751.97	243.64
752.29	243.42
752.62	243.17
752.95	242.98
753.28	242.81
753.60	242.65
753.93	242.49
754.26	242.32
754.59	242.06
754.91	241.86
755.24	241.67
755.57	241.49
755.90	241.25
756.22	241.08
756.55	240.91
756.88	240.73
757.20	240.51
757.53	240.31
757.86	240.12
758.19	239.96
758.51	239.81
758.84	239.64
759.17	239.46
759.49	239.31
759.82	239.20
760.15	239.07
760.47	238.92
760.80	238.76
761.13	238.65
761.45	238.52
761.78	238.37
762.11	238.20
762.43	238.07
762.76	237.96
763.08	237.84
763.41	237.70
763.74	237.55
764.06	237.41
764.39	237.26
764.71	237.16
765.04	236.99
765.37	236.84
765.69	236.69
766.02	236.59
766.34	236.46
766.67	236.30
767.00	236.17
767.32	236.13
767.65	236.05
767.97	235.93
768.30	235.86
768.62	235.77
768.95	235.65
769.27	235.54
769.60	235.45
769.92	235.32
770.25	235.18
770.57	235.07
770.90	234.96
771.22	234.88
771.55	234.77
771.87	234.72
772.20	234.63
772.52	234.62
772.85	234.61
773.17	234.49
773.50	234.41
773.82	234.33
774.15	234.14
774.47	234.01
774.80	233.92
775.12	233.79
775.45	233.68
775.77	233.62
776.09	233.51
776.42	233.42
776.74	233.37
777.07	233.30
777.39	233.23
777.72	233.17
778.04	233.08
778.36	232.98
778.69	232.89
779.01	232.80
779.33	232.59
779.66	232.42
779.98	232.36
780.31	232.29
780.63	232.22
780.95	232.17
781.28	232.11
781.60	232.00
781.92	231.99
782.25	231.89
782.57	231.78
782.89	231.72
783.22	231.66
783.54	231.57
783.86	231.54
784.19	231.47
784.51	231.38
784.83	231.32
785.16	231.27
785.48	231.21
785.80	231.18
786.12	231.18
786.45	231.10
786.77	231.05
787.09	231.01
