SpectraSuite Data File
++++++++++++++++++++++++++++++++++++
Date: Fri Feb 01 17:50:45 EST 2013
User: group
Dark Spectrum Present: No
Reference Spectrum Present: No
Number of Sampled Component Spectra: 1
Spectrometers: USB2E7196
Integration Time (usec): 35000 (USB2E7196)
Spectra Averaged: 100 (USB2E7196)
Boxcar Smoothing: 10 (USB2E7196)
Correct for Electrical Dark: No (USB2E7196)
Strobe/Lamp Enabled: No (USB2E7196)
Correct for Detector Non-linearity: No (USB2E7196)
Correct for Stray Light: No (USB2E7196)
Number of Pixels in Processed Spectrum: 2048
>>>>>Begin Processed Spectral Data<<<<<
339.09	0.00
339.48	212.66
339.86	214.40
340.24	215.08
340.63	216.87
341.01	219.51
341.39	219.35
341.78	220.47
342.16	222.02
342.54	222.12
342.93	210.95
343.31	221.63
343.69	222.18
344.07	222.66
344.46	223.12
344.84	223.49
345.22	223.74
345.60	224.00
345.99	224.21
346.37	224.37
346.75	224.53
347.13	224.60
347.52	224.67
347.90	224.77
348.28	224.84
348.66	224.89
349.05	224.88
349.43	224.93
349.81	224.98
350.19	225.02
350.57	225.11
350.96	225.16
351.34	225.26
351.72	225.35
352.10	225.43
352.48	225.49
352.87	225.55
353.25	225.60
353.63	225.69
354.01	225.77
354.39	225.81
354.77	225.87
355.15	225.99
355.54	226.03
355.92	226.07
356.30	226.13
356.68	226.25
357.06	226.33
357.44	226.38
357.82	226.42
358.20	226.49
358.58	226.53
358.97	226.58
359.35	226.62
359.73	226.67
360.11	226.70
360.49	226.77
360.87	226.81
361.25	226.88
361.63	226.92
362.01	226.96
362.39	226.98
362.77	227.02
363.15	227.04
363.53	227.06
363.91	227.11
364.29	227.13
364.67	227.08
365.05	227.10
365.43	227.11
365.81	227.14
366.19	227.19
366.57	227.20
366.95	227.22
367.33	227.21
367.71	227.22
368.09	227.24
368.47	227.23
368.85	227.24
369.23	227.23
369.61	227.16
369.99	227.17
370.37	227.18
370.75	227.18
371.13	227.10
371.51	227.07
371.89	227.02
372.27	226.98
372.65	226.93
373.03	226.86
373.41	226.82
373.78	226.75
374.16	226.67
374.54	226.61
374.92	226.54
375.30	226.47
375.68	226.42
376.06	226.35
376.44	226.30
376.82	226.21
377.19	226.18
377.57	226.15
377.95	226.05
378.33	225.97
378.71	225.87
379.09	225.84
379.47	225.82
379.84	225.73
380.22	225.68
380.60	225.64
380.98	225.61
381.36	225.52
381.73	225.46
382.11	225.40
382.49	225.37
382.87	225.33
383.25	225.28
383.62	225.32
384.00	225.26
384.38	225.18
384.76	225.14
385.13	225.08
385.51	225.03
385.89	224.99
386.27	224.99
386.64	224.93
387.02	224.87
387.40	224.80
387.78	224.77
388.15	224.77
388.53	224.69
388.91	224.68
389.29	224.69
389.66	224.70
390.04	224.68
390.42	224.63
390.79	224.62
391.17	224.59
391.55	224.44
391.92	224.47
392.30	224.44
392.68	224.44
393.05	224.46
393.43	224.46
393.81	224.47
394.18	224.46
394.56	224.47
394.94	224.50
395.31	224.51
395.69	224.58
396.06	224.59
396.44	224.63
396.82	224.61
397.19	224.65
397.57	224.70
397.95	224.75
398.32	224.79
398.70	224.83
399.07	224.92
399.45	224.99
399.82	225.03
400.20	225.12
400.58	225.19
400.95	225.22
401.33	225.30
401.70	225.42
402.08	225.47
402.45	225.56
402.83	225.67
403.20	225.81
403.58	225.86
403.95	225.99
404.33	226.10
404.71	226.25
405.08	226.45
405.46	226.56
405.83	226.72
406.21	226.89
406.58	227.10
406.96	227.26
407.33	227.49
407.70	227.70
408.08	227.99
408.45	228.24
408.83	228.52
409.20	228.77
409.58	228.98
409.95	229.31
410.33	229.66
410.70	229.97
411.08	230.31
411.45	230.76
411.82	231.14
412.20	231.58
412.57	232.10
412.95	232.46
413.32	232.99
413.69	233.51
414.07	234.06
414.44	234.63
414.82	235.27
415.19	235.94
415.56	236.65
415.94	237.39
416.31	238.21
416.68	239.03
417.06	239.98
417.43	240.87
417.81	241.86
418.18	242.88
418.55	243.98
418.93	245.13
419.30	246.21
419.67	247.43
420.04	248.71
420.42	250.02
420.79	251.58
421.16	253.08
421.54	254.65
421.91	256.30
422.28	257.95
422.66	259.70
423.03	261.41
423.40	263.15
423.77	264.97
424.15	266.82
424.52	268.73
424.89	270.82
425.26	272.87
425.64	274.81
426.01	276.90
426.38	279.08
426.75	281.29
427.13	283.61
427.50	286.00
427.87	288.49
428.24	290.95
428.61	293.28
428.99	295.82
429.36	298.57
429.73	301.23
430.10	303.87
430.47	306.55
430.85	309.34
431.22	312.29
431.59	315.40
431.96	318.37
432.33	321.65
432.70	324.77
433.08	328.49
433.45	331.91
433.82	335.33
434.19	339.12
434.56	342.83
434.93	346.26
435.30	349.67
435.68	353.47
436.05	357.17
436.42	360.83
436.79	364.12
437.16	367.69
437.53	371.39
437.90	375.09
438.27	378.70
438.64	382.41
439.01	385.79
439.38	388.74
439.75	391.55
440.13	394.83
440.50	397.93
440.87	400.31
441.24	402.89
441.61	405.78
441.98	407.76
442.35	410.12
442.72	412.68
443.09	415.03
443.46	416.36
443.83	417.19
444.20	417.85
444.57	419.01
444.94	419.38
445.31	419.84
445.68	420.29
446.05	420.45
446.42	419.99
446.79	419.47
447.16	418.95
447.53	418.57
447.90	417.11
448.27	415.62
448.64	413.62
449.01	412.11
449.37	409.49
449.74	406.98
450.11	404.03
450.48	400.75
450.85	397.48
451.22	394.64
451.59	391.93
451.96	389.39
452.33	385.97
452.70	382.90
453.07	379.22
453.43	375.46
453.80	371.79
454.17	368.28
454.54	364.91
454.91	361.31
455.28	357.79
455.65	354.47
456.02	351.18
456.38	348.32
456.75	344.89
457.12	341.92
457.49	339.03
457.86	336.17
458.23	333.65
458.59	330.93
458.96	328.14
459.33	325.73
459.70	323.27
460.07	321.27
460.43	318.98
460.80	316.82
461.17	314.90
461.54	312.89
461.91	310.97
462.27	309.07
462.64	307.40
463.01	305.65
463.38	303.95
463.74	302.17
464.11	300.62
464.48	299.21
464.85	297.76
465.21	296.58
465.58	295.35
465.95	293.99
466.32	292.78
466.68	291.63
467.05	290.41
467.42	289.23
467.78	287.99
468.15	286.80
468.52	285.90
468.88	284.71
469.25	283.70
469.62	282.90
469.98	282.04
470.35	281.21
470.72	280.38
471.08	279.51
471.45	278.81
471.82	278.08
472.18	277.28
472.55	276.67
472.92	275.96
473.28	275.33
473.65	274.70
474.02	274.13
474.38	273.59
474.75	273.13
475.11	272.65
475.48	272.27
475.85	271.92
476.21	271.62
476.58	271.39
476.94	271.15
477.31	270.86
477.67	270.60
478.04	270.37
478.41	270.25
478.77	270.24
479.14	270.10
479.50	270.03
479.87	270.08
480.23	270.11
480.60	270.13
480.96	270.17
481.33	270.30
481.69	270.43
482.06	270.58
482.42	270.73
482.79	270.93
483.15	271.24
483.52	271.62
483.88	271.90
484.25	272.26
484.61	272.69
484.98	273.10
485.34	273.67
485.71	274.27
486.07	274.85
486.44	275.38
486.80	276.07
487.17	276.79
487.53	277.58
487.90	278.45
488.26	279.45
488.62	280.45
488.99	281.47
489.35	282.53
489.72	283.69
490.08	284.95
490.44	286.23
490.81	287.59
491.17	288.99
491.54	290.58
491.90	292.17
492.26	293.86
492.63	295.67
492.99	297.50
493.36	299.46
493.72	301.60
494.08	303.81
494.45	306.15
494.81	308.65
495.17	311.21
495.54	313.86
495.90	316.63
496.26	319.56
496.63	322.63
496.99	325.92
497.35	329.35
497.72	332.91
498.08	336.60
498.44	340.51
498.80	344.57
499.17	348.82
499.53	353.23
499.89	357.81
500.26	362.54
500.62	367.45
500.98	372.69
501.34	378.02
501.71	383.56
502.07	389.32
502.43	395.20
502.79	401.27
503.16	407.70
503.52	414.35
503.88	421.05
504.24	428.11
504.60	435.34
504.97	442.84
505.33	450.58
505.69	458.72
506.05	466.87
506.41	475.23
506.78	483.82
507.14	492.67
507.50	501.92
507.86	511.45
508.22	521.21
508.59	531.01
508.95	541.16
509.31	551.62
509.67	562.34
510.03	573.27
510.39	584.49
510.75	595.93
511.12	607.40
511.48	619.52
511.84	631.67
512.20	643.90
512.56	656.54
512.92	669.51
513.28	682.62
513.64	695.96
514.00	709.56
514.37	723.38
514.73	737.36
515.09	751.24
515.45	765.46
515.81	779.94
516.17	794.86
516.53	810.02
516.89	825.23
517.25	840.32
517.61	855.71
517.97	871.30
518.33	886.63
518.69	902.59
519.05	918.62
519.41	934.97
519.77	951.67
520.13	968.40
520.49	984.99
520.85	1001.61
521.21	1018.40
521.57	1035.83
521.93	1052.84
522.29	1070.51
522.65	1088.16
523.01	1105.69
523.37	1123.11
523.73	1140.61
524.09	1158.08
524.45	1175.66
524.81	1193.73
525.17	1212.03
525.53	1230.48
525.89	1248.92
526.25	1267.32
526.61	1285.21
526.97	1303.56
527.33	1321.71
527.68	1339.79
528.04	1357.95
528.40	1376.12
528.76	1394.95
529.12	1413.25
529.48	1431.85
529.84	1449.49
530.20	1467.75
530.56	1486.37
530.91	1505.47
531.27	1523.99
531.63	1542.20
531.99	1560.61
532.35	1578.47
532.71	1596.14
533.07	1614.19
533.42	1632.09
533.78	1649.95
534.14	1668.08
534.50	1685.11
534.86	1702.73
535.21	1719.75
535.57	1737.55
535.93	1754.97
536.29	1771.67
536.65	1788.60
537.00	1805.18
537.36	1822.57
537.72	1838.86
538.08	1855.32
538.44	1871.09
538.79	1887.05
539.15	1902.45
539.51	1918.14
539.87	1934.39
540.22	1950.14
540.58	1965.78
540.94	1981.04
541.29	1995.85
541.65	2010.49
542.01	2025.73
542.37	2040.12
542.72	2054.48
543.08	2068.21
543.44	2082.73
543.79	2096.02
544.15	2108.85
544.51	2122.64
544.87	2135.57
545.22	2148.46
545.58	2160.73
545.94	2172.39
546.29	2184.11
546.65	2196.04
547.01	2207.27
547.36	2217.88
547.72	2228.29
548.07	2237.98
548.43	2247.85
548.79	2257.73
549.14	2267.02
549.50	2276.15
549.86	2285.51
550.21	2294.75
550.57	2303.75
550.92	2311.99
551.28	2320.73
551.64	2329.73
551.99	2337.91
552.35	2345.73
552.70	2353.71
553.06	2361.42
553.41	2369.60
553.77	2377.36
554.13	2385.20
554.48	2393.18
554.84	2400.53
555.19	2407.33
555.55	2414.25
555.90	2420.40
556.26	2426.89
556.61	2433.30
556.97	2439.23
557.32	2444.96
557.68	2450.58
558.03	2456.24
558.39	2461.26
558.74	2467.47
559.10	2472.80
559.45	2478.01
559.81	2483.61
560.16	2488.82
560.52	2493.40
560.87	2498.05
561.23	2501.83
561.58	2505.94
561.94	2509.52
562.29	2512.74
562.64	2516.86
563.00	2520.49
563.35	2525.09
563.71	2529.45
564.06	2533.80
564.42	2537.97
564.77	2541.80
565.12	2545.34
565.48	2548.52
565.83	2551.58
566.19	2553.95
566.54	2555.58
566.89	2557.51
567.25	2559.18
567.60	2561.27
567.96	2563.98
568.31	2565.86
568.66	2568.00
569.02	2569.51
569.37	2570.66
569.72	2572.44
570.08	2573.21
570.43	2573.98
570.78	2574.26
571.14	2573.30
571.49	2572.57
571.84	2572.72
572.20	2572.00
572.55	2571.37
572.90	2570.09
573.26	2569.29
573.61	2567.80
573.96	2566.81
574.31	2564.19
574.67	2561.38
575.02	2558.14
575.37	2554.85
575.72	2551.26
576.08	2547.88
576.43	2544.53
576.78	2540.97
577.13	2537.98
577.49	2534.80
577.84	2531.50
578.19	2527.70
578.54	2524.09
578.90	2519.88
579.25	2514.10
579.60	2509.03
579.95	2503.81
580.30	2498.63
580.66	2493.27
581.01	2488.13
581.36	2482.83
581.71	2478.56
582.06	2473.98
582.42	2469.15
582.77	2463.63
583.12	2458.66
583.47	2453.83
583.82	2448.68
584.17	2443.24
584.53	2437.26
584.88	2431.32
585.23	2425.05
585.58	2419.12
585.93	2413.18
586.28	2407.91
586.63	2402.43
586.98	2396.87
587.34	2391.73
587.69	2386.42
588.04	2380.73
588.39	2374.55
588.74	2367.40
589.09	2360.55
589.44	2353.18
589.79	2346.59
590.14	2340.27
590.49	2332.97
590.84	2325.86
591.19	2319.13
591.54	2311.85
591.89	2303.90
592.25	2296.50
592.60	2288.63
592.95	2280.30
593.30	2272.20
593.65	2263.83
594.00	2256.00
594.35	2247.92
594.70	2238.94
595.05	2231.07
595.40	2222.69
595.75	2214.24
596.10	2207.44
596.45	2199.91
596.80	2192.95
597.15	2185.62
597.50	2177.76
597.85	2170.37
598.19	2162.80
598.54	2154.93
598.89	2147.36
599.24	2140.63
599.59	2133.08
599.94	2125.88
600.29	2118.70
600.64	2111.11
600.99	2102.61
601.34	2094.87
601.69	2086.95
602.04	2079.26
602.39	2070.72
602.74	2062.90
603.08	2055.28
603.43	2047.45
603.78	2039.09
604.13	2030.90
604.48	2022.55
604.83	2014.69
605.18	2006.85
605.53	1997.90
605.87	1988.68
606.22	1980.43
606.57	1971.27
606.92	1962.57
607.27	1954.42
607.62	1946.45
607.96	1938.15
608.31	1930.73
608.66	1921.89
609.01	1913.25
609.36	1904.49
609.70	1895.24
610.05	1885.97
610.40	1877.05
610.75	1867.41
611.10	1858.58
611.44	1848.63
611.79	1839.32
612.14	1829.39
612.49	1818.81
612.83	1809.01
613.18	1799.59
613.53	1790.19
613.88	1780.30
614.22	1770.93
614.57	1760.84
614.92	1751.49
615.27	1742.84
615.61	1733.18
615.96	1723.88
616.31	1714.83
616.65	1706.22
617.00	1697.49
617.35	1688.62
617.70	1679.11
618.04	1669.41
618.39	1659.73
618.74	1651.07
619.08	1641.45
619.43	1632.46
619.78	1624.54
620.12	1616.31
620.47	1607.65
620.82	1598.16
621.16	1589.53
621.51	1580.59
621.85	1571.76
622.20	1561.99
622.55	1552.17
622.89	1543.02
623.24	1534.18
623.59	1525.73
623.93	1517.03
624.28	1508.61
624.62	1499.94
624.97	1491.49
625.32	1483.49
625.66	1475.37
626.01	1467.03
626.35	1458.42
626.70	1449.44
627.04	1440.32
627.39	1431.15
627.73	1422.53
628.08	1414.51
628.43	1406.20
628.77	1397.88
629.12	1389.20
629.46	1380.95
629.81	1372.26
630.15	1363.75
630.50	1355.17
630.84	1345.66
631.19	1336.46
631.53	1327.65
631.88	1318.88
632.22	1310.18
632.57	1301.68
632.91	1292.87
633.26	1284.28
633.60	1275.76
633.95	1267.51
634.29	1259.38
634.64	1251.63
634.98	1243.14
635.32	1234.84
635.67	1227.02
636.01	1219.19
636.36	1211.34
636.70	1203.65
637.05	1196.14
637.39	1188.69
637.73	1181.20
638.08	1174.41
638.42	1167.53
638.77	1160.24
639.11	1152.78
639.45	1145.33
639.80	1137.74
640.14	1130.51
640.49	1123.04
640.83	1115.80
641.17	1108.70
641.52	1101.34
641.86	1093.85
642.20	1087.06
642.55	1079.70
642.89	1072.37
643.23	1064.76
643.58	1058.04
643.92	1050.96
644.26	1044.08
644.61	1037.08
644.95	1030.24
645.29	1022.70
645.64	1014.97
645.98	1007.61
646.32	1000.73
646.66	993.86
647.01	987.18
647.35	980.55
647.69	973.86
648.04	967.54
648.38	960.85
648.72	954.14
649.06	947.33
649.41	940.53
649.75	933.89
650.09	927.10
650.43	920.50
650.78	913.47
651.12	906.71
651.46	900.16
651.80	893.73
652.14	887.55
652.49	881.43
652.83	875.48
653.17	869.05
653.51	862.62
653.85	856.49
654.20	850.09
654.54	843.32
654.88	836.72
655.22	829.94
655.56	823.58
655.90	817.34
656.25	811.35
656.59	805.37
656.93	799.53
657.27	793.65
657.61	787.59
657.95	781.79
658.29	776.03
658.64	769.94
658.98	763.86
659.32	757.66
659.66	751.75
660.00	745.73
660.34	740.06
660.68	734.47
661.02	728.68
661.36	723.30
661.70	718.16
662.05	713.21
662.39	708.28
662.73	703.21
663.07	698.22
663.41	693.24
663.75	688.08
664.09	682.87
664.43	677.84
664.77	673.16
665.11	668.41
665.45	663.61
665.79	659.04
666.13	654.34
666.47	649.64
666.81	644.90
667.15	640.27
667.49	635.85
667.83	631.47
668.17	627.00
668.51	622.40
668.85	617.78
669.19	613.38
669.53	609.09
669.87	604.69
670.21	600.39
670.55	596.18
670.89	592.18
671.23	588.30
671.57	584.25
671.91	580.15
672.25	576.07
672.58	572.07
672.92	568.13
673.26	564.44
673.60	560.87
673.94	557.30
674.28	553.91
674.62	550.57
674.96	547.08
675.30	543.80
675.64	540.48
675.97	537.33
676.31	534.12
676.65	530.73
676.99	527.60
677.33	524.38
677.67	521.21
678.01	517.84
678.34	514.43
678.68	511.13
679.02	507.98
679.36	504.93
679.70	501.88
680.04	498.78
680.37	495.61
680.71	492.42
681.05	489.47
681.39	486.38
681.73	483.36
682.06	480.48
682.40	477.54
682.74	474.64
683.08	471.74
683.42	468.69
683.75	465.85
684.09	462.87
684.43	460.07
684.77	457.26
685.10	454.57
685.44	451.90
685.78	449.32
686.12	446.72
686.45	444.09
686.79	441.44
687.13	438.89
687.46	436.36
687.80	433.89
688.14	431.31
688.48	428.99
688.81	426.42
689.15	423.90
689.49	421.45
689.82	419.07
690.16	416.63
690.50	414.43
690.83	412.20
691.17	409.96
691.51	407.77
691.84	405.59
692.18	403.43
692.52	401.20
692.85	398.94
693.19	396.78
693.52	394.62
693.86	392.51
694.20	390.54
694.53	388.49
694.87	386.36
695.21	384.37
695.54	382.26
695.88	380.30
696.21	378.34
696.55	376.41
696.88	374.46
697.22	372.59
697.56	370.71
697.89	368.84
698.23	367.06
698.56	365.23
698.90	363.45
699.23	361.54
699.57	359.75
699.90	358.04
700.24	356.25
700.58	354.56
700.91	352.91
701.25	351.21
701.58	349.63
701.92	348.07
702.25	346.50
702.59	344.97
702.92	343.44
703.26	341.96
703.59	340.52
703.93	339.16
704.26	337.76
704.60	336.32
704.93	334.90
705.26	333.40
705.60	332.04
705.93	330.66
706.27	329.49
706.60	328.32
706.94	327.03
707.27	325.76
707.61	324.52
707.94	323.32
708.27	322.05
708.61	320.85
708.94	319.72
709.28	318.53
709.61	317.40
709.94	316.35
710.28	315.15
710.61	313.96
710.95	312.73
711.28	311.67
711.61	310.58
711.95	309.46
712.28	308.43
712.61	307.31
712.95	306.23
713.28	305.17
713.61	304.12
713.95	303.17
714.28	302.25
714.61	301.26
714.95	300.31
715.28	299.33
715.61	298.32
715.95	297.31
716.28	296.35
716.61	295.37
716.95	294.40
717.28	293.55
717.61	292.69
717.94	291.86
718.28	290.90
718.61	290.05
718.94	289.25
719.27	288.46
719.61	287.73
719.94	287.02
720.27	286.21
720.60	285.47
720.94	284.68
721.27	283.94
721.60	283.27
721.93	282.53
722.27	281.88
722.60	281.23
722.93	280.58
723.26	279.96
723.59	279.32
723.93	278.65
724.26	278.00
724.59	277.37
724.92	276.74
725.25	276.16
725.59	275.56
725.92	274.98
726.25	274.36
726.58	273.80
726.91	273.25
727.24	272.70
727.57	272.15
727.91	271.59
728.24	271.07
728.57	270.50
728.90	270.01
729.23	269.46
729.56	268.95
729.89	268.42
730.22	267.85
730.55	267.33
730.89	266.86
731.22	266.37
731.55	265.85
731.88	265.37
732.21	264.89
732.54	264.42
732.87	263.93
733.20	263.50
733.53	263.03
733.86	262.56
734.19	262.11
734.52	261.63
734.85	261.27
735.18	260.78
735.51	260.37
735.84	259.89
736.17	259.49
736.50	259.03
736.83	258.72
737.16	258.36
737.49	257.98
737.82	257.59
738.15	257.24
738.48	256.87
738.81	256.53
739.14	256.16
739.47	255.75
739.80	255.39
740.13	255.09
740.46	254.74
740.79	254.38
741.12	254.03
741.45	253.71
741.78	253.32
742.11	253.00
742.44	252.63
742.77	252.33
743.10	252.01
743.43	251.72
743.75	251.30
744.08	251.13
744.41	250.81
744.74	250.49
745.07	250.16
745.40	249.89
745.73	249.62
746.06	249.35
746.39	249.11
746.71	248.81
747.04	248.44
747.37	248.15
747.70	247.87
748.03	247.60
748.36	247.38
748.68	247.11
749.01	246.88
749.34	246.65
749.67	246.40
750.00	246.11
750.33	245.91
750.65	245.66
750.98	245.27
751.31	245.03
751.64	244.82
751.97	244.61
752.29	244.35
752.62	244.05
752.95	243.80
753.28	243.52
753.60	243.30
753.93	243.11
754.26	242.89
754.59	242.61
754.91	242.41
755.24	242.15
755.57	241.94
755.90	241.71
756.22	241.44
756.55	241.25
756.88	241.04
757.20	240.78
757.53	240.61
757.86	240.39
758.19	240.19
758.51	240.00
758.84	239.79
759.17	239.60
759.49	239.42
759.82	239.26
760.15	239.09
760.47	238.92
760.80	238.72
761.13	238.58
761.45	238.44
761.78	238.23
762.11	238.07
762.43	237.93
762.76	237.76
763.08	237.63
763.41	237.42
763.74	237.27
764.06	237.09
764.39	236.93
764.71	236.75
765.04	236.63
765.37	236.45
765.69	236.28
766.02	236.12
766.34	235.96
766.67	235.80
767.00	235.68
767.32	235.58
767.65	235.50
767.97	235.32
768.30	235.19
768.62	235.08
768.95	234.94
769.27	234.77
769.60	234.66
769.92	234.55
770.25	234.45
770.57	234.32
770.90	234.21
771.22	234.07
771.55	234.01
771.87	233.90
772.20	233.79
772.52	233.75
772.85	233.75
773.17	233.65
773.50	233.57
773.82	233.48
774.15	233.32
774.47	233.16
774.80	233.08
775.12	232.95
775.45	232.84
775.77	232.72
776.09	232.66
776.42	232.56
776.74	232.48
777.07	232.37
777.39	232.25
777.72	232.18
778.04	232.12
778.36	232.02
778.69	231.92
779.01	231.86
779.33	231.72
779.66	231.57
779.98	231.47
780.31	231.37
780.63	231.30
780.95	231.25
781.28	231.17
781.60	231.08
781.92	231.04
782.25	230.98
782.57	230.91
782.89	230.85
783.22	230.77
783.54	230.67
783.86	230.62
784.19	230.58
784.51	230.53
784.83	230.44
785.16	230.38
785.48	230.31
785.80	230.23
786.12	230.21
786.45	230.12
