SpectraSuite Data File
++++++++++++++++++++++++++++++++++++
Date: Fri Feb 01 15:29:05 EST 2013
User: group
Dark Spectrum Present: No
Reference Spectrum Present: No
Number of Sampled Component Spectra: 1
Spectrometers: USB2E7196
Integration Time (usec): 35000 (USB2E7196)
Spectra Averaged: 100 (USB2E7196)
Boxcar Smoothing: 10 (USB2E7196)
Correct for Electrical Dark: No (USB2E7196)
Strobe/Lamp Enabled: No (USB2E7196)
Correct for Detector Non-linearity: No (USB2E7196)
Correct for Stray Light: No (USB2E7196)
Number of Pixels in Processed Spectrum: 2048
>>>>>Begin Processed Spectral Data<<<<<
339.09	0.00
339.48	215.41
339.86	217.07
340.24	218.02
340.63	218.80
341.01	222.03
341.39	221.79
341.78	223.47
342.16	224.93
342.54	225.37
342.93	213.50
343.31	224.28
343.69	224.81
344.07	225.30
344.46	225.70
344.84	226.09
345.22	226.36
345.60	226.62
345.99	226.78
346.37	226.91
346.75	227.00
347.13	227.07
347.52	227.11
347.90	227.18
348.28	227.19
348.66	227.25
349.05	227.21
349.43	227.27
349.81	227.29
350.19	227.34
350.57	227.36
350.96	227.43
351.34	227.52
351.72	227.60
352.10	227.64
352.48	227.74
352.87	227.80
353.25	227.83
353.63	227.90
354.01	227.98
354.39	228.04
354.77	228.13
355.15	228.23
355.54	228.30
355.92	228.32
356.30	228.42
356.68	228.54
357.06	228.62
357.44	228.69
357.82	228.75
358.20	228.81
358.58	228.90
358.97	228.96
359.35	229.04
359.73	229.12
360.11	229.19
360.49	229.24
360.87	229.30
361.25	229.33
361.63	229.42
362.01	229.44
362.39	229.45
362.77	229.49
363.15	229.50
363.53	229.51
363.91	229.56
364.29	229.57
364.67	229.50
365.05	229.52
365.43	229.50
365.81	229.54
366.19	229.56
366.57	229.58
366.95	229.60
367.33	229.56
367.71	229.56
368.09	229.53
368.47	229.53
368.85	229.51
369.23	229.53
369.61	229.45
369.99	229.49
370.37	229.47
370.75	229.49
371.13	229.42
371.51	229.37
371.89	229.36
372.27	229.33
372.65	229.27
373.03	229.18
373.41	229.12
373.78	229.03
374.16	228.94
374.54	228.88
374.92	228.80
375.30	228.73
375.68	228.60
376.06	228.55
376.44	228.46
376.82	228.38
377.19	228.31
377.57	228.21
377.95	228.09
378.33	228.02
378.71	227.87
379.09	227.83
379.47	227.78
379.84	227.64
380.22	227.52
380.60	227.45
380.98	227.38
381.36	227.33
381.73	227.28
382.11	227.24
382.49	227.15
382.87	227.07
383.25	227.02
383.62	227.09
384.00	227.01
384.38	226.96
384.76	226.93
385.13	226.90
385.51	226.87
385.89	226.80
386.27	226.74
386.64	226.73
387.02	226.69
387.40	226.66
387.78	226.64
388.15	226.65
388.53	226.60
388.91	226.58
389.29	226.59
389.66	226.57
390.04	226.53
390.42	226.52
390.79	226.50
391.17	226.48
391.55	226.37
391.92	226.35
392.30	226.36
392.68	226.34
393.05	226.35
393.43	226.34
393.81	226.36
394.18	226.37
394.56	226.36
394.94	226.40
395.31	226.41
395.69	226.49
396.06	226.53
396.44	226.61
396.82	226.65
397.19	226.68
397.57	226.73
397.95	226.77
398.32	226.79
398.70	226.86
399.07	226.95
399.45	227.00
399.82	227.09
400.20	227.15
400.58	227.22
400.95	227.24
401.33	227.34
401.70	227.48
402.08	227.61
402.45	227.71
402.83	227.82
403.20	227.90
403.58	227.97
403.95	228.11
404.33	228.22
404.71	228.34
405.08	228.52
405.46	228.66
405.83	228.83
406.21	229.00
406.58	229.19
406.96	229.38
407.33	229.56
407.70	229.76
408.08	230.02
408.45	230.24
408.83	230.50
409.20	230.73
409.58	230.92
409.95	231.15
410.33	231.40
410.70	231.64
411.08	231.97
411.45	232.28
411.82	232.58
412.20	232.96
412.57	233.38
412.95	233.71
413.32	234.12
413.69	234.55
414.07	234.98
414.44	235.42
414.82	235.85
415.19	236.40
415.56	236.95
415.94	237.51
416.31	238.15
416.68	238.75
417.06	239.48
417.43	240.16
417.81	240.92
418.18	241.75
418.55	242.59
418.93	243.48
419.30	244.39
419.67	245.32
420.04	246.25
420.42	247.25
420.79	248.42
421.16	249.56
421.54	250.71
421.91	251.93
422.28	253.19
422.66	254.57
423.03	255.91
423.40	257.24
423.77	258.64
424.15	260.07
424.52	261.57
424.89	263.19
425.26	264.74
425.64	266.19
426.01	267.76
426.38	269.43
426.75	271.06
427.13	272.81
427.50	274.60
427.87	276.47
428.24	278.35
428.61	280.11
428.99	282.04
429.36	284.15
429.73	286.22
430.10	288.28
430.47	290.34
430.85	292.43
431.22	294.68
431.59	297.07
431.96	299.33
432.33	301.84
432.70	304.23
433.08	307.09
433.45	309.76
433.82	312.40
434.19	315.27
434.56	318.12
434.93	320.78
435.30	323.45
435.68	326.36
436.05	329.26
436.42	332.05
436.79	334.58
437.16	337.32
437.53	340.13
437.90	342.93
438.27	345.68
438.64	348.51
439.01	351.14
439.38	353.38
439.75	355.55
440.13	358.05
440.50	360.34
440.87	362.16
441.24	364.11
441.61	366.27
441.98	367.80
442.35	369.60
442.72	371.46
443.09	373.25
443.46	374.21
443.83	374.72
444.20	375.24
444.57	376.11
444.94	376.37
445.31	376.71
445.68	377.06
446.05	377.12
446.42	376.74
446.79	376.26
447.16	375.80
447.53	375.48
447.90	374.28
448.27	373.15
448.64	371.55
449.01	370.36
449.37	368.38
449.74	366.45
450.11	364.19
450.48	361.67
450.85	359.15
451.22	357.04
451.59	355.02
451.96	353.06
452.33	350.41
452.70	348.05
453.07	345.20
453.43	342.28
453.80	339.51
454.17	336.82
454.54	334.29
454.91	331.55
455.28	328.86
455.65	326.38
456.02	323.94
456.38	321.77
456.75	319.18
457.12	316.92
457.49	314.70
457.86	312.52
458.23	310.68
458.59	308.58
458.96	306.50
459.33	304.65
459.70	302.79
460.07	301.30
460.43	299.61
460.80	298.00
461.17	296.56
461.54	295.06
461.91	293.65
462.27	292.19
462.64	290.95
463.01	289.60
463.38	288.29
463.74	286.89
464.11	285.74
464.48	284.69
464.85	283.56
465.21	282.67
465.58	281.74
465.95	280.64
466.32	279.76
466.68	278.81
467.05	277.90
467.42	277.00
467.78	276.09
468.15	275.17
468.52	274.53
468.88	273.65
469.25	272.87
469.62	272.20
469.98	271.54
470.35	270.91
470.72	270.32
471.08	269.65
471.45	269.14
471.82	268.56
472.18	267.92
472.55	267.48
472.92	266.96
473.28	266.53
473.65	266.05
474.02	265.63
474.38	265.25
474.75	264.95
475.11	264.58
475.48	264.28
475.85	264.06
476.21	263.80
476.58	263.64
476.94	263.49
477.31	263.31
477.67	263.15
478.04	262.99
478.41	262.91
478.77	262.98
479.14	262.87
479.50	262.88
479.87	262.96
480.23	263.03
480.60	263.09
480.96	263.17
481.33	263.37
481.69	263.54
482.06	263.74
482.42	263.90
482.79	264.15
483.15	264.44
483.52	264.80
483.88	265.13
484.25	265.52
484.61	265.94
484.98	266.42
485.34	266.98
485.71	267.58
486.07	268.18
486.44	268.70
486.80	269.43
487.17	270.19
487.53	271.04
487.90	271.90
488.26	272.87
488.62	273.85
488.99	274.79
489.35	275.85
489.72	276.97
490.08	278.17
490.44	279.44
490.81	280.77
491.17	282.13
491.54	283.65
491.90	285.21
492.26	286.86
492.63	288.60
492.99	290.40
493.36	292.32
493.72	294.38
494.08	296.49
494.45	298.72
494.81	301.10
495.17	303.48
495.54	306.02
495.90	308.70
496.26	311.49
496.63	314.46
496.99	317.57
497.35	320.86
497.72	324.28
498.08	327.79
498.44	331.48
498.80	335.43
499.17	339.42
499.53	343.59
499.89	347.97
500.26	352.49
500.62	357.14
500.98	362.08
501.34	367.16
501.71	372.52
502.07	378.01
502.43	383.64
502.79	389.47
503.16	395.55
503.52	401.83
503.88	408.24
504.24	414.89
504.60	421.81
504.97	428.93
505.33	436.24
505.69	443.94
506.05	451.73
506.41	459.62
506.78	467.87
507.14	476.33
507.50	485.05
507.86	494.08
508.22	503.26
508.59	512.50
508.95	522.12
509.31	531.92
509.67	542.04
510.03	552.33
510.39	562.91
510.75	573.78
511.12	584.69
511.48	596.04
511.84	607.50
512.20	618.96
512.56	630.96
512.92	643.18
513.28	655.58
513.64	668.04
514.00	680.76
514.37	693.63
514.73	706.69
515.09	719.77
515.45	733.04
515.81	746.69
516.17	760.65
516.53	774.76
516.89	788.96
517.25	803.08
517.61	817.51
517.97	832.06
518.33	846.45
518.69	861.33
519.05	876.37
519.41	891.58
519.77	907.20
520.13	922.72
520.49	938.10
520.85	953.58
521.21	969.33
521.57	985.72
521.93	1001.60
522.29	1018.12
522.65	1034.42
523.01	1050.75
523.37	1066.73
523.73	1082.96
524.09	1099.03
524.45	1115.40
524.81	1132.11
525.17	1148.99
525.53	1165.92
525.89	1182.98
526.25	1199.74
526.61	1216.13
526.97	1232.95
527.33	1249.54
527.68	1266.12
528.04	1282.73
528.40	1299.39
528.76	1316.59
529.12	1333.08
529.48	1350.10
529.84	1366.11
530.20	1382.81
530.56	1399.96
530.91	1417.54
531.27	1434.43
531.63	1451.14
531.99	1467.86
532.35	1483.89
532.71	1499.87
533.07	1516.09
533.42	1531.96
533.78	1548.15
534.14	1564.47
534.50	1579.83
534.86	1595.61
535.21	1610.83
535.57	1626.81
535.93	1642.38
536.29	1657.15
536.65	1672.43
537.00	1687.28
537.36	1702.72
537.72	1717.30
538.08	1731.65
538.44	1745.51
538.79	1759.46
539.15	1773.24
539.51	1786.99
539.87	1801.43
540.22	1815.24
540.58	1829.20
540.94	1842.67
541.29	1855.55
541.65	1868.33
542.01	1881.70
542.37	1894.10
542.72	1906.62
543.08	1918.47
543.44	1930.78
543.79	1942.06
544.15	1953.00
544.51	1964.59
544.87	1975.57
545.22	1986.39
545.58	1996.65
545.94	2006.57
546.29	2016.45
546.65	2026.19
547.01	2035.48
547.36	2044.24
547.72	2052.74
548.07	2060.63
548.43	2068.78
548.79	2076.89
549.14	2084.52
549.50	2091.85
549.86	2099.72
550.21	2107.01
550.57	2114.30
550.92	2120.88
551.28	2128.05
551.64	2135.12
551.99	2141.62
552.35	2147.73
552.70	2153.85
553.06	2159.87
553.41	2166.10
553.77	2172.20
554.13	2178.29
554.48	2184.23
554.84	2189.71
555.19	2195.00
555.55	2200.09
555.90	2204.59
556.26	2209.53
556.61	2214.22
556.97	2218.52
557.32	2222.44
557.68	2226.58
558.03	2230.87
558.39	2234.63
558.74	2239.22
559.10	2243.09
559.45	2246.71
559.81	2251.03
560.16	2254.91
560.52	2258.04
560.87	2261.55
561.23	2263.90
561.58	2266.81
561.94	2269.45
562.29	2271.93
562.64	2274.59
563.00	2277.17
563.35	2280.66
563.71	2283.80
564.06	2286.89
564.42	2289.69
564.77	2292.32
565.12	2294.50
565.48	2296.21
565.83	2298.18
566.19	2299.48
566.54	2300.41
566.89	2301.62
567.25	2302.13
567.60	2303.37
567.96	2305.21
568.31	2305.99
568.66	2307.17
569.02	2307.85
569.37	2308.22
569.72	2308.86
570.08	2309.02
570.43	2309.05
570.78	2308.39
571.14	2306.70
571.49	2305.52
571.84	2305.16
572.20	2303.97
572.55	2302.97
572.90	2301.48
573.26	2300.11
573.61	2298.27
573.96	2296.41
574.31	2293.27
574.67	2290.08
575.02	2286.48
575.37	2283.02
575.72	2278.98
576.08	2275.67
576.43	2272.21
576.78	2268.36
577.13	2265.17
577.49	2261.96
577.84	2258.32
578.19	2254.54
578.54	2250.91
578.90	2246.48
579.25	2240.95
579.60	2235.95
579.95	2230.77
580.30	2225.59
580.66	2220.17
581.01	2215.28
581.36	2210.27
581.71	2205.97
582.06	2201.66
582.42	2197.15
582.77	2191.74
583.12	2187.23
583.47	2182.48
583.82	2177.45
584.17	2172.23
584.53	2166.73
584.88	2160.92
585.23	2155.02
585.58	2149.49
585.93	2143.88
586.28	2139.05
586.63	2133.72
586.98	2128.50
587.34	2123.91
587.69	2119.01
588.04	2113.85
588.39	2107.95
588.74	2101.33
589.09	2095.18
589.44	2088.16
589.79	2082.05
590.14	2076.29
590.49	2069.64
590.84	2063.09
591.19	2056.91
591.54	2050.36
591.89	2042.79
592.25	2036.09
592.60	2028.93
592.95	2021.13
593.30	2013.84
593.65	2006.15
594.00	1999.11
594.35	1991.89
594.70	1983.67
595.05	1976.35
595.40	1968.82
595.75	1961.32
596.10	1955.16
596.45	1948.25
596.80	1942.10
597.15	1935.23
597.50	1928.09
597.85	1921.63
598.19	1915.00
598.54	1907.81
598.89	1901.17
599.24	1895.28
599.59	1888.42
599.94	1882.11
600.29	1875.77
600.64	1869.11
600.99	1861.60
601.34	1854.61
601.69	1847.56
602.04	1840.58
602.39	1833.23
602.74	1826.42
603.08	1819.72
603.43	1812.88
603.78	1805.65
604.13	1798.40
604.48	1791.24
604.83	1784.41
605.18	1777.41
605.53	1769.30
605.87	1761.27
606.22	1753.93
606.57	1745.84
606.92	1738.62
607.27	1731.45
607.62	1724.49
607.96	1717.20
608.31	1710.56
608.66	1703.01
609.01	1695.33
609.36	1687.90
609.70	1679.88
610.05	1671.91
610.40	1664.11
610.75	1655.80
611.10	1647.99
611.44	1639.60
611.79	1631.60
612.14	1622.85
612.49	1613.64
612.83	1605.33
613.18	1597.22
613.53	1589.09
613.88	1580.61
614.22	1572.30
614.57	1563.73
614.92	1555.79
615.27	1548.18
615.61	1539.87
615.96	1532.00
616.31	1524.44
616.65	1517.01
617.00	1509.42
617.35	1501.61
617.70	1493.37
618.04	1484.88
618.39	1476.70
618.74	1469.08
619.08	1460.66
619.43	1453.11
619.78	1446.27
620.12	1439.10
620.47	1431.61
620.82	1423.57
621.16	1416.15
621.51	1408.54
621.85	1400.83
622.20	1392.33
622.55	1383.95
622.89	1376.13
623.24	1368.40
623.59	1361.02
623.93	1353.46
624.28	1346.16
624.62	1338.70
624.97	1331.43
625.32	1324.66
625.66	1317.65
626.01	1310.35
626.35	1302.95
626.70	1295.27
627.04	1287.44
627.39	1279.65
627.73	1272.19
628.08	1265.13
628.43	1257.79
628.77	1250.41
629.12	1242.81
629.46	1235.51
629.81	1228.06
630.15	1220.79
630.50	1213.34
630.84	1205.10
631.19	1197.14
631.53	1189.75
631.88	1182.14
632.22	1174.50
632.57	1167.16
632.91	1159.71
633.26	1152.47
633.60	1145.14
633.95	1137.93
634.29	1130.98
634.64	1124.31
634.98	1116.98
635.32	1109.94
635.67	1103.43
636.01	1096.69
636.36	1089.98
636.70	1083.53
637.05	1077.01
637.39	1070.55
637.73	1063.97
638.08	1058.08
638.42	1052.12
638.77	1045.55
639.11	1038.87
639.45	1032.53
639.80	1025.84
640.14	1019.40
640.49	1012.84
640.83	1006.50
641.17	1000.35
641.52	993.98
641.86	987.44
642.20	981.58
642.55	975.24
642.89	968.65
643.23	962.11
643.58	956.26
643.92	950.05
644.26	943.94
644.61	937.90
644.95	932.04
645.29	925.51
645.64	918.78
645.98	912.49
646.32	906.66
646.66	900.60
647.01	894.85
647.35	889.13
647.69	883.18
648.04	877.60
648.38	871.82
648.72	865.88
649.06	859.80
649.41	853.88
649.75	847.87
650.09	842.02
650.43	836.25
650.78	830.15
651.12	824.18
651.46	818.47
651.80	812.67
652.14	807.25
652.49	801.86
652.83	796.75
653.17	791.05
653.51	785.38
653.85	779.97
654.20	774.29
654.54	768.34
654.88	762.71
655.22	756.89
655.56	751.20
655.90	745.64
656.25	740.43
656.59	735.09
656.93	730.02
657.27	724.81
657.61	719.37
657.95	714.23
658.29	709.13
658.64	703.86
658.98	698.63
659.32	693.13
659.66	687.92
660.00	682.48
660.34	677.60
660.68	672.67
661.02	667.71
661.36	663.04
661.70	658.46
662.05	654.07
662.39	649.72
662.73	645.19
663.07	640.86
663.41	636.42
663.75	631.95
664.09	627.44
664.43	623.11
664.77	618.98
665.11	614.77
665.45	610.69
665.79	606.64
666.13	602.51
666.47	598.41
666.81	594.25
667.15	590.20
667.49	586.26
667.83	582.45
668.17	578.45
668.51	574.38
668.85	570.36
669.19	566.50
669.53	562.66
669.87	558.77
670.21	555.06
670.55	551.50
670.89	548.10
671.23	544.61
671.57	541.04
671.91	537.52
672.25	534.09
672.58	530.53
672.92	527.15
673.26	524.04
673.60	520.94
673.94	517.86
674.28	514.94
674.62	512.01
674.96	508.90
675.30	506.05
675.64	503.11
675.97	500.38
676.31	497.51
676.65	494.57
676.99	491.93
677.33	489.06
677.67	486.15
678.01	483.04
678.34	480.13
678.68	477.27
679.02	474.48
679.36	471.64
679.70	468.96
680.04	466.18
680.37	463.26
680.71	460.46
681.05	457.81
681.39	455.10
681.73	452.45
682.06	449.91
682.40	447.39
682.74	444.82
683.08	442.21
683.42	439.63
683.75	437.19
684.09	434.61
684.43	432.17
684.77	429.80
685.10	427.49
685.44	425.15
685.78	422.85
686.12	420.62
686.45	418.33
686.79	416.05
687.13	413.83
687.46	411.66
687.80	409.49
688.14	407.31
688.48	405.20
688.81	402.96
689.15	400.81
689.49	398.67
689.82	396.64
690.16	394.61
690.50	392.63
690.83	390.66
691.17	388.66
691.51	386.78
691.84	384.91
692.18	383.00
692.52	381.01
692.85	379.08
693.19	377.17
693.52	375.37
693.86	373.54
694.20	371.81
694.53	370.02
694.87	368.15
695.21	366.37
695.54	364.59
695.88	362.86
696.21	361.15
696.55	359.44
696.88	357.75
697.22	356.09
697.56	354.49
697.89	352.86
698.23	351.27
698.56	349.60
698.90	347.96
699.23	346.29
699.57	344.76
699.90	343.26
700.24	341.76
700.58	340.25
700.91	338.76
701.25	337.29
701.58	335.93
701.92	334.57
702.25	333.19
702.59	331.84
702.92	330.51
703.26	329.20
703.59	327.95
703.93	326.77
704.26	325.54
704.60	324.22
704.93	322.96
705.26	321.68
705.60	320.51
705.93	319.35
706.27	318.32
706.60	317.30
706.94	316.21
707.27	315.00
707.61	313.89
707.94	312.83
708.27	311.74
708.61	310.68
708.94	309.69
709.28	308.70
709.61	307.74
709.94	306.78
710.28	305.77
710.61	304.78
710.95	303.71
711.28	302.80
711.61	301.87
711.95	300.95
712.28	300.02
712.61	299.03
712.95	298.13
713.28	297.25
713.61	296.33
713.95	295.43
714.28	294.61
714.61	293.77
714.95	292.93
715.28	292.05
715.61	291.17
715.95	290.28
716.28	289.41
716.61	288.59
716.95	287.77
717.28	287.04
717.61	286.25
717.94	285.51
718.28	284.68
718.61	283.96
718.94	283.27
719.27	282.59
719.61	281.99
719.94	281.30
720.27	280.58
720.60	279.92
720.94	279.32
721.27	278.73
721.60	278.16
721.93	277.60
722.27	277.07
722.60	276.49
722.93	275.95
723.26	275.45
723.59	274.85
723.93	274.30
724.26	273.75
724.59	273.22
724.92	272.71
725.25	272.25
725.59	271.71
725.92	271.20
726.25	270.71
726.58	270.21
726.91	269.75
727.24	269.26
727.57	268.78
727.91	268.24
728.24	267.80
728.57	267.32
728.90	266.86
729.23	266.40
729.56	265.98
729.89	265.51
730.22	264.97
730.55	264.54
730.89	264.08
731.22	263.66
731.55	263.23
731.88	262.78
732.21	262.29
732.54	261.85
732.87	261.42
733.20	261.03
733.53	260.64
733.86	260.24
734.19	259.87
734.52	259.51
734.85	259.22
735.18	258.77
735.51	258.39
735.84	257.99
736.17	257.64
736.50	257.21
736.83	257.00
737.16	256.72
737.49	256.36
737.82	256.03
738.15	255.68
738.48	255.32
738.81	255.03
739.14	254.75
739.47	254.45
739.80	254.16
740.13	253.85
740.46	253.50
740.79	253.18
741.12	252.85
741.45	252.52
741.78	252.16
742.11	251.91
742.44	251.60
742.77	251.34
743.10	251.01
743.43	250.73
743.75	250.31
744.08	250.14
744.41	249.87
744.74	249.59
745.07	249.35
745.40	249.11
745.73	248.85
746.06	248.57
746.39	248.29
746.71	248.03
747.04	247.77
747.37	247.55
747.70	247.31
748.03	247.06
748.36	246.83
748.68	246.60
749.01	246.33
749.34	246.11
749.67	245.84
750.00	245.63
750.33	245.47
750.65	245.26
750.98	244.91
751.31	244.69
751.64	244.49
751.97	244.30
752.29	244.06
752.62	243.81
752.95	243.60
753.28	243.43
753.60	243.19
753.93	243.00
754.26	242.77
754.59	242.56
754.91	242.34
755.24	242.14
755.57	241.95
755.90	241.75
756.22	241.54
756.55	241.34
756.88	241.14
757.20	240.88
757.53	240.68
757.86	240.53
758.19	240.39
758.51	240.25
758.84	240.00
759.17	239.84
759.49	239.68
759.82	239.54
760.15	239.37
760.47	239.22
760.80	239.07
761.13	238.94
761.45	238.79
761.78	238.67
762.11	238.53
762.43	238.36
762.76	238.21
763.08	238.10
763.41	237.99
763.74	237.88
764.06	237.75
764.39	237.62
764.71	237.51
765.04	237.36
765.37	237.17
765.69	237.05
766.02	236.91
766.34	236.79
766.67	236.63
767.00	236.53
767.32	236.45
767.65	236.38
767.97	236.27
768.30	236.13
768.62	236.01
768.95	235.89
769.27	235.80
769.60	235.72
769.92	235.58
770.25	235.46
770.57	235.36
770.90	235.28
771.22	235.19
771.55	235.10
771.87	235.00
772.20	234.89
772.52	234.90
772.85	234.93
773.17	234.85
773.50	234.78
773.82	234.71
774.15	234.58
774.47	234.43
774.80	234.32
775.12	234.25
775.45	234.16
775.77	234.10
776.09	234.02
776.42	233.97
776.74	233.95
777.07	233.89
777.39	233.79
777.72	233.73
778.04	233.65
778.36	233.59
778.69	233.52
779.01	233.51
779.33	233.37
779.66	233.22
779.98	233.15
780.31	233.07
780.63	233.05
780.95	233.00
781.28	232.95
781.60	232.90
781.92	232.84
782.25	232.79
782.57	232.77
782.89	232.73
783.22	232.67
783.54	232.58
783.86	232.54
784.19	232.49
784.51	232.46
784.83	232.38
785.16	232.32
785.48	232.28
785.80	232.21
786.12	232.14
786.45	232.09
786.77	232.05
787.09	231.98
