SpectraSuite Data File
++++++++++++++++++++++++++++++++++++
Date: Fri Feb 01 18:09:06 EST 2013
User: group
Dark Spectrum Present: No
Reference Spectrum Present: No
Number of Sampled Component Spectra: 1
Spectrometers: USB2E7196
Integration Time (usec): 35000 (USB2E7196)
Spectra Averaged: 100 (USB2E7196)
Boxcar Smoothing: 10 (USB2E7196)
Correct for Electrical Dark: No (USB2E7196)
Strobe/Lamp Enabled: No (USB2E7196)
Correct for Detector Non-linearity: No (USB2E7196)
Correct for Stray Light: No (USB2E7196)
Number of Pixels in Processed Spectrum: 2048
>>>>>Begin Processed Spectral Data<<<<<
339.09	0.00
339.48	213.10
339.86	214.73
340.24	216.37
340.63	217.30
341.01	220.25
341.39	219.29
341.78	221.29
342.16	222.75
342.54	222.77
342.93	211.51
343.31	222.21
343.69	222.75
344.07	223.19
344.46	223.59
344.84	223.97
345.22	224.21
345.60	224.51
345.99	224.68
346.37	224.79
346.75	224.92
347.13	224.99
347.52	225.05
347.90	225.15
348.28	225.19
348.66	225.22
349.05	225.22
349.43	225.21
349.81	225.25
350.19	225.29
350.57	225.33
350.96	225.40
351.34	225.46
351.72	225.54
352.10	225.62
352.48	225.67
352.87	225.76
353.25	225.82
353.63	225.89
354.01	225.97
354.39	226.04
354.77	226.12
355.15	226.21
355.54	226.25
355.92	226.26
356.30	226.32
356.68	226.43
357.06	226.52
357.44	226.57
357.82	226.65
358.20	226.74
358.58	226.82
358.97	226.85
359.35	226.94
359.73	227.04
360.11	227.08
360.49	227.14
360.87	227.17
361.25	227.24
361.63	227.29
362.01	227.32
362.39	227.34
362.77	227.37
363.15	227.42
363.53	227.43
363.91	227.47
364.29	227.49
364.67	227.44
365.05	227.44
365.43	227.51
365.81	227.51
366.19	227.55
366.57	227.57
366.95	227.61
367.33	227.62
367.71	227.58
368.09	227.65
368.47	227.65
368.85	227.67
369.23	227.64
369.61	227.60
369.99	227.66
370.37	227.66
370.75	227.68
371.13	227.64
371.51	227.64
371.89	227.60
372.27	227.59
372.65	227.57
373.03	227.53
373.41	227.43
373.78	227.42
374.16	227.34
374.54	227.27
374.92	227.21
375.30	227.13
375.68	227.07
376.06	227.01
376.44	226.97
376.82	226.86
377.19	226.81
377.57	226.72
377.95	226.59
378.33	226.56
378.71	226.43
379.09	226.39
379.47	226.34
379.84	226.30
380.22	226.24
380.60	226.17
380.98	226.14
381.36	226.11
381.73	226.02
382.11	225.97
382.49	225.92
382.87	225.86
383.25	225.81
383.62	225.88
384.00	225.81
384.38	225.73
384.76	225.74
385.13	225.72
385.51	225.72
385.89	225.70
386.27	225.64
386.64	225.66
387.02	225.60
387.40	225.56
387.78	225.55
388.15	225.55
388.53	225.51
388.91	225.48
389.29	225.43
389.66	225.43
390.04	225.39
390.42	225.39
390.79	225.36
391.17	225.32
391.55	225.19
391.92	225.20
392.30	225.21
392.68	225.16
393.05	225.12
393.43	225.10
393.81	225.10
394.18	225.06
394.56	225.04
394.94	225.07
395.31	225.05
395.69	225.05
396.06	225.05
396.44	225.10
396.82	225.07
397.19	225.19
397.57	225.19
397.95	225.25
398.32	225.25
398.70	225.29
399.07	225.37
399.45	225.42
399.82	225.48
400.20	225.52
400.58	225.61
400.95	225.66
401.33	225.75
401.70	225.86
402.08	225.97
402.45	226.06
402.83	226.18
403.20	226.31
403.58	226.42
403.95	226.53
404.33	226.64
404.71	226.79
405.08	226.97
405.46	227.15
405.83	227.32
406.21	227.54
406.58	227.77
406.96	227.99
407.33	228.22
407.70	228.44
408.08	228.79
408.45	229.09
408.83	229.37
409.20	229.65
409.58	229.94
409.95	230.29
410.33	230.68
410.70	231.01
411.08	231.39
411.45	231.82
411.82	232.26
412.20	232.73
412.57	233.25
412.95	233.67
413.32	234.19
413.69	234.74
414.07	235.32
414.44	235.94
414.82	236.59
415.19	237.35
415.56	238.11
415.94	238.87
416.31	239.73
416.68	240.62
417.06	241.59
417.43	242.53
417.81	243.60
418.18	244.68
418.55	245.82
418.93	247.04
419.30	248.25
419.67	249.52
420.04	250.86
420.42	252.28
420.79	253.91
421.16	255.57
421.54	257.23
421.91	258.97
422.28	260.74
422.66	262.58
423.03	264.35
423.40	266.23
423.77	268.20
424.15	270.21
424.52	272.28
424.89	274.54
425.26	276.71
425.64	278.70
426.01	280.93
426.38	283.26
426.75	285.61
427.13	288.07
427.50	290.64
427.87	293.29
428.24	295.93
428.61	298.43
428.99	301.16
429.36	304.09
429.73	306.99
430.10	309.79
430.47	312.70
430.85	315.74
431.22	318.90
431.59	322.16
431.96	325.30
432.33	328.82
432.70	332.14
433.08	336.13
433.45	339.85
433.82	343.52
434.19	347.59
434.56	351.55
434.93	355.27
435.30	358.94
435.68	362.98
436.05	366.99
436.42	370.89
436.79	374.38
437.16	378.17
437.53	382.13
437.90	386.11
438.27	389.96
438.64	393.89
439.01	397.48
439.38	400.73
439.75	403.75
440.13	407.24
440.50	410.56
440.87	413.14
441.24	415.89
441.61	418.97
441.98	421.06
442.35	423.65
442.72	426.25
443.09	428.77
443.46	430.16
443.83	430.92
444.20	431.64
444.57	432.84
444.94	433.25
445.31	433.73
445.68	434.17
446.05	434.26
446.42	433.74
446.79	433.13
447.16	432.46
447.53	432.04
447.90	430.40
448.27	428.74
448.64	426.44
449.01	424.82
449.37	421.96
449.74	419.28
450.11	415.99
450.48	412.54
450.85	408.97
451.22	405.93
451.59	403.06
451.96	400.34
452.33	396.65
452.70	393.38
453.07	389.38
453.43	385.34
453.80	381.43
454.17	377.65
454.54	374.11
454.91	370.26
455.28	366.48
455.65	362.98
456.02	359.48
456.38	356.49
456.75	352.74
457.12	349.58
457.49	346.41
457.86	343.40
458.23	340.76
458.59	337.85
458.96	334.92
459.33	332.34
459.70	329.68
460.07	327.57
460.43	325.07
460.80	322.74
461.17	320.70
461.54	318.62
461.91	316.58
462.27	314.48
462.64	312.68
463.01	310.71
463.38	308.88
463.74	306.97
464.11	305.33
464.48	303.87
464.85	302.28
465.21	301.03
465.58	299.76
465.95	298.18
466.32	296.89
466.68	295.61
467.05	294.35
467.42	293.08
467.78	291.73
468.15	290.52
468.52	289.58
468.88	288.39
469.25	287.31
469.62	286.41
469.98	285.50
470.35	284.62
470.72	283.85
471.08	282.91
471.45	282.18
471.82	281.41
472.18	280.57
472.55	279.95
472.92	279.25
473.28	278.55
473.65	277.92
474.02	277.33
474.38	276.81
474.75	276.28
475.11	275.75
475.48	275.40
475.85	275.04
476.21	274.72
476.58	274.36
476.94	274.05
477.31	273.78
477.67	273.51
478.04	273.32
478.41	273.14
478.77	273.09
479.14	272.91
479.50	272.82
479.87	272.85
480.23	272.92
480.60	272.90
480.96	272.91
481.33	273.08
481.69	273.22
482.06	273.36
482.42	273.48
482.79	273.71
483.15	273.95
483.52	274.29
483.88	274.57
484.25	274.95
484.61	275.39
484.98	275.80
485.34	276.39
485.71	276.96
486.07	277.57
486.44	278.10
486.80	278.83
487.17	279.54
487.53	280.37
487.90	281.18
488.26	282.17
488.62	283.21
488.99	284.21
489.35	285.28
489.72	286.44
490.08	287.77
490.44	289.10
490.81	290.50
491.17	291.94
491.54	293.52
491.90	295.16
492.26	296.87
492.63	298.72
492.99	300.60
493.36	302.61
493.72	304.84
494.08	307.11
494.45	309.50
494.81	312.08
495.17	314.65
495.54	317.42
495.90	320.26
496.26	323.22
496.63	326.39
496.99	329.73
497.35	333.22
497.72	336.84
498.08	340.57
498.44	344.52
498.80	348.72
499.17	353.04
499.53	357.50
499.89	362.20
500.26	366.99
500.62	371.95
500.98	377.25
501.34	382.66
501.71	388.41
502.07	394.25
502.43	400.27
502.79	406.52
503.16	412.99
503.52	419.74
503.88	426.61
504.24	433.68
504.60	441.09
504.97	448.79
505.33	456.67
505.69	465.01
506.05	473.39
506.41	481.84
506.78	490.58
507.14	499.74
507.50	509.17
507.86	518.88
508.22	528.80
508.59	538.79
508.95	549.11
509.31	559.68
509.67	570.61
510.03	581.75
510.39	593.17
510.75	604.98
511.12	616.85
511.48	629.12
511.84	641.52
512.20	653.99
512.56	667.01
512.92	680.28
513.28	693.79
513.64	707.35
514.00	721.26
514.37	735.49
514.73	749.79
515.09	764.00
515.45	778.63
515.81	793.59
516.17	808.90
516.53	824.41
516.89	840.00
517.25	855.53
517.61	871.43
517.97	887.41
518.33	903.21
518.69	919.50
519.05	936.02
519.41	952.83
519.77	970.08
520.13	987.08
520.49	1004.11
520.85	1021.12
521.21	1038.57
521.57	1056.63
521.93	1074.07
522.29	1092.11
522.65	1110.19
523.01	1128.22
523.37	1146.11
523.73	1164.24
524.09	1182.15
524.45	1200.37
524.81	1219.04
525.17	1237.75
525.53	1256.56
525.89	1275.52
526.25	1294.42
526.61	1312.92
526.97	1331.76
527.33	1350.28
527.68	1369.00
528.04	1387.59
528.40	1406.31
528.76	1425.53
529.12	1444.21
529.48	1463.37
529.84	1481.67
530.20	1500.52
530.56	1519.76
530.91	1539.49
531.27	1558.54
531.63	1577.33
531.99	1596.32
532.35	1614.56
532.71	1632.87
533.07	1651.62
533.42	1669.88
533.78	1688.45
534.14	1707.09
534.50	1724.97
534.86	1743.32
535.21	1760.97
535.57	1779.44
535.93	1797.32
536.29	1814.60
536.65	1832.19
537.00	1849.33
537.36	1867.10
537.72	1884.05
538.08	1901.00
538.44	1917.29
538.79	1933.76
539.15	1949.94
539.51	1966.15
539.87	1983.11
540.22	1999.30
540.58	2015.62
540.94	2031.47
541.29	2046.81
541.65	2062.06
542.01	2077.74
542.37	2092.59
542.72	2107.64
543.08	2121.89
543.44	2136.93
543.79	2150.76
544.15	2164.25
544.51	2178.48
544.87	2192.04
545.22	2205.46
545.58	2218.26
545.94	2230.38
546.29	2242.54
546.65	2254.80
547.01	2266.38
547.36	2277.37
547.72	2288.16
548.07	2298.50
548.43	2308.89
548.79	2319.16
549.14	2329.02
549.50	2338.58
549.86	2348.45
550.21	2357.79
550.57	2367.24
550.92	2376.08
551.28	2385.19
551.64	2394.43
551.99	2403.06
552.35	2411.28
552.70	2419.66
553.06	2427.70
553.41	2436.20
553.77	2444.20
554.13	2452.41
554.48	2460.72
554.84	2468.39
555.19	2475.56
555.55	2482.60
555.90	2489.06
556.26	2496.04
556.61	2502.53
556.97	2508.74
557.32	2514.63
557.68	2520.63
558.03	2526.70
558.39	2532.02
558.74	2538.67
559.10	2544.33
559.45	2549.72
559.81	2555.76
560.16	2561.13
560.52	2565.97
560.87	2570.96
561.23	2575.27
561.58	2579.64
561.94	2583.67
562.29	2587.35
562.64	2591.72
563.00	2595.69
563.35	2600.72
563.71	2605.17
564.06	2609.90
564.42	2614.24
564.77	2618.28
565.12	2622.04
565.48	2625.22
565.83	2628.38
566.19	2630.83
566.54	2632.71
566.89	2635.09
567.25	2636.78
567.60	2639.17
567.96	2642.14
568.31	2644.08
568.66	2646.26
569.02	2647.87
569.37	2649.15
569.72	2651.02
570.08	2651.96
570.43	2652.78
570.78	2653.10
571.14	2652.11
571.49	2651.36
571.84	2651.57
572.20	2651.07
572.55	2650.67
572.90	2649.43
573.26	2648.62
573.61	2647.23
573.96	2646.13
574.31	2643.39
574.67	2640.65
575.02	2637.23
575.37	2633.79
575.72	2630.14
576.08	2626.72
576.43	2623.27
576.78	2619.71
577.13	2616.57
577.49	2613.53
577.84	2610.10
578.19	2606.13
578.54	2602.62
578.90	2598.19
579.25	2592.41
579.60	2587.14
579.95	2581.80
580.30	2576.58
580.66	2571.01
581.01	2565.72
581.36	2560.32
581.71	2555.83
582.06	2551.11
582.42	2546.32
582.77	2540.78
583.12	2535.90
583.47	2531.00
583.82	2525.90
584.17	2520.08
584.53	2514.00
584.88	2507.77
585.23	2501.36
585.58	2495.29
585.93	2489.01
586.28	2483.68
586.63	2478.02
586.98	2472.46
587.34	2467.17
587.69	2461.50
588.04	2455.68
588.39	2449.26
588.74	2441.89
589.09	2434.82
589.44	2426.99
589.79	2419.92
590.14	2413.39
590.49	2405.70
590.84	2398.27
591.19	2391.32
591.54	2383.88
591.89	2375.43
592.25	2367.63
592.60	2359.38
592.95	2350.66
593.30	2342.27
593.65	2333.59
594.00	2325.32
594.35	2316.74
594.70	2307.19
595.05	2299.20
595.40	2290.69
595.75	2281.88
596.10	2274.62
596.45	2266.98
596.80	2259.72
597.15	2252.22
597.50	2244.07
597.85	2236.45
598.19	2228.83
598.54	2220.57
598.89	2212.71
599.24	2205.86
599.59	2198.27
599.94	2190.84
600.29	2183.29
600.64	2175.49
600.99	2166.79
601.34	2158.95
601.69	2150.69
602.04	2142.79
602.39	2134.05
602.74	2125.98
603.08	2118.04
603.43	2110.16
603.78	2101.26
604.13	2092.88
604.48	2084.33
604.83	2076.16
605.18	2068.13
605.53	2058.63
605.87	2048.99
606.22	2040.30
606.57	2030.66
606.92	2021.56
607.27	2013.05
607.62	2004.90
607.96	1996.30
608.31	1988.50
608.66	1979.30
609.01	1970.55
609.36	1961.55
609.70	1951.92
610.05	1942.34
610.40	1933.26
610.75	1923.35
611.10	1914.30
611.44	1904.17
611.79	1894.49
612.14	1884.05
612.49	1872.98
612.83	1862.87
613.18	1853.22
613.53	1843.61
613.88	1833.53
614.22	1823.81
614.57	1813.56
614.92	1804.08
615.27	1795.14
615.61	1785.13
615.96	1775.51
616.31	1766.20
616.65	1757.25
617.00	1748.18
617.35	1738.91
617.70	1729.11
618.04	1718.90
618.39	1709.07
618.74	1700.05
619.08	1690.17
619.43	1681.15
619.78	1672.87
620.12	1664.31
620.47	1655.23
620.82	1645.39
621.16	1636.37
621.51	1627.02
621.85	1617.76
622.20	1607.39
622.55	1597.20
622.89	1587.69
623.24	1578.49
623.59	1569.58
623.93	1560.58
624.28	1551.94
624.62	1542.89
624.97	1534.03
625.32	1525.85
625.66	1517.30
626.01	1508.61
626.35	1499.69
626.70	1490.20
627.04	1480.81
627.39	1471.31
627.73	1462.49
628.08	1454.20
628.43	1445.60
628.77	1437.03
629.12	1428.04
629.46	1419.51
629.81	1410.60
630.15	1402.00
630.50	1393.21
630.84	1383.36
631.19	1373.84
631.53	1364.68
631.88	1355.56
632.22	1346.51
632.57	1337.66
632.91	1328.65
633.26	1319.83
633.60	1310.87
633.95	1302.43
634.29	1294.05
634.64	1286.12
634.98	1277.37
635.32	1268.91
635.67	1260.90
636.01	1252.82
636.36	1244.73
636.70	1236.87
637.05	1229.01
637.39	1221.24
637.73	1213.46
638.08	1206.42
638.42	1199.18
638.77	1191.51
639.11	1183.83
639.45	1176.18
639.80	1168.31
640.14	1160.78
640.49	1153.01
640.83	1145.52
641.17	1138.10
641.52	1130.59
641.86	1122.84
642.20	1115.81
642.55	1108.22
642.89	1100.63
643.23	1092.80
643.58	1085.97
643.92	1078.67
644.26	1071.62
644.61	1064.34
644.95	1057.20
645.29	1049.46
645.64	1041.62
645.98	1034.09
646.32	1027.05
646.66	1019.92
647.01	1013.13
647.35	1006.33
647.69	999.36
648.04	992.80
648.38	985.96
648.72	978.97
649.06	971.86
649.41	964.91
649.75	957.91
650.09	950.87
650.43	944.19
650.78	936.86
651.12	929.72
651.46	922.89
651.80	916.17
652.14	909.71
652.49	903.38
652.83	897.24
653.17	890.67
653.51	883.90
653.85	877.48
654.20	870.83
654.54	863.69
654.88	856.89
655.22	849.92
655.56	843.16
655.90	836.63
656.25	830.53
656.59	824.19
656.93	818.16
657.27	812.12
657.61	805.62
657.95	799.63
658.29	793.70
658.64	787.43
658.98	781.19
659.32	774.77
659.66	768.57
660.00	762.33
660.34	756.46
660.68	750.73
661.02	744.83
661.36	739.21
661.70	733.95
662.05	728.76
662.39	723.72
662.73	718.52
663.07	713.36
663.41	708.06
663.75	702.81
664.09	697.41
664.43	692.16
664.77	687.33
665.11	682.38
665.45	677.50
665.79	672.76
666.13	667.95
666.47	663.18
666.81	658.36
667.15	653.50
667.49	648.86
667.83	644.35
668.17	639.73
668.51	635.03
668.85	630.30
669.19	625.82
669.53	621.30
669.87	616.78
670.21	612.44
670.55	608.21
670.89	604.11
671.23	600.08
671.57	596.00
671.91	591.86
672.25	587.64
672.58	583.48
672.92	579.44
673.26	575.75
673.60	572.03
673.94	568.33
674.28	564.91
674.62	561.52
674.96	557.86
675.30	554.42
675.64	550.94
675.97	547.60
676.31	544.25
676.65	540.79
676.99	537.55
677.33	534.14
677.67	530.77
678.01	527.24
678.34	523.80
678.68	520.39
679.02	517.07
679.36	513.86
679.70	510.75
680.04	507.54
680.37	504.17
680.71	500.85
681.05	497.80
681.39	494.56
681.73	491.44
682.06	488.54
682.40	485.60
682.74	482.66
683.08	479.70
683.42	476.68
683.75	473.73
684.09	470.72
684.43	467.85
684.77	465.02
685.10	462.24
685.44	459.50
685.78	456.79
686.12	454.11
686.45	451.33
686.79	448.61
687.13	445.95
687.46	443.38
687.80	440.83
688.14	438.22
688.48	435.83
688.81	433.17
689.15	430.58
689.49	427.97
689.82	425.51
690.16	423.08
690.50	420.77
690.83	418.51
691.17	416.16
691.51	413.97
691.84	411.75
692.18	409.51
692.52	407.20
692.85	404.90
693.19	402.73
693.52	400.61
693.86	398.42
694.20	396.36
694.53	394.24
694.87	392.08
695.21	389.98
695.54	387.83
695.88	385.75
696.21	383.72
696.55	381.80
696.88	379.75
697.22	377.75
697.56	375.79
697.89	373.84
698.23	371.93
698.56	370.01
698.90	368.15
699.23	366.17
699.57	364.34
699.90	362.52
700.24	360.68
700.58	358.93
700.91	357.20
701.25	355.47
701.58	353.84
701.92	352.22
702.25	350.62
702.59	348.97
702.92	347.41
703.26	345.86
703.59	344.32
703.93	342.96
704.26	341.51
704.60	340.01
704.93	338.54
705.26	337.09
705.60	335.64
705.93	334.26
706.27	333.03
706.60	331.81
706.94	330.53
707.27	329.16
707.61	327.88
707.94	326.63
708.27	325.36
708.61	324.06
708.94	322.88
709.28	321.70
709.61	320.55
709.94	319.44
710.28	318.24
710.61	317.06
710.95	315.79
711.28	314.68
711.61	313.51
711.95	312.40
712.28	311.31
712.61	310.21
712.95	309.11
713.28	308.03
713.61	306.95
713.95	305.94
714.28	304.98
714.61	303.94
714.95	302.94
715.28	301.94
715.61	300.90
715.95	299.88
716.28	298.82
716.61	297.86
716.95	296.84
717.28	295.95
717.61	295.08
717.94	294.18
718.28	293.22
718.61	292.37
718.94	291.56
719.27	290.75
719.61	289.94
719.94	289.16
720.27	288.33
720.60	287.53
720.94	286.76
721.27	286.04
721.60	285.33
721.93	284.65
722.27	284.01
722.60	283.39
722.93	282.69
723.26	282.07
723.59	281.42
723.93	280.80
724.26	280.10
724.59	279.42
724.92	278.84
725.25	278.27
725.59	277.68
725.92	277.06
726.25	276.46
726.58	275.86
726.91	275.27
727.24	274.71
727.57	274.16
727.91	273.53
728.24	273.01
728.57	272.43
728.90	271.83
729.23	271.25
729.56	270.72
729.89	270.19
730.22	269.62
730.55	269.04
730.89	268.51
731.22	268.00
731.55	267.51
731.88	266.96
732.21	266.46
732.54	265.92
732.87	265.41
733.20	264.92
733.53	264.49
733.86	264.04
734.19	263.61
734.52	263.14
734.85	262.78
735.18	262.28
735.51	261.86
735.84	261.44
736.17	261.03
736.50	260.55
736.83	260.27
737.16	259.89
737.49	259.51
737.82	259.09
738.15	258.77
738.48	258.38
738.81	258.01
739.14	257.62
739.47	257.29
739.80	256.94
740.13	256.60
740.46	256.24
740.79	255.88
741.12	255.52
741.45	255.17
741.78	254.79
742.11	254.48
742.44	254.11
742.77	253.78
743.10	253.40
743.43	253.05
743.75	252.57
744.08	252.38
744.41	252.08
744.74	251.77
745.07	251.39
745.40	251.11
745.73	250.83
746.06	250.52
746.39	250.20
746.71	249.86
747.04	249.57
747.37	249.28
747.70	248.97
748.03	248.68
748.36	248.42
748.68	248.13
749.01	247.84
749.34	247.58
749.67	247.29
750.00	247.07
750.33	246.90
750.65	246.66
750.98	246.26
751.31	245.98
751.64	245.75
751.97	245.54
752.29	245.28
752.62	245.00
752.95	244.77
753.28	244.51
753.60	244.27
753.93	244.04
754.26	243.83
754.59	243.58
754.91	243.28
755.24	243.02
755.57	242.78
755.90	242.54
756.22	242.32
756.55	242.11
756.88	241.84
757.20	241.54
757.53	241.31
757.86	241.12
758.19	240.90
758.51	240.69
758.84	240.44
759.17	240.22
759.49	240.01
759.82	239.85
760.15	239.63
760.47	239.45
760.80	239.23
761.13	239.04
761.45	238.83
761.78	238.71
762.11	238.55
762.43	238.35
762.76	238.18
763.08	238.04
763.41	237.87
763.74	237.71
764.06	237.54
764.39	237.38
764.71	237.21
765.04	237.08
765.37	236.93
765.69	236.79
766.02	236.66
766.34	236.54
766.67	236.36
767.00	236.25
767.32	236.15
767.65	236.08
767.97	235.91
768.30	235.78
768.62	235.65
768.95	235.52
769.27	235.42
769.60	235.31
769.92	235.17
770.25	235.04
770.57	234.92
770.90	234.83
771.22	234.73
771.55	234.63
771.87	234.50
772.20	234.35
772.52	234.32
772.85	234.31
773.17	234.17
773.50	234.06
773.82	233.97
774.15	233.85
774.47	233.72
774.80	233.63
775.12	233.55
775.45	233.45
775.77	233.34
776.09	233.24
776.42	233.12
776.74	233.04
777.07	232.95
777.39	232.85
777.72	232.77
778.04	232.70
778.36	232.59
778.69	232.54
779.01	232.52
779.33	232.38
779.66	232.21
779.98	232.17
780.31	232.11
780.63	232.06
780.95	231.99
781.28	231.87
781.60	231.77
781.92	231.69
782.25	231.61
782.57	231.55
782.89	231.48
783.22	231.43
783.54	231.34
783.86	231.29
784.19	231.24
784.51	231.20
784.83	231.10
785.16	231.06
785.48	231.01
785.80	230.93
786.12	230.87
786.45	230.80
