SpectraSuite Data File
++++++++++++++++++++++++++++++++++++
Date: Fri Feb 01 17:03:05 EST 2013
User: group
Dark Spectrum Present: No
Reference Spectrum Present: No
Number of Sampled Component Spectra: 1
Spectrometers: USB2E7196
Integration Time (usec): 35000 (USB2E7196)
Spectra Averaged: 100 (USB2E7196)
Boxcar Smoothing: 10 (USB2E7196)
Correct for Electrical Dark: No (USB2E7196)
Strobe/Lamp Enabled: No (USB2E7196)
Correct for Detector Non-linearity: No (USB2E7196)
Correct for Stray Light: No (USB2E7196)
Number of Pixels in Processed Spectrum: 2048
>>>>>Begin Processed Spectral Data<<<<<
339.09	0.00
339.48	213.67
339.86	214.65
340.24	216.55
340.63	218.40
341.01	220.43
341.39	220.32
341.78	221.56
342.16	222.92
342.54	223.42
342.93	211.77
343.31	222.47
343.69	223.00
344.07	223.46
344.46	223.83
344.84	224.13
345.22	224.38
345.60	224.61
345.99	224.80
346.37	224.89
346.75	224.96
347.13	225.04
347.52	225.10
347.90	225.18
348.28	225.24
348.66	225.25
349.05	225.26
349.43	225.28
349.81	225.34
350.19	225.41
350.57	225.47
350.96	225.52
351.34	225.60
351.72	225.67
352.10	225.75
352.48	225.85
352.87	225.96
353.25	226.01
353.63	226.06
354.01	226.12
354.39	226.25
354.77	226.36
355.15	226.46
355.54	226.49
355.92	226.55
356.30	226.61
356.68	226.75
357.06	226.81
357.44	226.88
357.82	226.96
358.20	226.99
358.58	227.08
358.97	227.18
359.35	227.26
359.73	227.36
360.11	227.44
360.49	227.49
360.87	227.53
361.25	227.61
361.63	227.69
362.01	227.74
362.39	227.74
362.77	227.79
363.15	227.82
363.53	227.87
363.91	227.92
364.29	227.94
364.67	227.87
365.05	227.89
365.43	227.92
365.81	227.93
366.19	228.01
366.57	228.03
366.95	228.03
367.33	228.00
367.71	227.99
368.09	228.02
368.47	228.04
368.85	228.03
369.23	228.01
369.61	227.96
369.99	227.99
370.37	228.00
370.75	228.01
371.13	227.95
371.51	227.86
371.89	227.80
372.27	227.77
372.65	227.76
373.03	227.75
373.41	227.71
373.78	227.68
374.16	227.59
374.54	227.49
374.92	227.45
375.30	227.43
375.68	227.38
376.06	227.30
376.44	227.24
376.82	227.20
377.19	227.14
377.57	227.10
377.95	226.97
378.33	226.91
378.71	226.79
379.09	226.76
379.47	226.73
379.84	226.68
380.22	226.62
380.60	226.52
380.98	226.43
381.36	226.35
381.73	226.26
382.11	226.20
382.49	226.16
382.87	226.07
383.25	225.97
383.62	226.00
384.00	225.94
384.38	225.90
384.76	225.87
385.13	225.86
385.51	225.81
385.89	225.78
386.27	225.71
386.64	225.70
387.02	225.64
387.40	225.58
387.78	225.52
388.15	225.48
388.53	225.43
388.91	225.41
389.29	225.37
389.66	225.37
390.04	225.33
390.42	225.32
390.79	225.31
391.17	225.30
391.55	225.17
391.92	225.13
392.30	225.11
392.68	225.04
393.05	225.01
393.43	225.00
393.81	225.01
394.18	225.01
394.56	225.02
394.94	225.02
395.31	225.02
395.69	225.07
396.06	225.09
396.44	225.13
396.82	225.14
397.19	225.24
397.57	225.29
397.95	225.35
398.32	225.35
398.70	225.41
399.07	225.47
399.45	225.49
399.82	225.53
400.20	225.56
400.58	225.63
400.95	225.65
401.33	225.78
401.70	225.90
402.08	225.97
402.45	226.00
402.83	226.10
403.20	226.20
403.58	226.25
403.95	226.39
404.33	226.51
404.71	226.62
405.08	226.78
405.46	226.87
405.83	226.99
406.21	227.12
406.58	227.25
406.96	227.37
407.33	227.57
407.70	227.79
408.08	228.05
408.45	228.24
408.83	228.46
409.20	228.62
409.58	228.75
409.95	229.00
410.33	229.23
410.70	229.50
411.08	229.76
411.45	230.10
411.82	230.36
412.20	230.71
412.57	231.12
412.95	231.33
413.32	231.74
413.69	232.15
414.07	232.56
414.44	233.06
414.82	233.54
415.19	234.09
415.56	234.60
415.94	235.14
416.31	235.83
416.68	236.43
417.06	237.13
417.43	237.85
417.81	238.60
418.18	239.43
418.55	240.27
418.93	241.16
419.30	242.02
419.67	242.94
420.04	243.90
420.42	244.90
420.79	246.08
421.16	247.21
421.54	248.40
421.91	249.62
422.28	250.85
422.66	252.22
423.03	253.50
423.40	254.82
423.77	256.22
424.15	257.60
424.52	259.10
424.89	260.70
425.26	262.24
425.64	263.71
426.01	265.25
426.38	266.89
426.75	268.56
427.13	270.28
427.50	272.12
427.87	274.01
428.24	275.85
428.61	277.62
428.99	279.55
429.36	281.58
429.73	283.64
430.10	285.64
430.47	287.66
430.85	289.77
431.22	292.03
431.59	294.41
431.96	296.68
432.33	299.15
432.70	301.50
433.08	304.26
433.45	306.87
433.82	309.47
434.19	312.29
434.56	315.10
434.93	317.74
435.30	320.30
435.68	323.15
436.05	325.98
436.42	328.75
436.79	331.28
437.16	334.00
437.53	336.80
437.90	339.58
438.27	342.31
438.64	345.09
439.01	347.69
439.38	349.94
439.75	352.07
440.13	354.54
440.50	356.86
440.87	358.69
441.24	360.63
441.61	362.78
441.98	364.31
442.35	366.07
442.72	367.93
443.09	369.75
443.46	370.74
443.83	371.31
444.20	371.80
444.57	372.65
444.94	372.96
445.31	373.31
445.68	373.67
446.05	373.72
446.42	373.35
446.79	372.90
447.16	372.39
447.53	372.08
447.90	370.95
448.27	369.80
448.64	368.25
449.01	367.14
449.37	365.24
449.74	363.35
450.11	361.12
450.48	358.63
450.85	356.12
451.22	353.99
451.59	351.95
451.96	350.02
452.33	347.41
452.70	345.04
453.07	342.25
453.43	339.36
453.80	336.65
454.17	334.04
454.54	331.50
454.91	328.82
455.28	326.14
455.65	323.63
456.02	321.20
456.38	319.08
456.75	316.40
457.12	314.14
457.49	311.96
457.86	309.83
458.23	308.03
458.59	305.97
458.96	303.93
459.33	302.13
459.70	300.30
460.07	298.78
460.43	297.13
460.80	295.53
461.17	294.13
461.54	292.61
461.91	291.18
462.27	289.76
462.64	288.51
463.01	287.19
463.38	285.94
463.74	284.59
464.11	283.42
464.48	282.44
464.85	281.34
465.21	280.46
465.58	279.57
465.95	278.46
466.32	277.62
466.68	276.76
467.05	275.86
467.42	274.99
467.78	274.11
468.15	273.24
468.52	272.57
468.88	271.76
469.25	271.05
469.62	270.43
469.98	269.78
470.35	269.21
470.72	268.60
471.08	267.94
471.45	267.45
471.82	266.95
472.18	266.39
472.55	265.96
472.92	265.43
473.28	264.98
473.65	264.58
474.02	264.12
474.38	263.77
474.75	263.47
475.11	263.14
475.48	262.89
475.85	262.67
476.21	262.48
476.58	262.26
476.94	262.12
477.31	262.00
477.67	261.87
478.04	261.73
478.41	261.71
478.77	261.80
479.14	261.73
479.50	261.79
479.87	261.86
480.23	261.97
480.60	262.07
480.96	262.20
481.33	262.40
481.69	262.63
482.06	262.83
482.42	263.04
482.79	263.27
483.15	263.56
483.52	263.93
483.88	264.25
484.25	264.67
484.61	265.12
484.98	265.56
485.34	266.12
485.71	266.73
486.07	267.34
486.44	267.93
486.80	268.65
487.17	269.35
487.53	270.14
487.90	270.99
488.26	271.92
488.62	272.90
488.99	273.88
489.35	274.91
489.72	276.03
490.08	277.24
490.44	278.51
490.81	279.89
491.17	281.21
491.54	282.69
491.90	284.20
492.26	285.86
492.63	287.59
492.99	289.36
493.36	291.25
493.72	293.26
494.08	295.32
494.45	297.54
494.81	299.90
495.17	302.36
495.54	304.91
495.90	307.58
496.26	310.37
496.63	313.31
496.99	316.41
497.35	319.63
497.72	323.01
498.08	326.53
498.44	330.15
498.80	334.08
499.17	338.09
499.53	342.23
499.89	346.53
500.26	350.99
500.62	355.62
500.98	360.54
501.34	365.62
501.71	370.92
502.07	376.34
502.43	381.89
502.79	387.65
503.16	393.69
503.52	399.89
503.88	406.23
504.24	412.79
504.60	419.58
504.97	426.63
505.33	433.85
505.69	441.50
506.05	449.22
506.41	457.00
506.78	465.12
507.14	473.48
507.50	482.17
507.86	491.16
508.22	500.26
508.59	509.34
508.95	518.75
509.31	528.38
509.67	538.34
510.03	548.53
510.39	559.00
510.75	569.63
511.12	580.40
511.48	591.60
511.84	602.90
512.20	614.30
512.56	626.09
512.92	638.11
513.28	650.31
513.64	662.61
514.00	675.14
514.37	687.85
514.73	700.70
515.09	713.52
515.45	726.52
515.81	739.88
516.17	753.65
516.53	767.55
516.89	781.59
517.25	795.62
517.61	809.77
517.97	823.88
518.33	838.05
518.69	852.67
519.05	867.29
519.41	882.16
519.77	897.45
520.13	912.67
520.49	927.75
520.85	942.78
521.21	958.11
521.57	974.00
521.93	989.53
522.29	1005.62
522.65	1021.53
523.01	1037.43
523.37	1053.15
523.73	1069.04
524.09	1084.86
524.45	1100.79
524.81	1116.98
525.17	1133.41
525.53	1149.99
525.89	1166.55
526.25	1182.97
526.61	1199.10
526.97	1215.52
527.33	1231.49
527.68	1247.65
528.04	1263.84
528.40	1279.97
528.76	1296.75
529.12	1313.05
529.48	1329.62
529.84	1345.32
530.20	1361.64
530.56	1378.23
530.91	1395.24
531.27	1411.61
531.63	1427.70
531.99	1443.99
532.35	1459.72
532.71	1475.29
533.07	1491.26
533.42	1506.75
533.78	1522.37
534.14	1538.26
534.50	1553.28
534.86	1568.83
535.21	1583.66
535.57	1599.23
535.93	1614.52
536.29	1628.94
536.65	1643.54
537.00	1657.72
537.36	1672.57
537.72	1686.69
538.08	1700.87
538.44	1714.40
538.79	1727.99
539.15	1741.29
539.51	1754.61
539.87	1768.58
540.22	1781.96
540.58	1795.34
540.94	1808.31
541.29	1820.93
541.65	1833.30
542.01	1846.16
542.37	1858.38
542.72	1870.57
543.08	1882.16
543.44	1894.28
543.79	1905.34
544.15	1916.21
544.51	1927.65
544.87	1938.44
545.22	1949.14
545.58	1959.17
545.94	1968.80
546.29	1978.50
546.65	1988.30
547.01	1997.30
547.36	2005.81
547.72	2014.24
548.07	2021.98
548.43	2030.04
548.79	2037.84
549.14	2045.31
549.50	2052.55
549.86	2059.93
550.21	2067.11
550.57	2074.14
550.92	2080.62
551.28	2087.65
551.64	2094.51
551.99	2101.06
552.35	2107.32
552.70	2113.31
553.06	2119.21
553.41	2125.51
553.77	2131.51
554.13	2137.53
554.48	2143.74
554.84	2149.32
555.19	2154.45
555.55	2159.63
555.90	2164.25
556.26	2169.31
556.61	2174.07
556.97	2178.51
557.32	2182.81
557.68	2186.99
558.03	2191.22
558.39	2194.96
558.74	2199.45
559.10	2203.51
559.45	2207.15
559.81	2211.28
560.16	2215.10
560.52	2218.53
560.87	2221.78
561.23	2224.54
561.58	2227.44
561.94	2230.12
562.29	2232.49
562.64	2235.41
563.00	2238.08
563.35	2241.53
563.71	2244.69
564.06	2247.88
564.42	2250.78
564.77	2253.41
565.12	2255.96
565.48	2258.10
565.83	2260.16
566.19	2261.71
566.54	2262.53
566.89	2263.91
567.25	2264.73
567.60	2266.28
567.96	2268.02
568.31	2269.11
568.66	2270.32
569.02	2271.20
569.37	2271.69
569.72	2272.79
570.08	2273.11
570.43	2273.30
570.78	2273.08
571.14	2271.79
571.49	2270.62
571.84	2270.36
572.20	2269.43
572.55	2268.53
572.90	2266.95
573.26	2265.74
573.61	2264.14
573.96	2262.77
574.31	2260.00
574.67	2257.31
575.02	2253.84
575.37	2250.67
575.72	2247.20
576.08	2243.96
576.43	2240.74
576.78	2237.29
577.13	2234.14
577.49	2231.09
577.84	2227.86
578.19	2224.22
578.54	2220.87
578.90	2216.97
579.25	2211.80
579.60	2207.16
579.95	2202.30
580.30	2197.64
580.66	2192.67
581.01	2188.00
581.36	2183.28
581.71	2179.31
582.06	2175.04
582.42	2170.89
582.77	2165.88
583.12	2161.60
583.47	2157.28
583.82	2152.53
584.17	2147.49
584.53	2142.33
584.88	2137.07
585.23	2131.58
585.58	2126.11
585.93	2120.72
586.28	2116.01
586.63	2111.26
586.98	2106.29
587.34	2101.77
587.69	2097.17
588.04	2092.15
588.39	2086.67
588.74	2080.50
589.09	2074.56
589.44	2067.99
589.79	2061.93
590.14	2056.41
590.49	2049.88
590.84	2043.65
591.19	2037.88
591.54	2031.58
591.89	2024.46
592.25	2017.91
592.60	2010.90
592.95	2003.85
593.30	1996.85
593.65	1989.54
594.00	1982.48
594.35	1975.47
594.70	1967.59
595.05	1960.68
595.40	1953.51
595.75	1946.17
596.10	1940.26
596.45	1933.66
596.80	1927.64
597.15	1921.44
597.50	1914.72
597.85	1908.41
598.19	1901.85
598.54	1894.99
598.89	1888.49
599.24	1882.65
599.59	1876.26
599.94	1870.14
600.29	1863.78
600.64	1857.27
600.99	1849.92
601.34	1843.35
601.69	1836.34
602.04	1829.75
602.39	1822.32
602.74	1815.63
603.08	1809.07
603.43	1802.34
603.78	1795.09
604.13	1788.04
604.48	1780.96
604.83	1774.25
605.18	1767.56
605.53	1759.65
605.87	1751.74
606.22	1744.64
606.57	1736.80
606.92	1729.35
607.27	1722.40
607.62	1715.78
607.96	1708.73
608.31	1702.34
608.66	1694.92
609.01	1687.62
609.36	1680.14
609.70	1672.30
610.05	1664.48
610.40	1656.94
610.75	1648.68
611.10	1641.27
611.44	1632.98
611.79	1624.82
612.14	1616.03
612.49	1606.93
612.83	1598.70
613.18	1590.62
613.53	1582.53
613.88	1574.11
614.22	1565.94
614.57	1557.30
614.92	1549.27
615.27	1541.74
615.61	1533.59
615.96	1525.44
616.31	1517.72
616.65	1510.26
617.00	1502.74
617.35	1494.99
617.70	1486.66
618.04	1478.14
618.39	1469.89
618.74	1462.17
619.08	1454.03
619.43	1446.52
619.78	1439.66
620.12	1432.67
620.47	1425.10
620.82	1416.98
621.16	1409.46
621.51	1401.80
621.85	1394.16
622.20	1385.59
622.55	1377.21
622.89	1369.30
623.24	1361.71
623.59	1354.40
623.93	1346.97
624.28	1339.76
624.62	1332.41
624.97	1325.43
625.32	1318.64
625.66	1311.65
626.01	1304.61
626.35	1297.19
626.70	1289.50
627.04	1281.82
627.39	1273.88
627.73	1266.44
628.08	1259.64
628.43	1252.60
628.77	1245.48
629.12	1237.93
629.46	1230.93
629.81	1223.44
630.15	1216.16
630.50	1208.85
630.84	1200.73
631.19	1192.86
631.53	1185.28
631.88	1177.69
632.22	1169.97
632.57	1162.80
632.91	1155.22
633.26	1147.91
633.60	1140.53
633.95	1133.42
634.29	1126.31
634.64	1119.69
634.98	1112.49
635.32	1105.34
635.67	1098.57
636.01	1091.81
636.36	1085.06
636.70	1078.51
637.05	1072.01
637.39	1065.61
637.73	1059.19
638.08	1053.34
638.42	1047.31
638.77	1040.98
639.11	1034.47
639.45	1028.10
639.80	1021.48
640.14	1015.22
640.49	1008.67
640.83	1002.53
641.17	996.35
641.52	990.02
641.86	983.61
642.20	977.72
642.55	971.34
642.89	965.00
643.23	958.40
643.58	952.70
643.92	946.58
644.26	940.69
644.61	934.55
644.95	928.54
645.29	921.99
645.64	915.32
645.98	909.00
646.32	903.10
646.66	897.08
647.01	891.33
647.35	885.62
647.69	879.74
648.04	874.08
648.38	868.38
648.72	862.51
649.06	856.51
649.41	850.66
649.75	844.83
650.09	838.90
650.43	833.23
650.78	827.14
651.12	821.24
651.46	815.54
651.80	809.96
652.14	804.58
652.49	799.26
652.83	794.09
653.17	788.50
653.51	782.94
653.85	777.52
654.20	771.97
654.54	765.94
654.88	760.27
655.22	754.44
655.56	748.70
655.90	743.23
656.25	738.00
656.59	732.66
656.93	727.60
657.27	722.52
657.61	717.11
657.95	712.03
658.29	706.87
658.64	701.52
658.98	696.23
659.32	690.81
659.66	685.60
660.00	680.35
660.34	675.42
660.68	670.46
661.02	665.51
661.36	660.74
661.70	656.30
662.05	651.95
662.39	647.71
662.73	643.30
663.07	638.91
663.41	634.52
663.75	630.13
664.09	625.55
664.43	621.16
664.77	617.13
665.11	612.87
665.45	608.76
665.79	604.72
666.13	600.60
666.47	596.48
666.81	592.36
667.15	588.24
667.49	584.31
667.83	580.45
668.17	576.49
668.51	572.47
668.85	568.43
669.19	564.60
669.53	560.81
669.87	556.99
670.21	553.34
670.55	549.66
670.89	546.18
671.23	542.80
671.57	539.29
671.91	535.71
672.25	532.20
672.58	528.70
672.92	525.35
673.26	522.22
673.60	519.12
673.94	516.03
674.28	513.15
674.62	510.25
674.96	507.20
675.30	504.36
675.64	501.45
675.97	498.70
676.31	495.86
676.65	492.86
676.99	490.15
677.33	487.31
677.67	484.51
678.01	481.51
678.34	478.56
678.68	475.66
679.02	472.90
679.36	470.13
679.70	467.42
680.04	464.66
680.37	461.78
680.71	458.92
681.05	456.33
681.39	453.64
681.73	450.95
682.06	448.46
682.40	445.93
682.74	443.39
683.08	440.79
683.42	438.17
683.75	435.66
684.09	433.04
684.43	430.53
684.77	428.06
685.10	425.74
685.44	423.46
685.78	421.18
686.12	418.91
686.45	416.67
686.79	414.36
687.13	412.14
687.46	409.97
687.80	407.84
688.14	405.63
688.48	403.55
688.81	401.39
689.15	399.20
689.49	397.04
689.82	394.97
690.16	392.93
690.50	390.99
690.83	389.09
691.17	387.15
691.51	385.29
691.84	383.46
692.18	381.54
692.52	379.56
692.85	377.64
693.19	375.73
693.52	373.84
693.86	372.04
694.20	370.25
694.53	368.50
694.87	366.67
695.21	364.84
695.54	363.00
695.88	361.24
696.21	359.52
696.55	357.82
696.88	356.11
697.22	354.41
697.56	352.75
697.89	351.06
698.23	349.49
698.56	347.87
698.90	346.33
699.23	344.68
699.57	343.12
699.90	341.59
700.24	340.10
700.58	338.61
700.91	337.13
701.25	335.70
701.58	334.31
701.92	332.94
702.25	331.61
702.59	330.25
702.92	328.92
703.26	327.60
703.59	326.34
703.93	325.19
704.26	324.01
704.60	322.76
704.93	321.55
705.26	320.31
705.60	319.12
705.93	317.98
706.27	316.92
706.60	315.89
706.94	314.81
707.27	313.66
707.61	312.58
707.94	311.58
708.27	310.53
708.61	309.45
708.94	308.46
709.28	307.46
709.61	306.48
709.94	305.51
710.28	304.52
710.61	303.55
710.95	302.43
711.28	301.50
711.61	300.51
711.95	299.57
712.28	298.61
712.61	297.68
712.95	296.75
713.28	295.87
713.61	294.96
713.95	294.11
714.28	293.29
714.61	292.44
714.95	291.58
715.28	290.71
715.61	289.86
715.95	288.97
716.28	288.12
716.61	287.32
716.95	286.54
717.28	285.77
717.61	285.01
717.94	284.32
718.28	283.52
718.61	282.81
718.94	282.12
719.27	281.47
719.61	280.78
719.94	280.10
720.27	279.39
720.60	278.73
720.94	278.06
721.27	277.44
721.60	276.88
721.93	276.28
722.27	275.75
722.60	275.19
722.93	274.63
723.26	274.12
723.59	273.54
723.93	273.01
724.26	272.48
724.59	271.89
724.92	271.35
725.25	270.86
725.59	270.35
725.92	269.83
726.25	269.31
726.58	268.83
726.91	268.32
727.24	267.84
727.57	267.34
727.91	266.81
728.24	266.34
728.57	265.82
728.90	265.36
729.23	264.81
729.56	264.37
729.89	263.92
730.22	263.40
730.55	262.95
730.89	262.45
731.22	262.00
731.55	261.59
731.88	261.13
732.21	260.70
732.54	260.30
732.87	259.86
733.20	259.44
733.53	259.00
733.86	258.61
734.19	258.23
734.52	257.89
734.85	257.57
735.18	257.14
735.51	256.80
735.84	256.44
736.17	256.12
736.50	255.73
736.83	255.50
737.16	255.17
737.49	254.84
737.82	254.51
738.15	254.17
738.48	253.82
738.81	253.51
739.14	253.17
739.47	252.83
739.80	252.52
740.13	252.23
740.46	251.93
740.79	251.64
741.12	251.31
741.45	250.95
741.78	250.62
742.11	250.37
742.44	250.02
742.77	249.71
743.10	249.38
743.43	249.09
743.75	248.68
744.08	248.54
744.41	248.26
744.74	247.95
745.07	247.68
745.40	247.43
745.73	247.16
746.06	246.88
746.39	246.62
746.71	246.36
747.04	246.07
747.37	245.84
747.70	245.64
748.03	245.39
748.36	245.16
748.68	244.91
749.01	244.67
749.34	244.47
749.67	244.27
750.00	244.07
750.33	243.92
750.65	243.70
750.98	243.32
751.31	243.10
751.64	242.90
751.97	242.71
752.29	242.52
752.62	242.27
752.95	242.06
753.28	241.85
753.60	241.63
753.93	241.45
754.26	241.24
754.59	240.93
754.91	240.74
755.24	240.52
755.57	240.37
755.90	240.18
756.22	239.96
756.55	239.74
756.88	239.50
757.20	239.24
757.53	239.06
757.86	238.91
758.19	238.74
758.51	238.57
758.84	238.38
759.17	238.19
759.49	238.05
759.82	237.94
760.15	237.76
760.47	237.62
760.80	237.42
761.13	237.31
761.45	237.18
761.78	237.02
762.11	236.91
762.43	236.75
762.76	236.61
763.08	236.51
763.41	236.37
763.74	236.27
764.06	236.12
764.39	235.98
764.71	235.84
765.04	235.72
765.37	235.59
765.69	235.44
766.02	235.31
766.34	235.18
766.67	235.05
767.00	234.99
767.32	234.92
767.65	234.88
767.97	234.73
768.30	234.62
768.62	234.51
768.95	234.36
769.27	234.23
769.60	234.14
769.92	234.03
770.25	233.91
770.57	233.82
770.90	233.74
771.22	233.62
771.55	233.50
771.87	233.43
772.20	233.35
772.52	233.35
772.85	233.37
773.17	233.30
773.50	233.17
773.82	233.08
774.15	232.97
774.47	232.83
774.80	232.76
775.12	232.68
775.45	232.65
775.77	232.60
776.09	232.53
776.42	232.44
776.74	232.37
777.07	232.29
777.39	232.18
777.72	232.09
778.04	232.06
778.36	232.01
778.69	231.92
779.01	231.86
779.33	231.69
779.66	231.51
779.98	231.41
780.31	231.37
780.63	231.32
780.95	231.22
781.28	231.16
781.60	231.08
781.92	231.00
782.25	230.89
782.57	230.84
782.89	230.75
783.22	230.68
783.54	230.60
783.86	230.54
784.19	230.48
784.51	230.50
784.83	230.42
785.16	230.34
785.48	230.29
785.80	230.26
786.12	230.25
786.45	230.21
786.77	230.21
787.09	230.15
