SpectraSuite Data File
++++++++++++++++++++++++++++++++++++
Date: Fri Feb 01 15:11:53 EST 2013
User: group
Dark Spectrum Present: No
Reference Spectrum Present: No
Number of Sampled Component Spectra: 1
Spectrometers: USB2E7196
Integration Time (usec): 35000 (USB2E7196)
Spectra Averaged: 100 (USB2E7196)
Boxcar Smoothing: 10 (USB2E7196)
Correct for Electrical Dark: No (USB2E7196)
Strobe/Lamp Enabled: No (USB2E7196)
Correct for Detector Non-linearity: No (USB2E7196)
Correct for Stray Light: No (USB2E7196)
Number of Pixels in Processed Spectrum: 2048
>>>>>Begin Processed Spectral Data<<<<<
339.09	0.00
339.48	215.33
339.86	217.02
340.24	217.68
340.63	218.98
341.01	222.52
341.39	222.05
341.78	223.57
342.16	224.91
342.54	225.06
342.93	213.60
343.31	224.40
343.69	224.95
344.07	225.38
344.46	225.85
344.84	226.26
345.22	226.49
345.60	226.75
345.99	226.93
346.37	227.05
346.75	227.17
347.13	227.22
347.52	227.24
347.90	227.32
348.28	227.34
348.66	227.41
349.05	227.39
349.43	227.41
349.81	227.47
350.19	227.54
350.57	227.58
350.96	227.64
351.34	227.73
351.72	227.81
352.10	227.93
352.48	227.97
352.87	228.00
353.25	228.08
353.63	228.13
354.01	228.19
354.39	228.24
354.77	228.31
355.15	228.42
355.54	228.51
355.92	228.53
356.30	228.62
356.68	228.72
357.06	228.81
357.44	228.88
357.82	228.94
358.20	228.99
358.58	229.05
358.97	229.11
359.35	229.18
359.73	229.25
360.11	229.31
360.49	229.37
360.87	229.41
361.25	229.44
361.63	229.53
362.01	229.57
362.39	229.59
362.77	229.60
363.15	229.62
363.53	229.61
363.91	229.66
364.29	229.67
364.67	229.61
365.05	229.62
365.43	229.63
365.81	229.63
366.19	229.65
366.57	229.68
366.95	229.66
367.33	229.59
367.71	229.54
368.09	229.52
368.47	229.49
368.85	229.47
369.23	229.45
369.61	229.36
369.99	229.34
370.37	229.36
370.75	229.37
371.13	229.31
371.51	229.26
371.89	229.21
372.27	229.12
372.65	229.06
373.03	229.00
373.41	228.91
373.78	228.81
374.16	228.70
374.54	228.58
374.92	228.52
375.30	228.46
375.68	228.40
376.06	228.31
376.44	228.21
376.82	228.12
377.19	228.01
377.57	227.95
377.95	227.88
378.33	227.80
378.71	227.67
379.09	227.57
379.47	227.50
379.84	227.42
380.22	227.35
380.60	227.24
380.98	227.16
381.36	227.08
381.73	227.02
382.11	226.98
382.49	226.94
382.87	226.86
383.25	226.81
383.62	226.83
384.00	226.78
384.38	226.75
384.76	226.73
385.13	226.73
385.51	226.69
385.89	226.57
386.27	226.53
386.64	226.50
387.02	226.48
387.40	226.45
387.78	226.41
388.15	226.39
388.53	226.36
388.91	226.33
389.29	226.32
389.66	226.33
390.04	226.28
390.42	226.30
390.79	226.31
391.17	226.31
391.55	226.21
391.92	226.20
392.30	226.21
392.68	226.20
393.05	226.25
393.43	226.31
393.81	226.35
394.18	226.35
394.56	226.38
394.94	226.46
395.31	226.52
395.69	226.60
396.06	226.67
396.44	226.76
396.82	226.84
397.19	226.91
397.57	226.93
397.95	227.02
398.32	227.04
398.70	227.08
399.07	227.17
399.45	227.23
399.82	227.33
400.20	227.41
400.58	227.51
400.95	227.50
401.33	227.57
401.70	227.74
402.08	227.83
402.45	227.95
402.83	228.02
403.20	228.11
403.58	228.22
403.95	228.33
404.33	228.45
404.71	228.57
405.08	228.76
405.46	228.91
405.83	229.05
406.21	229.23
406.58	229.43
406.96	229.58
407.33	229.77
407.70	229.94
408.08	230.22
408.45	230.41
408.83	230.66
409.20	230.88
409.58	231.04
409.95	231.31
410.33	231.54
410.70	231.81
411.08	232.09
411.45	232.36
411.82	232.67
412.20	233.02
412.57	233.42
412.95	233.70
413.32	234.10
413.69	234.51
414.07	234.90
414.44	235.33
414.82	235.83
415.19	236.38
415.56	236.94
415.94	237.46
416.31	238.11
416.68	238.73
417.06	239.41
417.43	240.10
417.81	240.88
418.18	241.68
418.55	242.51
418.93	243.39
419.30	244.28
419.67	245.21
420.04	246.18
420.42	247.17
420.79	248.36
421.16	249.53
421.54	250.71
421.91	251.91
422.28	253.17
422.66	254.50
423.03	255.78
423.40	257.11
423.77	258.51
424.15	259.97
424.52	261.46
424.89	263.07
425.26	264.63
425.64	266.06
426.01	267.62
426.38	269.29
426.75	270.98
427.13	272.69
427.50	274.54
427.87	276.41
428.24	278.26
428.61	280.00
428.99	281.95
429.36	284.05
429.73	286.15
430.10	288.21
430.47	290.27
430.85	292.42
431.22	294.67
431.59	297.08
431.96	299.26
432.33	301.77
432.70	304.15
433.08	307.00
433.45	309.63
433.82	312.28
434.19	315.17
434.56	318.04
434.93	320.75
435.30	323.38
435.68	326.28
436.05	329.16
436.42	331.97
436.79	334.50
437.16	337.27
437.53	340.12
437.90	342.96
438.27	345.70
438.64	348.54
439.01	351.16
439.38	353.40
439.75	355.57
440.13	358.06
440.50	360.42
440.87	362.27
441.24	364.28
441.61	366.48
441.98	368.00
442.35	369.78
442.72	371.63
443.09	373.44
443.46	374.41
443.83	375.01
444.20	375.53
444.57	376.31
444.94	376.57
445.31	376.92
445.68	377.25
446.05	377.31
446.42	376.87
446.79	376.44
447.16	376.03
447.53	375.74
447.90	374.60
448.27	373.46
448.64	371.86
449.01	370.69
449.37	368.71
449.74	366.79
450.11	364.52
450.48	362.06
450.85	359.52
451.22	357.37
451.59	355.33
451.96	353.43
452.33	350.88
452.70	348.51
453.07	345.65
453.43	342.73
453.80	339.99
454.17	337.38
454.54	334.82
454.91	332.07
455.28	329.38
455.65	326.89
456.02	324.41
456.38	322.29
456.75	319.58
457.12	317.32
457.49	315.10
457.86	312.92
458.23	311.08
458.59	309.01
458.96	306.95
459.33	305.06
459.70	303.17
460.07	301.66
460.43	299.93
460.80	298.31
461.17	296.90
461.54	295.38
461.91	293.89
462.27	292.43
462.64	291.19
463.01	289.88
463.38	288.55
463.74	287.17
464.11	285.96
464.48	284.97
464.85	283.80
465.21	282.91
465.58	281.96
465.95	280.86
466.32	279.94
466.68	279.02
467.05	278.13
467.42	277.20
467.78	276.23
468.15	275.35
468.52	274.71
468.88	273.82
469.25	273.06
469.62	272.43
469.98	271.74
470.35	271.07
470.72	270.43
471.08	269.76
471.45	269.21
471.82	268.67
472.18	268.04
472.55	267.62
472.92	267.05
473.28	266.57
473.65	266.08
474.02	265.64
474.38	265.26
474.75	264.91
475.11	264.54
475.48	264.25
475.85	264.03
476.21	263.78
476.58	263.59
476.94	263.42
477.31	263.27
477.67	263.14
478.04	263.01
478.41	262.96
478.77	262.99
479.14	262.94
479.50	262.93
479.87	263.02
480.23	263.13
480.60	263.22
480.96	263.34
481.33	263.56
481.69	263.75
482.06	263.91
482.42	264.13
482.79	264.38
483.15	264.72
483.52	265.07
483.88	265.40
484.25	265.76
484.61	266.17
484.98	266.62
485.34	267.18
485.71	267.79
486.07	268.36
486.44	268.92
486.80	269.63
487.17	270.35
487.53	271.15
487.90	271.97
488.26	272.89
488.62	273.84
488.99	274.76
489.35	275.80
489.72	276.96
490.08	278.17
490.44	279.42
490.81	280.73
491.17	282.12
491.54	283.61
491.90	285.17
492.26	286.84
492.63	288.55
492.99	290.32
493.36	292.17
493.72	294.26
494.08	296.37
494.45	298.63
494.81	300.98
495.17	303.41
495.54	305.96
495.90	308.67
496.26	311.52
496.63	314.52
496.99	317.68
497.35	320.89
497.72	324.26
498.08	327.79
498.44	331.47
498.80	335.41
499.17	339.44
499.53	343.61
499.89	347.98
500.26	352.52
500.62	357.18
500.98	362.15
501.34	367.25
501.71	372.59
502.07	378.00
502.43	383.59
502.79	389.38
503.16	395.46
503.52	401.71
503.88	408.08
504.24	414.68
504.60	421.56
504.97	428.69
505.33	436.00
505.69	443.68
506.05	451.42
506.41	459.29
506.78	467.42
507.14	475.85
507.50	484.53
507.86	493.47
508.22	502.65
508.59	511.84
508.95	521.42
509.31	531.18
509.67	541.24
510.03	551.56
510.39	562.16
510.75	572.95
511.12	583.87
511.48	595.17
511.84	606.55
512.20	618.06
512.56	630.01
512.92	642.16
513.28	654.46
513.64	666.93
514.00	679.59
514.37	692.52
514.73	705.51
515.09	718.56
515.45	731.94
515.81	745.54
516.17	759.55
516.53	773.60
516.89	787.88
517.25	802.12
517.61	816.55
517.97	831.01
518.33	845.42
518.69	860.22
519.05	875.26
519.41	890.51
519.77	906.02
520.13	921.48
520.49	936.90
520.85	952.36
521.21	968.18
521.57	984.46
521.93	1000.36
522.29	1016.87
522.65	1033.15
523.01	1049.46
523.37	1065.61
523.73	1081.84
524.09	1098.03
524.45	1114.41
524.81	1131.08
525.17	1148.03
525.53	1165.08
525.89	1181.99
526.25	1198.97
526.61	1215.32
526.97	1232.18
527.33	1248.72
527.68	1265.56
528.04	1282.17
528.40	1298.92
528.76	1316.13
529.12	1332.86
529.48	1349.67
529.84	1365.75
530.20	1382.39
530.56	1399.46
530.91	1416.81
531.27	1433.60
531.63	1450.12
531.99	1466.68
532.35	1482.73
532.71	1498.66
533.07	1514.84
533.42	1530.86
533.78	1546.89
534.14	1563.27
534.50	1578.73
534.86	1594.60
535.21	1609.63
535.57	1625.56
535.93	1641.13
536.29	1655.81
536.65	1670.92
537.00	1685.78
537.36	1701.20
537.72	1715.90
538.08	1730.40
538.44	1744.32
538.79	1758.42
539.15	1772.29
539.51	1786.04
539.87	1800.46
540.22	1814.32
540.58	1828.29
540.94	1841.81
541.29	1854.92
541.65	1867.66
542.01	1881.00
542.37	1893.56
542.72	1906.23
543.08	1918.14
543.44	1930.58
543.79	1941.90
544.15	1953.04
544.51	1964.71
544.87	1975.70
545.22	1986.51
545.58	1996.69
545.94	2006.53
546.29	2016.37
546.65	2026.17
547.01	2035.51
547.36	2044.27
547.72	2052.72
548.07	2060.59
548.43	2068.76
548.79	2076.68
549.14	2084.23
549.50	2091.58
549.86	2099.27
550.21	2106.52
550.57	2113.73
550.92	2120.21
551.28	2127.34
551.64	2134.32
551.99	2140.98
552.35	2147.21
552.70	2153.31
553.06	2159.30
553.41	2165.62
553.77	2171.55
554.13	2177.59
554.48	2183.72
554.84	2189.11
555.19	2194.47
555.55	2199.48
555.90	2203.82
556.26	2208.57
556.61	2213.46
556.97	2217.48
557.32	2221.65
557.68	2225.82
558.03	2230.20
558.39	2234.03
558.74	2238.61
559.10	2242.50
559.45	2245.94
559.81	2250.30
560.16	2254.09
560.52	2257.28
560.87	2260.76
561.23	2263.50
561.58	2266.66
561.94	2269.17
562.29	2271.66
562.64	2274.24
563.00	2276.89
563.35	2280.44
563.71	2283.62
564.06	2286.57
564.42	2289.43
564.77	2291.66
565.12	2293.79
565.48	2295.44
565.83	2297.12
566.19	2298.34
566.54	2299.32
566.89	2300.41
567.25	2300.76
567.60	2302.17
567.96	2303.80
568.31	2304.56
568.66	2305.42
569.02	2305.58
569.37	2305.79
569.72	2306.41
570.08	2306.38
570.43	2306.38
570.78	2305.72
571.14	2304.03
571.49	2302.73
571.84	2302.33
572.20	2301.26
572.55	2300.19
572.90	2298.83
573.26	2297.36
573.61	2295.69
573.96	2293.64
574.31	2290.63
574.67	2287.56
575.02	2283.80
575.37	2280.28
575.72	2276.26
576.08	2272.97
576.43	2269.70
576.78	2266.05
577.13	2262.89
577.49	2259.65
577.84	2255.91
578.19	2252.14
578.54	2248.25
578.90	2243.84
579.25	2238.21
579.60	2233.07
579.95	2227.87
580.30	2222.65
580.66	2217.50
581.01	2212.37
581.36	2207.36
581.71	2203.02
582.06	2198.38
582.42	2193.81
582.77	2188.59
583.12	2183.89
583.47	2178.94
583.82	2173.76
584.17	2168.38
584.53	2162.75
584.88	2157.06
585.23	2151.29
585.58	2145.64
585.93	2140.39
586.28	2135.54
586.63	2130.35
586.98	2125.30
587.34	2120.53
587.69	2115.41
588.04	2110.02
588.39	2104.20
588.74	2097.65
589.09	2091.44
589.44	2084.59
589.79	2078.48
590.14	2072.60
590.49	2066.08
590.84	2059.78
591.19	2053.74
591.54	2047.10
591.89	2039.60
592.25	2032.78
592.60	2025.43
592.95	2017.63
593.30	2010.13
593.65	2002.43
594.00	1995.46
594.35	1987.98
594.70	1979.89
595.05	1972.63
595.40	1965.17
595.75	1957.64
596.10	1951.25
596.45	1944.35
596.80	1938.08
597.15	1931.42
597.50	1924.26
597.85	1917.70
598.19	1910.91
598.54	1903.77
598.89	1897.16
599.24	1891.12
599.59	1884.33
599.94	1878.06
600.29	1871.68
600.64	1865.11
600.99	1857.76
601.34	1850.74
601.69	1843.73
602.04	1836.73
602.39	1829.29
602.74	1822.50
603.08	1815.77
603.43	1809.10
603.78	1801.95
604.13	1794.66
604.48	1787.17
604.83	1780.36
605.18	1773.26
605.53	1765.32
605.87	1757.29
606.22	1750.04
606.57	1742.14
606.92	1734.86
607.27	1727.64
607.62	1720.81
607.96	1713.46
608.31	1706.60
608.66	1698.88
609.01	1691.29
609.36	1683.80
609.70	1675.75
610.05	1667.57
610.40	1659.78
610.75	1651.45
611.10	1643.70
611.44	1635.49
611.79	1627.66
612.14	1618.77
612.49	1609.75
612.83	1601.34
613.18	1593.23
613.53	1585.09
613.88	1576.60
614.22	1568.30
614.57	1559.82
614.92	1551.74
615.27	1544.18
615.61	1535.95
615.96	1528.03
616.31	1520.47
616.65	1512.99
617.00	1505.46
617.35	1497.77
617.70	1489.40
618.04	1480.82
618.39	1472.48
618.74	1464.71
619.08	1456.29
619.43	1448.92
619.78	1441.96
620.12	1434.78
620.47	1427.25
620.82	1419.15
621.16	1411.76
621.51	1404.11
621.85	1396.49
622.20	1387.93
622.55	1379.57
622.89	1371.75
623.24	1364.22
623.59	1356.82
623.93	1349.40
624.28	1342.28
624.62	1334.89
624.97	1327.85
625.32	1321.27
625.66	1314.41
626.01	1307.34
626.35	1299.87
626.70	1292.12
627.04	1284.36
627.39	1276.50
627.73	1269.04
628.08	1262.01
628.43	1254.63
628.77	1247.31
629.12	1239.66
629.46	1232.48
629.81	1225.25
630.15	1218.02
630.50	1210.67
630.84	1202.57
631.19	1194.63
631.53	1187.09
631.88	1179.58
632.22	1171.89
632.57	1164.51
632.91	1157.01
633.26	1149.64
633.60	1142.37
633.95	1135.33
634.29	1128.30
634.64	1121.73
634.98	1114.41
635.32	1107.36
635.67	1100.88
636.01	1094.24
636.36	1087.52
636.70	1081.12
637.05	1074.45
637.39	1068.04
637.73	1061.51
638.08	1055.63
638.42	1049.69
638.77	1043.23
639.11	1036.56
639.45	1030.24
639.80	1023.52
640.14	1016.99
640.49	1010.47
640.83	1004.17
641.17	997.89
641.52	991.68
641.86	985.33
642.20	979.51
642.55	973.24
642.89	966.69
643.23	960.23
643.58	954.43
643.92	948.27
644.26	942.20
644.61	936.24
644.95	930.28
645.29	923.69
645.64	916.94
645.98	910.65
646.32	904.92
646.66	898.94
647.01	893.25
647.35	887.62
647.69	881.80
648.04	876.34
648.38	870.57
648.72	864.55
649.06	858.37
649.41	852.44
649.75	846.42
650.09	840.51
650.43	834.68
650.78	828.53
651.12	822.52
651.46	816.84
651.80	811.00
652.14	805.54
652.49	800.23
652.83	795.07
653.17	789.36
653.51	783.64
653.85	778.21
654.20	772.53
654.54	766.56
654.88	760.84
655.22	754.99
655.56	749.37
655.90	743.91
656.25	738.72
656.59	733.48
656.93	728.38
657.27	723.23
657.61	717.84
657.95	712.85
658.29	707.78
658.64	702.50
658.98	697.26
659.32	691.78
659.66	686.53
660.00	681.26
660.34	676.30
660.68	671.39
661.02	666.42
661.36	661.81
661.70	657.35
662.05	652.92
662.39	648.58
662.73	644.10
663.07	639.73
663.41	635.27
663.75	630.73
664.09	626.26
664.43	621.92
664.77	617.77
665.11	613.52
665.45	609.43
665.79	605.39
666.13	601.36
666.47	597.31
666.81	593.16
667.15	589.09
667.49	585.19
667.83	581.41
668.17	577.48
668.51	573.37
668.85	569.31
669.19	565.48
669.53	561.63
669.87	557.79
670.21	554.11
670.55	550.53
670.89	547.16
671.23	543.70
671.57	540.18
671.91	536.70
672.25	533.19
672.58	529.73
672.92	526.31
673.26	523.08
673.60	519.97
673.94	516.86
674.28	513.97
674.62	511.07
674.96	508.04
675.30	505.16
675.64	502.24
675.97	499.55
676.31	496.74
676.65	493.82
676.99	491.10
677.33	488.25
677.67	485.40
678.01	482.35
678.34	479.37
678.68	476.47
679.02	473.63
679.36	470.90
679.70	468.20
680.04	465.43
680.37	462.55
680.71	459.76
681.05	457.14
681.39	454.42
681.73	451.82
682.06	449.28
682.40	446.68
682.74	444.15
683.08	441.58
683.42	439.01
683.75	436.56
684.09	433.99
684.43	431.50
684.77	429.07
685.10	426.72
685.44	424.48
685.78	422.29
686.12	420.05
686.45	417.79
686.79	415.44
687.13	413.34
687.46	411.20
687.80	409.10
688.14	406.89
688.48	404.86
688.81	402.59
689.15	400.40
689.49	398.30
689.82	396.27
690.16	394.23
690.50	392.25
690.83	390.28
691.17	388.34
691.51	386.47
691.84	384.64
692.18	382.72
692.52	380.69
692.85	378.78
693.19	376.90
693.52	375.09
693.86	373.29
694.20	371.47
694.53	369.66
694.87	367.77
695.21	366.07
695.54	364.27
695.88	362.59
696.21	360.88
696.55	359.22
696.88	357.50
697.22	355.82
697.56	354.20
697.89	352.57
698.23	351.00
698.56	349.42
698.90	347.86
699.23	346.21
699.57	344.69
699.90	343.12
700.24	341.62
700.58	340.10
700.91	338.63
701.25	337.21
701.58	335.86
701.92	334.58
702.25	333.12
702.59	331.75
702.92	330.41
703.26	329.10
703.59	327.78
703.93	326.61
704.26	325.41
704.60	324.16
704.93	322.89
705.26	321.65
705.60	320.45
705.93	319.25
706.27	318.25
706.60	317.22
706.94	316.15
707.27	315.04
707.61	313.96
707.94	312.94
708.27	311.84
708.61	310.77
708.94	309.74
709.28	308.82
709.61	307.90
709.94	306.95
710.28	305.99
710.61	305.01
710.95	303.92
711.28	302.99
711.61	302.03
711.95	301.13
712.28	300.19
712.61	299.23
712.95	298.31
713.28	297.45
713.61	296.55
713.95	295.66
714.28	294.82
714.61	293.96
714.95	293.09
715.28	292.26
715.61	291.39
715.95	290.53
716.28	289.65
716.61	288.76
716.95	287.92
717.28	287.18
717.61	286.44
717.94	285.72
718.28	284.93
718.61	284.22
718.94	283.55
719.27	282.87
719.61	282.25
719.94	281.61
720.27	280.86
720.60	280.22
720.94	279.60
721.27	278.98
721.60	278.45
721.93	277.88
722.27	277.37
722.60	276.82
722.93	276.25
723.26	275.74
723.59	275.21
723.93	274.67
724.26	274.09
724.59	273.55
724.92	273.02
725.25	272.53
725.59	272.02
725.92	271.46
726.25	270.98
726.58	270.48
726.91	269.98
727.24	269.52
727.57	269.06
727.91	268.54
728.24	268.08
728.57	267.56
728.90	267.08
729.23	266.57
729.56	266.13
729.89	265.65
730.22	265.15
730.55	264.71
730.89	264.29
731.22	263.87
731.55	263.47
731.88	263.03
732.21	262.58
732.54	262.13
732.87	261.74
733.20	261.32
733.53	260.90
733.86	260.53
734.19	260.12
734.52	259.71
734.85	259.44
735.18	259.04
735.51	258.68
735.84	258.32
736.17	257.97
736.50	257.59
736.83	257.36
737.16	257.05
737.49	256.72
737.82	256.33
738.15	255.98
738.48	255.62
738.81	255.30
739.14	254.95
739.47	254.61
739.80	254.27
740.13	253.95
740.46	253.64
740.79	253.29
741.12	252.99
741.45	252.66
741.78	252.26
742.11	251.99
742.44	251.62
742.77	251.36
743.10	251.06
743.43	250.75
743.75	250.33
744.08	250.17
744.41	249.87
744.74	249.64
745.07	249.38
745.40	249.13
745.73	248.89
746.06	248.63
746.39	248.40
746.71	248.13
747.04	247.88
747.37	247.60
747.70	247.38
748.03	247.12
748.36	246.92
748.68	246.70
749.01	246.40
749.34	246.22
749.67	245.93
750.00	245.69
750.33	245.55
750.65	245.35
750.98	244.97
751.31	244.77
751.64	244.53
751.97	244.34
752.29	244.11
752.62	243.86
752.95	243.66
753.28	243.44
753.60	243.27
753.93	243.07
754.26	242.89
754.59	242.64
754.91	242.49
755.24	242.27
755.57	242.09
755.90	241.91
756.22	241.67
756.55	241.51
756.88	241.34
757.20	241.13
757.53	240.93
757.86	240.80
758.19	240.62
758.51	240.50
758.84	240.31
759.17	240.16
759.49	240.02
759.82	239.95
760.15	239.82
760.47	239.68
760.80	239.55
761.13	239.45
761.45	239.32
761.78	239.13
762.11	239.03
762.43	238.91
762.76	238.81
763.08	238.70
763.41	238.56
763.74	238.45
764.06	238.30
764.39	238.19
764.71	238.06
765.04	237.92
765.37	237.77
765.69	237.64
766.02	237.52
766.34	237.38
766.67	237.20
767.00	237.09
767.32	237.02
767.65	236.94
767.97	236.81
768.30	236.70
768.62	236.62
768.95	236.47
769.27	236.35
769.60	236.25
769.92	236.17
770.25	236.03
770.57	235.89
770.90	235.79
771.22	235.67
771.55	235.56
771.87	235.46
772.20	235.34
772.52	235.33
772.85	235.33
773.17	235.21
773.50	235.07
773.82	234.97
774.15	234.83
774.47	234.71
774.80	234.59
775.12	234.50
775.45	234.40
775.77	234.30
776.09	234.23
776.42	234.13
776.74	234.07
777.07	234.02
777.39	233.93
777.72	233.86
778.04	233.77
778.36	233.71
778.69	233.67
779.01	233.62
779.33	233.49
779.66	233.33
779.98	233.26
780.31	233.23
780.63	233.21
780.95	233.17
781.28	233.10
781.60	233.05
781.92	232.98
782.25	232.90
782.57	232.86
782.89	232.76
783.22	232.68
783.54	232.58
783.86	232.53
784.19	232.48
784.51	232.45
784.83	232.40
785.16	232.32
785.48	232.23
785.80	232.18
786.12	232.12
786.45	232.04
786.77	232.02
787.09	231.94
