SpectraSuite Data File
++++++++++++++++++++++++++++++++++++
Date: Fri Feb 01 15:35:27 EST 2013
User: group
Dark Spectrum Present: No
Reference Spectrum Present: No
Number of Sampled Component Spectra: 1
Spectrometers: USB2E7196
Integration Time (usec): 35000 (USB2E7196)
Spectra Averaged: 100 (USB2E7196)
Boxcar Smoothing: 10 (USB2E7196)
Correct for Electrical Dark: No (USB2E7196)
Strobe/Lamp Enabled: No (USB2E7196)
Correct for Detector Non-linearity: No (USB2E7196)
Correct for Stray Light: No (USB2E7196)
Number of Pixels in Processed Spectrum: 2048
>>>>>Begin Processed Spectral Data<<<<<
339.09	0.00
339.48	214.75
339.86	216.27
340.24	217.62
340.63	219.84
341.01	222.34
341.39	221.88
341.78	223.16
342.16	224.34
342.54	224.11
342.93	213.20
343.31	223.99
343.69	224.53
344.07	224.99
344.46	225.42
344.84	225.76
345.22	225.95
345.60	226.22
345.99	226.38
346.37	226.49
346.75	226.65
347.13	226.70
347.52	226.81
347.90	226.87
348.28	226.90
348.66	227.00
349.05	226.99
349.43	227.02
349.81	227.04
350.19	227.09
350.57	227.13
350.96	227.18
351.34	227.24
351.72	227.33
352.10	227.42
352.48	227.50
352.87	227.55
353.25	227.65
353.63	227.72
354.01	227.83
354.39	227.89
354.77	227.95
355.15	228.05
355.54	228.09
355.92	228.15
356.30	228.27
356.68	228.36
357.06	228.46
357.44	228.49
357.82	228.58
358.20	228.66
358.58	228.71
358.97	228.76
359.35	228.87
359.73	228.96
360.11	228.99
360.49	229.02
360.87	229.07
361.25	229.14
361.63	229.18
362.01	229.19
362.39	229.27
362.77	229.29
363.15	229.32
363.53	229.39
363.91	229.42
364.29	229.44
364.67	229.40
365.05	229.39
365.43	229.44
365.81	229.42
366.19	229.43
366.57	229.46
366.95	229.43
367.33	229.37
367.71	229.31
368.09	229.33
368.47	229.32
368.85	229.29
369.23	229.26
369.61	229.21
369.99	229.20
370.37	229.17
370.75	229.19
371.13	229.14
371.51	229.04
371.89	228.99
372.27	228.93
372.65	228.87
373.03	228.83
373.41	228.78
373.78	228.75
374.16	228.65
374.54	228.56
374.92	228.50
375.30	228.48
375.68	228.41
376.06	228.37
376.44	228.29
376.82	228.23
377.19	228.17
377.57	228.09
377.95	227.99
378.33	227.92
378.71	227.78
379.09	227.74
379.47	227.70
379.84	227.60
380.22	227.51
380.60	227.44
380.98	227.35
381.36	227.26
381.73	227.17
382.11	227.12
382.49	227.09
382.87	227.04
383.25	226.94
383.62	227.01
384.00	226.92
384.38	226.88
384.76	226.86
385.13	226.82
385.51	226.77
385.89	226.73
386.27	226.69
386.64	226.66
387.02	226.59
387.40	226.52
387.78	226.51
388.15	226.48
388.53	226.44
388.91	226.39
389.29	226.37
389.66	226.34
390.04	226.31
390.42	226.28
390.79	226.29
391.17	226.25
391.55	226.11
391.92	226.11
392.30	226.13
392.68	226.12
393.05	226.13
393.43	226.15
393.81	226.18
394.18	226.15
394.56	226.19
394.94	226.26
395.31	226.28
395.69	226.30
396.06	226.32
396.44	226.34
396.82	226.37
397.19	226.45
397.57	226.49
397.95	226.52
398.32	226.53
398.70	226.58
399.07	226.67
399.45	226.70
399.82	226.77
400.20	226.81
400.58	226.87
400.95	226.89
401.33	226.96
401.70	227.07
402.08	227.17
402.45	227.23
402.83	227.33
403.20	227.45
403.58	227.55
403.95	227.68
404.33	227.82
404.71	227.95
405.08	228.14
405.46	228.28
405.83	228.45
406.21	228.62
406.58	228.79
406.96	228.96
407.33	229.17
407.70	229.35
408.08	229.61
408.45	229.82
408.83	230.06
409.20	230.30
409.58	230.51
409.95	230.79
410.33	231.09
410.70	231.34
411.08	231.65
411.45	231.95
411.82	232.27
412.20	232.62
412.57	233.08
412.95	233.38
413.32	233.76
413.69	234.15
414.07	234.59
414.44	235.08
414.82	235.56
415.19	236.14
415.56	236.72
415.94	237.25
416.31	237.90
416.68	238.52
417.06	239.23
417.43	239.91
417.81	240.69
418.18	241.45
418.55	242.27
418.93	243.17
419.30	244.12
419.67	245.06
420.04	246.03
420.42	247.00
420.79	248.18
421.16	249.36
421.54	250.57
421.91	251.78
422.28	253.03
422.66	254.35
423.03	255.63
423.40	256.95
423.77	258.40
424.15	259.81
424.52	261.31
424.89	262.92
425.26	264.45
425.64	265.92
426.01	267.54
426.38	269.21
426.75	270.84
427.13	272.58
427.50	274.40
427.87	276.27
428.24	278.13
428.61	279.85
428.99	281.81
429.36	283.93
429.73	285.98
430.10	287.94
430.47	290.03
430.85	292.17
431.22	294.45
431.59	296.85
431.96	299.10
432.33	301.63
432.70	303.98
433.08	306.82
433.45	309.46
433.82	312.06
434.19	314.97
434.56	317.79
434.93	320.42
435.30	323.01
435.68	325.90
436.05	328.74
436.42	331.59
436.79	334.13
437.16	336.83
437.53	339.67
437.90	342.54
438.27	345.29
438.64	348.08
439.01	350.69
439.38	352.89
439.75	355.09
440.13	357.56
440.50	359.89
440.87	361.72
441.24	363.63
441.61	365.79
441.98	367.27
442.35	369.09
442.72	370.96
443.09	372.83
443.46	373.83
443.83	374.43
444.20	374.91
444.57	375.72
444.94	376.00
445.31	376.35
445.68	376.71
446.05	376.76
446.42	376.41
446.79	375.95
447.16	375.51
447.53	375.18
447.90	374.02
448.27	372.87
448.64	371.28
449.01	370.14
449.37	368.16
449.74	366.26
450.11	363.98
450.48	361.43
450.85	358.87
451.22	356.72
451.59	354.67
451.96	352.73
452.33	350.11
452.70	347.76
453.07	344.92
453.43	342.00
453.80	339.25
454.17	336.57
454.54	334.01
454.91	331.29
455.28	328.60
455.65	326.10
456.02	323.68
456.38	321.52
456.75	318.84
457.12	316.58
457.49	314.40
457.86	312.24
458.23	310.43
458.59	308.36
458.96	306.30
459.33	304.42
459.70	302.53
460.07	301.06
460.43	299.35
460.80	297.71
461.17	296.30
461.54	294.74
461.91	293.32
462.27	291.89
462.64	290.63
463.01	289.31
463.38	288.03
463.74	286.68
464.11	285.56
464.48	284.53
464.85	283.41
465.21	282.47
465.58	281.54
465.95	280.46
466.32	279.55
466.68	278.64
467.05	277.77
467.42	276.87
467.78	275.94
468.15	275.05
468.52	274.41
468.88	273.51
469.25	272.76
469.62	272.15
469.98	271.42
470.35	270.76
470.72	270.12
471.08	269.43
471.45	268.86
471.82	268.32
472.18	267.76
472.55	267.33
472.92	266.83
473.28	266.38
473.65	265.90
474.02	265.46
474.38	265.09
474.75	264.76
475.11	264.42
475.48	264.14
475.85	263.94
476.21	263.74
476.58	263.57
476.94	263.43
477.31	263.24
477.67	263.15
478.04	263.06
478.41	263.00
478.77	263.06
479.14	262.98
479.50	262.99
479.87	263.01
480.23	263.10
480.60	263.18
480.96	263.27
481.33	263.49
481.69	263.69
482.06	263.89
482.42	264.08
482.79	264.37
483.15	264.72
483.52	265.03
483.88	265.34
484.25	265.71
484.61	266.12
484.98	266.58
485.34	267.13
485.71	267.71
486.07	268.33
486.44	268.89
486.80	269.57
487.17	270.24
487.53	271.07
487.90	271.94
488.26	272.87
488.62	273.87
488.99	274.83
489.35	275.89
489.72	276.99
490.08	278.18
490.44	279.41
490.81	280.74
491.17	282.14
491.54	283.63
491.90	285.17
492.26	286.85
492.63	288.56
492.99	290.30
493.36	292.22
493.72	294.22
494.08	296.33
494.45	298.63
494.81	301.06
495.17	303.49
495.54	306.04
495.90	308.69
496.26	311.46
496.63	314.47
496.99	317.57
497.35	320.86
497.72	324.26
498.08	327.80
498.44	331.49
498.80	335.36
499.17	339.41
499.53	343.63
499.89	348.01
500.26	352.56
500.62	357.25
500.98	362.25
501.34	367.34
501.71	372.67
502.07	378.18
502.43	383.72
502.79	389.51
503.16	395.63
503.52	401.92
503.88	408.33
504.24	414.95
504.60	421.85
504.97	428.93
505.33	436.21
505.69	443.91
506.05	451.71
506.41	459.57
506.78	467.73
507.14	476.11
507.50	484.80
507.86	493.78
508.22	502.98
508.59	512.14
508.95	521.77
509.31	531.57
509.67	541.57
510.03	551.93
510.39	562.49
510.75	573.32
511.12	584.23
511.48	595.51
511.84	606.95
512.20	618.45
512.56	630.39
512.92	642.60
513.28	654.92
513.64	667.35
514.00	680.14
514.37	693.03
514.73	706.16
515.09	719.21
515.45	732.52
515.81	746.13
516.17	760.14
516.53	774.29
516.89	788.49
517.25	802.66
517.61	817.07
517.97	831.59
518.33	846.02
518.69	860.81
519.05	875.87
519.41	891.11
519.77	906.72
520.13	922.35
520.49	937.75
520.85	953.07
521.21	968.86
521.57	985.12
521.93	1000.97
522.29	1017.40
522.65	1033.74
523.01	1050.00
523.37	1066.07
523.73	1082.27
524.09	1098.29
524.45	1114.67
524.81	1131.42
525.17	1148.27
525.53	1165.18
525.89	1181.98
526.25	1198.85
526.61	1215.28
526.97	1232.02
527.33	1248.44
527.68	1265.01
528.04	1281.55
528.40	1298.28
528.76	1315.42
529.12	1332.05
529.48	1348.99
529.84	1365.09
530.20	1381.80
530.56	1398.88
530.91	1416.38
531.27	1433.12
531.63	1449.73
531.99	1466.34
532.35	1482.37
532.71	1498.28
533.07	1514.58
533.42	1530.50
533.78	1546.55
534.14	1562.83
534.50	1578.10
534.86	1594.09
535.21	1609.24
535.57	1625.13
535.93	1640.69
536.29	1655.42
536.65	1670.42
537.00	1685.20
537.36	1700.35
537.72	1714.79
538.08	1729.20
538.44	1742.94
538.79	1756.94
539.15	1770.59
539.51	1784.29
539.87	1798.57
540.22	1812.34
540.58	1826.21
540.94	1839.71
541.29	1852.70
541.65	1865.33
542.01	1878.73
542.37	1891.11
542.72	1903.48
543.08	1915.35
543.44	1927.71
543.79	1938.96
544.15	1949.92
544.51	1961.51
544.87	1972.62
545.22	1983.41
545.58	1993.68
545.94	2003.44
546.29	2013.24
546.65	2023.09
547.01	2032.26
547.36	2041.00
547.72	2049.54
548.07	2057.31
548.43	2065.42
548.79	2073.36
549.14	2080.99
549.50	2088.24
549.86	2095.88
550.21	2103.18
550.57	2110.43
550.92	2117.08
551.28	2124.15
551.64	2131.29
551.99	2137.83
552.35	2143.95
552.70	2150.11
553.06	2156.01
553.41	2162.35
553.77	2168.42
554.13	2174.56
554.48	2180.78
554.84	2186.08
555.19	2191.40
555.55	2196.56
555.90	2201.00
556.26	2205.95
556.61	2210.78
556.97	2214.95
557.32	2219.08
557.68	2223.31
558.03	2227.59
558.39	2231.25
558.74	2235.93
559.10	2239.72
559.45	2243.29
559.81	2247.71
560.16	2251.58
560.52	2254.85
560.87	2258.37
561.23	2261.05
561.58	2263.99
561.94	2266.41
562.29	2269.00
562.64	2271.56
563.00	2274.14
563.35	2277.73
563.71	2280.80
564.06	2283.78
564.42	2286.85
564.77	2289.29
565.12	2291.50
565.48	2293.30
565.83	2295.14
566.19	2296.34
566.54	2297.33
566.89	2298.50
567.25	2298.86
567.60	2300.19
567.96	2301.85
568.31	2302.66
568.66	2303.76
569.02	2304.29
569.37	2304.73
569.72	2305.50
570.08	2305.68
570.43	2305.57
570.78	2305.02
571.14	2303.52
571.49	2302.39
571.84	2301.84
572.20	2300.58
572.55	2299.57
572.90	2298.08
573.26	2296.78
573.61	2295.16
573.96	2293.49
574.31	2290.45
574.67	2287.52
575.02	2283.86
575.37	2280.39
575.72	2276.41
576.08	2272.93
576.43	2269.51
576.78	2265.71
577.13	2262.47
577.49	2259.43
577.84	2256.00
578.19	2251.99
578.54	2248.35
578.90	2244.00
579.25	2238.52
579.60	2233.67
579.95	2228.55
580.30	2223.34
580.66	2217.98
581.01	2213.00
581.36	2207.92
581.71	2203.61
582.06	2199.17
582.42	2194.68
582.77	2189.51
583.12	2184.94
583.47	2180.23
583.82	2175.21
584.17	2169.96
584.53	2164.50
584.88	2158.64
585.23	2152.81
585.58	2147.46
585.93	2141.88
586.28	2137.08
586.63	2131.87
586.98	2126.71
587.34	2122.13
587.69	2117.31
588.04	2112.03
588.39	2106.28
588.74	2099.84
589.09	2093.79
589.44	2086.83
589.79	2080.79
590.14	2075.06
590.49	2068.42
590.84	2062.12
591.19	2056.06
591.54	2049.52
591.89	2042.00
592.25	2035.06
592.60	2027.82
592.95	2020.10
593.30	2012.77
593.65	2005.05
594.00	1998.11
594.35	1990.94
594.70	1982.72
595.05	1975.37
595.40	1967.94
595.75	1960.32
596.10	1954.00
596.45	1947.12
596.80	1940.94
597.15	1934.13
597.50	1926.91
597.85	1920.46
598.19	1913.49
598.54	1906.35
598.89	1899.74
599.24	1893.85
599.59	1887.19
599.94	1880.95
600.29	1874.54
600.64	1867.86
600.99	1860.38
601.34	1853.38
601.69	1846.37
602.04	1839.49
602.39	1832.12
602.74	1825.29
603.08	1818.52
603.43	1811.65
603.78	1804.46
604.13	1797.15
604.48	1789.87
604.83	1783.06
605.18	1776.05
605.53	1768.14
605.87	1760.17
606.22	1752.97
606.57	1744.93
606.92	1737.53
607.27	1730.38
607.62	1723.52
607.96	1716.25
608.31	1709.69
608.66	1702.11
609.01	1694.47
609.36	1686.87
609.70	1678.87
610.05	1670.81
610.40	1663.13
610.75	1654.81
611.10	1647.04
611.44	1638.66
611.79	1630.64
612.14	1621.85
612.49	1612.66
612.83	1604.29
613.18	1596.09
613.53	1587.97
613.88	1579.45
614.22	1571.25
614.57	1562.68
614.92	1554.54
615.27	1546.85
615.61	1538.34
615.96	1530.25
616.31	1522.60
616.65	1515.22
617.00	1507.70
617.35	1500.13
617.70	1491.67
618.04	1483.31
618.39	1475.08
618.74	1467.54
619.08	1459.29
619.43	1451.80
619.78	1444.95
620.12	1437.84
620.47	1430.34
620.82	1422.06
621.16	1414.73
621.51	1407.17
621.85	1399.38
622.20	1390.85
622.55	1382.61
622.89	1374.88
623.24	1367.37
623.59	1360.08
623.93	1352.57
624.28	1345.36
624.62	1337.84
624.97	1330.78
625.32	1324.09
625.66	1317.16
626.01	1309.92
626.35	1302.44
626.70	1294.71
627.04	1286.94
627.39	1279.08
627.73	1271.61
628.08	1264.85
628.43	1257.45
628.77	1250.03
629.12	1242.54
629.46	1235.46
629.81	1228.05
630.15	1220.87
630.50	1213.40
630.84	1205.16
631.19	1197.32
631.53	1189.79
631.88	1182.17
632.22	1174.58
632.57	1167.18
632.91	1159.58
633.26	1152.24
633.60	1144.89
633.95	1137.79
634.29	1130.77
634.64	1124.13
634.98	1116.76
635.32	1109.48
635.67	1103.01
636.01	1096.37
636.36	1089.56
636.70	1083.10
637.05	1076.52
637.39	1070.01
637.73	1063.49
638.08	1057.56
638.42	1051.48
638.77	1044.99
639.11	1038.32
639.45	1031.93
639.80	1025.22
640.14	1018.74
640.49	1012.17
640.83	1005.92
641.17	999.63
641.52	993.25
641.86	986.78
642.20	980.92
642.55	974.65
642.89	968.02
643.23	961.57
643.58	955.81
643.92	949.52
644.26	943.41
644.61	937.41
644.95	931.44
645.29	924.84
645.64	918.05
645.98	911.80
646.32	906.09
646.66	899.99
647.01	894.26
647.35	888.57
647.69	882.72
648.04	877.12
648.38	871.32
648.72	865.28
649.06	859.21
649.41	853.34
649.75	847.35
650.09	841.52
650.43	835.72
650.78	829.60
651.12	823.76
651.46	818.01
651.80	812.28
652.14	806.81
652.49	801.44
652.83	796.35
653.17	790.59
653.51	784.79
653.85	779.50
654.20	773.80
654.54	767.78
654.88	762.04
655.22	756.14
655.56	750.46
655.90	745.07
656.25	739.80
656.59	734.47
656.93	729.39
657.27	724.08
657.61	718.64
657.95	713.48
658.29	708.34
658.64	703.21
658.98	697.94
659.32	692.52
659.66	687.32
660.00	681.96
660.34	677.03
660.68	672.11
661.02	666.97
661.36	662.27
661.70	657.84
662.05	653.56
662.39	649.29
662.73	644.87
663.07	640.55
663.41	636.11
663.75	631.66
664.09	627.16
664.43	622.94
664.77	618.81
665.11	614.62
665.45	610.51
665.79	606.36
666.13	602.17
666.47	598.12
666.81	594.01
667.15	589.92
667.49	586.08
667.83	582.38
668.17	578.53
668.51	574.45
668.85	570.45
669.19	566.59
669.53	562.68
669.87	558.74
670.21	555.00
670.55	551.40
670.89	547.94
671.23	544.51
671.57	540.96
671.91	537.44
672.25	533.97
672.58	530.42
672.92	527.01
673.26	523.85
673.60	520.67
673.94	517.51
674.28	514.62
674.62	511.63
674.96	508.48
675.30	505.57
675.64	502.64
675.97	499.84
676.31	496.98
676.65	494.10
676.99	491.48
677.33	488.64
677.67	485.83
678.01	482.79
678.34	479.76
678.68	476.85
679.02	474.04
679.36	471.28
679.70	468.53
680.04	465.83
680.37	462.91
680.71	460.12
681.05	457.51
681.39	454.79
681.73	452.11
682.06	449.59
682.40	447.04
682.74	444.50
683.08	441.99
683.42	439.37
683.75	436.83
684.09	434.24
684.43	431.77
684.77	429.33
685.10	427.01
685.44	424.74
685.78	422.52
686.12	420.32
686.45	417.94
686.79	415.67
687.13	413.45
687.46	411.36
687.80	409.16
688.14	406.99
688.48	404.97
688.81	402.69
689.15	400.49
689.49	398.33
689.82	396.25
690.16	394.15
690.50	392.17
690.83	390.30
691.17	388.36
691.51	386.48
691.84	384.61
692.18	382.67
692.52	380.67
692.85	378.71
693.19	376.83
693.52	375.07
693.86	373.28
694.20	371.51
694.53	369.72
694.87	367.92
695.21	366.10
695.54	364.26
695.88	362.63
696.21	360.98
696.55	359.33
696.88	357.71
697.22	356.06
697.56	354.46
697.89	352.80
698.23	351.20
698.56	349.60
698.90	348.05
699.23	346.39
699.57	344.84
699.90	343.34
700.24	341.76
700.58	340.21
700.91	338.74
701.25	337.32
701.58	335.94
701.92	334.61
702.25	333.25
702.59	331.87
702.92	330.54
703.26	329.24
703.59	327.94
703.93	326.71
704.26	325.47
704.60	324.15
704.93	322.87
705.26	321.62
705.60	320.42
705.93	319.21
706.27	318.21
706.60	317.21
706.94	316.07
707.27	314.99
707.61	313.95
707.94	312.89
708.27	311.77
708.61	310.70
708.94	309.68
709.28	308.70
709.61	307.75
709.94	306.79
710.28	305.73
710.61	304.75
710.95	303.73
711.28	302.80
711.61	301.89
711.95	300.95
712.28	299.99
712.61	299.04
712.95	298.13
713.28	297.20
713.61	296.26
713.95	295.42
714.28	294.54
714.61	293.65
714.95	292.84
715.28	291.99
715.61	291.11
715.95	290.24
716.28	289.39
716.61	288.54
716.95	287.76
717.28	287.03
717.61	286.26
717.94	285.49
718.28	284.66
718.61	283.91
718.94	283.24
719.27	282.58
719.61	281.90
719.94	281.25
720.27	280.51
720.60	279.81
720.94	279.19
721.27	278.60
721.60	278.02
721.93	277.39
722.27	276.81
722.60	276.28
722.93	275.71
723.26	275.15
723.59	274.59
723.93	274.02
724.26	273.44
724.59	272.87
724.92	272.35
725.25	271.88
725.59	271.36
725.92	270.87
726.25	270.36
726.58	269.90
726.91	269.36
727.24	268.96
727.57	268.52
727.91	267.98
728.24	267.50
728.57	267.01
728.90	266.57
729.23	266.08
729.56	265.61
729.89	265.17
730.22	264.71
730.55	264.28
730.89	263.80
731.22	263.40
731.55	262.98
731.88	262.55
732.21	262.14
732.54	261.72
732.87	261.33
733.20	260.91
733.53	260.51
733.86	260.17
734.19	259.74
734.52	259.38
734.85	259.10
735.18	258.70
735.51	258.34
735.84	257.96
736.17	257.64
736.50	257.26
736.83	257.02
737.16	256.67
737.49	256.34
737.82	256.06
738.15	255.71
738.48	255.36
738.81	255.04
739.14	254.71
739.47	254.41
739.80	254.07
740.13	253.80
740.46	253.44
740.79	253.11
741.12	252.81
741.45	252.48
741.78	252.13
742.11	251.85
742.44	251.55
742.77	251.27
743.10	250.94
743.43	250.63
743.75	250.26
744.08	250.12
744.41	249.85
744.74	249.56
745.07	249.30
745.40	249.11
745.73	248.88
746.06	248.62
746.39	248.34
746.71	248.08
747.04	247.78
747.37	247.52
747.70	247.28
748.03	247.03
748.36	246.79
748.68	246.57
749.01	246.32
749.34	246.05
749.67	245.82
750.00	245.62
750.33	245.47
750.65	245.25
750.98	244.92
751.31	244.68
751.64	244.45
751.97	244.28
752.29	244.02
752.62	243.77
752.95	243.55
753.28	243.33
753.60	243.10
753.93	242.96
754.26	242.80
754.59	242.59
754.91	242.40
755.24	242.20
755.57	241.97
755.90	241.80
756.22	241.62
756.55	241.42
756.88	241.22
757.20	240.98
757.53	240.80
757.86	240.59
758.19	240.44
758.51	240.25
758.84	240.04
759.17	239.85
759.49	239.67
759.82	239.55
760.15	239.41
760.47	239.28
760.80	239.08
761.13	238.94
761.45	238.77
761.78	238.63
762.11	238.52
762.43	238.39
762.76	238.26
763.08	238.15
763.41	238.02
763.74	237.89
764.06	237.74
764.39	237.58
764.71	237.45
765.04	237.29
765.37	237.14
765.69	237.02
766.02	236.89
766.34	236.76
766.67	236.60
767.00	236.48
767.32	236.40
767.65	236.36
767.97	236.23
768.30	236.13
768.62	235.99
768.95	235.81
769.27	235.70
769.60	235.58
769.92	235.45
770.25	235.32
770.57	235.19
770.90	235.10
771.22	234.97
771.55	234.91
771.87	234.80
772.20	234.71
772.52	234.67
772.85	234.69
773.17	234.61
773.50	234.51
773.82	234.42
774.15	234.28
774.47	234.12
774.80	234.01
775.12	233.88
775.45	233.82
775.77	233.78
776.09	233.72
776.42	233.64
776.74	233.59
777.07	233.52
777.39	233.46
777.72	233.37
778.04	233.34
778.36	233.25
778.69	233.20
779.01	233.16
779.33	233.03
779.66	232.90
779.98	232.84
780.31	232.77
780.63	232.72
780.95	232.67
781.28	232.60
781.60	232.55
781.92	232.53
782.25	232.50
782.57	232.44
782.89	232.35
783.22	232.30
783.54	232.22
783.86	232.23
784.19	232.18
784.51	232.19
784.83	232.13
785.16	232.09
785.48	232.07
785.80	232.03
786.12	232.02
786.45	232.01
786.77	231.97
787.09	231.96
