SpectraSuite Data File
++++++++++++++++++++++++++++++++++++
Date: Fri Feb 01 17:49:44 EST 2013
User: group
Dark Spectrum Present: No
Reference Spectrum Present: No
Number of Sampled Component Spectra: 1
Spectrometers: USB2E7196
Integration Time (usec): 35000 (USB2E7196)
Spectra Averaged: 100 (USB2E7196)
Boxcar Smoothing: 10 (USB2E7196)
Correct for Electrical Dark: No (USB2E7196)
Strobe/Lamp Enabled: No (USB2E7196)
Correct for Detector Non-linearity: No (USB2E7196)
Correct for Stray Light: No (USB2E7196)
Number of Pixels in Processed Spectrum: 2048
>>>>>Begin Processed Spectral Data<<<<<
339.09	0.00
339.48	212.58
339.86	213.76
340.24	215.67
340.63	216.91
341.01	220.38
341.39	220.19
341.78	220.67
342.16	221.95
342.54	223.25
342.93	211.34
343.31	222.01
343.69	222.55
344.07	223.04
344.46	223.46
344.84	223.82
345.22	224.03
345.60	224.27
345.99	224.48
346.37	224.61
346.75	224.68
347.13	224.72
347.52	224.81
347.90	224.85
348.28	224.89
348.66	224.91
349.05	224.88
349.43	224.90
349.81	224.95
350.19	224.99
350.57	225.02
350.96	225.10
351.34	225.18
351.72	225.26
352.10	225.34
352.48	225.42
352.87	225.48
353.25	225.54
353.63	225.56
354.01	225.61
354.39	225.69
354.77	225.78
355.15	225.88
355.54	225.90
355.92	225.95
356.30	226.01
356.68	226.14
357.06	226.21
357.44	226.26
357.82	226.34
358.20	226.38
358.58	226.43
358.97	226.48
359.35	226.56
359.73	226.64
360.11	226.71
360.49	226.75
360.87	226.81
361.25	226.85
361.63	226.92
362.01	226.97
362.39	227.02
362.77	227.03
363.15	227.04
363.53	227.08
363.91	227.11
364.29	227.13
364.67	227.05
365.05	227.07
365.43	227.09
365.81	227.10
366.19	227.15
366.57	227.23
366.95	227.20
367.33	227.18
367.71	227.17
368.09	227.14
368.47	227.13
368.85	227.11
369.23	227.11
369.61	227.08
369.99	227.12
370.37	227.08
370.75	227.12
371.13	227.07
371.51	227.03
371.89	226.99
372.27	226.94
372.65	226.91
373.03	226.87
373.41	226.83
373.78	226.77
374.16	226.65
374.54	226.56
374.92	226.54
375.30	226.46
375.68	226.39
376.06	226.34
376.44	226.29
376.82	226.23
377.19	226.19
377.57	226.14
377.95	226.00
378.33	225.94
378.71	225.83
379.09	225.80
379.47	225.78
379.84	225.71
380.22	225.65
380.60	225.59
380.98	225.53
381.36	225.47
381.73	225.39
382.11	225.39
382.49	225.31
382.87	225.21
383.25	225.20
383.62	225.28
384.00	225.24
384.38	225.22
384.76	225.18
385.13	225.16
385.51	225.12
385.89	225.08
386.27	225.05
386.64	225.03
387.02	225.00
387.40	224.94
387.78	224.90
388.15	224.89
388.53	224.85
388.91	224.81
389.29	224.78
389.66	224.78
390.04	224.73
390.42	224.70
390.79	224.73
391.17	224.70
391.55	224.56
391.92	224.54
392.30	224.50
392.68	224.50
393.05	224.50
393.43	224.52
393.81	224.54
394.18	224.55
394.56	224.53
394.94	224.54
395.31	224.54
395.69	224.59
396.06	224.63
396.44	224.67
396.82	224.68
397.19	224.77
397.57	224.79
397.95	224.82
398.32	224.85
398.70	224.90
399.07	224.98
399.45	225.02
399.82	225.07
400.20	225.11
400.58	225.19
400.95	225.22
401.33	225.24
401.70	225.37
402.08	225.45
402.45	225.55
402.83	225.64
403.20	225.75
403.58	225.84
403.95	225.95
404.33	226.08
404.71	226.21
405.08	226.40
405.46	226.54
405.83	226.71
406.21	226.87
406.58	227.05
406.96	227.23
407.33	227.43
407.70	227.65
408.08	227.97
408.45	228.21
408.83	228.47
409.20	228.77
409.58	229.00
409.95	229.29
410.33	229.66
410.70	229.96
411.08	230.36
411.45	230.73
411.82	231.11
412.20	231.54
412.57	232.05
412.95	232.44
413.32	232.98
413.69	233.51
414.07	234.08
414.44	234.66
414.82	235.27
415.19	236.00
415.56	236.75
415.94	237.49
416.31	238.29
416.68	239.12
417.06	240.04
417.43	240.92
417.81	241.92
418.18	242.86
418.55	243.96
418.93	245.08
419.30	246.27
419.67	247.50
420.04	248.75
420.42	250.05
420.79	251.56
421.16	253.05
421.54	254.57
421.91	256.17
422.28	257.82
422.66	259.55
423.03	261.23
423.40	262.95
423.77	264.76
424.15	266.64
424.52	268.59
424.89	270.67
425.26	272.70
425.64	274.61
426.01	276.73
426.38	278.91
426.75	281.10
427.13	283.34
427.50	285.71
427.87	288.15
428.24	290.60
428.61	292.92
428.99	295.43
429.36	298.18
429.73	300.88
430.10	303.53
430.47	306.18
430.85	309.00
431.22	311.90
431.59	314.97
431.96	317.93
432.33	321.17
432.70	324.26
433.08	327.93
433.45	331.38
433.82	334.76
434.19	338.53
434.56	342.19
434.93	345.70
435.30	349.12
435.68	352.92
436.05	356.68
436.42	360.30
436.79	363.60
437.16	367.14
437.53	370.81
437.90	374.42
438.27	378.01
438.64	381.65
439.01	385.07
439.38	388.01
439.75	390.84
440.13	394.16
440.50	397.27
440.87	399.72
441.24	402.28
441.61	405.15
441.98	407.12
442.35	409.47
442.72	411.91
443.09	414.24
443.46	415.59
443.83	416.32
444.20	416.99
444.57	418.13
444.94	418.52
445.31	418.96
445.68	419.50
446.05	419.65
446.42	419.22
446.79	418.67
447.16	418.13
447.53	417.76
447.90	416.23
448.27	414.73
448.64	412.67
449.01	411.20
449.37	408.59
449.74	406.15
450.11	403.20
450.48	400.00
450.85	396.76
451.22	393.95
451.59	391.28
451.96	388.76
452.33	385.39
452.70	382.29
453.07	378.64
453.43	374.88
453.80	371.28
454.17	367.78
454.54	364.39
454.91	360.76
455.28	357.22
455.65	353.98
456.02	350.72
456.38	347.85
456.75	344.31
457.12	341.39
457.49	338.41
457.86	335.60
458.23	333.08
458.59	330.35
458.96	327.60
459.33	325.18
459.70	322.71
460.07	320.66
460.43	318.42
460.80	316.25
461.17	314.30
461.54	312.30
461.91	310.40
462.27	308.56
462.64	306.97
463.01	305.18
463.38	303.40
463.74	301.62
464.11	300.11
464.48	298.80
464.85	297.31
465.21	296.16
465.58	294.91
465.95	293.48
466.32	292.30
466.68	291.12
467.05	289.93
467.42	288.73
467.78	287.51
468.15	286.40
468.52	285.53
468.88	284.41
469.25	283.38
469.62	282.57
469.98	281.71
470.35	280.85
470.72	280.07
471.08	279.21
471.45	278.48
471.82	277.76
472.18	276.96
472.55	276.39
472.92	275.70
473.28	275.13
473.65	274.52
474.02	273.88
474.38	273.35
474.75	272.90
475.11	272.43
475.48	272.07
475.85	271.70
476.21	271.36
476.58	271.12
476.94	270.89
477.31	270.61
477.67	270.30
478.04	270.12
478.41	269.99
478.77	269.99
479.14	269.85
479.50	269.80
479.87	269.84
480.23	269.85
480.60	269.88
480.96	269.85
481.33	270.03
481.69	270.24
482.06	270.39
482.42	270.56
482.79	270.79
483.15	271.07
483.52	271.42
483.88	271.74
484.25	272.08
484.61	272.53
484.98	272.93
485.34	273.53
485.71	274.13
486.07	274.74
486.44	275.26
486.80	275.99
487.17	276.73
487.53	277.53
487.90	278.41
488.26	279.38
488.62	280.43
488.99	281.46
489.35	282.54
489.72	283.74
490.08	285.01
490.44	286.33
490.81	287.70
491.17	289.12
491.54	290.70
491.90	292.27
492.26	293.99
492.63	295.82
492.99	297.65
493.36	299.57
493.72	301.70
494.08	303.93
494.45	306.27
494.81	308.74
495.17	311.27
495.54	313.93
495.90	316.73
496.26	319.64
496.63	322.69
496.99	325.96
497.35	329.36
497.72	332.91
498.08	336.63
498.44	340.49
498.80	344.60
499.17	348.85
499.53	353.24
499.89	357.80
500.26	362.54
500.62	367.44
500.98	372.68
501.34	377.96
501.71	383.55
502.07	389.31
502.43	395.22
502.79	401.35
503.16	407.74
503.52	414.36
503.88	421.16
504.24	428.10
504.60	435.31
504.97	442.81
505.33	450.49
505.69	458.55
506.05	466.78
506.41	475.06
506.78	483.63
507.14	492.53
507.50	501.75
507.86	511.29
508.22	521.05
508.59	530.80
508.95	540.92
509.31	551.31
509.67	561.92
510.03	572.85
510.39	584.02
510.75	595.42
511.12	607.02
511.48	618.91
511.84	631.15
512.20	643.40
512.56	656.07
512.92	668.95
513.28	682.14
513.64	695.41
514.00	708.94
514.37	722.71
514.73	736.70
515.09	750.59
515.45	764.70
515.81	779.21
516.17	794.10
516.53	809.16
516.89	824.35
517.25	839.50
517.61	854.91
517.97	870.43
518.33	885.91
518.69	901.66
519.05	917.77
519.41	934.01
519.77	950.67
520.13	967.23
520.49	983.86
520.85	1000.34
521.21	1017.19
521.57	1034.70
521.93	1051.66
522.29	1069.12
522.65	1086.66
523.01	1104.26
523.37	1121.58
523.73	1139.06
524.09	1156.55
524.45	1174.26
524.81	1192.23
525.17	1210.36
525.53	1228.71
525.89	1246.99
526.25	1265.36
526.61	1283.17
526.97	1301.39
527.33	1319.37
527.68	1337.50
528.04	1355.52
528.40	1373.63
528.76	1392.30
529.12	1410.48
529.48	1429.08
529.84	1446.77
530.20	1465.04
530.56	1483.68
530.91	1502.87
531.27	1521.37
531.63	1539.51
531.99	1557.78
532.35	1575.69
532.71	1593.47
533.07	1611.42
533.42	1629.11
533.78	1647.09
534.14	1665.20
534.50	1682.35
534.86	1700.04
535.21	1717.09
535.57	1734.91
535.93	1752.42
536.29	1769.06
536.65	1785.98
537.00	1802.43
537.36	1819.68
537.72	1836.12
538.08	1852.46
538.44	1868.12
538.79	1884.02
539.15	1899.50
539.51	1915.07
539.87	1931.17
540.22	1946.78
540.58	1962.59
540.94	1977.94
541.29	1992.44
541.65	2007.08
542.01	2022.18
542.37	2036.56
542.72	2050.86
543.08	2064.52
543.44	2078.81
543.79	2091.90
544.15	2104.76
544.51	2118.37
544.87	2131.31
545.22	2143.95
545.58	2156.05
545.94	2167.54
546.29	2179.15
546.65	2191.12
547.01	2202.30
547.36	2213.10
547.72	2223.31
548.07	2232.80
548.43	2242.77
548.79	2252.69
549.14	2262.02
549.50	2271.19
549.86	2280.36
550.21	2289.50
550.57	2298.46
550.92	2306.81
551.28	2315.62
551.64	2324.45
551.99	2332.75
552.35	2340.65
552.70	2348.54
553.06	2356.29
553.41	2364.35
553.77	2372.10
554.13	2379.70
554.48	2387.51
554.84	2394.54
555.19	2401.44
555.55	2408.46
555.90	2414.34
556.26	2420.82
556.61	2426.99
556.97	2432.88
557.32	2438.68
557.68	2444.26
558.03	2449.96
558.39	2454.90
558.74	2461.11
559.10	2466.43
559.45	2471.39
559.81	2477.09
560.16	2482.33
560.52	2486.89
560.87	2491.71
561.23	2495.56
561.58	2499.77
561.94	2503.59
562.29	2506.99
562.64	2511.07
563.00	2514.50
563.35	2519.32
563.71	2523.76
564.06	2528.34
564.42	2532.48
564.77	2536.15
565.12	2539.69
565.48	2542.68
565.83	2545.82
566.19	2548.25
566.54	2550.10
566.89	2552.37
567.25	2553.82
567.60	2555.91
567.96	2558.72
568.31	2560.41
568.66	2562.57
569.02	2563.93
569.37	2565.09
569.72	2566.83
570.08	2567.62
570.43	2568.46
570.78	2568.68
571.14	2567.60
571.49	2566.64
571.84	2566.82
572.20	2566.20
572.55	2565.58
572.90	2564.44
573.26	2563.53
573.61	2562.06
573.96	2560.87
574.31	2558.17
574.67	2555.58
575.02	2552.27
575.37	2548.80
575.72	2545.34
576.08	2542.01
576.43	2538.81
576.78	2535.24
577.13	2532.16
577.49	2529.02
577.84	2525.70
578.19	2521.81
578.54	2518.37
578.90	2514.29
579.25	2508.43
579.60	2503.33
579.95	2497.96
580.30	2492.77
580.66	2487.31
581.01	2482.07
581.36	2476.90
581.71	2472.47
582.06	2467.61
582.42	2462.79
582.77	2457.26
583.12	2452.20
583.47	2447.24
583.82	2442.01
584.17	2436.37
584.53	2430.52
584.88	2424.63
585.23	2418.64
585.58	2412.79
585.93	2406.82
586.28	2401.48
586.63	2396.10
586.98	2390.62
587.34	2385.80
587.69	2380.51
588.04	2374.92
588.39	2368.76
588.74	2361.54
589.09	2354.87
589.44	2347.62
589.79	2341.09
590.14	2335.09
590.49	2327.87
590.84	2320.72
591.19	2314.19
591.54	2307.11
591.89	2299.15
592.25	2291.81
592.60	2283.67
592.95	2275.40
593.30	2267.24
593.65	2258.93
594.00	2251.17
594.35	2243.01
594.70	2233.88
595.05	2226.07
595.40	2217.88
595.75	2209.59
596.10	2202.74
596.45	2195.17
596.80	2188.34
597.15	2180.99
597.50	2173.08
597.85	2165.73
598.19	2158.39
598.54	2150.36
598.89	2142.71
599.24	2135.96
599.59	2128.36
599.94	2121.33
600.29	2114.01
600.64	2106.54
600.99	2098.15
601.34	2090.41
601.69	2082.48
602.04	2074.87
602.39	2066.40
602.74	2058.46
603.08	2050.73
603.43	2042.97
603.78	2034.59
604.13	2026.27
604.48	2018.04
604.83	2010.07
605.18	2002.31
605.53	1993.21
605.87	1984.00
606.22	1975.68
606.57	1966.47
606.92	1957.84
607.27	1949.61
607.62	1941.76
607.96	1933.35
608.31	1925.70
608.66	1916.83
609.01	1908.22
609.36	1899.34
609.70	1890.11
610.05	1880.95
610.40	1872.10
610.75	1862.61
611.10	1853.80
611.44	1843.94
611.79	1834.63
612.14	1824.72
612.49	1814.08
612.83	1804.43
613.18	1795.06
613.53	1785.89
613.88	1775.99
614.22	1766.55
614.57	1756.59
614.92	1747.31
615.27	1738.65
615.61	1729.04
615.96	1719.86
616.31	1711.11
616.65	1702.63
617.00	1693.84
617.35	1684.99
617.70	1675.43
618.04	1665.58
618.39	1656.15
618.74	1647.44
619.08	1637.84
619.43	1628.96
619.78	1621.02
620.12	1612.72
620.47	1604.00
620.82	1594.40
621.16	1585.78
621.51	1576.92
621.85	1568.01
622.20	1558.25
622.55	1548.46
622.89	1539.46
623.24	1530.56
623.59	1521.86
623.93	1513.24
624.28	1504.93
624.62	1496.27
624.97	1487.94
625.32	1479.96
625.66	1471.89
626.01	1463.73
626.35	1455.15
626.70	1446.24
627.04	1437.25
627.39	1428.16
627.73	1419.58
628.08	1411.67
628.43	1403.39
628.77	1394.98
629.12	1386.30
629.46	1377.93
629.81	1369.33
630.15	1360.85
630.50	1352.22
630.84	1342.89
631.19	1333.58
631.53	1324.82
631.88	1316.03
632.22	1307.43
632.57	1299.03
632.91	1290.26
633.26	1281.69
633.60	1273.12
633.95	1264.76
634.29	1256.63
634.64	1249.05
634.98	1240.65
635.32	1232.26
635.67	1224.52
636.01	1216.81
636.36	1209.06
636.70	1201.57
637.05	1194.08
637.39	1186.75
637.73	1179.40
638.08	1172.60
638.42	1165.72
638.77	1158.40
639.11	1150.92
639.45	1143.49
639.80	1135.94
640.14	1128.63
640.49	1121.09
640.83	1113.85
641.17	1106.89
641.52	1099.72
641.86	1092.14
642.20	1085.45
642.55	1078.26
642.89	1070.90
643.23	1063.37
643.58	1056.69
643.92	1049.60
644.26	1042.71
644.61	1035.73
644.95	1028.86
645.29	1021.39
645.64	1013.80
645.98	1006.46
646.32	999.63
646.66	992.70
647.01	986.02
647.35	979.44
647.69	972.68
648.04	966.34
648.38	959.73
648.72	952.79
649.06	945.98
649.41	939.30
649.75	932.55
650.09	925.80
650.43	919.22
650.78	912.22
651.12	905.41
651.46	898.93
651.80	892.47
652.14	886.28
652.49	880.11
652.83	874.20
653.17	867.79
653.51	861.29
653.85	855.13
654.20	848.77
654.54	841.89
654.88	835.38
655.22	828.61
655.56	822.04
655.90	815.88
656.25	809.90
656.59	803.74
656.93	797.99
657.27	792.13
657.61	785.98
657.95	780.19
658.29	774.38
658.64	768.34
658.98	762.21
659.32	756.03
659.66	750.12
660.00	743.99
660.34	738.34
660.68	732.78
661.02	726.98
661.36	721.55
661.70	716.40
662.05	711.47
662.39	706.59
662.73	701.43
663.07	696.52
663.41	691.42
663.75	686.33
664.09	681.17
664.43	676.11
664.77	671.43
665.11	666.62
665.45	661.93
665.79	657.36
666.13	652.66
666.47	648.03
666.81	643.30
667.15	638.70
667.49	634.36
667.83	630.04
668.17	625.75
668.51	621.17
668.85	616.63
669.19	612.22
669.53	607.93
669.87	603.65
670.21	599.43
670.55	595.31
670.89	591.46
671.23	587.50
671.57	583.51
671.91	579.51
672.25	575.51
672.58	571.49
672.92	567.55
673.26	563.97
673.60	560.33
673.94	556.84
674.28	553.58
674.62	550.15
674.96	546.68
675.30	543.27
675.64	539.96
675.97	536.78
676.31	533.52
676.65	530.19
676.99	527.11
677.33	523.86
677.67	520.64
678.01	517.17
678.34	513.83
678.68	510.60
679.02	507.39
679.36	504.27
679.70	501.26
680.04	498.18
680.37	494.98
680.71	491.77
681.05	488.76
681.39	485.60
681.73	482.65
682.06	479.77
682.40	476.88
682.74	474.02
683.08	471.15
683.42	468.20
683.75	465.33
684.09	462.37
684.43	459.48
684.77	456.71
685.10	454.01
685.44	451.34
685.78	448.75
686.12	446.16
686.45	443.53
686.79	440.86
687.13	438.34
687.46	435.82
687.80	433.42
688.14	430.84
688.48	428.50
688.81	425.88
689.15	423.38
689.49	420.94
689.82	418.55
690.16	416.16
690.50	413.95
690.83	411.78
691.17	409.54
691.51	407.41
691.84	405.34
692.18	403.13
692.52	400.91
692.85	398.66
693.19	396.53
693.52	394.38
693.86	392.31
694.20	390.24
694.53	388.17
694.87	386.05
695.21	384.07
695.54	381.97
695.88	379.96
696.21	377.98
696.55	376.04
696.88	374.07
697.22	372.16
697.56	370.30
697.89	368.39
698.23	366.59
698.56	364.77
698.90	362.91
699.23	361.08
699.57	359.37
699.90	357.61
700.24	355.85
700.58	354.15
700.91	352.46
701.25	350.82
701.58	349.32
701.92	347.72
702.25	346.18
702.59	344.61
702.92	343.11
703.26	341.66
703.59	340.21
703.93	338.88
704.26	337.46
704.60	335.94
704.93	334.47
705.26	333.02
705.60	331.63
705.93	330.31
706.27	329.11
706.60	327.81
706.94	326.58
707.27	325.27
707.61	324.05
707.94	322.86
708.27	321.60
708.61	320.32
708.94	319.18
709.28	318.02
709.61	316.95
709.94	315.84
710.28	314.64
710.61	313.51
710.95	312.26
711.28	311.23
711.61	310.12
711.95	309.08
712.28	308.00
712.61	306.89
712.95	305.80
713.28	304.76
713.61	303.75
713.95	302.75
714.28	301.80
714.61	300.80
714.95	299.80
715.28	298.84
715.61	297.85
715.95	296.89
716.28	295.86
716.61	294.88
716.95	293.97
717.28	293.14
717.61	292.23
717.94	291.41
718.28	290.50
718.61	289.71
718.94	288.91
719.27	288.18
719.61	287.47
719.94	286.73
720.27	285.94
720.60	285.20
720.94	284.46
721.27	283.79
721.60	283.15
721.93	282.46
722.27	281.85
722.60	281.19
722.93	280.55
723.26	279.94
723.59	279.31
723.93	278.70
724.26	278.04
724.59	277.41
724.92	276.81
725.25	276.25
725.59	275.69
725.92	275.14
726.25	274.56
726.58	273.95
726.91	273.37
727.24	272.84
727.57	272.30
727.91	271.74
728.24	271.23
728.57	270.67
728.90	270.19
729.23	269.60
729.56	269.10
729.89	268.57
730.22	268.07
730.55	267.53
730.89	267.05
731.22	266.54
731.55	266.07
731.88	265.55
732.21	265.05
732.54	264.52
732.87	264.01
733.20	263.55
733.53	263.12
733.86	262.72
734.19	262.25
734.52	261.82
734.85	261.50
735.18	261.03
735.51	260.60
735.84	260.17
736.17	259.76
736.50	259.33
736.83	259.00
737.16	258.63
737.49	258.24
737.82	257.81
738.15	257.45
738.48	257.07
738.81	256.66
739.14	256.29
739.47	255.93
739.80	255.58
740.13	255.22
740.46	254.84
740.79	254.43
741.12	254.10
741.45	253.73
741.78	253.31
742.11	252.96
742.44	252.62
742.77	252.32
743.10	252.00
743.43	251.67
743.75	251.25
744.08	251.04
744.41	250.77
744.74	250.46
745.07	250.13
745.40	249.85
745.73	249.61
746.06	249.30
746.39	249.00
746.71	248.68
747.04	248.37
747.37	248.07
747.70	247.82
748.03	247.50
748.36	247.22
748.68	246.94
749.01	246.68
749.34	246.44
749.67	246.11
750.00	245.89
750.33	245.68
750.65	245.44
750.98	245.07
751.31	244.80
751.64	244.55
751.97	244.35
752.29	244.07
752.62	243.79
752.95	243.54
753.28	243.32
753.60	243.09
753.93	242.90
754.26	242.70
754.59	242.42
754.91	242.20
755.24	242.00
755.57	241.78
755.90	241.53
756.22	241.30
756.55	241.07
756.88	240.84
757.20	240.53
757.53	240.30
757.86	240.11
758.19	239.93
758.51	239.76
758.84	239.55
759.17	239.39
759.49	239.22
759.82	239.06
760.15	238.87
760.47	238.71
760.80	238.49
761.13	238.31
761.45	238.14
761.78	237.95
762.11	237.77
762.43	237.59
762.76	237.45
763.08	237.27
763.41	237.16
763.74	237.00
764.06	236.86
764.39	236.74
764.71	236.54
765.04	236.33
765.37	236.15
765.69	235.98
766.02	235.83
766.34	235.66
766.67	235.48
767.00	235.33
767.32	235.22
767.65	235.16
767.97	235.01
768.30	234.89
768.62	234.80
768.95	234.66
769.27	234.52
769.60	234.42
769.92	234.31
770.25	234.16
770.57	234.01
770.90	233.90
771.22	233.77
771.55	233.69
771.87	233.63
772.20	233.52
772.52	233.49
772.85	233.51
773.17	233.41
773.50	233.32
773.82	233.22
774.15	233.09
774.47	232.93
774.80	232.86
775.12	232.77
775.45	232.65
775.77	232.57
776.09	232.50
776.42	232.42
776.74	232.35
777.07	232.26
777.39	232.20
777.72	232.13
778.04	232.06
778.36	231.98
778.69	231.88
779.01	231.80
779.33	231.64
779.66	231.46
779.98	231.38
780.31	231.32
780.63	231.31
780.95	231.27
781.28	231.20
781.60	231.12
781.92	231.05
782.25	231.01
782.57	230.95
782.89	230.89
783.22	230.80
783.54	230.73
783.86	230.70
784.19	230.66
784.51	230.61
784.83	230.56
785.16	230.50
785.48	230.43
785.80	230.41
786.12	230.38
786.45	230.35
