SpectraSuite Data File
++++++++++++++++++++++++++++++++++++
Date: Fri Feb 01 16:47:13 EST 2013
User: group
Dark Spectrum Present: No
Reference Spectrum Present: No
Number of Sampled Component Spectra: 1
Spectrometers: USB2E7196
Integration Time (usec): 35000 (USB2E7196)
Spectra Averaged: 100 (USB2E7196)
Boxcar Smoothing: 10 (USB2E7196)
Correct for Electrical Dark: No (USB2E7196)
Strobe/Lamp Enabled: No (USB2E7196)
Correct for Detector Non-linearity: No (USB2E7196)
Correct for Stray Light: No (USB2E7196)
Number of Pixels in Processed Spectrum: 2048
>>>>>Begin Processed Spectral Data<<<<<
339.09	0.00
339.48	213.69
339.86	215.06
340.24	215.97
340.63	217.60
341.01	220.31
341.39	220.85
341.78	221.84
342.16	222.71
342.54	223.69
342.93	211.82
343.31	222.51
343.69	223.07
344.07	223.52
344.46	223.94
344.84	224.33
345.22	224.56
345.60	224.81
345.99	224.96
346.37	225.06
346.75	225.12
347.13	225.17
347.52	225.18
347.90	225.22
348.28	225.27
348.66	225.27
349.05	225.26
349.43	225.30
349.81	225.37
350.19	225.38
350.57	225.40
350.96	225.46
351.34	225.54
351.72	225.59
352.10	225.67
352.48	225.74
352.87	225.77
353.25	225.83
353.63	225.86
354.01	225.94
354.39	226.03
354.77	226.10
355.15	226.22
355.54	226.30
355.92	226.36
356.30	226.41
356.68	226.59
357.06	226.67
357.44	226.72
357.82	226.78
358.20	226.89
358.58	226.96
358.97	227.02
359.35	227.11
359.73	227.21
360.11	227.28
360.49	227.33
360.87	227.39
361.25	227.46
361.63	227.56
362.01	227.62
362.39	227.65
362.77	227.72
363.15	227.76
363.53	227.80
363.91	227.82
364.29	227.83
364.67	227.72
365.05	227.75
365.43	227.77
365.81	227.79
366.19	227.85
366.57	227.94
366.95	227.96
367.33	227.96
367.71	227.92
368.09	227.93
368.47	227.94
368.85	227.95
369.23	227.97
369.61	227.93
369.99	227.95
370.37	227.98
370.75	228.00
371.13	227.94
371.51	227.88
371.89	227.86
372.27	227.86
372.65	227.86
373.03	227.79
373.41	227.77
373.78	227.73
374.16	227.61
374.54	227.47
374.92	227.43
375.30	227.39
375.68	227.34
376.06	227.28
376.44	227.25
376.82	227.18
377.19	227.12
377.57	227.05
377.95	226.97
378.33	226.89
378.71	226.80
379.09	226.75
379.47	226.73
379.84	226.64
380.22	226.54
380.60	226.49
380.98	226.45
381.36	226.37
381.73	226.29
382.11	226.24
382.49	226.22
382.87	226.14
383.25	226.04
383.62	226.10
384.00	226.02
384.38	225.94
384.76	225.90
385.13	225.85
385.51	225.77
385.89	225.69
386.27	225.62
386.64	225.57
387.02	225.54
387.40	225.47
387.78	225.46
388.15	225.43
388.53	225.37
388.91	225.34
389.29	225.28
389.66	225.26
390.04	225.26
390.42	225.21
390.79	225.21
391.17	225.18
391.55	225.02
391.92	225.00
392.30	224.99
392.68	224.97
393.05	224.98
393.43	224.99
393.81	225.01
394.18	225.00
394.56	225.01
394.94	225.02
395.31	225.01
395.69	225.04
396.06	225.08
396.44	225.11
396.82	225.11
397.19	225.20
397.57	225.23
397.95	225.24
398.32	225.25
398.70	225.28
399.07	225.38
399.45	225.45
399.82	225.50
400.20	225.57
400.58	225.62
400.95	225.66
401.33	225.74
401.70	225.84
402.08	225.94
402.45	226.02
402.83	226.14
403.20	226.23
403.58	226.30
403.95	226.43
404.33	226.53
404.71	226.66
405.08	226.84
405.46	226.97
405.83	227.16
406.21	227.37
406.58	227.54
406.96	227.70
407.33	227.84
407.70	228.03
408.08	228.29
408.45	228.51
408.83	228.71
409.20	228.88
409.58	229.07
409.95	229.33
410.33	229.62
410.70	229.86
411.08	230.17
411.45	230.51
411.82	230.81
412.20	231.17
412.57	231.55
412.95	231.83
413.32	232.19
413.69	232.59
414.07	232.99
414.44	233.43
414.82	233.92
415.19	234.49
415.56	235.06
415.94	235.59
416.31	236.22
416.68	236.87
417.06	237.62
417.43	238.31
417.81	239.06
418.18	239.82
418.55	240.67
418.93	241.56
419.30	242.45
419.67	243.39
420.04	244.38
420.42	245.42
420.79	246.60
421.16	247.80
421.54	248.97
421.91	250.17
422.28	251.42
422.66	252.73
423.03	254.00
423.40	255.33
423.77	256.74
424.15	258.17
424.52	259.63
424.89	261.23
425.26	262.79
425.64	264.24
426.01	265.82
426.38	267.46
426.75	269.10
427.13	270.77
427.50	272.57
427.87	274.41
428.24	276.23
428.61	277.92
428.99	279.82
429.36	281.90
429.73	283.92
430.10	285.94
430.47	287.98
430.85	290.10
431.22	292.30
431.59	294.65
431.96	296.88
432.33	299.31
432.70	301.65
433.08	304.44
433.45	307.08
433.82	309.65
434.19	312.49
434.56	315.28
434.93	317.93
435.30	320.53
435.68	323.35
436.05	326.16
436.42	328.97
436.79	331.45
437.16	334.12
437.53	336.91
437.90	339.66
438.27	342.32
438.64	345.09
439.01	347.66
439.38	349.90
439.75	352.01
440.13	354.48
440.50	356.75
440.87	358.56
441.24	360.43
441.61	362.51
441.98	363.96
442.35	365.74
442.72	367.58
443.09	369.34
443.46	370.34
443.83	370.89
444.20	371.35
444.57	372.18
444.94	372.44
445.31	372.82
445.68	373.18
446.05	373.30
446.42	372.96
446.79	372.54
447.16	372.09
447.53	371.83
447.90	370.72
448.27	369.59
448.64	368.05
449.01	366.94
449.37	365.02
449.74	363.18
450.11	360.98
450.48	358.57
450.85	356.08
451.22	354.02
451.59	352.07
451.96	350.19
452.33	347.62
452.70	345.28
453.07	342.48
453.43	339.65
453.80	336.94
454.17	334.28
454.54	331.76
454.91	329.05
455.28	326.36
455.65	323.86
456.02	321.46
456.38	319.32
456.75	316.69
457.12	314.51
457.49	312.30
457.86	310.15
458.23	308.27
458.59	306.24
458.96	304.14
459.33	302.29
459.70	300.44
460.07	298.97
460.43	297.31
460.80	295.68
461.17	294.21
461.54	292.72
461.91	291.30
462.27	289.86
462.64	288.66
463.01	287.33
463.38	286.04
463.74	284.68
464.11	283.52
464.48	282.54
464.85	281.44
465.21	280.59
465.58	279.67
465.95	278.61
466.32	277.71
466.68	276.80
467.05	275.91
467.42	275.03
467.78	274.12
468.15	273.27
468.52	272.64
468.88	271.80
469.25	271.04
469.62	270.44
469.98	269.82
470.35	269.15
470.72	268.57
471.08	267.96
471.45	267.44
471.82	266.92
472.18	266.31
472.55	265.89
472.92	265.38
473.28	264.94
473.65	264.54
474.02	264.08
474.38	263.74
474.75	263.44
475.11	263.14
475.48	262.87
475.85	262.64
476.21	262.43
476.58	262.30
476.94	262.19
477.31	262.07
477.67	261.93
478.04	261.83
478.41	261.76
478.77	261.83
479.14	261.77
479.50	261.81
479.87	261.90
480.23	261.97
480.60	262.06
480.96	262.15
481.33	262.33
481.69	262.58
482.06	262.77
482.42	262.98
482.79	263.23
483.15	263.55
483.52	263.91
483.88	264.26
484.25	264.61
484.61	265.01
484.98	265.42
485.34	265.96
485.71	266.60
486.07	267.21
486.44	267.73
486.80	268.44
487.17	269.15
487.53	269.95
487.90	270.78
488.26	271.72
488.62	272.72
488.99	273.70
489.35	274.75
489.72	275.87
490.08	277.08
490.44	278.29
490.81	279.61
491.17	281.01
491.54	282.48
491.90	284.04
492.26	285.73
492.63	287.47
492.99	289.27
493.36	291.14
493.72	293.17
494.08	295.31
494.45	297.54
494.81	299.92
495.17	302.37
495.54	304.96
495.90	307.68
496.26	310.45
496.63	313.40
496.99	316.48
497.35	319.72
497.72	323.12
498.08	326.68
498.44	330.36
498.80	334.27
499.17	338.28
499.53	342.40
499.89	346.72
500.26	351.21
500.62	355.84
500.98	360.83
501.34	365.91
501.71	371.24
502.07	376.74
502.43	382.37
502.79	388.19
503.16	394.22
503.52	400.45
503.88	406.88
504.24	413.49
504.60	420.39
504.97	427.55
505.33	434.84
505.69	442.58
506.05	450.34
506.41	458.20
506.78	466.41
507.14	474.88
507.50	483.61
507.86	492.58
508.22	501.74
508.59	510.86
508.95	520.40
509.31	530.13
509.67	540.16
510.03	550.36
510.39	560.89
510.75	571.66
511.12	582.56
511.48	593.78
511.84	605.13
512.20	616.56
512.56	628.42
512.92	640.50
513.28	652.74
513.64	665.16
514.00	677.81
514.37	690.65
514.73	703.64
515.09	716.55
515.45	729.82
515.81	743.32
516.17	757.25
516.53	771.34
516.89	785.47
517.25	799.50
517.61	813.86
517.97	828.17
518.33	842.39
518.69	856.98
519.05	871.82
519.41	886.95
519.77	902.36
520.13	917.64
520.49	932.93
520.85	948.16
521.21	963.65
521.57	979.75
521.93	995.35
522.29	1011.53
522.65	1027.60
523.01	1043.61
523.37	1059.60
523.73	1075.64
524.09	1091.52
524.45	1107.60
524.81	1124.16
525.17	1140.73
525.53	1157.42
525.89	1174.20
526.25	1190.92
526.61	1207.18
526.97	1223.67
527.33	1240.12
527.68	1256.54
528.04	1272.91
528.40	1289.36
528.76	1306.20
529.12	1322.60
529.48	1339.32
529.84	1355.22
530.20	1371.76
530.56	1388.50
530.91	1405.57
531.27	1422.19
531.63	1438.50
531.99	1454.92
532.35	1470.66
532.71	1486.45
533.07	1502.55
533.42	1518.40
533.78	1534.32
534.14	1550.41
534.50	1565.54
534.86	1581.00
535.21	1596.05
535.57	1611.77
535.93	1627.06
536.29	1641.74
536.65	1656.56
537.00	1671.07
537.36	1686.11
537.72	1700.47
538.08	1714.82
538.44	1728.58
538.79	1742.26
539.15	1755.66
539.51	1769.23
539.87	1783.45
540.22	1796.92
540.58	1810.54
540.94	1823.53
541.29	1836.06
541.65	1848.57
542.01	1861.60
542.37	1874.02
542.72	1886.25
543.08	1897.76
543.44	1909.80
543.79	1920.96
544.15	1931.80
544.51	1943.29
544.87	1954.05
545.22	1964.61
545.58	1974.63
545.94	1984.23
546.29	1993.82
546.65	2003.83
547.01	2013.02
547.36	2021.49
547.72	2030.01
548.07	2037.81
548.43	2045.88
548.79	2053.84
549.14	2061.33
549.50	2068.48
549.86	2075.83
550.21	2083.11
550.57	2090.31
550.92	2096.94
551.28	2103.90
551.64	2110.91
551.99	2117.31
552.35	2123.61
552.70	2129.75
553.06	2135.76
553.41	2142.05
553.77	2148.03
554.13	2153.70
554.48	2159.75
554.84	2165.34
555.19	2170.42
555.55	2175.55
555.90	2179.90
556.26	2184.86
556.61	2189.47
556.97	2194.08
557.32	2198.24
557.68	2202.39
558.03	2206.63
558.39	2210.32
558.74	2214.78
559.10	2218.68
559.45	2222.49
559.81	2226.64
560.16	2230.51
560.52	2233.84
560.87	2237.20
561.23	2239.95
561.58	2243.01
561.94	2245.54
562.29	2247.82
562.64	2250.69
563.00	2253.11
563.35	2256.86
563.71	2259.84
564.06	2263.05
564.42	2265.81
564.77	2268.43
565.12	2270.76
565.48	2272.64
565.83	2274.71
566.19	2276.36
566.54	2277.21
566.89	2278.32
567.25	2279.08
567.60	2280.36
567.96	2282.00
568.31	2282.93
568.66	2284.16
569.02	2284.86
569.37	2285.27
569.72	2286.38
570.08	2286.55
570.43	2286.75
570.78	2286.24
571.14	2284.91
571.49	2283.70
571.84	2283.37
572.20	2282.43
572.55	2281.46
572.90	2279.96
573.26	2278.66
573.61	2277.01
573.96	2275.63
574.31	2272.76
574.67	2269.90
575.02	2266.31
575.37	2262.95
575.72	2259.37
576.08	2256.00
576.43	2252.76
576.78	2249.16
577.13	2245.81
577.49	2242.79
577.84	2239.64
578.19	2235.89
578.54	2232.38
578.90	2228.28
579.25	2222.96
579.60	2218.18
579.95	2213.30
580.30	2208.49
580.66	2203.30
581.01	2198.27
581.36	2193.30
581.71	2189.23
582.06	2184.85
582.42	2180.64
582.77	2175.58
583.12	2171.15
583.47	2166.66
583.82	2161.89
584.17	2156.88
584.53	2151.59
584.88	2145.93
585.23	2140.13
585.58	2134.65
585.93	2129.30
586.28	2124.62
586.63	2119.71
586.98	2114.62
587.34	2109.95
587.69	2105.00
588.04	2100.06
588.39	2094.55
588.74	2088.22
589.09	2082.16
589.44	2075.53
589.79	2069.52
590.14	2064.06
590.49	2057.36
590.84	2051.00
591.19	2045.10
591.54	2038.71
591.89	2031.56
592.25	2025.10
592.60	2018.04
592.95	2010.89
593.30	2003.71
593.65	1996.24
594.00	1989.18
594.35	1981.96
594.70	1973.90
595.05	1967.13
595.40	1959.83
595.75	1952.42
596.10	1946.33
596.45	1939.86
596.80	1933.77
597.15	1927.27
597.50	1920.33
597.85	1914.00
598.19	1907.42
598.54	1900.36
598.89	1893.81
599.24	1887.93
599.59	1881.34
599.94	1875.12
600.29	1868.71
600.64	1862.10
600.99	1854.72
601.34	1848.14
601.69	1841.22
602.04	1834.67
602.39	1827.23
602.74	1820.51
603.08	1813.92
603.43	1807.16
603.78	1799.78
604.13	1792.64
604.48	1785.56
604.83	1778.80
605.18	1772.09
605.53	1764.27
605.87	1756.26
606.22	1749.06
606.57	1741.21
606.92	1733.85
607.27	1726.83
607.62	1720.13
607.96	1713.05
608.31	1706.69
608.66	1699.15
609.01	1691.72
609.36	1684.07
609.70	1676.10
610.05	1668.16
610.40	1660.61
610.75	1652.34
611.10	1644.87
611.44	1636.47
611.79	1628.51
612.14	1619.92
612.49	1610.78
612.83	1602.37
613.18	1594.40
613.53	1586.37
613.88	1577.82
614.22	1569.72
614.57	1561.05
614.92	1552.98
615.27	1545.49
615.61	1537.17
615.96	1529.20
616.31	1521.64
616.65	1514.38
617.00	1506.88
617.35	1499.15
617.70	1490.77
618.04	1482.42
618.39	1473.98
618.74	1466.34
619.08	1458.05
619.43	1450.42
619.78	1443.44
620.12	1436.40
620.47	1428.86
620.82	1420.66
621.16	1413.22
621.51	1405.57
621.85	1397.96
622.20	1389.46
622.55	1381.03
622.89	1373.17
623.24	1365.45
623.59	1358.02
623.93	1350.54
624.28	1343.37
624.62	1335.93
624.97	1328.71
625.32	1321.89
625.66	1314.97
626.01	1307.94
626.35	1300.62
626.70	1292.79
627.04	1285.09
627.39	1277.26
627.73	1269.87
628.08	1263.02
628.43	1255.87
628.77	1248.47
629.12	1241.01
629.46	1233.90
629.81	1226.45
630.15	1219.18
630.50	1211.77
630.84	1203.65
631.19	1195.67
631.53	1188.07
631.88	1180.50
632.22	1172.99
632.57	1165.63
632.91	1158.14
633.26	1150.68
633.60	1143.19
633.95	1135.95
634.29	1128.99
634.64	1122.41
634.98	1115.03
635.32	1107.83
635.67	1101.20
636.01	1094.58
636.36	1087.82
636.70	1081.12
637.05	1074.57
637.39	1068.13
637.73	1061.66
638.08	1055.74
638.42	1049.75
638.77	1043.35
639.11	1036.88
639.45	1030.42
639.80	1023.79
640.14	1017.42
640.49	1010.96
640.83	1004.74
641.17	998.68
641.52	992.34
641.86	985.74
642.20	979.92
642.55	973.56
642.89	967.09
643.23	960.51
643.58	954.83
643.92	948.71
644.26	942.83
644.61	936.78
644.95	930.76
645.29	924.20
645.64	917.55
645.98	911.25
646.32	905.27
646.66	899.34
647.01	893.57
647.35	887.82
647.69	881.86
648.04	876.23
648.38	870.48
648.72	864.52
649.06	858.55
649.41	852.71
649.75	846.83
650.09	840.93
650.43	835.13
650.78	828.94
651.12	823.01
651.46	817.26
651.80	811.56
652.14	806.14
652.49	800.75
652.83	795.53
653.17	789.86
653.51	784.26
653.85	778.78
654.20	773.23
654.54	767.29
654.88	761.63
655.22	755.77
655.56	750.07
655.90	744.58
656.25	739.34
656.59	733.88
656.93	728.78
657.27	723.65
657.61	718.23
657.95	713.13
658.29	708.07
658.64	702.71
658.98	697.30
659.32	691.90
659.66	686.67
660.00	681.45
660.34	676.49
660.68	671.59
661.02	666.62
661.36	661.94
661.70	657.46
662.05	653.13
662.39	648.89
662.73	644.38
663.07	640.06
663.41	635.65
663.75	631.26
664.09	626.71
664.43	622.29
664.77	618.28
665.11	614.05
665.45	609.93
665.79	605.94
666.13	601.93
666.47	597.82
666.81	593.79
667.15	589.57
667.49	585.66
667.83	581.71
668.17	577.78
668.51	573.66
668.85	569.60
669.19	565.73
669.53	561.82
669.87	558.04
670.21	554.28
670.55	550.56
670.89	547.09
671.23	543.64
671.57	540.10
671.91	536.50
672.25	532.92
672.58	529.34
672.92	525.88
673.26	522.72
673.60	519.50
673.94	516.36
674.28	513.50
674.62	510.62
674.96	507.55
675.30	504.65
675.64	501.74
675.97	498.94
676.31	496.13
676.65	493.22
676.99	490.47
677.33	487.58
677.67	484.82
678.01	481.80
678.34	478.90
678.68	476.07
679.02	473.23
679.36	470.46
679.70	467.79
680.04	465.06
680.37	462.14
680.71	459.41
681.05	456.77
681.39	454.07
681.73	451.37
682.06	448.89
682.40	446.33
682.74	443.79
683.08	441.22
683.42	438.58
683.75	436.05
684.09	433.47
684.43	431.00
684.77	428.53
685.10	426.23
685.44	423.89
685.78	421.58
686.12	419.35
686.45	417.09
686.79	414.79
687.13	412.56
687.46	410.39
687.80	408.20
688.14	405.93
688.48	403.83
688.81	401.58
689.15	399.38
689.49	397.25
689.82	395.18
690.16	393.12
690.50	391.17
690.83	389.26
691.17	387.29
691.51	385.43
691.84	383.54
692.18	381.54
692.52	379.58
692.85	377.61
693.19	375.73
693.52	373.88
693.86	372.04
694.20	370.25
694.53	368.45
694.87	366.59
695.21	364.82
695.54	363.01
695.88	361.30
696.21	359.56
696.55	357.90
696.88	356.21
697.22	354.48
697.56	352.84
697.89	351.17
698.23	349.54
698.56	347.91
698.90	346.34
699.23	344.74
699.57	343.16
699.90	341.58
700.24	340.00
700.58	338.50
700.91	337.01
701.25	335.52
701.58	334.15
701.92	332.83
702.25	331.44
702.59	330.10
702.92	328.76
703.26	327.45
703.59	326.08
703.93	324.88
704.26	323.68
704.60	322.37
704.93	321.12
705.26	319.92
705.60	318.75
705.93	317.60
706.27	316.59
706.60	315.56
706.94	314.50
707.27	313.39
707.61	312.30
707.94	311.27
708.27	310.24
708.61	309.21
708.94	308.17
709.28	307.22
709.61	306.23
709.94	305.27
710.28	304.30
710.61	303.33
710.95	302.24
711.28	301.32
711.61	300.38
711.95	299.49
712.28	298.52
712.61	297.57
712.95	296.62
713.28	295.69
713.61	294.78
713.95	293.92
714.28	293.12
714.61	292.22
714.95	291.37
715.28	290.51
715.61	289.62
715.95	288.80
716.28	287.97
716.61	287.14
716.95	286.33
717.28	285.51
717.61	284.74
717.94	284.01
718.28	283.20
718.61	282.47
718.94	281.75
719.27	281.08
719.61	280.39
719.94	279.77
720.27	279.07
720.60	278.38
720.94	277.74
721.27	277.14
721.60	276.58
721.93	276.02
722.27	275.50
722.60	274.96
722.93	274.36
723.26	273.81
723.59	273.25
723.93	272.71
724.26	272.20
724.59	271.68
724.92	271.16
725.25	270.68
725.59	270.19
725.92	269.67
726.25	269.19
726.58	268.73
726.91	268.21
727.24	267.73
727.57	267.30
727.91	266.81
728.24	266.32
728.57	265.86
728.90	265.41
729.23	264.93
729.56	264.45
729.89	264.02
730.22	263.54
730.55	263.08
730.89	262.64
731.22	262.18
731.55	261.74
731.88	261.32
732.21	260.89
732.54	260.46
732.87	260.05
733.20	259.63
733.53	259.23
733.86	258.84
734.19	258.43
734.52	258.05
734.85	257.76
735.18	257.34
735.51	256.97
735.84	256.59
736.17	256.20
736.50	255.81
736.83	255.61
737.16	255.28
737.49	254.97
737.82	254.61
738.15	254.25
738.48	253.89
738.81	253.57
739.14	253.24
739.47	252.93
739.80	252.63
740.13	252.35
740.46	252.00
740.79	251.71
741.12	251.43
741.45	251.09
741.78	250.72
742.11	250.45
742.44	250.10
742.77	249.81
743.10	249.51
743.43	249.22
743.75	248.78
744.08	248.64
744.41	248.35
744.74	248.11
745.07	247.84
745.40	247.62
745.73	247.39
746.06	247.11
746.39	246.84
746.71	246.56
747.04	246.28
747.37	246.03
747.70	245.78
748.03	245.50
748.36	245.28
748.68	245.06
749.01	244.81
749.34	244.61
749.67	244.39
750.00	244.15
750.33	244.00
750.65	243.79
750.98	243.44
751.31	243.23
751.64	243.01
751.97	242.86
752.29	242.64
752.62	242.39
752.95	242.20
753.28	242.00
753.60	241.82
753.93	241.63
754.26	241.44
754.59	241.22
754.91	241.04
755.24	240.85
755.57	240.62
755.90	240.45
756.22	240.25
756.55	240.04
756.88	239.87
757.20	239.60
757.53	239.46
757.86	239.27
758.19	239.12
758.51	238.95
758.84	238.76
759.17	238.60
759.49	238.44
759.82	238.30
760.15	238.16
760.47	238.00
760.80	237.83
761.13	237.71
761.45	237.52
761.78	237.37
762.11	237.19
762.43	237.05
762.76	236.89
763.08	236.76
763.41	236.64
763.74	236.55
764.06	236.42
764.39	236.26
764.71	236.14
765.04	235.98
765.37	235.85
765.69	235.75
766.02	235.61
766.34	235.47
766.67	235.35
767.00	235.26
767.32	235.19
767.65	235.14
767.97	235.00
768.30	234.93
768.62	234.81
768.95	234.71
769.27	234.59
769.60	234.49
769.92	234.41
770.25	234.30
770.57	234.13
770.90	234.03
771.22	233.91
771.55	233.82
771.87	233.72
772.20	233.58
772.52	233.53
772.85	233.54
773.17	233.43
773.50	233.32
773.82	233.18
774.15	233.05
774.47	232.90
774.80	232.81
775.12	232.70
775.45	232.60
775.77	232.54
776.09	232.50
776.42	232.39
776.74	232.32
777.07	232.22
777.39	232.14
777.72	232.08
778.04	231.99
778.36	231.86
778.69	231.80
779.01	231.75
779.33	231.60
779.66	231.44
779.98	231.35
780.31	231.27
780.63	231.22
780.95	231.17
781.28	231.10
781.60	231.01
781.92	230.93
782.25	230.85
782.57	230.76
782.89	230.67
783.22	230.60
783.54	230.50
783.86	230.48
784.19	230.43
784.51	230.37
784.83	230.30
785.16	230.25
785.48	230.15
785.80	230.12
786.12	230.04
786.45	229.96
786.77	229.90
787.09	229.83
