SpectraSuite Data File
++++++++++++++++++++++++++++++++++++
Date: Fri Feb 01 15:11:13 EST 2013
User: group
Dark Spectrum Present: No
Reference Spectrum Present: No
Number of Sampled Component Spectra: 1
Spectrometers: USB2E7196
Integration Time (usec): 35000 (USB2E7196)
Spectra Averaged: 100 (USB2E7196)
Boxcar Smoothing: 10 (USB2E7196)
Correct for Electrical Dark: No (USB2E7196)
Strobe/Lamp Enabled: No (USB2E7196)
Correct for Detector Non-linearity: No (USB2E7196)
Correct for Stray Light: No (USB2E7196)
Number of Pixels in Processed Spectrum: 2048
>>>>>Begin Processed Spectral Data<<<<<
339.09	0.00
339.48	215.16
339.86	216.84
340.24	217.82
340.63	219.62
341.01	221.61
341.39	222.25
341.78	223.63
342.16	225.15
342.54	224.94
342.93	213.44
343.31	224.23
343.69	224.75
344.07	225.19
344.46	225.62
344.84	225.98
345.22	226.26
345.60	226.52
345.99	226.67
346.37	226.76
346.75	226.88
347.13	226.91
347.52	226.98
347.90	227.06
348.28	227.12
348.66	227.17
349.05	227.14
349.43	227.20
349.81	227.22
350.19	227.26
350.57	227.30
350.96	227.38
351.34	227.46
351.72	227.59
352.10	227.71
352.48	227.79
352.87	227.84
353.25	227.88
353.63	227.93
354.01	228.02
354.39	228.08
354.77	228.15
355.15	228.28
355.54	228.34
355.92	228.37
356.30	228.41
356.68	228.53
357.06	228.60
357.44	228.64
357.82	228.70
358.20	228.77
358.58	228.84
358.97	228.92
359.35	229.00
359.73	229.04
360.11	229.07
360.49	229.14
360.87	229.20
361.25	229.26
361.63	229.32
362.01	229.36
362.39	229.41
362.77	229.46
363.15	229.50
363.53	229.53
363.91	229.56
364.29	229.63
364.67	229.58
365.05	229.61
365.43	229.66
365.81	229.69
366.19	229.71
366.57	229.73
366.95	229.74
367.33	229.70
367.71	229.67
368.09	229.69
368.47	229.65
368.85	229.60
369.23	229.62
369.61	229.56
369.99	229.58
370.37	229.56
370.75	229.54
371.13	229.46
371.51	229.41
371.89	229.39
372.27	229.34
372.65	229.26
373.03	229.22
373.41	229.14
373.78	229.07
374.16	228.98
374.54	228.90
374.92	228.81
375.30	228.74
375.68	228.69
376.06	228.64
376.44	228.56
376.82	228.50
377.19	228.38
377.57	228.32
377.95	228.19
378.33	228.08
378.71	227.97
379.09	227.87
379.47	227.81
379.84	227.70
380.22	227.60
380.60	227.50
380.98	227.40
381.36	227.34
381.73	227.27
382.11	227.23
382.49	227.14
382.87	227.04
383.25	226.99
383.62	227.01
384.00	226.88
384.38	226.83
384.76	226.78
385.13	226.77
385.51	226.74
385.89	226.67
386.27	226.60
386.64	226.56
387.02	226.53
387.40	226.48
387.78	226.44
388.15	226.41
388.53	226.40
388.91	226.34
389.29	226.31
389.66	226.25
390.04	226.21
390.42	226.20
390.79	226.18
391.17	226.18
391.55	226.06
391.92	226.09
392.30	226.09
392.68	226.05
393.05	226.03
393.43	226.04
393.81	226.08
394.18	226.08
394.56	226.09
394.94	226.15
395.31	226.16
395.69	226.24
396.06	226.31
396.44	226.35
396.82	226.45
397.19	226.56
397.57	226.62
397.95	226.70
398.32	226.76
398.70	226.84
399.07	226.89
399.45	226.96
399.82	227.01
400.20	227.09
400.58	227.21
400.95	227.27
401.33	227.36
401.70	227.52
402.08	227.65
402.45	227.77
402.83	227.87
403.20	228.02
403.58	228.13
403.95	228.25
404.33	228.40
404.71	228.51
405.08	228.67
405.46	228.82
405.83	228.96
406.21	229.11
406.58	229.27
406.96	229.48
407.33	229.68
407.70	229.92
408.08	230.19
408.45	230.44
408.83	230.67
409.20	230.90
409.58	231.12
409.95	231.42
410.33	231.71
410.70	231.95
411.08	232.20
411.45	232.53
411.82	232.85
412.20	233.22
412.57	233.65
412.95	233.96
413.32	234.41
413.69	234.80
414.07	235.22
414.44	235.74
414.82	236.23
415.19	236.77
415.56	237.31
415.94	237.85
416.31	238.49
416.68	239.15
417.06	239.84
417.43	240.50
417.81	241.26
418.18	242.02
418.55	242.88
418.93	243.78
419.30	244.69
419.67	245.62
420.04	246.55
420.42	247.54
420.79	248.71
421.16	249.86
421.54	251.08
421.91	252.33
422.28	253.55
422.66	254.87
423.03	256.19
423.40	257.55
423.77	258.96
424.15	260.38
424.52	261.86
424.89	263.47
425.26	265.03
425.64	266.49
426.01	268.07
426.38	269.76
426.75	271.45
427.13	273.14
427.50	274.96
427.87	276.86
428.24	278.78
428.61	280.53
428.99	282.45
429.36	284.57
429.73	286.64
430.10	288.66
430.47	290.74
430.85	292.87
431.22	295.10
431.59	297.52
431.96	299.74
432.33	302.21
432.70	304.59
433.08	307.40
433.45	310.03
433.82	312.66
434.19	315.52
434.56	318.33
434.93	321.00
435.30	323.60
435.68	326.50
436.05	329.28
436.42	332.07
436.79	334.55
437.16	337.18
437.53	340.01
437.90	342.83
438.27	345.57
438.64	348.38
439.01	350.98
439.38	353.18
439.75	355.36
440.13	357.85
440.50	360.19
440.87	362.05
441.24	364.03
441.61	366.20
441.98	367.72
442.35	369.49
442.72	371.31
443.09	373.12
443.46	374.11
443.83	374.63
444.20	375.15
444.57	376.03
444.94	376.37
445.31	376.67
445.68	377.02
446.05	377.05
446.42	376.69
446.79	376.24
447.16	375.81
447.53	375.49
447.90	374.33
448.27	373.19
448.64	371.60
449.01	370.43
449.37	368.43
449.74	366.50
450.11	364.26
450.48	361.82
450.85	359.27
451.22	357.12
451.59	355.18
451.96	353.25
452.33	350.64
452.70	348.27
453.07	345.48
453.43	342.58
453.80	339.83
454.17	337.12
454.54	334.58
454.91	331.84
455.28	329.19
455.65	326.70
456.02	324.20
456.38	322.04
456.75	319.39
457.12	317.14
457.49	314.94
457.86	312.76
458.23	310.91
458.59	308.85
458.96	306.77
459.33	304.90
459.70	303.02
460.07	301.49
460.43	299.77
460.80	298.12
461.17	296.71
461.54	295.20
461.91	293.81
462.27	292.38
462.64	291.20
463.01	289.84
463.38	288.52
463.74	287.15
464.11	285.96
464.48	284.91
464.85	283.80
465.21	282.90
465.58	281.99
465.95	280.89
466.32	280.01
466.68	279.10
467.05	278.18
467.42	277.28
467.78	276.33
468.15	275.44
468.52	274.80
468.88	273.91
469.25	273.13
469.62	272.49
469.98	271.76
470.35	271.05
470.72	270.40
471.08	269.77
471.45	269.24
471.82	268.71
472.18	268.11
472.55	267.67
472.92	267.14
473.28	266.68
473.65	266.21
474.02	265.78
474.38	265.38
474.75	265.06
475.11	264.71
475.48	264.48
475.85	264.24
476.21	263.99
476.58	263.77
476.94	263.62
477.31	263.40
477.67	263.24
478.04	263.14
478.41	263.08
478.77	263.06
479.14	262.98
479.50	262.99
479.87	263.01
480.23	263.07
480.60	263.15
480.96	263.24
481.33	263.42
481.69	263.60
482.06	263.77
482.42	263.95
482.79	264.21
483.15	264.50
483.52	264.87
483.88	265.21
484.25	265.60
484.61	266.02
484.98	266.49
485.34	267.04
485.71	267.63
486.07	268.22
486.44	268.81
486.80	269.49
487.17	270.19
487.53	271.02
487.90	271.87
488.26	272.80
488.62	273.77
488.99	274.74
489.35	275.77
489.72	276.91
490.08	278.10
490.44	279.30
490.81	280.61
491.17	281.93
491.54	283.42
491.90	284.95
492.26	286.59
492.63	288.31
492.99	290.10
493.36	291.97
493.72	294.03
494.08	296.10
494.45	298.35
494.81	300.73
495.17	303.13
495.54	305.69
495.90	308.34
496.26	311.10
496.63	314.05
496.99	317.14
497.35	320.33
497.72	323.72
498.08	327.24
498.44	330.87
498.80	334.81
499.17	338.81
499.53	342.96
499.89	347.37
500.26	351.80
500.62	356.45
500.98	361.41
501.34	366.45
501.71	371.80
502.07	377.27
502.43	382.88
502.79	388.73
503.16	394.76
503.52	401.02
503.88	407.52
504.24	414.16
504.60	421.09
504.97	428.24
505.33	435.60
505.69	443.35
506.05	451.22
506.41	459.11
506.78	467.30
507.14	475.75
507.50	484.39
507.86	493.52
508.22	502.73
508.59	511.93
508.95	521.61
509.31	531.42
509.67	541.51
510.03	551.77
510.39	562.26
510.75	573.03
511.12	583.98
511.48	595.22
511.84	606.75
512.20	618.20
512.56	630.13
512.92	642.36
513.28	654.63
513.64	667.10
514.00	679.81
514.37	692.75
514.73	705.79
515.09	718.90
515.45	732.15
515.81	745.67
516.17	759.68
516.53	773.77
516.89	787.94
517.25	802.15
517.61	816.64
517.97	831.15
518.33	845.65
518.69	860.43
519.05	875.41
519.41	890.47
519.77	906.10
520.13	921.61
520.49	936.97
520.85	952.39
521.21	968.15
521.57	984.48
521.93	1000.30
522.29	1016.77
522.65	1033.05
523.01	1049.33
523.37	1065.53
523.73	1081.74
524.09	1097.81
524.45	1114.24
524.81	1130.97
525.17	1147.86
525.53	1164.85
525.89	1181.75
526.25	1198.61
526.61	1215.18
526.97	1232.00
527.33	1248.59
527.68	1265.30
528.04	1281.88
528.40	1298.67
528.76	1315.77
529.12	1332.35
529.48	1349.26
529.84	1365.33
530.20	1382.01
530.56	1399.10
530.91	1416.57
531.27	1433.36
531.63	1449.94
531.99	1466.51
532.35	1482.50
532.71	1498.42
533.07	1514.79
533.42	1530.80
533.78	1546.89
534.14	1563.18
534.50	1578.52
534.86	1594.42
535.21	1609.66
535.57	1625.64
535.93	1641.16
536.29	1656.08
536.65	1671.19
537.00	1686.17
537.36	1701.50
537.72	1716.16
538.08	1730.65
538.44	1744.43
538.79	1758.50
539.15	1772.19
539.51	1786.10
539.87	1800.53
540.22	1814.31
540.58	1828.11
540.94	1841.62
541.29	1854.74
541.65	1867.62
542.01	1881.06
542.37	1893.52
542.72	1906.01
543.08	1917.78
543.44	1930.27
543.79	1941.59
544.15	1952.64
544.51	1964.22
544.87	1975.31
545.22	1986.12
545.58	1996.29
545.94	2006.28
546.29	2015.99
546.65	2026.02
547.01	2035.25
547.36	2044.01
547.72	2052.61
548.07	2060.47
548.43	2068.72
548.79	2076.72
549.14	2084.20
549.50	2091.65
549.86	2099.38
550.21	2106.71
550.57	2113.97
550.92	2120.55
551.28	2127.60
551.64	2134.77
551.99	2141.39
552.35	2147.58
552.70	2153.71
553.06	2159.77
553.41	2166.11
553.77	2172.41
554.13	2178.41
554.48	2184.60
554.84	2189.91
555.19	2195.16
555.55	2200.38
555.90	2204.68
556.26	2209.49
556.61	2214.16
556.97	2218.23
557.32	2222.38
557.68	2226.46
558.03	2230.83
558.39	2234.66
558.74	2239.24
559.10	2243.10
559.45	2246.50
559.81	2250.79
560.16	2254.61
560.52	2257.84
560.87	2261.15
561.23	2263.61
561.58	2266.64
561.94	2269.12
562.29	2271.76
562.64	2274.34
563.00	2276.87
563.35	2280.53
563.71	2283.74
564.06	2286.92
564.42	2289.76
564.77	2292.13
565.12	2294.36
565.48	2296.16
565.83	2297.75
566.19	2298.93
566.54	2299.74
566.89	2300.93
567.25	2301.32
567.60	2302.58
567.96	2304.12
568.31	2304.88
568.66	2306.06
569.02	2306.51
569.37	2306.65
569.72	2307.26
570.08	2307.28
570.43	2307.11
570.78	2306.25
571.14	2304.50
571.49	2303.15
571.84	2302.85
572.20	2301.50
572.55	2300.42
572.90	2298.74
573.26	2297.22
573.61	2295.49
573.96	2293.47
574.31	2290.30
574.67	2287.13
575.02	2283.37
575.37	2279.92
575.72	2276.01
576.08	2272.50
576.43	2269.04
576.78	2265.34
577.13	2262.10
577.49	2258.96
577.84	2255.52
578.19	2251.73
578.54	2247.79
578.90	2243.24
579.25	2237.50
579.60	2232.46
579.95	2227.20
580.30	2222.02
580.66	2216.65
581.01	2211.53
581.36	2206.72
581.71	2202.50
582.06	2198.13
582.42	2193.54
582.77	2188.19
583.12	2183.48
583.47	2178.39
583.82	2173.20
584.17	2167.87
584.53	2162.24
584.88	2156.44
585.23	2150.36
585.58	2144.76
585.93	2139.52
586.28	2134.82
586.63	2129.74
586.98	2124.60
587.34	2119.96
587.69	2115.10
588.04	2110.00
588.39	2104.23
588.74	2097.69
589.09	2091.38
589.44	2084.42
589.79	2078.41
590.14	2072.73
590.49	2065.97
590.84	2059.73
591.19	2053.69
591.54	2047.13
591.89	2039.47
592.25	2032.61
592.60	2025.44
592.95	2017.74
593.30	2010.21
593.65	2002.53
594.00	1995.39
594.35	1988.02
594.70	1979.90
595.05	1972.38
595.40	1964.99
595.75	1957.48
596.10	1951.09
596.45	1944.41
596.80	1938.17
597.15	1931.39
597.50	1924.13
597.85	1917.70
598.19	1910.88
598.54	1903.68
598.89	1897.01
599.24	1891.20
599.59	1884.42
599.94	1878.17
600.29	1871.99
600.64	1865.33
600.99	1857.75
601.34	1850.80
601.69	1843.83
602.04	1836.73
602.39	1829.37
602.74	1822.53
603.08	1815.74
603.43	1808.99
603.78	1801.57
604.13	1794.41
604.48	1787.02
604.83	1780.22
605.18	1773.23
605.53	1765.23
605.87	1757.27
606.22	1750.03
606.57	1742.05
606.92	1734.82
607.27	1727.54
607.62	1720.52
607.96	1713.28
608.31	1706.66
608.66	1698.93
609.01	1691.32
609.36	1683.94
609.70	1675.96
610.05	1667.75
610.40	1660.00
610.75	1651.67
611.10	1644.08
611.44	1635.67
611.79	1627.73
612.14	1618.95
612.49	1609.88
612.83	1601.59
613.18	1593.40
613.53	1585.25
613.88	1576.80
614.22	1568.62
614.57	1560.02
614.92	1551.86
615.27	1544.23
615.61	1535.89
615.96	1527.90
616.31	1520.30
616.65	1512.91
617.00	1505.41
617.35	1497.88
617.70	1489.50
618.04	1480.89
618.39	1472.54
618.74	1464.88
619.08	1456.58
619.43	1449.05
619.78	1441.98
620.12	1434.68
620.47	1427.14
620.82	1418.99
621.16	1411.58
621.51	1403.82
621.85	1396.36
622.20	1387.88
622.55	1379.51
622.89	1371.72
623.24	1364.21
623.59	1356.84
623.93	1349.26
624.28	1342.03
624.62	1334.47
624.97	1327.39
625.32	1320.82
625.66	1313.97
626.01	1306.83
626.35	1299.38
626.70	1291.68
627.04	1284.03
627.39	1276.31
627.73	1268.91
628.08	1261.99
628.43	1254.56
628.77	1247.24
629.12	1239.60
629.46	1232.44
629.81	1225.18
630.15	1217.94
630.50	1210.55
630.84	1202.43
631.19	1194.46
631.53	1187.00
631.88	1179.45
632.22	1171.81
632.57	1164.43
632.91	1156.84
633.26	1149.51
633.60	1142.31
633.95	1135.33
634.29	1128.34
634.64	1121.70
634.98	1114.39
635.32	1107.29
635.67	1100.88
636.01	1094.25
636.36	1087.45
636.70	1080.92
637.05	1074.31
637.39	1067.94
637.73	1061.45
638.08	1055.63
638.42	1049.72
638.77	1043.31
639.11	1036.64
639.45	1030.36
639.80	1023.72
640.14	1017.25
640.49	1010.63
640.83	1004.29
641.17	997.97
641.52	991.66
641.86	985.37
642.20	979.55
642.55	973.31
642.89	966.73
643.23	960.27
643.58	954.57
643.92	948.38
644.26	942.27
644.61	936.29
644.95	930.24
645.29	923.62
645.64	916.87
645.98	910.60
646.32	904.90
646.66	898.85
647.01	893.03
647.35	887.35
647.69	881.62
648.04	876.13
648.38	870.39
648.72	864.38
649.06	858.23
649.41	852.35
649.75	846.31
650.09	840.40
650.43	834.55
650.78	828.35
651.12	822.43
651.46	816.74
651.80	810.84
652.14	805.45
652.49	800.09
652.83	794.90
653.17	789.13
653.51	783.38
653.85	778.03
654.20	772.42
654.54	766.42
654.88	760.66
655.22	754.77
655.56	749.01
655.90	743.56
656.25	738.30
656.59	732.99
656.93	727.91
657.27	722.73
657.61	717.29
657.95	712.21
658.29	707.14
658.64	701.88
658.98	696.64
659.32	691.21
659.66	685.92
660.00	680.66
660.34	675.73
660.68	670.73
661.02	665.63
661.36	660.92
661.70	656.47
662.05	652.15
662.39	647.77
662.73	643.39
663.07	639.02
663.41	634.57
663.75	630.04
664.09	625.48
664.43	621.15
664.77	617.06
665.11	612.86
665.45	608.78
665.79	604.76
666.13	600.67
666.47	596.58
666.81	592.48
667.15	588.35
667.49	584.50
667.83	580.78
668.17	576.94
668.51	572.93
668.85	568.90
669.19	565.04
669.53	561.22
669.87	557.35
670.21	553.71
670.55	550.10
670.89	546.77
671.23	543.39
671.57	539.88
671.91	536.40
672.25	532.94
672.58	529.46
672.92	526.10
673.26	522.96
673.60	519.88
673.94	516.78
674.28	513.92
674.62	510.95
674.96	507.87
675.30	504.91
675.64	502.01
675.97	499.33
676.31	496.55
676.65	493.60
676.99	490.85
677.33	488.02
677.67	485.23
678.01	482.17
678.34	479.21
678.68	476.36
679.02	473.54
679.36	470.78
679.70	468.07
680.04	465.34
680.37	462.46
680.71	459.69
681.05	457.09
681.39	454.37
681.73	451.77
682.06	449.27
682.40	446.76
682.74	444.26
683.08	441.63
683.42	439.00
683.75	436.56
684.09	434.10
684.43	431.69
684.77	429.27
685.10	426.91
685.44	424.65
685.78	422.41
686.12	420.20
686.45	417.98
686.79	415.67
687.13	413.46
687.46	411.33
687.80	409.14
688.14	407.00
688.48	405.02
688.81	402.76
689.15	400.60
689.49	398.46
689.82	396.36
690.16	394.31
690.50	392.40
690.83	390.46
691.17	388.52
691.51	386.57
691.84	384.70
692.18	382.77
692.52	380.75
692.85	378.84
693.19	376.92
693.52	375.09
693.86	373.29
694.20	371.51
694.53	369.68
694.87	367.86
695.21	366.00
695.54	364.17
695.88	362.51
696.21	360.84
696.55	359.18
696.88	357.52
697.22	355.90
697.56	354.29
697.89	352.68
698.23	351.06
698.56	349.47
698.90	347.88
699.23	346.23
699.57	344.69
699.90	343.13
700.24	341.61
700.58	340.05
700.91	338.54
701.25	337.12
701.58	335.74
701.92	334.39
702.25	333.07
702.59	331.71
702.92	330.34
703.26	329.01
703.59	327.69
703.93	326.47
704.26	325.22
704.60	323.82
704.93	322.54
705.26	321.28
705.60	320.09
705.93	318.94
706.27	317.95
706.60	316.89
706.94	315.79
707.27	314.67
707.61	313.63
707.94	312.62
708.27	311.54
708.61	310.49
708.94	309.47
709.28	308.51
709.61	307.48
709.94	306.53
710.28	305.50
710.61	304.57
710.95	303.54
711.28	302.60
711.61	301.71
711.95	300.82
712.28	299.89
712.61	298.93
712.95	297.99
713.28	297.11
713.61	296.24
713.95	295.39
714.28	294.57
714.61	293.70
714.95	292.85
715.28	291.98
715.61	291.12
715.95	290.27
716.28	289.39
716.61	288.62
716.95	287.82
717.28	287.13
717.61	286.34
717.94	285.58
718.28	284.81
718.61	284.08
718.94	283.37
719.27	282.70
719.61	282.09
719.94	281.47
720.27	280.78
720.60	280.11
720.94	279.48
721.27	278.86
721.60	278.28
721.93	277.72
722.27	277.21
722.60	276.70
722.93	276.13
723.26	275.62
723.59	275.03
723.93	274.52
724.26	273.93
724.59	273.41
724.92	272.89
725.25	272.38
725.59	271.89
725.92	271.39
726.25	270.91
726.58	270.37
726.91	269.86
727.24	269.38
727.57	268.90
727.91	268.36
728.24	267.92
728.57	267.46
728.90	267.00
729.23	266.51
729.56	266.03
729.89	265.58
730.22	265.09
730.55	264.65
730.89	264.19
731.22	263.78
731.55	263.29
731.88	262.87
732.21	262.41
732.54	261.97
732.87	261.55
733.20	261.12
733.53	260.73
733.86	260.36
734.19	259.94
734.52	259.58
734.85	259.29
735.18	258.85
735.51	258.46
735.84	258.10
736.17	257.78
736.50	257.41
736.83	257.17
737.16	256.83
737.49	256.50
737.82	256.14
738.15	255.75
738.48	255.46
738.81	255.12
739.14	254.82
739.47	254.51
739.80	254.21
740.13	253.90
740.46	253.57
740.79	253.22
741.12	252.91
741.45	252.60
741.78	252.24
742.11	251.94
742.44	251.62
742.77	251.30
743.10	250.94
743.43	250.61
743.75	250.22
744.08	250.05
744.41	249.75
744.74	249.49
745.07	249.22
745.40	248.96
745.73	248.76
746.06	248.47
746.39	248.20
746.71	247.91
747.04	247.65
747.37	247.39
747.70	247.15
748.03	246.91
748.36	246.64
748.68	246.42
749.01	246.20
749.34	246.01
749.67	245.78
750.00	245.59
750.33	245.46
750.65	245.23
750.98	244.89
751.31	244.69
751.64	244.49
751.97	244.36
752.29	244.12
752.62	243.87
752.95	243.72
753.28	243.52
753.60	243.37
753.93	243.22
754.26	243.03
754.59	242.80
754.91	242.60
755.24	242.46
755.57	242.25
755.90	242.06
756.22	241.85
756.55	241.67
756.88	241.46
757.20	241.19
757.53	241.02
757.86	240.83
758.19	240.69
758.51	240.53
758.84	240.30
759.17	240.17
759.49	239.99
759.82	239.86
760.15	239.72
760.47	239.53
760.80	239.33
761.13	239.21
761.45	239.08
761.78	238.96
762.11	238.80
762.43	238.66
762.76	238.53
763.08	238.43
763.41	238.30
763.74	238.18
764.06	238.08
764.39	237.96
764.71	237.87
765.04	237.74
765.37	237.59
765.69	237.46
766.02	237.33
766.34	237.20
766.67	237.04
767.00	236.94
767.32	236.91
767.65	236.88
767.97	236.76
768.30	236.67
768.62	236.56
768.95	236.42
769.27	236.35
769.60	236.26
769.92	236.09
770.25	235.97
770.57	235.86
770.90	235.76
771.22	235.65
771.55	235.56
771.87	235.47
772.20	235.39
772.52	235.38
772.85	235.42
773.17	235.32
773.50	235.21
773.82	235.08
774.15	234.92
774.47	234.73
774.80	234.66
775.12	234.54
775.45	234.44
775.77	234.38
776.09	234.27
776.42	234.17
776.74	234.13
777.07	234.04
777.39	233.94
777.72	233.87
778.04	233.77
778.36	233.65
778.69	233.61
779.01	233.54
779.33	233.40
779.66	233.18
779.98	233.11
780.31	233.04
780.63	233.01
780.95	232.96
781.28	232.87
781.60	232.79
781.92	232.73
782.25	232.65
782.57	232.58
782.89	232.52
783.22	232.46
783.54	232.39
783.86	232.38
784.19	232.35
784.51	232.32
784.83	232.27
785.16	232.23
785.48	232.10
785.80	232.05
786.12	231.98
786.45	231.94
786.77	231.90
787.09	231.85
