SpectraSuite Data File
++++++++++++++++++++++++++++++++++++
Date: Fri Feb 01 15:25:18 EST 2013
User: group
Dark Spectrum Present: No
Reference Spectrum Present: No
Number of Sampled Component Spectra: 1
Spectrometers: USB2E7196
Integration Time (usec): 35000 (USB2E7196)
Spectra Averaged: 100 (USB2E7196)
Boxcar Smoothing: 10 (USB2E7196)
Correct for Electrical Dark: No (USB2E7196)
Strobe/Lamp Enabled: No (USB2E7196)
Correct for Detector Non-linearity: No (USB2E7196)
Correct for Stray Light: No (USB2E7196)
Number of Pixels in Processed Spectrum: 2048
>>>>>Begin Processed Spectral Data<<<<<
339.09	0.00
339.48	215.03
339.86	216.59
340.24	218.17
340.63	219.65
341.01	222.05
341.39	222.43
341.78	223.70
342.16	224.39
342.54	224.89
342.93	213.50
343.31	224.30
343.69	224.84
344.07	225.31
344.46	225.73
344.84	226.11
345.22	226.37
345.60	226.58
345.99	226.75
346.37	226.89
346.75	227.00
347.13	227.09
347.52	227.15
347.90	227.22
348.28	227.27
348.66	227.34
349.05	227.34
349.43	227.38
349.81	227.41
350.19	227.44
350.57	227.51
350.96	227.56
351.34	227.65
351.72	227.71
352.10	227.81
352.48	227.87
352.87	227.90
353.25	227.95
353.63	228.02
354.01	228.07
354.39	228.16
354.77	228.24
355.15	228.31
355.54	228.37
355.92	228.39
356.30	228.44
356.68	228.55
357.06	228.63
357.44	228.69
357.82	228.76
358.20	228.84
358.58	228.84
358.97	228.91
359.35	228.96
359.73	229.07
360.11	229.13
360.49	229.17
360.87	229.21
361.25	229.27
361.63	229.38
362.01	229.44
362.39	229.45
362.77	229.48
363.15	229.50
363.53	229.52
363.91	229.58
364.29	229.61
364.67	229.53
365.05	229.52
365.43	229.51
365.81	229.53
366.19	229.57
366.57	229.64
366.95	229.60
367.33	229.54
367.71	229.52
368.09	229.51
368.47	229.51
368.85	229.49
369.23	229.48
369.61	229.39
369.99	229.36
370.37	229.32
370.75	229.30
371.13	229.25
371.51	229.19
371.89	229.14
372.27	229.10
372.65	229.03
373.03	229.00
373.41	228.94
373.78	228.87
374.16	228.74
374.54	228.64
374.92	228.58
375.30	228.55
375.68	228.46
376.06	228.40
376.44	228.33
376.82	228.27
377.19	228.21
377.57	228.14
377.95	228.07
378.33	228.04
378.71	227.92
379.09	227.84
379.47	227.81
379.84	227.73
380.22	227.61
380.60	227.54
380.98	227.46
381.36	227.42
381.73	227.32
382.11	227.27
382.49	227.19
382.87	227.10
383.25	227.03
383.62	227.06
384.00	226.98
384.38	226.87
384.76	226.83
385.13	226.78
385.51	226.71
385.89	226.66
386.27	226.59
386.64	226.58
387.02	226.49
387.40	226.42
387.78	226.40
388.15	226.35
388.53	226.33
388.91	226.27
389.29	226.21
389.66	226.21
390.04	226.20
390.42	226.21
390.79	226.21
391.17	226.19
391.55	226.09
391.92	226.07
392.30	226.12
392.68	226.11
393.05	226.15
393.43	226.15
393.81	226.15
394.18	226.14
394.56	226.17
394.94	226.21
395.31	226.25
395.69	226.30
396.06	226.34
396.44	226.37
396.82	226.43
397.19	226.54
397.57	226.56
397.95	226.62
398.32	226.65
398.70	226.73
399.07	226.81
399.45	226.88
399.82	226.95
400.20	226.99
400.58	227.04
400.95	227.04
401.33	227.14
401.70	227.29
402.08	227.42
402.45	227.51
402.83	227.68
403.20	227.80
403.58	227.91
403.95	228.12
404.33	228.28
404.71	228.38
405.08	228.53
405.46	228.67
405.83	228.82
406.21	228.97
406.58	229.15
406.96	229.32
407.33	229.49
407.70	229.70
408.08	230.01
408.45	230.28
408.83	230.54
409.20	230.77
409.58	230.94
409.95	231.22
410.33	231.51
410.70	231.76
411.08	232.04
411.45	232.29
411.82	232.53
412.20	232.87
412.57	233.32
412.95	233.65
413.32	234.09
413.69	234.50
414.07	234.95
414.44	235.42
414.82	235.89
415.19	236.46
415.56	237.02
415.94	237.55
416.31	238.15
416.68	238.76
417.06	239.48
417.43	240.14
417.81	240.91
418.18	241.65
418.55	242.50
418.93	243.35
419.30	244.28
419.67	245.20
420.04	246.18
420.42	247.17
420.79	248.34
421.16	249.51
421.54	250.69
421.91	251.94
422.28	253.17
422.66	254.50
423.03	255.79
423.40	257.12
423.77	258.52
424.15	259.97
424.52	261.46
424.89	263.06
425.26	264.64
425.64	266.08
426.01	267.69
426.38	269.33
426.75	271.06
427.13	272.83
427.50	274.66
427.87	276.56
428.24	278.40
428.61	280.13
428.99	282.05
429.36	284.13
429.73	286.18
430.10	288.23
430.47	290.29
430.85	292.40
431.22	294.66
431.59	297.03
431.96	299.26
432.33	301.73
432.70	304.10
433.08	306.88
433.45	309.51
433.82	312.09
434.19	315.01
434.56	317.81
434.93	320.42
435.30	323.10
435.68	325.98
436.05	328.80
436.42	331.62
436.79	334.15
437.16	336.88
437.53	339.72
437.90	342.52
438.27	345.28
438.64	348.16
439.01	350.74
439.38	353.02
439.75	355.17
440.13	357.69
440.50	360.06
440.87	361.94
441.24	363.93
441.61	366.10
441.98	367.61
442.35	369.41
442.72	371.32
443.09	373.07
443.46	374.05
443.83	374.65
444.20	375.19
444.57	376.00
444.94	376.31
445.31	376.66
445.68	377.01
446.05	377.08
446.42	376.69
446.79	376.27
447.16	375.75
447.53	375.46
447.90	374.28
448.27	373.10
448.64	371.53
449.01	370.33
449.37	368.38
449.74	366.43
450.11	364.18
450.48	361.70
450.85	359.19
451.22	357.05
451.59	355.03
451.96	353.04
452.33	350.42
452.70	348.02
453.07	345.15
453.43	342.26
453.80	339.52
454.17	336.81
454.54	334.26
454.91	331.59
455.28	328.87
455.65	326.40
456.02	323.94
456.38	321.80
456.75	319.17
457.12	316.92
457.49	314.72
457.86	312.53
458.23	310.65
458.59	308.61
458.96	306.53
459.33	304.69
459.70	302.83
460.07	301.35
460.43	299.63
460.80	298.02
461.17	296.57
461.54	295.05
461.91	293.62
462.27	292.17
462.64	290.88
463.01	289.55
463.38	288.29
463.74	286.89
464.11	285.73
464.48	284.70
464.85	283.60
465.21	282.70
465.58	281.80
465.95	280.72
466.32	279.83
466.68	278.88
467.05	277.98
467.42	277.11
467.78	276.18
468.15	275.31
468.52	274.66
468.88	273.79
469.25	273.04
469.62	272.43
469.98	271.77
470.35	271.13
470.72	270.56
471.08	269.84
471.45	269.33
471.82	268.77
472.18	268.14
472.55	267.68
472.92	267.18
473.28	266.70
473.65	266.24
474.02	265.78
474.38	265.43
474.75	265.10
475.11	264.72
475.48	264.45
475.85	264.25
476.21	263.98
476.58	263.81
476.94	263.61
477.31	263.41
477.67	263.27
478.04	263.17
478.41	263.07
478.77	263.14
479.14	263.06
479.50	263.06
479.87	263.10
480.23	263.16
480.60	263.22
480.96	263.28
481.33	263.49
481.69	263.67
482.06	263.83
482.42	264.04
482.79	264.32
483.15	264.62
483.52	264.97
483.88	265.39
484.25	265.73
484.61	266.14
484.98	266.58
485.34	267.17
485.71	267.73
486.07	268.33
486.44	268.85
486.80	269.55
487.17	270.30
487.53	271.15
487.90	272.03
488.26	272.97
488.62	273.95
488.99	274.89
489.35	275.94
489.72	277.08
490.08	278.27
490.44	279.45
490.81	280.79
491.17	282.13
491.54	283.54
491.90	285.15
492.26	286.86
492.63	288.63
492.99	290.42
493.36	292.35
493.72	294.37
494.08	296.54
494.45	298.78
494.81	301.10
495.17	303.52
495.54	306.04
495.90	308.66
496.26	311.51
496.63	314.52
496.99	317.62
497.35	320.86
497.72	324.28
498.08	327.81
498.44	331.48
498.80	335.41
499.17	339.44
499.53	343.53
499.89	347.86
500.26	352.32
500.62	356.98
500.98	361.93
501.34	367.04
501.71	372.32
502.07	377.77
502.43	383.40
502.79	389.20
503.16	395.32
503.52	401.65
503.88	408.02
504.24	414.64
504.60	421.50
504.97	428.67
505.33	435.97
505.69	443.65
506.05	451.42
506.41	459.28
506.78	467.47
507.14	475.96
507.50	484.69
507.86	493.74
508.22	502.91
508.59	512.11
508.95	521.65
509.31	531.42
509.67	541.58
510.03	551.85
510.39	562.40
510.75	573.21
511.12	584.06
511.48	595.41
511.84	606.87
512.20	618.38
512.56	630.32
512.92	642.50
513.28	654.92
513.64	667.44
514.00	680.20
514.37	693.13
514.73	706.16
515.09	719.17
515.45	732.45
515.81	745.99
516.17	760.04
516.53	774.20
516.89	788.36
517.25	802.48
517.61	816.95
517.97	831.49
518.33	845.89
518.69	860.83
519.05	875.79
519.41	890.93
519.77	906.59
520.13	921.96
520.49	937.33
520.85	952.89
521.21	968.63
521.57	984.91
521.93	1000.68
522.29	1017.19
522.65	1033.51
523.01	1049.83
523.37	1065.98
523.73	1082.20
524.09	1098.38
524.45	1114.76
524.81	1131.47
525.17	1148.38
525.53	1165.36
525.89	1182.30
526.25	1199.02
526.61	1215.52
526.97	1232.32
527.33	1248.85
527.68	1265.63
528.04	1282.21
528.40	1298.73
528.76	1315.76
529.12	1332.37
529.48	1349.32
529.84	1365.47
530.20	1382.14
530.56	1399.16
530.91	1416.59
531.27	1433.31
531.63	1449.88
531.99	1466.62
532.35	1482.67
532.71	1498.65
533.07	1514.86
533.42	1530.81
533.78	1547.04
534.14	1563.38
534.50	1578.82
534.86	1594.73
535.21	1609.88
535.57	1625.86
535.93	1641.37
536.29	1656.40
536.65	1671.58
537.00	1686.52
537.36	1701.79
537.72	1716.45
538.08	1730.99
538.44	1744.95
538.79	1758.91
539.15	1772.66
539.51	1786.41
539.87	1800.86
540.22	1814.56
540.58	1828.42
540.94	1841.92
541.29	1854.84
541.65	1867.68
542.01	1881.00
542.37	1893.31
542.72	1905.95
543.08	1917.80
543.44	1930.39
543.79	1941.71
544.15	1952.71
544.51	1964.21
544.87	1975.31
545.22	1986.15
545.58	1996.30
545.94	2006.11
546.29	2016.11
546.65	2025.92
547.01	2035.08
547.36	2043.81
547.72	2052.42
548.07	2060.34
548.43	2068.47
548.79	2076.52
549.14	2084.00
549.50	2091.39
549.86	2099.21
550.21	2106.42
550.57	2113.75
550.92	2120.35
551.28	2127.34
551.64	2134.44
551.99	2140.95
552.35	2147.04
552.70	2153.08
553.06	2159.13
553.41	2165.51
553.77	2171.54
554.13	2177.58
554.48	2183.78
554.84	2189.17
555.19	2194.50
555.55	2199.56
555.90	2203.94
556.26	2208.84
556.61	2213.52
556.97	2217.69
557.32	2221.81
557.68	2225.90
558.03	2230.16
558.39	2233.85
558.74	2238.53
559.10	2242.31
559.45	2246.04
559.81	2250.28
560.16	2254.18
560.52	2257.44
560.87	2260.78
561.23	2263.33
561.58	2266.29
561.94	2268.83
562.29	2271.29
562.64	2273.89
563.00	2276.49
563.35	2280.06
563.71	2283.10
564.06	2286.35
564.42	2289.27
564.77	2291.68
565.12	2293.92
565.48	2295.71
565.83	2297.39
566.19	2298.48
566.54	2299.58
566.89	2300.66
567.25	2301.26
567.60	2302.59
567.96	2304.25
568.31	2305.01
568.66	2306.16
569.02	2306.71
569.37	2307.07
569.72	2307.86
570.08	2307.89
570.43	2307.88
570.78	2307.29
571.14	2305.75
571.49	2304.34
571.84	2303.92
572.20	2302.70
572.55	2301.80
572.90	2300.22
573.26	2298.75
573.61	2297.12
573.96	2295.10
574.31	2291.96
574.67	2288.85
575.02	2285.08
575.37	2281.57
575.72	2277.72
576.08	2274.29
576.43	2270.94
576.78	2267.15
577.13	2263.88
577.49	2260.90
577.84	2257.34
578.19	2253.42
578.54	2249.72
578.90	2245.28
579.25	2239.65
579.60	2234.67
579.95	2229.40
580.30	2224.25
580.66	2219.12
581.01	2214.13
581.36	2209.11
581.71	2204.88
582.06	2200.31
582.42	2195.79
582.77	2190.50
583.12	2185.78
583.47	2180.83
583.82	2175.69
584.17	2170.29
584.53	2164.74
584.88	2158.81
585.23	2153.00
585.58	2147.53
585.93	2141.96
586.28	2137.18
586.63	2132.08
586.98	2126.99
587.34	2122.29
587.69	2117.33
588.04	2112.05
588.39	2106.27
588.74	2099.80
589.09	2093.65
589.44	2086.86
589.79	2080.84
590.14	2075.25
590.49	2068.74
590.84	2062.49
591.19	2056.34
591.54	2049.96
591.89	2042.40
592.25	2035.60
592.60	2028.29
592.95	2020.61
593.30	2013.10
593.65	2005.52
594.00	1998.40
594.35	1991.14
594.70	1983.05
595.05	1975.69
595.40	1968.31
595.75	1960.84
596.10	1954.53
596.45	1947.72
596.80	1941.47
597.15	1934.76
597.50	1927.44
597.85	1921.03
598.19	1914.28
598.54	1907.08
598.89	1900.42
599.24	1894.57
599.59	1887.73
599.94	1881.56
600.29	1875.22
600.64	1868.73
600.99	1861.22
601.34	1854.34
601.69	1847.17
602.04	1840.18
602.39	1832.78
602.74	1825.98
603.08	1819.14
603.43	1812.42
603.78	1805.14
604.13	1797.94
604.48	1790.59
604.83	1783.72
605.18	1776.65
605.53	1768.50
605.87	1760.48
606.22	1753.18
606.57	1745.22
606.92	1737.95
607.27	1730.64
607.62	1723.66
607.96	1716.25
608.31	1709.62
608.66	1701.97
609.01	1694.48
609.36	1686.91
609.70	1678.96
610.05	1670.77
610.40	1663.01
610.75	1654.69
611.10	1646.93
611.44	1638.55
611.79	1630.52
612.14	1621.78
612.49	1612.60
612.83	1604.24
613.18	1596.13
613.53	1588.02
613.88	1579.55
614.22	1571.33
614.57	1562.78
614.92	1554.81
615.27	1547.30
615.61	1538.86
615.96	1530.87
616.31	1523.23
616.65	1515.89
617.00	1508.32
617.35	1500.69
617.70	1492.31
618.04	1483.77
618.39	1475.57
618.74	1467.96
619.08	1459.62
619.43	1452.15
619.78	1445.21
620.12	1438.12
620.47	1430.65
620.82	1422.49
621.16	1414.98
621.51	1407.32
621.85	1399.68
622.20	1391.12
622.55	1382.88
622.89	1375.15
623.24	1367.52
623.59	1360.14
623.93	1352.61
624.28	1345.39
624.62	1337.79
624.97	1330.63
625.32	1323.90
625.66	1316.88
626.01	1309.61
626.35	1302.22
626.70	1294.29
627.04	1286.46
627.39	1278.73
627.73	1271.28
628.08	1264.29
628.43	1256.92
628.77	1249.53
629.12	1241.97
629.46	1234.79
629.81	1227.36
630.15	1220.07
630.50	1212.60
630.84	1204.38
631.19	1196.52
631.53	1188.98
631.88	1181.46
632.22	1173.87
632.57	1166.54
632.91	1158.99
633.26	1151.57
633.60	1144.25
633.95	1137.32
634.29	1130.39
634.64	1123.71
634.98	1116.44
635.32	1109.31
635.67	1102.92
636.01	1096.23
636.36	1089.46
636.70	1083.08
637.05	1076.41
637.39	1069.94
637.73	1063.39
638.08	1057.65
638.42	1051.65
638.77	1045.20
639.11	1038.53
639.45	1032.11
639.80	1025.46
640.14	1019.06
640.49	1012.51
640.83	1006.18
641.17	999.84
641.52	993.46
641.86	986.99
642.20	981.20
642.55	974.99
642.89	968.41
643.23	961.90
643.58	956.21
643.92	949.88
644.26	943.85
644.61	937.92
644.95	931.96
645.29	925.25
645.64	918.55
645.98	912.19
646.32	906.43
646.66	900.42
647.01	894.56
647.35	888.87
647.69	883.12
648.04	877.57
648.38	871.80
648.72	865.82
649.06	859.83
649.41	853.80
649.75	847.69
650.09	841.74
650.43	835.92
650.78	829.64
651.12	823.68
651.46	818.00
651.80	812.11
652.14	806.71
652.49	801.29
652.83	796.06
653.17	790.35
653.51	784.63
653.85	779.25
654.20	773.59
654.54	767.57
654.88	761.79
655.22	755.93
655.56	750.24
655.90	744.78
656.25	739.45
656.59	734.16
656.93	729.04
657.27	723.87
657.61	718.55
657.95	713.51
658.29	708.35
658.64	703.09
658.98	697.82
659.32	692.35
659.66	687.13
660.00	681.78
660.34	676.84
660.68	671.89
661.02	666.85
661.36	662.20
661.70	657.72
662.05	653.33
662.39	649.01
662.73	644.63
663.07	640.28
663.41	635.84
663.75	631.33
664.09	626.87
664.43	622.45
664.77	618.25
665.11	613.98
665.45	609.90
665.79	605.84
666.13	601.72
666.47	597.62
666.81	593.50
667.15	589.38
667.49	585.59
667.83	581.82
668.17	577.91
668.51	573.83
668.85	569.81
669.19	566.04
669.53	562.20
669.87	558.31
670.21	554.56
670.55	550.92
670.89	547.50
671.23	544.08
671.57	540.59
671.91	537.08
672.25	533.60
672.58	530.12
672.92	526.68
673.26	523.59
673.60	520.43
673.94	517.34
674.28	514.53
674.62	511.57
674.96	508.48
675.30	505.56
675.64	502.65
675.97	499.88
676.31	497.02
676.65	494.12
676.99	491.39
677.33	488.59
677.67	485.74
678.01	482.74
678.34	479.73
678.68	476.88
679.02	474.09
679.36	471.35
679.70	468.62
680.04	465.85
680.37	462.97
680.71	460.28
681.05	457.70
681.39	454.91
681.73	452.25
682.06	449.77
682.40	447.27
682.74	444.77
683.08	442.24
683.42	439.64
683.75	437.13
684.09	434.54
684.43	432.04
684.77	429.64
685.10	427.34
685.44	425.04
685.78	422.77
686.12	420.47
686.45	418.18
686.79	415.90
687.13	413.72
687.46	411.59
687.80	409.37
688.14	407.13
688.48	405.09
688.81	402.86
689.15	400.69
689.49	398.47
689.82	396.37
690.16	394.28
690.50	392.35
690.83	390.40
691.17	388.50
691.51	386.62
691.84	384.75
692.18	382.80
692.52	380.82
692.85	378.89
693.19	377.04
693.52	375.18
693.86	373.40
694.20	371.62
694.53	369.76
694.87	367.92
695.21	366.18
695.54	364.37
695.88	362.64
696.21	360.90
696.55	359.24
696.88	357.57
697.22	355.96
697.56	354.31
697.89	352.70
698.23	351.07
698.56	349.49
698.90	347.91
699.23	346.26
699.57	344.75
699.90	343.21
700.24	341.68
700.58	340.19
700.91	338.65
701.25	337.20
701.58	335.82
701.92	334.46
702.25	333.05
702.59	331.69
702.92	330.37
703.26	329.07
703.59	327.79
703.93	326.64
704.26	325.38
704.60	324.07
704.93	322.77
705.26	321.50
705.60	320.37
705.93	319.18
706.27	318.16
706.60	317.10
706.94	316.02
707.27	314.89
707.61	313.83
707.94	312.81
708.27	311.73
708.61	310.66
708.94	309.70
709.28	308.72
709.61	307.77
709.94	306.82
710.28	305.79
710.61	304.79
710.95	303.69
711.28	302.81
711.61	301.91
711.95	300.98
712.28	300.10
712.61	299.05
712.95	298.12
713.28	297.23
713.61	296.32
713.95	295.46
714.28	294.65
714.61	293.79
714.95	292.94
715.28	292.09
715.61	291.24
715.95	290.35
716.28	289.52
716.61	288.67
716.95	287.87
717.28	287.17
717.61	286.42
717.94	285.70
718.28	284.86
718.61	284.08
718.94	283.38
719.27	282.65
719.61	282.00
719.94	281.32
720.27	280.59
720.60	279.93
720.94	279.27
721.27	278.65
721.60	278.07
721.93	277.48
722.27	276.93
722.60	276.37
722.93	275.81
723.26	275.29
723.59	274.75
723.93	274.17
724.26	273.61
724.59	273.05
724.92	272.52
725.25	272.04
725.59	271.52
725.92	271.04
726.25	270.55
726.58	270.10
726.91	269.63
727.24	269.17
727.57	268.70
727.91	268.20
728.24	267.77
728.57	267.25
728.90	266.81
729.23	266.35
729.56	265.97
729.89	265.52
730.22	264.99
730.55	264.54
730.89	264.09
731.22	263.63
731.55	263.20
731.88	262.77
732.21	262.30
732.54	261.88
732.87	261.41
733.20	261.01
733.53	260.61
733.86	260.23
734.19	259.83
734.52	259.45
734.85	259.12
735.18	258.69
735.51	258.36
735.84	258.00
736.17	257.63
736.50	257.18
736.83	256.92
737.16	256.63
737.49	256.27
737.82	255.92
738.15	255.62
738.48	255.29
738.81	254.96
739.14	254.67
739.47	254.40
739.80	254.10
740.13	253.84
740.46	253.52
740.79	253.20
741.12	252.89
741.45	252.59
741.78	252.26
742.11	251.98
742.44	251.67
742.77	251.41
743.10	251.10
743.43	250.84
743.75	250.49
744.08	250.31
744.41	250.08
744.74	249.86
745.07	249.55
745.40	249.32
745.73	249.07
746.06	248.78
746.39	248.53
746.71	248.26
747.04	247.94
747.37	247.68
747.70	247.41
748.03	247.19
748.36	246.99
748.68	246.75
749.01	246.50
749.34	246.26
749.67	245.98
750.00	245.75
750.33	245.59
750.65	245.34
750.98	245.02
751.31	244.77
751.64	244.52
751.97	244.37
752.29	244.14
752.62	243.92
752.95	243.74
753.28	243.50
753.60	243.32
753.93	243.15
754.26	242.95
754.59	242.76
754.91	242.55
755.24	242.32
755.57	242.17
755.90	242.00
756.22	241.83
756.55	241.64
756.88	241.44
757.20	241.19
757.53	241.00
757.86	240.82
758.19	240.68
758.51	240.53
758.84	240.29
759.17	240.11
759.49	239.95
759.82	239.82
760.15	239.66
760.47	239.51
760.80	239.31
761.13	239.21
761.45	239.03
761.78	238.86
762.11	238.74
762.43	238.52
762.76	238.35
763.08	238.21
763.41	238.07
763.74	237.95
764.06	237.85
764.39	237.73
764.71	237.56
765.04	237.42
765.37	237.27
765.69	237.14
766.02	237.01
766.34	236.84
766.67	236.66
767.00	236.59
767.32	236.52
767.65	236.47
767.97	236.37
768.30	236.28
768.62	236.17
768.95	236.05
769.27	235.96
769.60	235.90
769.92	235.75
770.25	235.64
770.57	235.53
770.90	235.37
771.22	235.27
771.55	235.22
771.87	235.10
772.20	234.99
772.52	234.99
772.85	235.00
773.17	234.93
773.50	234.87
773.82	234.77
774.15	234.60
774.47	234.47
774.80	234.35
775.12	234.29
775.45	234.23
775.77	234.16
776.09	234.12
776.42	234.01
776.74	233.99
777.07	233.89
777.39	233.84
777.72	233.81
778.04	233.74
778.36	233.65
778.69	233.62
779.01	233.59
779.33	233.47
779.66	233.29
779.98	233.21
780.31	233.15
780.63	233.11
780.95	233.16
781.28	233.09
781.60	233.03
781.92	232.96
782.25	232.88
782.57	232.83
782.89	232.78
783.22	232.72
783.54	232.63
783.86	232.65
784.19	232.57
784.51	232.56
784.83	232.49
785.16	232.45
785.48	232.39
785.80	232.35
786.12	232.31
786.45	232.26
786.77	232.25
787.09	232.22
