SpectraSuite Data File
++++++++++++++++++++++++++++++++++++
Date: Fri Feb 01 15:36:54 EST 2013
User: group
Dark Spectrum Present: No
Reference Spectrum Present: No
Number of Sampled Component Spectra: 1
Spectrometers: USB2E7196
Integration Time (usec): 35000 (USB2E7196)
Spectra Averaged: 100 (USB2E7196)
Boxcar Smoothing: 10 (USB2E7196)
Correct for Electrical Dark: No (USB2E7196)
Strobe/Lamp Enabled: No (USB2E7196)
Correct for Detector Non-linearity: No (USB2E7196)
Correct for Stray Light: No (USB2E7196)
Number of Pixels in Processed Spectrum: 2048
>>>>>Begin Processed Spectral Data<<<<<
339.09	0.00
339.48	214.97
339.86	216.38
340.24	218.00
340.63	219.53
341.01	221.78
341.39	222.02
341.78	223.16
342.16	224.47
342.54	224.91
342.93	213.22
343.31	223.99
343.69	224.53
344.07	224.99
344.46	225.40
344.84	225.74
345.22	226.00
345.60	226.21
345.99	226.38
346.37	226.50
346.75	226.60
347.13	226.64
347.52	226.72
347.90	226.82
348.28	226.85
348.66	226.91
349.05	226.91
349.43	226.96
349.81	227.02
350.19	227.03
350.57	227.10
350.96	227.14
351.34	227.20
351.72	227.27
352.10	227.36
352.48	227.41
352.87	227.47
353.25	227.50
353.63	227.60
354.01	227.70
354.39	227.77
354.77	227.85
355.15	227.96
355.54	228.03
355.92	228.03
356.30	228.09
356.68	228.21
357.06	228.31
357.44	228.37
357.82	228.39
358.20	228.45
358.58	228.49
358.97	228.56
359.35	228.67
359.73	228.75
360.11	228.79
360.49	228.86
360.87	228.92
361.25	229.00
361.63	229.07
362.01	229.09
362.39	229.10
362.77	229.14
363.15	229.17
363.53	229.16
363.91	229.20
364.29	229.22
364.67	229.15
365.05	229.13
365.43	229.15
365.81	229.17
366.19	229.22
366.57	229.24
366.95	229.25
367.33	229.21
367.71	229.16
368.09	229.17
368.47	229.13
368.85	229.08
369.23	229.07
369.61	229.01
369.99	229.01
370.37	228.98
370.75	228.97
371.13	228.91
371.51	228.88
371.89	228.85
372.27	228.80
372.65	228.75
373.03	228.74
373.41	228.66
373.78	228.62
374.16	228.53
374.54	228.45
374.92	228.39
375.30	228.31
375.68	228.24
376.06	228.16
376.44	228.14
376.82	228.07
377.19	227.99
377.57	227.91
377.95	227.80
378.33	227.74
378.71	227.60
379.09	227.52
379.47	227.44
379.84	227.37
380.22	227.30
380.60	227.21
380.98	227.11
381.36	227.04
381.73	226.93
382.11	226.88
382.49	226.85
382.87	226.77
383.25	226.74
383.62	226.83
384.00	226.76
384.38	226.72
384.76	226.72
385.13	226.70
385.51	226.65
385.89	226.58
386.27	226.55
386.64	226.53
387.02	226.47
387.40	226.43
387.78	226.38
388.15	226.33
388.53	226.30
388.91	226.29
389.29	226.24
389.66	226.21
390.04	226.15
390.42	226.12
390.79	226.12
391.17	226.08
391.55	225.95
391.92	225.94
392.30	225.90
392.68	225.86
393.05	225.83
393.43	225.86
393.81	225.90
394.18	225.88
394.56	225.92
394.94	225.99
395.31	226.04
395.69	226.08
396.06	226.14
396.44	226.20
396.82	226.21
397.19	226.31
397.57	226.37
397.95	226.44
398.32	226.46
398.70	226.51
399.07	226.62
399.45	226.69
399.82	226.77
400.20	226.85
400.58	226.92
400.95	227.01
401.33	227.12
401.70	227.29
402.08	227.42
402.45	227.51
402.83	227.64
403.20	227.73
403.58	227.86
403.95	227.99
404.33	228.12
404.71	228.29
405.08	228.47
405.46	228.63
405.83	228.79
406.21	228.96
406.58	229.12
406.96	229.27
407.33	229.48
407.70	229.68
408.08	229.96
408.45	230.21
408.83	230.43
409.20	230.62
409.58	230.79
409.95	231.06
410.33	231.34
410.70	231.58
411.08	231.91
411.45	232.21
411.82	232.53
412.20	232.91
412.57	233.31
412.95	233.62
413.32	233.99
413.69	234.43
414.07	234.89
414.44	235.35
414.82	235.85
415.19	236.38
415.56	236.93
415.94	237.45
416.31	238.06
416.68	238.68
417.06	239.41
417.43	240.10
417.81	240.83
418.18	241.61
418.55	242.43
418.93	243.27
419.30	244.14
419.67	245.03
420.04	246.01
420.42	246.99
420.79	248.16
421.16	249.34
421.54	250.52
421.91	251.71
422.28	252.98
422.66	254.32
423.03	255.61
423.40	256.94
423.77	258.36
424.15	259.81
424.52	261.29
424.89	262.93
425.26	264.47
425.64	265.92
426.01	267.47
426.38	269.16
426.75	270.82
427.13	272.58
427.50	274.40
427.87	276.25
428.24	278.13
428.61	279.88
428.99	281.81
429.36	283.93
429.73	286.00
430.10	287.99
430.47	290.01
430.85	292.12
431.22	294.32
431.59	296.71
431.96	298.95
432.33	301.41
432.70	303.78
433.08	306.61
433.45	309.27
433.82	311.91
434.19	314.77
434.56	317.60
434.93	320.26
435.30	322.88
435.68	325.74
436.05	328.55
436.42	331.39
436.79	333.88
437.16	336.57
437.53	339.43
437.90	342.25
438.27	345.01
438.64	347.88
439.01	350.50
439.38	352.73
439.75	354.89
440.13	357.39
440.50	359.73
440.87	361.52
441.24	363.45
441.61	365.57
441.98	367.05
442.35	368.85
442.72	370.69
443.09	372.51
443.46	373.55
443.83	374.17
444.20	374.62
444.57	375.48
444.94	375.76
445.31	376.06
445.68	376.46
446.05	376.55
446.42	376.17
446.79	375.74
447.16	375.28
447.53	374.96
447.90	373.82
448.27	372.66
448.64	371.11
449.01	369.96
449.37	368.02
449.74	366.14
450.11	363.92
450.48	361.43
450.85	358.92
451.22	356.75
451.59	354.69
451.96	352.74
452.33	350.16
452.70	347.76
453.07	344.91
453.43	342.01
453.80	339.21
454.17	336.53
454.54	333.98
454.91	331.29
455.28	328.63
455.65	326.15
456.02	323.69
456.38	321.53
456.75	318.92
457.12	316.66
457.49	314.45
457.86	312.23
458.23	310.40
458.59	308.33
458.96	306.24
459.33	304.39
459.70	302.55
460.07	301.02
460.43	299.34
460.80	297.74
461.17	296.28
461.54	294.82
461.91	293.35
462.27	291.91
462.64	290.67
463.01	289.32
463.38	287.98
463.74	286.60
464.11	285.43
464.48	284.41
464.85	283.33
465.21	282.44
465.58	281.53
465.95	280.43
466.32	279.54
466.68	278.63
467.05	277.72
467.42	276.81
467.78	275.88
468.15	275.01
468.52	274.35
468.88	273.49
469.25	272.72
469.62	272.10
469.98	271.47
470.35	270.79
470.72	270.16
471.08	269.54
471.45	269.00
471.82	268.48
472.18	267.86
472.55	267.40
472.92	266.91
473.28	266.47
473.65	266.04
474.02	265.58
474.38	265.23
474.75	264.96
475.11	264.62
475.48	264.38
475.85	264.12
476.21	263.84
476.58	263.63
476.94	263.47
477.31	263.31
477.67	263.11
478.04	262.99
478.41	262.95
478.77	262.98
479.14	262.93
479.50	262.95
479.87	263.00
480.23	263.09
480.60	263.13
480.96	263.21
481.33	263.41
481.69	263.61
482.06	263.81
482.42	264.01
482.79	264.30
483.15	264.62
483.52	265.00
483.88	265.36
484.25	265.78
484.61	266.22
484.98	266.68
485.34	267.26
485.71	267.86
486.07	268.50
486.44	269.07
486.80	269.76
487.17	270.42
487.53	271.25
487.90	272.08
488.26	272.98
488.62	273.99
488.99	274.96
489.35	276.00
489.72	277.12
490.08	278.33
490.44	279.52
490.81	280.83
491.17	282.19
491.54	283.71
491.90	285.26
492.26	286.91
492.63	288.62
492.99	290.43
493.36	292.31
493.72	294.33
494.08	296.43
494.45	298.68
494.81	301.05
495.17	303.47
495.54	306.03
495.90	308.76
496.26	311.50
496.63	314.48
496.99	317.58
497.35	320.79
497.72	324.12
498.08	327.65
498.44	331.35
498.80	335.28
499.17	339.30
499.53	343.40
499.89	347.72
500.26	352.23
500.62	356.89
500.98	361.86
501.34	366.93
501.71	372.21
502.07	377.66
502.43	383.29
502.79	389.09
503.16	395.15
503.52	401.41
503.88	407.84
504.24	414.45
504.60	421.34
504.97	428.46
505.33	435.86
505.69	443.57
506.05	451.36
506.41	459.23
506.78	467.35
507.14	475.82
507.50	484.59
507.86	493.59
508.22	502.78
508.59	512.01
508.95	521.61
509.31	531.46
509.67	541.55
510.03	551.90
510.39	562.48
510.75	573.27
511.12	584.20
511.48	595.52
511.84	606.98
512.20	618.56
512.56	630.52
512.92	642.62
513.28	654.96
513.64	667.48
514.00	680.17
514.37	693.17
514.73	706.26
515.09	719.28
515.45	732.63
515.81	746.17
516.17	760.20
516.53	774.30
516.89	788.46
517.25	802.73
517.61	817.16
517.97	831.63
518.33	846.07
518.69	860.83
519.05	875.75
519.41	890.98
519.77	906.51
520.13	921.92
520.49	937.32
520.85	952.75
521.21	968.48
521.57	984.82
521.93	1000.62
522.29	1017.01
522.65	1033.24
523.01	1049.44
523.37	1065.46
523.73	1081.68
524.09	1097.76
524.45	1114.12
524.81	1130.68
525.17	1147.46
525.53	1164.38
525.89	1181.35
526.25	1198.35
526.61	1214.74
526.97	1231.41
527.33	1247.80
527.68	1264.63
528.04	1281.15
528.40	1297.82
528.76	1314.87
529.12	1331.47
529.48	1348.39
529.84	1364.49
530.20	1381.17
530.56	1398.30
530.91	1415.76
531.27	1432.44
531.63	1448.87
531.99	1465.54
532.35	1481.50
532.71	1497.43
533.07	1513.76
533.42	1529.61
533.78	1545.56
534.14	1561.97
534.50	1577.43
534.86	1593.44
535.21	1608.48
535.57	1624.47
535.93	1639.92
536.29	1654.69
536.65	1669.76
537.00	1684.49
537.36	1699.72
537.72	1714.28
538.08	1728.70
538.44	1742.47
538.79	1756.39
539.15	1770.28
539.51	1783.95
539.87	1798.24
540.22	1812.06
540.58	1825.79
540.94	1839.15
541.29	1852.09
541.65	1864.82
542.01	1877.97
542.37	1890.33
542.72	1902.81
543.08	1914.63
543.44	1927.02
543.79	1938.20
544.15	1949.19
544.51	1960.77
544.87	1971.96
545.22	1982.67
545.58	1992.79
545.94	2002.56
546.29	2012.44
546.65	2022.10
547.01	2031.33
547.36	2040.32
547.72	2048.69
548.07	2056.54
548.43	2064.77
548.79	2072.79
549.14	2080.31
549.50	2087.81
549.86	2095.46
550.21	2102.77
550.57	2109.90
550.92	2116.51
551.28	2123.62
551.64	2130.75
551.99	2137.29
552.35	2143.32
552.70	2149.48
553.06	2155.47
553.41	2161.96
553.77	2168.05
554.13	2174.29
554.48	2180.37
554.84	2185.57
555.19	2190.89
555.55	2195.99
555.90	2200.51
556.26	2205.24
556.61	2209.98
556.97	2214.15
557.32	2218.28
557.68	2222.40
558.03	2226.71
558.39	2230.40
558.74	2235.05
559.10	2238.97
559.45	2242.61
559.81	2247.02
560.16	2250.93
560.52	2254.24
560.87	2257.71
561.23	2260.35
561.58	2263.27
561.94	2266.01
562.29	2268.61
562.64	2271.35
563.00	2273.95
563.35	2277.50
563.71	2280.60
564.06	2283.83
564.42	2286.60
564.77	2289.05
565.12	2291.24
565.48	2293.03
565.83	2294.94
566.19	2296.27
566.54	2297.09
566.89	2298.08
567.25	2298.47
567.60	2299.72
567.96	2301.23
568.31	2302.01
568.66	2303.02
569.02	2303.64
569.37	2303.86
569.72	2304.66
570.08	2304.72
570.43	2304.67
570.78	2303.98
571.14	2302.54
571.49	2301.12
571.84	2300.88
572.20	2299.61
572.55	2298.68
572.90	2297.17
573.26	2295.74
573.61	2293.83
573.96	2292.05
574.31	2289.08
574.67	2286.07
575.02	2282.41
575.37	2279.08
575.72	2275.18
576.08	2271.89
576.43	2268.48
576.78	2264.78
577.13	2261.48
577.49	2258.33
577.84	2254.93
578.19	2251.17
578.54	2247.53
578.90	2243.26
579.25	2237.65
579.60	2232.79
579.95	2227.76
580.30	2222.72
580.66	2217.52
581.01	2212.67
581.36	2207.74
581.71	2203.62
582.06	2199.15
582.42	2194.65
582.77	2189.33
583.12	2184.64
583.47	2179.84
583.82	2174.64
584.17	2169.30
584.53	2163.76
584.88	2158.05
585.23	2152.12
585.58	2146.54
585.93	2141.11
586.28	2136.31
586.63	2131.23
586.98	2126.08
587.34	2121.27
587.69	2116.34
588.04	2110.98
588.39	2105.19
588.74	2098.54
589.09	2092.38
589.44	2085.43
589.79	2079.46
590.14	2073.84
590.49	2067.27
590.84	2060.94
591.19	2055.00
591.54	2048.54
591.89	2041.00
592.25	2034.33
592.60	2027.04
592.95	2019.59
593.30	2012.05
593.65	2004.37
594.00	1997.28
594.35	1990.06
594.70	1981.87
595.05	1974.51
595.40	1967.27
595.75	1959.79
596.10	1953.59
596.45	1946.78
596.80	1940.76
597.15	1933.97
597.50	1926.69
597.85	1920.31
598.19	1913.51
598.54	1906.35
598.89	1899.75
599.24	1893.89
599.59	1886.93
599.94	1880.82
600.29	1874.38
600.64	1867.79
600.99	1860.19
601.34	1853.27
601.69	1846.27
602.04	1839.44
602.39	1832.11
602.74	1825.27
603.08	1818.51
603.43	1811.64
603.78	1804.34
604.13	1796.97
604.48	1789.74
604.83	1782.91
605.18	1775.79
605.53	1767.77
605.87	1759.78
606.22	1752.49
606.57	1744.57
606.92	1737.34
607.27	1730.21
607.62	1723.22
607.96	1715.96
608.31	1709.39
608.66	1701.68
609.01	1694.16
609.36	1686.59
609.70	1678.68
610.05	1670.47
610.40	1662.77
610.75	1654.57
611.10	1646.80
611.44	1638.46
611.79	1630.38
612.14	1621.71
612.49	1612.51
612.83	1604.11
613.18	1596.07
613.53	1587.87
613.88	1579.26
614.22	1571.04
614.57	1562.39
614.92	1554.30
615.27	1546.78
615.61	1538.42
615.96	1530.50
616.31	1522.79
616.65	1515.42
617.00	1507.74
617.35	1500.18
617.70	1491.74
618.04	1483.24
618.39	1475.03
618.74	1467.46
619.08	1459.21
619.43	1451.72
619.78	1444.85
620.12	1437.78
620.47	1430.14
620.82	1421.94
621.16	1414.64
621.51	1407.05
621.85	1399.46
622.20	1390.99
622.55	1382.61
622.89	1374.84
623.24	1367.17
623.59	1359.88
623.93	1352.38
624.28	1345.16
624.62	1337.61
624.97	1330.48
625.32	1323.77
625.66	1316.73
626.01	1309.41
626.35	1301.91
626.70	1294.14
627.04	1286.49
627.39	1278.65
627.73	1271.27
628.08	1264.34
628.43	1257.00
628.77	1249.60
629.12	1242.04
629.46	1234.81
629.81	1227.38
630.15	1220.13
630.50	1212.71
630.84	1204.46
631.19	1196.52
631.53	1189.03
631.88	1181.43
632.22	1173.84
632.57	1166.41
632.91	1158.92
633.26	1151.57
633.60	1144.30
633.95	1137.27
634.29	1130.28
634.64	1123.58
634.98	1116.18
635.32	1109.13
635.67	1102.59
636.01	1095.98
636.36	1089.12
636.70	1082.67
637.05	1076.11
637.39	1069.67
637.73	1063.18
638.08	1057.32
638.42	1051.34
638.77	1044.94
639.11	1038.30
639.45	1031.93
639.80	1025.26
640.14	1018.83
640.49	1012.40
640.83	1006.14
641.17	999.84
641.52	993.44
641.86	986.99
642.20	981.08
642.55	974.70
642.89	968.12
643.23	961.52
643.58	955.70
643.92	949.48
644.26	943.43
644.61	937.37
644.95	931.35
645.29	924.69
645.64	917.92
645.98	911.58
646.32	905.81
646.66	899.84
647.01	894.12
647.35	888.48
647.69	882.63
648.04	877.01
648.38	871.28
648.72	865.24
649.06	859.23
649.41	853.46
649.75	847.49
650.09	841.55
650.43	835.82
650.78	829.70
651.12	823.71
651.46	818.06
651.80	812.35
652.14	806.97
652.49	801.65
652.83	796.48
653.17	790.71
653.51	785.02
653.85	779.61
654.20	773.89
654.54	767.88
654.88	762.11
655.22	756.24
655.56	750.52
655.90	745.08
656.25	739.76
656.59	734.39
656.93	729.33
657.27	724.20
657.61	718.75
657.95	713.74
658.29	708.66
658.64	703.42
658.98	698.10
659.32	692.66
659.66	687.43
660.00	682.12
660.34	677.26
660.68	672.37
661.02	667.36
661.36	662.70
661.70	658.19
662.05	653.87
662.39	649.58
662.73	645.17
663.07	640.88
663.41	636.49
663.75	632.01
664.09	627.41
664.43	623.06
664.77	618.91
665.11	614.66
665.45	610.60
665.79	606.49
666.13	602.41
666.47	598.31
666.81	594.15
667.15	590.04
667.49	586.19
667.83	582.37
668.17	578.42
668.51	574.36
668.85	570.32
669.19	566.44
669.53	562.58
669.87	558.67
670.21	554.90
670.55	551.28
670.89	547.79
671.23	544.44
671.57	540.93
671.91	537.42
672.25	533.87
672.58	530.33
672.92	526.90
673.26	523.69
673.60	520.54
673.94	517.48
674.28	514.63
674.62	511.63
674.96	508.51
675.30	505.61
675.64	502.68
675.97	499.96
676.31	497.15
676.65	494.22
676.99	491.52
677.33	488.64
677.67	485.84
678.01	482.85
678.34	479.84
678.68	476.98
679.02	474.15
679.36	471.41
679.70	468.70
680.04	465.96
680.37	463.09
680.71	460.32
681.05	457.67
681.39	454.96
681.73	452.32
682.06	449.81
682.40	447.25
682.74	444.76
683.08	442.22
683.42	439.60
683.75	437.09
684.09	434.58
684.43	432.15
684.77	429.69
685.10	427.33
685.44	425.07
685.78	422.76
686.12	420.54
686.45	418.27
686.79	415.95
687.13	413.75
687.46	411.61
687.80	409.42
688.14	407.24
688.48	405.17
688.81	402.88
689.15	400.74
689.49	398.60
689.82	396.50
690.16	394.42
690.50	392.47
690.83	390.58
691.17	388.56
691.51	386.68
691.84	384.79
692.18	382.91
692.52	380.90
692.85	378.97
693.19	377.09
693.52	375.24
693.86	373.45
694.20	371.66
694.53	369.87
694.87	368.06
695.21	366.34
695.54	364.54
695.88	362.85
696.21	361.12
696.55	359.43
696.88	357.73
697.22	356.02
697.56	354.42
697.89	352.75
698.23	351.16
698.56	349.51
698.90	347.92
699.23	346.20
699.57	344.66
699.90	343.17
700.24	341.66
700.58	340.15
700.91	338.64
701.25	337.21
701.58	335.86
701.92	334.51
702.25	333.05
702.59	331.68
702.92	330.31
703.26	328.98
703.59	327.71
703.93	326.55
704.26	325.33
704.60	324.01
704.93	322.74
705.26	321.47
705.60	320.33
705.93	319.18
706.27	318.17
706.60	317.10
706.94	315.98
707.27	314.79
707.61	313.70
707.94	312.72
708.27	311.62
708.61	310.54
708.94	309.55
709.28	308.55
709.61	307.57
709.94	306.66
710.28	305.66
710.61	304.68
710.95	303.60
711.28	302.69
711.61	301.76
711.95	300.81
712.28	299.87
712.61	298.89
712.95	297.98
713.28	297.09
713.61	296.18
713.95	295.31
714.28	294.49
714.61	293.65
714.95	292.77
715.28	291.93
715.61	291.02
715.95	290.17
716.28	289.35
716.61	288.52
716.95	287.73
717.28	286.99
717.61	286.20
717.94	285.48
718.28	284.66
718.61	283.94
718.94	283.28
719.27	282.61
719.61	281.97
719.94	281.30
720.27	280.61
720.60	280.00
720.94	279.37
721.27	278.81
721.60	278.22
721.93	277.63
722.27	277.09
722.60	276.56
722.93	275.94
723.26	275.40
723.59	274.80
723.93	274.25
724.26	273.71
724.59	273.18
724.92	272.68
725.25	272.21
725.59	271.70
725.92	271.21
726.25	270.69
726.58	270.18
726.91	269.73
727.24	269.24
727.57	268.76
727.91	268.26
728.24	267.76
728.57	267.29
728.90	266.86
729.23	266.36
729.56	265.95
729.89	265.52
730.22	265.05
730.55	264.58
730.89	264.18
731.22	263.74
731.55	263.26
731.88	262.84
732.21	262.41
732.54	261.98
732.87	261.56
733.20	261.17
733.53	260.78
733.86	260.37
734.19	259.98
734.52	259.62
734.85	259.33
735.18	258.92
735.51	258.54
735.84	258.13
736.17	257.79
736.50	257.38
736.83	257.10
737.16	256.77
737.49	256.48
737.82	256.09
738.15	255.74
738.48	255.45
738.81	255.08
739.14	254.73
739.47	254.38
739.80	254.06
740.13	253.77
740.46	253.42
740.79	253.08
741.12	252.78
741.45	252.45
741.78	252.06
742.11	251.81
742.44	251.45
742.77	251.18
743.10	250.83
743.43	250.51
743.75	250.13
744.08	249.96
744.41	249.70
744.74	249.42
745.07	249.14
745.40	248.88
745.73	248.68
746.06	248.38
746.39	248.12
746.71	247.83
747.04	247.52
747.37	247.27
747.70	247.03
748.03	246.76
748.36	246.53
748.68	246.26
749.01	245.97
749.34	245.75
749.67	245.52
750.00	245.32
750.33	245.18
750.65	244.97
750.98	244.62
751.31	244.39
751.64	244.15
751.97	243.98
752.29	243.74
752.62	243.48
752.95	243.28
753.28	243.07
753.60	242.87
753.93	242.73
754.26	242.55
754.59	242.33
754.91	242.11
755.24	241.91
755.57	241.75
755.90	241.58
756.22	241.41
756.55	241.20
756.88	241.01
757.20	240.74
757.53	240.56
757.86	240.43
758.19	240.25
758.51	240.09
758.84	239.89
759.17	239.73
759.49	239.57
759.82	239.43
760.15	239.30
760.47	239.14
760.80	238.97
761.13	238.81
761.45	238.68
761.78	238.57
762.11	238.41
762.43	238.26
762.76	238.11
763.08	238.00
763.41	237.85
763.74	237.72
764.06	237.60
764.39	237.48
764.71	237.33
765.04	237.19
765.37	237.06
765.69	236.92
766.02	236.80
766.34	236.66
766.67	236.54
767.00	236.45
767.32	236.37
767.65	236.33
767.97	236.22
768.30	236.11
768.62	236.00
768.95	235.87
769.27	235.77
769.60	235.71
769.92	235.58
770.25	235.49
770.57	235.39
770.90	235.28
771.22	235.17
771.55	235.10
771.87	235.00
772.20	234.93
772.52	234.93
772.85	235.00
773.17	234.90
773.50	234.82
773.82	234.69
774.15	234.57
774.47	234.44
774.80	234.37
775.12	234.28
775.45	234.20
775.77	234.14
776.09	234.08
776.42	233.98
776.74	233.95
777.07	233.89
777.39	233.80
777.72	233.75
778.04	233.66
778.36	233.58
778.69	233.53
779.01	233.48
779.33	233.32
779.66	233.10
779.98	233.05
780.31	232.97
780.63	232.95
780.95	232.88
781.28	232.78
781.60	232.70
781.92	232.66
782.25	232.58
782.57	232.48
782.89	232.38
783.22	232.29
783.54	232.20
783.86	232.14
784.19	232.08
784.51	232.01
784.83	231.97
785.16	231.89
785.48	231.85
785.80	231.77
786.12	231.70
786.45	231.63
786.77	231.61
787.09	231.56
