SpectraSuite Data File
++++++++++++++++++++++++++++++++++++
Date: Fri Feb 01 16:15:01 EST 2013
User: group
Dark Spectrum Present: No
Reference Spectrum Present: No
Number of Sampled Component Spectra: 1
Spectrometers: USB2E7196
Integration Time (usec): 35000 (USB2E7196)
Spectra Averaged: 100 (USB2E7196)
Boxcar Smoothing: 10 (USB2E7196)
Correct for Electrical Dark: No (USB2E7196)
Strobe/Lamp Enabled: No (USB2E7196)
Correct for Detector Non-linearity: No (USB2E7196)
Correct for Stray Light: No (USB2E7196)
Number of Pixels in Processed Spectrum: 2048
>>>>>Begin Processed Spectral Data<<<<<
339.09	0.00
339.48	214.22
339.86	216.05
340.24	217.21
340.63	218.36
341.01	221.41
341.39	220.75
341.78	221.98
342.16	223.23
342.54	224.92
342.93	212.64
343.31	223.38
343.69	223.94
344.07	224.40
344.46	224.80
344.84	225.20
345.22	225.42
345.60	225.69
345.99	225.90
346.37	226.04
346.75	226.12
347.13	226.19
347.52	226.23
347.90	226.27
348.28	226.29
348.66	226.33
349.05	226.30
349.43	226.36
349.81	226.40
350.19	226.41
350.57	226.48
350.96	226.56
351.34	226.62
351.72	226.66
352.10	226.73
352.48	226.81
352.87	226.84
353.25	226.89
353.63	226.95
354.01	226.99
354.39	227.07
354.77	227.16
355.15	227.24
355.54	227.27
355.92	227.31
356.30	227.38
356.68	227.52
357.06	227.61
357.44	227.62
357.82	227.65
358.20	227.72
358.58	227.74
358.97	227.77
359.35	227.83
359.73	227.90
360.11	227.96
360.49	228.00
360.87	228.06
361.25	228.11
361.63	228.18
362.01	228.23
362.39	228.23
362.77	228.28
363.15	228.31
363.53	228.36
363.91	228.42
364.29	228.43
364.67	228.35
365.05	228.37
365.43	228.40
365.81	228.44
366.19	228.48
366.57	228.56
366.95	228.56
367.33	228.55
367.71	228.56
368.09	228.58
368.47	228.57
368.85	228.54
369.23	228.55
369.61	228.48
369.99	228.50
370.37	228.50
370.75	228.45
371.13	228.35
371.51	228.30
371.89	228.22
372.27	228.19
372.65	228.13
373.03	228.06
373.41	227.98
373.78	227.96
374.16	227.85
374.54	227.76
374.92	227.69
375.30	227.66
375.68	227.56
376.06	227.49
376.44	227.41
376.82	227.33
377.19	227.26
377.57	227.19
377.95	227.09
378.33	227.01
378.71	226.91
379.09	226.88
379.47	226.83
379.84	226.77
380.22	226.68
380.60	226.62
380.98	226.57
381.36	226.51
381.73	226.41
382.11	226.36
382.49	226.29
382.87	226.23
383.25	226.14
383.62	226.19
384.00	226.10
384.38	226.06
384.76	226.06
385.13	226.04
385.51	226.00
385.89	225.95
386.27	225.92
386.64	225.87
387.02	225.83
387.40	225.78
387.78	225.75
388.15	225.73
388.53	225.69
388.91	225.67
389.29	225.62
389.66	225.62
390.04	225.63
390.42	225.65
390.79	225.64
391.17	225.62
391.55	225.55
391.92	225.55
392.30	225.57
392.68	225.53
393.05	225.54
393.43	225.56
393.81	225.59
394.18	225.58
394.56	225.62
394.94	225.65
395.31	225.67
395.69	225.71
396.06	225.75
396.44	225.81
396.82	225.84
397.19	225.94
397.57	225.95
397.95	225.99
398.32	225.97
398.70	226.03
399.07	226.10
399.45	226.13
399.82	226.18
400.20	226.22
400.58	226.28
400.95	226.32
401.33	226.41
401.70	226.51
402.08	226.59
402.45	226.64
402.83	226.75
403.20	226.83
403.58	226.90
403.95	227.04
404.33	227.14
404.71	227.25
405.08	227.41
405.46	227.56
405.83	227.71
406.21	227.88
406.58	228.04
406.96	228.21
407.33	228.37
407.70	228.59
408.08	228.85
408.45	229.08
408.83	229.32
409.20	229.53
409.58	229.74
409.95	230.02
410.33	230.30
410.70	230.59
411.08	230.94
411.45	231.27
411.82	231.58
412.20	231.92
412.57	232.34
412.95	232.64
413.32	233.02
413.69	233.40
414.07	233.85
414.44	234.29
414.82	234.75
415.19	235.30
415.56	235.83
415.94	236.35
416.31	236.98
416.68	237.58
417.06	238.27
417.43	238.90
417.81	239.63
418.18	240.43
418.55	241.21
418.93	242.05
419.30	242.95
419.67	243.84
420.04	244.83
420.42	245.84
420.79	247.04
421.16	248.19
421.54	249.41
421.91	250.61
422.28	251.90
422.66	253.24
423.03	254.57
423.40	255.88
423.77	257.31
424.15	258.74
424.52	260.19
424.89	261.84
425.26	263.41
425.64	264.89
426.01	266.48
426.38	268.12
426.75	269.81
427.13	271.54
427.50	273.37
427.87	275.23
428.24	277.08
428.61	278.78
428.99	280.73
429.36	282.83
429.73	284.90
430.10	286.90
430.47	288.95
430.85	291.03
431.22	293.29
431.59	295.61
431.96	297.86
432.33	300.36
432.70	302.74
433.08	305.55
433.45	308.17
433.82	310.76
434.19	313.64
434.56	316.46
434.93	319.16
435.30	321.77
435.68	324.62
436.05	327.44
436.42	330.26
436.79	332.77
437.16	335.43
437.53	338.26
437.90	341.03
438.27	343.82
438.64	346.69
439.01	349.28
439.38	351.59
439.75	353.73
440.13	356.24
440.50	358.55
440.87	360.38
441.24	362.35
441.61	364.48
441.98	366.01
442.35	367.72
442.72	369.55
443.09	371.34
443.46	372.36
443.83	372.99
444.20	373.49
444.57	374.33
444.94	374.64
445.31	374.95
445.68	375.31
446.05	375.35
446.42	374.92
446.79	374.50
447.16	374.04
447.53	373.74
447.90	372.55
448.27	371.38
448.64	369.81
449.01	368.65
449.37	366.69
449.74	364.79
450.11	362.59
450.48	360.08
450.85	357.57
451.22	355.46
451.59	353.43
451.96	351.49
452.33	348.91
452.70	346.57
453.07	343.78
453.43	340.94
453.80	338.19
454.17	335.54
454.54	333.00
454.91	330.24
455.28	327.53
455.65	325.05
456.02	322.59
456.38	320.46
456.75	317.80
457.12	315.57
457.49	313.30
457.86	311.13
458.23	309.31
458.59	307.25
458.96	305.17
459.33	303.28
459.70	301.38
460.07	299.83
460.43	298.10
460.80	296.45
461.17	294.96
461.54	293.46
461.91	292.04
462.27	290.61
462.64	289.39
463.01	288.07
463.38	286.74
463.74	285.40
464.11	284.27
464.48	283.27
464.85	282.15
465.21	281.34
465.58	280.48
465.95	279.38
466.32	278.50
466.68	277.56
467.05	276.70
467.42	275.86
467.78	274.98
468.15	274.11
468.52	273.45
468.88	272.62
469.25	271.83
469.62	271.24
469.98	270.54
470.35	269.91
470.72	269.33
471.08	268.71
471.45	268.18
471.82	267.61
472.18	267.02
472.55	266.59
472.92	266.05
473.28	265.55
473.65	265.13
474.02	264.67
474.38	264.32
474.75	263.98
475.11	263.63
475.48	263.37
475.85	263.13
476.21	262.93
476.58	262.75
476.94	262.66
477.31	262.49
477.67	262.35
478.04	262.27
478.41	262.24
478.77	262.32
479.14	262.26
479.50	262.30
479.87	262.41
480.23	262.54
480.60	262.62
480.96	262.76
481.33	262.99
481.69	263.25
482.06	263.46
482.42	263.72
482.79	264.00
483.15	264.37
483.52	264.79
483.88	265.17
484.25	265.58
484.61	266.00
484.98	266.48
485.34	267.07
485.71	267.67
486.07	268.27
486.44	268.87
486.80	269.64
487.17	270.39
487.53	271.19
487.90	272.03
488.26	273.01
488.62	273.97
488.99	274.94
489.35	275.96
489.72	277.07
490.08	278.26
490.44	279.52
490.81	280.81
491.17	282.16
491.54	283.63
491.90	285.16
492.26	286.82
492.63	288.52
492.99	290.34
493.36	292.24
493.72	294.28
494.08	296.33
494.45	298.54
494.81	300.92
495.17	303.31
495.54	305.88
495.90	308.56
496.26	311.36
496.63	314.35
496.99	317.47
497.35	320.77
497.72	324.20
498.08	327.73
498.44	331.38
498.80	335.29
499.17	339.31
499.53	343.52
499.89	347.92
500.26	352.42
500.62	357.05
500.98	361.99
501.34	367.09
501.71	372.42
502.07	377.87
502.43	383.48
502.79	389.34
503.16	395.42
503.52	401.67
503.88	408.08
504.24	414.70
504.60	421.53
504.97	428.61
505.33	435.88
505.69	443.56
506.05	451.36
506.41	459.28
506.78	467.49
507.14	475.91
507.50	484.56
507.86	493.61
508.22	502.79
508.59	512.03
508.95	521.57
509.31	531.40
509.67	541.55
510.03	551.84
510.39	562.39
510.75	573.17
511.12	584.13
511.48	595.45
511.84	606.89
512.20	618.42
512.56	630.35
512.92	642.55
513.28	654.91
513.64	667.41
514.00	680.12
514.37	693.02
514.73	706.04
515.09	719.07
515.45	732.34
515.81	745.97
516.17	759.89
516.53	774.05
516.89	788.25
517.25	802.39
517.61	816.77
517.97	831.23
518.33	845.66
518.69	860.43
519.05	875.31
519.41	890.45
519.77	905.93
520.13	921.43
520.49	936.78
520.85	952.09
521.21	967.74
521.57	984.01
521.93	999.78
522.29	1016.15
522.65	1032.34
523.01	1048.51
523.37	1064.48
523.73	1080.57
524.09	1096.56
524.45	1112.71
524.81	1129.22
525.17	1145.94
525.53	1162.75
525.89	1179.66
526.25	1196.40
526.61	1212.88
526.97	1229.56
527.33	1246.05
527.68	1262.51
528.04	1278.91
528.40	1295.46
528.76	1312.47
529.12	1328.85
529.48	1345.62
529.84	1361.57
530.20	1378.18
530.56	1395.08
530.91	1412.43
531.27	1429.29
531.63	1445.72
531.99	1462.35
532.35	1478.38
532.71	1494.22
533.07	1510.38
533.42	1526.01
533.78	1542.03
534.14	1558.11
534.50	1573.28
534.86	1588.96
535.21	1604.15
535.57	1620.03
535.93	1635.53
536.29	1650.27
536.65	1665.34
537.00	1679.99
537.36	1695.25
537.72	1709.71
538.08	1724.14
538.44	1737.85
538.79	1751.54
539.15	1765.10
539.51	1778.71
539.87	1793.04
540.22	1806.66
540.58	1820.20
540.94	1833.44
541.29	1846.17
541.65	1858.78
542.01	1872.02
542.37	1884.32
542.72	1896.63
543.08	1908.25
543.44	1920.53
543.79	1931.59
544.15	1942.30
544.51	1953.95
544.87	1964.86
545.22	1975.55
545.58	1985.69
545.94	1995.36
546.29	2005.02
546.65	2014.89
547.01	2024.23
547.36	2032.76
547.72	2041.19
548.07	2049.18
548.43	2057.39
548.79	2065.30
549.14	2072.81
549.50	2080.05
549.86	2087.69
550.21	2094.98
550.57	2102.16
550.92	2108.71
551.28	2115.77
551.64	2123.04
551.99	2129.40
552.35	2135.48
552.70	2141.71
553.06	2147.62
553.41	2153.92
553.77	2160.04
554.13	2166.08
554.48	2172.02
554.84	2177.38
555.19	2182.67
555.55	2187.74
555.90	2192.25
556.26	2197.37
556.61	2202.03
556.97	2206.33
557.32	2210.42
557.68	2214.57
558.03	2218.85
558.39	2222.54
558.74	2227.20
559.10	2231.00
559.45	2234.72
559.81	2239.07
560.16	2242.89
560.52	2246.16
560.87	2249.64
561.23	2252.38
561.58	2255.31
561.94	2257.76
562.29	2260.20
562.64	2262.93
563.00	2265.60
563.35	2269.17
563.71	2272.20
564.06	2275.43
564.42	2278.49
564.77	2281.19
565.12	2283.46
565.48	2285.59
565.83	2287.46
566.19	2288.88
566.54	2289.70
566.89	2290.92
567.25	2291.48
567.60	2292.75
567.96	2294.54
568.31	2295.40
568.66	2296.53
569.02	2297.09
569.37	2297.54
569.72	2298.44
570.08	2298.53
570.43	2298.61
570.78	2297.96
571.14	2296.47
571.49	2295.19
571.84	2294.82
572.20	2293.67
572.55	2292.63
572.90	2290.86
573.26	2289.54
573.61	2287.74
573.96	2286.25
574.31	2283.33
574.67	2280.50
575.02	2276.90
575.37	2273.48
575.72	2269.81
576.08	2266.42
576.43	2263.15
576.78	2259.68
577.13	2256.56
577.49	2253.49
577.84	2250.07
578.19	2246.33
578.54	2242.74
578.90	2238.60
579.25	2233.00
579.60	2228.21
579.95	2223.34
580.30	2218.38
580.66	2213.19
581.01	2208.31
581.36	2203.29
581.71	2199.04
582.06	2194.59
582.42	2190.20
582.77	2185.00
583.12	2180.58
583.47	2175.99
583.82	2171.11
584.17	2165.90
584.53	2160.48
584.88	2154.96
585.23	2149.16
585.58	2143.83
585.93	2138.25
586.28	2133.42
586.63	2128.48
586.98	2123.26
587.34	2118.55
587.69	2113.77
588.04	2108.61
588.39	2102.92
588.74	2096.56
589.09	2090.41
589.44	2083.64
589.79	2077.49
590.14	2071.98
590.49	2065.21
590.84	2058.70
591.19	2052.53
591.54	2046.10
591.89	2038.75
592.25	2032.03
592.60	2024.85
592.95	2017.24
593.30	2010.02
593.65	2002.50
594.00	1995.40
594.35	1988.29
594.70	1980.23
595.05	1973.18
595.40	1965.91
595.75	1958.43
596.10	1952.28
596.45	1945.60
596.80	1939.34
597.15	1932.87
597.50	1925.80
597.85	1919.42
598.19	1912.82
598.54	1905.93
598.89	1899.17
599.24	1893.26
599.59	1886.61
599.94	1880.38
600.29	1874.18
600.64	1867.60
600.99	1860.23
601.34	1853.43
601.69	1846.40
602.04	1839.60
602.39	1832.16
602.74	1825.34
603.08	1818.59
603.43	1811.67
603.78	1804.37
604.13	1797.30
604.48	1790.04
604.83	1783.08
605.18	1776.06
605.53	1768.18
605.87	1760.07
606.22	1752.83
606.57	1744.80
606.92	1737.36
607.27	1730.19
607.62	1723.16
607.96	1715.91
608.31	1709.34
608.66	1701.76
609.01	1694.26
609.36	1686.68
609.70	1678.75
610.05	1670.80
610.40	1663.21
610.75	1654.99
611.10	1647.40
611.44	1638.99
611.79	1630.94
612.14	1622.39
612.49	1613.38
612.83	1604.95
613.18	1596.87
613.53	1588.81
613.88	1580.34
614.22	1572.17
614.57	1563.61
614.92	1555.65
615.27	1548.23
615.61	1539.90
615.96	1531.89
616.31	1524.24
616.65	1516.78
617.00	1509.07
617.35	1501.33
617.70	1493.06
618.04	1484.61
618.39	1476.33
618.74	1468.74
619.08	1460.48
619.43	1452.84
619.78	1445.78
620.12	1438.73
620.47	1431.19
620.82	1423.02
621.16	1415.66
621.51	1408.02
621.85	1400.45
622.20	1391.92
622.55	1383.48
622.89	1375.58
623.24	1367.95
623.59	1360.51
623.93	1353.05
624.28	1345.91
624.62	1338.47
624.97	1331.26
625.32	1324.39
625.66	1317.44
626.01	1310.39
626.35	1303.11
626.70	1295.37
627.04	1287.65
627.39	1279.70
627.73	1272.37
628.08	1265.44
628.43	1258.13
628.77	1250.79
629.12	1243.31
629.46	1236.16
629.81	1228.67
630.15	1221.46
630.50	1214.07
630.84	1205.88
631.19	1197.97
631.53	1190.39
631.88	1182.76
632.22	1175.11
632.57	1167.92
632.91	1160.34
633.26	1152.79
633.60	1145.22
633.95	1138.10
634.29	1131.04
634.64	1124.46
634.98	1117.12
635.32	1110.02
635.67	1103.42
636.01	1096.73
636.36	1089.89
636.70	1083.40
637.05	1076.86
637.39	1070.34
637.73	1063.83
638.08	1057.94
638.42	1051.94
638.77	1045.55
639.11	1038.89
639.45	1032.54
639.80	1025.83
640.14	1019.41
640.49	1012.95
640.83	1006.69
641.17	1000.46
641.52	994.16
641.86	987.63
642.20	981.71
642.55	975.36
642.89	968.88
643.23	962.38
643.58	956.53
643.92	950.27
644.26	944.25
644.61	938.25
644.95	932.27
645.29	925.72
645.64	918.96
645.98	912.55
646.32	906.74
646.66	900.69
647.01	894.83
647.35	889.05
647.69	883.09
648.04	877.50
648.38	871.70
648.72	865.75
649.06	859.72
649.41	853.78
649.75	847.83
650.09	841.86
650.43	836.04
650.78	829.97
651.12	824.08
651.46	818.28
651.80	812.51
652.14	807.05
652.49	801.62
652.83	796.47
653.17	790.79
653.51	785.16
653.85	779.70
654.20	774.16
654.54	768.23
654.88	762.48
655.22	756.57
655.56	750.83
655.90	745.34
656.25	740.11
656.59	734.82
656.93	729.74
657.27	724.59
657.61	719.11
657.95	713.95
658.29	708.82
658.64	703.55
658.98	698.22
659.32	692.76
659.66	687.64
660.00	682.30
660.34	677.35
660.68	672.39
661.02	667.45
661.36	662.71
661.70	658.25
662.05	653.91
662.39	649.60
662.73	645.15
663.07	640.85
663.41	636.39
663.75	631.87
664.09	627.34
664.43	622.90
664.77	618.91
665.11	614.65
665.45	610.47
665.79	606.44
666.13	602.37
666.47	598.23
666.81	594.01
667.15	589.89
667.49	586.01
667.83	582.15
668.17	578.20
668.51	574.08
668.85	570.01
669.19	566.19
669.53	562.40
669.87	558.54
670.21	554.79
670.55	551.13
670.89	547.77
671.23	544.28
671.57	540.83
671.91	537.25
672.25	533.75
672.58	530.33
672.92	526.88
673.26	523.66
673.60	520.52
673.94	517.41
674.28	514.50
674.62	511.55
674.96	508.48
675.30	505.53
675.64	502.63
675.97	499.82
676.31	496.96
676.65	493.98
676.99	491.27
677.33	488.38
677.67	485.59
678.01	482.51
678.34	479.64
678.68	476.74
679.02	473.88
679.36	471.11
679.70	468.31
680.04	465.59
680.37	462.74
680.71	459.97
681.05	457.40
681.39	454.69
681.73	452.08
682.06	449.59
682.40	447.09
682.74	444.56
683.08	442.02
683.42	439.43
683.75	436.97
684.09	434.43
684.43	431.98
684.77	429.60
685.10	427.29
685.44	424.91
685.78	422.63
686.12	420.41
686.45	418.16
686.79	415.95
687.13	413.75
687.46	411.58
687.80	409.39
688.14	407.15
688.48	405.10
688.81	402.83
689.15	400.64
689.49	398.44
689.82	396.37
690.16	394.33
690.50	392.38
690.83	390.44
691.17	388.47
691.51	386.57
691.84	384.64
692.18	382.66
692.52	380.65
692.85	378.72
693.19	376.81
693.52	374.96
693.86	373.13
694.20	371.37
694.53	369.59
694.87	367.81
695.21	366.04
695.54	364.16
695.88	362.40
696.21	360.69
696.55	359.00
696.88	357.30
697.22	355.60
697.56	353.93
697.89	352.28
698.23	350.63
698.56	349.02
698.90	347.45
699.23	345.84
699.57	344.31
699.90	342.73
700.24	341.19
700.58	339.66
700.91	338.11
701.25	336.62
701.58	335.25
701.92	333.87
702.25	332.46
702.59	331.14
702.92	329.83
703.26	328.51
703.59	327.24
703.93	326.00
704.26	324.76
704.60	323.47
704.93	322.17
705.26	320.92
705.60	319.73
705.93	318.53
706.27	317.47
706.60	316.37
706.94	315.34
707.27	314.18
707.61	313.11
707.94	312.08
708.27	310.99
708.61	309.90
708.94	308.86
709.28	307.94
709.61	306.99
709.94	306.04
710.28	305.07
710.61	304.10
710.95	303.07
711.28	302.15
711.61	301.21
711.95	300.31
712.28	299.37
712.61	298.39
712.95	297.44
713.28	296.53
713.61	295.67
713.95	294.81
714.28	293.98
714.61	293.11
714.95	292.26
715.28	291.41
715.61	290.56
715.95	289.73
716.28	288.81
716.61	287.97
716.95	287.15
717.28	286.40
717.61	285.65
717.94	284.93
718.28	284.12
718.61	283.40
718.94	282.70
719.27	282.05
719.61	281.44
719.94	280.82
720.27	280.14
720.60	279.47
720.94	278.81
721.27	278.24
721.60	277.65
721.93	277.07
722.27	276.53
722.60	275.99
722.93	275.41
723.26	274.92
723.59	274.39
723.93	273.86
724.26	273.26
724.59	272.69
724.92	272.18
725.25	271.70
725.59	271.19
725.92	270.68
726.25	270.18
726.58	269.69
726.91	269.19
727.24	268.70
727.57	268.22
727.91	267.72
728.24	267.24
728.57	266.72
728.90	266.28
729.23	265.78
729.56	265.34
729.89	264.87
730.22	264.38
730.55	263.89
730.89	263.42
731.22	263.00
731.55	262.57
731.88	262.14
732.21	261.67
732.54	261.24
732.87	260.79
733.20	260.40
733.53	260.00
733.86	259.61
734.19	259.22
734.52	258.82
734.85	258.51
735.18	258.10
735.51	257.79
735.84	257.40
736.17	257.09
736.50	256.65
736.83	256.42
737.16	256.06
737.49	255.72
737.82	255.36
738.15	255.02
738.48	254.69
738.81	254.31
739.14	253.99
739.47	253.66
739.80	253.36
740.13	253.02
740.46	252.67
740.79	252.34
741.12	252.01
741.45	251.74
741.78	251.34
742.11	251.05
742.44	250.71
742.77	250.38
743.10	250.03
743.43	249.77
743.75	249.34
744.08	249.20
744.41	248.93
744.74	248.65
745.07	248.36
745.40	248.09
745.73	247.88
746.06	247.57
746.39	247.29
746.71	247.02
747.04	246.75
747.37	246.49
747.70	246.24
748.03	245.97
748.36	245.72
748.68	245.50
749.01	245.21
749.34	244.98
749.67	244.79
750.00	244.54
750.33	244.38
750.65	244.15
750.98	243.80
751.31	243.59
751.64	243.39
751.97	243.23
752.29	242.99
752.62	242.76
752.95	242.59
753.28	242.39
753.60	242.18
753.93	242.01
754.26	241.80
754.59	241.57
754.91	241.38
755.24	241.17
755.57	241.01
755.90	240.86
756.22	240.65
756.55	240.44
756.88	240.26
757.20	240.02
757.53	239.87
757.86	239.73
758.19	239.57
758.51	239.40
758.84	239.21
759.17	239.05
759.49	238.90
759.82	238.75
760.15	238.65
760.47	238.51
760.80	238.34
761.13	238.23
761.45	238.12
761.78	238.00
762.11	237.89
762.43	237.75
762.76	237.63
763.08	237.52
763.41	237.40
763.74	237.27
764.06	237.13
764.39	236.97
764.71	236.81
765.04	236.68
765.37	236.59
765.69	236.44
766.02	236.31
766.34	236.20
766.67	236.10
767.00	235.98
767.32	235.94
767.65	235.91
767.97	235.79
768.30	235.67
768.62	235.55
768.95	235.43
769.27	235.34
769.60	235.22
769.92	235.13
770.25	235.02
770.57	234.93
770.90	234.84
771.22	234.75
771.55	234.64
771.87	234.55
772.20	234.43
772.52	234.44
772.85	234.47
773.17	234.35
773.50	234.25
773.82	234.12
774.15	233.96
774.47	233.80
774.80	233.72
775.12	233.64
775.45	233.57
775.77	233.50
776.09	233.41
776.42	233.35
776.74	233.25
777.07	233.15
777.39	233.04
777.72	232.95
778.04	232.90
778.36	232.82
778.69	232.70
779.01	232.66
779.33	232.50
779.66	232.32
779.98	232.27
780.31	232.19
780.63	232.18
780.95	232.13
781.28	232.06
781.60	231.97
781.92	231.90
782.25	231.81
782.57	231.70
782.89	231.61
783.22	231.56
783.54	231.48
783.86	231.41
784.19	231.38
784.51	231.35
784.83	231.28
785.16	231.26
785.48	231.21
785.80	231.11
786.12	231.04
786.45	230.97
786.77	230.90
787.09	230.82
