SpectraSuite Data File
++++++++++++++++++++++++++++++++++++
Date: Fri Feb 01 15:42:39 EST 2013
User: group
Dark Spectrum Present: No
Reference Spectrum Present: No
Number of Sampled Component Spectra: 1
Spectrometers: USB2E7196
Integration Time (usec): 35000 (USB2E7196)
Spectra Averaged: 100 (USB2E7196)
Boxcar Smoothing: 10 (USB2E7196)
Correct for Electrical Dark: No (USB2E7196)
Strobe/Lamp Enabled: No (USB2E7196)
Correct for Detector Non-linearity: No (USB2E7196)
Correct for Stray Light: No (USB2E7196)
Number of Pixels in Processed Spectrum: 2048
>>>>>Begin Processed Spectral Data<<<<<
339.09	0.00
339.48	214.91
339.86	216.62
340.24	217.99
340.63	219.39
341.01	222.36
341.39	221.65
341.78	223.39
342.16	225.01
342.54	224.67
342.93	213.47
343.31	224.25
343.69	224.78
344.07	225.23
344.46	225.64
344.84	226.01
345.22	226.24
345.60	226.51
345.99	226.64
346.37	226.76
346.75	226.85
347.13	226.92
347.52	226.96
347.90	227.01
348.28	227.01
348.66	227.04
349.05	227.03
349.43	227.03
349.81	227.06
350.19	227.10
350.57	227.12
350.96	227.18
351.34	227.26
351.72	227.37
352.10	227.44
352.48	227.51
352.87	227.56
353.25	227.58
353.63	227.61
354.01	227.72
354.39	227.77
354.77	227.88
355.15	227.97
355.54	228.02
355.92	228.06
356.30	228.15
356.68	228.27
357.06	228.33
357.44	228.36
357.82	228.42
358.20	228.50
358.58	228.55
358.97	228.62
359.35	228.68
359.73	228.74
360.11	228.80
360.49	228.87
360.87	228.92
361.25	229.01
361.63	229.07
362.01	229.13
362.39	229.14
362.77	229.15
363.15	229.17
363.53	229.19
363.91	229.22
364.29	229.22
364.67	229.15
365.05	229.14
365.43	229.17
365.81	229.18
366.19	229.23
366.57	229.26
366.95	229.29
367.33	229.25
367.71	229.22
368.09	229.24
368.47	229.23
368.85	229.18
369.23	229.17
369.61	229.12
369.99	229.11
370.37	229.08
370.75	229.12
371.13	229.08
371.51	229.04
371.89	228.97
372.27	228.96
372.65	228.90
373.03	228.88
373.41	228.81
373.78	228.76
374.16	228.63
374.54	228.55
374.92	228.44
375.30	228.39
375.68	228.30
376.06	228.22
376.44	228.14
376.82	228.08
377.19	227.99
377.57	227.91
377.95	227.80
378.33	227.74
378.71	227.59
379.09	227.54
379.47	227.49
379.84	227.45
380.22	227.36
380.60	227.28
380.98	227.18
381.36	227.11
381.73	227.02
382.11	226.97
382.49	226.87
382.87	226.81
383.25	226.72
383.62	226.79
384.00	226.71
384.38	226.64
384.76	226.63
385.13	226.62
385.51	226.57
385.89	226.49
386.27	226.47
386.64	226.43
387.02	226.37
387.40	226.32
387.78	226.29
388.15	226.25
388.53	226.23
388.91	226.21
389.29	226.17
389.66	226.17
390.04	226.16
390.42	226.20
390.79	226.20
391.17	226.19
391.55	226.06
391.92	226.09
392.30	226.09
392.68	226.05
393.05	226.03
393.43	226.04
393.81	226.08
394.18	226.08
394.56	226.12
394.94	226.15
395.31	226.15
395.69	226.20
396.06	226.23
396.44	226.29
396.82	226.33
397.19	226.47
397.57	226.50
397.95	226.62
398.32	226.63
398.70	226.69
399.07	226.78
399.45	226.87
399.82	226.91
400.20	226.99
400.58	227.10
400.95	227.15
401.33	227.29
401.70	227.47
402.08	227.57
402.45	227.67
402.83	227.82
403.20	227.94
403.58	228.06
403.95	228.20
404.33	228.30
404.71	228.44
405.08	228.61
405.46	228.77
405.83	228.87
406.21	229.03
406.58	229.20
406.96	229.36
407.33	229.52
407.70	229.74
408.08	230.00
408.45	230.21
408.83	230.46
409.20	230.67
409.58	230.87
409.95	231.12
410.33	231.42
410.70	231.67
411.08	231.97
411.45	232.28
411.82	232.60
412.20	232.97
412.57	233.40
412.95	233.69
413.32	234.09
413.69	234.50
414.07	234.96
414.44	235.46
414.82	235.97
415.19	236.53
415.56	237.08
415.94	237.63
416.31	238.31
416.68	238.95
417.06	239.67
417.43	240.30
417.81	241.03
418.18	241.78
418.55	242.61
418.93	243.49
419.30	244.39
419.67	245.33
420.04	246.32
420.42	247.31
420.79	248.45
421.16	249.60
421.54	250.79
421.91	251.99
422.28	253.19
422.66	254.49
423.03	255.79
423.40	257.11
423.77	258.51
424.15	259.91
424.52	261.37
424.89	262.98
425.26	264.54
425.64	265.99
426.01	267.59
426.38	269.26
426.75	270.93
427.13	272.63
427.50	274.43
427.87	276.26
428.24	278.11
428.61	279.91
428.99	281.86
429.36	283.99
429.73	286.03
430.10	288.10
430.47	290.19
430.85	292.29
431.22	294.53
431.59	296.92
431.96	299.16
432.33	301.67
432.70	304.02
433.08	306.83
433.45	309.51
433.82	312.16
434.19	315.06
434.56	317.88
434.93	320.54
435.30	323.14
435.68	326.02
436.05	328.88
436.42	331.68
436.79	334.19
437.16	336.89
437.53	339.73
437.90	342.54
438.27	345.24
438.64	348.05
439.01	350.65
439.38	352.87
439.75	355.04
440.13	357.53
440.50	359.86
440.87	361.70
441.24	363.61
441.61	365.73
441.98	367.23
442.35	369.02
442.72	370.84
443.09	372.68
443.46	373.71
443.83	374.26
444.20	374.74
444.57	375.56
444.94	375.83
445.31	376.16
445.68	376.50
446.05	376.58
446.42	376.21
446.79	375.81
447.16	375.36
447.53	375.02
447.90	373.84
448.27	372.68
448.64	371.11
449.01	370.01
449.37	368.03
449.74	366.10
450.11	363.88
450.48	361.42
450.85	358.85
451.22	356.72
451.59	354.72
451.96	352.75
452.33	350.14
452.70	347.78
453.07	344.97
453.43	342.07
453.80	339.33
454.17	336.67
454.54	334.10
454.91	331.37
455.28	328.69
455.65	326.21
456.02	323.76
456.38	321.61
456.75	318.92
457.12	316.70
457.49	314.49
457.86	312.34
458.23	310.50
458.59	308.49
458.96	306.39
459.33	304.54
459.70	302.69
460.07	301.17
460.43	299.45
460.80	297.86
461.17	296.41
461.54	294.90
461.91	293.48
462.27	292.06
462.64	290.82
463.01	289.47
463.38	288.17
463.74	286.79
464.11	285.63
464.48	284.60
464.85	283.47
465.21	282.60
465.58	281.66
465.95	280.53
466.32	279.63
466.68	278.73
467.05	277.83
467.42	276.93
467.78	276.02
468.15	275.14
468.52	274.42
468.88	273.58
469.25	272.81
469.62	272.19
469.98	271.52
470.35	270.89
470.72	270.32
471.08	269.65
471.45	269.18
471.82	268.64
472.18	268.04
472.55	267.59
472.92	267.01
473.28	266.53
473.65	266.09
474.02	265.64
474.38	265.26
474.75	264.93
475.11	264.62
475.48	264.36
475.85	264.17
476.21	263.99
476.58	263.78
476.94	263.68
477.31	263.51
477.67	263.37
478.04	263.31
478.41	263.28
478.77	263.32
479.14	263.23
479.50	263.25
479.87	263.35
480.23	263.45
480.60	263.55
480.96	263.63
481.33	263.82
481.69	264.01
482.06	264.19
482.42	264.40
482.79	264.65
483.15	264.96
483.52	265.32
483.88	265.62
484.25	266.04
484.61	266.43
484.98	266.89
485.34	267.42
485.71	267.95
486.07	268.54
486.44	269.10
486.80	269.79
487.17	270.51
487.53	271.31
487.90	272.18
488.26	273.09
488.62	274.10
488.99	275.11
489.35	276.14
489.72	277.26
490.08	278.45
490.44	279.70
490.81	281.04
491.17	282.37
491.54	283.88
491.90	285.38
492.26	287.03
492.63	288.73
492.99	290.49
493.36	292.41
493.72	294.46
494.08	296.62
494.45	298.82
494.81	301.18
495.17	303.62
495.54	306.17
495.90	308.86
496.26	311.63
496.63	314.60
496.99	317.73
497.35	320.96
497.72	324.32
498.08	327.82
498.44	331.47
498.80	335.45
499.17	339.44
499.53	343.64
499.89	347.98
500.26	352.50
500.62	357.17
500.98	362.07
501.34	367.15
501.71	372.42
502.07	377.89
502.43	383.51
502.79	389.33
503.16	395.37
503.52	401.71
503.88	408.14
504.24	414.74
504.60	421.59
504.97	428.74
505.33	436.13
505.69	443.83
506.05	451.67
506.41	459.48
506.78	467.66
507.14	476.06
507.50	484.79
507.86	493.85
508.22	503.04
508.59	512.29
508.95	521.84
509.31	531.68
509.67	541.77
510.03	552.06
510.39	562.61
510.75	573.43
511.12	584.35
511.48	595.68
511.84	607.14
512.20	618.69
512.56	630.62
512.92	642.79
513.28	655.15
513.64	667.57
514.00	680.37
514.37	693.26
514.73	706.37
515.09	719.46
515.45	732.76
515.81	746.38
516.17	760.32
516.53	774.47
516.89	788.62
517.25	802.77
517.61	817.12
517.97	831.59
518.33	846.04
518.69	860.74
519.05	875.82
519.41	890.98
519.77	906.52
520.13	921.99
520.49	937.41
520.85	952.83
521.21	968.59
521.57	984.76
521.93	1000.63
522.29	1017.02
522.65	1033.30
523.01	1049.44
523.37	1065.49
523.73	1081.68
524.09	1097.82
524.45	1114.21
524.81	1130.93
525.17	1147.89
525.53	1164.84
525.89	1181.81
526.25	1198.68
526.61	1215.00
526.97	1231.78
527.33	1248.20
527.68	1264.82
528.04	1281.44
528.40	1298.04
528.76	1315.19
529.12	1331.86
529.48	1348.73
529.84	1364.82
530.20	1381.43
530.56	1398.58
530.91	1415.96
531.27	1432.75
531.63	1449.17
531.99	1465.75
532.35	1481.59
532.71	1497.33
533.07	1513.57
533.42	1529.31
533.78	1545.32
534.14	1561.56
534.50	1576.98
534.86	1593.01
535.21	1608.09
535.57	1623.82
535.93	1639.27
536.29	1653.97
536.65	1669.01
537.00	1683.81
537.36	1699.09
537.72	1713.64
538.08	1727.88
538.44	1741.77
538.79	1755.63
539.15	1769.28
539.51	1782.87
539.87	1797.28
540.22	1811.13
540.58	1824.94
540.94	1838.21
541.29	1851.16
541.65	1863.96
542.01	1877.09
542.37	1889.27
542.72	1901.91
543.08	1913.67
543.44	1926.18
543.79	1937.36
544.15	1948.48
544.51	1960.01
544.87	1971.00
545.22	1981.85
545.58	1992.16
545.94	2001.83
546.29	2011.80
546.65	2021.77
547.01	2031.17
547.36	2039.84
547.72	2048.25
548.07	2056.01
548.43	2064.34
548.79	2072.42
549.14	2079.99
549.50	2087.42
549.86	2095.17
550.21	2102.40
550.57	2109.72
550.92	2116.15
551.28	2123.28
551.64	2130.25
551.99	2136.80
552.35	2143.05
552.70	2149.20
553.06	2155.21
553.41	2161.68
553.77	2167.63
554.13	2173.52
554.48	2179.57
554.84	2185.11
555.19	2190.49
555.55	2195.61
555.90	2200.04
556.26	2204.79
556.61	2209.41
556.97	2213.59
557.32	2217.65
557.68	2221.85
558.03	2226.07
558.39	2229.91
558.74	2234.44
559.10	2238.24
559.45	2241.90
559.81	2246.12
560.16	2249.97
560.52	2253.07
560.87	2256.50
561.23	2259.24
561.58	2262.31
561.94	2264.99
562.29	2267.36
562.64	2270.04
563.00	2272.62
563.35	2276.02
563.71	2279.14
564.06	2282.38
564.42	2285.25
564.77	2287.70
565.12	2289.80
565.48	2291.71
565.83	2293.59
566.19	2294.97
566.54	2295.83
566.89	2296.93
567.25	2297.48
567.60	2298.68
567.96	2300.42
568.31	2301.20
568.66	2302.24
569.02	2302.77
569.37	2302.92
569.72	2303.84
570.08	2303.97
570.43	2304.04
570.78	2303.42
571.14	2301.85
571.49	2300.49
571.84	2300.22
572.20	2299.20
572.55	2298.26
572.90	2296.67
573.26	2295.18
573.61	2293.43
573.96	2291.70
574.31	2288.65
574.67	2285.53
575.02	2281.89
575.37	2278.47
575.72	2274.57
576.08	2271.20
576.43	2267.86
576.78	2264.06
577.13	2260.85
577.49	2257.75
577.84	2254.26
578.19	2250.55
578.54	2246.85
578.90	2242.52
579.25	2236.83
579.60	2231.71
579.95	2226.55
580.30	2221.48
580.66	2216.23
581.01	2211.35
581.36	2206.42
581.71	2202.20
582.06	2197.73
582.42	2193.18
582.77	2188.08
583.12	2183.51
583.47	2178.66
583.82	2173.65
584.17	2168.50
584.53	2162.92
584.88	2157.15
585.23	2151.26
585.58	2145.84
585.93	2140.52
586.28	2135.79
586.63	2130.85
586.98	2125.86
587.34	2121.17
587.69	2116.35
588.04	2111.10
588.39	2105.25
588.74	2098.80
589.09	2092.65
589.44	2085.78
589.79	2079.83
590.14	2074.14
590.49	2067.50
590.84	2061.20
591.19	2055.12
591.54	2048.61
591.89	2041.15
592.25	2034.28
592.60	2027.17
592.95	2019.61
593.30	2012.14
593.65	2004.37
594.00	1997.34
594.35	1990.02
594.70	1981.92
595.05	1974.56
595.40	1967.20
595.75	1959.80
596.10	1953.50
596.45	1946.75
596.80	1940.61
597.15	1933.88
597.50	1926.56
597.85	1920.16
598.19	1913.43
598.54	1906.29
598.89	1899.67
599.24	1893.85
599.59	1887.21
599.94	1881.02
600.29	1874.57
600.64	1868.14
600.99	1860.66
601.34	1853.71
601.69	1846.82
602.04	1839.87
602.39	1832.52
602.74	1825.79
603.08	1819.02
603.43	1812.29
603.78	1805.02
604.13	1797.82
604.48	1790.44
604.83	1783.67
605.18	1776.73
605.53	1768.79
605.87	1760.76
606.22	1753.55
606.57	1745.66
606.92	1738.38
607.27	1731.06
607.62	1724.25
607.96	1716.81
608.31	1710.25
608.66	1702.58
609.01	1694.90
609.36	1687.49
609.70	1679.53
610.05	1671.37
610.40	1663.57
610.75	1655.27
611.10	1647.54
611.44	1639.09
611.79	1631.19
612.14	1622.50
612.49	1613.32
612.83	1604.78
613.18	1596.75
613.53	1588.58
613.88	1579.87
614.22	1571.57
614.57	1563.05
614.92	1555.00
615.27	1547.43
615.61	1539.12
615.96	1531.09
616.31	1523.58
616.65	1516.13
617.00	1508.49
617.35	1500.88
617.70	1492.61
618.04	1484.08
618.39	1475.90
618.74	1468.29
619.08	1460.03
619.43	1452.47
619.78	1445.60
620.12	1438.38
620.47	1430.81
620.82	1422.70
621.16	1415.41
621.51	1407.73
621.85	1400.15
622.20	1391.61
622.55	1383.32
622.89	1375.48
623.24	1367.95
623.59	1360.53
623.93	1353.06
624.28	1345.78
624.62	1338.20
624.97	1331.08
625.32	1324.32
625.66	1317.33
626.01	1310.15
626.35	1302.59
626.70	1294.83
627.04	1287.12
627.39	1279.46
627.73	1272.17
628.08	1265.13
628.43	1257.72
628.77	1250.38
629.12	1242.71
629.46	1235.56
629.81	1228.14
630.15	1220.92
630.50	1213.42
630.84	1205.27
631.19	1197.36
631.53	1189.95
631.88	1182.46
632.22	1174.72
632.57	1167.46
632.91	1159.87
633.26	1152.45
633.60	1145.13
633.95	1138.08
634.29	1131.04
634.64	1124.37
634.98	1116.89
635.32	1109.77
635.67	1103.21
636.01	1096.64
636.36	1089.84
636.70	1083.17
637.05	1076.59
637.39	1070.17
637.73	1063.59
638.08	1057.63
638.42	1051.60
638.77	1045.12
639.11	1038.46
639.45	1032.11
639.80	1025.36
640.14	1018.88
640.49	1012.41
640.83	1006.10
641.17	999.81
641.52	993.42
641.86	986.89
642.20	981.03
642.55	974.85
642.89	968.37
643.23	961.79
643.58	956.05
643.92	949.88
644.26	943.80
644.61	937.72
644.95	931.77
645.29	925.18
645.64	918.46
645.98	912.15
646.32	906.43
646.66	900.40
647.01	894.67
647.35	888.99
647.69	883.15
648.04	877.75
648.38	871.99
648.72	865.93
649.06	859.93
649.41	854.09
649.75	848.05
650.09	842.12
650.43	836.33
650.78	830.22
651.12	824.33
651.46	818.65
651.80	812.91
652.14	807.50
652.49	802.14
652.83	796.98
653.17	791.26
653.51	785.43
653.85	780.11
654.20	774.41
654.54	768.44
654.88	762.68
655.22	756.68
655.56	751.02
655.90	745.61
656.25	740.38
656.59	735.00
656.93	729.88
657.27	724.70
657.61	719.31
657.95	714.21
658.29	709.14
658.64	703.89
658.98	698.62
659.32	693.21
659.66	688.06
660.00	682.70
660.34	677.76
660.68	672.91
661.02	667.87
661.36	663.14
661.70	658.67
662.05	654.33
662.39	649.97
662.73	645.46
663.07	641.10
663.41	636.66
663.75	632.13
664.09	627.64
664.43	623.33
664.77	619.14
665.11	614.85
665.45	610.72
665.79	606.59
666.13	602.47
666.47	598.34
666.81	594.13
667.15	590.03
667.49	586.17
667.83	582.38
668.17	578.46
668.51	574.43
668.85	570.36
669.19	566.52
669.53	562.70
669.87	558.77
670.21	555.02
670.55	551.38
670.89	548.06
671.23	544.66
671.57	541.12
671.91	537.65
672.25	534.20
672.58	530.60
672.92	527.23
673.26	524.02
673.60	520.91
673.94	517.80
674.28	514.87
674.62	511.90
674.96	508.70
675.30	505.73
675.64	502.78
675.97	500.00
676.31	497.11
676.65	494.18
676.99	491.58
677.33	488.77
677.67	485.91
678.01	482.83
678.34	479.78
678.68	476.87
679.02	474.00
679.36	471.20
679.70	468.57
680.04	465.79
680.37	462.92
680.71	460.09
681.05	457.49
681.39	454.78
681.73	452.17
682.06	449.71
682.40	447.15
682.74	444.61
683.08	442.12
683.42	439.57
683.75	437.08
684.09	434.48
684.43	431.99
684.77	429.54
685.10	427.18
685.44	424.88
685.78	422.62
686.12	420.34
686.45	418.08
686.79	415.78
687.13	413.61
687.46	411.47
687.80	409.37
688.14	407.15
688.48	405.15
688.81	402.88
689.15	400.70
689.49	398.59
689.82	396.57
690.16	394.52
690.50	392.53
690.83	390.60
691.17	388.65
691.51	386.73
691.84	384.88
692.18	382.90
692.52	380.94
692.85	379.01
693.19	377.17
693.52	375.32
693.86	373.46
694.20	371.67
694.53	369.86
694.87	368.01
695.21	366.23
695.54	364.38
695.88	362.65
696.21	360.94
696.55	359.28
696.88	357.57
697.22	355.88
697.56	354.28
697.89	352.63
698.23	351.00
698.56	349.41
698.90	347.79
699.23	346.18
699.57	344.69
699.90	343.14
700.24	341.62
700.58	340.11
700.91	338.65
701.25	337.25
701.58	335.89
701.92	334.50
702.25	333.09
702.59	331.70
702.92	330.35
703.26	329.05
703.59	327.75
703.93	326.55
704.26	325.35
704.60	324.08
704.93	322.80
705.26	321.60
705.60	320.47
705.93	319.37
706.27	318.29
706.60	317.21
706.94	316.14
707.27	315.03
707.61	314.00
707.94	312.98
708.27	311.84
708.61	310.74
708.94	309.78
709.28	308.86
709.61	307.92
709.94	307.02
710.28	306.03
710.61	305.05
710.95	304.00
711.28	303.08
711.61	302.09
711.95	301.22
712.28	300.24
712.61	299.21
712.95	298.25
713.28	297.45
713.61	296.55
713.95	295.64
714.28	294.78
714.61	293.90
714.95	293.05
715.28	292.22
715.61	291.37
715.95	290.47
716.28	289.58
716.61	288.72
716.95	287.91
717.28	287.13
717.61	286.34
717.94	285.59
718.28	284.78
718.61	284.06
718.94	283.33
719.27	282.65
719.61	282.03
719.94	281.40
720.27	280.63
720.60	279.94
720.94	279.31
721.27	278.71
721.60	278.09
721.93	277.46
722.27	276.91
722.60	276.35
722.93	275.76
723.26	275.24
723.59	274.71
723.93	274.13
724.26	273.61
724.59	273.03
724.92	272.52
725.25	271.98
725.59	271.48
725.92	270.97
726.25	270.44
726.58	269.94
726.91	269.40
727.24	268.94
727.57	268.46
727.91	267.95
728.24	267.48
728.57	266.98
728.90	266.52
729.23	265.99
729.56	265.54
729.89	265.08
730.22	264.60
730.55	264.14
730.89	263.68
731.22	263.22
731.55	262.84
731.88	262.42
732.21	262.03
732.54	261.55
732.87	261.07
733.20	260.72
733.53	260.30
733.86	259.96
734.19	259.58
734.52	259.20
734.85	258.85
735.18	258.46
735.51	258.12
735.84	257.75
736.17	257.45
736.50	257.04
736.83	256.82
737.16	256.47
737.49	256.13
737.82	255.82
738.15	255.48
738.48	255.12
738.81	254.77
739.14	254.42
739.47	254.11
739.80	253.89
740.13	253.58
740.46	253.25
740.79	252.91
741.12	252.59
741.45	252.31
741.78	252.00
742.11	251.72
742.44	251.39
742.77	251.15
743.10	250.83
743.43	250.57
743.75	250.19
744.08	250.06
744.41	249.76
744.74	249.49
745.07	249.23
745.40	249.00
745.73	248.77
746.06	248.52
746.39	248.31
746.71	248.02
747.04	247.74
747.37	247.52
747.70	247.30
748.03	247.06
748.36	246.83
748.68	246.59
749.01	246.35
749.34	246.20
749.67	245.94
750.00	245.72
750.33	245.59
750.65	245.37
750.98	245.06
751.31	244.87
751.64	244.67
751.97	244.52
752.29	244.30
752.62	244.06
752.95	243.82
753.28	243.60
753.60	243.41
753.93	243.22
754.26	243.06
754.59	242.82
754.91	242.61
755.24	242.42
755.57	242.25
755.90	242.06
756.22	241.81
756.55	241.63
756.88	241.43
757.20	241.20
757.53	240.99
757.86	240.80
758.19	240.63
758.51	240.45
758.84	240.22
759.17	240.04
759.49	239.88
759.82	239.79
760.15	239.64
760.47	239.46
760.80	239.28
761.13	239.11
761.45	238.94
761.78	238.82
762.11	238.65
762.43	238.48
762.76	238.30
763.08	238.19
763.41	238.07
763.74	237.93
764.06	237.75
764.39	237.62
764.71	237.50
765.04	237.37
765.37	237.23
765.69	237.10
766.02	236.96
766.34	236.81
766.67	236.62
767.00	236.51
767.32	236.42
767.65	236.33
767.97	236.22
768.30	236.10
768.62	235.99
768.95	235.86
769.27	235.72
769.60	235.64
769.92	235.51
770.25	235.38
770.57	235.26
770.90	235.17
771.22	235.03
771.55	234.91
771.87	234.82
772.20	234.72
772.52	234.70
772.85	234.74
773.17	234.62
773.50	234.54
773.82	234.42
774.15	234.29
774.47	234.18
774.80	234.07
775.12	233.98
775.45	233.87
775.77	233.78
776.09	233.71
776.42	233.62
776.74	233.57
777.07	233.49
777.39	233.42
777.72	233.36
778.04	233.30
778.36	233.25
778.69	233.18
779.01	233.13
779.33	233.00
779.66	232.81
779.98	232.75
780.31	232.73
780.63	232.73
780.95	232.71
781.28	232.65
781.60	232.59
781.92	232.55
782.25	232.51
782.57	232.46
782.89	232.40
783.22	232.34
783.54	232.27
783.86	232.24
784.19	232.17
784.51	232.16
784.83	232.12
785.16	232.04
785.48	231.99
785.80	231.97
786.12	231.95
786.45	231.89
786.77	231.86
787.09	231.77
