SpectraSuite Data File
++++++++++++++++++++++++++++++++++++
Date: Fri Feb 01 16:12:10 EST 2013
User: group
Dark Spectrum Present: No
Reference Spectrum Present: No
Number of Sampled Component Spectra: 1
Spectrometers: USB2E7196
Integration Time (usec): 35000 (USB2E7196)
Spectra Averaged: 100 (USB2E7196)
Boxcar Smoothing: 10 (USB2E7196)
Correct for Electrical Dark: No (USB2E7196)
Strobe/Lamp Enabled: No (USB2E7196)
Correct for Detector Non-linearity: No (USB2E7196)
Correct for Stray Light: No (USB2E7196)
Number of Pixels in Processed Spectrum: 2048
>>>>>Begin Processed Spectral Data<<<<<
339.09	0.00
339.48	214.74
339.86	216.05
340.24	217.14
340.63	218.82
341.01	221.05
341.39	221.45
341.78	222.58
342.16	223.76
342.54	223.97
342.93	212.83
343.31	223.58
343.69	224.11
344.07	224.59
344.46	225.01
344.84	225.39
345.22	225.66
345.60	225.89
345.99	226.09
346.37	226.23
346.75	226.36
347.13	226.44
347.52	226.50
347.90	226.58
348.28	226.62
348.66	226.67
349.05	226.67
349.43	226.71
349.81	226.77
350.19	226.79
350.57	226.84
350.96	226.90
351.34	226.99
351.72	227.07
352.10	227.15
352.48	227.26
352.87	227.29
353.25	227.35
353.63	227.44
354.01	227.50
354.39	227.58
354.77	227.66
355.15	227.75
355.54	227.82
355.92	227.84
356.30	227.88
356.68	227.97
357.06	228.04
357.44	228.06
357.82	228.09
358.20	228.12
358.58	228.18
358.97	228.23
359.35	228.29
359.73	228.39
360.11	228.44
360.49	228.47
360.87	228.51
361.25	228.55
361.63	228.63
362.01	228.70
362.39	228.72
362.77	228.73
363.15	228.72
363.53	228.73
363.91	228.78
364.29	228.80
364.67	228.78
365.05	228.78
365.43	228.83
365.81	228.84
366.19	228.91
366.57	228.95
366.95	228.96
367.33	228.90
367.71	228.85
368.09	228.81
368.47	228.80
368.85	228.77
369.23	228.77
369.61	228.67
369.99	228.64
370.37	228.64
370.75	228.67
371.13	228.63
371.51	228.59
371.89	228.54
372.27	228.53
372.65	228.44
373.03	228.39
373.41	228.32
373.78	228.28
374.16	228.17
374.54	228.07
374.92	228.02
375.30	228.00
375.68	227.94
376.06	227.87
376.44	227.82
376.82	227.76
377.19	227.70
377.57	227.62
377.95	227.49
378.33	227.38
378.71	227.26
379.09	227.19
379.47	227.14
379.84	227.04
380.22	226.94
380.60	226.90
380.98	226.87
381.36	226.77
381.73	226.71
382.11	226.65
382.49	226.60
382.87	226.52
383.25	226.46
383.62	226.50
384.00	226.45
384.38	226.38
384.76	226.36
385.13	226.34
385.51	226.33
385.89	226.29
386.27	226.26
386.64	226.22
387.02	226.18
387.40	226.12
387.78	226.10
388.15	226.10
388.53	226.04
388.91	225.99
389.29	225.96
389.66	225.95
390.04	225.92
390.42	225.90
390.79	225.89
391.17	225.88
391.55	225.75
391.92	225.73
392.30	225.74
392.68	225.70
393.05	225.71
393.43	225.71
393.81	225.73
394.18	225.73
394.56	225.73
394.94	225.77
395.31	225.77
395.69	225.85
396.06	225.86
396.44	225.92
396.82	225.96
397.19	226.09
397.57	226.11
397.95	226.19
398.32	226.19
398.70	226.26
399.07	226.31
399.45	226.37
399.82	226.48
400.20	226.53
400.58	226.61
400.95	226.64
401.33	226.72
401.70	226.85
402.08	226.93
402.45	227.04
402.83	227.15
403.20	227.27
403.58	227.31
403.95	227.44
404.33	227.57
404.71	227.68
405.08	227.83
405.46	227.97
405.83	228.12
406.21	228.30
406.58	228.44
406.96	228.61
407.33	228.79
407.70	228.94
408.08	229.18
408.45	229.41
408.83	229.64
409.20	229.88
409.58	230.05
409.95	230.34
410.33	230.61
410.70	230.83
411.08	231.13
411.45	231.46
411.82	231.79
412.20	232.11
412.57	232.51
412.95	232.78
413.32	233.17
413.69	233.57
414.07	234.02
414.44	234.49
414.82	234.97
415.19	235.49
415.56	236.05
415.94	236.64
416.31	237.27
416.68	237.89
417.06	238.60
417.43	239.29
417.81	240.05
418.18	240.79
418.55	241.65
418.93	242.51
419.30	243.41
419.67	244.36
420.04	245.31
420.42	246.30
420.79	247.48
421.16	248.62
421.54	249.80
421.91	250.98
422.28	252.23
422.66	253.57
423.03	254.86
423.40	256.22
423.77	257.61
424.15	259.06
424.52	260.53
424.89	262.12
425.26	263.66
425.64	265.09
426.01	266.72
426.38	268.36
426.75	270.01
427.13	271.71
427.50	273.47
427.87	275.35
428.24	277.20
428.61	278.95
428.99	280.93
429.36	283.02
429.73	285.10
430.10	287.10
430.47	289.13
430.85	291.26
431.22	293.42
431.59	295.81
431.96	298.05
432.33	300.54
432.70	302.90
433.08	305.73
433.45	308.38
433.82	310.97
434.19	313.87
434.56	316.70
434.93	319.38
435.30	322.04
435.68	324.91
436.05	327.75
436.42	330.57
436.79	333.07
437.16	335.77
437.53	338.60
437.90	341.44
438.27	344.18
438.64	347.05
439.01	349.67
439.38	351.89
439.75	354.03
440.13	356.51
440.50	358.84
440.87	360.67
441.24	362.59
441.61	364.75
441.98	366.25
442.35	368.02
442.72	369.87
443.09	371.61
443.46	372.62
443.83	373.18
444.20	373.66
444.57	374.47
444.94	374.74
445.31	375.07
445.68	375.41
446.05	375.48
446.42	375.09
446.79	374.65
447.16	374.23
447.53	373.91
447.90	372.75
448.27	371.56
448.64	369.97
449.01	368.87
449.37	366.94
449.74	365.06
450.11	362.86
450.48	360.38
450.85	357.91
451.22	355.78
451.59	353.78
451.96	351.82
452.33	349.23
452.70	346.84
453.07	344.02
453.43	341.10
453.80	338.35
454.17	335.65
454.54	333.12
454.91	330.37
455.28	327.69
455.65	325.20
456.02	322.84
456.38	320.73
456.75	318.06
457.12	315.80
457.49	313.53
457.86	311.36
458.23	309.49
458.59	307.44
458.96	305.38
459.33	303.55
459.70	301.70
460.07	300.22
460.43	298.52
460.80	296.91
461.17	295.53
461.54	294.04
461.91	292.63
462.27	291.23
462.64	289.98
463.01	288.66
463.38	287.39
463.74	286.02
464.11	284.83
464.48	283.82
464.85	282.71
465.21	281.88
465.58	280.96
465.95	279.88
466.32	278.97
466.68	278.04
467.05	277.14
467.42	276.29
467.78	275.37
468.15	274.52
468.52	273.89
468.88	273.03
469.25	272.25
469.62	271.62
469.98	270.94
470.35	270.32
470.72	269.70
471.08	269.04
471.45	268.50
471.82	267.98
472.18	267.36
472.55	266.92
472.92	266.40
473.28	265.98
473.65	265.54
474.02	265.11
474.38	264.76
474.75	264.45
475.11	264.09
475.48	263.81
475.85	263.61
476.21	263.36
476.58	263.16
476.94	263.05
477.31	262.93
477.67	262.76
478.04	262.65
478.41	262.61
478.77	262.68
479.14	262.60
479.50	262.63
479.87	262.75
480.23	262.85
480.60	262.92
480.96	263.00
481.33	263.22
481.69	263.45
482.06	263.64
482.42	263.83
482.79	264.05
483.15	264.36
483.52	264.76
483.88	265.12
484.25	265.53
484.61	265.90
484.98	266.32
485.34	266.90
485.71	267.50
486.07	268.12
486.44	268.64
486.80	269.36
487.17	270.08
487.53	270.82
487.90	271.66
488.26	272.61
488.62	273.57
488.99	274.61
489.35	275.62
489.72	276.76
490.08	278.00
490.44	279.26
490.81	280.62
491.17	281.93
491.54	283.39
491.90	284.93
492.26	286.63
492.63	288.42
492.99	290.21
493.36	292.09
493.72	294.12
494.08	296.25
494.45	298.51
494.81	300.87
495.17	303.35
495.54	305.93
495.90	308.58
496.26	311.37
496.63	314.24
496.99	317.35
497.35	320.61
497.72	323.96
498.08	327.50
498.44	331.21
498.80	335.13
499.17	339.16
499.53	343.33
499.89	347.65
500.26	352.11
500.62	356.77
500.98	361.73
501.34	366.76
501.71	372.08
502.07	377.46
502.43	383.11
502.79	388.90
503.16	394.94
503.52	401.25
503.88	407.65
504.24	414.32
504.60	421.24
504.97	428.41
505.33	435.71
505.69	443.43
506.05	451.21
506.41	459.12
506.78	467.32
507.14	475.76
507.50	484.52
507.86	493.58
508.22	502.83
508.59	512.04
508.95	521.70
509.31	531.57
509.67	541.75
510.03	552.03
510.39	562.54
510.75	573.41
511.12	584.29
511.48	595.59
511.84	607.02
512.20	618.55
512.56	630.44
512.92	642.65
513.28	654.98
513.64	667.39
514.00	680.15
514.37	693.05
514.73	706.03
515.09	719.07
515.45	732.35
515.81	745.91
516.17	759.89
516.53	774.01
516.89	788.09
517.25	802.24
517.61	816.71
517.97	831.23
518.33	845.62
518.69	860.45
519.05	875.44
519.41	890.69
519.77	906.14
520.13	921.58
520.49	937.06
520.85	952.44
521.21	968.20
521.57	984.43
521.93	1000.21
522.29	1016.64
522.65	1032.96
523.01	1049.16
523.37	1065.06
523.73	1081.20
524.09	1097.31
524.45	1113.57
524.81	1130.27
525.17	1146.91
525.53	1163.71
525.89	1180.54
526.25	1197.39
526.61	1213.74
526.97	1230.34
527.33	1246.86
527.68	1263.49
528.04	1279.83
528.40	1296.27
528.76	1313.25
529.12	1329.73
529.48	1346.51
529.84	1362.42
530.20	1378.92
530.56	1395.81
530.91	1413.26
531.27	1429.98
531.63	1446.24
531.99	1462.93
532.35	1478.79
532.71	1494.67
533.07	1510.99
533.42	1526.74
533.78	1542.73
534.14	1558.97
534.50	1574.27
534.86	1590.09
535.21	1605.16
535.57	1621.02
535.93	1636.51
536.29	1651.18
536.65	1666.08
537.00	1680.80
537.36	1696.07
537.72	1710.46
538.08	1724.75
538.44	1738.45
538.79	1752.21
539.15	1765.78
539.51	1779.30
539.87	1793.46
540.22	1807.12
540.58	1820.64
540.94	1833.85
541.29	1846.48
541.65	1859.07
542.01	1872.10
542.37	1884.25
542.72	1896.50
543.08	1908.18
543.44	1920.37
543.79	1931.51
544.15	1942.50
544.51	1954.06
544.87	1964.94
545.22	1975.74
545.58	1985.95
545.94	1995.69
546.29	2005.57
546.65	2015.52
547.01	2024.80
547.36	2033.46
547.72	2041.92
548.07	2049.89
548.43	2057.95
548.79	2065.88
549.14	2073.45
549.50	2080.77
549.86	2088.37
550.21	2095.68
550.57	2102.89
550.92	2109.66
551.28	2116.84
551.64	2123.87
551.99	2130.27
552.35	2136.39
552.70	2142.42
553.06	2148.40
553.41	2154.72
553.77	2160.66
554.13	2166.65
554.48	2172.63
554.84	2178.20
555.19	2183.42
555.55	2188.60
555.90	2193.21
556.26	2198.24
556.61	2202.79
556.97	2207.20
557.32	2211.38
557.68	2215.46
558.03	2219.66
558.39	2223.21
558.74	2227.72
559.10	2231.65
559.45	2235.25
559.81	2239.61
560.16	2243.52
560.52	2246.76
560.87	2250.07
561.23	2252.73
561.58	2255.65
561.94	2258.21
562.29	2260.52
562.64	2263.27
563.00	2265.78
563.35	2269.31
563.71	2272.37
564.06	2275.54
564.42	2278.54
564.77	2281.19
565.12	2283.66
565.48	2285.70
565.83	2287.77
566.19	2289.12
566.54	2289.80
566.89	2291.16
567.25	2291.70
567.60	2293.06
567.96	2294.78
568.31	2295.67
568.66	2296.90
569.02	2297.50
569.37	2297.99
569.72	2298.94
570.08	2299.26
570.43	2299.28
570.78	2298.85
571.14	2297.30
571.49	2296.13
571.84	2295.67
572.20	2294.50
572.55	2293.43
572.90	2291.77
573.26	2290.28
573.61	2288.58
573.96	2287.16
574.31	2284.21
574.67	2281.32
575.02	2277.82
575.37	2274.48
575.72	2270.82
576.08	2267.44
576.43	2264.06
576.78	2260.44
577.13	2257.16
577.49	2253.91
577.84	2250.41
578.19	2246.46
578.54	2243.05
578.90	2238.81
579.25	2233.33
579.60	2228.51
579.95	2223.58
580.30	2218.56
580.66	2213.40
581.01	2208.47
581.36	2203.49
581.71	2199.27
582.06	2194.89
582.42	2190.35
582.77	2185.21
583.12	2180.74
583.47	2176.16
583.82	2171.38
584.17	2166.20
584.53	2160.72
584.88	2155.17
585.23	2149.54
585.58	2144.17
585.93	2138.64
586.28	2133.84
586.63	2128.89
586.98	2123.79
587.34	2118.93
587.69	2114.01
588.04	2108.87
588.39	2103.29
588.74	2096.79
589.09	2090.76
589.44	2083.94
589.79	2077.86
590.14	2072.14
590.49	2065.43
590.84	2058.80
591.19	2052.67
591.54	2046.14
591.89	2038.98
592.25	2032.25
592.60	2025.08
592.95	2017.62
593.30	2010.29
593.65	2002.80
594.00	1995.61
594.35	1988.35
594.70	1980.40
595.05	1973.55
595.40	1966.40
595.75	1959.04
596.10	1953.04
596.45	1946.23
596.80	1940.10
597.15	1933.63
597.50	1926.71
597.85	1920.20
598.19	1913.79
598.54	1906.91
598.89	1900.22
599.24	1894.26
599.59	1887.54
599.94	1881.24
600.29	1874.95
600.64	1868.39
600.99	1861.03
601.34	1854.18
601.69	1847.20
602.04	1840.32
602.39	1832.85
602.74	1825.81
603.08	1818.92
603.43	1812.09
603.78	1804.77
604.13	1797.61
604.48	1790.36
604.83	1783.54
605.18	1776.86
605.53	1768.84
605.87	1760.80
606.22	1753.57
606.57	1745.61
606.92	1738.26
607.27	1731.24
607.62	1724.39
607.96	1717.20
608.31	1710.66
608.66	1703.11
609.01	1695.68
609.36	1688.26
609.70	1680.29
610.05	1672.45
610.40	1664.89
610.75	1656.59
611.10	1649.03
611.44	1640.57
611.79	1632.53
612.14	1623.69
612.49	1614.39
612.83	1606.03
613.18	1597.79
613.53	1589.71
613.88	1581.15
614.22	1572.91
614.57	1564.29
614.92	1556.17
615.27	1548.68
615.61	1540.29
615.96	1532.25
616.31	1524.63
616.65	1517.17
617.00	1509.52
617.35	1501.72
617.70	1493.41
618.04	1484.97
618.39	1476.67
618.74	1469.20
619.08	1460.81
619.43	1453.29
619.78	1446.42
620.12	1439.33
620.47	1431.91
620.82	1423.76
621.16	1416.34
621.51	1408.71
621.85	1400.95
622.20	1392.44
622.55	1383.97
622.89	1376.02
623.24	1368.45
623.59	1360.82
623.93	1353.23
624.28	1346.09
624.62	1338.62
624.97	1331.31
625.32	1324.45
625.66	1317.44
626.01	1310.19
626.35	1302.88
626.70	1295.08
627.04	1287.41
627.39	1279.47
627.73	1272.03
628.08	1265.14
628.43	1257.97
628.77	1250.65
629.12	1243.22
629.46	1236.01
629.81	1228.55
630.15	1221.36
630.50	1214.02
630.84	1206.02
631.19	1198.14
631.53	1190.52
631.88	1182.87
632.22	1175.35
632.57	1168.07
632.91	1160.47
633.26	1153.15
633.60	1145.66
633.95	1138.50
634.29	1131.29
634.64	1124.62
634.98	1117.26
635.32	1110.14
635.67	1103.34
636.01	1096.64
636.36	1089.82
636.70	1083.29
637.05	1076.71
637.39	1070.20
637.73	1063.60
638.08	1057.56
638.42	1051.59
638.77	1045.13
639.11	1038.63
639.45	1032.20
639.80	1025.45
640.14	1019.16
640.49	1012.45
640.83	1006.07
641.17	999.93
641.52	993.70
641.86	987.24
642.20	981.38
642.55	975.05
642.89	968.60
643.23	962.01
643.58	956.17
643.92	949.99
644.26	944.09
644.61	938.10
644.95	932.11
645.29	925.62
645.64	918.87
645.98	912.50
646.32	906.56
646.66	900.54
647.01	894.84
647.35	889.12
647.69	883.30
648.04	877.86
648.38	872.04
648.72	866.07
649.06	860.10
649.41	854.22
649.75	848.23
650.09	842.38
650.43	836.63
650.78	830.59
651.12	824.58
651.46	818.77
651.80	813.08
652.14	807.71
652.49	802.34
652.83	797.20
653.17	791.65
653.51	786.04
653.85	780.63
654.20	774.95
654.54	768.96
654.88	763.25
655.22	757.39
655.56	751.63
655.90	746.09
656.25	740.77
656.59	735.35
656.93	730.26
657.27	725.06
657.61	719.62
657.95	714.43
658.29	709.41
658.64	704.16
658.98	698.78
659.32	693.30
659.66	688.09
660.00	682.82
660.34	677.84
660.68	672.90
661.02	667.85
661.36	663.20
661.70	658.69
662.05	654.29
662.39	650.01
662.73	645.59
663.07	641.31
663.41	636.96
663.75	632.54
664.09	627.92
664.43	623.62
664.77	619.54
665.11	615.30
665.45	611.13
665.79	607.12
666.13	603.02
666.47	598.96
666.81	594.82
667.15	590.67
667.49	586.75
667.83	582.91
668.17	579.05
668.51	574.92
668.85	570.82
669.19	567.03
669.53	563.10
669.87	559.36
670.21	555.62
670.55	551.89
670.89	548.41
671.23	545.04
671.57	541.48
671.91	537.93
672.25	534.46
672.58	530.98
672.92	527.47
673.26	524.27
673.60	521.09
673.94	517.97
674.28	515.05
674.62	512.09
674.96	509.03
675.30	506.14
675.64	503.25
675.97	500.41
676.31	497.50
676.65	494.57
676.99	491.80
677.33	488.91
677.67	486.10
678.01	483.08
678.34	480.10
678.68	477.17
679.02	474.33
679.36	471.50
679.70	468.74
680.04	466.06
680.37	463.25
680.71	460.40
681.05	457.77
681.39	455.06
681.73	452.39
682.06	449.83
682.40	447.24
682.74	444.64
683.08	442.11
683.42	439.52
683.75	437.04
684.09	434.43
684.43	431.97
684.77	429.51
685.10	427.14
685.44	424.79
685.78	422.54
686.12	420.32
686.45	418.01
686.79	415.72
687.13	413.46
687.46	411.28
687.80	409.14
688.14	406.88
688.48	404.78
688.81	402.59
689.15	400.40
689.49	398.17
689.82	396.13
690.16	394.09
690.50	392.14
690.83	390.18
691.17	388.17
691.51	386.23
691.84	384.37
692.18	382.45
692.52	380.55
692.85	378.58
693.19	376.67
693.52	374.86
693.86	373.04
694.20	371.31
694.53	369.48
694.87	367.64
695.21	365.86
695.54	364.02
695.88	362.31
696.21	360.58
696.55	358.97
696.88	357.28
697.22	355.61
697.56	354.02
697.89	352.37
698.23	350.80
698.56	349.25
698.90	347.70
699.23	346.13
699.57	344.56
699.90	343.02
700.24	341.49
700.58	340.00
700.91	338.52
701.25	337.07
701.58	335.70
701.92	334.36
702.25	333.00
702.59	331.69
702.92	330.32
703.26	329.03
703.59	327.72
703.93	326.53
704.26	325.32
704.60	323.96
704.93	322.69
705.26	321.46
705.60	320.22
705.93	319.07
706.27	317.98
706.60	316.91
706.94	315.83
707.27	314.74
707.61	313.62
707.94	312.58
708.27	311.47
708.61	310.39
708.94	309.38
709.28	308.42
709.61	307.42
709.94	306.49
710.28	305.46
710.61	304.45
710.95	303.35
711.28	302.43
711.61	301.53
711.95	300.65
712.28	299.74
712.61	298.78
712.95	297.82
713.28	296.96
713.61	296.11
713.95	295.20
714.28	294.35
714.61	293.50
714.95	292.68
715.28	291.86
715.61	290.95
715.95	290.07
716.28	289.17
716.61	288.34
716.95	287.48
717.28	286.77
717.61	286.03
717.94	285.30
718.28	284.45
718.61	283.70
718.94	282.95
719.27	282.25
719.61	281.61
719.94	280.92
720.27	280.20
720.60	279.51
720.94	278.89
721.27	278.28
721.60	277.72
721.93	277.08
722.27	276.47
722.60	275.94
722.93	275.35
723.26	274.79
723.59	274.22
723.93	273.69
724.26	273.11
724.59	272.55
724.92	272.02
725.25	271.54
725.59	271.01
725.92	270.54
726.25	270.04
726.58	269.47
726.91	268.97
727.24	268.42
727.57	267.93
727.91	267.39
728.24	266.92
728.57	266.41
728.90	265.93
729.23	265.50
729.56	265.08
729.89	264.65
730.22	264.15
730.55	263.72
730.89	263.25
731.22	262.84
731.55	262.41
731.88	261.95
732.21	261.50
732.54	261.04
732.87	260.61
733.20	260.18
733.53	259.81
733.86	259.46
734.19	259.09
734.52	258.71
734.85	258.45
735.18	258.05
735.51	257.69
735.84	257.33
736.17	256.94
736.50	256.55
736.83	256.31
737.16	256.01
737.49	255.65
737.82	255.32
738.15	254.97
738.48	254.65
738.81	254.36
739.14	254.10
739.47	253.82
739.80	253.54
740.13	253.28
740.46	252.98
740.79	252.65
741.12	252.36
741.45	252.05
741.78	251.69
742.11	251.40
742.44	251.06
742.77	250.81
743.10	250.49
743.43	250.20
743.75	249.81
744.08	249.64
744.41	249.37
744.74	249.12
745.07	248.83
745.40	248.57
745.73	248.35
746.06	248.02
746.39	247.76
746.71	247.45
747.04	247.13
747.37	246.88
747.70	246.68
748.03	246.46
748.36	246.27
748.68	246.05
749.01	245.82
749.34	245.63
749.67	245.40
750.00	245.21
750.33	245.08
750.65	244.88
750.98	244.58
751.31	244.38
751.64	244.20
751.97	244.04
752.29	243.83
752.62	243.55
752.95	243.37
753.28	243.17
753.60	242.98
753.93	242.83
754.26	242.66
754.59	242.41
754.91	242.20
755.24	241.97
755.57	241.73
755.90	241.52
756.22	241.32
756.55	241.12
756.88	240.91
757.20	240.65
757.53	240.44
757.86	240.27
758.19	240.08
758.51	239.84
758.84	239.63
759.17	239.43
759.49	239.27
759.82	239.14
760.15	238.98
760.47	238.82
760.80	238.62
761.13	238.44
761.45	238.28
761.78	238.10
762.11	237.96
762.43	237.84
762.76	237.72
763.08	237.58
763.41	237.40
763.74	237.27
764.06	237.10
764.39	236.96
764.71	236.79
765.04	236.67
765.37	236.52
765.69	236.38
766.02	236.28
766.34	236.15
766.67	236.02
767.00	235.89
767.32	235.81
767.65	235.75
767.97	235.63
768.30	235.52
768.62	235.44
768.95	235.32
769.27	235.19
769.60	235.12
769.92	235.00
770.25	234.95
770.57	234.81
770.90	234.75
771.22	234.66
771.55	234.59
771.87	234.49
772.20	234.46
772.52	234.45
772.85	234.47
773.17	234.39
773.50	234.24
773.82	234.14
774.15	234.02
774.47	233.86
774.80	233.80
775.12	233.71
775.45	233.62
775.77	233.51
776.09	233.47
776.42	233.35
776.74	233.35
777.07	233.22
777.39	233.18
777.72	233.05
778.04	232.99
778.36	232.88
778.69	232.82
779.01	232.73
779.33	232.59
779.66	232.41
779.98	232.37
780.31	232.33
780.63	232.33
780.95	232.28
781.28	232.23
781.60	232.17
781.92	232.12
782.25	232.06
782.57	232.02
782.89	231.93
783.22	231.87
783.54	231.76
783.86	231.72
784.19	231.66
784.51	231.68
784.83	231.62
785.16	231.58
785.48	231.55
785.80	231.49
786.12	231.45
786.45	231.42
786.77	231.34
787.09	231.30
