SpectraSuite Data File
++++++++++++++++++++++++++++++++++++
Date: Fri Feb 01 17:24:08 EST 2013
User: group
Dark Spectrum Present: No
Reference Spectrum Present: No
Number of Sampled Component Spectra: 1
Spectrometers: USB2E7196
Integration Time (usec): 35000 (USB2E7196)
Spectra Averaged: 100 (USB2E7196)
Boxcar Smoothing: 10 (USB2E7196)
Correct for Electrical Dark: No (USB2E7196)
Strobe/Lamp Enabled: No (USB2E7196)
Correct for Detector Non-linearity: No (USB2E7196)
Correct for Stray Light: No (USB2E7196)
Number of Pixels in Processed Spectrum: 2048
>>>>>Begin Processed Spectral Data<<<<<
339.09	0.00
339.48	212.58
339.86	214.53
340.24	215.58
340.63	217.24
341.01	219.74
341.39	219.58
341.78	220.83
342.16	222.20
342.54	223.22
342.93	211.09
343.31	221.76
343.69	222.29
344.07	222.77
344.46	223.19
344.84	223.57
345.22	223.81
345.60	224.05
345.99	224.27
346.37	224.40
346.75	224.46
347.13	224.56
347.52	224.62
347.90	224.68
348.28	224.73
348.66	224.78
349.05	224.78
349.43	224.81
349.81	224.88
350.19	224.93
350.57	224.99
350.96	225.07
351.34	225.16
351.72	225.23
352.10	225.30
352.48	225.38
352.87	225.44
353.25	225.49
353.63	225.56
354.01	225.62
354.39	225.69
354.77	225.78
355.15	225.87
355.54	225.95
355.92	226.00
356.30	226.09
356.68	226.27
357.06	226.32
357.44	226.40
357.82	226.45
358.20	226.53
358.58	226.61
358.97	226.70
359.35	226.78
359.73	226.90
360.11	226.98
360.49	227.03
360.87	227.07
361.25	227.13
361.63	227.22
362.01	227.24
362.39	227.28
362.77	227.35
363.15	227.38
363.53	227.40
363.91	227.46
364.29	227.49
364.67	227.38
365.05	227.44
365.43	227.47
365.81	227.49
366.19	227.53
366.57	227.59
366.95	227.59
367.33	227.56
367.71	227.53
368.09	227.55
368.47	227.56
368.85	227.58
369.23	227.61
369.61	227.55
369.99	227.59
370.37	227.56
370.75	227.58
371.13	227.54
371.51	227.53
371.89	227.49
372.27	227.44
372.65	227.42
373.03	227.37
373.41	227.31
373.78	227.29
374.16	227.23
374.54	227.13
374.92	227.05
375.30	227.02
375.68	226.94
376.06	226.87
376.44	226.81
376.82	226.75
377.19	226.67
377.57	226.64
377.95	226.56
378.33	226.48
378.71	226.35
379.09	226.31
379.47	226.24
379.84	226.21
380.22	226.15
380.60	226.10
380.98	226.02
381.36	225.97
381.73	225.90
382.11	225.84
382.49	225.79
382.87	225.71
383.25	225.65
383.62	225.73
384.00	225.66
384.38	225.57
384.76	225.54
385.13	225.52
385.51	225.42
385.89	225.35
386.27	225.31
386.64	225.29
387.02	225.20
387.40	225.17
387.78	225.10
388.15	225.07
388.53	224.97
388.91	224.91
389.29	224.86
389.66	224.82
390.04	224.76
390.42	224.76
390.79	224.73
391.17	224.69
391.55	224.53
391.92	224.49
392.30	224.49
392.68	224.47
393.05	224.45
393.43	224.46
393.81	224.49
394.18	224.48
394.56	224.50
394.94	224.52
395.31	224.51
395.69	224.56
396.06	224.61
396.44	224.66
396.82	224.70
397.19	224.81
397.57	224.83
397.95	224.87
398.32	224.88
398.70	224.95
399.07	225.02
399.45	225.07
399.82	225.16
400.20	225.20
400.58	225.26
400.95	225.28
401.33	225.37
401.70	225.47
402.08	225.55
402.45	225.60
402.83	225.74
403.20	225.84
403.58	225.90
403.95	226.01
404.33	226.13
404.71	226.27
405.08	226.43
405.46	226.57
405.83	226.71
406.21	226.83
406.58	227.01
406.96	227.14
407.33	227.32
407.70	227.50
408.08	227.79
408.45	228.02
408.83	228.27
409.20	228.49
409.58	228.66
409.95	228.93
410.33	229.19
410.70	229.43
411.08	229.76
411.45	230.08
411.82	230.36
412.20	230.71
412.57	231.16
412.95	231.43
413.32	231.84
413.69	232.26
414.07	232.73
414.44	233.21
414.82	233.73
415.19	234.30
415.56	234.89
415.94	235.39
416.31	236.04
416.68	236.68
417.06	237.43
417.43	238.15
417.81	238.97
418.18	239.82
418.55	240.68
418.93	241.56
419.30	242.46
419.67	243.43
420.04	244.43
420.42	245.41
420.79	246.65
421.16	247.84
421.54	249.07
421.91	250.35
422.28	251.66
422.66	253.01
423.03	254.36
423.40	255.73
423.77	257.22
424.15	258.70
424.52	260.20
424.89	261.88
425.26	263.52
425.64	265.02
426.01	266.63
426.38	268.33
426.75	270.11
427.13	271.92
427.50	273.79
427.87	275.76
428.24	277.71
428.61	279.53
428.99	281.53
429.36	283.70
429.73	285.80
430.10	287.88
430.47	290.02
430.85	292.23
431.22	294.54
431.59	297.01
431.96	299.31
432.33	301.93
432.70	304.37
433.08	307.27
433.45	309.97
433.82	312.64
434.19	315.65
434.56	318.50
434.93	321.25
435.30	324.00
435.68	326.98
436.05	329.91
436.42	332.78
436.79	335.41
437.16	338.23
437.53	341.14
437.90	344.09
438.27	346.94
438.64	349.89
439.01	352.56
439.38	354.91
439.75	357.19
440.13	359.76
440.50	362.17
440.87	364.11
441.24	366.11
441.61	368.40
441.98	369.93
442.35	371.85
442.72	373.77
443.09	375.65
443.46	376.69
443.83	377.34
444.20	377.93
444.57	378.80
444.94	379.11
445.31	379.51
445.68	379.88
446.05	379.99
446.42	379.59
446.79	379.23
447.16	378.76
447.53	378.43
447.90	377.30
448.27	376.15
448.64	374.51
449.01	373.34
449.37	371.35
449.74	369.42
450.11	367.10
450.48	364.59
450.85	361.97
451.22	359.82
451.59	357.73
451.96	355.70
452.33	353.03
452.70	350.61
453.07	347.70
453.43	344.69
453.80	341.83
454.17	339.03
454.54	336.39
454.91	333.61
455.28	330.85
455.65	328.25
456.02	325.69
456.38	323.44
456.75	320.70
457.12	318.33
457.49	316.01
457.86	313.78
458.23	311.83
458.59	309.71
458.96	307.50
459.33	305.56
459.70	303.60
460.07	302.04
460.43	300.23
460.80	298.55
461.17	297.05
461.54	295.48
461.91	294.07
462.27	292.55
462.64	291.23
463.01	289.83
463.38	288.48
463.74	287.06
464.11	285.87
464.48	284.82
464.85	283.67
465.21	282.76
465.58	281.78
465.95	280.64
466.32	279.68
466.68	278.75
467.05	277.82
467.42	276.91
467.78	275.95
468.15	275.06
468.52	274.37
468.88	273.47
469.25	272.67
469.62	272.00
469.98	271.30
470.35	270.64
470.72	269.99
471.08	269.33
471.45	268.74
471.82	268.19
472.18	267.58
472.55	267.17
472.92	266.61
473.28	266.15
473.65	265.69
474.02	265.23
474.38	264.84
474.75	264.52
475.11	264.16
475.48	263.88
475.85	263.62
476.21	263.40
476.58	263.21
476.94	263.06
477.31	262.88
477.67	262.72
478.04	262.61
478.41	262.56
478.77	262.59
479.14	262.53
479.50	262.57
479.87	262.65
480.23	262.71
480.60	262.83
480.96	262.92
481.33	263.13
481.69	263.35
482.06	263.56
482.42	263.76
482.79	264.06
483.15	264.42
483.52	264.77
483.88	265.12
484.25	265.52
484.61	265.98
484.98	266.46
485.34	267.02
485.71	267.60
486.07	268.21
486.44	268.77
486.80	269.52
487.17	270.23
487.53	271.04
487.90	271.88
488.26	272.80
488.62	273.79
488.99	274.76
489.35	275.77
489.72	276.93
490.08	278.12
490.44	279.31
490.81	280.65
491.17	282.03
491.54	283.51
491.90	285.08
492.26	286.70
492.63	288.43
492.99	290.23
493.36	292.11
493.72	294.14
494.08	296.24
494.45	298.46
494.81	300.83
495.17	303.22
495.54	305.80
495.90	308.47
496.26	311.23
496.63	314.19
496.99	317.26
497.35	320.44
497.72	323.82
498.08	327.35
498.44	330.98
498.80	334.87
499.17	338.87
499.53	343.02
499.89	347.37
500.26	351.81
500.62	356.43
500.98	361.35
501.34	366.37
501.71	371.65
502.07	377.00
502.43	382.52
502.79	388.28
503.16	394.29
503.52	400.49
503.88	406.80
504.24	413.28
504.60	420.10
504.97	427.16
505.33	434.34
505.69	441.90
506.05	449.53
506.41	457.28
506.78	465.23
507.14	473.48
507.50	481.98
507.86	490.90
508.22	499.91
508.59	508.99
508.95	518.45
509.31	528.09
509.67	538.01
510.03	548.10
510.39	558.51
510.75	569.04
511.12	579.71
511.48	590.86
511.84	602.18
512.20	613.43
512.56	625.10
512.92	637.06
513.28	649.17
513.64	661.36
514.00	673.80
514.37	686.57
514.73	699.36
515.09	712.13
515.45	725.04
515.81	738.38
516.17	751.93
516.53	765.67
516.89	779.50
517.25	793.25
517.61	807.29
517.97	821.34
518.33	835.40
518.69	849.82
519.05	864.30
519.41	879.06
519.77	894.24
520.13	909.34
520.49	924.41
520.85	939.37
521.21	954.64
521.57	970.46
521.93	985.73
522.29	1001.56
522.65	1017.47
523.01	1033.20
523.37	1048.83
523.73	1064.58
524.09	1080.26
524.45	1096.11
524.81	1112.44
525.17	1128.75
525.53	1145.19
525.89	1161.70
526.25	1178.20
526.61	1194.23
526.97	1210.53
527.33	1226.61
527.68	1242.70
528.04	1258.69
528.40	1274.92
528.76	1291.64
529.12	1307.81
529.48	1324.31
529.84	1340.00
530.20	1356.26
530.56	1372.83
530.91	1389.83
531.27	1406.29
531.63	1422.34
531.99	1438.58
532.35	1454.25
532.71	1469.96
533.07	1485.85
533.42	1501.45
533.78	1517.17
534.14	1533.08
534.50	1548.18
534.86	1563.76
535.21	1578.79
535.57	1594.42
535.93	1609.53
536.29	1624.01
536.65	1638.72
537.00	1653.32
537.36	1668.46
537.72	1682.60
538.08	1696.91
538.44	1710.40
538.79	1724.11
539.15	1737.47
539.51	1751.03
539.87	1765.09
540.22	1778.51
540.58	1792.11
540.94	1805.02
541.29	1817.62
541.65	1830.18
542.01	1843.15
542.37	1855.38
542.72	1867.62
543.08	1879.31
543.44	1891.65
543.79	1902.98
544.15	1914.01
544.51	1925.42
544.87	1936.29
545.22	1947.21
545.58	1957.50
545.94	1967.38
546.29	1977.33
546.65	1987.30
547.01	1996.64
547.36	2005.46
547.72	2014.19
548.07	2022.41
548.43	2030.77
548.79	2038.76
549.14	2046.58
549.50	2054.08
549.86	2061.72
550.21	2069.20
550.57	2076.60
550.92	2083.31
551.28	2090.47
551.64	2097.77
551.99	2104.62
552.35	2111.09
552.70	2117.43
553.06	2123.52
553.41	2130.10
553.77	2136.25
554.13	2142.50
554.48	2148.82
554.84	2154.78
555.19	2160.02
555.55	2165.30
555.90	2170.22
556.26	2175.73
556.61	2180.59
556.97	2185.26
557.32	2189.84
557.68	2194.26
558.03	2198.67
558.39	2202.76
558.74	2207.63
559.10	2211.75
559.45	2215.59
559.81	2220.08
560.16	2224.19
560.52	2227.71
560.87	2231.26
561.23	2234.18
561.58	2237.21
561.94	2240.20
562.29	2242.66
562.64	2246.10
563.00	2248.91
563.35	2252.66
563.71	2255.98
564.06	2259.46
564.42	2262.62
564.77	2265.54
565.12	2268.30
565.48	2270.72
565.83	2273.09
566.19	2274.90
566.54	2276.20
566.89	2277.81
567.25	2278.98
567.60	2280.51
567.96	2282.86
568.31	2284.16
568.66	2285.77
569.02	2287.11
569.37	2287.82
569.72	2288.99
570.08	2289.44
570.43	2289.90
570.78	2289.81
571.14	2288.80
571.49	2287.85
571.84	2287.83
572.20	2287.12
572.55	2286.38
572.90	2285.09
573.26	2284.03
573.61	2282.48
573.96	2281.37
574.31	2278.78
574.67	2276.27
575.02	2273.19
575.37	2269.90
575.72	2266.59
576.08	2263.31
576.43	2260.15
576.78	2256.82
577.13	2253.86
577.49	2250.81
577.84	2247.75
578.19	2244.26
578.54	2240.94
578.90	2237.20
579.25	2232.11
579.60	2227.60
579.95	2223.07
580.30	2218.55
580.66	2213.74
581.01	2209.17
581.36	2204.33
581.71	2200.58
582.06	2196.31
582.42	2192.18
582.77	2187.41
583.12	2183.17
583.47	2179.12
583.82	2174.61
584.17	2169.68
584.53	2164.75
584.88	2159.49
585.23	2154.04
585.58	2148.82
585.93	2143.54
586.28	2138.81
586.63	2133.96
586.98	2128.99
587.34	2124.32
587.69	2119.51
588.04	2114.52
588.39	2109.13
588.74	2102.90
589.09	2096.93
589.44	2090.45
589.79	2084.36
590.14	2078.93
590.49	2072.45
590.84	2065.99
591.19	2060.18
591.54	2053.91
591.89	2046.89
592.25	2040.54
592.60	2033.39
592.95	2026.17
593.30	2019.00
593.65	2011.60
594.00	2004.68
594.35	1997.52
594.70	1989.63
595.05	1982.66
595.40	1975.49
595.75	1968.13
596.10	1962.11
596.45	1955.54
596.80	1949.43
597.15	1943.21
597.50	1936.39
597.85	1930.14
598.19	1923.70
598.54	1917.02
598.89	1910.50
599.24	1904.63
599.59	1898.06
599.94	1891.94
600.29	1885.49
600.64	1878.92
600.99	1871.71
601.34	1865.08
601.69	1858.32
602.04	1851.65
602.39	1844.44
602.74	1837.48
603.08	1830.98
603.43	1824.26
603.78	1816.86
604.13	1809.68
604.48	1802.61
604.83	1795.67
605.18	1788.88
605.53	1781.09
605.87	1772.92
606.22	1765.72
606.57	1757.74
606.92	1750.17
607.27	1743.13
607.62	1736.39
607.96	1729.36
608.31	1723.02
608.66	1715.42
609.01	1707.94
609.36	1700.44
609.70	1692.38
610.05	1684.55
610.40	1676.72
610.75	1668.37
611.10	1660.83
611.44	1652.39
611.79	1644.14
612.14	1635.40
612.49	1626.10
612.83	1617.57
613.18	1609.27
613.53	1601.00
613.88	1592.38
614.22	1584.20
614.57	1575.39
614.92	1567.29
615.27	1559.69
615.61	1551.19
615.96	1543.08
616.31	1535.18
616.65	1527.69
617.00	1520.05
617.35	1512.26
617.70	1503.91
618.04	1495.38
618.39	1487.03
618.74	1479.45
619.08	1471.09
619.43	1463.50
619.78	1456.39
620.12	1449.17
620.47	1441.56
620.82	1433.42
621.16	1425.83
621.51	1418.06
621.85	1410.44
622.20	1401.85
622.55	1393.27
622.89	1385.27
623.24	1377.56
623.59	1370.03
623.93	1362.39
624.28	1355.02
624.62	1347.37
624.97	1340.02
625.32	1333.08
625.66	1325.90
626.01	1318.50
626.35	1311.06
626.70	1303.11
627.04	1295.44
627.39	1287.63
627.73	1280.15
628.08	1273.09
628.43	1265.81
628.77	1258.49
629.12	1250.85
629.46	1243.65
629.81	1236.11
630.15	1228.75
630.50	1221.26
630.84	1213.18
631.19	1205.12
631.53	1197.48
631.88	1189.83
632.22	1182.20
632.57	1174.87
632.91	1167.21
633.26	1159.85
633.60	1152.23
633.95	1144.98
634.29	1137.71
634.64	1130.88
634.98	1123.40
635.32	1116.16
635.67	1109.42
636.01	1102.61
636.36	1095.84
636.70	1089.16
637.05	1082.59
637.39	1076.02
637.73	1069.44
638.08	1063.38
638.42	1057.32
638.77	1050.87
639.11	1044.29
639.45	1037.88
639.80	1031.16
640.14	1024.88
640.49	1018.25
640.83	1011.99
641.17	1005.82
641.52	999.43
641.86	992.91
642.20	987.07
642.55	980.63
642.89	974.12
643.23	967.59
643.58	961.74
643.92	955.48
644.26	949.38
644.61	943.27
644.95	937.31
645.29	930.78
645.64	924.03
645.98	917.71
646.32	911.71
646.66	905.68
647.01	899.87
647.35	894.02
647.69	888.15
648.04	882.59
648.38	876.73
648.72	870.83
649.06	864.76
649.41	858.80
649.75	852.91
650.09	846.94
650.43	841.13
650.78	834.91
651.12	828.89
651.46	823.13
651.80	817.49
652.14	811.95
652.49	806.44
652.83	801.24
653.17	795.59
653.51	789.95
653.85	784.39
654.20	778.72
654.54	772.67
654.88	766.79
655.22	760.85
655.56	755.13
655.90	749.58
656.25	744.32
656.59	738.99
656.93	733.84
657.27	728.72
657.61	723.19
657.95	718.08
658.29	713.00
658.64	707.62
658.98	702.16
659.32	696.67
659.66	691.48
660.00	686.24
660.34	681.19
660.68	676.20
661.02	671.09
661.36	666.36
661.70	661.87
662.05	657.51
662.39	653.14
662.73	648.64
663.07	644.24
663.41	639.81
663.75	635.34
664.09	630.72
664.43	626.27
664.77	622.13
665.11	617.85
665.45	613.73
665.79	609.72
666.13	605.61
666.47	601.48
666.81	597.23
667.15	593.00
667.49	589.03
667.83	585.16
668.17	581.24
668.51	577.17
668.85	573.11
669.19	569.20
669.53	565.39
669.87	561.57
670.21	557.90
670.55	554.18
670.89	550.66
671.23	547.23
671.57	543.69
671.91	540.15
672.25	536.53
672.58	532.94
672.92	529.51
673.26	526.35
673.60	523.20
673.94	520.13
674.28	517.22
674.62	514.33
674.96	511.20
675.30	508.38
675.64	505.44
675.97	502.64
676.31	499.77
676.65	496.79
676.99	493.98
677.33	491.00
677.67	488.17
678.01	485.13
678.34	482.17
678.68	479.26
679.02	476.44
679.36	473.73
679.70	471.03
680.04	468.19
680.37	465.31
680.71	462.49
681.05	459.86
681.39	457.12
681.73	454.35
682.06	451.82
682.40	449.20
682.74	446.62
683.08	443.97
683.42	441.36
683.75	438.79
684.09	436.26
684.43	433.82
684.77	431.31
685.10	428.95
685.44	426.62
685.78	424.35
686.12	422.01
686.45	419.61
686.79	417.27
687.13	415.05
687.46	412.85
687.80	410.63
688.14	408.32
688.48	406.22
688.81	403.99
689.15	401.83
689.49	399.64
689.82	397.56
690.16	395.46
690.50	393.46
690.83	391.57
691.17	389.52
691.51	387.62
691.84	385.77
692.18	383.81
692.52	381.82
692.85	379.84
693.19	377.99
693.52	376.16
693.86	374.33
694.20	372.52
694.53	370.71
694.87	368.89
695.21	367.06
695.54	365.17
695.88	363.41
696.21	361.65
696.55	359.90
696.88	358.20
697.22	356.51
697.56	354.86
697.89	353.13
698.23	351.54
698.56	349.86
698.90	348.29
699.23	346.65
699.57	345.05
699.90	343.43
700.24	341.83
700.58	340.33
700.91	338.82
701.25	337.39
701.58	336.02
701.92	334.64
702.25	333.32
702.59	332.00
702.92	330.66
703.26	329.35
703.59	328.08
703.93	326.84
704.26	325.65
704.60	324.33
704.93	323.07
705.26	321.78
705.60	320.55
705.93	319.33
706.27	318.25
706.60	317.18
706.94	316.11
707.27	314.99
707.61	313.90
707.94	312.84
708.27	311.75
708.61	310.64
708.94	309.61
709.28	308.61
709.61	307.60
709.94	306.67
710.28	305.62
710.61	304.65
710.95	303.53
711.28	302.54
711.61	301.63
711.95	300.69
712.28	299.79
712.61	298.86
712.95	297.91
713.28	297.01
713.61	296.09
713.95	295.23
714.28	294.37
714.61	293.50
714.95	292.64
715.28	291.77
715.61	290.86
715.95	289.98
716.28	289.07
716.61	288.22
716.95	287.40
717.28	286.59
717.61	285.82
717.94	285.11
718.28	284.31
718.61	283.49
718.94	282.75
719.27	282.06
719.61	281.37
719.94	280.67
720.27	279.90
720.60	279.19
720.94	278.49
721.27	277.84
721.60	277.21
721.93	276.59
722.27	276.03
722.60	275.48
722.93	274.89
723.26	274.37
723.59	273.79
723.93	273.17
724.26	272.61
724.59	272.02
724.92	271.49
725.25	270.99
725.59	270.47
725.92	270.00
726.25	269.44
726.58	268.94
726.91	268.49
727.24	268.04
727.57	267.59
727.91	267.07
728.24	266.61
728.57	266.12
728.90	265.61
729.23	265.10
729.56	264.65
729.89	264.16
730.22	263.66
730.55	263.23
730.89	262.84
731.22	262.39
731.55	261.95
731.88	261.45
732.21	260.98
732.54	260.57
732.87	260.10
733.20	259.73
733.53	259.35
733.86	258.92
734.19	258.53
734.52	258.15
734.85	257.87
735.18	257.45
735.51	257.11
735.84	256.74
736.17	256.35
736.50	255.96
736.83	255.73
737.16	255.37
737.49	254.99
737.82	254.65
738.15	254.33
738.48	254.00
738.81	253.69
739.14	253.37
739.47	253.05
739.80	252.74
740.13	252.39
740.46	252.05
740.79	251.72
741.12	251.41
741.45	251.07
741.78	250.74
742.11	250.48
742.44	250.12
742.77	249.87
743.10	249.59
743.43	249.29
743.75	248.89
744.08	248.73
744.41	248.45
744.74	248.12
745.07	247.79
745.40	247.52
745.73	247.28
746.06	247.03
746.39	246.76
746.71	246.48
747.04	246.23
747.37	245.96
747.70	245.73
748.03	245.47
748.36	245.29
748.68	245.03
749.01	244.76
749.34	244.58
749.67	244.32
750.00	244.10
750.33	243.93
750.65	243.70
750.98	243.40
751.31	243.20
751.64	243.01
751.97	242.90
752.29	242.72
752.62	242.49
752.95	242.26
753.28	242.06
753.60	241.89
753.93	241.70
754.26	241.49
754.59	241.26
754.91	241.04
755.24	240.81
755.57	240.62
755.90	240.44
756.22	240.18
756.55	239.99
756.88	239.78
757.20	239.52
757.53	239.32
757.86	239.13
758.19	238.95
758.51	238.75
758.84	238.50
759.17	238.29
759.49	238.12
759.82	238.01
760.15	237.86
760.47	237.68
760.80	237.51
761.13	237.37
761.45	237.19
761.78	237.08
762.11	236.92
762.43	236.73
762.76	236.60
763.08	236.51
763.41	236.39
763.74	236.25
764.06	236.11
764.39	236.00
764.71	235.85
765.04	235.72
765.37	235.62
765.69	235.48
766.02	235.33
766.34	235.21
766.67	235.04
767.00	234.90
767.32	234.83
767.65	234.76
767.97	234.67
768.30	234.60
768.62	234.46
768.95	234.32
769.27	234.22
769.60	234.09
769.92	233.95
770.25	233.84
770.57	233.72
770.90	233.67
771.22	233.51
771.55	233.41
771.87	233.31
772.20	233.20
772.52	233.20
772.85	233.25
773.17	233.11
773.50	233.01
773.82	232.92
774.15	232.77
774.47	232.62
774.80	232.50
775.12	232.40
775.45	232.32
775.77	232.26
776.09	232.17
776.42	232.07
776.74	232.02
777.07	231.92
777.39	231.83
777.72	231.72
778.04	231.69
778.36	231.63
778.69	231.56
779.01	231.48
779.33	231.32
779.66	231.14
779.98	231.12
780.31	231.05
780.63	231.04
780.95	231.02
781.28	230.93
781.60	230.87
781.92	230.75
782.25	230.69
782.57	230.66
782.89	230.56
783.22	230.50
783.54	230.42
783.86	230.36
784.19	230.31
784.51	230.29
784.83	230.21
785.16	230.14
785.48	230.11
785.80	230.08
786.12	230.04
786.45	229.99
786.77	229.91
787.09	229.85
