SpectraSuite Data File
++++++++++++++++++++++++++++++++++++
Date: Fri Feb 01 15:04:00 EST 2013
User: group
Dark Spectrum Present: No
Reference Spectrum Present: No
Number of Sampled Component Spectra: 1
Spectrometers: USB2E7196
Integration Time (usec): 35000 (USB2E7196)
Spectra Averaged: 100 (USB2E7196)
Boxcar Smoothing: 10 (USB2E7196)
Correct for Electrical Dark: No (USB2E7196)
Strobe/Lamp Enabled: No (USB2E7196)
Correct for Detector Non-linearity: No (USB2E7196)
Correct for Stray Light: No (USB2E7196)
Number of Pixels in Processed Spectrum: 2048
>>>>>Begin Processed Spectral Data<<<<<
339.09	0.00
339.48	214.94
339.86	216.87
340.24	218.40
340.63	219.14
341.01	222.01
341.39	221.78
341.78	222.91
342.16	224.34
342.54	225.46
342.93	213.52
343.31	224.31
343.69	224.89
344.07	225.39
344.46	225.80
344.84	226.20
345.22	226.47
345.60	226.74
345.99	226.94
346.37	227.10
346.75	227.21
347.13	227.28
347.52	227.29
347.90	227.33
348.28	227.34
348.66	227.36
349.05	227.34
349.43	227.34
349.81	227.40
350.19	227.44
350.57	227.50
350.96	227.58
351.34	227.65
351.72	227.72
352.10	227.78
352.48	227.83
352.87	227.88
353.25	227.92
353.63	227.97
354.01	228.05
354.39	228.12
354.77	228.18
355.15	228.27
355.54	228.35
355.92	228.39
356.30	228.49
356.68	228.65
357.06	228.75
357.44	228.79
357.82	228.83
358.20	228.94
358.58	229.00
358.97	229.08
359.35	229.17
359.73	229.23
360.11	229.27
360.49	229.34
360.87	229.36
361.25	229.41
361.63	229.49
362.01	229.51
362.39	229.55
362.77	229.57
363.15	229.61
363.53	229.63
363.91	229.66
364.29	229.66
364.67	229.56
365.05	229.57
365.43	229.60
365.81	229.64
366.19	229.64
366.57	229.66
366.95	229.60
367.33	229.57
367.71	229.53
368.09	229.52
368.47	229.49
368.85	229.46
369.23	229.44
369.61	229.38
369.99	229.39
370.37	229.32
370.75	229.33
371.13	229.22
371.51	229.16
371.89	229.10
372.27	229.06
372.65	229.04
373.03	228.98
373.41	228.92
373.78	228.82
374.16	228.70
374.54	228.61
374.92	228.55
375.30	228.45
375.68	228.35
376.06	228.27
376.44	228.20
376.82	228.14
377.19	228.09
377.57	228.01
377.95	227.93
378.33	227.87
378.71	227.75
379.09	227.73
379.47	227.65
379.84	227.57
380.22	227.49
380.60	227.38
380.98	227.30
381.36	227.23
381.73	227.15
382.11	227.09
382.49	227.03
382.87	226.96
383.25	226.89
383.62	226.92
384.00	226.85
384.38	226.80
384.76	226.79
385.13	226.73
385.51	226.65
385.89	226.54
386.27	226.48
386.64	226.42
387.02	226.34
387.40	226.33
387.78	226.29
388.15	226.26
388.53	226.22
388.91	226.20
389.29	226.17
389.66	226.15
390.04	226.09
390.42	226.10
390.79	226.06
391.17	226.05
391.55	225.98
391.92	226.00
392.30	226.00
392.68	225.95
393.05	225.97
393.43	226.00
393.81	226.04
394.18	226.05
394.56	226.07
394.94	226.10
395.31	226.09
395.69	226.15
396.06	226.21
396.44	226.28
396.82	226.31
397.19	226.40
397.57	226.44
397.95	226.55
398.32	226.61
398.70	226.71
399.07	226.79
399.45	226.86
399.82	226.93
400.20	226.99
400.58	227.11
400.95	227.14
401.33	227.26
401.70	227.37
402.08	227.48
402.45	227.61
402.83	227.74
403.20	227.87
403.58	227.96
403.95	228.05
404.33	228.23
404.71	228.35
405.08	228.53
405.46	228.69
405.83	228.84
406.21	228.95
406.58	229.12
406.96	229.30
407.33	229.47
407.70	229.68
408.08	229.95
408.45	230.13
408.83	230.40
409.20	230.61
409.58	230.84
409.95	231.12
410.33	231.38
410.70	231.64
411.08	231.92
411.45	232.26
411.82	232.61
412.20	232.96
412.57	233.38
412.95	233.72
413.32	234.14
413.69	234.53
414.07	235.00
414.44	235.45
414.82	235.93
415.19	236.48
415.56	237.03
415.94	237.55
416.31	238.23
416.68	238.85
417.06	239.57
417.43	240.26
417.81	241.02
418.18	241.83
418.55	242.66
418.93	243.56
419.30	244.46
419.67	245.35
420.04	246.29
420.42	247.28
420.79	248.44
421.16	249.58
421.54	250.80
421.91	251.98
422.28	253.25
422.66	254.61
423.03	255.90
423.40	257.24
423.77	258.66
424.15	260.05
424.52	261.53
424.89	263.13
425.26	264.67
425.64	266.07
426.01	267.63
426.38	269.30
426.75	270.97
427.13	272.68
427.50	274.52
427.87	276.40
428.24	278.26
428.61	280.01
428.99	281.94
429.36	284.00
429.73	286.10
430.10	288.07
430.47	290.12
430.85	292.28
431.22	294.52
431.59	296.87
431.96	299.14
432.33	301.61
432.70	304.00
433.08	306.85
433.45	309.54
433.82	312.15
434.19	315.02
434.56	317.78
434.93	320.47
435.30	323.09
435.68	325.97
436.05	328.80
436.42	331.62
436.79	334.16
437.16	336.90
437.53	339.74
437.90	342.58
438.27	345.34
438.64	348.17
439.01	350.77
439.38	353.08
439.75	355.27
440.13	357.77
440.50	360.15
440.87	361.96
441.24	363.91
441.61	366.08
441.98	367.62
442.35	369.45
442.72	371.33
443.09	373.14
443.46	374.15
443.83	374.79
444.20	375.30
444.57	376.17
444.94	376.44
445.31	376.79
445.68	377.18
446.05	377.30
446.42	376.92
446.79	376.47
447.16	376.03
447.53	375.72
447.90	374.55
448.27	373.36
448.64	371.81
449.01	370.66
449.37	368.69
449.74	366.78
450.11	364.54
450.48	362.03
450.85	359.50
451.22	357.36
451.59	355.30
451.96	353.35
452.33	350.73
452.70	348.39
453.07	345.54
453.43	342.62
453.80	339.82
454.17	337.13
454.54	334.59
454.91	331.85
455.28	329.13
455.65	326.65
456.02	324.19
456.38	321.99
456.75	319.35
457.12	317.07
457.49	314.83
457.86	312.68
458.23	310.85
458.59	308.77
458.96	306.68
459.33	304.80
459.70	302.92
460.07	301.36
460.43	299.64
460.80	298.00
461.17	296.55
461.54	295.03
461.91	293.62
462.27	292.20
462.64	290.93
463.01	289.58
463.38	288.32
463.74	286.91
464.11	285.75
464.48	284.73
464.85	283.64
465.21	282.73
465.58	281.75
465.95	280.59
466.32	279.70
466.68	278.79
467.05	277.90
467.42	276.99
467.78	276.07
468.15	275.17
468.52	274.51
468.88	273.64
469.25	272.88
469.62	272.23
469.98	271.49
470.35	270.83
470.72	270.21
471.08	269.52
471.45	269.01
471.82	268.45
472.18	267.83
472.55	267.38
472.92	266.90
473.28	266.45
473.65	266.06
474.02	265.59
474.38	265.18
474.75	264.85
475.11	264.50
475.48	264.24
475.85	264.01
476.21	263.75
476.58	263.56
476.94	263.39
477.31	263.20
477.67	263.06
478.04	262.97
478.41	262.89
478.77	262.95
479.14	262.88
479.50	262.91
479.87	262.99
480.23	263.05
480.60	263.11
480.96	263.18
481.33	263.36
481.69	263.53
482.06	263.72
482.42	263.92
482.79	264.16
483.15	264.50
483.52	264.88
483.88	265.25
484.25	265.61
484.61	266.04
484.98	266.52
485.34	267.09
485.71	267.70
486.07	268.33
486.44	268.88
486.80	269.58
487.17	270.28
487.53	271.09
487.90	271.93
488.26	272.87
488.62	273.89
488.99	274.85
489.35	275.96
489.72	277.08
490.08	278.27
490.44	279.54
490.81	280.84
491.17	282.14
491.54	283.61
491.90	285.16
492.26	286.78
492.63	288.46
492.99	290.22
493.36	292.10
493.72	294.07
494.08	296.19
494.45	298.39
494.81	300.75
495.17	303.15
495.54	305.72
495.90	308.38
496.26	311.21
496.63	314.13
496.99	317.16
497.35	320.41
497.72	323.82
498.08	327.34
498.44	331.03
498.80	334.99
499.17	339.03
499.53	343.19
499.89	347.54
500.26	352.03
500.62	356.69
500.98	361.59
501.34	366.68
501.71	371.94
502.07	377.38
502.43	382.96
502.79	388.77
503.16	394.84
503.52	401.06
503.88	407.34
504.24	413.96
504.60	420.89
504.97	428.05
505.33	435.36
505.69	443.03
506.05	450.75
506.41	458.57
506.78	466.72
507.14	475.17
507.50	483.89
507.86	492.89
508.22	502.08
508.59	511.30
508.95	520.86
509.31	530.63
509.67	540.74
510.03	551.04
510.39	561.65
510.75	572.35
511.12	583.25
511.48	594.63
511.84	606.14
512.20	617.59
512.56	629.46
512.92	641.65
513.28	653.96
513.64	666.44
514.00	679.17
514.37	692.00
514.73	705.01
515.09	718.07
515.45	731.39
515.81	745.02
516.17	759.07
516.53	773.15
516.89	787.33
517.25	801.44
517.61	815.89
517.97	830.31
518.33	844.86
518.69	859.68
519.05	874.60
519.41	889.73
519.77	905.34
520.13	920.86
520.49	936.19
520.85	951.64
521.21	967.35
521.57	983.69
521.93	999.51
522.29	1015.94
522.65	1032.19
523.01	1048.41
523.37	1064.48
523.73	1080.67
524.09	1096.92
524.45	1113.35
524.81	1130.14
525.17	1146.99
525.53	1163.92
525.89	1180.85
526.25	1197.79
526.61	1214.17
526.97	1231.01
527.33	1247.53
527.68	1264.18
528.04	1280.76
528.40	1297.54
528.76	1314.67
529.12	1331.21
529.48	1348.22
529.84	1364.42
530.20	1381.23
530.56	1398.35
530.91	1415.80
531.27	1432.62
531.63	1449.09
531.99	1465.83
532.35	1481.84
532.71	1497.82
533.07	1514.18
533.42	1530.13
533.78	1546.24
534.14	1562.71
534.50	1578.04
534.86	1594.08
535.21	1609.37
535.57	1625.38
535.93	1640.85
536.29	1655.78
536.65	1671.03
537.00	1685.88
537.36	1701.23
537.72	1715.83
538.08	1730.32
538.44	1744.12
538.79	1758.17
539.15	1772.07
539.51	1785.88
539.87	1800.35
540.22	1814.18
540.58	1828.15
540.94	1841.67
541.29	1854.71
541.65	1867.50
542.01	1880.82
542.37	1893.18
542.72	1905.80
543.08	1917.70
543.44	1930.25
543.79	1941.46
544.15	1952.43
544.51	1964.14
544.87	1975.31
545.22	1986.07
545.58	1996.30
545.94	2006.32
546.29	2016.24
546.65	2026.02
547.01	2035.25
547.36	2044.00
547.72	2052.33
548.07	2060.07
548.43	2068.27
548.79	2076.23
549.14	2083.74
549.50	2091.25
549.86	2099.04
550.21	2106.15
550.57	2113.27
550.92	2119.66
551.28	2126.76
551.64	2133.85
551.99	2140.36
552.35	2146.27
552.70	2152.54
553.06	2158.50
553.41	2164.68
553.77	2170.64
554.13	2176.73
554.48	2182.80
554.84	2188.11
555.19	2193.56
555.55	2198.76
555.90	2203.14
556.26	2207.89
556.61	2212.60
556.97	2216.60
557.32	2220.58
557.68	2224.85
558.03	2229.15
558.39	2233.01
558.74	2237.65
559.10	2241.52
559.45	2245.06
559.81	2249.40
560.16	2252.97
560.52	2256.19
560.87	2259.62
561.23	2262.20
561.58	2265.10
561.94	2267.65
562.29	2270.19
562.64	2272.93
563.00	2275.40
563.35	2278.86
563.71	2281.96
564.06	2285.12
564.42	2288.14
564.77	2290.59
565.12	2292.78
565.48	2294.68
565.83	2296.42
566.19	2297.57
566.54	2298.47
566.89	2299.60
567.25	2299.90
567.60	2301.47
567.96	2303.04
568.31	2303.75
568.66	2304.72
569.02	2305.11
569.37	2305.39
569.72	2305.86
570.08	2305.59
570.43	2305.56
570.78	2304.73
571.14	2303.14
571.49	2301.79
571.84	2301.25
572.20	2299.97
572.55	2298.72
572.90	2296.92
573.26	2295.36
573.61	2293.56
573.96	2291.61
574.31	2288.35
574.67	2285.40
575.02	2281.51
575.37	2278.02
575.72	2273.94
576.08	2270.57
576.43	2267.15
576.78	2263.24
577.13	2260.12
577.49	2256.98
577.84	2253.37
578.19	2249.55
578.54	2245.65
578.90	2241.13
579.25	2235.57
579.60	2230.39
579.95	2225.16
580.30	2220.02
580.66	2214.75
581.01	2209.73
581.36	2204.63
581.71	2200.23
582.06	2195.58
582.42	2190.80
582.77	2185.46
583.12	2180.89
583.47	2175.96
583.82	2170.76
584.17	2165.37
584.53	2159.74
584.88	2154.01
585.23	2148.11
585.58	2142.59
585.93	2137.16
586.28	2132.38
586.63	2127.17
586.98	2122.03
587.34	2117.39
587.69	2112.43
588.04	2106.92
588.39	2100.97
588.74	2094.42
589.09	2088.30
589.44	2081.37
589.79	2075.37
590.14	2069.58
590.49	2062.81
590.84	2056.23
591.19	2050.10
591.54	2043.54
591.89	2036.07
592.25	2029.15
592.60	2021.86
592.95	2014.21
593.30	2006.73
593.65	1998.99
594.00	1991.77
594.35	1984.39
594.70	1976.21
595.05	1968.83
595.40	1961.51
595.75	1954.03
596.10	1947.68
596.45	1940.72
596.80	1934.46
597.15	1927.61
597.50	1920.40
597.85	1914.09
598.19	1907.40
598.54	1900.25
598.89	1893.52
599.24	1887.57
599.59	1880.79
599.94	1874.45
600.29	1868.00
600.64	1861.41
600.99	1854.01
601.34	1847.13
601.69	1840.10
602.04	1833.13
602.39	1825.83
602.74	1819.01
603.08	1812.27
603.43	1805.59
603.78	1798.42
604.13	1791.19
604.48	1783.94
604.83	1777.17
605.18	1770.06
605.53	1761.94
605.87	1753.85
606.22	1746.61
606.57	1738.70
606.92	1731.29
607.27	1724.04
607.62	1717.12
607.96	1709.68
608.31	1702.92
608.66	1695.27
609.01	1687.84
609.36	1680.23
609.70	1672.22
610.05	1664.19
610.40	1656.35
610.75	1647.96
611.10	1640.24
611.44	1631.95
611.79	1624.02
612.14	1615.35
612.49	1606.26
612.83	1598.07
613.18	1590.14
613.53	1582.13
613.88	1573.58
614.22	1565.49
614.57	1557.04
614.92	1548.95
615.27	1541.47
615.61	1533.24
615.96	1525.32
616.31	1517.63
616.65	1510.32
617.00	1502.73
617.35	1495.10
617.70	1486.87
618.04	1478.30
618.39	1470.19
618.74	1462.57
619.08	1454.21
619.43	1446.61
619.78	1439.66
620.12	1432.48
620.47	1424.87
620.82	1416.75
621.16	1409.31
621.51	1401.74
621.85	1394.10
622.20	1385.66
622.55	1377.47
622.89	1369.63
623.24	1362.00
623.59	1354.72
623.93	1347.16
624.28	1339.95
624.62	1332.41
624.97	1325.32
625.32	1318.84
625.66	1311.81
626.01	1304.63
626.35	1297.28
626.70	1289.53
627.04	1281.78
627.39	1273.95
627.73	1266.56
628.08	1259.57
628.43	1252.20
628.77	1244.77
629.12	1237.26
629.46	1230.19
629.81	1222.73
630.15	1215.56
630.50	1208.14
630.84	1199.96
631.19	1192.15
631.53	1184.70
631.88	1177.32
632.22	1169.74
632.57	1162.41
632.91	1154.96
633.26	1147.60
633.60	1140.24
633.95	1133.25
634.29	1126.22
634.64	1119.70
634.98	1112.48
635.32	1105.37
635.67	1098.96
636.01	1092.48
636.36	1085.73
636.70	1079.22
637.05	1072.68
637.39	1066.20
637.73	1059.89
638.08	1054.10
638.42	1048.15
638.77	1041.69
639.11	1035.03
639.45	1028.67
639.80	1021.91
640.14	1015.44
640.49	1008.99
640.83	1002.83
641.17	996.57
641.52	990.40
641.86	984.07
642.20	978.21
642.55	971.99
642.89	965.55
643.23	958.96
643.58	953.20
643.92	946.95
644.26	940.88
644.61	934.96
644.95	928.91
645.29	922.24
645.64	915.45
645.98	909.26
646.32	903.53
646.66	897.50
647.01	891.83
647.35	886.20
647.69	880.44
648.04	874.92
648.38	869.28
648.72	863.25
649.06	857.19
649.41	851.35
649.75	845.34
650.09	839.38
650.43	833.61
650.78	827.45
651.12	821.66
651.46	815.91
651.80	810.06
652.14	804.66
652.49	799.34
652.83	794.21
653.17	788.49
653.51	782.67
653.85	777.35
654.20	771.74
654.54	765.74
654.88	759.95
655.22	754.08
655.56	748.32
655.90	742.96
656.25	737.65
656.59	732.32
656.93	727.34
657.27	722.15
657.61	716.69
657.95	711.64
658.29	706.46
658.64	701.31
658.98	696.09
659.32	690.62
659.66	685.46
660.00	680.15
660.34	675.23
660.68	670.42
661.02	665.39
661.36	660.68
661.70	656.20
662.05	651.89
662.39	647.51
662.73	643.05
663.07	638.64
663.41	634.30
663.75	629.84
664.09	625.28
664.43	620.94
664.77	616.87
665.11	612.61
665.45	608.55
665.79	604.47
666.13	600.38
666.47	596.31
666.81	592.19
667.15	588.10
667.49	584.21
667.83	580.37
668.17	576.41
668.51	572.33
668.85	568.34
669.19	564.49
669.53	560.68
669.87	556.86
670.21	553.14
670.55	549.52
670.89	546.07
671.23	542.65
671.57	539.15
671.91	535.71
672.25	532.31
672.58	528.79
672.92	525.45
673.26	522.31
673.60	519.20
673.94	516.09
674.28	513.22
674.62	510.33
674.96	507.30
675.30	504.43
675.64	501.54
675.97	498.81
676.31	495.99
676.65	493.03
676.99	490.39
677.33	487.57
677.67	484.72
678.01	481.70
678.34	478.75
678.68	475.91
679.02	473.05
679.36	470.30
679.70	467.65
680.04	464.91
680.37	462.05
680.71	459.23
681.05	456.63
681.39	453.97
681.73	451.36
682.06	448.83
682.40	446.30
682.74	443.84
683.08	441.33
683.42	438.78
683.75	436.40
684.09	433.81
684.43	431.39
684.77	428.93
685.10	426.63
685.44	424.34
685.78	422.12
686.12	419.90
686.45	417.62
686.79	415.39
687.13	413.22
687.46	411.10
687.80	408.98
688.14	406.81
688.48	404.72
688.81	402.46
689.15	400.37
689.49	398.23
689.82	396.13
690.16	394.06
690.50	392.11
690.83	390.17
691.17	388.27
691.51	386.39
691.84	384.63
692.18	382.71
692.52	380.74
692.85	378.81
693.19	376.98
693.52	375.14
693.86	373.31
694.20	371.55
694.53	369.71
694.87	367.87
695.21	366.09
695.54	364.28
695.88	362.59
696.21	360.82
696.55	359.18
696.88	357.50
697.22	355.83
697.56	354.21
697.89	352.52
698.23	350.90
698.56	349.30
698.90	347.63
699.23	345.92
699.57	344.34
699.90	342.77
700.24	341.20
700.58	339.70
700.91	338.15
701.25	336.68
701.58	335.33
701.92	333.99
702.25	332.68
702.59	331.33
702.92	329.99
703.26	328.70
703.59	327.41
703.93	326.17
704.26	324.96
704.60	323.69
704.93	322.41
705.26	321.18
705.60	320.02
705.93	318.92
706.27	317.97
706.60	316.97
706.94	315.94
707.27	314.82
707.61	313.79
707.94	312.83
708.27	311.71
708.61	310.64
708.94	309.64
709.28	308.62
709.61	307.66
709.94	306.73
710.28	305.68
710.61	304.69
710.95	303.66
711.28	302.71
711.61	301.75
711.95	300.85
712.28	299.90
712.61	298.89
712.95	297.95
713.28	297.06
713.61	296.13
713.95	295.24
714.28	294.38
714.61	293.51
714.95	292.69
715.28	291.89
715.61	291.02
715.95	290.16
716.28	289.32
716.61	288.50
716.95	287.68
717.28	286.98
717.61	286.24
717.94	285.52
718.28	284.76
718.61	284.07
718.94	283.36
719.27	282.70
719.61	282.09
719.94	281.43
720.27	280.72
720.60	280.09
720.94	279.45
721.27	278.88
721.60	278.30
721.93	277.63
722.27	277.07
722.60	276.56
722.93	275.96
723.26	275.43
723.59	274.87
723.93	274.35
724.26	273.76
724.59	273.19
724.92	272.65
725.25	272.14
725.59	271.62
725.92	271.15
726.25	270.60
726.58	270.10
726.91	269.63
727.24	269.18
727.57	268.69
727.91	268.20
728.24	267.73
728.57	267.25
728.90	266.84
729.23	266.35
729.56	265.89
729.89	265.45
730.22	264.96
730.55	264.47
730.89	264.03
731.22	263.62
731.55	263.22
731.88	262.79
732.21	262.36
732.54	261.92
732.87	261.49
733.20	261.16
733.53	260.75
733.86	260.38
734.19	259.94
734.52	259.58
734.85	259.27
735.18	258.81
735.51	258.47
735.84	258.09
736.17	257.76
736.50	257.31
736.83	257.09
737.16	256.77
737.49	256.46
737.82	256.10
738.15	255.78
738.48	255.44
738.81	255.15
739.14	254.82
739.47	254.47
739.80	254.15
740.13	253.82
740.46	253.50
740.79	253.16
741.12	252.87
741.45	252.55
741.78	252.20
742.11	251.94
742.44	251.60
742.77	251.28
743.10	250.96
743.43	250.70
743.75	250.33
744.08	250.16
744.41	249.88
744.74	249.62
745.07	249.35
745.40	249.12
745.73	248.88
746.06	248.62
746.39	248.37
746.71	248.10
747.04	247.84
747.37	247.58
747.70	247.36
748.03	247.12
748.36	246.90
748.68	246.65
749.01	246.39
749.34	246.17
749.67	245.99
750.00	245.79
750.33	245.65
750.65	245.38
750.98	245.03
751.31	244.82
751.64	244.62
751.97	244.46
752.29	244.21
752.62	243.93
752.95	243.66
753.28	243.47
753.60	243.27
753.93	243.14
754.26	242.95
754.59	242.73
754.91	242.53
755.24	242.34
755.57	242.16
755.90	242.02
756.22	241.86
756.55	241.62
756.88	241.42
757.20	241.17
757.53	240.99
757.86	240.85
758.19	240.68
758.51	240.52
758.84	240.28
759.17	240.10
759.49	239.99
759.82	239.90
760.15	239.76
760.47	239.66
760.80	239.41
761.13	239.25
761.45	239.10
761.78	238.96
762.11	238.79
762.43	238.65
762.76	238.45
763.08	238.29
763.41	238.15
763.74	238.02
764.06	237.90
764.39	237.80
764.71	237.65
765.04	237.55
765.37	237.38
765.69	237.22
766.02	237.11
766.34	236.95
766.67	236.81
767.00	236.70
767.32	236.61
767.65	236.54
767.97	236.44
768.30	236.32
768.62	236.21
768.95	236.09
769.27	235.99
769.60	235.93
769.92	235.83
770.25	235.70
770.57	235.57
770.90	235.44
771.22	235.32
771.55	235.20
771.87	235.11
772.20	234.98
772.52	235.01
772.85	235.03
773.17	234.94
773.50	234.82
773.82	234.70
774.15	234.54
774.47	234.41
774.80	234.32
775.12	234.21
775.45	234.10
775.77	234.03
776.09	233.98
776.42	233.88
776.74	233.82
777.07	233.75
777.39	233.71
777.72	233.62
778.04	233.56
778.36	233.50
778.69	233.40
779.01	233.36
779.33	233.20
779.66	233.04
779.98	232.97
780.31	232.94
780.63	232.88
780.95	232.86
781.28	232.78
781.60	232.71
781.92	232.69
782.25	232.63
782.57	232.55
782.89	232.45
783.22	232.39
783.54	232.34
783.86	232.27
784.19	232.18
784.51	232.19
784.83	232.11
785.16	232.06
785.48	232.00
785.80	231.94
786.12	231.91
786.45	231.88
786.77	231.85
787.09	231.78
