SpectraSuite Data File
++++++++++++++++++++++++++++++++++++
Date: Fri Feb 01 15:08:58 EST 2013
User: group
Dark Spectrum Present: No
Reference Spectrum Present: No
Number of Sampled Component Spectra: 1
Spectrometers: USB2E7196
Integration Time (usec): 35000 (USB2E7196)
Spectra Averaged: 100 (USB2E7196)
Boxcar Smoothing: 10 (USB2E7196)
Correct for Electrical Dark: No (USB2E7196)
Strobe/Lamp Enabled: No (USB2E7196)
Correct for Detector Non-linearity: No (USB2E7196)
Correct for Stray Light: No (USB2E7196)
Number of Pixels in Processed Spectrum: 2048
>>>>>Begin Processed Spectral Data<<<<<
339.09	0.00
339.48	215.13
339.86	216.67
340.24	218.04
340.63	219.48
341.01	221.63
341.39	221.72
341.78	223.11
342.16	224.80
342.54	225.27
342.93	213.47
343.31	224.22
343.69	224.77
344.07	225.23
344.46	225.65
344.84	226.02
345.22	226.31
345.60	226.57
345.99	226.78
346.37	226.91
346.75	227.01
347.13	227.08
347.52	227.14
347.90	227.17
348.28	227.22
348.66	227.25
349.05	227.23
349.43	227.28
349.81	227.33
350.19	227.38
350.57	227.40
350.96	227.51
351.34	227.64
351.72	227.72
352.10	227.80
352.48	227.88
352.87	227.94
353.25	227.99
353.63	228.07
354.01	228.15
354.39	228.23
354.77	228.32
355.15	228.40
355.54	228.47
355.92	228.56
356.30	228.60
356.68	228.75
357.06	228.83
357.44	228.87
357.82	228.91
358.20	228.99
358.58	229.02
358.97	229.07
359.35	229.14
359.73	229.20
360.11	229.26
360.49	229.32
360.87	229.35
361.25	229.37
361.63	229.44
362.01	229.48
362.39	229.50
362.77	229.56
363.15	229.61
363.53	229.59
363.91	229.60
364.29	229.62
364.67	229.51
365.05	229.54
365.43	229.58
365.81	229.59
366.19	229.60
366.57	229.67
366.95	229.66
367.33	229.60
367.71	229.58
368.09	229.60
368.47	229.57
368.85	229.54
369.23	229.57
369.61	229.48
369.99	229.46
370.37	229.43
370.75	229.39
371.13	229.30
371.51	229.27
371.89	229.25
372.27	229.19
372.65	229.16
373.03	229.08
373.41	228.99
373.78	228.91
374.16	228.80
374.54	228.69
374.92	228.61
375.30	228.55
375.68	228.45
376.06	228.32
376.44	228.26
376.82	228.22
377.19	228.14
377.57	228.05
377.95	227.96
378.33	227.86
378.71	227.75
379.09	227.69
379.47	227.63
379.84	227.55
380.22	227.48
380.60	227.38
380.98	227.31
381.36	227.26
381.73	227.19
382.11	227.17
382.49	227.11
382.87	227.01
383.25	226.95
383.62	227.04
384.00	226.97
384.38	226.90
384.76	226.84
385.13	226.81
385.51	226.79
385.89	226.73
386.27	226.68
386.64	226.61
387.02	226.57
387.40	226.52
387.78	226.46
388.15	226.45
388.53	226.46
388.91	226.45
389.29	226.41
389.66	226.39
390.04	226.32
390.42	226.32
390.79	226.35
391.17	226.35
391.55	226.23
391.92	226.27
392.30	226.31
392.68	226.29
393.05	226.27
393.43	226.26
393.81	226.29
394.18	226.31
394.56	226.37
394.94	226.40
395.31	226.44
395.69	226.50
396.06	226.54
396.44	226.54
396.82	226.56
397.19	226.67
397.57	226.69
397.95	226.74
398.32	226.74
398.70	226.82
399.07	226.90
399.45	226.94
399.82	227.03
400.20	227.07
400.58	227.18
400.95	227.23
401.33	227.36
401.70	227.49
402.08	227.61
402.45	227.69
402.83	227.83
403.20	227.98
403.58	228.07
403.95	228.23
404.33	228.37
404.71	228.49
405.08	228.64
405.46	228.82
405.83	229.00
406.21	229.20
406.58	229.35
406.96	229.50
407.33	229.69
407.70	229.88
408.08	230.15
408.45	230.36
408.83	230.59
409.20	230.80
409.58	230.99
409.95	231.24
410.33	231.53
410.70	231.76
411.08	232.01
411.45	232.32
411.82	232.60
412.20	232.97
412.57	233.38
412.95	233.68
413.32	234.11
413.69	234.49
414.07	234.93
414.44	235.38
414.82	235.89
415.19	236.43
415.56	236.97
415.94	237.50
416.31	238.12
416.68	238.76
417.06	239.41
417.43	240.10
417.81	240.86
418.18	241.63
418.55	242.43
418.93	243.32
419.30	244.22
419.67	245.13
420.04	246.06
420.42	247.05
420.79	248.25
421.16	249.38
421.54	250.60
421.91	251.79
422.28	253.08
422.66	254.39
423.03	255.70
423.40	257.03
423.77	258.45
424.15	259.88
424.52	261.35
424.89	263.00
425.26	264.55
425.64	265.99
426.01	267.62
426.38	269.31
426.75	271.01
427.13	272.77
427.50	274.63
427.87	276.54
428.24	278.40
428.61	280.15
428.99	282.09
429.36	284.20
429.73	286.28
430.10	288.27
430.47	290.32
430.85	292.45
431.22	294.68
431.59	297.02
431.96	299.23
432.33	301.72
432.70	304.12
433.08	306.93
433.45	309.59
433.82	312.18
434.19	315.09
434.56	317.84
434.93	320.47
435.30	323.04
435.68	325.95
436.05	328.84
436.42	331.68
436.79	334.23
437.16	336.93
437.53	339.78
437.90	342.60
438.27	345.35
438.64	348.21
439.01	350.80
439.38	353.12
439.75	355.34
440.13	357.85
440.50	360.20
440.87	362.07
441.24	364.01
441.61	366.19
441.98	367.66
442.35	369.49
442.72	371.34
443.09	373.18
443.46	374.12
443.83	374.70
444.20	375.16
444.57	376.00
444.94	376.30
445.31	376.65
445.68	377.05
446.05	377.12
446.42	376.75
446.79	376.37
447.16	375.89
447.53	375.59
447.90	374.45
448.27	373.30
448.64	371.71
449.01	370.55
449.37	368.60
449.74	366.74
450.11	364.49
450.48	362.03
450.85	359.51
451.22	357.40
451.59	355.36
451.96	353.44
452.33	350.77
452.70	348.43
453.07	345.61
453.43	342.69
453.80	339.91
454.17	337.26
454.54	334.70
454.91	331.99
455.28	329.30
455.65	326.79
456.02	324.34
456.38	322.17
456.75	319.52
457.12	317.24
457.49	314.99
457.86	312.82
458.23	310.99
458.59	308.93
458.96	306.82
459.33	304.95
459.70	303.06
460.07	301.58
460.43	299.84
460.80	298.20
461.17	296.75
461.54	295.24
461.91	293.78
462.27	292.31
462.64	291.02
463.01	289.64
463.38	288.34
463.74	286.92
464.11	285.76
464.48	284.72
464.85	283.54
465.21	282.64
465.58	281.72
465.95	280.59
466.32	279.64
466.68	278.75
467.05	277.87
467.42	276.97
467.78	276.01
468.15	275.14
468.52	274.43
468.88	273.56
469.25	272.80
469.62	272.13
469.98	271.43
470.35	270.78
470.72	270.15
471.08	269.45
471.45	268.94
471.82	268.39
472.18	267.79
472.55	267.37
472.92	266.84
473.28	266.35
473.65	265.89
474.02	265.49
474.38	265.11
474.75	264.77
475.11	264.41
475.48	264.16
475.85	263.92
476.21	263.68
476.58	263.49
476.94	263.33
477.31	263.19
477.67	263.05
478.04	262.94
478.41	262.88
478.77	262.95
479.14	262.87
479.50	262.81
479.87	262.88
480.23	262.98
480.60	263.04
480.96	263.14
481.33	263.34
481.69	263.53
482.06	263.72
482.42	263.91
482.79	264.18
483.15	264.49
483.52	264.82
483.88	265.14
484.25	265.52
484.61	265.96
484.98	266.40
485.34	266.99
485.71	267.59
486.07	268.18
486.44	268.74
486.80	269.45
487.17	270.24
487.53	271.05
487.90	271.90
488.26	272.87
488.62	273.91
488.99	274.91
489.35	275.97
489.72	277.08
490.08	278.28
490.44	279.50
490.81	280.85
491.17	282.24
491.54	283.72
491.90	285.25
492.26	286.91
492.63	288.65
492.99	290.42
493.36	292.30
493.72	294.35
494.08	296.45
494.45	298.71
494.81	301.10
495.17	303.52
495.54	306.07
495.90	308.71
496.26	311.49
496.63	314.40
496.99	317.47
497.35	320.75
497.72	324.12
498.08	327.66
498.44	331.29
498.80	335.15
499.17	339.18
499.53	343.32
499.89	347.67
500.26	352.13
500.62	356.76
500.98	361.73
501.34	366.79
501.71	372.07
502.07	377.50
502.43	383.04
502.79	388.83
503.16	394.87
503.52	401.13
503.88	407.49
504.24	414.14
504.60	420.96
504.97	428.08
505.33	435.42
505.69	443.05
506.05	450.79
506.41	458.73
506.78	466.84
507.14	475.24
507.50	483.90
507.86	492.91
508.22	502.08
508.59	511.27
508.95	520.83
509.31	530.66
509.67	540.69
510.03	550.95
510.39	561.48
510.75	572.32
511.12	583.24
511.48	594.53
511.84	605.91
512.20	617.46
512.56	629.37
512.92	641.58
513.28	653.96
513.64	666.45
514.00	679.12
514.37	692.10
514.73	705.22
515.09	718.24
515.45	731.55
515.81	745.14
516.17	759.05
516.53	773.18
516.89	787.34
517.25	801.51
517.61	816.10
517.97	830.57
518.33	844.95
518.69	859.84
519.05	874.90
519.41	890.12
519.77	905.60
520.13	921.06
520.49	936.41
520.85	951.85
521.21	967.58
521.57	983.86
521.93	999.67
522.29	1016.11
522.65	1032.41
523.01	1048.56
523.37	1064.68
523.73	1080.98
524.09	1097.08
524.45	1113.56
524.81	1130.27
525.17	1147.08
525.53	1164.15
525.89	1181.16
526.25	1197.96
526.61	1214.36
526.97	1231.16
527.33	1247.84
527.68	1264.55
528.04	1281.14
528.40	1297.81
528.76	1315.02
529.12	1331.68
529.48	1348.65
529.84	1364.72
530.20	1381.49
530.56	1398.69
530.91	1416.09
531.27	1432.99
531.63	1449.57
531.99	1466.10
532.35	1482.15
532.71	1498.06
533.07	1514.32
533.42	1530.27
533.78	1546.31
534.14	1562.67
534.50	1578.11
534.86	1594.10
535.21	1609.22
535.57	1625.36
535.93	1640.96
536.29	1655.76
536.65	1670.88
537.00	1685.72
537.36	1701.07
537.72	1715.72
538.08	1730.16
538.44	1744.16
538.79	1757.99
539.15	1771.81
539.51	1785.70
539.87	1800.12
540.22	1813.94
540.58	1827.83
540.94	1841.29
541.29	1854.43
541.65	1867.34
542.01	1880.67
542.37	1893.04
542.72	1905.61
543.08	1917.26
543.44	1929.72
543.79	1941.04
544.15	1952.09
544.51	1963.69
544.87	1974.82
545.22	1985.52
545.58	1995.72
545.94	2005.48
546.29	2015.43
546.65	2025.24
547.01	2034.41
547.36	2043.19
547.72	2051.77
548.07	2059.56
548.43	2067.68
548.79	2075.81
549.14	2083.16
549.50	2090.62
549.86	2098.20
550.21	2105.38
550.57	2112.68
550.92	2119.29
551.28	2126.45
551.64	2133.43
551.99	2139.90
552.35	2145.94
552.70	2152.17
553.06	2158.17
553.41	2164.47
553.77	2170.43
554.13	2176.60
554.48	2182.85
554.84	2188.15
555.19	2193.31
555.55	2198.39
555.90	2202.87
556.26	2207.51
556.61	2212.38
556.97	2216.44
557.32	2220.60
557.68	2224.83
558.03	2229.01
558.39	2232.76
558.74	2237.14
559.10	2240.96
559.45	2244.67
559.81	2248.99
560.16	2252.69
560.52	2255.89
560.87	2259.32
561.23	2262.02
561.58	2264.83
561.94	2267.29
562.29	2269.82
562.64	2272.52
563.00	2275.21
563.35	2278.70
563.71	2281.94
564.06	2284.94
564.42	2287.81
564.77	2290.19
565.12	2292.28
565.48	2294.14
565.83	2295.76
566.19	2297.08
566.54	2298.14
566.89	2299.16
567.25	2299.52
567.60	2300.90
567.96	2302.61
568.31	2303.34
568.66	2304.19
569.02	2304.65
569.37	2304.91
569.72	2305.56
570.08	2305.45
570.43	2305.24
570.78	2304.51
571.14	2302.79
571.49	2301.36
571.84	2300.86
572.20	2299.65
572.55	2298.65
572.90	2297.06
573.26	2295.63
573.61	2293.77
573.96	2291.79
574.31	2288.67
574.67	2285.64
575.02	2281.87
575.37	2278.39
575.72	2274.39
576.08	2271.17
576.43	2267.91
576.78	2264.09
577.13	2260.90
577.49	2257.81
577.84	2254.24
578.19	2250.36
578.54	2246.41
578.90	2242.15
579.25	2236.48
579.60	2231.32
579.95	2226.20
580.30	2220.87
580.66	2215.53
581.01	2210.55
581.36	2205.61
581.71	2201.29
582.06	2196.69
582.42	2192.11
582.77	2186.73
583.12	2182.15
583.47	2177.13
583.82	2171.79
584.17	2166.44
584.53	2160.80
584.88	2155.04
585.23	2149.24
585.58	2143.72
585.93	2138.21
586.28	2133.34
586.63	2128.25
586.98	2123.20
587.34	2118.49
587.69	2113.64
588.04	2108.49
588.39	2102.70
588.74	2096.01
589.09	2089.80
589.44	2082.97
589.79	2076.91
590.14	2071.24
590.49	2064.55
590.84	2058.16
591.19	2052.22
591.54	2045.69
591.89	2038.04
592.25	2031.12
592.60	2023.78
592.95	2016.04
593.30	2008.66
593.65	2000.92
594.00	1993.75
594.35	1986.47
594.70	1978.21
595.05	1970.72
595.40	1963.23
595.75	1955.62
596.10	1949.33
596.45	1942.51
596.80	1936.36
597.15	1929.52
597.50	1922.20
597.85	1915.73
598.19	1909.09
598.54	1901.88
598.89	1895.15
599.24	1889.31
599.59	1882.66
599.94	1876.34
600.29	1870.01
600.64	1863.41
600.99	1855.98
601.34	1849.09
601.69	1842.05
602.04	1835.19
602.39	1827.95
602.74	1821.09
603.08	1814.42
603.43	1807.78
603.78	1800.51
604.13	1793.17
604.48	1785.90
604.83	1779.19
605.18	1772.13
605.53	1764.00
605.87	1755.88
606.22	1748.61
606.57	1740.68
606.92	1733.38
607.27	1726.19
607.62	1719.14
607.96	1711.76
608.31	1705.02
608.66	1697.35
609.01	1689.82
609.36	1682.30
609.70	1674.30
610.05	1666.12
610.40	1658.34
610.75	1649.97
611.10	1642.33
611.44	1634.00
611.79	1626.00
612.14	1617.13
612.49	1608.03
612.83	1599.70
613.18	1591.75
613.53	1583.69
613.88	1575.09
614.22	1566.70
614.57	1558.18
614.92	1550.17
615.27	1542.62
615.61	1534.30
615.96	1526.40
616.31	1518.74
616.65	1511.36
617.00	1503.82
617.35	1496.26
617.70	1487.91
618.04	1479.25
618.39	1470.99
618.74	1463.30
619.08	1455.02
619.43	1447.48
619.78	1440.63
620.12	1433.42
620.47	1425.84
620.82	1417.66
621.16	1410.46
621.51	1402.93
621.85	1395.36
622.20	1386.98
622.55	1378.75
622.89	1371.03
623.24	1363.52
623.59	1356.17
623.93	1348.62
624.28	1341.30
624.62	1333.74
624.97	1326.61
625.32	1320.02
625.66	1313.11
626.01	1306.10
626.35	1298.70
626.70	1291.03
627.04	1283.16
627.39	1275.54
627.73	1268.14
628.08	1261.34
628.43	1253.89
628.77	1246.51
629.12	1239.04
629.46	1231.84
629.81	1224.41
630.15	1217.14
630.50	1209.76
630.84	1201.59
631.19	1193.77
631.53	1186.38
631.88	1178.91
632.22	1171.37
632.57	1164.09
632.91	1156.53
633.26	1149.02
633.60	1141.65
633.95	1134.66
634.29	1127.76
634.64	1121.05
634.98	1113.74
635.32	1106.61
635.67	1100.18
636.01	1093.58
636.36	1086.76
636.70	1080.34
637.05	1073.85
637.39	1067.47
637.73	1060.96
638.08	1055.00
638.42	1049.03
638.77	1042.66
639.11	1036.09
639.45	1029.72
639.80	1023.09
640.14	1016.74
640.49	1010.25
640.83	1003.98
641.17	997.68
641.52	991.39
641.86	984.98
642.20	979.18
642.55	972.82
642.89	966.23
643.23	959.65
643.58	953.86
643.92	947.64
644.26	941.58
644.61	935.51
644.95	929.42
645.29	922.93
645.64	916.24
645.98	909.83
646.32	904.11
646.66	898.07
647.01	892.23
647.35	886.48
647.69	880.73
648.04	875.33
648.38	869.49
648.72	863.53
649.06	857.51
649.41	851.62
649.75	845.62
650.09	839.75
650.43	834.01
650.78	827.83
651.12	821.84
651.46	816.14
651.80	810.48
652.14	805.04
652.49	799.63
652.83	794.44
653.17	788.75
653.51	782.93
653.85	777.59
654.20	771.96
654.54	765.98
654.88	760.29
655.22	754.39
655.56	748.80
655.90	743.30
656.25	738.07
656.59	732.73
656.93	727.74
657.27	722.60
657.61	717.20
657.95	712.14
658.29	707.12
658.64	701.87
658.98	696.58
659.32	691.16
659.66	685.99
660.00	680.65
660.34	675.75
660.68	670.89
661.02	665.87
661.36	661.27
661.70	656.82
662.05	652.42
662.39	648.05
662.73	643.64
663.07	639.35
663.41	634.93
663.75	630.38
664.09	625.86
664.43	621.55
664.77	617.46
665.11	613.27
665.45	609.13
665.79	605.12
666.13	601.00
666.47	597.02
666.81	592.87
667.15	588.78
667.49	584.95
667.83	581.18
668.17	577.27
668.51	573.17
668.85	569.10
669.19	565.28
669.53	561.42
669.87	557.51
670.21	553.81
670.55	550.18
670.89	546.85
671.23	543.43
671.57	539.94
671.91	536.43
672.25	532.94
672.58	529.52
672.92	526.13
673.26	523.00
673.60	519.85
673.94	516.79
674.28	513.97
674.62	511.00
674.96	507.96
675.30	505.01
675.64	502.13
675.97	499.45
676.31	496.63
676.65	493.71
676.99	491.09
677.33	488.21
677.67	485.38
678.01	482.34
678.34	479.32
678.68	476.47
679.02	473.61
679.36	470.87
679.70	468.16
680.04	465.38
680.37	462.48
680.71	459.73
681.05	457.11
681.39	454.35
681.73	451.71
682.06	449.15
682.40	446.66
682.74	444.11
683.08	441.58
683.42	438.98
683.75	436.52
684.09	433.96
684.43	431.48
684.77	429.03
685.10	426.68
685.44	424.41
685.78	422.03
686.12	419.83
686.45	417.59
686.79	415.27
687.13	413.05
687.46	410.87
687.80	408.68
688.14	406.48
688.48	404.47
688.81	402.23
689.15	400.07
689.49	397.93
689.82	395.88
690.16	393.74
690.50	391.79
690.83	389.89
691.17	387.88
691.51	386.02
691.84	384.18
692.18	382.24
692.52	380.27
692.85	378.43
693.19	376.55
693.52	374.75
693.86	372.94
694.20	371.22
694.53	369.49
694.87	367.68
695.21	365.94
695.54	364.09
695.88	362.42
696.21	360.72
696.55	359.02
696.88	357.35
697.22	355.72
697.56	354.08
697.89	352.40
698.23	350.83
698.56	349.24
698.90	347.64
699.23	346.01
699.57	344.45
699.90	342.93
700.24	341.38
700.58	339.81
700.91	338.32
701.25	336.88
701.58	335.46
701.92	334.09
702.25	332.73
702.59	331.37
702.92	329.99
703.26	328.70
703.59	327.46
703.93	326.29
704.26	325.08
704.60	323.81
704.93	322.56
705.26	321.32
705.60	320.12
705.93	319.01
706.27	318.04
706.60	316.98
706.94	315.90
707.27	314.72
707.61	313.67
707.94	312.66
708.27	311.55
708.61	310.49
708.94	309.53
709.28	308.55
709.61	307.60
709.94	306.67
710.28	305.66
710.61	304.64
710.95	303.58
711.28	302.64
711.61	301.70
711.95	300.83
712.28	299.88
712.61	298.93
712.95	297.99
713.28	297.08
713.61	296.24
713.95	295.39
714.28	294.59
714.61	293.73
714.95	292.89
715.28	292.05
715.61	291.23
715.95	290.36
716.28	289.50
716.61	288.67
716.95	287.88
717.28	287.16
717.61	286.40
717.94	285.65
718.28	284.89
718.61	284.16
718.94	283.45
719.27	282.80
719.61	282.19
719.94	281.52
720.27	280.77
720.60	280.12
720.94	279.45
721.27	278.91
721.60	278.35
721.93	277.72
722.27	277.14
722.60	276.56
722.93	276.00
723.26	275.45
723.59	274.89
723.93	274.34
724.26	273.75
724.59	273.25
724.92	272.71
725.25	272.21
725.59	271.70
725.92	271.21
726.25	270.70
726.58	270.17
726.91	269.68
727.24	269.22
727.57	268.71
727.91	268.20
728.24	267.69
728.57	267.19
728.90	266.79
729.23	266.34
729.56	265.96
729.89	265.44
730.22	264.97
730.55	264.54
730.89	264.10
731.22	263.65
731.55	263.19
731.88	262.78
732.21	262.35
732.54	261.91
732.87	261.43
733.20	261.02
733.53	260.68
733.86	260.28
734.19	259.88
734.52	259.52
734.85	259.24
735.18	258.85
735.51	258.45
735.84	258.06
736.17	257.67
736.50	257.24
736.83	257.02
737.16	256.66
737.49	256.31
737.82	255.94
738.15	255.64
738.48	255.29
738.81	254.96
739.14	254.64
739.47	254.33
739.80	254.05
740.13	253.77
740.46	253.43
740.79	253.09
741.12	252.79
741.45	252.47
741.78	252.09
742.11	251.79
742.44	251.49
742.77	251.21
743.10	250.91
743.43	250.59
743.75	250.21
744.08	250.09
744.41	249.81
744.74	249.54
745.07	249.24
745.40	249.02
745.73	248.78
746.06	248.48
746.39	248.21
746.71	247.93
747.04	247.65
747.37	247.37
747.70	247.17
748.03	246.96
748.36	246.73
748.68	246.49
749.01	246.26
749.34	246.05
749.67	245.80
750.00	245.63
750.33	245.48
750.65	245.30
750.98	244.97
751.31	244.79
751.64	244.59
751.97	244.45
752.29	244.21
752.62	243.97
752.95	243.78
753.28	243.56
753.60	243.36
753.93	243.18
754.26	243.00
754.59	242.74
754.91	242.53
755.24	242.34
755.57	242.16
755.90	241.99
756.22	241.78
756.55	241.59
756.88	241.38
757.20	241.17
757.53	240.95
757.86	240.77
758.19	240.60
758.51	240.42
758.84	240.22
759.17	240.09
759.49	239.94
759.82	239.83
760.15	239.68
760.47	239.53
760.80	239.38
761.13	239.26
761.45	239.14
761.78	238.97
762.11	238.84
762.43	238.70
762.76	238.55
763.08	238.46
763.41	238.35
763.74	238.20
764.06	238.04
764.39	237.92
764.71	237.77
765.04	237.61
765.37	237.50
765.69	237.35
766.02	237.19
766.34	237.06
766.67	236.91
767.00	236.82
767.32	236.76
767.65	236.68
767.97	236.53
768.30	236.40
768.62	236.29
768.95	236.15
769.27	236.05
769.60	235.95
769.92	235.79
770.25	235.66
770.57	235.54
770.90	235.43
771.22	235.30
771.55	235.20
771.87	235.13
772.20	235.01
772.52	234.98
772.85	234.96
773.17	234.84
773.50	234.74
773.82	234.62
774.15	234.48
774.47	234.31
774.80	234.21
775.12	234.14
775.45	234.05
775.77	233.98
776.09	233.87
776.42	233.76
776.74	233.71
777.07	233.64
777.39	233.59
777.72	233.51
778.04	233.43
778.36	233.36
778.69	233.28
779.01	233.22
779.33	233.10
779.66	233.00
779.98	232.92
780.31	232.83
780.63	232.82
780.95	232.77
781.28	232.74
781.60	232.68
781.92	232.60
782.25	232.53
782.57	232.46
782.89	232.40
783.22	232.34
783.54	232.27
783.86	232.21
784.19	232.13
784.51	232.14
784.83	232.08
785.16	232.02
785.48	231.99
785.80	231.98
786.12	231.91
786.45	231.83
786.77	231.83
787.09	231.79
