SpectraSuite Data File
++++++++++++++++++++++++++++++++++++
Date: Fri Feb 01 17:26:11 EST 2013
User: group
Dark Spectrum Present: No
Reference Spectrum Present: No
Number of Sampled Component Spectra: 1
Spectrometers: USB2E7196
Integration Time (usec): 35000 (USB2E7196)
Spectra Averaged: 100 (USB2E7196)
Boxcar Smoothing: 10 (USB2E7196)
Correct for Electrical Dark: No (USB2E7196)
Strobe/Lamp Enabled: No (USB2E7196)
Correct for Detector Non-linearity: No (USB2E7196)
Correct for Stray Light: No (USB2E7196)
Number of Pixels in Processed Spectrum: 2048
>>>>>Begin Processed Spectral Data<<<<<
339.09	0.00
339.48	213.02
339.86	214.45
340.24	215.89
340.63	216.83
341.01	219.78
341.39	220.42
341.78	221.35
342.16	222.96
342.54	222.95
342.93	211.43
343.31	222.13
343.69	222.68
344.07	223.15
344.46	223.59
344.84	224.00
345.22	224.29
345.60	224.51
345.99	224.67
346.37	224.76
346.75	224.86
347.13	224.96
347.52	225.03
347.90	225.09
348.28	225.12
348.66	225.15
349.05	225.13
349.43	225.14
349.81	225.19
350.19	225.24
350.57	225.29
350.96	225.35
351.34	225.42
351.72	225.50
352.10	225.59
352.48	225.65
352.87	225.70
353.25	225.72
353.63	225.79
354.01	225.87
354.39	225.95
354.77	225.99
355.15	226.07
355.54	226.14
355.92	226.17
356.30	226.23
356.68	226.39
357.06	226.48
357.44	226.53
357.82	226.57
358.20	226.59
358.58	226.65
358.97	226.71
359.35	226.79
359.73	226.82
360.11	226.86
360.49	226.91
360.87	226.96
361.25	227.02
361.63	227.10
362.01	227.14
362.39	227.18
362.77	227.24
363.15	227.25
363.53	227.25
363.91	227.32
364.29	227.38
364.67	227.26
365.05	227.28
365.43	227.30
365.81	227.34
366.19	227.41
366.57	227.47
366.95	227.46
367.33	227.41
367.71	227.43
368.09	227.45
368.47	227.41
368.85	227.38
369.23	227.38
369.61	227.29
369.99	227.29
370.37	227.28
370.75	227.30
371.13	227.25
371.51	227.21
371.89	227.15
372.27	227.06
372.65	227.07
373.03	227.03
373.41	226.97
373.78	226.89
374.16	226.80
374.54	226.72
374.92	226.67
375.30	226.62
375.68	226.55
376.06	226.50
376.44	226.44
376.82	226.41
377.19	226.34
377.57	226.30
377.95	226.19
378.33	226.12
378.71	226.01
379.09	225.97
379.47	225.90
379.84	225.82
380.22	225.76
380.60	225.67
380.98	225.59
381.36	225.55
381.73	225.49
382.11	225.46
382.49	225.40
382.87	225.35
383.25	225.29
383.62	225.34
384.00	225.25
384.38	225.20
384.76	225.17
385.13	225.14
385.51	225.12
385.89	225.08
386.27	225.04
386.64	225.02
387.02	224.97
387.40	224.93
387.78	224.92
388.15	224.91
388.53	224.88
388.91	224.87
389.29	224.83
389.66	224.79
390.04	224.76
390.42	224.72
390.79	224.69
391.17	224.68
391.55	224.59
391.92	224.56
392.30	224.56
392.68	224.51
393.05	224.48
393.43	224.47
393.81	224.46
394.18	224.45
394.56	224.43
394.94	224.43
395.31	224.47
395.69	224.47
396.06	224.50
396.44	224.54
396.82	224.51
397.19	224.58
397.57	224.61
397.95	224.62
398.32	224.60
398.70	224.65
399.07	224.71
399.45	224.71
399.82	224.76
400.20	224.82
400.58	224.88
400.95	224.91
401.33	224.98
401.70	225.11
402.08	225.19
402.45	225.24
402.83	225.37
403.20	225.41
403.58	225.51
403.95	225.59
404.33	225.68
404.71	225.81
405.08	225.98
405.46	226.11
405.83	226.27
406.21	226.47
406.58	226.61
406.96	226.71
407.33	226.91
407.70	227.11
408.08	227.37
408.45	227.58
408.83	227.80
409.20	227.99
409.58	228.20
409.95	228.47
410.33	228.77
410.70	228.99
411.08	229.33
411.45	229.63
411.82	229.98
412.20	230.35
412.57	230.78
412.95	231.08
413.32	231.50
413.69	231.93
414.07	232.34
414.44	232.83
414.82	233.35
415.19	233.91
415.56	234.45
415.94	235.02
416.31	235.68
416.68	236.33
417.06	237.07
417.43	237.76
417.81	238.53
418.18	239.34
418.55	240.21
418.93	241.13
419.30	242.09
419.67	243.02
420.04	244.03
420.42	245.04
420.79	246.30
421.16	247.52
421.54	248.73
421.91	250.02
422.28	251.36
422.66	252.77
423.03	254.12
423.40	255.53
423.77	257.02
424.15	258.53
424.52	260.08
424.89	261.78
425.26	263.39
425.64	264.92
426.01	266.56
426.38	268.34
426.75	270.10
427.13	271.91
427.50	273.84
427.87	275.80
428.24	277.77
428.61	279.60
428.99	281.61
429.36	283.82
429.73	285.95
430.10	288.04
430.47	290.22
430.85	292.47
431.22	294.80
431.59	297.25
431.96	299.61
432.33	302.22
432.70	304.71
433.08	307.66
433.45	310.39
433.82	313.15
434.19	316.12
434.56	318.98
434.93	321.72
435.30	324.40
435.68	327.40
436.05	330.34
436.42	333.19
436.79	335.83
437.16	338.61
437.53	341.58
437.90	344.53
438.27	347.33
438.64	350.24
439.01	352.96
439.38	355.27
439.75	357.49
440.13	360.03
440.50	362.43
440.87	364.34
441.24	366.39
441.61	368.61
441.98	370.17
442.35	372.08
442.72	374.01
443.09	375.94
443.46	376.99
443.83	377.65
444.20	378.22
444.57	379.07
444.94	379.46
445.31	379.82
445.68	380.16
446.05	380.30
446.42	379.95
446.79	379.54
447.16	379.14
447.53	378.81
447.90	377.66
448.27	376.48
448.64	374.87
449.01	373.67
449.37	371.66
449.74	369.72
450.11	367.42
450.48	364.87
450.85	362.22
451.22	360.02
451.59	357.88
451.96	355.87
452.33	353.19
452.70	350.68
453.07	347.73
453.43	344.73
453.80	341.82
454.17	339.01
454.54	336.32
454.91	333.44
455.28	330.66
455.65	328.07
456.02	325.55
456.38	323.28
456.75	320.55
457.12	318.21
457.49	315.88
457.86	313.59
458.23	311.63
458.59	309.50
458.96	307.31
459.33	305.39
459.70	303.40
460.07	301.83
460.43	300.02
460.80	298.37
461.17	296.90
461.54	295.35
461.91	293.89
462.27	292.38
462.64	291.11
463.01	289.75
463.38	288.40
463.74	286.98
464.11	285.76
464.48	284.69
464.85	283.49
465.21	282.57
465.58	281.57
465.95	280.47
466.32	279.53
466.68	278.61
467.05	277.68
467.42	276.76
467.78	275.80
468.15	274.92
468.52	274.22
468.88	273.32
469.25	272.51
469.62	271.84
469.98	271.15
470.35	270.49
470.72	269.85
471.08	269.16
471.45	268.59
471.82	268.05
472.18	267.43
472.55	266.99
472.92	266.50
473.28	266.04
473.65	265.58
474.02	265.12
474.38	264.71
474.75	264.37
475.11	264.05
475.48	263.76
475.85	263.57
476.21	263.29
476.58	263.12
476.94	262.98
477.31	262.80
477.67	262.67
478.04	262.56
478.41	262.51
478.77	262.58
479.14	262.55
479.50	262.57
479.87	262.65
480.23	262.75
480.60	262.81
480.96	262.92
481.33	263.15
481.69	263.40
482.06	263.63
482.42	263.85
482.79	264.08
483.15	264.44
483.52	264.83
483.88	265.20
484.25	265.60
484.61	266.03
484.98	266.48
485.34	267.04
485.71	267.65
486.07	268.26
486.44	268.79
486.80	269.46
487.17	270.18
487.53	270.97
487.90	271.78
488.26	272.71
488.62	273.71
488.99	274.67
489.35	275.67
489.72	276.81
490.08	278.02
490.44	279.28
490.81	280.60
491.17	281.94
491.54	283.44
491.90	284.94
492.26	286.61
492.63	288.32
492.99	290.11
493.36	291.96
493.72	293.99
494.08	296.11
494.45	298.39
494.81	300.73
495.17	303.19
495.54	305.79
495.90	308.44
496.26	311.20
496.63	314.13
496.99	317.22
497.35	320.41
497.72	323.77
498.08	327.25
498.44	330.87
498.80	334.77
499.17	338.74
499.53	342.86
499.89	347.14
500.26	351.63
500.62	356.21
500.98	361.14
501.34	366.14
501.71	371.40
502.07	376.73
502.43	382.25
502.79	387.95
503.16	393.96
503.52	400.17
503.88	406.44
504.24	412.97
504.60	419.70
504.97	426.70
505.33	433.90
505.69	441.48
506.05	449.13
506.41	456.83
506.78	464.82
507.14	473.13
507.50	481.68
507.86	490.50
508.22	499.55
508.59	508.53
508.95	517.83
509.31	527.45
509.67	537.39
510.03	547.47
510.39	557.77
510.75	568.25
511.12	578.91
511.48	590.02
511.84	601.24
512.20	612.54
512.56	624.31
512.92	636.17
513.28	648.32
513.64	660.49
514.00	672.92
514.37	685.61
514.73	698.41
515.09	711.12
515.45	724.03
515.81	737.25
516.17	750.88
516.53	764.80
516.89	778.69
517.25	792.48
517.61	806.58
517.97	820.79
518.33	834.83
518.69	849.26
519.05	863.83
519.41	878.64
519.77	893.76
520.13	908.74
520.49	923.84
520.85	938.72
521.21	954.03
521.57	969.83
521.93	985.10
522.29	1000.96
522.65	1016.87
523.01	1032.73
523.37	1048.40
523.73	1064.15
524.09	1079.79
524.45	1095.46
524.81	1111.72
525.17	1127.96
525.53	1144.30
525.89	1160.85
526.25	1177.23
526.61	1193.12
526.97	1209.40
527.33	1225.44
527.68	1241.51
528.04	1257.54
528.40	1273.60
528.76	1290.32
529.12	1306.50
529.48	1322.99
529.84	1338.52
530.20	1354.66
530.56	1371.11
530.91	1388.15
531.27	1404.58
531.63	1420.55
531.99	1436.90
532.35	1452.56
532.71	1468.11
533.07	1483.96
533.42	1499.47
533.78	1515.19
534.14	1531.17
534.50	1546.08
534.86	1561.68
535.21	1576.62
535.57	1592.12
535.93	1607.49
536.29	1621.94
536.65	1636.73
537.00	1651.23
537.36	1666.45
537.72	1680.63
538.08	1694.94
538.44	1708.41
538.79	1722.06
539.15	1735.54
539.51	1748.96
539.87	1762.98
540.22	1776.41
540.58	1790.07
540.94	1803.23
541.29	1815.81
541.65	1828.34
542.01	1841.45
542.37	1853.55
542.72	1865.92
543.08	1877.68
543.44	1889.90
543.79	1901.09
544.15	1911.98
544.51	1923.47
544.87	1934.18
545.22	1945.14
545.58	1955.33
545.94	1965.12
546.29	1975.00
546.65	1985.02
547.01	1994.38
547.36	2003.10
547.72	2011.83
548.07	2019.81
548.43	2027.91
548.79	2036.02
549.14	2043.90
549.50	2051.39
549.86	2059.21
550.21	2066.54
550.57	2073.91
550.92	2080.71
551.28	2088.01
551.64	2095.29
551.99	2101.94
552.35	2108.53
552.70	2115.03
553.06	2121.29
553.41	2127.84
553.77	2133.92
554.13	2140.18
554.48	2146.60
554.84	2152.60
555.19	2158.08
555.55	2163.58
555.90	2168.59
556.26	2173.77
556.61	2178.53
556.97	2183.22
557.32	2187.79
557.68	2192.31
558.03	2196.84
558.39	2200.70
558.74	2205.59
559.10	2209.66
559.45	2213.75
559.81	2218.11
560.16	2222.11
560.52	2225.61
560.87	2229.44
561.23	2232.54
561.58	2235.75
561.94	2238.56
562.29	2240.93
562.64	2244.21
563.00	2247.03
563.35	2250.81
563.71	2254.49
564.06	2258.08
564.42	2261.30
564.77	2264.20
565.12	2267.07
565.48	2269.45
565.83	2272.05
566.19	2273.78
566.54	2275.04
566.89	2276.64
567.25	2277.78
567.60	2279.45
567.96	2281.74
568.31	2283.02
568.66	2284.72
569.02	2285.67
569.37	2286.49
569.72	2287.88
570.08	2288.30
570.43	2288.74
570.78	2288.50
571.14	2287.25
571.49	2286.31
571.84	2286.29
572.20	2285.53
572.55	2284.69
572.90	2283.36
573.26	2282.37
573.61	2280.84
573.96	2279.72
574.31	2277.20
574.67	2274.72
575.02	2271.41
575.37	2268.18
575.72	2264.86
576.08	2261.69
576.43	2258.69
576.78	2255.34
577.13	2252.49
577.49	2249.60
577.84	2246.59
578.19	2243.17
578.54	2240.06
578.90	2236.49
579.25	2231.40
579.60	2226.98
579.95	2222.42
580.30	2217.81
580.66	2212.83
581.01	2208.33
581.36	2203.61
581.71	2199.88
582.06	2195.84
582.42	2191.82
582.77	2187.02
583.12	2182.79
583.47	2178.57
583.82	2174.02
584.17	2169.20
584.53	2164.04
584.88	2158.73
585.23	2153.23
585.58	2148.08
585.93	2142.91
586.28	2138.05
586.63	2133.28
586.98	2128.21
587.34	2123.54
587.69	2118.84
588.04	2114.01
588.39	2108.57
588.74	2102.32
589.09	2096.25
589.44	2089.76
589.79	2083.83
590.14	2078.34
590.49	2071.77
590.84	2065.38
591.19	2059.54
591.54	2053.19
591.89	2046.19
592.25	2039.86
592.60	2032.79
592.95	2025.54
593.30	2018.26
593.65	2010.83
594.00	2003.84
594.35	1996.78
594.70	1988.99
595.05	1982.26
595.40	1974.99
595.75	1967.70
596.10	1961.70
596.45	1955.05
596.80	1948.81
597.15	1942.35
597.50	1935.51
597.85	1929.16
598.19	1922.81
598.54	1915.99
598.89	1909.47
599.24	1903.62
599.59	1897.07
599.94	1890.97
600.29	1884.70
600.64	1878.17
600.99	1870.99
601.34	1864.38
601.69	1857.51
602.04	1850.83
602.39	1843.37
602.74	1836.73
603.08	1830.09
603.43	1823.56
603.78	1816.42
604.13	1809.27
604.48	1802.15
604.83	1795.40
605.18	1788.80
605.53	1780.78
605.87	1772.68
606.22	1765.42
606.57	1757.43
606.92	1749.96
607.27	1742.94
607.62	1735.99
607.96	1728.88
608.31	1722.44
608.66	1714.92
609.01	1707.53
609.36	1700.08
609.70	1692.13
610.05	1683.97
610.40	1676.30
610.75	1667.86
611.10	1660.23
611.44	1651.83
611.79	1643.66
612.14	1634.95
612.49	1625.60
612.83	1617.16
613.18	1609.07
613.53	1600.95
613.88	1592.45
614.22	1584.16
614.57	1575.28
614.92	1567.21
615.27	1559.70
615.61	1551.31
615.96	1543.07
616.31	1535.27
616.65	1527.78
617.00	1520.04
617.35	1512.22
617.70	1503.82
618.04	1495.29
618.39	1486.83
618.74	1479.17
619.08	1470.90
619.43	1463.13
619.78	1456.10
620.12	1448.96
620.47	1441.27
620.82	1433.01
621.16	1425.40
621.51	1417.70
621.85	1410.03
622.20	1401.48
622.55	1392.85
622.89	1384.77
623.24	1377.02
623.59	1369.46
623.93	1361.77
624.28	1354.53
624.62	1347.00
624.97	1339.78
625.32	1332.78
625.66	1325.73
626.01	1318.42
626.35	1311.06
626.70	1303.25
627.04	1295.44
627.39	1287.54
627.73	1280.16
628.08	1273.17
628.43	1265.99
628.77	1258.49
629.12	1250.93
629.46	1243.68
629.81	1236.15
630.15	1228.82
630.50	1221.31
630.84	1213.12
631.19	1205.05
631.53	1197.36
631.88	1189.71
632.22	1181.98
632.57	1174.60
632.91	1166.90
633.26	1159.40
633.60	1151.70
633.95	1144.46
634.29	1137.29
634.64	1130.34
634.98	1122.89
635.32	1115.68
635.67	1108.78
636.01	1102.12
636.36	1095.24
636.70	1088.62
637.05	1081.99
637.39	1075.42
637.73	1068.88
638.08	1062.90
638.42	1056.89
638.77	1050.40
639.11	1043.82
639.45	1037.32
639.80	1030.71
640.14	1024.35
640.49	1017.87
640.83	1011.64
641.17	1005.42
641.52	999.06
641.86	992.53
642.20	986.57
642.55	980.07
642.89	973.64
643.23	966.96
643.58	961.17
643.92	954.84
644.26	948.88
644.61	942.81
644.95	936.89
645.29	930.28
645.64	923.49
645.98	917.07
646.32	911.02
646.66	905.00
647.01	899.18
647.35	893.45
647.69	887.49
648.04	881.83
648.38	876.03
648.72	870.08
649.06	864.10
649.41	858.11
649.75	852.22
650.09	846.29
650.43	840.52
650.78	834.36
651.12	828.45
651.46	822.70
651.80	817.06
652.14	811.54
652.49	806.14
652.83	800.96
653.17	795.41
653.51	789.78
653.85	784.32
654.20	778.65
654.54	772.56
654.88	766.82
655.22	760.95
655.56	755.19
655.90	749.69
656.25	744.50
656.59	739.15
656.93	734.13
657.27	728.94
657.61	723.52
657.95	718.40
658.29	713.27
658.64	707.87
658.98	702.44
659.32	696.95
659.66	691.83
660.00	686.57
660.34	681.52
660.68	676.53
661.02	671.43
661.36	666.75
661.70	662.28
662.05	657.95
662.39	653.66
662.73	649.19
663.07	644.74
663.41	640.24
663.75	635.79
664.09	631.15
664.43	626.72
664.77	622.58
665.11	618.27
665.45	614.13
665.79	610.05
666.13	605.97
666.47	601.83
666.81	597.56
667.15	593.35
667.49	589.40
667.83	585.49
668.17	581.59
668.51	577.45
668.85	573.33
669.19	569.37
669.53	565.53
669.87	561.64
670.21	557.94
670.55	554.32
670.89	550.92
671.23	547.51
671.57	543.92
671.91	540.37
672.25	536.85
672.58	533.32
672.92	529.86
673.26	526.64
673.60	523.47
673.94	520.39
674.28	517.43
674.62	514.50
674.96	511.48
675.30	508.54
675.64	505.61
675.97	502.84
676.31	499.96
676.65	496.94
676.99	494.17
677.33	491.25
677.67	488.34
678.01	485.18
678.34	482.16
678.68	479.28
679.02	476.43
679.36	473.63
679.70	470.85
680.04	468.09
680.37	465.18
680.71	462.36
681.05	459.69
681.39	456.97
681.73	454.24
682.06	451.69
682.40	449.11
682.74	446.50
683.08	443.87
683.42	441.27
683.75	438.76
684.09	436.17
684.43	433.71
684.77	431.26
685.10	428.90
685.44	426.54
685.78	424.24
686.12	421.96
686.45	419.61
686.79	417.30
687.13	415.13
687.46	412.95
687.80	410.79
688.14	408.49
688.48	406.43
688.81	404.24
689.15	402.00
689.49	399.81
689.82	397.76
690.16	395.66
690.50	393.70
690.83	391.70
691.17	389.69
691.51	387.70
691.84	385.79
692.18	383.87
692.52	381.90
692.85	379.94
693.19	378.03
693.52	376.16
693.86	374.35
694.20	372.51
694.53	370.71
694.87	368.84
695.21	367.03
695.54	365.18
695.88	363.39
696.21	361.66
696.55	359.97
696.88	358.27
697.22	356.63
697.56	354.92
697.89	353.25
698.23	351.66
698.56	350.05
698.90	348.51
699.23	346.86
699.57	345.33
699.90	343.77
700.24	342.20
700.58	340.71
700.91	339.18
701.25	337.71
701.58	336.33
701.92	334.93
702.25	333.56
702.59	332.18
702.92	330.88
703.26	329.58
703.59	328.28
703.93	327.01
704.26	325.74
704.60	324.48
704.93	323.19
705.26	321.90
705.60	320.68
705.93	319.44
706.27	318.36
706.60	317.25
706.94	316.12
707.27	314.95
707.61	313.88
707.94	312.84
708.27	311.68
708.61	310.55
708.94	309.52
709.28	308.47
709.61	307.46
709.94	306.45
710.28	305.40
710.61	304.41
710.95	303.31
711.28	302.37
711.61	301.37
711.95	300.44
712.28	299.50
712.61	298.53
712.95	297.61
713.28	296.72
713.61	295.78
713.95	294.87
714.28	294.00
714.61	293.09
714.95	292.20
715.28	291.39
715.61	290.49
715.95	289.57
716.28	288.70
716.61	287.82
716.95	286.95
717.28	286.17
717.61	285.33
717.94	284.58
718.28	283.73
718.61	282.97
718.94	282.26
719.27	281.60
719.61	280.92
719.94	280.22
720.27	279.45
720.60	278.77
720.94	278.12
721.27	277.49
721.60	276.90
721.93	276.31
722.27	275.72
722.60	275.17
722.93	274.59
723.26	274.06
723.59	273.48
723.93	272.94
724.26	272.38
724.59	271.83
724.92	271.33
725.25	270.83
725.59	270.34
725.92	269.84
726.25	269.29
726.58	268.79
726.91	268.26
727.24	267.78
727.57	267.29
727.91	266.80
728.24	266.37
728.57	265.88
728.90	265.41
729.23	264.92
729.56	264.49
729.89	264.01
730.22	263.53
730.55	263.08
730.89	262.62
731.22	262.19
731.55	261.76
731.88	261.31
732.21	260.89
732.54	260.44
732.87	260.02
733.20	259.61
733.53	259.21
733.86	258.82
734.19	258.43
734.52	258.02
734.85	257.71
735.18	257.29
735.51	256.92
735.84	256.55
736.17	256.18
736.50	255.78
736.83	255.55
737.16	255.22
737.49	254.90
737.82	254.57
738.15	254.23
738.48	253.91
738.81	253.59
739.14	253.25
739.47	252.94
739.80	252.58
740.13	252.27
740.46	251.98
740.79	251.69
741.12	251.38
741.45	251.08
741.78	250.72
742.11	250.44
742.44	250.09
742.77	249.74
743.10	249.45
743.43	249.14
743.75	248.79
744.08	248.65
744.41	248.34
744.74	248.04
745.07	247.77
745.40	247.53
745.73	247.28
746.06	246.98
746.39	246.71
746.71	246.46
747.04	246.20
747.37	245.92
747.70	245.67
748.03	245.41
748.36	245.21
748.68	244.97
749.01	244.70
749.34	244.52
749.67	244.31
750.00	244.04
750.33	243.88
750.65	243.66
750.98	243.30
751.31	243.10
751.64	242.91
751.97	242.70
752.29	242.47
752.62	242.18
752.95	241.95
753.28	241.70
753.60	241.46
753.93	241.27
754.26	241.06
754.59	240.82
754.91	240.59
755.24	240.35
755.57	240.12
755.90	239.91
756.22	239.68
756.55	239.47
756.88	239.29
757.20	239.00
757.53	238.82
757.86	238.62
758.19	238.44
758.51	238.26
758.84	238.05
759.17	237.86
759.49	237.70
759.82	237.62
760.15	237.49
760.47	237.35
760.80	237.17
761.13	237.03
761.45	236.86
761.78	236.71
762.11	236.59
762.43	236.48
762.76	236.34
763.08	236.22
763.41	236.07
763.74	235.94
764.06	235.81
764.39	235.66
764.71	235.51
765.04	235.37
765.37	235.20
765.69	235.07
766.02	234.91
766.34	234.82
766.67	234.65
767.00	234.56
767.32	234.47
767.65	234.42
767.97	234.29
768.30	234.21
768.62	234.11
768.95	233.99
769.27	233.86
769.60	233.78
769.92	233.64
770.25	233.55
770.57	233.47
770.90	233.37
771.22	233.24
771.55	233.17
771.87	233.12
772.20	233.02
772.52	233.00
772.85	233.05
773.17	232.95
773.50	232.84
773.82	232.74
774.15	232.62
774.47	232.51
774.80	232.43
775.12	232.34
775.45	232.25
775.77	232.19
776.09	232.12
776.42	232.04
776.74	232.03
777.07	231.98
777.39	231.89
777.72	231.81
778.04	231.77
778.36	231.67
778.69	231.57
779.01	231.54
779.33	231.39
779.66	231.22
779.98	231.16
780.31	231.10
780.63	231.06
780.95	231.02
781.28	230.92
781.60	230.85
781.92	230.77
782.25	230.74
782.57	230.66
782.89	230.59
783.22	230.51
783.54	230.45
783.86	230.39
784.19	230.33
784.51	230.30
784.83	230.23
785.16	230.20
785.48	230.15
785.80	230.11
786.12	230.09
786.45	230.05
786.77	229.99
787.09	229.97
