SpectraSuite Data File
++++++++++++++++++++++++++++++++++++
Date: Fri Feb 01 15:25:36 EST 2013
User: group
Dark Spectrum Present: No
Reference Spectrum Present: No
Number of Sampled Component Spectra: 1
Spectrometers: USB2E7196
Integration Time (usec): 35000 (USB2E7196)
Spectra Averaged: 100 (USB2E7196)
Boxcar Smoothing: 10 (USB2E7196)
Correct for Electrical Dark: No (USB2E7196)
Strobe/Lamp Enabled: No (USB2E7196)
Correct for Detector Non-linearity: No (USB2E7196)
Correct for Stray Light: No (USB2E7196)
Number of Pixels in Processed Spectrum: 2048
>>>>>Begin Processed Spectral Data<<<<<
339.09	0.00
339.48	215.43
339.86	216.67
340.24	217.91
340.63	218.90
341.01	221.99
341.39	221.70
341.78	222.81
342.16	224.31
342.54	225.08
342.93	213.31
343.31	224.09
343.69	224.61
344.07	225.08
344.46	225.47
344.84	225.85
345.22	226.09
345.60	226.34
345.99	226.55
346.37	226.66
346.75	226.74
347.13	226.80
347.52	226.89
347.90	226.96
348.28	227.00
348.66	227.05
349.05	227.04
349.43	227.07
349.81	227.14
350.19	227.18
350.57	227.22
350.96	227.28
351.34	227.38
351.72	227.50
352.10	227.58
352.48	227.71
352.87	227.82
353.25	227.88
353.63	227.96
354.01	228.03
354.39	228.18
354.77	228.26
355.15	228.34
355.54	228.40
355.92	228.44
356.30	228.50
356.68	228.61
357.06	228.70
357.44	228.77
357.82	228.81
358.20	228.92
358.58	228.99
358.97	229.05
359.35	229.10
359.73	229.14
360.11	229.19
360.49	229.21
360.87	229.27
361.25	229.32
361.63	229.39
362.01	229.42
362.39	229.41
362.77	229.48
363.15	229.53
363.53	229.55
363.91	229.57
364.29	229.61
364.67	229.53
365.05	229.55
365.43	229.55
365.81	229.56
366.19	229.55
366.57	229.57
366.95	229.56
367.33	229.54
367.71	229.52
368.09	229.51
368.47	229.50
368.85	229.46
369.23	229.46
369.61	229.39
369.99	229.38
370.37	229.35
370.75	229.37
371.13	229.29
371.51	229.25
371.89	229.23
372.27	229.16
372.65	229.12
373.03	229.05
373.41	228.98
373.78	228.92
374.16	228.81
374.54	228.73
374.92	228.69
375.30	228.64
375.68	228.55
376.06	228.48
376.44	228.42
376.82	228.31
377.19	228.24
377.57	228.20
377.95	228.13
378.33	228.05
378.71	227.89
379.09	227.84
379.47	227.76
379.84	227.68
380.22	227.63
380.60	227.57
380.98	227.52
381.36	227.50
381.73	227.41
382.11	227.35
382.49	227.27
382.87	227.17
383.25	227.08
383.62	227.12
384.00	227.05
384.38	226.98
384.76	226.93
385.13	226.90
385.51	226.82
385.89	226.75
386.27	226.71
386.64	226.66
387.02	226.64
387.40	226.62
387.78	226.58
388.15	226.53
388.53	226.47
388.91	226.42
389.29	226.33
389.66	226.31
390.04	226.32
390.42	226.32
390.79	226.31
391.17	226.31
391.55	226.21
391.92	226.19
392.30	226.22
392.68	226.24
393.05	226.25
393.43	226.28
393.81	226.30
394.18	226.28
394.56	226.31
394.94	226.34
395.31	226.33
395.69	226.41
396.06	226.44
396.44	226.50
396.82	226.54
397.19	226.66
397.57	226.74
397.95	226.80
398.32	226.85
398.70	226.93
399.07	227.03
399.45	227.09
399.82	227.19
400.20	227.24
400.58	227.28
400.95	227.33
401.33	227.42
401.70	227.55
402.08	227.69
402.45	227.79
402.83	227.90
403.20	228.03
403.58	228.14
403.95	228.27
404.33	228.43
404.71	228.56
405.08	228.75
405.46	228.85
405.83	229.01
406.21	229.15
406.58	229.32
406.96	229.49
407.33	229.70
407.70	229.87
408.08	230.15
408.45	230.42
408.83	230.66
409.20	230.89
409.58	231.11
409.95	231.33
410.33	231.59
410.70	231.83
411.08	232.13
411.45	232.39
411.82	232.68
412.20	233.02
412.57	233.45
412.95	233.74
413.32	234.15
413.69	234.52
414.07	234.98
414.44	235.45
414.82	235.91
415.19	236.45
415.56	236.97
415.94	237.51
416.31	238.12
416.68	238.78
417.06	239.47
417.43	240.14
417.81	240.92
418.18	241.70
418.55	242.57
418.93	243.46
419.30	244.39
419.67	245.37
420.04	246.31
420.42	247.30
420.79	248.44
421.16	249.59
421.54	250.81
421.91	252.06
422.28	253.30
422.66	254.67
423.03	255.96
423.40	257.29
423.77	258.71
424.15	260.16
424.52	261.64
424.89	263.27
425.26	264.80
425.64	266.26
426.01	267.88
426.38	269.53
426.75	271.20
427.13	272.95
427.50	274.73
427.87	276.61
428.24	278.46
428.61	280.23
428.99	282.19
429.36	284.28
429.73	286.30
430.10	288.36
430.47	290.39
430.85	292.54
431.22	294.85
431.59	297.22
431.96	299.45
432.33	301.93
432.70	304.31
433.08	307.15
433.45	309.80
433.82	312.42
434.19	315.33
434.56	318.13
434.93	320.77
435.30	323.40
435.68	326.27
436.05	329.16
436.42	332.00
436.79	334.51
437.16	337.21
437.53	340.06
437.90	342.86
438.27	345.59
438.64	348.42
439.01	351.01
439.38	353.26
439.75	355.40
440.13	357.93
440.50	360.26
440.87	362.12
441.24	364.14
441.61	366.27
441.98	367.75
442.35	369.54
442.72	371.40
443.09	373.23
443.46	374.23
443.83	374.76
444.20	375.20
444.57	376.03
444.94	376.36
445.31	376.65
445.68	376.96
446.05	377.05
446.42	376.66
446.79	376.22
447.16	375.76
447.53	375.44
447.90	374.21
448.27	373.07
448.64	371.48
449.01	370.24
449.37	368.24
449.74	366.34
450.11	364.09
450.48	361.61
450.85	358.98
451.22	356.89
451.59	354.92
451.96	353.04
452.33	350.43
452.70	348.02
453.07	345.19
453.43	342.32
453.80	339.54
454.17	336.84
454.54	334.30
454.91	331.58
455.28	328.93
455.65	326.47
456.02	323.99
456.38	321.82
456.75	319.17
457.12	316.94
457.49	314.66
457.86	312.48
458.23	310.63
458.59	308.67
458.96	306.56
459.33	304.65
459.70	302.73
460.07	301.22
460.43	299.50
460.80	297.91
461.17	296.47
461.54	294.93
461.91	293.51
462.27	292.03
462.64	290.75
463.01	289.39
463.38	288.10
463.74	286.68
464.11	285.51
464.48	284.49
464.85	283.40
465.21	282.59
465.58	281.66
465.95	280.55
466.32	279.60
466.68	278.69
467.05	277.80
467.42	276.95
467.78	276.03
468.15	275.15
468.52	274.49
468.88	273.62
469.25	272.88
469.62	272.25
469.98	271.61
470.35	271.02
470.72	270.41
471.08	269.71
471.45	269.20
471.82	268.64
472.18	268.02
472.55	267.56
472.92	267.02
473.28	266.58
473.65	266.12
474.02	265.69
474.38	265.35
474.75	265.01
475.11	264.66
475.48	264.35
475.85	264.14
476.21	263.91
476.58	263.71
476.94	263.53
477.31	263.36
477.67	263.19
478.04	263.05
478.41	262.98
478.77	263.03
479.14	262.98
479.50	263.01
479.87	263.11
480.23	263.18
480.60	263.22
480.96	263.30
481.33	263.50
481.69	263.68
482.06	263.86
482.42	264.07
482.79	264.30
483.15	264.66
483.52	265.02
483.88	265.36
484.25	265.77
484.61	266.22
484.98	266.68
485.34	267.22
485.71	267.79
486.07	268.43
486.44	268.97
486.80	269.67
487.17	270.41
487.53	271.22
487.90	272.07
488.26	273.04
488.62	274.01
488.99	274.96
489.35	276.01
489.72	277.12
490.08	278.28
490.44	279.52
490.81	280.84
491.17	282.20
491.54	283.67
491.90	285.21
492.26	286.83
492.63	288.56
492.99	290.40
493.36	292.32
493.72	294.31
494.08	296.44
494.45	298.69
494.81	301.06
495.17	303.47
495.54	306.01
495.90	308.69
496.26	311.50
496.63	314.48
496.99	317.57
497.35	320.84
497.72	324.25
498.08	327.73
498.44	331.40
498.80	335.27
499.17	339.30
499.53	343.43
499.89	347.79
500.26	352.34
500.62	356.97
500.98	361.93
501.34	367.05
501.71	372.36
502.07	377.81
502.43	383.41
502.79	389.21
503.16	395.29
503.52	401.59
503.88	408.00
504.24	414.64
504.60	421.57
504.97	428.66
505.33	436.01
505.69	443.75
506.05	451.52
506.41	459.48
506.78	467.72
507.14	476.14
507.50	484.88
507.86	493.90
508.22	503.08
508.59	512.30
508.95	521.85
509.31	531.68
509.67	541.77
510.03	552.06
510.39	562.66
510.75	573.46
511.12	584.41
511.48	595.71
511.84	607.16
512.20	618.64
512.56	630.60
512.92	642.82
513.28	655.16
513.64	667.66
514.00	680.27
514.37	693.15
514.73	706.26
515.09	719.37
515.45	732.71
515.81	746.29
516.17	760.26
516.53	774.39
516.89	788.60
517.25	802.75
517.61	817.27
517.97	831.79
518.33	846.24
518.69	860.96
519.05	875.95
519.41	891.09
519.77	906.62
520.13	922.15
520.49	937.51
520.85	953.01
521.21	968.70
521.57	984.97
521.93	1000.85
522.29	1017.27
522.65	1033.49
523.01	1049.65
523.37	1065.76
523.73	1081.96
524.09	1098.08
524.45	1114.46
524.81	1131.25
525.17	1148.08
525.53	1165.08
525.89	1181.95
526.25	1198.85
526.61	1215.35
526.97	1232.18
527.33	1248.79
527.68	1265.47
528.04	1282.03
528.40	1298.62
528.76	1315.81
529.12	1332.54
529.48	1349.37
529.84	1365.42
530.20	1382.12
530.56	1399.28
530.91	1416.74
531.27	1433.58
531.63	1450.17
531.99	1466.81
532.35	1482.79
532.71	1498.74
533.07	1514.96
533.42	1530.90
533.78	1546.97
534.14	1563.24
534.50	1578.68
534.86	1594.61
535.21	1609.89
535.57	1625.87
535.93	1641.52
536.29	1656.41
536.65	1671.59
537.00	1686.58
537.36	1702.05
537.72	1716.62
538.08	1731.01
538.44	1744.95
538.79	1758.93
539.15	1772.75
539.51	1786.56
539.87	1800.87
540.22	1814.66
540.58	1828.54
540.94	1842.10
541.29	1855.18
541.65	1868.03
542.01	1881.37
542.37	1893.72
542.72	1906.08
543.08	1917.89
543.44	1930.40
543.79	1941.69
544.15	1952.67
544.51	1964.27
544.87	1975.24
545.22	1986.11
545.58	1996.40
545.94	2006.21
546.29	2016.07
546.65	2025.80
547.01	2035.06
547.36	2043.93
547.72	2052.42
548.07	2060.32
548.43	2068.55
548.79	2076.54
549.14	2083.97
549.50	2091.39
549.86	2099.14
550.21	2106.55
550.57	2113.93
550.92	2120.48
551.28	2127.62
551.64	2134.78
551.99	2141.29
552.35	2147.46
552.70	2153.58
553.06	2159.55
553.41	2165.94
553.77	2172.00
554.13	2178.18
554.48	2184.24
554.84	2189.58
555.19	2194.85
555.55	2199.87
555.90	2204.26
556.26	2209.20
556.61	2213.98
556.97	2218.14
557.32	2222.30
557.68	2226.33
558.03	2230.39
558.39	2234.07
558.74	2238.44
559.10	2242.18
559.45	2245.66
559.81	2250.13
560.16	2253.96
560.52	2257.20
560.87	2260.48
561.23	2263.01
561.58	2265.87
561.94	2268.45
562.29	2270.95
562.64	2273.65
563.00	2276.42
563.35	2279.95
563.71	2282.93
564.06	2286.07
564.42	2288.79
564.77	2291.18
565.12	2293.45
565.48	2295.31
565.83	2297.06
566.19	2298.54
566.54	2299.44
566.89	2300.63
567.25	2300.97
567.60	2302.25
567.96	2303.77
568.31	2304.58
568.66	2305.73
569.02	2306.33
569.37	2306.58
569.72	2307.29
570.08	2307.28
570.43	2307.21
570.78	2306.56
571.14	2305.06
571.49	2303.73
571.84	2303.50
572.20	2302.27
572.55	2301.28
572.90	2299.84
573.26	2298.34
573.61	2296.55
573.96	2294.73
574.31	2291.72
574.67	2288.51
575.02	2284.88
575.37	2281.57
575.72	2277.68
576.08	2274.31
576.43	2270.94
576.78	2267.31
577.13	2264.11
577.49	2260.98
577.84	2257.40
578.19	2253.62
578.54	2249.80
578.90	2245.46
579.25	2239.94
579.60	2234.95
579.95	2229.90
580.30	2224.63
580.66	2219.52
581.01	2214.46
581.36	2209.48
581.71	2205.18
582.06	2200.86
582.42	2196.25
582.77	2190.94
583.12	2186.43
583.47	2181.58
583.82	2176.31
584.17	2170.80
584.53	2165.15
584.88	2159.35
585.23	2153.34
585.58	2147.76
585.93	2142.37
586.28	2137.52
586.63	2132.23
586.98	2127.09
587.34	2122.25
587.69	2117.37
588.04	2111.97
588.39	2106.14
588.74	2099.51
589.09	2093.38
589.44	2086.42
589.79	2080.31
590.14	2074.50
590.49	2067.85
590.84	2061.45
591.19	2055.60
591.54	2049.14
591.89	2041.64
592.25	2034.99
592.60	2027.85
592.95	2020.24
593.30	2012.65
593.65	2004.94
594.00	1997.80
594.35	1990.51
594.70	1982.46
595.05	1975.14
595.40	1967.85
595.75	1960.45
596.10	1954.14
596.45	1947.22
596.80	1941.01
597.15	1934.31
597.50	1927.24
597.85	1920.67
598.19	1914.08
598.54	1906.94
598.89	1900.38
599.24	1894.59
599.59	1887.78
599.94	1881.50
600.29	1875.09
600.64	1868.54
600.99	1861.13
601.34	1854.24
601.69	1847.28
602.04	1840.22
602.39	1832.76
602.74	1825.84
603.08	1819.09
603.43	1812.38
603.78	1805.06
604.13	1797.90
604.48	1790.55
604.83	1783.61
605.18	1776.48
605.53	1768.29
605.87	1760.07
606.22	1752.75
606.57	1744.72
606.92	1737.34
607.27	1730.18
607.62	1723.26
607.96	1715.89
608.31	1709.19
608.66	1701.45
609.01	1693.74
609.36	1686.14
609.70	1678.15
610.05	1670.01
610.40	1662.16
610.75	1653.89
611.10	1646.22
611.44	1637.67
611.79	1629.84
612.14	1621.13
612.49	1612.10
612.83	1603.62
613.18	1595.59
613.53	1587.45
613.88	1578.91
614.22	1570.47
614.57	1561.88
614.92	1553.80
615.27	1546.35
615.61	1538.10
615.96	1530.16
616.31	1522.58
616.65	1515.28
617.00	1507.74
617.35	1500.14
617.70	1491.77
618.04	1483.16
618.39	1474.96
618.74	1467.42
619.08	1458.98
619.43	1451.40
619.78	1444.48
620.12	1437.42
620.47	1429.88
620.82	1421.78
621.16	1414.40
621.51	1406.91
621.85	1399.22
622.20	1390.57
622.55	1382.23
622.89	1374.34
623.24	1366.80
623.59	1359.45
623.93	1351.94
624.28	1344.69
624.62	1337.23
624.97	1330.07
625.32	1323.45
625.66	1316.48
626.01	1309.26
626.35	1301.80
626.70	1294.09
627.04	1286.36
627.39	1278.58
627.73	1271.10
628.08	1264.04
628.43	1256.59
628.77	1249.16
629.12	1241.59
629.46	1234.49
629.81	1226.99
630.15	1219.75
630.50	1212.31
630.84	1204.16
631.19	1196.26
631.53	1188.89
631.88	1181.33
632.22	1173.71
632.57	1166.37
632.91	1158.75
633.26	1151.40
633.60	1144.18
633.95	1137.21
634.29	1130.18
634.64	1123.55
634.98	1116.24
635.32	1109.20
635.67	1102.78
636.01	1096.18
636.36	1089.43
636.70	1082.95
637.05	1076.40
637.39	1069.96
637.73	1063.44
638.08	1057.52
638.42	1051.55
638.77	1045.03
639.11	1038.36
639.45	1032.04
639.80	1025.37
640.14	1018.89
640.49	1012.33
640.83	1005.98
641.17	999.64
641.52	993.31
641.86	986.89
642.20	981.10
642.55	974.79
642.89	968.30
643.23	961.80
643.58	956.00
643.92	949.80
644.26	943.69
644.61	937.67
644.95	931.67
645.29	925.03
645.64	918.22
645.98	911.84
646.32	906.05
646.66	899.99
647.01	894.24
647.35	888.62
647.69	882.81
648.04	877.30
648.38	871.56
648.72	865.50
649.06	859.42
649.41	853.39
649.75	847.37
650.09	841.38
650.43	835.57
650.78	829.40
651.12	823.45
651.46	817.74
651.80	812.03
652.14	806.65
652.49	801.33
652.83	796.16
653.17	790.49
653.51	784.67
653.85	779.27
654.20	773.57
654.54	767.54
654.88	761.76
655.22	755.84
655.56	750.06
655.90	744.65
656.25	739.43
656.59	734.09
656.93	729.01
657.27	723.83
657.61	718.39
657.95	713.33
658.29	708.28
658.64	703.06
658.98	697.72
659.32	692.21
659.66	686.99
660.00	681.71
660.34	676.80
660.68	671.94
661.02	666.92
661.36	662.20
661.70	657.77
662.05	653.43
662.39	649.12
662.73	644.76
663.07	640.37
663.41	635.87
663.75	631.45
664.09	626.93
664.43	622.61
664.77	618.53
665.11	614.26
665.45	610.16
665.79	606.09
666.13	601.98
666.47	597.91
666.81	593.80
667.15	589.65
667.49	585.75
667.83	581.96
668.17	578.01
668.51	573.97
668.85	569.94
669.19	566.14
669.53	562.26
669.87	558.35
670.21	554.62
670.55	550.98
670.89	547.56
671.23	544.08
671.57	540.56
671.91	537.01
672.25	533.55
672.58	530.04
672.92	526.66
673.26	523.56
673.60	520.51
673.94	517.39
674.28	514.51
674.62	511.56
674.96	508.49
675.30	505.61
675.64	502.75
675.97	500.01
676.31	497.12
676.65	494.19
676.99	491.46
677.33	488.62
677.67	485.85
678.01	482.83
678.34	479.90
678.68	477.07
679.02	474.32
679.36	471.57
679.70	468.89
680.04	466.09
680.37	463.16
680.71	460.30
681.05	457.67
681.39	455.02
681.73	452.38
682.06	449.85
682.40	447.33
682.74	444.76
683.08	442.20
683.42	439.59
683.75	437.14
684.09	434.60
684.43	432.16
684.77	429.70
685.10	427.37
685.44	425.09
685.78	422.75
686.12	420.48
686.45	418.14
686.79	415.80
687.13	413.63
687.46	411.51
687.80	409.36
688.14	407.17
688.48	405.04
688.81	402.80
689.15	400.69
689.49	398.51
689.82	396.45
690.16	394.34
690.50	392.43
690.83	390.49
691.17	388.56
691.51	386.65
691.84	384.75
692.18	382.77
692.52	380.72
692.85	378.81
693.19	376.91
693.52	375.14
693.86	373.31
694.20	371.53
694.53	369.75
694.87	367.88
695.21	366.11
695.54	364.28
695.88	362.56
696.21	360.81
696.55	359.12
696.88	357.40
697.22	355.77
697.56	354.14
697.89	352.50
698.23	350.91
698.56	349.28
698.90	347.69
699.23	346.07
699.57	344.57
699.90	343.03
700.24	341.50
700.58	339.97
700.91	338.49
701.25	337.06
701.58	335.67
701.92	334.34
702.25	332.92
702.59	331.56
702.92	330.25
703.26	328.96
703.59	327.67
703.93	326.49
704.26	325.26
704.60	323.94
704.93	322.65
705.26	321.41
705.60	320.28
705.93	319.15
706.27	318.13
706.60	317.08
706.94	315.99
707.27	314.86
707.61	313.79
707.94	312.76
708.27	311.67
708.61	310.57
708.94	309.59
709.28	308.61
709.61	307.70
709.94	306.72
710.28	305.69
710.61	304.75
710.95	303.71
711.28	302.82
711.61	301.87
711.95	301.00
712.28	300.04
712.61	299.05
712.95	298.12
713.28	297.24
713.61	296.37
713.95	295.51
714.28	294.72
714.61	293.87
714.95	293.05
715.28	292.25
715.61	291.43
715.95	290.55
716.28	289.71
716.61	288.89
716.95	288.07
717.28	287.40
717.61	286.61
717.94	285.90
718.28	285.06
718.61	284.38
718.94	283.66
719.27	283.02
719.61	282.40
719.94	281.76
720.27	281.07
720.60	280.41
720.94	279.78
721.27	279.15
721.60	278.58
721.93	277.97
722.27	277.37
722.60	276.83
722.93	276.30
723.26	275.77
723.59	275.18
723.93	274.65
724.26	274.08
724.59	273.54
724.92	272.97
725.25	272.48
725.59	271.95
725.92	271.43
726.25	270.92
726.58	270.41
726.91	269.87
727.24	269.39
727.57	268.91
727.91	268.40
728.24	267.93
728.57	267.42
728.90	266.96
729.23	266.48
729.56	266.00
729.89	265.52
730.22	265.03
730.55	264.55
730.89	264.11
731.22	263.61
731.55	263.19
731.88	262.76
732.21	262.36
732.54	261.90
732.87	261.47
733.20	261.06
733.53	260.64
733.86	260.26
734.19	259.86
734.52	259.46
734.85	259.16
735.18	258.74
735.51	258.39
735.84	258.02
736.17	257.65
736.50	257.24
736.83	256.99
737.16	256.65
737.49	256.34
737.82	255.97
738.15	255.66
738.48	255.30
738.81	254.98
739.14	254.63
739.47	254.32
739.80	254.01
740.13	253.69
740.46	253.37
740.79	253.02
741.12	252.70
741.45	252.39
741.78	252.02
742.11	251.72
742.44	251.39
742.77	251.12
743.10	250.81
743.43	250.51
743.75	250.14
744.08	250.03
744.41	249.74
744.74	249.48
745.07	249.22
745.40	248.99
745.73	248.74
746.06	248.44
746.39	248.19
746.71	247.93
747.04	247.67
747.37	247.43
747.70	247.22
748.03	246.97
748.36	246.76
748.68	246.56
749.01	246.32
749.34	246.09
749.67	245.88
750.00	245.68
750.33	245.54
750.65	245.33
750.98	244.94
751.31	244.73
751.64	244.53
751.97	244.38
752.29	244.15
752.62	243.92
752.95	243.74
753.28	243.56
753.60	243.38
753.93	243.22
754.26	243.04
754.59	242.83
754.91	242.63
755.24	242.39
755.57	242.19
755.90	242.02
756.22	241.82
756.55	241.59
756.88	241.43
757.20	241.22
757.53	241.01
757.86	240.86
758.19	240.71
758.51	240.55
758.84	240.32
759.17	240.14
759.49	239.98
759.82	239.85
760.15	239.70
760.47	239.56
760.80	239.38
761.13	239.25
761.45	239.07
761.78	238.92
762.11	238.79
762.43	238.66
762.76	238.50
763.08	238.41
763.41	238.30
763.74	238.12
764.06	237.95
764.39	237.84
764.71	237.68
765.04	237.54
765.37	237.39
765.69	237.23
766.02	237.10
766.34	237.00
766.67	236.83
767.00	236.70
767.32	236.57
767.65	236.52
767.97	236.39
768.30	236.29
768.62	236.18
768.95	236.07
769.27	235.94
769.60	235.84
769.92	235.70
770.25	235.56
770.57	235.46
770.90	235.38
771.22	235.24
771.55	235.15
771.87	235.07
772.20	234.95
772.52	234.94
772.85	235.01
773.17	234.88
773.50	234.80
773.82	234.69
774.15	234.57
774.47	234.41
774.80	234.29
775.12	234.23
775.45	234.12
775.77	234.01
776.09	233.95
776.42	233.88
776.74	233.81
777.07	233.74
777.39	233.65
777.72	233.58
778.04	233.54
778.36	233.46
778.69	233.36
779.01	233.30
779.33	233.14
779.66	232.94
779.98	232.87
780.31	232.80
780.63	232.77
780.95	232.72
781.28	232.69
781.60	232.67
781.92	232.58
782.25	232.53
782.57	232.51
782.89	232.44
783.22	232.36
783.54	232.30
783.86	232.26
784.19	232.21
784.51	232.19
784.83	232.10
785.16	232.08
785.48	232.06
785.80	232.04
786.12	232.03
786.45	231.99
786.77	231.96
787.09	231.92
