SpectraSuite Data File
++++++++++++++++++++++++++++++++++++
Date: Fri Feb 01 18:14:44 EST 2013
User: group
Dark Spectrum Present: No
Reference Spectrum Present: No
Number of Sampled Component Spectra: 1
Spectrometers: USB2E7196
Integration Time (usec): 35000 (USB2E7196)
Spectra Averaged: 100 (USB2E7196)
Boxcar Smoothing: 10 (USB2E7196)
Correct for Electrical Dark: No (USB2E7196)
Strobe/Lamp Enabled: No (USB2E7196)
Correct for Detector Non-linearity: No (USB2E7196)
Correct for Stray Light: No (USB2E7196)
Number of Pixels in Processed Spectrum: 2048
>>>>>Begin Processed Spectral Data<<<<<
339.09	0.00
339.48	213.09
339.86	215.03
340.24	215.49
340.63	217.95
341.01	220.19
341.39	220.08
341.78	221.79
342.16	222.25
342.54	223.34
342.93	211.61
343.31	222.31
343.69	222.86
344.07	223.30
344.46	223.74
344.84	224.10
345.22	224.33
345.60	224.60
345.99	224.76
346.37	224.95
346.75	225.07
347.13	225.11
347.52	225.16
347.90	225.23
348.28	225.29
348.66	225.31
349.05	225.32
349.43	225.37
349.81	225.44
350.19	225.50
350.57	225.57
350.96	225.63
351.34	225.75
351.72	225.85
352.10	225.99
352.48	226.08
352.87	226.14
353.25	226.22
353.63	226.26
354.01	226.34
354.39	226.38
354.77	226.44
355.15	226.56
355.54	226.63
355.92	226.66
356.30	226.73
356.68	226.86
357.06	226.92
357.44	226.93
357.82	226.98
358.20	227.04
358.58	227.08
358.97	227.17
359.35	227.22
359.73	227.27
360.11	227.25
360.49	227.31
360.87	227.34
361.25	227.41
361.63	227.49
362.01	227.54
362.39	227.58
362.77	227.63
363.15	227.63
363.53	227.68
363.91	227.69
364.29	227.69
364.67	227.62
365.05	227.67
365.43	227.69
365.81	227.74
366.19	227.80
366.57	227.87
366.95	227.86
367.33	227.81
367.71	227.79
368.09	227.83
368.47	227.83
368.85	227.82
369.23	227.82
369.61	227.73
369.99	227.75
370.37	227.72
370.75	227.72
371.13	227.70
371.51	227.66
371.89	227.67
372.27	227.66
372.65	227.62
373.03	227.54
373.41	227.48
373.78	227.41
374.16	227.28
374.54	227.16
374.92	227.13
375.30	227.11
375.68	227.05
376.06	226.96
376.44	226.87
376.82	226.84
377.19	226.78
377.57	226.71
377.95	226.60
378.33	226.56
378.71	226.44
379.09	226.37
379.47	226.30
379.84	226.22
380.22	226.10
380.60	226.05
380.98	226.02
381.36	226.00
381.73	225.93
382.11	225.93
382.49	225.89
382.87	225.84
383.25	225.77
383.62	225.82
384.00	225.75
384.38	225.69
384.76	225.65
385.13	225.63
385.51	225.61
385.89	225.56
386.27	225.48
386.64	225.47
387.02	225.46
387.40	225.42
387.78	225.38
388.15	225.39
388.53	225.35
388.91	225.31
389.29	225.27
389.66	225.27
390.04	225.23
390.42	225.23
390.79	225.21
391.17	225.19
391.55	225.09
391.92	225.12
392.30	225.14
392.68	225.10
393.05	225.09
393.43	225.10
393.81	225.11
394.18	225.12
394.56	225.11
394.94	225.12
395.31	225.11
395.69	225.15
396.06	225.15
396.44	225.18
396.82	225.19
397.19	225.27
397.57	225.26
397.95	225.29
398.32	225.28
398.70	225.32
399.07	225.37
399.45	225.40
399.82	225.44
400.20	225.50
400.58	225.56
400.95	225.62
401.33	225.72
401.70	225.87
402.08	225.94
402.45	226.06
402.83	226.15
403.20	226.26
403.58	226.36
403.95	226.53
404.33	226.68
404.71	226.82
405.08	226.98
405.46	227.17
405.83	227.35
406.21	227.54
406.58	227.73
406.96	227.93
407.33	228.15
407.70	228.40
408.08	228.72
408.45	229.02
408.83	229.29
409.20	229.55
409.58	229.77
409.95	230.10
410.33	230.41
410.70	230.78
411.08	231.17
411.45	231.59
411.82	231.98
412.20	232.45
412.57	232.97
412.95	233.41
413.32	233.92
413.69	234.49
414.07	235.10
414.44	235.77
414.82	236.40
415.19	237.19
415.56	237.96
415.94	238.72
416.31	239.59
416.68	240.43
417.06	241.45
417.43	242.41
417.81	243.50
418.18	244.62
418.55	245.81
418.93	247.03
419.30	248.26
419.67	249.58
420.04	250.89
420.42	252.31
420.79	253.94
421.16	255.62
421.54	257.30
421.91	259.02
422.28	260.74
422.66	262.66
423.03	264.42
423.40	266.31
423.77	268.25
424.15	270.28
424.52	272.40
424.89	274.61
425.26	276.78
425.64	278.85
426.01	281.11
426.38	283.42
426.75	285.75
427.13	288.20
427.50	290.76
427.87	293.40
428.24	296.06
428.61	298.56
428.99	301.26
429.36	304.24
429.73	307.13
430.10	310.00
430.47	312.87
430.85	315.91
431.22	319.05
431.59	322.45
431.96	325.61
432.33	329.13
432.70	332.53
433.08	336.54
433.45	340.26
433.82	343.93
434.19	347.98
434.56	351.93
434.93	355.70
435.30	359.40
435.68	363.49
436.05	367.48
436.42	371.44
436.79	375.00
437.16	378.79
437.53	382.80
437.90	386.75
438.27	390.68
438.64	394.68
439.01	398.36
439.38	401.48
439.75	404.56
440.13	408.07
440.50	411.42
440.87	413.97
441.24	416.72
441.61	419.75
441.98	421.93
442.35	424.50
442.72	427.20
443.09	429.72
443.46	431.14
443.83	431.94
444.20	432.65
444.57	433.85
444.94	434.26
445.31	434.74
445.68	435.22
446.05	435.33
446.42	434.76
446.79	434.15
447.16	433.58
447.53	433.18
447.90	431.53
448.27	429.85
448.64	427.65
449.01	426.03
449.37	423.29
449.74	420.52
450.11	417.32
450.48	413.73
450.85	410.18
451.22	407.15
451.59	404.30
451.96	401.53
452.33	397.78
452.70	394.45
453.07	390.48
453.43	386.41
453.80	382.51
454.17	378.74
454.54	375.12
454.91	371.28
455.28	367.45
455.65	363.92
456.02	360.41
456.38	357.37
456.75	353.56
457.12	350.37
457.49	347.29
457.86	344.29
458.23	341.63
458.59	338.77
458.96	335.82
459.33	333.21
459.70	330.60
460.07	328.50
460.43	326.07
460.80	323.72
461.17	321.67
461.54	319.51
461.91	317.45
462.27	315.45
462.64	313.66
463.01	311.76
463.38	309.91
463.74	308.00
464.11	306.35
464.48	304.93
464.85	303.35
465.21	302.06
465.58	300.70
465.95	299.15
466.32	297.83
466.68	296.56
467.05	295.27
467.42	294.01
467.78	292.70
468.15	291.45
468.52	290.49
468.88	289.23
469.25	288.14
469.62	287.25
469.98	286.27
470.35	285.36
470.72	284.48
471.08	283.57
471.45	282.81
471.82	282.03
472.18	281.13
472.55	280.50
472.92	279.77
473.28	279.07
473.65	278.41
474.02	277.76
474.38	277.18
474.75	276.71
475.11	276.20
475.48	275.79
475.85	275.40
476.21	275.01
476.58	274.79
476.94	274.51
477.31	274.21
477.67	273.94
478.04	273.67
478.41	273.52
478.77	273.48
479.14	273.30
479.50	273.19
479.87	273.21
480.23	273.21
480.60	273.19
480.96	273.23
481.33	273.44
481.69	273.59
482.06	273.76
482.42	273.86
482.79	274.04
483.15	274.33
483.52	274.74
483.88	275.06
484.25	275.34
484.61	275.73
484.98	276.17
485.34	276.72
485.71	277.31
486.07	277.90
486.44	278.43
486.80	279.14
487.17	279.89
487.53	280.71
487.90	281.56
488.26	282.56
488.62	283.55
488.99	284.52
489.35	285.59
489.72	286.76
490.08	288.02
490.44	289.37
490.81	290.75
491.17	292.11
491.54	293.64
491.90	295.29
492.26	297.07
492.63	298.93
492.99	300.76
493.36	302.81
493.72	304.98
494.08	307.25
494.45	309.64
494.81	312.14
495.17	314.75
495.54	317.52
495.90	320.37
496.26	323.37
496.63	326.52
496.99	329.86
497.35	333.32
497.72	336.97
498.08	340.69
498.44	344.58
498.80	348.83
499.17	353.21
499.53	357.72
499.89	362.39
500.26	367.21
500.62	372.24
500.98	377.58
501.34	383.04
501.71	388.75
502.07	394.64
502.43	400.70
502.79	406.97
503.16	413.54
503.52	420.25
503.88	427.17
504.24	434.38
504.60	441.76
504.97	449.45
505.33	457.34
505.69	465.72
506.05	474.20
506.41	482.64
506.78	491.41
507.14	500.53
507.50	510.02
507.86	519.77
508.22	529.76
508.59	539.70
508.95	550.09
509.31	560.69
509.67	571.65
510.03	582.79
510.39	594.26
510.75	605.94
511.12	617.95
511.48	630.25
511.84	642.69
512.20	655.36
512.56	668.41
512.92	681.72
513.28	695.18
513.64	708.74
514.00	722.72
514.37	736.90
514.73	751.17
515.09	765.35
515.45	779.92
515.81	794.81
516.17	810.20
516.53	825.73
516.89	841.33
517.25	856.92
517.61	872.81
517.97	888.71
518.33	904.66
518.69	920.79
519.05	937.29
519.41	954.05
519.77	971.22
520.13	988.28
520.49	1005.31
520.85	1022.40
521.21	1039.89
521.57	1057.92
521.93	1075.49
522.29	1093.74
522.65	1111.90
523.01	1130.06
523.37	1147.98
523.73	1166.03
524.09	1184.01
524.45	1202.25
524.81	1220.93
525.17	1239.77
525.53	1258.72
525.89	1277.61
526.25	1296.59
526.61	1315.10
526.97	1334.02
527.33	1352.62
527.68	1371.38
528.04	1389.97
528.40	1408.61
528.76	1427.84
529.12	1446.59
529.48	1465.83
529.84	1484.01
530.20	1502.85
530.56	1522.06
530.91	1541.88
531.27	1560.99
531.63	1579.74
531.99	1598.79
532.35	1617.11
532.71	1635.40
533.07	1654.18
533.42	1672.67
533.78	1691.28
534.14	1710.22
534.50	1728.02
534.86	1746.23
535.21	1763.98
535.57	1782.54
535.93	1800.67
536.29	1818.08
536.65	1835.75
537.00	1853.04
537.36	1871.21
537.72	1888.34
538.08	1905.44
538.44	1921.69
538.79	1938.09
539.15	1954.32
539.51	1970.55
539.87	1987.61
540.22	2003.91
540.58	2020.28
540.94	2036.07
541.29	2051.54
541.65	2066.73
542.01	2082.62
542.37	2097.72
542.72	2112.74
543.08	2127.16
543.44	2142.17
543.79	2156.00
544.15	2169.61
544.51	2183.75
544.87	2197.09
545.22	2210.60
545.58	2223.41
545.94	2235.72
546.29	2248.20
546.65	2260.79
547.01	2272.59
547.36	2283.62
547.72	2294.60
548.07	2304.78
548.43	2315.41
548.79	2325.64
549.14	2335.56
549.50	2345.08
549.86	2354.95
550.21	2364.53
550.57	2374.11
550.92	2383.04
551.28	2392.26
551.64	2401.53
551.99	2410.26
552.35	2418.69
552.70	2426.92
553.06	2435.04
553.41	2443.52
553.77	2451.73
554.13	2459.75
554.48	2468.13
554.84	2475.89
555.19	2483.10
555.55	2490.30
555.90	2496.82
556.26	2503.88
556.61	2510.43
556.97	2516.86
557.32	2522.86
557.68	2528.85
558.03	2534.87
558.39	2540.24
558.74	2546.78
559.10	2552.44
559.45	2557.88
559.81	2563.83
560.16	2569.42
560.52	2574.26
560.87	2579.37
561.23	2583.62
561.58	2588.24
561.94	2592.27
562.29	2595.86
562.64	2600.31
563.00	2604.39
563.35	2609.44
563.71	2614.03
564.06	2618.75
564.42	2623.13
564.77	2627.24
565.12	2630.97
565.48	2634.19
565.83	2637.50
566.19	2640.12
566.54	2642.06
566.89	2644.30
567.25	2646.14
567.60	2648.63
567.96	2651.65
568.31	2653.65
568.66	2655.76
569.02	2657.28
569.37	2658.54
569.72	2660.59
570.08	2661.42
570.43	2662.35
570.78	2662.51
571.14	2661.47
571.49	2660.76
571.84	2660.94
572.20	2660.40
572.55	2659.91
572.90	2658.81
573.26	2657.88
573.61	2656.48
573.96	2655.33
574.31	2652.53
574.67	2649.64
575.02	2646.13
575.37	2642.69
575.72	2638.86
576.08	2635.50
576.43	2632.17
576.78	2628.60
577.13	2625.28
577.49	2622.14
577.84	2618.72
578.19	2614.75
578.54	2611.22
578.90	2606.85
579.25	2600.89
579.60	2595.75
579.95	2590.40
580.30	2585.04
580.66	2579.51
581.01	2574.27
581.36	2568.86
581.71	2564.48
582.06	2559.76
582.42	2554.93
582.77	2549.29
583.12	2544.54
583.47	2539.56
583.82	2534.27
584.17	2528.44
584.53	2522.32
584.88	2516.15
585.23	2509.64
585.58	2503.65
585.93	2497.52
586.28	2492.16
586.63	2486.60
586.98	2480.84
587.34	2475.57
587.69	2470.07
588.04	2464.28
588.39	2457.77
588.74	2450.50
589.09	2443.46
589.44	2435.80
589.79	2428.65
590.14	2422.27
590.49	2414.48
590.84	2407.06
591.19	2400.10
591.54	2392.63
591.89	2384.40
592.25	2376.63
592.60	2368.31
592.95	2359.59
593.30	2351.15
593.65	2342.28
594.00	2334.07
594.35	2325.48
594.70	2316.05
595.05	2307.70
595.40	2299.08
595.75	2290.33
596.10	2283.10
596.45	2275.26
596.80	2268.10
597.15	2260.67
597.50	2252.43
597.85	2244.89
598.19	2237.11
598.54	2228.82
598.89	2220.99
599.24	2213.94
599.59	2206.34
599.94	2198.95
600.29	2191.39
600.64	2183.53
600.99	2174.86
601.34	2166.77
601.69	2158.57
602.04	2150.67
602.39	2141.84
602.74	2133.71
603.08	2125.73
603.43	2117.62
603.78	2108.99
604.13	2100.27
604.48	2091.62
604.83	2083.35
605.18	2075.19
605.53	2065.77
605.87	2056.20
606.22	2047.54
606.57	2037.91
606.92	2028.78
607.27	2020.28
607.62	2011.99
607.96	2003.30
608.31	1995.34
608.66	1986.21
609.01	1977.26
609.36	1968.02
609.70	1958.57
610.05	1948.86
610.40	1939.61
610.75	1929.76
611.10	1920.59
611.44	1910.35
611.79	1900.54
612.14	1890.07
612.49	1878.94
612.83	1868.74
613.18	1858.91
613.53	1849.18
613.88	1838.98
614.22	1829.05
614.57	1818.67
614.92	1809.06
615.27	1800.00
615.61	1790.16
615.96	1780.39
616.31	1771.19
616.65	1762.37
617.00	1753.24
617.35	1743.97
617.70	1734.17
618.04	1723.96
618.39	1713.93
618.74	1704.87
619.08	1694.92
619.43	1685.77
619.78	1677.46
620.12	1669.07
620.47	1660.02
620.82	1650.06
621.16	1641.04
621.51	1631.95
621.85	1622.64
622.20	1612.41
622.55	1602.29
622.89	1592.65
623.24	1583.53
623.59	1574.44
623.93	1565.33
624.28	1556.56
624.62	1547.57
624.97	1538.81
625.32	1530.50
625.66	1522.02
626.01	1513.40
626.35	1504.57
626.70	1495.14
627.04	1485.81
627.39	1476.10
627.73	1467.24
628.08	1458.96
628.43	1450.38
628.77	1441.52
629.12	1432.58
629.46	1423.96
629.81	1414.92
630.15	1406.27
630.50	1397.31
630.84	1387.54
631.19	1377.91
631.53	1368.78
631.88	1359.65
632.22	1350.43
632.57	1341.60
632.91	1332.55
633.26	1323.67
633.60	1314.66
633.95	1306.18
634.29	1297.72
634.64	1289.75
634.98	1280.84
635.32	1272.27
635.67	1264.20
636.01	1256.26
636.36	1248.00
636.70	1240.12
637.05	1232.27
637.39	1224.43
637.73	1216.73
638.08	1209.56
638.42	1202.30
638.77	1194.66
639.11	1186.85
639.45	1179.24
639.80	1171.35
640.14	1163.79
640.49	1156.00
640.83	1148.48
641.17	1141.08
641.52	1133.54
641.86	1125.83
642.20	1118.86
642.55	1111.27
642.89	1103.61
643.23	1095.63
643.58	1088.86
643.92	1081.46
644.26	1074.28
644.61	1067.07
644.95	1059.93
645.29	1052.22
645.64	1044.30
645.98	1036.79
646.32	1029.81
646.66	1022.62
647.01	1015.73
647.35	1008.88
647.69	1001.87
648.04	995.33
648.38	988.52
648.72	981.50
649.06	974.47
649.41	967.44
649.75	960.46
650.09	953.43
650.43	946.57
650.78	939.24
651.12	932.24
651.46	925.49
651.80	918.80
652.14	912.41
652.49	906.04
652.83	899.98
653.17	893.34
653.51	886.60
653.85	880.19
654.20	873.59
654.54	866.50
654.88	859.68
655.22	852.64
655.56	845.81
655.90	839.26
656.25	833.01
656.59	826.68
656.93	820.65
657.27	814.51
657.61	808.14
657.95	802.11
658.29	796.09
658.64	789.80
658.98	783.35
659.32	776.82
659.66	770.72
660.00	764.42
660.34	758.52
660.68	752.71
661.02	746.75
661.36	741.13
661.70	735.81
662.05	730.74
662.39	725.74
662.73	720.49
663.07	715.35
663.41	710.03
663.75	704.74
664.09	699.31
664.43	694.13
664.77	689.33
665.11	684.30
665.45	679.37
665.79	674.59
666.13	669.85
666.47	665.07
666.81	660.17
667.15	655.30
667.49	650.66
667.83	646.09
668.17	641.52
668.51	636.77
668.85	632.08
669.19	627.48
669.53	623.01
669.87	618.48
670.21	614.05
670.55	609.81
670.89	605.78
671.23	601.77
671.57	597.61
671.91	593.47
672.25	589.37
672.58	585.22
672.92	581.23
673.26	577.49
673.60	573.74
673.94	570.11
674.28	566.67
674.62	563.17
674.96	559.54
675.30	556.11
675.64	552.62
675.97	549.24
676.31	545.88
676.65	542.35
676.99	539.19
677.33	535.86
677.67	532.53
678.01	528.98
678.34	525.51
678.68	522.15
679.02	518.81
679.36	515.51
679.70	512.31
680.04	509.10
680.37	505.74
680.71	502.41
681.05	499.28
681.39	496.12
681.73	493.03
682.06	490.07
682.40	487.02
682.74	484.01
683.08	481.05
683.42	478.03
683.75	475.09
684.09	472.04
684.43	469.14
684.77	466.26
685.10	463.46
685.44	460.66
685.78	457.91
686.12	455.24
686.45	452.55
686.79	449.88
687.13	447.20
687.46	444.63
687.80	442.03
688.14	439.37
688.48	436.88
688.81	434.23
689.15	431.66
689.49	429.13
689.82	426.71
690.16	424.21
690.50	421.87
690.83	419.59
691.17	417.19
691.51	414.94
691.84	412.70
692.18	410.47
692.52	408.22
692.85	405.95
693.19	403.67
693.52	401.48
693.86	399.28
694.20	397.17
694.53	395.04
694.87	392.90
695.21	390.83
695.54	388.68
695.88	386.64
696.21	384.56
696.55	382.54
696.88	380.46
697.22	378.47
697.56	376.50
697.89	374.50
698.23	372.67
698.56	370.72
698.90	368.86
699.23	366.89
699.57	365.00
699.90	363.15
700.24	361.31
700.58	359.51
700.91	357.75
701.25	356.04
701.58	354.40
701.92	352.79
702.25	351.14
702.59	349.53
702.92	347.93
703.26	346.40
703.59	344.95
703.93	343.62
704.26	342.17
704.60	340.67
704.93	339.15
705.26	337.65
705.60	336.26
705.93	334.87
706.27	333.60
706.60	332.34
706.94	331.04
707.27	329.72
707.61	328.45
707.94	327.25
708.27	326.00
708.61	324.67
708.94	323.49
709.28	322.29
709.61	321.15
709.94	320.05
710.28	318.81
710.61	317.63
710.95	316.32
711.28	315.23
711.61	314.10
711.95	313.01
712.28	311.89
712.61	310.72
712.95	309.60
713.28	308.50
713.61	307.45
713.95	306.42
714.28	305.40
714.61	304.39
714.95	303.38
715.28	302.33
715.61	301.32
715.95	300.30
716.28	299.30
716.61	298.24
716.95	297.22
717.28	296.35
717.61	295.41
717.94	294.54
718.28	293.58
718.61	292.66
718.94	291.86
719.27	291.08
719.61	290.29
719.94	289.52
720.27	288.73
720.60	287.93
720.94	287.19
721.27	286.50
721.60	285.79
721.93	285.08
722.27	284.41
722.60	283.74
722.93	283.03
723.26	282.42
723.59	281.82
723.93	281.17
724.26	280.52
724.59	279.86
724.92	279.25
725.25	278.65
725.59	278.05
725.92	277.41
726.25	276.77
726.58	276.19
726.91	275.61
727.24	275.05
727.57	274.46
727.91	273.86
728.24	273.31
728.57	272.73
728.90	272.22
729.23	271.66
729.56	271.13
729.89	270.56
730.22	269.97
730.55	269.39
730.89	268.86
731.22	268.31
731.55	267.77
731.88	267.25
732.21	266.73
732.54	266.28
732.87	265.80
733.20	265.31
733.53	264.83
733.86	264.37
734.19	263.92
734.52	263.47
734.85	263.12
735.18	262.60
735.51	262.15
735.84	261.68
736.17	261.27
736.50	260.81
736.83	260.55
737.16	260.14
737.49	259.78
737.82	259.39
738.15	259.01
738.48	258.63
738.81	258.25
739.14	257.86
739.47	257.51
739.80	257.16
740.13	256.82
740.46	256.44
740.79	256.05
741.12	255.69
741.45	255.30
741.78	254.88
742.11	254.58
742.44	254.19
742.77	253.83
743.10	253.46
743.43	253.11
743.75	252.68
744.08	252.50
744.41	252.16
744.74	251.86
745.07	251.53
745.40	251.24
745.73	250.95
746.06	250.62
746.39	250.25
746.71	249.92
747.04	249.59
747.37	249.30
747.70	249.02
748.03	248.72
748.36	248.47
748.68	248.17
749.01	247.88
749.34	247.64
749.67	247.38
750.00	247.13
750.33	246.96
750.65	246.70
750.98	246.32
751.31	246.07
751.64	245.82
751.97	245.61
752.29	245.33
752.62	245.01
752.95	244.77
753.28	244.54
753.60	244.26
753.93	244.09
754.26	243.85
754.59	243.59
754.91	243.38
755.24	243.15
755.57	242.91
755.90	242.70
756.22	242.50
756.55	242.26
756.88	242.02
757.20	241.74
757.53	241.51
757.86	241.31
758.19	241.14
758.51	240.93
758.84	240.72
759.17	240.55
759.49	240.36
759.82	240.20
760.15	240.04
760.47	239.91
760.80	239.68
761.13	239.54
761.45	239.36
761.78	239.16
762.11	239.00
762.43	238.83
762.76	238.66
763.08	238.52
763.41	238.38
763.74	238.23
764.06	238.04
764.39	237.89
764.71	237.68
765.04	237.48
765.37	237.31
765.69	237.11
766.02	236.96
766.34	236.84
766.67	236.68
767.00	236.53
767.32	236.43
767.65	236.36
767.97	236.18
768.30	236.03
768.62	235.91
768.95	235.75
769.27	235.62
769.60	235.49
769.92	235.35
770.25	235.19
770.57	235.04
770.90	234.94
771.22	234.82
771.55	234.71
771.87	234.58
772.20	234.46
772.52	234.46
772.85	234.48
773.17	234.38
773.50	234.28
773.82	234.20
774.15	234.03
774.47	233.85
774.80	233.75
775.12	233.66
775.45	233.57
775.77	233.50
776.09	233.41
776.42	233.32
776.74	233.23
777.07	233.14
777.39	233.06
777.72	232.98
778.04	232.91
778.36	232.85
778.69	232.80
779.01	232.76
779.33	232.58
779.66	232.37
779.98	232.27
780.31	232.20
780.63	232.11
780.95	232.06
781.28	232.02
781.60	231.95
781.92	231.84
782.25	231.77
782.57	231.70
782.89	231.64
783.22	231.56
783.54	231.49
783.86	231.43
784.19	231.40
784.51	231.33
784.83	231.27
785.16	231.20
785.48	231.17
785.80	231.10
786.12	231.07
786.45	231.03
