SpectraSuite Data File
++++++++++++++++++++++++++++++++++++
Date: Fri Feb 01 15:12:18 EST 2013
User: group
Dark Spectrum Present: No
Reference Spectrum Present: No
Number of Sampled Component Spectra: 1
Spectrometers: USB2E7196
Integration Time (usec): 35000 (USB2E7196)
Spectra Averaged: 100 (USB2E7196)
Boxcar Smoothing: 10 (USB2E7196)
Correct for Electrical Dark: No (USB2E7196)
Strobe/Lamp Enabled: No (USB2E7196)
Correct for Detector Non-linearity: No (USB2E7196)
Correct for Stray Light: No (USB2E7196)
Number of Pixels in Processed Spectrum: 2048
>>>>>Begin Processed Spectral Data<<<<<
339.09	0.00
339.48	215.30
339.86	216.66
340.24	217.89
340.63	219.40
341.01	222.12
341.39	221.87
341.78	223.47
342.16	224.43
342.54	225.01
342.93	213.40
343.31	224.17
343.69	224.70
344.07	225.13
344.46	225.57
344.84	225.95
345.22	226.19
345.60	226.44
345.99	226.62
346.37	226.75
346.75	226.85
347.13	226.91
347.52	226.97
347.90	227.05
348.28	227.11
348.66	227.16
349.05	227.17
349.43	227.22
349.81	227.24
350.19	227.30
350.57	227.37
350.96	227.45
351.34	227.55
351.72	227.63
352.10	227.75
352.48	227.82
352.87	227.87
353.25	227.92
353.63	227.99
354.01	228.08
354.39	228.14
354.77	228.24
355.15	228.36
355.54	228.41
355.92	228.43
356.30	228.49
356.68	228.60
357.06	228.66
357.44	228.71
357.82	228.77
358.20	228.87
358.58	228.92
358.97	228.97
359.35	229.04
359.73	229.13
360.11	229.19
360.49	229.25
360.87	229.29
361.25	229.35
361.63	229.45
362.01	229.49
362.39	229.53
362.77	229.53
363.15	229.52
363.53	229.54
363.91	229.57
364.29	229.57
364.67	229.51
365.05	229.52
365.43	229.56
365.81	229.61
366.19	229.64
366.57	229.68
366.95	229.67
367.33	229.65
367.71	229.61
368.09	229.60
368.47	229.55
368.85	229.52
369.23	229.54
369.61	229.44
369.99	229.44
370.37	229.43
370.75	229.44
371.13	229.38
371.51	229.36
371.89	229.36
372.27	229.31
372.65	229.26
373.03	229.20
373.41	229.11
373.78	229.07
374.16	228.97
374.54	228.86
374.92	228.77
375.30	228.70
375.68	228.63
376.06	228.57
376.44	228.53
376.82	228.46
377.19	228.39
377.57	228.32
377.95	228.18
378.33	228.09
378.71	227.97
379.09	227.93
379.47	227.85
379.84	227.74
380.22	227.69
380.60	227.57
380.98	227.53
381.36	227.48
381.73	227.37
382.11	227.28
382.49	227.25
382.87	227.22
383.25	227.17
383.62	227.21
384.00	227.12
384.38	227.04
384.76	227.01
385.13	226.96
385.51	226.89
385.89	226.86
386.27	226.80
386.64	226.78
387.02	226.72
387.40	226.66
387.78	226.62
388.15	226.54
388.53	226.54
388.91	226.49
389.29	226.44
389.66	226.44
390.04	226.43
390.42	226.37
390.79	226.29
391.17	226.28
391.55	226.15
391.92	226.16
392.30	226.20
392.68	226.17
393.05	226.18
393.43	226.22
393.81	226.24
394.18	226.29
394.56	226.32
394.94	226.39
395.31	226.44
395.69	226.53
396.06	226.59
396.44	226.64
396.82	226.66
397.19	226.76
397.57	226.78
397.95	226.84
398.32	226.89
398.70	227.02
399.07	227.10
399.45	227.21
399.82	227.27
400.20	227.33
400.58	227.41
400.95	227.45
401.33	227.55
401.70	227.71
402.08	227.80
402.45	227.91
402.83	228.03
403.20	228.12
403.58	228.24
403.95	228.40
404.33	228.52
404.71	228.69
405.08	228.89
405.46	229.04
405.83	229.24
406.21	229.42
406.58	229.58
406.96	229.74
407.33	229.93
407.70	230.14
408.08	230.43
408.45	230.68
408.83	230.92
409.20	231.14
409.58	231.35
409.95	231.61
410.33	231.89
410.70	232.16
411.08	232.50
411.45	232.80
411.82	233.08
412.20	233.47
412.57	233.88
412.95	234.17
413.32	234.60
413.69	234.95
414.07	235.41
414.44	235.85
414.82	236.35
415.19	236.90
415.56	237.44
415.94	237.94
416.31	238.56
416.68	239.21
417.06	239.91
417.43	240.59
417.81	241.33
418.18	242.09
418.55	242.93
418.93	243.76
419.30	244.63
419.67	245.60
420.04	246.55
420.42	247.54
420.79	248.71
421.16	249.88
421.54	251.09
421.91	252.29
422.28	253.59
422.66	254.90
423.03	256.18
423.40	257.51
423.77	258.94
424.15	260.33
424.52	261.81
424.89	263.44
425.26	264.99
425.64	266.42
426.01	268.02
426.38	269.63
426.75	271.32
427.13	273.06
427.50	274.85
427.87	276.72
428.24	278.57
428.61	280.34
428.99	282.29
429.36	284.37
429.73	286.43
430.10	288.44
430.47	290.48
430.85	292.60
431.22	294.83
431.59	297.22
431.96	299.54
432.33	302.01
432.70	304.37
433.08	307.13
433.45	309.83
433.82	312.43
434.19	315.37
434.56	318.19
434.93	320.81
435.30	323.45
435.68	326.37
436.05	329.21
436.42	331.99
436.79	334.46
437.16	337.18
437.53	340.07
437.90	342.89
438.27	345.69
438.64	348.54
439.01	351.17
439.38	353.43
439.75	355.59
440.13	358.11
440.50	360.47
440.87	362.34
441.24	364.27
441.61	366.40
441.98	367.91
442.35	369.72
442.72	371.62
443.09	373.44
443.46	374.43
443.83	375.04
444.20	375.53
444.57	376.39
444.94	376.69
445.31	377.00
445.68	377.34
446.05	377.38
446.42	376.98
446.79	376.53
447.16	376.02
447.53	375.70
447.90	374.55
448.27	373.38
448.64	371.82
449.01	370.67
449.37	368.72
449.74	366.80
450.11	364.52
450.48	362.01
450.85	359.43
451.22	357.26
451.59	355.18
451.96	353.21
452.33	350.61
452.70	348.24
453.07	345.39
453.43	342.49
453.80	339.72
454.17	337.04
454.54	334.51
454.91	331.82
455.28	329.12
455.65	326.61
456.02	324.17
456.38	322.01
456.75	319.34
457.12	317.11
457.49	314.85
457.86	312.70
458.23	310.86
458.59	308.85
458.96	306.79
459.33	304.98
459.70	303.13
460.07	301.59
460.43	299.87
460.80	298.22
461.17	296.78
461.54	295.33
461.91	293.90
462.27	292.44
462.64	291.21
463.01	289.84
463.38	288.56
463.74	287.20
464.11	286.02
464.48	285.04
464.85	283.91
465.21	283.05
465.58	282.09
465.95	281.03
466.32	280.10
466.68	279.16
467.05	278.27
467.42	277.39
467.78	276.45
468.15	275.55
468.52	274.90
468.88	274.03
469.25	273.20
469.62	272.52
469.98	271.84
470.35	271.17
470.72	270.59
471.08	269.91
471.45	269.33
471.82	268.75
472.18	268.07
472.55	267.60
472.92	267.11
473.28	266.62
473.65	266.10
474.02	265.64
474.38	265.25
474.75	264.86
475.11	264.49
475.48	264.21
475.85	263.95
476.21	263.69
476.58	263.48
476.94	263.34
477.31	263.21
477.67	263.06
478.04	262.96
478.41	262.85
478.77	262.88
479.14	262.78
479.50	262.78
479.87	262.90
480.23	263.00
480.60	263.00
480.96	263.10
481.33	263.29
481.69	263.50
482.06	263.67
482.42	263.87
482.79	264.14
483.15	264.46
483.52	264.85
483.88	265.19
484.25	265.56
484.61	265.97
484.98	266.42
485.34	266.94
485.71	267.51
486.07	268.14
486.44	268.71
486.80	269.43
487.17	270.18
487.53	270.95
487.90	271.78
488.26	272.74
488.62	273.72
488.99	274.72
489.35	275.74
489.72	276.90
490.08	278.12
490.44	279.36
490.81	280.68
491.17	282.04
491.54	283.55
491.90	285.10
492.26	286.76
492.63	288.47
492.99	290.28
493.36	292.17
493.72	294.21
494.08	296.29
494.45	298.57
494.81	300.94
495.17	303.41
495.54	305.98
495.90	308.63
496.26	311.42
496.63	314.40
496.99	317.52
497.35	320.79
497.72	324.16
498.08	327.68
498.44	331.30
498.80	335.22
499.17	339.23
499.53	343.42
499.89	347.77
500.26	352.29
500.62	356.94
500.98	361.89
501.34	366.95
501.71	372.24
502.07	377.65
502.43	383.27
502.79	389.06
503.16	395.09
503.52	401.37
503.88	407.82
504.24	414.41
504.60	421.28
504.97	428.35
505.33	435.70
505.69	443.41
506.05	451.23
506.41	459.10
506.78	467.24
507.14	475.69
507.50	484.34
507.86	493.31
508.22	502.48
508.59	511.71
508.95	521.37
509.31	531.22
509.67	541.31
510.03	551.58
510.39	562.12
510.75	572.98
511.12	583.91
511.48	595.14
511.84	606.65
512.20	618.15
512.56	630.09
512.92	642.26
513.28	654.54
513.64	667.14
514.00	679.85
514.37	692.80
514.73	705.88
515.09	719.02
515.45	732.39
515.81	746.02
516.17	759.94
516.53	773.98
516.89	788.18
517.25	802.37
517.61	816.78
517.97	831.34
518.33	845.76
518.69	860.58
519.05	875.67
519.41	890.84
519.77	906.46
520.13	921.97
520.49	937.36
520.85	952.85
521.21	968.50
521.57	984.72
521.93	1000.50
522.29	1017.02
522.65	1033.34
523.01	1049.57
523.37	1065.61
523.73	1081.83
524.09	1098.08
524.45	1114.45
524.81	1131.07
525.17	1148.01
525.53	1164.92
525.89	1181.82
526.25	1198.77
526.61	1215.27
526.97	1232.09
527.33	1248.56
527.68	1265.40
528.04	1282.02
528.40	1298.78
528.76	1315.90
529.12	1332.46
529.48	1349.48
529.84	1365.51
530.20	1382.17
530.56	1399.31
530.91	1416.84
531.27	1433.63
531.63	1450.05
531.99	1466.65
532.35	1482.72
532.71	1498.67
533.07	1514.96
533.42	1530.99
533.78	1546.90
534.14	1563.30
534.50	1578.74
534.86	1594.76
535.21	1609.91
535.57	1625.94
535.93	1641.48
536.29	1656.42
536.65	1671.82
537.00	1686.77
537.36	1702.11
537.72	1716.76
538.08	1731.11
538.44	1745.06
538.79	1759.22
539.15	1772.98
539.51	1786.91
539.87	1801.50
540.22	1815.25
540.58	1829.08
540.94	1842.49
541.29	1855.71
541.65	1868.51
542.01	1881.83
542.37	1894.14
542.72	1906.59
543.08	1918.38
543.44	1930.84
543.79	1942.17
544.15	1953.14
544.51	1964.66
544.87	1975.69
545.22	1986.64
545.58	1996.87
545.94	2006.64
546.29	2016.49
546.65	2026.53
547.01	2035.80
547.36	2044.55
547.72	2053.22
548.07	2061.18
548.43	2069.53
548.79	2077.51
549.14	2084.87
549.50	2092.28
549.86	2100.12
550.21	2107.50
550.57	2114.79
550.92	2121.38
551.28	2128.53
551.64	2135.56
551.99	2142.13
552.35	2148.26
552.70	2154.27
553.06	2160.36
553.41	2166.65
553.77	2172.60
554.13	2178.50
554.48	2184.57
554.84	2189.80
555.19	2195.02
555.55	2200.00
555.90	2204.30
556.26	2209.03
556.61	2213.80
556.97	2217.93
557.32	2222.00
557.68	2226.05
558.03	2230.28
558.39	2234.04
558.74	2238.53
559.10	2242.37
559.45	2246.04
559.81	2250.36
560.16	2254.07
560.52	2257.22
560.87	2260.68
561.23	2263.24
561.58	2266.39
561.94	2268.93
562.29	2271.42
562.64	2274.13
563.00	2276.79
563.35	2280.31
563.71	2283.51
564.06	2286.65
564.42	2289.52
564.77	2291.91
565.12	2294.08
565.48	2295.72
565.83	2297.44
566.19	2298.62
566.54	2299.56
566.89	2300.64
567.25	2301.04
567.60	2302.39
567.96	2304.02
568.31	2304.78
568.66	2305.83
569.02	2306.17
569.37	2306.38
569.72	2307.24
570.08	2307.17
570.43	2307.13
570.78	2306.37
571.14	2304.78
571.49	2303.47
571.84	2302.97
572.20	2301.85
572.55	2300.76
572.90	2299.30
573.26	2297.80
573.61	2296.11
573.96	2294.18
574.31	2291.03
574.67	2288.08
575.02	2284.37
575.37	2280.87
575.72	2276.81
576.08	2273.52
576.43	2270.08
576.78	2266.19
577.13	2262.82
577.49	2259.74
577.84	2256.18
578.19	2252.38
578.54	2248.60
578.90	2244.17
579.25	2238.50
579.60	2233.28
579.95	2228.16
580.30	2222.98
580.66	2217.76
581.01	2212.73
581.36	2207.71
581.71	2203.28
582.06	2198.56
582.42	2193.94
582.77	2188.70
583.12	2184.04
583.47	2179.05
583.82	2173.89
584.17	2168.78
584.53	2163.07
584.88	2157.19
585.23	2151.09
585.58	2145.55
585.93	2140.06
586.28	2135.33
586.63	2130.34
586.98	2125.24
587.34	2120.44
587.69	2115.42
588.04	2110.00
588.39	2104.13
588.74	2097.55
589.09	2091.41
589.44	2084.67
589.79	2078.59
590.14	2072.85
590.49	2066.20
590.84	2059.90
591.19	2053.79
591.54	2047.18
591.89	2039.70
592.25	2032.81
592.60	2025.73
592.95	2017.92
593.30	2010.42
593.65	2002.52
594.00	1995.41
594.35	1988.02
594.70	1980.02
595.05	1972.72
595.40	1965.25
595.75	1957.67
596.10	1951.47
596.45	1944.63
596.80	1938.43
597.15	1931.66
597.50	1924.48
597.85	1918.11
598.19	1911.23
598.54	1904.19
598.89	1897.49
599.24	1891.57
599.59	1884.95
599.94	1878.59
600.29	1872.26
600.64	1865.68
600.99	1858.21
601.34	1851.07
601.69	1844.15
602.04	1837.15
602.39	1829.80
602.74	1823.11
603.08	1816.46
603.43	1809.56
603.78	1802.26
604.13	1794.81
604.48	1787.47
604.83	1780.71
605.18	1773.56
605.53	1765.46
605.87	1757.39
606.22	1750.13
606.57	1742.25
606.92	1734.77
607.27	1727.66
607.62	1720.80
607.96	1713.39
608.31	1706.71
608.66	1699.21
609.01	1691.56
609.36	1684.09
609.70	1676.08
610.05	1667.91
610.40	1660.17
610.75	1651.85
611.10	1644.05
611.44	1635.91
611.79	1627.98
612.14	1619.23
612.49	1610.18
612.83	1601.99
613.18	1593.85
613.53	1585.68
613.88	1577.11
614.22	1568.85
614.57	1560.29
614.92	1552.10
615.27	1544.61
615.61	1536.41
615.96	1528.44
616.31	1520.94
616.65	1513.35
617.00	1505.84
617.35	1498.18
617.70	1489.77
618.04	1481.18
618.39	1473.07
618.74	1465.39
619.08	1457.09
619.43	1449.44
619.78	1442.57
620.12	1435.39
620.47	1427.88
620.82	1419.72
621.16	1412.25
621.51	1404.66
621.85	1397.07
622.20	1388.71
622.55	1380.42
622.89	1372.61
623.24	1364.95
623.59	1357.58
623.93	1350.21
624.28	1342.91
624.62	1335.44
624.97	1328.29
625.32	1321.66
625.66	1314.59
626.01	1307.37
626.35	1299.91
626.70	1292.17
627.04	1284.39
627.39	1276.67
627.73	1269.15
628.08	1262.28
628.43	1255.01
628.77	1247.61
629.12	1240.00
629.46	1232.78
629.81	1225.32
630.15	1218.02
630.50	1210.72
630.84	1202.50
631.19	1194.58
631.53	1187.18
631.88	1179.59
632.22	1171.96
632.57	1164.63
632.91	1157.18
633.26	1149.78
633.60	1142.47
633.95	1135.47
634.29	1128.45
634.64	1121.74
634.98	1114.50
635.32	1107.39
635.67	1100.91
636.01	1094.32
636.36	1087.50
636.70	1081.01
637.05	1074.47
637.39	1068.03
637.73	1061.43
638.08	1055.52
638.42	1049.58
638.77	1043.05
639.11	1036.52
639.45	1030.15
639.80	1023.53
640.14	1017.09
640.49	1010.53
640.83	1004.20
641.17	997.93
641.52	991.67
641.86	985.24
642.20	979.48
642.55	973.22
642.89	966.68
643.23	960.16
643.58	954.46
643.92	948.30
644.26	942.20
644.61	936.26
644.95	930.29
645.29	923.75
645.64	916.95
645.98	910.68
646.32	904.90
646.66	898.95
647.01	893.20
647.35	887.52
647.69	881.73
648.04	876.27
648.38	870.50
648.72	864.44
649.06	858.40
649.41	852.48
649.75	846.45
650.09	840.63
650.43	834.89
650.78	828.76
651.12	822.84
651.46	817.08
651.80	811.33
652.14	805.93
652.49	800.52
652.83	795.42
653.17	789.71
653.51	783.91
653.85	778.52
654.20	772.94
654.54	766.97
654.88	761.31
655.22	755.47
655.56	749.82
655.90	744.41
656.25	739.17
656.59	733.79
656.93	728.71
657.27	723.49
657.61	718.08
657.95	712.94
658.29	707.81
658.64	702.66
658.98	697.38
659.32	691.91
659.66	686.78
660.00	681.42
660.34	676.43
660.68	671.55
661.02	666.51
661.36	661.76
661.70	657.31
662.05	652.93
662.39	648.57
662.73	644.11
663.07	639.80
663.41	635.38
663.75	630.85
664.09	626.31
664.43	621.98
664.77	617.83
665.11	613.55
665.45	609.51
665.79	605.39
666.13	601.21
666.47	597.19
666.81	593.00
667.15	588.93
667.49	585.15
667.83	581.39
668.17	577.47
668.51	573.44
668.85	569.41
669.19	565.58
669.53	561.74
669.87	557.92
670.21	554.25
670.55	550.64
670.89	547.31
671.23	543.91
671.57	540.35
671.91	536.85
672.25	533.45
672.58	529.99
672.92	526.69
673.26	523.63
673.60	520.49
673.94	517.39
674.28	514.47
674.62	511.56
674.96	508.37
675.30	505.48
675.64	502.51
675.97	499.77
676.31	496.91
676.65	494.03
676.99	491.26
677.33	488.35
677.67	485.53
678.01	482.52
678.34	479.48
678.68	476.65
679.02	473.84
679.36	471.08
679.70	468.35
680.04	465.53
680.37	462.56
680.71	459.71
681.05	457.11
681.39	454.45
681.73	451.76
682.06	449.30
682.40	446.76
682.74	444.27
683.08	441.74
683.42	439.16
683.75	436.61
684.09	434.11
684.43	431.69
684.77	429.19
685.10	426.81
685.44	424.57
685.78	422.27
686.12	420.07
686.45	417.77
686.79	415.45
687.13	413.29
687.46	411.18
687.80	409.11
688.14	406.93
688.48	404.85
688.81	402.60
689.15	400.45
689.49	398.28
689.82	396.19
690.16	394.12
690.50	392.15
690.83	390.25
691.17	388.27
691.51	386.32
691.84	384.51
692.18	382.61
692.52	380.64
692.85	378.73
693.19	376.81
693.52	375.04
693.86	373.23
694.20	371.46
694.53	369.67
694.87	367.81
695.21	366.07
695.54	364.22
695.88	362.55
696.21	360.84
696.55	359.20
696.88	357.57
697.22	355.93
697.56	354.35
697.89	352.70
698.23	351.06
698.56	349.50
698.90	347.89
699.23	346.19
699.57	344.65
699.90	343.16
700.24	341.68
700.58	340.11
700.91	338.60
701.25	337.17
701.58	335.78
701.92	334.41
702.25	333.00
702.59	331.64
702.92	330.31
703.26	329.03
703.59	327.76
703.93	326.54
704.26	325.28
704.60	324.02
704.93	322.76
705.26	321.53
705.60	320.38
705.93	319.22
706.27	318.22
706.60	317.17
706.94	316.07
707.27	314.92
707.61	313.89
707.94	312.93
708.27	311.84
708.61	310.78
708.94	309.79
709.28	308.85
709.61	307.91
709.94	306.97
710.28	305.97
710.61	305.01
710.95	303.94
711.28	303.03
711.61	302.06
711.95	301.13
712.28	300.19
712.61	299.22
712.95	298.30
713.28	297.44
713.61	296.53
713.95	295.63
714.28	294.83
714.61	293.95
714.95	293.08
715.28	292.24
715.61	291.40
715.95	290.55
716.28	289.67
716.61	288.88
716.95	288.10
717.28	287.35
717.61	286.60
717.94	285.84
718.28	285.04
718.61	284.31
718.94	283.66
719.27	283.01
719.61	282.33
719.94	281.69
720.27	280.97
720.60	280.32
720.94	279.69
721.27	279.08
721.60	278.51
721.93	277.92
722.27	277.36
722.60	276.80
722.93	276.20
723.26	275.64
723.59	275.05
723.93	274.48
724.26	273.90
724.59	273.31
724.92	272.81
725.25	272.33
725.59	271.82
725.92	271.28
726.25	270.80
726.58	270.33
726.91	269.82
727.24	269.34
727.57	268.89
727.91	268.37
728.24	267.88
728.57	267.38
728.90	266.93
729.23	266.43
729.56	265.97
729.89	265.53
730.22	265.04
730.55	264.55
730.89	264.11
731.22	263.68
731.55	263.26
731.88	262.84
732.21	262.39
732.54	261.94
732.87	261.53
733.20	261.11
733.53	260.70
733.86	260.34
734.19	259.97
734.52	259.58
734.85	259.29
735.18	258.88
735.51	258.52
735.84	258.14
736.17	257.79
736.50	257.42
736.83	257.19
737.16	256.85
737.49	256.51
737.82	256.18
738.15	255.86
738.48	255.52
738.81	255.23
739.14	254.93
739.47	254.61
739.80	254.29
740.13	254.00
740.46	253.70
740.79	253.35
741.12	253.05
741.45	252.74
741.78	252.38
742.11	252.11
742.44	251.80
742.77	251.52
743.10	251.22
743.43	250.94
743.75	250.58
744.08	250.49
744.41	250.28
744.74	249.98
745.07	249.69
745.40	249.49
745.73	249.25
746.06	248.99
746.39	248.77
746.71	248.50
747.04	248.23
747.37	247.98
747.70	247.75
748.03	247.50
748.36	247.30
748.68	247.09
749.01	246.83
749.34	246.62
749.67	246.40
750.00	246.21
750.33	246.07
750.65	245.81
750.98	245.45
751.31	245.23
751.64	245.04
751.97	244.90
752.29	244.67
752.62	244.44
752.95	244.21
753.28	244.01
753.60	243.84
753.93	243.66
754.26	243.49
754.59	243.26
754.91	243.04
755.24	242.81
755.57	242.62
755.90	242.46
756.22	242.26
756.55	242.07
756.88	241.86
757.20	241.58
757.53	241.41
757.86	241.24
758.19	241.08
758.51	240.90
758.84	240.70
759.17	240.53
759.49	240.34
759.82	240.22
760.15	240.07
760.47	239.88
760.80	239.72
761.13	239.56
761.45	239.39
761.78	239.24
762.11	239.10
762.43	238.92
762.76	238.74
763.08	238.60
763.41	238.45
763.74	238.30
764.06	238.18
764.39	238.00
764.71	237.84
765.04	237.68
765.37	237.55
765.69	237.40
766.02	237.22
766.34	237.09
766.67	236.92
767.00	236.79
767.32	236.73
767.65	236.65
767.97	236.50
768.30	236.42
768.62	236.31
768.95	236.19
769.27	236.10
769.60	236.03
769.92	235.92
770.25	235.80
770.57	235.68
770.90	235.57
771.22	235.48
771.55	235.39
771.87	235.28
772.20	235.19
772.52	235.18
772.85	235.22
773.17	235.14
773.50	235.05
773.82	234.93
774.15	234.80
774.47	234.61
774.80	234.55
775.12	234.44
775.45	234.36
775.77	234.27
776.09	234.20
776.42	234.08
776.74	234.01
777.07	233.96
777.39	233.94
777.72	233.85
778.04	233.80
778.36	233.74
778.69	233.67
779.01	233.60
779.33	233.45
779.66	233.27
779.98	233.20
780.31	233.13
780.63	233.11
780.95	233.07
781.28	233.05
781.60	233.00
781.92	232.96
782.25	232.91
782.57	232.87
782.89	232.81
783.22	232.74
783.54	232.70
783.86	232.64
784.19	232.53
784.51	232.54
784.83	232.48
785.16	232.41
785.48	232.39
785.80	232.35
786.12	232.34
786.45	232.28
786.77	232.25
787.09	232.22
