SpectraSuite Data File
++++++++++++++++++++++++++++++++++++
Date: Fri Feb 01 15:09:02 EST 2013
User: group
Dark Spectrum Present: No
Reference Spectrum Present: No
Number of Sampled Component Spectra: 1
Spectrometers: USB2E7196
Integration Time (usec): 35000 (USB2E7196)
Spectra Averaged: 100 (USB2E7196)
Boxcar Smoothing: 10 (USB2E7196)
Correct for Electrical Dark: No (USB2E7196)
Strobe/Lamp Enabled: No (USB2E7196)
Correct for Detector Non-linearity: No (USB2E7196)
Correct for Stray Light: No (USB2E7196)
Number of Pixels in Processed Spectrum: 2048
>>>>>Begin Processed Spectral Data<<<<<
339.09	0.00
339.48	215.55
339.86	216.28
340.24	218.03
340.63	219.92
341.01	222.09
341.39	221.85
341.78	223.07
342.16	224.88
342.54	225.02
342.93	213.62
343.31	224.41
343.69	224.94
344.07	225.43
344.46	225.88
344.84	226.23
345.22	226.50
345.60	226.77
345.99	226.98
346.37	227.11
346.75	227.23
347.13	227.33
347.52	227.36
347.90	227.45
348.28	227.46
348.66	227.47
349.05	227.45
349.43	227.50
349.81	227.54
350.19	227.62
350.57	227.66
350.96	227.73
351.34	227.81
351.72	227.89
352.10	228.00
352.48	228.04
352.87	228.10
353.25	228.15
353.63	228.20
354.01	228.26
354.39	228.32
354.77	228.40
355.15	228.47
355.54	228.54
355.92	228.59
356.30	228.66
356.68	228.80
357.06	228.88
357.44	228.89
357.82	228.92
358.20	228.96
358.58	229.01
358.97	229.05
359.35	229.13
359.73	229.18
360.11	229.21
360.49	229.27
360.87	229.28
361.25	229.32
361.63	229.38
362.01	229.40
362.39	229.39
362.77	229.41
363.15	229.42
363.53	229.43
363.91	229.44
364.29	229.43
364.67	229.36
365.05	229.34
365.43	229.38
365.81	229.40
366.19	229.40
366.57	229.45
366.95	229.42
367.33	229.38
367.71	229.37
368.09	229.37
368.47	229.33
368.85	229.33
369.23	229.31
369.61	229.22
369.99	229.23
370.37	229.23
370.75	229.23
371.13	229.15
371.51	229.09
371.89	229.00
372.27	228.97
372.65	228.89
373.03	228.84
373.41	228.79
373.78	228.71
374.16	228.62
374.54	228.48
374.92	228.42
375.30	228.36
375.68	228.26
376.06	228.19
376.44	228.11
376.82	228.03
377.19	227.95
377.57	227.90
377.95	227.79
378.33	227.70
378.71	227.56
379.09	227.49
379.47	227.45
379.84	227.38
380.22	227.34
380.60	227.25
380.98	227.16
381.36	227.07
381.73	227.01
382.11	226.98
382.49	226.92
382.87	226.85
383.25	226.78
383.62	226.81
384.00	226.72
384.38	226.67
384.76	226.63
385.13	226.62
385.51	226.57
385.89	226.52
386.27	226.47
386.64	226.45
387.02	226.42
387.40	226.38
387.78	226.36
388.15	226.31
388.53	226.29
388.91	226.29
389.29	226.25
389.66	226.23
390.04	226.17
390.42	226.20
390.79	226.16
391.17	226.16
391.55	226.05
391.92	226.07
392.30	226.10
392.68	226.10
393.05	226.09
393.43	226.11
393.81	226.15
394.18	226.16
394.56	226.18
394.94	226.22
395.31	226.24
395.69	226.33
396.06	226.36
396.44	226.44
396.82	226.47
397.19	226.58
397.57	226.63
397.95	226.74
398.32	226.76
398.70	226.85
399.07	226.92
399.45	227.01
399.82	227.07
400.20	227.14
400.58	227.25
400.95	227.31
401.33	227.44
401.70	227.60
402.08	227.71
402.45	227.79
402.83	227.95
403.20	228.06
403.58	228.18
403.95	228.34
404.33	228.45
404.71	228.60
405.08	228.78
405.46	228.93
405.83	229.04
406.21	229.23
406.58	229.42
406.96	229.60
407.33	229.79
407.70	230.00
408.08	230.30
408.45	230.51
408.83	230.76
409.20	230.97
409.58	231.12
409.95	231.40
410.33	231.73
410.70	231.95
411.08	232.25
411.45	232.56
411.82	232.89
412.20	233.23
412.57	233.65
412.95	233.95
413.32	234.38
413.69	234.83
414.07	235.26
414.44	235.75
414.82	236.22
415.19	236.79
415.56	237.33
415.94	237.85
416.31	238.49
416.68	239.11
417.06	239.81
417.43	240.55
417.81	241.32
418.18	242.07
418.55	242.91
418.93	243.79
419.30	244.69
419.67	245.59
420.04	246.51
420.42	247.50
420.79	248.70
421.16	249.84
421.54	251.01
421.91	252.22
422.28	253.44
422.66	254.77
423.03	256.05
423.40	257.40
423.77	258.82
424.15	260.23
424.52	261.77
424.89	263.37
425.26	264.88
425.64	266.32
426.01	267.93
426.38	269.58
426.75	271.24
427.13	272.95
427.50	274.77
427.87	276.72
428.24	278.54
428.61	280.27
428.99	282.19
429.36	284.32
429.73	286.37
430.10	288.39
430.47	290.46
430.85	292.57
431.22	294.79
431.59	297.15
431.96	299.42
432.33	301.81
432.70	304.21
433.08	307.04
433.45	309.68
433.82	312.28
434.19	315.16
434.56	318.03
434.93	320.70
435.30	323.29
435.68	326.16
436.05	329.01
436.42	331.81
436.79	334.31
437.16	337.01
437.53	339.86
437.90	342.71
438.27	345.42
438.64	348.26
439.01	350.85
439.38	353.14
439.75	355.27
440.13	357.78
440.50	360.12
440.87	361.97
441.24	363.91
441.61	366.08
441.98	367.57
442.35	369.34
442.72	371.20
443.09	373.05
443.46	374.06
443.83	374.66
444.20	375.19
444.57	376.11
444.94	376.35
445.31	376.67
445.68	377.01
446.05	377.13
446.42	376.69
446.79	376.29
447.16	375.83
447.53	375.59
447.90	374.46
448.27	373.28
448.64	371.70
449.01	370.58
449.37	368.60
449.74	366.74
450.11	364.49
450.48	362.03
450.85	359.53
451.22	357.41
451.59	355.37
451.96	353.43
452.33	350.80
452.70	348.42
453.07	345.59
453.43	342.69
453.80	339.92
454.17	337.35
454.54	334.81
454.91	332.07
455.28	329.30
455.65	326.77
456.02	324.35
456.38	322.17
456.75	319.49
457.12	317.23
457.49	314.97
457.86	312.78
458.23	310.86
458.59	308.78
458.96	306.71
459.33	304.87
459.70	302.99
460.07	301.43
460.43	299.74
460.80	298.13
461.17	296.68
461.54	295.18
461.91	293.73
462.27	292.25
462.64	291.01
463.01	289.68
463.38	288.41
463.74	287.04
464.11	285.88
464.48	284.86
464.85	283.75
465.21	282.87
465.58	281.94
465.95	280.88
466.32	279.93
466.68	279.00
467.05	278.08
467.42	277.17
467.78	276.27
468.15	275.41
468.52	274.72
468.88	273.86
469.25	273.05
469.62	272.39
469.98	271.72
470.35	271.07
470.72	270.48
471.08	269.82
471.45	269.23
471.82	268.62
472.18	268.01
472.55	267.56
472.92	267.04
473.28	266.55
473.65	266.06
474.02	265.61
474.38	265.24
474.75	264.90
475.11	264.51
475.48	264.18
475.85	263.93
476.21	263.69
476.58	263.50
476.94	263.35
477.31	263.17
477.67	263.03
478.04	262.91
478.41	262.82
478.77	262.83
479.14	262.77
479.50	262.82
479.87	262.87
480.23	262.93
480.60	262.98
480.96	263.07
481.33	263.26
481.69	263.50
482.06	263.64
482.42	263.81
482.79	264.11
483.15	264.46
483.52	264.82
483.88	265.16
484.25	265.55
484.61	265.97
484.98	266.40
485.34	266.95
485.71	267.53
486.07	268.18
486.44	268.75
486.80	269.45
487.17	270.16
487.53	271.02
487.90	271.85
488.26	272.77
488.62	273.76
488.99	274.74
489.35	275.72
489.72	276.86
490.08	278.07
490.44	279.24
490.81	280.55
491.17	281.91
491.54	283.38
491.90	284.92
492.26	286.53
492.63	288.28
492.99	290.02
493.36	291.88
493.72	293.91
494.08	295.97
494.45	298.21
494.81	300.57
495.17	302.96
495.54	305.59
495.90	308.29
496.26	311.08
496.63	314.01
496.99	317.14
497.35	320.40
497.72	323.79
498.08	327.37
498.44	331.05
498.80	334.97
499.17	339.03
499.53	343.19
499.89	347.58
500.26	352.06
500.62	356.76
500.98	361.72
501.34	366.74
501.71	372.11
502.07	377.52
502.43	383.12
502.79	388.91
503.16	394.99
503.52	401.27
503.88	407.69
504.24	414.33
504.60	421.23
504.97	428.34
505.33	435.71
505.69	443.37
506.05	451.14
506.41	459.01
506.78	467.16
507.14	475.54
507.50	484.24
507.86	493.23
508.22	502.44
508.59	511.55
508.95	521.09
509.31	530.86
509.67	540.94
510.03	551.23
510.39	561.85
510.75	572.68
511.12	583.59
511.48	594.85
511.84	606.36
512.20	617.87
512.56	629.83
512.92	641.93
513.28	654.23
513.64	666.70
514.00	679.44
514.37	692.26
514.73	705.38
515.09	718.40
515.45	731.69
515.81	745.28
516.17	759.37
516.53	773.56
516.89	787.76
517.25	802.03
517.61	816.45
517.97	830.94
518.33	845.24
518.69	859.87
519.05	874.89
519.41	889.95
519.77	905.52
520.13	920.98
520.49	936.47
520.85	951.95
521.21	967.78
521.57	983.95
521.93	999.80
522.29	1016.16
522.65	1032.44
523.01	1048.80
523.37	1064.85
523.73	1081.07
524.09	1097.19
524.45	1113.59
524.81	1130.30
525.17	1147.25
525.53	1164.12
525.89	1181.10
526.25	1198.05
526.61	1214.45
526.97	1231.24
527.33	1247.80
527.68	1264.45
528.04	1280.87
528.40	1297.54
528.76	1314.58
529.12	1331.29
529.48	1348.18
529.84	1364.46
530.20	1381.22
530.56	1398.29
530.91	1415.67
531.27	1432.57
531.63	1449.13
531.99	1465.77
532.35	1481.77
532.71	1497.65
533.07	1513.93
533.42	1529.93
533.78	1546.14
534.14	1562.58
534.50	1577.95
534.86	1593.83
535.21	1609.14
535.57	1625.27
535.93	1640.84
536.29	1655.77
536.65	1670.95
537.00	1686.01
537.36	1701.23
537.72	1715.74
538.08	1730.19
538.44	1744.13
538.79	1757.99
539.15	1771.79
539.51	1785.59
539.87	1800.02
540.22	1813.89
540.58	1827.83
540.94	1841.34
541.29	1854.38
541.65	1867.15
542.01	1880.58
542.37	1893.04
542.72	1905.53
543.08	1917.30
543.44	1929.76
543.79	1941.07
544.15	1952.16
544.51	1963.68
544.87	1974.90
545.22	1985.81
545.58	1995.98
545.94	2005.84
546.29	2015.78
546.65	2025.62
547.01	2034.82
547.36	2043.61
547.72	2052.15
548.07	2060.03
548.43	2068.36
548.79	2076.45
549.14	2083.94
549.50	2091.31
549.86	2099.11
550.21	2106.48
550.57	2113.73
550.92	2120.38
551.28	2127.42
551.64	2134.42
551.99	2140.94
552.35	2146.93
552.70	2153.10
553.06	2159.14
553.41	2165.51
553.77	2171.65
554.13	2177.78
554.48	2183.89
554.84	2189.22
555.19	2194.60
555.55	2199.70
555.90	2203.88
556.26	2208.71
556.61	2213.48
556.97	2217.67
557.32	2221.68
557.68	2225.75
558.03	2229.92
558.39	2233.65
558.74	2238.30
559.10	2242.02
559.45	2245.66
559.81	2250.00
560.16	2253.79
560.52	2256.95
560.87	2260.30
561.23	2262.79
561.58	2265.70
561.94	2268.24
562.29	2270.81
562.64	2273.30
563.00	2275.88
563.35	2279.35
563.71	2282.40
564.06	2285.51
564.42	2288.43
564.77	2290.75
565.12	2292.91
565.48	2294.75
565.83	2296.45
566.19	2297.57
566.54	2298.47
566.89	2299.65
567.25	2300.14
567.60	2301.36
567.96	2302.98
568.31	2303.72
568.66	2304.68
569.02	2305.01
569.37	2305.22
569.72	2305.71
570.08	2305.72
570.43	2305.55
570.78	2304.88
571.14	2303.07
571.49	2301.80
571.84	2301.28
572.20	2300.14
572.55	2299.18
572.90	2297.66
573.26	2296.14
573.61	2294.39
573.96	2292.54
574.31	2289.21
574.67	2286.02
575.02	2282.33
575.37	2278.80
575.72	2274.88
576.08	2271.44
576.43	2268.13
576.78	2264.40
577.13	2261.29
577.49	2258.14
577.84	2254.64
578.19	2250.86
578.54	2247.12
578.90	2242.58
579.25	2236.95
579.60	2231.72
579.95	2226.53
580.30	2221.31
580.66	2216.10
581.01	2211.02
581.36	2206.09
581.71	2201.94
582.06	2197.30
582.42	2192.59
582.77	2187.31
583.12	2182.58
583.47	2177.71
583.82	2172.49
584.17	2167.08
584.53	2161.38
584.88	2155.52
585.23	2149.55
585.58	2143.97
585.93	2138.42
586.28	2133.59
586.63	2128.40
586.98	2123.38
587.34	2118.46
587.69	2113.49
588.04	2108.07
588.39	2102.12
588.74	2095.56
589.09	2089.27
589.44	2082.43
589.79	2076.36
590.14	2070.71
590.49	2064.10
590.84	2057.65
591.19	2051.51
591.54	2045.01
591.89	2037.37
592.25	2030.53
592.60	2023.27
592.95	2015.43
593.30	2008.05
593.65	2000.32
594.00	1993.12
594.35	1985.82
594.70	1977.76
595.05	1970.32
595.40	1963.01
595.75	1955.50
596.10	1949.04
596.45	1942.21
596.80	1935.95
597.15	1929.25
597.50	1921.98
597.85	1915.58
598.19	1908.94
598.54	1901.94
598.89	1895.27
599.24	1889.52
599.59	1882.73
599.94	1876.54
600.29	1870.25
600.64	1863.71
600.99	1856.25
601.34	1849.50
601.69	1842.41
602.04	1835.25
602.39	1828.01
602.74	1821.05
603.08	1814.42
603.43	1807.71
603.78	1800.43
604.13	1793.25
604.48	1785.89
604.83	1779.14
605.18	1771.93
605.53	1763.95
605.87	1755.88
606.22	1748.63
606.57	1740.57
606.92	1733.21
607.27	1725.89
607.62	1719.03
607.96	1711.65
608.31	1704.98
608.66	1697.25
609.01	1689.66
609.36	1682.26
609.70	1674.19
610.05	1666.13
610.40	1658.44
610.75	1650.14
611.10	1642.46
611.44	1634.10
611.79	1626.15
612.14	1617.32
612.49	1608.23
612.83	1599.83
613.18	1591.81
613.53	1583.63
613.88	1575.19
614.22	1566.96
614.57	1558.46
614.92	1550.36
615.27	1542.83
615.61	1534.60
615.96	1526.60
616.31	1518.96
616.65	1511.53
617.00	1503.93
617.35	1496.35
617.70	1487.98
618.04	1479.42
618.39	1471.17
618.74	1463.52
619.08	1455.26
619.43	1447.79
619.78	1440.92
620.12	1433.74
620.47	1426.06
620.82	1417.94
621.16	1410.61
621.51	1403.12
621.85	1395.50
622.20	1387.03
622.55	1378.71
622.89	1370.87
623.24	1363.29
623.59	1356.05
623.93	1348.56
624.28	1341.45
624.62	1333.93
624.97	1326.69
625.32	1320.04
625.66	1313.11
626.01	1305.96
626.35	1298.45
626.70	1290.74
627.04	1282.98
627.39	1275.26
627.73	1267.96
628.08	1261.08
628.43	1253.61
628.77	1246.15
629.12	1238.61
629.46	1231.37
629.81	1224.03
630.15	1216.80
630.50	1209.46
630.84	1201.24
631.19	1193.48
631.53	1186.03
631.88	1178.56
632.22	1171.07
632.57	1163.73
632.91	1156.15
633.26	1148.81
633.60	1141.56
633.95	1134.50
634.29	1127.57
634.64	1120.90
634.98	1113.57
635.32	1106.49
635.67	1100.09
636.01	1093.53
636.36	1086.79
636.70	1080.43
637.05	1073.82
637.39	1067.36
637.73	1060.90
638.08	1055.03
638.42	1049.05
638.77	1042.57
639.11	1035.99
639.45	1029.71
639.80	1023.18
640.14	1016.74
640.49	1010.28
640.83	1003.99
641.17	997.69
641.52	991.41
641.86	985.09
642.20	979.31
642.55	972.97
642.89	966.48
643.23	960.02
643.58	954.29
643.92	948.01
644.26	941.93
644.61	935.96
644.95	929.87
645.29	923.33
645.64	916.53
645.98	910.24
646.32	904.42
646.66	898.28
647.01	892.46
647.35	886.76
647.69	880.93
648.04	875.49
648.38	869.78
648.72	863.76
649.06	857.68
649.41	851.79
649.75	845.81
650.09	839.87
650.43	834.03
650.78	827.93
651.12	822.04
651.46	816.36
651.80	810.56
652.14	805.17
652.49	799.82
652.83	794.66
653.17	788.95
653.51	783.12
653.85	777.75
654.20	772.09
654.54	766.18
654.88	760.47
655.22	754.56
655.56	748.89
655.90	743.39
656.25	738.05
656.59	732.73
656.93	727.70
657.27	722.55
657.61	717.09
657.95	711.95
658.29	706.84
658.64	701.62
658.98	696.32
659.32	690.84
659.66	685.68
660.00	680.37
660.34	675.49
660.68	670.70
661.02	665.71
661.36	661.00
661.70	656.51
662.05	652.07
662.39	647.71
662.73	643.19
663.07	638.88
663.41	634.51
663.75	629.96
664.09	625.41
664.43	621.06
664.77	616.97
665.11	612.75
665.45	608.71
665.79	604.71
666.13	600.67
666.47	596.68
666.81	592.49
667.15	588.41
667.49	584.57
667.83	580.77
668.17	576.83
668.51	572.81
668.85	568.80
669.19	565.06
669.53	561.27
669.87	557.45
670.21	553.81
670.55	550.17
670.89	546.80
671.23	543.39
671.57	539.88
671.91	536.41
672.25	532.90
672.58	529.38
672.92	525.98
673.26	522.84
673.60	519.72
673.94	516.66
674.28	513.77
674.62	510.78
674.96	507.70
675.30	504.86
675.64	501.97
675.97	499.31
676.31	496.45
676.65	493.54
676.99	490.86
677.33	488.00
677.67	485.19
678.01	482.16
678.34	479.22
678.68	476.40
679.02	473.62
679.36	470.90
679.70	468.20
680.04	465.46
680.37	462.58
680.71	459.78
681.05	457.18
681.39	454.54
681.73	451.91
682.06	449.40
682.40	446.87
682.74	444.35
683.08	441.78
683.42	439.18
683.75	436.69
684.09	434.23
684.43	431.78
684.77	429.34
685.10	427.02
685.44	424.74
685.78	422.42
686.12	420.21
686.45	417.93
686.79	415.66
687.13	413.49
687.46	411.36
687.80	409.27
688.14	407.08
688.48	405.04
688.81	402.79
689.15	400.63
689.49	398.49
689.82	396.44
690.16	394.34
690.50	392.42
690.83	390.52
691.17	388.50
691.51	386.64
691.84	384.85
692.18	382.88
692.52	380.88
692.85	378.97
693.19	377.08
693.52	375.30
693.86	373.49
694.20	371.70
694.53	369.93
694.87	368.05
695.21	366.27
695.54	364.43
695.88	362.70
696.21	360.98
696.55	359.30
696.88	357.60
697.22	355.97
697.56	354.38
697.89	352.70
698.23	351.13
698.56	349.43
698.90	347.75
699.23	346.14
699.57	344.57
699.90	343.04
700.24	341.45
700.58	339.86
700.91	338.35
701.25	336.88
701.58	335.48
701.92	334.14
702.25	332.77
702.59	331.38
702.92	330.04
703.26	328.77
703.59	327.46
703.93	326.28
704.26	325.03
704.60	323.71
704.93	322.43
705.26	321.16
705.60	320.05
705.93	318.89
706.27	317.85
706.60	316.78
706.94	315.71
707.27	314.61
707.61	313.53
707.94	312.51
708.27	311.44
708.61	310.37
708.94	309.38
709.28	308.43
709.61	307.49
709.94	306.56
710.28	305.51
710.61	304.51
710.95	303.46
711.28	302.59
711.61	301.65
711.95	300.79
712.28	299.83
712.61	298.84
712.95	297.94
713.28	297.09
713.61	296.25
713.95	295.38
714.28	294.59
714.61	293.72
714.95	292.91
715.28	292.07
715.61	291.19
715.95	290.31
716.28	289.41
716.61	288.59
716.95	287.84
717.28	287.14
717.61	286.41
717.94	285.64
718.28	284.77
718.61	284.01
718.94	283.28
719.27	282.63
719.61	282.03
719.94	281.39
720.27	280.70
720.60	280.01
720.94	279.39
721.27	278.77
721.60	278.21
721.93	277.62
722.27	277.04
722.60	276.52
722.93	275.98
723.26	275.50
723.59	274.92
723.93	274.34
724.26	273.79
724.59	273.27
724.92	272.79
725.25	272.34
725.59	271.85
725.92	271.38
726.25	270.89
726.58	270.40
726.91	269.89
727.24	269.41
727.57	268.98
727.91	268.45
728.24	267.98
728.57	267.51
728.90	267.08
729.23	266.61
729.56	266.18
729.89	265.71
730.22	265.19
730.55	264.74
730.89	264.28
731.22	263.83
731.55	263.36
731.88	262.90
732.21	262.48
732.54	262.06
732.87	261.64
733.20	261.22
733.53	260.84
733.86	260.47
734.19	260.08
734.52	259.70
734.85	259.41
735.18	259.01
735.51	258.65
735.84	258.26
736.17	257.93
736.50	257.52
736.83	257.28
737.16	256.96
737.49	256.63
737.82	256.33
738.15	256.01
738.48	255.72
738.81	255.42
739.14	255.08
739.47	254.73
739.80	254.43
740.13	254.14
740.46	253.77
740.79	253.45
741.12	253.09
741.45	252.76
741.78	252.41
742.11	252.11
742.44	251.76
742.77	251.46
743.10	251.12
743.43	250.80
743.75	250.39
744.08	250.28
744.41	250.00
744.74	249.68
745.07	249.39
745.40	249.11
745.73	248.88
746.06	248.63
746.39	248.41
746.71	248.12
747.04	247.81
747.37	247.56
747.70	247.31
748.03	247.07
748.36	246.83
748.68	246.58
749.01	246.32
749.34	246.12
749.67	245.87
750.00	245.70
750.33	245.56
750.65	245.35
750.98	244.98
751.31	244.77
751.64	244.58
751.97	244.44
752.29	244.25
752.62	243.97
752.95	243.74
753.28	243.52
753.60	243.34
753.93	243.19
754.26	243.00
754.59	242.75
754.91	242.55
755.24	242.38
755.57	242.21
755.90	242.07
756.22	241.90
756.55	241.74
756.88	241.50
757.20	241.27
757.53	241.10
757.86	240.94
758.19	240.81
758.51	240.63
758.84	240.43
759.17	240.21
759.49	240.07
759.82	239.93
760.15	239.76
760.47	239.62
760.80	239.45
761.13	239.29
761.45	239.18
761.78	239.04
762.11	238.90
762.43	238.74
762.76	238.62
763.08	238.47
763.41	238.32
763.74	238.19
764.06	238.05
764.39	237.91
764.71	237.76
765.04	237.59
765.37	237.46
765.69	237.31
766.02	237.23
766.34	237.09
766.67	236.96
767.00	236.86
767.32	236.77
767.65	236.69
767.97	236.59
768.30	236.45
768.62	236.36
768.95	236.22
769.27	236.10
769.60	235.98
769.92	235.85
770.25	235.73
770.57	235.63
770.90	235.52
771.22	235.42
771.55	235.32
771.87	235.20
772.20	235.10
772.52	235.09
772.85	235.08
773.17	235.00
773.50	234.88
773.82	234.80
774.15	234.66
774.47	234.53
774.80	234.44
775.12	234.39
775.45	234.28
775.77	234.22
776.09	234.14
776.42	234.07
776.74	234.02
777.07	233.95
777.39	233.92
777.72	233.84
778.04	233.77
778.36	233.68
778.69	233.62
779.01	233.59
779.33	233.47
779.66	233.30
779.98	233.20
780.31	233.15
780.63	233.11
780.95	233.06
781.28	233.00
781.60	232.87
781.92	232.77
782.25	232.74
782.57	232.66
782.89	232.61
783.22	232.54
783.54	232.46
783.86	232.41
784.19	232.32
784.51	232.27
784.83	232.20
785.16	232.17
785.48	232.15
785.80	232.10
786.12	232.06
786.45	232.02
786.77	232.01
787.09	231.97
