SpectraSuite Data File
++++++++++++++++++++++++++++++++++++
Date: Fri Feb 01 15:38:50 EST 2013
User: group
Dark Spectrum Present: No
Reference Spectrum Present: No
Number of Sampled Component Spectra: 1
Spectrometers: USB2E7196
Integration Time (usec): 35000 (USB2E7196)
Spectra Averaged: 100 (USB2E7196)
Boxcar Smoothing: 10 (USB2E7196)
Correct for Electrical Dark: No (USB2E7196)
Strobe/Lamp Enabled: No (USB2E7196)
Correct for Detector Non-linearity: No (USB2E7196)
Correct for Stray Light: No (USB2E7196)
Number of Pixels in Processed Spectrum: 2048
>>>>>Begin Processed Spectral Data<<<<<
339.09	0.00
339.48	215.19
339.86	215.98
340.24	218.05
340.63	218.98
341.01	222.31
341.39	222.16
341.78	223.89
342.16	224.55
342.54	225.28
342.93	213.44
343.31	224.22
343.69	224.76
344.07	225.27
344.46	225.72
344.84	226.11
345.22	226.32
345.60	226.57
345.99	226.75
346.37	226.90
346.75	226.99
347.13	227.04
347.52	227.05
347.90	227.08
348.28	227.13
348.66	227.14
349.05	227.12
349.43	227.16
349.81	227.18
350.19	227.21
350.57	227.28
350.96	227.34
351.34	227.42
351.72	227.47
352.10	227.54
352.48	227.56
352.87	227.60
353.25	227.67
353.63	227.72
354.01	227.76
354.39	227.80
354.77	227.86
355.15	227.99
355.54	228.03
355.92	228.09
356.30	228.14
356.68	228.25
357.06	228.34
357.44	228.38
357.82	228.47
358.20	228.57
358.58	228.61
358.97	228.66
359.35	228.73
359.73	228.84
360.11	228.87
360.49	228.91
360.87	228.94
361.25	229.00
361.63	229.05
362.01	229.12
362.39	229.14
362.77	229.18
363.15	229.17
363.53	229.23
363.91	229.25
364.29	229.23
364.67	229.22
365.05	229.24
365.43	229.26
365.81	229.29
366.19	229.29
366.57	229.33
366.95	229.35
367.33	229.33
367.71	229.29
368.09	229.31
368.47	229.32
368.85	229.27
369.23	229.27
369.61	229.22
369.99	229.21
370.37	229.19
370.75	229.18
371.13	229.17
371.51	229.11
371.89	229.09
372.27	229.08
372.65	228.99
373.03	228.93
373.41	228.88
373.78	228.79
374.16	228.68
374.54	228.59
374.92	228.51
375.30	228.44
375.68	228.35
376.06	228.30
376.44	228.24
376.82	228.23
377.19	228.16
377.57	228.09
377.95	227.97
378.33	227.91
378.71	227.80
379.09	227.72
379.47	227.64
379.84	227.51
380.22	227.40
380.60	227.31
380.98	227.26
381.36	227.18
381.73	227.09
382.11	227.08
382.49	227.01
382.87	226.91
383.25	226.85
383.62	226.91
384.00	226.86
384.38	226.81
384.76	226.73
385.13	226.71
385.51	226.67
385.89	226.62
386.27	226.56
386.64	226.52
387.02	226.46
387.40	226.41
387.78	226.37
388.15	226.37
388.53	226.35
388.91	226.31
389.29	226.26
389.66	226.26
390.04	226.19
390.42	226.22
390.79	226.23
391.17	226.21
391.55	226.07
391.92	226.01
392.30	225.99
392.68	225.99
393.05	225.96
393.43	225.99
393.81	226.00
394.18	226.00
394.56	226.00
394.94	226.04
395.31	226.08
395.69	226.15
396.06	226.17
396.44	226.23
396.82	226.25
397.19	226.34
397.57	226.35
397.95	226.41
398.32	226.40
398.70	226.46
399.07	226.54
399.45	226.60
399.82	226.66
400.20	226.73
400.58	226.79
400.95	226.82
401.33	226.92
401.70	227.04
402.08	227.13
402.45	227.23
402.83	227.35
403.20	227.46
403.58	227.55
403.95	227.68
404.33	227.80
404.71	227.92
405.08	228.11
405.46	228.26
405.83	228.43
406.21	228.58
406.58	228.74
406.96	228.89
407.33	229.10
407.70	229.32
408.08	229.59
408.45	229.80
408.83	230.03
409.20	230.22
409.58	230.42
409.95	230.67
410.33	230.96
410.70	231.18
411.08	231.47
411.45	231.80
411.82	232.10
412.20	232.44
412.57	232.85
412.95	233.12
413.32	233.56
413.69	233.95
414.07	234.43
414.44	234.91
414.82	235.41
415.19	235.96
415.56	236.50
415.94	237.07
416.31	237.72
416.68	238.40
417.06	239.14
417.43	239.82
417.81	240.61
418.18	241.39
418.55	242.24
418.93	243.10
419.30	244.02
419.67	244.97
420.04	245.96
420.42	246.98
420.79	248.16
421.16	249.30
421.54	250.49
421.91	251.72
422.28	252.98
422.66	254.30
423.03	255.65
423.40	256.97
423.77	258.37
424.15	259.80
424.52	261.26
424.89	262.87
425.26	264.41
425.64	265.86
426.01	267.45
426.38	269.14
426.75	270.85
427.13	272.59
427.50	274.41
427.87	276.32
428.24	278.18
428.61	279.92
428.99	281.88
429.36	284.01
429.73	286.08
430.10	288.08
430.47	290.15
430.85	292.23
431.22	294.49
431.59	296.85
431.96	299.10
432.33	301.61
432.70	304.03
433.08	306.87
433.45	309.52
433.82	312.12
434.19	315.01
434.56	317.82
434.93	320.42
435.30	323.05
435.68	325.91
436.05	328.74
436.42	331.58
436.79	334.13
437.16	336.81
437.53	339.65
437.90	342.47
438.27	345.25
438.64	348.07
439.01	350.67
439.38	352.91
439.75	355.07
440.13	357.54
440.50	359.83
440.87	361.67
441.24	363.62
441.61	365.78
441.98	367.25
442.35	369.05
442.72	370.92
443.09	372.72
443.46	373.77
443.83	374.37
444.20	374.84
444.57	375.66
444.94	375.94
445.31	376.25
445.68	376.64
446.05	376.68
446.42	376.33
446.79	375.93
447.16	375.49
447.53	375.17
447.90	374.00
448.27	372.85
448.64	371.28
449.01	370.11
449.37	368.11
449.74	366.18
450.11	363.90
450.48	361.39
450.85	358.84
451.22	356.66
451.59	354.59
451.96	352.68
452.33	350.05
452.70	347.68
453.07	344.86
453.43	341.97
453.80	339.19
454.17	336.48
454.54	333.92
454.91	331.19
455.28	328.49
455.65	325.99
456.02	323.51
456.38	321.34
456.75	318.70
457.12	316.47
457.49	314.31
457.86	312.16
458.23	310.29
458.59	308.26
458.96	306.18
459.33	304.33
459.70	302.44
460.07	300.95
460.43	299.22
460.80	297.58
461.17	296.08
461.54	294.60
461.91	293.16
462.27	291.73
462.64	290.45
463.01	289.12
463.38	287.84
463.74	286.49
464.11	285.37
464.48	284.36
464.85	283.27
465.21	282.37
465.58	281.45
465.95	280.39
466.32	279.49
466.68	278.55
467.05	277.66
467.42	276.84
467.78	275.91
468.15	275.06
468.52	274.43
468.88	273.60
469.25	272.84
469.62	272.20
469.98	271.51
470.35	270.92
470.72	270.33
471.08	269.67
471.45	269.13
471.82	268.55
472.18	267.98
472.55	267.52
472.92	267.01
473.28	266.54
473.65	266.11
474.02	265.68
474.38	265.39
474.75	265.07
475.11	264.70
475.48	264.47
475.85	264.23
476.21	264.00
476.58	263.80
476.94	263.64
477.31	263.47
477.67	263.34
478.04	263.26
478.41	263.19
478.77	263.24
479.14	263.20
479.50	263.19
479.87	263.26
480.23	263.36
480.60	263.44
480.96	263.56
481.33	263.77
481.69	263.97
482.06	264.12
482.42	264.36
482.79	264.59
483.15	264.87
483.52	265.23
483.88	265.56
484.25	265.96
484.61	266.42
484.98	266.90
485.34	267.45
485.71	267.99
486.07	268.60
486.44	269.14
486.80	269.83
487.17	270.60
487.53	271.36
487.90	272.23
488.26	273.18
488.62	274.17
488.99	275.14
489.35	276.15
489.72	277.25
490.08	278.41
490.44	279.65
490.81	281.00
491.17	282.37
491.54	283.87
491.90	285.37
492.26	286.99
492.63	288.66
492.99	290.43
493.36	292.30
493.72	294.36
494.08	296.46
494.45	298.72
494.81	301.06
495.17	303.48
495.54	306.00
495.90	308.64
496.26	311.44
496.63	314.38
496.99	317.47
497.35	320.73
497.72	324.15
498.08	327.66
498.44	331.33
498.80	335.21
499.17	339.21
499.53	343.40
499.89	347.76
500.26	352.32
500.62	356.94
500.98	361.97
501.34	367.01
501.71	372.36
502.07	377.76
502.43	383.40
502.79	389.20
503.16	395.22
503.52	401.52
503.88	407.91
504.24	414.54
504.60	421.43
504.97	428.59
505.33	435.91
505.69	443.57
506.05	451.32
506.41	459.21
506.78	467.32
507.14	475.76
507.50	484.51
507.86	493.54
508.22	502.76
508.59	511.88
508.95	521.49
509.31	531.25
509.67	541.39
510.03	551.68
510.39	562.28
510.75	573.12
511.12	584.12
511.48	595.47
511.84	606.91
512.20	618.46
512.56	630.38
512.92	642.57
513.28	654.93
513.64	667.46
514.00	680.14
514.37	693.13
514.73	706.17
515.09	719.22
515.45	732.58
515.81	746.16
516.17	760.23
516.53	774.27
516.89	788.51
517.25	802.77
517.61	817.20
517.97	831.71
518.33	846.18
518.69	860.90
519.05	875.94
519.41	891.22
519.77	906.72
520.13	922.21
520.49	937.66
520.85	953.12
521.21	968.84
521.57	985.23
521.93	1001.08
522.29	1017.51
522.65	1033.81
523.01	1050.08
523.37	1066.20
523.73	1082.37
524.09	1098.60
524.45	1114.92
524.81	1131.45
525.17	1148.27
525.53	1165.21
525.89	1182.08
526.25	1198.90
526.61	1215.21
526.97	1231.88
527.33	1248.43
527.68	1265.06
528.04	1281.59
528.40	1298.27
528.76	1315.45
529.12	1331.94
529.48	1348.78
529.84	1364.82
530.20	1381.37
530.56	1398.41
530.91	1415.84
531.27	1432.61
531.63	1449.09
531.99	1465.71
532.35	1481.78
532.71	1497.72
533.07	1513.92
533.42	1529.84
533.78	1545.90
534.14	1562.17
534.50	1577.57
534.86	1593.44
535.21	1608.54
535.57	1624.37
535.93	1639.81
536.29	1654.52
536.65	1669.62
537.00	1684.50
537.36	1699.88
537.72	1714.50
538.08	1728.81
538.44	1742.60
538.79	1756.53
539.15	1770.09
539.51	1783.76
539.87	1798.06
540.22	1811.74
540.58	1825.64
540.94	1839.02
541.29	1852.07
541.65	1864.89
542.01	1877.98
542.37	1890.36
542.72	1902.90
543.08	1914.65
543.44	1927.15
543.79	1938.49
544.15	1949.57
544.51	1961.03
544.87	1972.00
545.22	1982.91
545.58	1993.14
545.94	2002.85
546.29	2012.79
546.65	2022.72
547.01	2032.13
547.36	2040.82
547.72	2049.24
548.07	2056.86
548.43	2065.02
548.79	2072.89
549.14	2080.31
549.50	2087.68
549.86	2095.35
550.21	2102.60
550.57	2109.77
550.92	2116.22
551.28	2123.26
551.64	2130.28
551.99	2136.72
552.35	2142.85
552.70	2148.92
553.06	2154.84
553.41	2161.39
553.77	2167.40
554.13	2173.49
554.48	2179.49
554.84	2185.01
555.19	2190.52
555.55	2195.69
555.90	2200.14
556.26	2205.05
556.61	2209.79
556.97	2214.05
557.32	2218.22
557.68	2222.27
558.03	2226.64
558.39	2230.36
558.74	2234.87
559.10	2238.71
559.45	2242.41
559.81	2246.69
560.16	2250.36
560.52	2253.69
560.87	2256.90
561.23	2259.53
561.58	2262.37
561.94	2264.78
562.29	2267.11
562.64	2269.68
563.00	2272.38
563.35	2275.93
563.71	2279.08
564.06	2282.30
564.42	2285.23
564.77	2287.57
565.12	2289.86
565.48	2291.72
565.83	2293.63
566.19	2294.87
566.54	2295.77
566.89	2297.02
567.25	2297.54
567.60	2298.92
567.96	2300.48
568.31	2301.49
568.66	2302.46
569.02	2303.09
569.37	2303.53
569.72	2304.36
570.08	2304.55
570.43	2304.64
570.78	2303.92
571.14	2302.24
571.49	2301.03
571.84	2300.68
572.20	2299.59
572.55	2298.63
572.90	2297.10
573.26	2295.59
573.61	2294.05
573.96	2292.20
574.31	2289.14
574.67	2286.21
575.02	2282.63
575.37	2279.31
575.72	2275.40
576.08	2272.25
576.43	2268.89
576.78	2265.05
577.13	2261.77
577.49	2258.54
577.84	2254.99
578.19	2251.33
578.54	2247.69
578.90	2243.23
579.25	2237.72
579.60	2232.72
579.95	2227.66
580.30	2222.58
580.66	2217.46
581.01	2212.33
581.36	2207.52
581.71	2203.27
582.06	2198.60
582.42	2194.01
582.77	2188.64
583.12	2183.99
583.47	2179.13
583.82	2174.04
584.17	2168.88
584.53	2163.39
584.88	2157.75
585.23	2151.91
585.58	2146.31
585.93	2140.87
586.28	2136.16
586.63	2130.97
586.98	2125.94
587.34	2121.17
587.69	2116.29
588.04	2110.92
588.39	2105.27
588.74	2098.59
589.09	2092.49
589.44	2085.77
589.79	2079.80
590.14	2074.39
590.49	2067.81
590.84	2061.32
591.19	2055.34
591.54	2048.80
591.89	2041.43
592.25	2034.66
592.60	2027.24
592.95	2019.75
593.30	2012.34
593.65	2004.67
594.00	1997.67
594.35	1990.41
594.70	1982.41
595.05	1975.15
595.40	1967.87
595.75	1960.30
596.10	1954.08
596.45	1947.25
596.80	1941.07
597.15	1934.40
597.50	1927.05
597.85	1920.53
598.19	1913.89
598.54	1906.75
598.89	1900.12
599.24	1894.26
599.59	1887.39
599.94	1881.26
600.29	1874.92
600.64	1868.31
600.99	1860.74
601.34	1853.83
601.69	1846.81
602.04	1839.78
602.39	1832.45
602.74	1825.71
603.08	1819.04
603.43	1812.33
603.78	1805.13
604.13	1797.98
604.48	1790.63
604.83	1783.75
605.18	1776.75
605.53	1768.72
605.87	1760.66
606.22	1753.39
606.57	1745.38
606.92	1738.15
607.27	1731.03
607.62	1723.93
607.96	1716.55
608.31	1710.04
608.66	1702.38
609.01	1694.83
609.36	1687.26
609.70	1679.15
610.05	1670.93
610.40	1663.14
610.75	1654.84
611.10	1647.08
611.44	1638.60
611.79	1630.60
612.14	1621.92
612.49	1612.82
612.83	1604.47
613.18	1596.36
613.53	1588.34
613.88	1579.74
614.22	1571.44
614.57	1562.77
614.92	1554.81
615.27	1547.31
615.61	1538.94
615.96	1531.00
616.31	1523.37
616.65	1516.09
617.00	1508.52
617.35	1501.03
617.70	1492.69
618.04	1484.19
618.39	1475.91
618.74	1468.36
619.08	1460.05
619.43	1452.53
619.78	1445.61
620.12	1438.39
620.47	1430.86
620.82	1422.71
621.16	1415.46
621.51	1407.81
621.85	1400.27
622.20	1391.68
622.55	1383.36
622.89	1375.61
623.24	1368.00
623.59	1360.60
623.93	1353.10
624.28	1345.88
624.62	1338.19
624.97	1331.09
625.32	1324.34
625.66	1317.36
626.01	1310.03
626.35	1302.59
626.70	1294.87
627.04	1287.07
627.39	1279.34
627.73	1272.03
628.08	1265.17
628.43	1257.77
628.77	1250.50
629.12	1242.89
629.46	1235.83
629.81	1228.54
630.15	1221.22
630.50	1213.81
630.84	1205.63
631.19	1197.64
631.53	1190.20
631.88	1182.72
632.22	1175.00
632.57	1167.66
632.91	1160.14
633.26	1152.79
633.60	1145.46
633.95	1138.31
634.29	1131.35
634.64	1124.66
634.98	1117.24
635.32	1109.93
635.67	1103.37
636.01	1096.70
636.36	1090.03
636.70	1083.49
637.05	1076.84
637.39	1070.36
637.73	1063.85
638.08	1057.91
638.42	1051.95
638.77	1045.44
639.11	1038.76
639.45	1032.45
639.80	1025.81
640.14	1019.30
640.49	1012.76
640.83	1006.41
641.17	1000.14
641.52	993.68
641.86	987.22
642.20	981.39
642.55	975.13
642.89	968.59
643.23	962.04
643.58	956.18
643.92	949.90
644.26	943.72
644.61	937.80
644.95	931.65
645.29	925.10
645.64	918.32
645.98	911.91
646.32	906.14
646.66	900.10
647.01	894.30
647.35	888.63
647.69	882.82
648.04	877.35
648.38	871.53
648.72	865.53
649.06	859.47
649.41	853.62
649.75	847.66
650.09	841.69
650.43	835.87
650.78	829.70
651.12	823.82
651.46	818.15
651.80	812.30
652.14	806.94
652.49	801.58
652.83	796.39
653.17	790.71
653.51	784.93
653.85	779.54
654.20	773.91
654.54	767.88
654.88	762.17
655.22	756.22
655.56	750.61
655.90	745.30
656.25	740.04
656.59	734.65
656.93	729.55
657.27	724.45
657.61	719.01
657.95	713.94
658.29	708.91
658.64	703.69
658.98	698.40
659.32	692.96
659.66	687.77
660.00	682.51
660.34	677.62
660.68	672.75
661.02	667.72
661.36	663.00
661.70	658.52
662.05	654.16
662.39	649.84
662.73	645.37
663.07	640.91
663.41	636.45
663.75	631.94
664.09	627.41
664.43	623.00
664.77	618.88
665.11	614.62
665.45	610.48
665.79	606.43
666.13	602.30
666.47	598.25
666.81	594.07
667.15	589.94
667.49	586.05
667.83	582.30
668.17	578.37
668.51	574.32
668.85	570.33
669.19	566.47
669.53	562.69
669.87	558.83
670.21	555.15
670.55	551.55
670.89	548.20
671.23	544.74
671.57	541.25
671.91	537.76
672.25	534.23
672.58	530.64
672.92	527.25
673.26	524.14
673.60	520.92
673.94	517.79
674.28	514.93
674.62	511.94
674.96	508.77
675.30	505.83
675.64	502.88
675.97	500.11
676.31	497.21
676.65	494.25
676.99	491.52
677.33	488.68
677.67	485.86
678.01	482.76
678.34	479.80
678.68	476.97
679.02	474.10
679.36	471.43
679.70	468.77
680.04	465.98
680.37	463.02
680.71	460.22
681.05	457.59
681.39	454.83
681.73	452.21
682.06	449.67
682.40	447.12
682.74	444.54
683.08	441.97
683.42	439.48
683.75	436.95
684.09	434.42
684.43	431.91
684.77	429.45
685.10	427.08
685.44	424.79
685.78	422.44
686.12	420.20
686.45	417.82
686.79	415.45
687.13	413.24
687.46	411.15
687.80	409.10
688.14	406.91
688.48	404.85
688.81	402.60
689.15	400.51
689.49	398.37
689.82	396.31
690.16	394.24
690.50	392.22
690.83	390.31
691.17	388.33
691.51	386.46
691.84	384.62
692.18	382.71
692.52	380.70
692.85	378.80
693.19	376.92
693.52	375.11
693.86	373.33
694.20	371.57
694.53	369.76
694.87	367.90
695.21	366.10
695.54	364.26
695.88	362.55
696.21	360.80
696.55	359.14
696.88	357.52
697.22	355.91
697.56	354.28
697.89	352.61
698.23	350.98
698.56	349.36
698.90	347.73
699.23	346.10
699.57	344.60
699.90	343.07
700.24	341.57
700.58	340.01
700.91	338.53
701.25	337.09
701.58	335.67
701.92	334.30
702.25	332.92
702.59	331.59
702.92	330.30
703.26	329.00
703.59	327.74
703.93	326.54
704.26	325.26
704.60	323.99
704.93	322.72
705.26	321.50
705.60	320.37
705.93	319.26
706.27	318.24
706.60	317.20
706.94	316.12
707.27	315.02
707.61	314.04
707.94	313.05
708.27	311.99
708.61	310.95
708.94	309.98
709.28	308.98
709.61	308.01
709.94	307.06
710.28	306.05
710.61	305.09
710.95	304.02
711.28	303.13
711.61	302.19
711.95	301.28
712.28	300.34
712.61	299.33
712.95	298.39
713.28	297.47
713.61	296.53
713.95	295.63
714.28	294.76
714.61	293.85
714.95	293.01
715.28	292.14
715.61	291.26
715.95	290.36
716.28	289.51
716.61	288.67
716.95	287.83
717.28	287.07
717.61	286.27
717.94	285.53
718.28	284.71
718.61	283.97
718.94	283.31
719.27	282.65
719.61	281.99
719.94	281.36
720.27	280.66
720.60	279.98
720.94	279.36
721.27	278.77
721.60	278.19
721.93	277.57
722.27	277.02
722.60	276.43
722.93	275.88
723.26	275.36
723.59	274.78
723.93	274.27
724.26	273.72
724.59	273.17
724.92	272.65
725.25	272.15
725.59	271.65
725.92	271.14
726.25	270.62
726.58	270.08
726.91	269.54
727.24	269.06
727.57	268.62
727.91	268.10
728.24	267.63
728.57	267.16
728.90	266.71
729.23	266.23
729.56	265.83
729.89	265.35
730.22	264.88
730.55	264.42
730.89	263.95
731.22	263.51
731.55	263.08
731.88	262.68
732.21	262.28
732.54	261.85
732.87	261.42
733.20	261.03
733.53	260.69
733.86	260.34
734.19	259.93
734.52	259.55
734.85	259.27
735.18	258.85
735.51	258.51
735.84	258.13
736.17	257.79
736.50	257.42
736.83	257.18
737.16	256.87
737.49	256.57
737.82	256.28
738.15	255.96
738.48	255.62
738.81	255.29
739.14	254.94
739.47	254.64
739.80	254.30
740.13	253.99
740.46	253.65
740.79	253.31
741.12	253.02
741.45	252.70
741.78	252.36
742.11	252.08
742.44	251.74
742.77	251.48
743.10	251.15
743.43	250.83
743.75	250.46
744.08	250.31
744.41	250.05
744.74	249.77
745.07	249.49
745.40	249.27
745.73	249.02
746.06	248.76
746.39	248.50
746.71	248.27
747.04	248.04
747.37	247.81
747.70	247.54
748.03	247.28
748.36	247.09
748.68	246.83
749.01	246.58
749.34	246.37
749.67	246.13
750.00	245.90
750.33	245.77
750.65	245.56
750.98	245.22
751.31	244.97
751.64	244.77
751.97	244.58
752.29	244.35
752.62	244.10
752.95	243.90
753.28	243.68
753.60	243.45
753.93	243.21
754.26	243.02
754.59	242.79
754.91	242.58
755.24	242.36
755.57	242.15
755.90	241.97
756.22	241.77
756.55	241.57
756.88	241.39
757.20	241.13
757.53	240.92
757.86	240.73
758.19	240.57
758.51	240.35
758.84	240.16
759.17	239.99
759.49	239.85
759.82	239.70
760.15	239.53
760.47	239.39
760.80	239.24
761.13	239.10
761.45	238.96
761.78	238.85
762.11	238.68
762.43	238.57
762.76	238.43
763.08	238.31
763.41	238.12
763.74	237.98
764.06	237.89
764.39	237.74
764.71	237.60
765.04	237.45
765.37	237.33
765.69	237.20
766.02	237.07
766.34	236.90
766.67	236.73
767.00	236.63
767.32	236.56
767.65	236.47
767.97	236.32
768.30	236.25
768.62	236.11
768.95	235.99
769.27	235.88
769.60	235.80
769.92	235.63
770.25	235.55
770.57	235.44
770.90	235.29
771.22	235.19
771.55	235.08
771.87	234.99
772.20	234.88
772.52	234.86
772.85	234.86
773.17	234.79
773.50	234.71
773.82	234.64
774.15	234.49
774.47	234.37
774.80	234.28
775.12	234.17
775.45	234.09
775.77	234.02
776.09	233.93
776.42	233.83
776.74	233.80
777.07	233.72
777.39	233.66
777.72	233.61
778.04	233.54
778.36	233.52
778.69	233.46
779.01	233.43
779.33	233.27
779.66	233.10
779.98	233.01
780.31	232.97
780.63	232.92
780.95	232.90
781.28	232.83
781.60	232.78
781.92	232.74
782.25	232.69
782.57	232.61
782.89	232.53
783.22	232.46
783.54	232.41
783.86	232.38
784.19	232.31
784.51	232.28
784.83	232.22
785.16	232.12
785.48	232.10
785.80	232.03
786.12	232.00
786.45	231.93
786.77	231.91
787.09	231.85
