SpectraSuite Data File
++++++++++++++++++++++++++++++++++++
Date: Fri Feb 01 15:21:14 EST 2013
User: group
Dark Spectrum Present: No
Reference Spectrum Present: No
Number of Sampled Component Spectra: 1
Spectrometers: USB2E7196
Integration Time (usec): 35000 (USB2E7196)
Spectra Averaged: 100 (USB2E7196)
Boxcar Smoothing: 10 (USB2E7196)
Correct for Electrical Dark: No (USB2E7196)
Strobe/Lamp Enabled: No (USB2E7196)
Correct for Detector Non-linearity: No (USB2E7196)
Correct for Stray Light: No (USB2E7196)
Number of Pixels in Processed Spectrum: 2048
>>>>>Begin Processed Spectral Data<<<<<
339.09	0.00
339.48	215.25
339.86	216.98
340.24	217.19
340.63	219.03
341.01	222.52
341.39	221.90
341.78	223.90
342.16	224.72
342.54	224.59
342.93	213.49
343.31	224.30
343.69	224.82
344.07	225.28
344.46	225.73
344.84	226.14
345.22	226.35
345.60	226.63
345.99	226.77
346.37	226.89
346.75	227.00
347.13	227.06
347.52	227.14
347.90	227.18
348.28	227.22
348.66	227.24
349.05	227.20
349.43	227.22
349.81	227.25
350.19	227.26
350.57	227.29
350.96	227.38
351.34	227.43
351.72	227.53
352.10	227.63
352.48	227.70
352.87	227.73
353.25	227.82
353.63	227.87
354.01	227.97
354.39	228.06
354.77	228.12
355.15	228.19
355.54	228.26
355.92	228.33
356.30	228.42
356.68	228.55
357.06	228.67
357.44	228.70
357.82	228.78
358.20	228.88
358.58	228.94
358.97	228.96
359.35	229.05
359.73	229.10
360.11	229.14
360.49	229.16
360.87	229.25
361.25	229.32
361.63	229.40
362.01	229.41
362.39	229.42
362.77	229.51
363.15	229.57
363.53	229.58
363.91	229.59
364.29	229.61
364.67	229.53
365.05	229.54
365.43	229.59
365.81	229.61
366.19	229.64
366.57	229.70
366.95	229.70
367.33	229.66
367.71	229.65
368.09	229.67
368.47	229.69
368.85	229.65
369.23	229.64
369.61	229.56
369.99	229.58
370.37	229.58
370.75	229.58
371.13	229.48
371.51	229.43
371.89	229.40
372.27	229.32
372.65	229.27
373.03	229.21
373.41	229.15
373.78	229.08
374.16	228.96
374.54	228.86
374.92	228.81
375.30	228.74
375.68	228.65
376.06	228.57
376.44	228.47
376.82	228.39
377.19	228.29
377.57	228.20
377.95	228.11
378.33	228.02
378.71	227.87
379.09	227.82
379.47	227.78
379.84	227.66
380.22	227.59
380.60	227.55
380.98	227.45
381.36	227.37
381.73	227.31
382.11	227.27
382.49	227.20
382.87	227.12
383.25	227.04
383.62	227.10
384.00	227.02
384.38	226.97
384.76	226.94
385.13	226.88
385.51	226.85
385.89	226.73
386.27	226.66
386.64	226.63
387.02	226.59
387.40	226.51
387.78	226.48
388.15	226.45
388.53	226.40
388.91	226.37
389.29	226.31
389.66	226.30
390.04	226.22
390.42	226.21
390.79	226.21
391.17	226.21
391.55	226.08
391.92	226.07
392.30	226.08
392.68	226.03
393.05	226.04
393.43	226.04
393.81	226.11
394.18	226.13
394.56	226.16
394.94	226.19
395.31	226.21
395.69	226.27
396.06	226.30
396.44	226.33
396.82	226.37
397.19	226.46
397.57	226.47
397.95	226.60
398.32	226.64
398.70	226.69
399.07	226.75
399.45	226.83
399.82	226.92
400.20	227.03
400.58	227.12
400.95	227.17
401.33	227.30
401.70	227.43
402.08	227.55
402.45	227.63
402.83	227.78
403.20	227.93
403.58	228.05
403.95	228.20
404.33	228.36
404.71	228.53
405.08	228.74
405.46	228.90
405.83	229.05
406.21	229.18
406.58	229.35
406.96	229.54
407.33	229.73
407.70	229.91
408.08	230.16
408.45	230.41
408.83	230.63
409.20	230.84
409.58	230.98
409.95	231.23
410.33	231.54
410.70	231.75
411.08	232.03
411.45	232.37
411.82	232.68
412.20	233.05
412.57	233.45
412.95	233.71
413.32	234.12
413.69	234.53
414.07	234.99
414.44	235.49
414.82	235.95
415.19	236.51
415.56	237.05
415.94	237.60
416.31	238.22
416.68	238.85
417.06	239.55
417.43	240.29
417.81	241.07
418.18	241.84
418.55	242.70
418.93	243.61
419.30	244.48
419.67	245.40
420.04	246.34
420.42	247.31
420.79	248.53
421.16	249.71
421.54	250.90
421.91	252.14
422.28	253.39
422.66	254.74
423.03	256.02
423.40	257.38
423.77	258.79
424.15	260.21
424.52	261.71
424.89	263.32
425.26	264.84
425.64	266.30
426.01	267.89
426.38	269.57
426.75	271.21
427.13	272.91
427.50	274.72
427.87	276.57
428.24	278.42
428.61	280.13
428.99	282.07
429.36	284.16
429.73	286.21
430.10	288.23
430.47	290.26
430.85	292.38
431.22	294.58
431.59	296.93
431.96	299.19
432.33	301.70
432.70	304.08
433.08	306.90
433.45	309.53
433.82	312.14
434.19	315.04
434.56	317.87
434.93	320.56
435.30	323.18
435.68	326.12
436.05	328.96
436.42	331.78
436.79	334.23
437.16	336.90
437.53	339.71
437.90	342.53
438.27	345.29
438.64	348.15
439.01	350.79
439.38	353.05
439.75	355.19
440.13	357.67
440.50	359.99
440.87	361.85
441.24	363.80
441.61	365.99
441.98	367.47
442.35	369.30
442.72	371.15
443.09	372.99
443.46	373.99
443.83	374.59
444.20	375.09
444.57	375.98
444.94	376.30
445.31	376.71
445.68	377.04
446.05	377.11
446.42	376.69
446.79	376.22
447.16	375.73
447.53	375.42
447.90	374.24
448.27	373.12
448.64	371.55
449.01	370.40
449.37	368.40
449.74	366.50
450.11	364.19
450.48	361.74
450.85	359.18
451.22	357.01
451.59	355.00
451.96	353.08
452.33	350.46
452.70	348.12
453.07	345.28
453.43	342.38
453.80	339.66
454.17	337.01
454.54	334.50
454.91	331.83
455.28	329.20
455.65	326.74
456.02	324.30
456.38	322.16
456.75	319.52
457.12	317.23
457.49	314.98
457.86	312.82
458.23	310.97
458.59	308.93
458.96	306.84
459.33	304.95
459.70	303.10
460.07	301.63
460.43	299.88
460.80	298.20
461.17	296.75
461.54	295.25
461.91	293.84
462.27	292.43
462.64	291.15
463.01	289.80
463.38	288.47
463.74	287.11
464.11	285.91
464.48	284.83
464.85	283.72
465.21	282.90
465.58	281.96
465.95	280.85
466.32	279.92
466.68	279.00
467.05	278.11
467.42	277.21
467.78	276.26
468.15	275.35
468.52	274.68
468.88	273.84
469.25	273.03
469.62	272.39
469.98	271.66
470.35	271.05
470.72	270.39
471.08	269.69
471.45	269.14
471.82	268.59
472.18	268.00
472.55	267.59
472.92	267.03
473.28	266.54
473.65	266.07
474.02	265.60
474.38	265.24
474.75	264.92
475.11	264.53
475.48	264.28
475.85	264.04
476.21	263.83
476.58	263.62
476.94	263.47
477.31	263.28
477.67	263.12
478.04	262.99
478.41	262.94
478.77	262.99
479.14	262.90
479.50	262.91
479.87	262.99
480.23	263.04
480.60	263.07
480.96	263.16
481.33	263.35
481.69	263.56
482.06	263.74
482.42	263.93
482.79	264.18
483.15	264.44
483.52	264.86
483.88	265.17
484.25	265.55
484.61	265.96
484.98	266.41
485.34	266.98
485.71	267.56
486.07	268.18
486.44	268.75
486.80	269.46
487.17	270.19
487.53	270.99
487.90	271.84
488.26	272.80
488.62	273.80
488.99	274.77
489.35	275.82
489.72	276.93
490.08	278.14
490.44	279.40
490.81	280.71
491.17	282.04
491.54	283.57
491.90	285.13
492.26	286.79
492.63	288.55
492.99	290.33
493.36	292.24
493.72	294.26
494.08	296.36
494.45	298.65
494.81	301.02
495.17	303.48
495.54	306.04
495.90	308.73
496.26	311.53
496.63	314.48
496.99	317.61
497.35	320.87
497.72	324.26
498.08	327.76
498.44	331.47
498.80	335.36
499.17	339.36
499.53	343.53
499.89	347.90
500.26	352.36
500.62	357.00
500.98	361.97
501.34	367.07
501.71	372.41
502.07	377.83
502.43	383.46
502.79	389.25
503.16	395.35
503.52	401.60
503.88	408.01
504.24	414.68
504.60	421.53
504.97	428.65
505.33	435.94
505.69	443.65
506.05	451.35
506.41	459.30
506.78	467.44
507.14	475.90
507.50	484.60
507.86	493.65
508.22	502.88
508.59	512.07
508.95	521.65
509.31	531.42
509.67	541.54
510.03	551.77
510.39	562.24
510.75	573.04
511.12	584.05
511.48	595.39
511.84	606.83
512.20	618.36
512.56	630.35
512.92	642.53
513.28	654.85
513.64	667.37
514.00	680.08
514.37	693.02
514.73	706.01
515.09	719.08
515.45	732.36
515.81	745.87
516.17	759.84
516.53	773.85
516.89	788.07
517.25	802.23
517.61	816.70
517.97	831.25
518.33	845.76
518.69	860.53
519.05	875.57
519.41	890.76
519.77	906.33
520.13	921.83
520.49	937.30
520.85	952.80
521.21	968.61
521.57	984.89
521.93	1000.67
522.29	1017.22
522.65	1033.36
523.01	1049.77
523.37	1065.93
523.73	1082.07
524.09	1098.32
524.45	1114.76
524.81	1131.45
525.17	1148.41
525.53	1165.41
525.89	1182.29
526.25	1199.08
526.61	1215.42
526.97	1232.14
527.33	1248.61
527.68	1265.26
528.04	1281.84
528.40	1298.51
528.76	1315.63
529.12	1332.19
529.48	1349.15
529.84	1365.16
530.20	1382.04
530.56	1398.98
530.91	1416.42
531.27	1433.30
531.63	1449.86
531.99	1466.53
532.35	1482.54
532.71	1498.40
533.07	1514.60
533.42	1530.52
533.78	1546.64
534.14	1563.09
534.50	1578.56
534.86	1594.57
535.21	1609.73
535.57	1625.61
535.93	1641.22
536.29	1655.95
536.65	1671.25
537.00	1686.05
537.36	1701.47
537.72	1716.10
538.08	1730.59
538.44	1744.50
538.79	1758.52
539.15	1772.29
539.51	1785.98
539.87	1800.32
540.22	1814.23
540.58	1828.31
540.94	1841.78
541.29	1854.84
541.65	1867.56
542.01	1880.93
542.37	1893.27
542.72	1905.81
543.08	1917.62
543.44	1930.07
543.79	1941.46
544.15	1952.46
544.51	1964.15
544.87	1975.20
545.22	1985.99
545.58	1996.03
545.94	2005.83
546.29	2015.76
546.65	2025.62
547.01	2035.00
547.36	2043.80
547.72	2052.31
548.07	2059.98
548.43	2068.22
548.79	2076.41
549.14	2083.86
549.50	2091.12
549.86	2098.94
550.21	2106.21
550.57	2113.49
550.92	2120.01
551.28	2127.20
551.64	2134.26
551.99	2140.82
552.35	2146.92
552.70	2152.99
553.06	2159.16
553.41	2165.50
553.77	2171.45
554.13	2177.58
554.48	2183.68
554.84	2189.10
555.19	2194.45
555.55	2199.52
555.90	2203.94
556.26	2208.56
556.61	2213.43
556.97	2217.65
557.32	2221.60
557.68	2225.85
558.03	2230.26
558.39	2234.03
558.74	2238.56
559.10	2242.45
559.45	2246.04
559.81	2250.26
560.16	2254.22
560.52	2257.56
560.87	2261.04
561.23	2263.71
561.58	2266.55
561.94	2268.87
562.29	2271.36
562.64	2273.89
563.00	2276.60
563.35	2280.12
563.71	2283.36
564.06	2286.47
564.42	2289.42
564.77	2291.92
565.12	2294.06
565.48	2295.86
565.83	2297.60
566.19	2298.72
566.54	2299.55
566.89	2300.72
567.25	2301.39
567.60	2302.65
567.96	2304.13
568.31	2304.84
568.66	2305.84
569.02	2306.39
569.37	2306.66
569.72	2307.41
570.08	2307.44
570.43	2307.38
570.78	2306.66
571.14	2304.97
571.49	2303.67
571.84	2303.23
572.20	2301.94
572.55	2300.83
572.90	2299.26
573.26	2297.73
573.61	2296.03
573.96	2294.13
574.31	2290.89
574.67	2287.79
575.02	2284.11
575.37	2280.67
575.72	2276.71
576.08	2273.37
576.43	2270.05
576.78	2266.46
577.13	2263.26
577.49	2260.21
577.84	2256.67
578.19	2252.90
578.54	2249.19
578.90	2244.74
579.25	2239.24
579.60	2234.29
579.95	2229.24
580.30	2224.04
580.66	2218.92
581.01	2213.96
581.36	2208.99
581.71	2204.94
582.06	2200.28
582.42	2195.79
582.77	2190.46
583.12	2185.81
583.47	2181.09
583.82	2175.85
584.17	2170.40
584.53	2164.74
584.88	2158.87
585.23	2153.03
585.58	2147.48
585.93	2141.95
586.28	2137.17
586.63	2131.91
586.98	2126.72
587.34	2122.02
587.69	2117.15
588.04	2111.77
588.39	2106.02
588.74	2099.39
589.09	2093.09
589.44	2086.18
589.79	2080.15
590.14	2074.45
590.49	2067.93
590.84	2061.39
591.19	2055.28
591.54	2048.87
591.89	2041.33
592.25	2034.49
592.60	2027.15
592.95	2019.40
593.30	2011.96
593.65	2004.33
594.00	1997.24
594.35	1989.96
594.70	1981.76
595.05	1974.39
595.40	1966.97
595.75	1959.42
596.10	1953.24
596.45	1946.43
596.80	1940.32
597.15	1933.44
597.50	1926.23
597.85	1919.74
598.19	1912.90
598.54	1905.75
598.89	1899.17
599.24	1893.32
599.59	1886.51
599.94	1880.41
600.29	1874.16
600.64	1867.65
600.99	1859.96
601.34	1853.05
601.69	1846.11
602.04	1839.19
602.39	1831.70
602.74	1824.88
603.08	1818.22
603.43	1811.50
603.78	1804.25
604.13	1796.98
604.48	1789.54
604.83	1782.70
605.18	1775.54
605.53	1767.53
605.87	1759.51
606.22	1752.09
606.57	1744.25
606.92	1737.02
607.27	1729.72
607.62	1722.72
607.96	1715.25
608.31	1708.75
608.66	1701.12
609.01	1693.43
609.36	1685.82
609.70	1677.97
610.05	1669.78
610.40	1661.98
610.75	1653.47
611.10	1645.76
611.44	1637.38
611.79	1629.55
612.14	1620.81
612.49	1611.77
612.83	1603.47
613.18	1595.39
613.53	1587.36
613.88	1578.66
614.22	1570.33
614.57	1561.71
614.92	1553.56
615.27	1545.99
615.61	1537.63
615.96	1529.64
616.31	1522.14
616.65	1514.87
617.00	1507.20
617.35	1499.55
617.70	1491.12
618.04	1482.71
618.39	1474.38
618.74	1466.71
619.08	1458.39
619.43	1450.88
619.78	1443.94
620.12	1436.70
620.47	1429.15
620.82	1421.01
621.16	1413.66
621.51	1406.05
621.85	1398.42
622.20	1389.98
622.55	1381.62
622.89	1373.78
623.24	1366.21
623.59	1358.86
623.93	1351.19
624.28	1344.02
624.62	1336.53
624.97	1329.31
625.32	1322.61
625.66	1315.71
626.01	1308.50
626.35	1300.94
626.70	1293.29
627.04	1285.48
627.39	1277.75
627.73	1270.32
628.08	1263.35
628.43	1255.99
628.77	1248.64
629.12	1241.08
629.46	1233.87
629.81	1226.51
630.15	1219.29
630.50	1211.91
630.84	1203.69
631.19	1195.88
631.53	1188.35
631.88	1180.88
632.22	1173.34
632.57	1166.00
632.91	1158.43
633.26	1151.14
633.60	1143.91
633.95	1136.84
634.29	1129.94
634.64	1123.27
634.98	1115.91
635.32	1108.77
635.67	1102.26
636.01	1095.65
636.36	1088.90
636.70	1082.39
637.05	1075.91
637.39	1069.51
637.73	1062.92
638.08	1057.07
638.42	1051.01
638.77	1044.50
639.11	1037.95
639.45	1031.60
639.80	1025.02
640.14	1018.57
640.49	1011.89
640.83	1005.59
641.17	999.27
641.52	992.81
641.86	986.43
642.20	980.67
642.55	974.41
642.89	967.90
643.23	961.37
643.58	955.59
643.92	949.45
644.26	943.29
644.61	937.23
644.95	931.21
645.29	924.60
645.64	917.93
645.98	911.63
646.32	905.76
646.66	899.74
647.01	893.88
647.35	888.22
647.69	882.53
648.04	877.06
648.38	871.26
648.72	865.34
649.06	859.28
649.41	853.32
649.75	847.31
650.09	841.32
650.43	835.50
650.78	829.41
651.12	823.43
651.46	817.78
651.80	812.01
652.14	806.59
652.49	801.20
652.83	796.02
653.17	790.37
653.51	784.57
653.85	779.15
654.20	773.53
654.54	767.58
654.88	761.80
655.22	755.87
655.56	750.14
655.90	744.64
656.25	739.44
656.59	734.11
656.93	729.03
657.27	723.91
657.61	718.48
657.95	713.31
658.29	708.27
658.64	703.04
658.98	697.72
659.32	692.26
659.66	687.07
660.00	681.77
660.34	676.87
660.68	672.00
661.02	667.02
661.36	662.32
661.70	657.74
662.05	653.46
662.39	649.15
662.73	644.71
663.07	640.37
663.41	635.84
663.75	631.29
664.09	626.77
664.43	622.41
664.77	618.23
665.11	614.08
665.45	610.05
665.79	605.99
666.13	601.92
666.47	597.83
666.81	593.63
667.15	589.50
667.49	585.55
667.83	581.77
668.17	577.82
668.51	573.71
668.85	569.67
669.19	565.71
669.53	561.87
669.87	558.07
670.21	554.36
670.55	550.80
670.89	547.46
671.23	543.98
671.57	540.49
671.91	536.94
672.25	533.40
672.58	529.82
672.92	526.42
673.26	523.32
673.60	520.20
673.94	517.14
674.28	514.24
674.62	511.30
674.96	508.17
675.30	505.27
675.64	502.39
675.97	499.70
676.31	496.92
676.65	493.97
676.99	491.28
677.33	488.44
677.67	485.58
678.01	482.52
678.34	479.61
678.68	476.67
679.02	473.93
679.36	471.18
679.70	468.49
680.04	465.71
680.37	462.74
680.71	460.00
681.05	457.34
681.39	454.58
681.73	451.98
682.06	449.48
682.40	446.91
682.74	444.40
683.08	441.83
683.42	439.27
683.75	436.82
684.09	434.24
684.43	431.78
684.77	429.37
685.10	427.08
685.44	424.81
685.78	422.61
686.12	420.39
686.45	418.10
686.79	415.75
687.13	413.56
687.46	411.42
687.80	409.30
688.14	407.14
688.48	405.13
688.81	402.86
689.15	400.72
689.49	398.62
689.82	396.52
690.16	394.42
690.50	392.40
690.83	390.44
691.17	388.50
691.51	386.60
691.84	384.76
692.18	382.77
692.52	380.79
692.85	378.85
693.19	376.93
693.52	375.14
693.86	373.34
694.20	371.58
694.53	369.80
694.87	367.90
695.21	366.13
695.54	364.32
695.88	362.62
696.21	360.90
696.55	359.21
696.88	357.55
697.22	355.96
697.56	354.36
697.89	352.72
698.23	351.11
698.56	349.53
698.90	347.91
699.23	346.27
699.57	344.70
699.90	343.16
700.24	341.63
700.58	340.08
700.91	338.58
701.25	337.13
701.58	335.79
701.92	334.42
702.25	333.03
702.59	331.64
702.92	330.33
703.26	329.03
703.59	327.72
703.93	326.53
704.26	325.26
704.60	323.98
704.93	322.70
705.26	321.46
705.60	320.31
705.93	319.17
706.27	318.17
706.60	317.07
706.94	316.01
707.27	314.85
707.61	313.81
707.94	312.85
708.27	311.72
708.61	310.66
708.94	309.65
709.28	308.68
709.61	307.76
709.94	306.79
710.28	305.76
710.61	304.79
710.95	303.71
711.28	302.82
711.61	301.86
711.95	300.94
712.28	299.96
712.61	298.94
712.95	298.00
713.28	297.15
713.61	296.29
713.95	295.40
714.28	294.60
714.61	293.72
714.95	292.85
715.28	292.01
715.61	291.10
715.95	290.27
716.28	289.44
716.61	288.60
716.95	287.81
717.28	287.10
717.61	286.37
717.94	285.68
718.28	284.87
718.61	284.18
718.94	283.52
719.27	282.87
719.61	282.24
719.94	281.58
720.27	280.83
720.60	280.16
720.94	279.49
721.27	278.92
721.60	278.36
721.93	277.75
722.27	277.25
722.60	276.69
722.93	276.08
723.26	275.54
723.59	275.00
723.93	274.44
724.26	273.89
724.59	273.34
724.92	272.75
725.25	272.26
725.59	271.69
725.92	271.18
726.25	270.65
726.58	270.14
726.91	269.65
727.24	269.18
727.57	268.71
727.91	268.23
728.24	267.71
728.57	267.23
728.90	266.78
729.23	266.27
729.56	265.83
729.89	265.39
730.22	264.89
730.55	264.39
730.89	263.98
731.22	263.53
731.55	263.09
731.88	262.68
732.21	262.24
732.54	261.87
732.87	261.45
733.20	261.07
733.53	260.72
733.86	260.36
734.19	259.98
734.52	259.64
734.85	259.33
735.18	258.91
735.51	258.54
735.84	258.17
736.17	257.81
736.50	257.44
736.83	257.23
737.16	256.91
737.49	256.60
737.82	256.25
738.15	255.94
738.48	255.59
738.81	255.27
739.14	254.95
739.47	254.60
739.80	254.26
740.13	253.93
740.46	253.57
740.79	253.22
741.12	252.91
741.45	252.58
741.78	252.25
742.11	252.01
742.44	251.65
742.77	251.40
743.10	251.08
743.43	250.74
743.75	250.35
744.08	250.21
744.41	249.94
744.74	249.70
745.07	249.37
745.40	249.14
745.73	248.94
746.06	248.66
746.39	248.40
746.71	248.12
747.04	247.87
747.37	247.62
747.70	247.39
748.03	247.13
748.36	246.92
748.68	246.66
749.01	246.45
749.34	246.23
749.67	245.99
750.00	245.79
750.33	245.66
750.65	245.45
750.98	245.10
751.31	244.84
751.64	244.59
751.97	244.45
752.29	244.20
752.62	243.92
752.95	243.67
753.28	243.46
753.60	243.23
753.93	243.06
754.26	242.89
754.59	242.67
754.91	242.42
755.24	242.22
755.57	242.03
755.90	241.81
756.22	241.62
756.55	241.40
756.88	241.19
757.20	240.97
757.53	240.79
757.86	240.64
758.19	240.49
758.51	240.33
758.84	240.11
759.17	239.97
759.49	239.82
759.82	239.74
760.15	239.61
760.47	239.49
760.80	239.32
761.13	239.20
761.45	239.04
761.78	238.98
762.11	238.85
762.43	238.74
762.76	238.57
763.08	238.45
763.41	238.32
763.74	238.21
764.06	238.08
764.39	237.92
764.71	237.76
765.04	237.63
765.37	237.49
765.69	237.35
766.02	237.22
766.34	237.10
766.67	236.95
767.00	236.85
767.32	236.78
767.65	236.73
767.97	236.59
768.30	236.51
768.62	236.38
768.95	236.23
769.27	236.09
769.60	236.03
769.92	235.91
770.25	235.81
770.57	235.67
770.90	235.55
771.22	235.47
771.55	235.38
771.87	235.28
772.20	235.22
772.52	235.21
772.85	235.24
773.17	235.13
773.50	235.03
773.82	234.92
774.15	234.78
774.47	234.64
774.80	234.53
775.12	234.41
775.45	234.32
775.77	234.24
776.09	234.17
776.42	234.07
776.74	234.01
777.07	233.96
777.39	233.87
777.72	233.79
778.04	233.73
778.36	233.65
778.69	233.58
779.01	233.47
779.33	233.31
779.66	233.10
779.98	233.04
780.31	232.98
780.63	232.99
780.95	232.94
781.28	232.86
781.60	232.81
781.92	232.76
782.25	232.67
782.57	232.60
782.89	232.53
783.22	232.49
783.54	232.45
783.86	232.39
784.19	232.37
784.51	232.33
784.83	232.27
785.16	232.19
785.48	232.18
785.80	232.11
786.12	232.10
786.45	232.09
786.77	232.08
787.09	231.98
