SpectraSuite Data File
++++++++++++++++++++++++++++++++++++
Date: Fri Feb 01 16:17:54 EST 2013
User: group
Dark Spectrum Present: No
Reference Spectrum Present: No
Number of Sampled Component Spectra: 1
Spectrometers: USB2E7196
Integration Time (usec): 35000 (USB2E7196)
Spectra Averaged: 100 (USB2E7196)
Boxcar Smoothing: 10 (USB2E7196)
Correct for Electrical Dark: No (USB2E7196)
Strobe/Lamp Enabled: No (USB2E7196)
Correct for Detector Non-linearity: No (USB2E7196)
Correct for Stray Light: No (USB2E7196)
Number of Pixels in Processed Spectrum: 2048
>>>>>Begin Processed Spectral Data<<<<<
339.09	0.00
339.48	214.26
339.86	215.28
340.24	216.61
340.63	218.71
341.01	221.46
341.39	221.27
341.78	221.79
342.16	223.72
342.54	223.89
342.93	212.50
343.31	223.22
343.69	223.78
344.07	224.24
344.46	224.67
344.84	225.02
345.22	225.24
345.60	225.48
345.99	225.68
346.37	225.77
346.75	225.87
347.13	225.93
347.52	225.96
347.90	225.99
348.28	226.02
348.66	226.06
349.05	226.07
349.43	226.11
349.81	226.15
350.19	226.16
350.57	226.22
350.96	226.32
351.34	226.41
351.72	226.44
352.10	226.52
352.48	226.59
352.87	226.66
353.25	226.71
353.63	226.77
354.01	226.83
354.39	226.92
354.77	227.02
355.15	227.11
355.54	227.15
355.92	227.18
356.30	227.25
356.68	227.37
357.06	227.46
357.44	227.51
357.82	227.54
358.20	227.62
358.58	227.70
358.97	227.72
359.35	227.79
359.73	227.88
360.11	227.96
360.49	228.04
360.87	228.07
361.25	228.14
361.63	228.22
362.01	228.27
362.39	228.32
362.77	228.32
363.15	228.35
363.53	228.42
363.91	228.46
364.29	228.51
364.67	228.45
365.05	228.46
365.43	228.49
365.81	228.52
366.19	228.58
366.57	228.60
366.95	228.61
367.33	228.58
367.71	228.59
368.09	228.57
368.47	228.53
368.85	228.49
369.23	228.46
369.61	228.40
369.99	228.40
370.37	228.39
370.75	228.42
371.13	228.36
371.51	228.30
371.89	228.25
372.27	228.20
372.65	228.13
373.03	228.11
373.41	228.06
373.78	228.01
374.16	227.89
374.54	227.83
374.92	227.76
375.30	227.68
375.68	227.56
376.06	227.54
376.44	227.48
376.82	227.46
377.19	227.42
377.57	227.35
377.95	227.28
378.33	227.18
378.71	227.07
379.09	227.02
379.47	226.98
379.84	226.90
380.22	226.81
380.60	226.76
380.98	226.67
381.36	226.60
381.73	226.54
382.11	226.52
382.49	226.48
382.87	226.40
383.25	226.34
383.62	226.41
384.00	226.31
384.38	226.26
384.76	226.23
385.13	226.21
385.51	226.14
385.89	226.06
386.27	226.04
386.64	226.01
387.02	225.94
387.40	225.93
387.78	225.90
388.15	225.89
388.53	225.80
388.91	225.76
389.29	225.70
389.66	225.71
390.04	225.69
390.42	225.65
390.79	225.65
391.17	225.63
391.55	225.56
391.92	225.57
392.30	225.61
392.68	225.55
393.05	225.52
393.43	225.54
393.81	225.55
394.18	225.52
394.56	225.53
394.94	225.59
395.31	225.57
395.69	225.62
396.06	225.65
396.44	225.71
396.82	225.73
397.19	225.82
397.57	225.82
397.95	225.86
398.32	225.88
398.70	225.93
399.07	225.99
399.45	226.01
399.82	226.05
400.20	226.09
400.58	226.20
400.95	226.21
401.33	226.29
401.70	226.48
402.08	226.59
402.45	226.68
402.83	226.79
403.20	226.92
403.58	226.98
403.95	227.12
404.33	227.25
404.71	227.35
405.08	227.54
405.46	227.68
405.83	227.81
406.21	227.97
406.58	228.14
406.96	228.35
407.33	228.54
407.70	228.74
408.08	228.99
408.45	229.19
408.83	229.46
409.20	229.64
409.58	229.82
409.95	230.05
410.33	230.32
410.70	230.54
411.08	230.81
411.45	231.14
411.82	231.44
412.20	231.79
412.57	232.26
412.95	232.55
413.32	232.97
413.69	233.36
414.07	233.80
414.44	234.28
414.82	234.75
415.19	235.30
415.56	235.86
415.94	236.40
416.31	237.06
416.68	237.67
417.06	238.40
417.43	239.08
417.81	239.84
418.18	240.64
418.55	241.47
418.93	242.34
419.30	243.25
419.67	244.16
420.04	245.12
420.42	246.11
420.79	247.33
421.16	248.48
421.54	249.74
421.91	250.96
422.28	252.20
422.66	253.50
423.03	254.78
423.40	256.13
423.77	257.57
424.15	258.98
424.52	260.52
424.89	262.17
425.26	263.74
425.64	265.21
426.01	266.83
426.38	268.49
426.75	270.21
427.13	271.96
427.50	273.78
427.87	275.66
428.24	277.54
428.61	279.26
428.99	281.23
429.36	283.31
429.73	285.41
430.10	287.46
430.47	289.55
430.85	291.70
431.22	293.93
431.59	296.32
431.96	298.60
432.33	301.05
432.70	303.42
433.08	306.22
433.45	308.91
433.82	311.47
434.19	314.41
434.56	317.22
434.93	319.85
435.30	322.53
435.68	325.42
436.05	328.22
436.42	331.05
436.79	333.53
437.16	336.23
437.53	339.02
437.90	341.84
438.27	344.59
438.64	347.44
439.01	350.03
439.38	352.26
439.75	354.42
440.13	356.94
440.50	359.27
440.87	361.16
441.24	363.09
441.61	365.30
441.98	366.76
442.35	368.56
442.72	370.43
443.09	372.19
443.46	373.19
443.83	373.79
444.20	374.23
444.57	375.07
444.94	375.35
445.31	375.70
445.68	376.01
446.05	376.09
446.42	375.66
446.79	375.20
447.16	374.71
447.53	374.34
447.90	373.16
448.27	372.00
448.64	370.36
449.01	369.19
449.37	367.15
449.74	365.26
450.11	362.99
450.48	360.47
450.85	357.93
451.22	355.75
451.59	353.71
451.96	351.78
452.33	349.16
452.70	346.77
453.07	343.91
453.43	341.02
453.80	338.21
454.17	335.53
454.54	332.99
454.91	330.27
455.28	327.62
455.65	325.11
456.02	322.61
456.38	320.47
456.75	317.83
457.12	315.57
457.49	313.31
457.86	311.10
458.23	309.24
458.59	307.20
458.96	305.11
459.33	303.24
459.70	301.38
460.07	299.91
460.43	298.23
460.80	296.63
461.17	295.19
461.54	293.71
461.91	292.28
462.27	290.88
462.64	289.62
463.01	288.28
463.38	287.00
463.74	285.67
464.11	284.52
464.48	283.50
464.85	282.39
465.21	281.55
465.58	280.64
465.95	279.55
466.32	278.65
466.68	277.76
467.05	276.89
467.42	276.01
467.78	275.05
468.15	274.20
468.52	273.53
468.88	272.68
469.25	271.90
469.62	271.31
469.98	270.60
470.35	269.98
470.72	269.35
471.08	268.69
471.45	268.16
471.82	267.61
472.18	266.99
472.55	266.58
472.92	266.05
473.28	265.63
473.65	265.20
474.02	264.76
474.38	264.35
474.75	264.03
475.11	263.72
475.48	263.46
475.85	263.21
476.21	263.00
476.58	262.84
476.94	262.73
477.31	262.55
477.67	262.41
478.04	262.34
478.41	262.33
478.77	262.40
479.14	262.34
479.50	262.33
479.87	262.44
480.23	262.55
480.60	262.60
480.96	262.66
481.33	262.87
481.69	263.10
482.06	263.35
482.42	263.54
482.79	263.80
483.15	264.17
483.52	264.57
483.88	264.92
484.25	265.30
484.61	265.74
484.98	266.20
485.34	266.81
485.71	267.39
486.07	268.02
486.44	268.60
486.80	269.34
487.17	270.08
487.53	270.90
487.90	271.72
488.26	272.73
488.62	273.74
488.99	274.75
489.35	275.78
489.72	276.94
490.08	278.15
490.44	279.41
490.81	280.74
491.17	282.06
491.54	283.56
491.90	285.09
492.26	286.74
492.63	288.47
492.99	290.24
493.36	292.12
493.72	294.16
494.08	296.25
494.45	298.48
494.81	300.87
495.17	303.27
495.54	305.88
495.90	308.55
496.26	311.35
496.63	314.33
496.99	317.48
497.35	320.75
497.72	324.17
498.08	327.71
498.44	331.32
498.80	335.26
499.17	339.32
499.53	343.51
499.89	347.85
500.26	352.36
500.62	357.00
500.98	361.97
501.34	367.05
501.71	372.43
502.07	377.89
502.43	383.52
502.79	389.40
503.16	395.51
503.52	401.81
503.88	408.23
504.24	414.90
504.60	421.77
504.97	428.96
505.33	436.32
505.69	444.04
506.05	451.93
506.41	459.87
506.78	468.08
507.14	476.61
507.50	485.35
507.86	494.42
508.22	503.70
508.59	512.92
508.95	522.56
509.31	532.41
509.67	542.53
510.03	552.83
510.39	563.44
510.75	574.24
511.12	585.20
511.48	596.54
511.84	607.99
512.20	619.55
512.56	631.47
512.92	643.65
513.28	655.92
513.64	668.34
514.00	681.05
514.37	693.99
514.73	707.07
515.09	720.16
515.45	733.48
515.81	747.02
516.17	761.13
516.53	775.27
516.89	789.48
517.25	803.60
517.61	817.98
517.97	832.42
518.33	846.87
518.69	861.63
519.05	876.68
519.41	891.77
519.77	907.32
520.13	922.75
520.49	938.02
520.85	953.40
521.21	969.12
521.57	985.33
521.93	1001.00
522.29	1017.23
522.65	1033.45
523.01	1049.61
523.37	1065.53
523.73	1081.59
524.09	1097.61
524.45	1113.76
524.81	1130.42
525.17	1147.24
525.53	1164.12
525.89	1181.00
526.25	1197.72
526.61	1213.92
526.97	1230.64
527.33	1247.08
527.68	1263.58
528.04	1280.20
528.40	1296.81
528.76	1313.76
529.12	1330.26
529.48	1347.17
529.84	1363.02
530.20	1379.62
530.56	1396.61
530.91	1414.12
531.27	1430.73
531.63	1446.99
531.99	1463.58
532.35	1479.45
532.71	1495.26
533.07	1511.42
533.42	1527.24
533.78	1543.33
534.14	1559.61
534.50	1574.85
534.86	1590.56
535.21	1605.70
535.57	1621.56
535.93	1637.09
536.29	1651.99
536.65	1666.91
537.00	1681.43
537.36	1696.90
537.72	1711.26
538.08	1725.61
538.44	1739.24
538.79	1753.12
539.15	1766.96
539.51	1780.55
539.87	1794.93
540.22	1808.68
540.58	1822.34
540.94	1835.61
541.29	1848.36
541.65	1860.92
542.01	1874.12
542.37	1886.34
542.72	1898.79
543.08	1910.32
543.44	1922.50
543.79	1933.54
544.15	1944.60
544.51	1956.33
544.87	1967.17
545.22	1977.99
545.58	1988.14
545.94	1997.93
546.29	2007.72
546.65	2017.45
547.01	2026.80
547.36	2035.35
547.72	2043.64
548.07	2051.39
548.43	2059.49
548.79	2067.63
549.14	2075.16
549.50	2082.46
549.86	2090.23
550.21	2097.50
550.57	2104.70
550.92	2111.35
551.28	2118.39
551.64	2125.35
551.99	2131.80
552.35	2138.00
552.70	2144.13
553.06	2150.16
553.41	2156.61
553.77	2162.62
554.13	2168.63
554.48	2174.79
554.84	2180.31
555.19	2185.71
555.55	2191.10
555.90	2195.61
556.26	2200.41
556.61	2205.18
556.97	2209.50
557.32	2213.61
557.68	2217.69
558.03	2221.97
558.39	2225.69
558.74	2230.33
559.10	2234.30
559.45	2237.96
559.81	2242.13
560.16	2246.02
560.52	2249.22
560.87	2252.58
561.23	2255.30
561.58	2258.29
561.94	2260.72
562.29	2263.07
562.64	2265.74
563.00	2268.23
563.35	2271.81
563.71	2274.94
564.06	2278.12
564.42	2280.92
564.77	2283.48
565.12	2285.80
565.48	2287.75
565.83	2289.51
566.19	2290.78
566.54	2291.63
566.89	2292.86
567.25	2293.49
567.60	2294.73
567.96	2296.46
568.31	2297.33
568.66	2298.47
569.02	2299.21
569.37	2299.55
569.72	2300.48
570.08	2300.63
570.43	2300.71
570.78	2300.01
571.14	2298.37
571.49	2296.96
571.84	2296.81
572.20	2295.75
572.55	2294.67
572.90	2293.13
573.26	2291.93
573.61	2290.47
573.96	2288.73
574.31	2285.67
574.67	2282.75
575.02	2279.24
575.37	2275.80
575.72	2271.92
576.08	2268.53
576.43	2265.07
576.78	2261.50
577.13	2258.27
577.49	2255.23
577.84	2251.80
578.19	2248.12
578.54	2244.67
578.90	2240.55
579.25	2234.98
579.60	2230.08
579.95	2225.06
580.30	2220.21
580.66	2214.98
581.01	2209.99
581.36	2205.29
581.71	2201.14
582.06	2196.73
582.42	2192.30
582.77	2187.09
583.12	2182.75
583.47	2178.14
583.82	2173.23
584.17	2167.98
584.53	2162.62
584.88	2156.99
585.23	2151.22
585.58	2145.80
585.93	2140.38
586.28	2135.72
586.63	2130.75
586.98	2125.76
587.34	2121.20
587.69	2116.29
588.04	2110.99
588.39	2105.39
588.74	2098.79
589.09	2092.74
589.44	2086.09
589.79	2080.01
590.14	2074.54
590.49	2067.90
590.84	2061.55
591.19	2055.54
591.54	2049.22
591.89	2041.93
592.25	2035.19
592.60	2028.05
592.95	2020.53
593.30	2013.16
593.65	2005.60
594.00	1998.59
594.35	1991.25
594.70	1983.24
595.05	1976.07
595.40	1969.09
595.75	1961.55
596.10	1955.51
596.45	1948.86
596.80	1942.76
597.15	1936.24
597.50	1929.20
597.85	1922.77
598.19	1916.10
598.54	1909.07
598.89	1902.38
599.24	1896.41
599.59	1889.72
599.94	1883.53
600.29	1877.13
600.64	1870.57
600.99	1863.11
601.34	1856.30
601.69	1849.41
602.04	1842.53
602.39	1835.15
602.74	1828.19
603.08	1821.54
603.43	1814.72
603.78	1807.42
604.13	1800.10
604.48	1792.81
604.83	1785.92
605.18	1779.00
605.53	1771.05
605.87	1763.05
606.22	1755.67
606.57	1747.79
606.92	1740.56
607.27	1733.44
607.62	1726.51
607.96	1719.19
608.31	1712.71
608.66	1704.94
609.01	1697.38
609.36	1689.85
609.70	1681.91
610.05	1673.90
610.40	1666.18
610.75	1657.73
611.10	1649.93
611.44	1641.51
611.79	1633.48
612.14	1624.71
612.49	1615.36
612.83	1606.93
613.18	1598.83
613.53	1590.87
613.88	1582.30
614.22	1574.00
614.57	1565.26
614.92	1557.33
615.27	1549.85
615.61	1541.34
615.96	1533.30
616.31	1525.66
616.65	1518.34
617.00	1510.72
617.35	1502.99
617.70	1494.62
618.04	1486.27
618.39	1478.10
618.74	1470.39
619.08	1462.12
619.43	1454.59
619.78	1447.80
620.12	1440.68
620.47	1433.08
620.82	1424.96
621.16	1417.56
621.51	1409.93
621.85	1402.28
622.20	1393.70
622.55	1385.28
622.89	1377.55
623.24	1370.01
623.59	1362.60
623.93	1355.01
624.28	1347.80
624.62	1340.24
624.97	1333.03
625.32	1326.23
625.66	1319.31
626.01	1312.23
626.35	1304.76
626.70	1296.93
627.04	1289.13
627.39	1281.25
627.73	1273.89
628.08	1266.91
628.43	1259.50
628.77	1252.08
629.12	1244.53
629.46	1237.29
629.81	1229.81
630.15	1222.46
630.50	1214.99
630.84	1206.76
631.19	1198.78
631.53	1191.25
631.88	1183.75
632.22	1176.14
632.57	1168.80
632.91	1161.12
633.26	1153.67
633.60	1146.26
633.95	1139.18
634.29	1132.20
634.64	1125.56
634.98	1118.20
635.32	1110.94
635.67	1104.40
636.01	1097.73
636.36	1090.95
636.70	1084.50
637.05	1078.03
637.39	1071.58
637.73	1065.03
638.08	1059.10
638.42	1053.05
638.77	1046.66
639.11	1039.99
639.45	1033.58
639.80	1026.88
640.14	1020.46
640.49	1013.99
640.83	1007.68
641.17	1001.43
641.52	995.03
641.86	988.48
642.20	982.55
642.55	976.27
642.89	969.70
643.23	963.15
643.58	957.36
643.92	951.11
644.26	945.05
644.61	939.04
644.95	933.07
645.29	926.54
645.64	919.81
645.98	913.46
646.32	907.63
646.66	901.50
647.01	895.70
647.35	890.03
647.69	884.07
648.04	878.55
648.38	872.83
648.72	866.83
649.06	860.82
649.41	854.91
649.75	849.03
650.09	843.19
650.43	837.34
650.78	831.20
651.12	825.23
651.46	819.44
651.80	813.60
652.14	808.15
652.49	802.75
652.83	797.57
653.17	791.78
653.51	786.09
653.85	780.78
654.20	775.11
654.54	769.02
654.88	763.32
655.22	757.43
655.56	751.64
655.90	746.11
656.25	740.94
656.59	735.58
656.93	730.37
657.27	725.14
657.61	719.70
657.95	714.60
658.29	709.53
658.64	704.25
658.98	698.98
659.32	693.55
659.66	688.37
660.00	683.04
660.34	678.15
660.68	673.21
661.02	668.18
661.36	663.51
661.70	659.03
662.05	654.74
662.39	650.31
662.73	645.81
663.07	641.46
663.41	636.97
663.75	632.45
664.09	627.90
664.43	623.50
664.77	619.44
665.11	615.16
665.45	611.04
665.79	607.01
666.13	602.88
666.47	598.74
666.81	594.49
667.15	590.39
667.49	586.46
667.83	582.54
668.17	578.56
668.51	574.46
668.85	570.44
669.19	566.49
669.53	562.66
669.87	558.76
670.21	555.07
670.55	551.39
670.89	547.97
671.23	544.52
671.57	541.01
671.91	537.42
672.25	533.93
672.58	530.41
672.92	526.99
673.26	523.82
673.60	520.75
673.94	517.66
674.28	514.76
674.62	511.80
674.96	508.70
675.30	505.84
675.64	502.85
675.97	500.09
676.31	497.27
676.65	494.40
676.99	491.73
677.33	488.85
677.67	485.98
678.01	482.89
678.34	479.90
678.68	477.02
679.02	474.20
679.36	471.44
679.70	468.73
680.04	465.92
680.37	463.03
680.71	460.18
681.05	457.54
681.39	454.77
681.73	452.07
682.06	449.53
682.40	446.96
682.74	444.45
683.08	441.89
683.42	439.27
683.75	436.73
684.09	434.17
684.43	431.71
684.77	429.30
685.10	426.91
685.44	424.63
685.78	422.34
686.12	420.11
686.45	417.81
686.79	415.51
687.13	413.31
687.46	411.14
687.80	409.00
688.14	406.84
688.48	404.82
688.81	402.61
689.15	400.49
689.49	398.32
689.82	396.27
690.16	394.18
690.50	392.21
690.83	390.29
691.17	388.33
691.51	386.42
691.84	384.56
692.18	382.67
692.52	380.68
692.85	378.69
693.19	376.79
693.52	374.90
693.86	373.03
694.20	371.22
694.53	369.43
694.87	367.54
695.21	365.74
695.54	363.88
695.88	362.16
696.21	360.43
696.55	358.74
696.88	357.00
697.22	355.34
697.56	353.70
697.89	352.06
698.23	350.43
698.56	348.83
698.90	347.28
699.23	345.63
699.57	344.10
699.90	342.63
700.24	341.13
700.58	339.62
700.91	338.12
701.25	336.70
701.58	335.31
701.92	333.99
702.25	332.62
702.59	331.23
702.92	329.91
703.26	328.55
703.59	327.29
703.93	326.15
704.26	324.92
704.60	323.65
704.93	322.36
705.26	321.12
705.60	319.91
705.93	318.72
706.27	317.70
706.60	316.63
706.94	315.50
707.27	314.36
707.61	313.32
707.94	312.28
708.27	311.18
708.61	310.13
708.94	309.09
709.28	308.05
709.61	307.09
709.94	306.12
710.28	305.11
710.61	304.10
710.95	303.02
711.28	302.08
711.61	301.13
711.95	300.23
712.28	299.25
712.61	298.29
712.95	297.35
713.28	296.45
713.61	295.56
713.95	294.68
714.28	293.86
714.61	292.95
714.95	292.15
715.28	291.31
715.61	290.38
715.95	289.54
716.28	288.71
716.61	287.89
716.95	287.05
717.28	286.29
717.61	285.52
717.94	284.78
718.28	283.99
718.61	283.24
718.94	282.56
719.27	281.90
719.61	281.25
719.94	280.58
720.27	279.87
720.60	279.19
720.94	278.56
721.27	277.91
721.60	277.34
721.93	276.70
722.27	276.12
722.60	275.58
722.93	275.00
723.26	274.44
723.59	273.87
723.93	273.33
724.26	272.80
724.59	272.25
724.92	271.72
725.25	271.17
725.59	270.64
725.92	270.11
726.25	269.64
726.58	269.15
726.91	268.69
727.24	268.25
727.57	267.78
727.91	267.26
728.24	266.83
728.57	266.37
728.90	265.97
729.23	265.51
729.56	265.11
729.89	264.66
730.22	264.19
730.55	263.75
730.89	263.29
731.22	262.85
731.55	262.47
731.88	262.07
732.21	261.69
732.54	261.27
732.87	260.85
733.20	260.46
733.53	260.08
733.86	259.69
734.19	259.24
734.52	258.89
734.85	258.60
735.18	258.20
735.51	257.84
735.84	257.46
736.17	257.11
736.50	256.69
736.83	256.42
737.16	256.11
737.49	255.77
737.82	255.45
738.15	255.13
738.48	254.75
738.81	254.43
739.14	254.08
739.47	253.79
739.80	253.46
740.13	253.13
740.46	252.81
740.79	252.49
741.12	252.20
741.45	251.86
741.78	251.52
742.11	251.23
742.44	250.88
742.77	250.61
743.10	250.27
743.43	250.00
743.75	249.65
744.08	249.50
744.41	249.24
744.74	248.96
745.07	248.69
745.40	248.46
745.73	248.25
746.06	247.99
746.39	247.72
746.71	247.44
747.04	247.16
747.37	246.91
747.70	246.64
748.03	246.41
748.36	246.20
748.68	245.94
749.01	245.67
749.34	245.48
749.67	245.24
750.00	245.02
750.33	244.90
750.65	244.65
750.98	244.35
751.31	244.13
751.64	243.93
751.97	243.78
752.29	243.51
752.62	243.24
752.95	243.02
753.28	242.79
753.60	242.62
753.93	242.48
754.26	242.28
754.59	242.07
754.91	241.86
755.24	241.66
755.57	241.47
755.90	241.30
756.22	241.10
756.55	240.90
756.88	240.71
757.20	240.46
757.53	240.30
757.86	240.07
758.19	239.90
758.51	239.72
758.84	239.46
759.17	239.32
759.49	239.14
759.82	239.00
760.15	238.87
760.47	238.70
760.80	238.49
761.13	238.33
761.45	238.17
761.78	238.02
762.11	237.85
762.43	237.70
762.76	237.52
763.08	237.40
763.41	237.24
763.74	237.10
764.06	236.92
764.39	236.76
764.71	236.64
765.04	236.48
765.37	236.34
765.69	236.21
766.02	236.08
766.34	235.95
766.67	235.79
767.00	235.69
767.32	235.63
767.65	235.58
767.97	235.46
768.30	235.36
768.62	235.23
768.95	235.10
769.27	234.99
769.60	234.92
769.92	234.76
770.25	234.64
770.57	234.54
770.90	234.46
771.22	234.32
771.55	234.19
771.87	234.11
772.20	234.02
772.52	234.01
772.85	234.04
773.17	233.95
773.50	233.86
773.82	233.72
774.15	233.60
774.47	233.45
774.80	233.35
775.12	233.27
775.45	233.20
775.77	233.10
776.09	233.02
776.42	232.91
776.74	232.88
777.07	232.79
777.39	232.72
777.72	232.61
778.04	232.57
778.36	232.51
778.69	232.46
779.01	232.40
779.33	232.25
779.66	232.07
779.98	231.99
780.31	231.96
780.63	231.96
780.95	231.91
781.28	231.86
781.60	231.82
781.92	231.74
782.25	231.68
782.57	231.63
782.89	231.58
783.22	231.55
783.54	231.47
783.86	231.44
784.19	231.37
784.51	231.36
784.83	231.31
785.16	231.29
785.48	231.21
785.80	231.18
786.12	231.15
786.45	231.14
786.77	231.11
787.09	231.04
