SpectraSuite Data File
++++++++++++++++++++++++++++++++++++
Date: Fri Feb 01 15:24:20 EST 2013
User: group
Dark Spectrum Present: No
Reference Spectrum Present: No
Number of Sampled Component Spectra: 1
Spectrometers: USB2E7196
Integration Time (usec): 35000 (USB2E7196)
Spectra Averaged: 100 (USB2E7196)
Boxcar Smoothing: 10 (USB2E7196)
Correct for Electrical Dark: No (USB2E7196)
Strobe/Lamp Enabled: No (USB2E7196)
Correct for Detector Non-linearity: No (USB2E7196)
Correct for Stray Light: No (USB2E7196)
Number of Pixels in Processed Spectrum: 2048
>>>>>Begin Processed Spectral Data<<<<<
339.09	0.00
339.48	214.92
339.86	217.00
340.24	218.32
340.63	219.63
341.01	222.71
341.39	221.96
341.78	224.13
342.16	224.39
342.54	225.37
342.93	213.62
343.31	224.44
343.69	224.99
344.07	225.45
344.46	225.86
344.84	226.25
345.22	226.48
345.60	226.72
345.99	226.87
346.37	227.00
346.75	227.07
347.13	227.13
347.52	227.15
347.90	227.24
348.28	227.26
348.66	227.28
349.05	227.29
349.43	227.31
349.81	227.36
350.19	227.39
350.57	227.44
350.96	227.46
351.34	227.50
351.72	227.57
352.10	227.67
352.48	227.75
352.87	227.78
353.25	227.82
353.63	227.86
354.01	227.92
354.39	228.00
354.77	228.10
355.15	228.18
355.54	228.26
355.92	228.32
356.30	228.39
356.68	228.54
357.06	228.60
357.44	228.66
357.82	228.71
358.20	228.76
358.58	228.81
358.97	228.89
359.35	228.96
359.73	229.04
360.11	229.07
360.49	229.09
360.87	229.14
361.25	229.23
361.63	229.31
362.01	229.39
362.39	229.41
362.77	229.41
363.15	229.46
363.53	229.45
363.91	229.44
364.29	229.47
364.67	229.37
365.05	229.35
365.43	229.39
365.81	229.40
366.19	229.45
366.57	229.51
366.95	229.49
367.33	229.50
367.71	229.46
368.09	229.46
368.47	229.43
368.85	229.40
369.23	229.36
369.61	229.30
369.99	229.28
370.37	229.27
370.75	229.30
371.13	229.22
371.51	229.19
371.89	229.18
372.27	229.13
372.65	229.10
373.03	229.10
373.41	229.03
373.78	228.98
374.16	228.89
374.54	228.80
374.92	228.76
375.30	228.67
375.68	228.60
376.06	228.53
376.44	228.48
376.82	228.40
377.19	228.33
377.57	228.29
377.95	228.19
378.33	228.12
378.71	228.02
379.09	227.97
379.47	227.92
379.84	227.80
380.22	227.71
380.60	227.64
380.98	227.57
381.36	227.51
381.73	227.41
382.11	227.33
382.49	227.25
382.87	227.17
383.25	227.08
383.62	227.17
384.00	227.12
384.38	227.04
384.76	227.03
385.13	226.98
385.51	226.93
385.89	226.86
386.27	226.82
386.64	226.74
387.02	226.68
387.40	226.61
387.78	226.62
388.15	226.61
388.53	226.55
388.91	226.53
389.29	226.51
389.66	226.52
390.04	226.52
390.42	226.50
390.79	226.52
391.17	226.51
391.55	226.36
391.92	226.34
392.30	226.39
392.68	226.37
393.05	226.38
393.43	226.37
393.81	226.39
394.18	226.38
394.56	226.43
394.94	226.47
395.31	226.52
395.69	226.55
396.06	226.56
396.44	226.62
396.82	226.64
397.19	226.74
397.57	226.75
397.95	226.82
398.32	226.85
398.70	226.90
399.07	227.01
399.45	227.08
399.82	227.14
400.20	227.18
400.58	227.24
400.95	227.30
401.33	227.42
401.70	227.57
402.08	227.69
402.45	227.77
402.83	227.87
403.20	227.95
403.58	228.06
403.95	228.19
404.33	228.32
404.71	228.43
405.08	228.59
405.46	228.74
405.83	228.83
406.21	228.99
406.58	229.15
406.96	229.30
407.33	229.49
407.70	229.70
408.08	229.97
408.45	230.22
408.83	230.44
409.20	230.65
409.58	230.79
409.95	231.05
410.33	231.34
410.70	231.60
411.08	231.90
411.45	232.18
411.82	232.49
412.20	232.87
412.57	233.31
412.95	233.60
413.32	234.02
413.69	234.47
414.07	234.91
414.44	235.38
414.82	235.84
415.19	236.37
415.56	236.88
415.94	237.39
416.31	238.01
416.68	238.66
417.06	239.36
417.43	240.01
417.81	240.78
418.18	241.54
418.55	242.38
418.93	243.26
419.30	244.19
419.67	245.15
420.04	246.09
420.42	247.07
420.79	248.27
421.16	249.42
421.54	250.63
421.91	251.83
422.28	253.11
422.66	254.44
423.03	255.74
423.40	257.10
423.77	258.51
424.15	259.92
424.52	261.37
424.89	262.99
425.26	264.58
425.64	266.02
426.01	267.61
426.38	269.30
426.75	270.95
427.13	272.67
427.50	274.46
427.87	276.33
428.24	278.20
428.61	279.93
428.99	281.89
429.36	284.01
429.73	286.09
430.10	288.09
430.47	290.20
430.85	292.35
431.22	294.61
431.59	297.05
431.96	299.34
432.33	301.89
432.70	304.28
433.08	307.09
433.45	309.75
433.82	312.40
434.19	315.30
434.56	318.10
434.93	320.80
435.30	323.45
435.68	326.36
436.05	329.22
436.42	332.05
436.79	334.56
437.16	337.23
437.53	340.07
437.90	342.92
438.27	345.67
438.64	348.53
439.01	351.12
439.38	353.37
439.75	355.54
440.13	358.04
440.50	360.35
440.87	362.27
441.24	364.21
441.61	366.32
441.98	367.80
442.35	369.66
442.72	371.53
443.09	373.34
443.46	374.34
443.83	374.92
444.20	375.42
444.57	376.28
444.94	376.57
445.31	376.90
445.68	377.21
446.05	377.30
446.42	376.91
446.79	376.51
447.16	376.08
447.53	375.78
447.90	374.54
448.27	373.43
448.64	371.76
449.01	370.66
449.37	368.74
449.74	366.85
450.11	364.60
450.48	362.12
450.85	359.57
451.22	357.41
451.59	355.35
451.96	353.40
452.33	350.73
452.70	348.39
453.07	345.58
453.43	342.68
453.80	339.88
454.17	337.20
454.54	334.64
454.91	331.88
455.28	329.19
455.65	326.75
456.02	324.28
456.38	322.13
456.75	319.40
457.12	317.13
457.49	314.89
457.86	312.70
458.23	310.79
458.59	308.75
458.96	306.68
459.33	304.83
459.70	302.95
460.07	301.47
460.43	299.70
460.80	298.08
461.17	296.66
461.54	295.14
461.91	293.70
462.27	292.23
462.64	290.97
463.01	289.58
463.38	288.27
463.74	286.88
464.11	285.73
464.48	284.75
464.85	283.64
465.21	282.75
465.58	281.79
465.95	280.72
466.32	279.77
466.68	278.89
467.05	277.97
467.42	277.06
467.78	276.11
468.15	275.28
468.52	274.61
468.88	273.70
469.25	272.98
469.62	272.31
469.98	271.64
470.35	270.98
470.72	270.37
471.08	269.72
471.45	269.20
471.82	268.70
472.18	268.05
472.55	267.62
472.92	267.12
473.28	266.66
473.65	266.22
474.02	265.80
474.38	265.40
474.75	265.09
475.11	264.74
475.48	264.48
475.85	264.24
476.21	264.02
476.58	263.84
476.94	263.65
477.31	263.48
477.67	263.30
478.04	263.20
478.41	263.16
478.77	263.18
479.14	263.11
479.50	263.10
479.87	263.19
480.23	263.27
480.60	263.31
480.96	263.41
481.33	263.62
481.69	263.80
482.06	263.99
482.42	264.20
482.79	264.50
483.15	264.81
483.52	265.23
483.88	265.55
484.25	265.98
484.61	266.40
484.98	266.88
485.34	267.46
485.71	268.06
486.07	268.68
486.44	269.28
486.80	269.97
487.17	270.66
487.53	271.48
487.90	272.36
488.26	273.30
488.62	274.30
488.99	275.27
489.35	276.33
489.72	277.44
490.08	278.61
490.44	279.85
490.81	281.19
491.17	282.50
491.54	284.02
491.90	285.55
492.26	287.19
492.63	288.94
492.99	290.72
493.36	292.66
493.72	294.68
494.08	296.75
494.45	299.00
494.81	301.39
495.17	303.81
495.54	306.35
495.90	309.05
496.26	311.82
496.63	314.78
496.99	317.90
497.35	321.16
497.72	324.62
498.08	328.10
498.44	331.74
498.80	335.63
499.17	339.59
499.53	343.71
499.89	348.13
500.26	352.64
500.62	357.27
500.98	362.19
501.34	367.21
501.71	372.50
502.07	377.91
502.43	383.49
502.79	389.28
503.16	395.32
503.52	401.61
503.88	408.03
504.24	414.64
504.60	421.50
504.97	428.58
505.33	435.82
505.69	443.51
506.05	451.31
506.41	459.20
506.78	467.40
507.14	475.87
507.50	484.60
507.86	493.56
508.22	502.74
508.59	511.94
508.95	521.53
509.31	531.33
509.67	541.43
510.03	551.79
510.39	562.35
510.75	573.13
511.12	584.04
511.48	595.35
511.84	606.83
512.20	618.37
512.56	630.41
512.92	642.61
513.28	654.92
513.64	667.41
514.00	680.09
514.37	693.07
514.73	706.13
515.09	719.15
515.45	732.50
515.81	746.14
516.17	760.12
516.53	774.33
516.89	788.55
517.25	802.72
517.61	817.19
517.97	831.75
518.33	846.22
518.69	861.08
519.05	876.14
519.41	891.35
519.77	906.87
520.13	922.38
520.49	937.86
520.85	953.30
521.21	969.06
521.57	985.41
521.93	1001.29
522.29	1017.79
522.65	1034.07
523.01	1050.32
523.37	1066.44
523.73	1082.70
524.09	1098.82
524.45	1115.31
524.81	1132.05
525.17	1148.83
525.53	1165.67
525.89	1182.62
526.25	1199.39
526.61	1215.83
526.97	1232.54
527.33	1249.04
527.68	1265.67
528.04	1282.25
528.40	1298.98
528.76	1316.10
529.12	1332.78
529.48	1349.54
529.84	1365.52
530.20	1382.20
530.56	1399.35
530.91	1416.73
531.27	1433.41
531.63	1450.01
531.99	1466.61
532.35	1482.72
532.71	1498.75
533.07	1515.11
533.42	1531.02
533.78	1547.23
534.14	1563.58
534.50	1579.02
534.86	1595.04
535.21	1610.24
535.57	1626.18
535.93	1641.72
536.29	1656.55
536.65	1671.68
537.00	1686.64
537.36	1702.02
537.72	1716.70
538.08	1731.10
538.44	1744.96
538.79	1759.06
539.15	1772.89
539.51	1786.72
539.87	1801.10
540.22	1814.85
540.58	1828.79
540.94	1842.26
541.29	1855.31
541.65	1868.09
542.01	1881.48
542.37	1893.85
542.72	1906.35
543.08	1918.27
543.44	1930.76
543.79	1942.16
544.15	1953.17
544.51	1964.72
544.87	1975.80
545.22	1986.58
545.58	1996.82
545.94	2006.75
546.29	2016.67
546.65	2026.36
547.01	2035.57
547.36	2044.26
547.72	2052.76
548.07	2060.69
548.43	2068.82
548.79	2076.78
549.14	2084.22
549.50	2091.56
549.86	2099.20
550.21	2106.49
550.57	2113.70
550.92	2120.34
551.28	2127.39
551.64	2134.43
551.99	2140.91
552.35	2146.98
552.70	2153.17
553.06	2159.14
553.41	2165.42
553.77	2171.52
554.13	2177.70
554.48	2183.70
554.84	2189.08
555.19	2194.31
555.55	2199.33
555.90	2203.88
556.26	2208.71
556.61	2213.42
556.97	2217.53
557.32	2221.76
557.68	2225.97
558.03	2230.21
558.39	2233.80
558.74	2238.28
559.10	2242.06
559.45	2245.85
559.81	2250.32
560.16	2254.09
560.52	2257.39
560.87	2260.78
561.23	2263.31
561.58	2266.20
561.94	2268.85
562.29	2271.42
562.64	2274.17
563.00	2276.74
563.35	2280.20
563.71	2283.22
564.06	2286.36
564.42	2289.29
564.77	2291.77
565.12	2294.00
565.48	2295.78
565.83	2297.75
566.19	2299.08
566.54	2300.08
566.89	2301.19
567.25	2301.62
567.60	2302.90
567.96	2304.41
568.31	2305.14
568.66	2306.30
569.02	2306.87
569.37	2307.09
569.72	2307.80
570.08	2307.64
570.43	2307.53
570.78	2306.75
571.14	2305.30
571.49	2304.08
571.84	2303.51
572.20	2302.25
572.55	2301.13
572.90	2299.61
573.26	2298.09
573.61	2296.37
573.96	2294.54
574.31	2291.46
574.67	2288.36
575.02	2284.63
575.37	2281.24
575.72	2277.36
576.08	2273.93
576.43	2270.62
576.78	2266.92
577.13	2263.71
577.49	2260.80
577.84	2257.33
578.19	2253.70
578.54	2249.89
578.90	2245.57
579.25	2240.12
579.60	2235.07
579.95	2229.93
580.30	2224.78
580.66	2219.59
581.01	2214.35
581.36	2209.35
581.71	2205.03
582.06	2200.47
582.42	2196.05
582.77	2190.79
583.12	2186.05
583.47	2181.09
583.82	2175.81
584.17	2170.40
584.53	2164.62
584.88	2158.97
585.23	2153.11
585.58	2147.43
585.93	2141.91
586.28	2137.06
586.63	2132.01
586.98	2126.90
587.34	2122.27
587.69	2117.24
588.04	2111.73
588.39	2106.15
588.74	2099.67
589.09	2093.59
589.44	2086.74
589.79	2080.65
590.14	2074.93
590.49	2068.48
590.84	2062.14
591.19	2056.11
591.54	2049.61
591.89	2042.23
592.25	2035.15
592.60	2027.91
592.95	2020.33
593.30	2012.89
593.65	2005.15
594.00	1997.92
594.35	1990.64
594.70	1982.31
595.05	1975.08
595.40	1967.85
595.75	1960.27
596.10	1953.92
596.45	1946.91
596.80	1940.82
597.15	1933.98
597.50	1926.77
597.85	1920.26
598.19	1913.54
598.54	1906.36
598.89	1899.72
599.24	1893.78
599.59	1887.06
599.94	1880.86
600.29	1874.42
600.64	1867.78
600.99	1860.25
601.34	1853.29
601.69	1846.17
602.04	1839.20
602.39	1831.81
602.74	1824.99
603.08	1818.33
603.43	1811.42
603.78	1804.19
604.13	1796.79
604.48	1789.57
604.83	1782.74
605.18	1775.67
605.53	1767.73
605.87	1759.56
606.22	1752.29
606.57	1744.29
606.92	1737.12
607.27	1729.85
607.62	1722.95
607.96	1715.68
608.31	1709.01
608.66	1701.40
609.01	1693.80
609.36	1686.29
609.70	1678.25
610.05	1670.08
610.40	1662.24
610.75	1654.06
611.10	1646.45
611.44	1638.14
611.79	1630.03
612.14	1621.31
612.49	1612.25
612.83	1603.76
613.18	1595.85
613.53	1587.79
613.88	1579.33
614.22	1570.96
614.57	1562.29
614.92	1554.22
615.27	1546.52
615.61	1538.29
615.96	1530.34
616.31	1522.98
616.65	1515.72
617.00	1508.08
617.35	1500.56
617.70	1492.11
618.04	1483.46
618.39	1475.04
618.74	1467.25
619.08	1459.01
619.43	1451.38
619.78	1444.43
620.12	1437.24
620.47	1429.71
620.82	1421.56
621.16	1414.15
621.51	1406.58
621.85	1399.09
622.20	1390.60
622.55	1382.40
622.89	1374.45
623.24	1366.86
623.59	1359.36
623.93	1351.85
624.28	1344.66
624.62	1337.01
624.97	1329.96
625.32	1323.31
625.66	1316.39
626.01	1309.30
626.35	1301.75
626.70	1294.20
627.04	1286.37
627.39	1278.63
627.73	1271.05
628.08	1264.11
628.43	1256.85
628.77	1249.38
629.12	1241.67
629.46	1234.53
629.81	1227.16
630.15	1219.94
630.50	1212.53
630.84	1204.28
631.19	1196.31
631.53	1188.89
631.88	1181.37
632.22	1173.73
632.57	1166.39
632.91	1158.86
633.26	1151.43
633.60	1144.19
633.95	1137.05
634.29	1130.11
634.64	1123.44
634.98	1116.16
635.32	1109.01
635.67	1102.42
636.01	1095.90
636.36	1089.16
636.70	1082.64
637.05	1075.95
637.39	1069.55
637.73	1063.04
638.08	1057.12
638.42	1051.24
638.77	1044.69
639.11	1038.05
639.45	1031.71
639.80	1025.06
640.14	1018.55
640.49	1012.03
640.83	1005.68
641.17	999.41
641.52	993.04
641.86	986.69
642.20	980.81
642.55	974.55
642.89	968.03
643.23	961.43
643.58	955.64
643.92	949.38
644.26	943.34
644.61	937.35
644.95	931.36
645.29	924.79
645.64	917.91
645.98	911.57
646.32	905.76
646.66	899.71
647.01	893.89
647.35	888.30
647.69	882.51
648.04	877.04
648.38	871.15
648.72	865.14
649.06	858.98
649.41	853.19
649.75	847.11
650.09	841.16
650.43	835.36
650.78	829.19
651.12	823.34
651.46	817.68
651.80	811.87
652.14	806.40
652.49	801.03
652.83	795.88
653.17	790.21
653.51	784.48
653.85	779.09
654.20	773.46
654.54	767.52
654.88	761.82
655.22	755.99
655.56	750.34
655.90	744.89
656.25	739.69
656.59	734.30
656.93	729.25
657.27	724.07
657.61	718.73
657.95	713.66
658.29	708.51
658.64	703.31
658.98	698.04
659.32	692.67
659.66	687.51
660.00	682.18
660.34	677.29
660.68	672.47
661.02	667.45
661.36	662.70
661.70	658.14
662.05	653.71
662.39	649.28
662.73	644.88
663.07	640.51
663.41	636.06
663.75	631.60
664.09	627.10
664.43	622.78
664.77	618.60
665.11	614.32
665.45	610.21
665.79	606.05
666.13	601.90
666.47	597.76
666.81	593.56
667.15	589.49
667.49	585.62
667.83	581.73
668.17	577.84
668.51	573.77
668.85	569.78
669.19	565.97
669.53	562.18
669.87	558.25
670.21	554.59
670.55	550.94
670.89	547.44
671.23	544.01
671.57	540.47
671.91	536.89
672.25	533.46
672.58	529.99
672.92	526.69
673.26	523.56
673.60	520.43
673.94	517.36
674.28	514.44
674.62	511.40
674.96	508.35
675.30	505.43
675.64	502.51
675.97	499.75
676.31	496.90
676.65	493.97
676.99	491.30
677.33	488.42
677.67	485.58
678.01	482.55
678.34	479.50
678.68	476.60
679.02	473.82
679.36	471.03
679.70	468.30
680.04	465.52
680.37	462.61
680.71	459.81
681.05	457.19
681.39	454.52
681.73	451.90
682.06	449.35
682.40	446.80
682.74	444.35
683.08	441.81
683.42	439.22
683.75	436.76
684.09	434.25
684.43	431.82
684.77	429.41
685.10	427.11
685.44	424.88
685.78	422.61
686.12	420.39
686.45	418.16
686.79	415.92
687.13	413.69
687.46	411.56
687.80	409.43
688.14	407.28
688.48	405.23
688.81	403.01
689.15	400.88
689.49	398.79
689.82	396.67
690.16	394.62
690.50	392.67
690.83	390.68
691.17	388.71
691.51	386.81
691.84	384.91
692.18	382.99
692.52	380.98
692.85	379.08
693.19	377.22
693.52	375.38
693.86	373.55
694.20	371.79
694.53	369.98
694.87	368.10
695.21	366.30
695.54	364.49
695.88	362.76
696.21	361.01
696.55	359.30
696.88	357.66
697.22	355.99
697.56	354.38
697.89	352.74
698.23	351.10
698.56	349.47
698.90	347.90
699.23	346.27
699.57	344.78
699.90	343.26
700.24	341.74
700.58	340.20
700.91	338.65
701.25	337.20
701.58	335.85
701.92	334.49
702.25	333.08
702.59	331.72
702.92	330.42
703.26	329.14
703.59	327.84
703.93	326.64
704.26	325.38
704.60	324.08
704.93	322.79
705.26	321.55
705.60	320.39
705.93	319.23
706.27	318.20
706.60	317.10
706.94	316.01
707.27	314.87
707.61	313.80
707.94	312.81
708.27	311.67
708.61	310.58
708.94	309.57
709.28	308.61
709.61	307.60
709.94	306.66
710.28	305.64
710.61	304.71
710.95	303.65
711.28	302.72
711.61	301.79
711.95	300.90
712.28	299.93
712.61	298.94
712.95	298.05
713.28	297.12
713.61	296.24
713.95	295.33
714.28	294.50
714.61	293.61
714.95	292.77
715.28	291.98
715.61	291.14
715.95	290.33
716.28	289.48
716.61	288.70
716.95	287.88
717.28	287.16
717.61	286.35
717.94	285.60
718.28	284.82
718.61	284.09
718.94	283.39
719.27	282.77
719.61	282.15
719.94	281.46
720.27	280.79
720.60	280.14
720.94	279.56
721.27	278.94
721.60	278.37
721.93	277.81
722.27	277.23
722.60	276.68
722.93	276.10
723.26	275.59
723.59	275.02
723.93	274.46
724.26	273.91
724.59	273.38
724.92	272.83
725.25	272.31
725.59	271.80
725.92	271.28
726.25	270.71
726.58	270.21
726.91	269.71
727.24	269.23
727.57	268.71
727.91	268.19
728.24	267.76
728.57	267.29
728.90	266.81
729.23	266.33
729.56	265.89
729.89	265.43
730.22	264.93
730.55	264.48
730.89	264.06
731.22	263.57
731.55	263.16
731.88	262.75
732.21	262.32
732.54	261.91
732.87	261.50
733.20	261.17
733.53	260.78
733.86	260.42
734.19	260.02
734.52	259.68
734.85	259.39
735.18	258.96
735.51	258.59
735.84	258.24
736.17	257.90
736.50	257.53
736.83	257.30
737.16	256.98
737.49	256.63
737.82	256.29
738.15	256.00
738.48	255.64
738.81	255.37
739.14	255.08
739.47	254.75
739.80	254.46
740.13	254.14
740.46	253.84
740.79	253.51
741.12	253.22
741.45	252.91
741.78	252.54
742.11	252.25
742.44	251.94
742.77	251.66
743.10	251.33
743.43	251.03
743.75	250.63
744.08	250.49
744.41	250.21
744.74	249.92
745.07	249.63
745.40	249.40
745.73	249.14
746.06	248.85
746.39	248.58
746.71	248.30
747.04	248.04
747.37	247.80
747.70	247.56
748.03	247.32
748.36	247.09
748.68	246.86
749.01	246.59
749.34	246.33
749.67	246.10
750.00	245.87
750.33	245.74
750.65	245.56
750.98	245.21
751.31	245.01
751.64	244.81
751.97	244.63
752.29	244.38
752.62	244.11
752.95	243.88
753.28	243.67
753.60	243.43
753.93	243.23
754.26	243.01
754.59	242.78
754.91	242.58
755.24	242.39
755.57	242.17
755.90	242.01
756.22	241.84
756.55	241.61
756.88	241.42
757.20	241.15
757.53	240.93
757.86	240.72
758.19	240.55
758.51	240.37
758.84	240.18
759.17	240.02
759.49	239.87
759.82	239.75
760.15	239.63
760.47	239.51
760.80	239.36
761.13	239.21
761.45	239.06
761.78	238.90
762.11	238.76
762.43	238.60
762.76	238.45
763.08	238.33
763.41	238.18
763.74	238.04
764.06	237.88
764.39	237.74
764.71	237.61
765.04	237.44
765.37	237.29
765.69	237.14
766.02	237.03
766.34	236.87
766.67	236.72
767.00	236.58
767.32	236.52
767.65	236.44
767.97	236.35
768.30	236.25
768.62	236.14
768.95	236.02
769.27	235.95
769.60	235.87
769.92	235.76
770.25	235.65
770.57	235.55
770.90	235.47
771.22	235.38
771.55	235.31
771.87	235.28
772.20	235.19
772.52	235.21
772.85	235.22
773.17	235.16
773.50	235.07
773.82	235.01
774.15	234.84
774.47	234.68
774.80	234.55
775.12	234.47
775.45	234.38
775.77	234.27
776.09	234.18
776.42	234.09
776.74	234.02
777.07	233.97
777.39	233.89
777.72	233.81
778.04	233.76
778.36	233.68
778.69	233.58
779.01	233.53
779.33	233.35
779.66	233.17
779.98	233.09
780.31	233.04
780.63	233.02
780.95	232.97
781.28	232.94
781.60	232.87
781.92	232.80
782.25	232.76
782.57	232.71
782.89	232.65
783.22	232.58
783.54	232.49
783.86	232.44
784.19	232.38
784.51	232.35
784.83	232.26
785.16	232.21
785.48	232.16
785.80	232.12
786.12	232.06
786.45	232.02
786.77	232.00
787.09	231.92
