SpectraSuite Data File
++++++++++++++++++++++++++++++++++++
Date: Fri Feb 01 16:24:56 EST 2013
User: group
Dark Spectrum Present: No
Reference Spectrum Present: No
Number of Sampled Component Spectra: 1
Spectrometers: USB2E7196
Integration Time (usec): 35000 (USB2E7196)
Spectra Averaged: 100 (USB2E7196)
Boxcar Smoothing: 10 (USB2E7196)
Correct for Electrical Dark: No (USB2E7196)
Strobe/Lamp Enabled: No (USB2E7196)
Correct for Detector Non-linearity: No (USB2E7196)
Correct for Stray Light: No (USB2E7196)
Number of Pixels in Processed Spectrum: 2048
>>>>>Begin Processed Spectral Data<<<<<
339.09	0.00
339.48	213.63
339.86	215.71
340.24	216.46
340.63	218.27
341.01	221.23
341.39	220.73
341.78	222.51
342.16	223.29
342.54	223.61
342.93	212.26
343.31	222.97
343.69	223.51
344.07	223.96
344.46	224.39
344.84	224.77
345.22	225.01
345.60	225.24
345.99	225.43
346.37	225.55
346.75	225.66
347.13	225.70
347.52	225.73
347.90	225.79
348.28	225.80
348.66	225.85
349.05	225.83
349.43	225.88
349.81	225.92
350.19	225.97
350.57	226.05
350.96	226.14
351.34	226.27
351.72	226.37
352.10	226.49
352.48	226.58
352.87	226.61
353.25	226.67
353.63	226.77
354.01	226.84
354.39	226.94
354.77	227.00
355.15	227.08
355.54	227.18
355.92	227.22
356.30	227.33
356.68	227.47
357.06	227.57
357.44	227.60
357.82	227.69
358.20	227.78
358.58	227.84
358.97	227.89
359.35	227.95
359.73	228.03
360.11	228.02
360.49	228.10
360.87	228.17
361.25	228.22
361.63	228.30
362.01	228.33
362.39	228.36
362.77	228.42
363.15	228.43
363.53	228.47
363.91	228.49
364.29	228.51
364.67	228.42
365.05	228.44
365.43	228.49
365.81	228.49
366.19	228.53
366.57	228.55
366.95	228.55
367.33	228.53
367.71	228.54
368.09	228.57
368.47	228.55
368.85	228.57
369.23	228.57
369.61	228.49
369.99	228.49
370.37	228.45
370.75	228.48
371.13	228.47
371.51	228.43
371.89	228.45
372.27	228.41
372.65	228.38
373.03	228.36
373.41	228.31
373.78	228.28
374.16	228.20
374.54	228.13
374.92	228.04
375.30	227.99
375.68	227.88
376.06	227.84
376.44	227.74
376.82	227.66
377.19	227.59
377.57	227.55
377.95	227.48
378.33	227.44
378.71	227.31
379.09	227.27
379.47	227.21
379.84	227.14
380.22	227.06
380.60	226.97
380.98	226.90
381.36	226.84
381.73	226.75
382.11	226.69
382.49	226.63
382.87	226.59
383.25	226.50
383.62	226.58
384.00	226.51
384.38	226.47
384.76	226.41
385.13	226.38
385.51	226.33
385.89	226.26
386.27	226.23
386.64	226.20
387.02	226.14
387.40	226.07
387.78	226.02
388.15	226.01
388.53	225.99
388.91	225.98
389.29	225.92
389.66	225.90
390.04	225.87
390.42	225.84
390.79	225.81
391.17	225.82
391.55	225.70
391.92	225.68
392.30	225.66
392.68	225.68
393.05	225.68
393.43	225.69
393.81	225.70
394.18	225.64
394.56	225.65
394.94	225.71
395.31	225.74
395.69	225.79
396.06	225.80
396.44	225.80
396.82	225.80
397.19	225.90
397.57	225.94
397.95	226.01
398.32	226.07
398.70	226.16
399.07	226.23
399.45	226.29
399.82	226.40
400.20	226.48
400.58	226.51
400.95	226.56
401.33	226.65
401.70	226.79
402.08	226.92
402.45	227.04
402.83	227.13
403.20	227.25
403.58	227.32
403.95	227.47
404.33	227.59
404.71	227.70
405.08	227.86
405.46	228.03
405.83	228.18
406.21	228.30
406.58	228.46
406.96	228.64
407.33	228.84
407.70	229.03
408.08	229.30
408.45	229.55
408.83	229.79
409.20	230.03
409.58	230.19
409.95	230.42
410.33	230.68
410.70	230.92
411.08	231.22
411.45	231.54
411.82	231.80
412.20	232.17
412.57	232.63
412.95	232.92
413.32	233.31
413.69	233.71
414.07	234.14
414.44	234.59
414.82	235.05
415.19	235.56
415.56	236.06
415.94	236.58
416.31	237.19
416.68	237.81
417.06	238.49
417.43	239.18
417.81	239.97
418.18	240.70
418.55	241.53
418.93	242.40
419.30	243.27
419.67	244.19
420.04	245.15
420.42	246.11
420.79	247.27
421.16	248.41
421.54	249.56
421.91	250.74
422.28	251.98
422.66	253.27
423.03	254.54
423.40	255.90
423.77	257.30
424.15	258.70
424.52	260.16
424.89	261.77
425.26	263.32
425.64	264.74
426.01	266.32
426.38	267.93
426.75	269.54
427.13	271.26
427.50	273.10
427.87	274.92
428.24	276.75
428.61	278.47
428.99	280.39
429.36	282.52
429.73	284.56
430.10	286.59
430.47	288.63
430.85	290.78
431.22	292.97
431.59	295.33
431.96	297.56
432.33	300.03
432.70	302.40
433.08	305.22
433.45	307.82
433.82	310.41
434.19	313.29
434.56	316.07
434.93	318.74
435.30	321.36
435.68	324.24
436.05	327.07
436.42	329.87
436.79	332.37
437.16	335.00
437.53	337.86
437.90	340.62
438.27	343.34
438.64	346.14
439.01	348.72
439.38	350.97
439.75	353.16
440.13	355.62
440.50	357.92
440.87	359.69
441.24	361.63
441.61	363.76
441.98	365.25
442.35	367.12
442.72	368.95
443.09	370.74
443.46	371.76
443.83	372.34
444.20	372.85
444.57	373.67
444.94	373.98
445.31	374.34
445.68	374.70
446.05	374.83
446.42	374.45
446.79	374.03
447.16	373.58
447.53	373.29
447.90	372.17
448.27	371.01
448.64	369.47
449.01	368.38
449.37	366.45
449.74	364.59
450.11	362.30
450.48	359.83
450.85	357.30
451.22	355.16
451.59	353.13
451.96	351.24
452.33	348.68
452.70	346.38
453.07	343.54
453.43	340.67
453.80	337.89
454.17	335.25
454.54	332.75
454.91	330.05
455.28	327.36
455.65	324.91
456.02	322.48
456.38	320.39
456.75	317.76
457.12	315.56
457.49	313.38
457.86	311.24
458.23	309.43
458.59	307.38
458.96	305.32
459.33	303.51
459.70	301.62
460.07	300.12
460.43	298.36
460.80	296.77
461.17	295.35
461.54	293.92
461.91	292.48
462.27	291.04
462.64	289.76
463.01	288.42
463.38	287.12
463.74	285.79
464.11	284.61
464.48	283.60
464.85	282.51
465.21	281.63
465.58	280.75
465.95	279.70
466.32	278.84
466.68	277.94
467.05	277.08
467.42	276.23
467.78	275.34
468.15	274.48
468.52	273.83
468.88	272.98
469.25	272.19
469.62	271.59
469.98	270.95
470.35	270.35
470.72	269.72
471.08	269.07
471.45	268.51
471.82	267.99
472.18	267.36
472.55	266.91
472.92	266.39
473.28	265.91
473.65	265.46
474.02	264.98
474.38	264.61
474.75	264.26
475.11	263.92
475.48	263.61
475.85	263.41
476.21	263.13
476.58	262.94
476.94	262.81
477.31	262.60
477.67	262.41
478.04	262.30
478.41	262.25
478.77	262.28
479.14	262.23
479.50	262.23
479.87	262.26
480.23	262.35
480.60	262.42
480.96	262.52
481.33	262.72
481.69	262.92
482.06	263.15
482.42	263.33
482.79	263.57
483.15	263.93
483.52	264.30
483.88	264.69
484.25	265.09
484.61	265.50
484.98	265.99
485.34	266.55
485.71	267.14
486.07	267.74
486.44	268.33
486.80	269.08
487.17	269.79
487.53	270.64
487.90	271.47
488.26	272.41
488.62	273.40
488.99	274.37
489.35	275.44
489.72	276.55
490.08	277.82
490.44	279.08
490.81	280.40
491.17	281.79
491.54	283.28
491.90	284.80
492.26	286.44
492.63	288.18
492.99	289.97
493.36	291.87
493.72	293.95
494.08	296.01
494.45	298.23
494.81	300.61
495.17	303.05
495.54	305.63
495.90	308.30
496.26	311.08
496.63	314.05
496.99	317.18
497.35	320.48
497.72	323.86
498.08	327.39
498.44	331.04
498.80	334.89
499.17	338.95
499.53	343.16
499.89	347.53
500.26	352.01
500.62	356.69
500.98	361.70
501.34	366.82
501.71	372.21
502.07	377.72
502.43	383.37
502.79	389.19
503.16	395.28
503.52	401.58
503.88	408.01
504.24	414.65
504.60	421.45
504.97	428.53
505.33	435.84
505.69	443.55
506.05	451.35
506.41	459.29
506.78	467.40
507.14	475.83
507.50	484.57
507.86	493.59
508.22	502.82
508.59	512.05
508.95	521.60
509.31	531.40
509.67	541.46
510.03	551.70
510.39	562.24
510.75	573.01
511.12	583.94
511.48	595.26
511.84	606.66
512.20	618.21
512.56	630.13
512.92	642.33
513.28	654.67
513.64	667.16
514.00	679.87
514.37	692.80
514.73	705.92
515.09	718.92
515.45	732.25
515.81	745.81
516.17	759.74
516.53	773.79
516.89	787.99
517.25	802.09
517.61	816.52
517.97	830.98
518.33	845.44
518.69	860.24
519.05	875.20
519.41	890.29
519.77	905.88
520.13	921.26
520.49	936.51
520.85	951.91
521.21	967.55
521.57	983.75
521.93	999.51
522.29	1015.74
522.65	1031.95
523.01	1048.10
523.37	1064.13
523.73	1080.30
524.09	1096.32
524.45	1112.42
524.81	1128.97
525.17	1145.57
525.53	1162.40
525.89	1179.15
526.25	1195.81
526.61	1212.11
526.97	1228.87
527.33	1245.23
527.68	1261.75
528.04	1278.24
528.40	1294.70
528.76	1311.70
529.12	1328.24
529.48	1345.01
529.84	1361.01
530.20	1377.59
530.56	1394.43
530.91	1411.79
531.27	1428.34
531.63	1444.76
531.99	1461.31
532.35	1477.31
532.71	1493.24
533.07	1509.33
533.42	1525.21
533.78	1541.30
534.14	1557.55
534.50	1572.84
534.86	1588.57
535.21	1603.74
535.57	1619.52
535.93	1634.92
536.29	1649.59
536.65	1664.45
537.00	1679.15
537.36	1694.32
537.72	1708.77
538.08	1723.19
538.44	1736.74
538.79	1750.59
539.15	1764.19
539.51	1777.83
539.87	1792.05
540.22	1805.75
540.58	1819.39
540.94	1832.63
541.29	1845.27
541.65	1857.76
542.01	1870.85
542.37	1883.15
542.72	1895.43
543.08	1907.14
543.44	1919.54
543.79	1930.78
544.15	1941.60
544.51	1953.21
544.87	1964.14
545.22	1974.94
545.58	1985.06
545.94	1994.82
546.29	2004.51
546.65	2014.25
547.01	2023.45
547.36	2032.07
547.72	2040.48
548.07	2048.43
548.43	2056.48
548.79	2064.60
549.14	2072.00
549.50	2079.18
549.86	2086.72
550.21	2093.99
550.57	2101.20
550.92	2107.78
551.28	2114.75
551.64	2121.86
551.99	2128.27
552.35	2134.36
552.70	2140.45
553.06	2146.36
553.41	2152.67
553.77	2158.72
554.13	2164.88
554.48	2171.04
554.84	2176.47
555.19	2181.63
555.55	2186.83
555.90	2191.36
556.26	2196.07
556.61	2200.98
556.97	2205.47
557.32	2209.63
557.68	2213.84
558.03	2218.17
558.39	2221.67
558.74	2226.20
559.10	2230.03
559.45	2233.66
559.81	2237.92
560.16	2241.76
560.52	2245.07
560.87	2248.43
561.23	2251.21
561.58	2254.12
561.94	2256.64
562.29	2258.98
562.64	2261.73
563.00	2264.24
563.35	2267.66
563.71	2270.91
564.06	2274.04
564.42	2276.76
564.77	2279.24
565.12	2281.49
565.48	2283.39
565.83	2285.38
566.19	2286.66
566.54	2287.57
566.89	2288.70
567.25	2289.37
567.60	2290.42
567.96	2292.15
568.31	2292.93
568.66	2294.21
569.02	2294.89
569.37	2295.36
569.72	2296.32
570.08	2296.43
570.43	2296.47
570.78	2296.12
571.14	2294.62
571.49	2293.34
571.84	2293.10
572.20	2292.14
572.55	2291.23
572.90	2289.72
573.26	2288.40
573.61	2286.87
573.96	2285.40
574.31	2282.53
574.67	2279.62
575.02	2276.32
575.37	2273.07
575.72	2269.51
576.08	2265.99
576.43	2262.69
576.78	2258.90
577.13	2255.84
577.49	2252.79
577.84	2249.41
578.19	2245.63
578.54	2242.12
578.90	2237.87
579.25	2232.47
579.60	2227.54
579.95	2222.55
580.30	2217.54
580.66	2212.40
581.01	2207.67
581.36	2202.75
581.71	2198.67
582.06	2194.36
582.42	2189.97
582.77	2184.83
583.12	2180.35
583.47	2175.69
583.82	2170.66
584.17	2165.59
584.53	2160.08
584.88	2154.61
585.23	2148.84
585.58	2143.35
585.93	2137.93
586.28	2133.35
586.63	2128.38
586.98	2123.30
587.34	2118.68
587.69	2113.74
588.04	2108.50
588.39	2102.75
588.74	2096.28
589.09	2090.31
589.44	2083.54
589.79	2077.50
590.14	2071.90
590.49	2065.41
590.84	2059.12
591.19	2053.23
591.54	2046.85
591.89	2039.51
592.25	2032.68
592.60	2025.52
592.95	2018.03
593.30	2010.79
593.65	2003.26
594.00	1996.24
594.35	1989.14
594.70	1981.16
595.05	1974.11
595.40	1966.94
595.75	1959.55
596.10	1953.39
596.45	1946.61
596.80	1940.46
597.15	1933.92
597.50	1926.67
597.85	1920.20
598.19	1913.59
598.54	1906.39
598.89	1899.68
599.24	1893.72
599.59	1887.13
599.94	1881.08
600.29	1874.80
600.64	1868.27
600.99	1860.81
601.34	1854.02
601.69	1846.97
602.04	1840.11
602.39	1832.75
602.74	1825.98
603.08	1819.22
603.43	1812.55
603.78	1805.23
604.13	1797.98
604.48	1790.55
604.83	1783.78
605.18	1776.88
605.53	1768.82
605.87	1760.86
606.22	1753.60
606.57	1745.82
606.92	1738.52
607.27	1731.31
607.62	1724.45
607.96	1717.10
608.31	1710.45
608.66	1702.93
609.01	1695.56
609.36	1687.93
609.70	1680.02
610.05	1672.02
610.40	1664.29
610.75	1655.87
611.10	1648.19
611.44	1639.75
611.79	1631.88
612.14	1623.30
612.49	1614.04
612.83	1605.82
613.18	1597.75
613.53	1589.76
613.88	1581.27
614.22	1572.89
614.57	1564.32
614.92	1556.33
615.27	1548.74
615.61	1540.37
615.96	1532.25
616.31	1524.61
616.65	1517.22
617.00	1509.59
617.35	1501.75
617.70	1493.46
618.04	1484.92
618.39	1476.63
618.74	1469.08
619.08	1460.74
619.43	1453.01
619.78	1446.21
620.12	1438.97
620.47	1431.46
620.82	1423.38
621.16	1415.95
621.51	1408.52
621.85	1400.86
622.20	1392.24
622.55	1383.97
622.89	1376.21
623.24	1368.57
623.59	1361.10
623.93	1353.69
624.28	1346.41
624.62	1338.93
624.97	1331.79
625.32	1325.20
625.66	1318.28
626.01	1311.16
626.35	1303.79
626.70	1296.17
627.04	1288.38
627.39	1280.64
627.73	1273.26
628.08	1266.22
628.43	1258.88
628.77	1251.38
629.12	1243.88
629.46	1236.72
629.81	1229.21
630.15	1221.92
630.50	1214.47
630.84	1206.27
631.19	1198.30
631.53	1190.88
631.88	1183.30
632.22	1175.65
632.57	1168.30
632.91	1160.71
633.26	1153.31
633.60	1145.92
633.95	1138.73
634.29	1131.69
634.64	1124.95
634.98	1117.61
635.32	1110.45
635.67	1103.83
636.01	1097.24
636.36	1090.39
636.70	1083.86
637.05	1077.31
637.39	1070.84
637.73	1064.31
638.08	1058.34
638.42	1052.32
638.77	1045.80
639.11	1039.26
639.45	1032.82
639.80	1026.19
640.14	1019.69
640.49	1013.08
640.83	1006.73
641.17	1000.54
641.52	994.16
641.86	987.73
642.20	981.83
642.55	975.61
642.89	969.09
643.23	962.46
643.58	956.60
643.92	950.35
644.26	944.25
644.61	938.22
644.95	932.19
645.29	925.56
645.64	918.76
645.98	912.43
646.32	906.52
646.66	900.51
647.01	894.61
647.35	888.95
647.69	883.09
648.04	877.58
648.38	871.64
648.72	865.68
649.06	859.56
649.41	853.72
649.75	847.65
650.09	841.72
650.43	835.95
650.78	829.84
651.12	823.96
651.46	818.24
651.80	812.51
652.14	807.08
652.49	801.79
652.83	796.70
653.17	790.94
653.51	785.27
653.85	779.83
654.20	774.17
654.54	768.15
654.88	762.43
655.22	756.50
655.56	750.91
655.90	745.43
656.25	740.24
656.59	734.84
656.93	729.73
657.27	724.61
657.61	719.25
657.95	714.18
658.29	709.09
658.64	703.84
658.98	698.49
659.32	693.04
659.66	687.84
660.00	682.48
660.34	677.56
660.68	672.61
661.02	667.64
661.36	662.95
661.70	658.46
662.05	654.07
662.39	649.79
662.73	645.30
663.07	640.96
663.41	636.51
663.75	631.99
664.09	627.48
664.43	623.05
664.77	618.88
665.11	614.61
665.45	610.45
665.79	606.33
666.13	602.27
666.47	598.26
666.81	594.14
667.15	590.04
667.49	586.24
667.83	582.48
668.17	578.56
668.51	574.49
668.85	570.50
669.19	566.73
669.53	562.90
669.87	559.06
670.21	555.36
670.55	551.69
670.89	548.27
671.23	544.84
671.57	541.36
671.91	537.85
672.25	534.34
672.58	530.83
672.92	527.47
673.26	524.26
673.60	521.05
673.94	517.92
674.28	515.05
674.62	511.99
674.96	508.84
675.30	505.90
675.64	502.96
675.97	500.15
676.31	497.18
676.65	494.21
676.99	491.50
677.33	488.63
677.67	485.82
678.01	482.78
678.34	479.72
678.68	476.85
679.02	474.01
679.36	471.20
679.70	468.52
680.04	465.76
680.37	462.91
680.71	460.15
681.05	457.50
681.39	454.71
681.73	452.13
682.06	449.59
682.40	447.01
682.74	444.45
683.08	441.90
683.42	439.32
683.75	436.83
684.09	434.24
684.43	431.75
684.77	429.29
685.10	426.94
685.44	424.71
685.78	422.38
686.12	420.14
686.45	417.80
686.79	415.48
687.13	413.28
687.46	411.07
687.80	408.86
688.14	406.63
688.48	404.56
688.81	402.29
689.15	400.10
689.49	397.98
689.82	395.95
690.16	393.92
690.50	391.98
690.83	390.06
691.17	388.08
691.51	386.20
691.84	384.38
692.18	382.40
692.52	380.37
692.85	378.41
693.19	376.51
693.52	374.74
693.86	372.93
694.20	371.10
694.53	369.34
694.87	367.47
695.21	365.69
695.54	363.85
695.88	362.10
696.21	360.43
696.55	358.73
696.88	357.01
697.22	355.28
697.56	353.65
697.89	351.98
698.23	350.35
698.56	348.72
698.90	347.08
699.23	345.48
699.57	343.98
699.90	342.46
700.24	340.94
700.58	339.41
700.91	337.88
701.25	336.44
701.58	335.05
701.92	333.71
702.25	332.33
702.59	330.96
702.92	329.67
703.26	328.33
703.59	327.03
703.93	325.83
704.26	324.56
704.60	323.22
704.93	321.91
705.26	320.66
705.60	319.48
705.93	318.34
706.27	317.28
706.60	316.19
706.94	315.11
707.27	313.96
707.61	312.90
707.94	311.89
708.27	310.83
708.61	309.75
708.94	308.75
709.28	307.81
709.61	306.91
709.94	305.93
710.28	304.96
710.61	303.98
710.95	302.96
711.28	302.08
711.61	301.18
711.95	300.31
712.28	299.39
712.61	298.43
712.95	297.50
713.28	296.62
713.61	295.75
713.95	294.88
714.28	294.05
714.61	293.17
714.95	292.28
715.28	291.42
715.61	290.61
715.95	289.76
716.28	288.91
716.61	288.05
716.95	287.28
717.28	286.52
717.61	285.77
717.94	285.02
718.28	284.23
718.61	283.50
718.94	282.77
719.27	282.13
719.61	281.45
719.94	280.79
720.27	280.09
720.60	279.40
720.94	278.77
721.27	278.17
721.60	277.64
721.93	277.04
722.27	276.46
722.60	275.83
722.93	275.26
723.26	274.72
723.59	274.11
723.93	273.55
724.26	273.00
724.59	272.41
724.92	271.85
725.25	271.34
725.59	270.82
725.92	270.32
726.25	269.79
726.58	269.29
726.91	268.79
727.24	268.28
727.57	267.80
727.91	267.29
728.24	266.81
728.57	266.28
728.90	265.85
729.23	265.35
729.56	264.96
729.89	264.48
730.22	263.98
730.55	263.52
730.89	263.06
731.22	262.60
731.55	262.18
731.88	261.79
732.21	261.34
732.54	260.93
732.87	260.50
733.20	260.09
733.53	259.70
733.86	259.29
734.19	258.92
734.52	258.52
734.85	258.20
735.18	257.77
735.51	257.39
735.84	257.01
736.17	256.67
736.50	256.25
736.83	256.02
737.16	255.66
737.49	255.33
737.82	254.96
738.15	254.64
738.48	254.31
738.81	253.95
739.14	253.60
739.47	253.23
739.80	252.95
740.13	252.63
740.46	252.32
740.79	252.01
741.12	251.67
741.45	251.40
741.78	251.05
742.11	250.78
742.44	250.49
742.77	250.19
743.10	249.92
743.43	249.60
743.75	249.19
744.08	249.07
744.41	248.82
744.74	248.54
745.07	248.22
745.40	248.01
745.73	247.79
746.06	247.54
746.39	247.33
746.71	247.05
747.04	246.76
747.37	246.49
747.70	246.26
748.03	246.03
748.36	245.82
748.68	245.57
749.01	245.30
749.34	245.11
749.67	244.89
750.00	244.64
750.33	244.49
750.65	244.31
750.98	243.95
751.31	243.73
751.64	243.55
751.97	243.41
752.29	243.15
752.62	242.92
752.95	242.74
753.28	242.52
753.60	242.32
753.93	242.12
754.26	241.96
754.59	241.73
754.91	241.55
755.24	241.34
755.57	241.19
755.90	240.99
756.22	240.75
756.55	240.54
756.88	240.35
757.20	240.14
757.53	239.96
757.86	239.81
758.19	239.68
758.51	239.51
758.84	239.27
759.17	239.12
759.49	238.97
759.82	238.85
760.15	238.71
760.47	238.59
760.80	238.48
761.13	238.33
761.45	238.21
761.78	238.04
762.11	237.90
762.43	237.78
762.76	237.68
763.08	237.59
763.41	237.50
763.74	237.41
764.06	237.29
764.39	237.15
764.71	237.03
765.04	236.87
765.37	236.74
765.69	236.65
766.02	236.52
766.34	236.36
766.67	236.20
767.00	236.09
767.32	236.00
767.65	235.89
767.97	235.79
768.30	235.68
768.62	235.56
768.95	235.45
769.27	235.30
769.60	235.18
769.92	235.05
770.25	234.89
770.57	234.77
770.90	234.64
771.22	234.53
771.55	234.42
771.87	234.34
772.20	234.23
772.52	234.24
772.85	234.27
773.17	234.20
773.50	234.10
773.82	234.00
774.15	233.85
774.47	233.72
774.80	233.59
775.12	233.50
775.45	233.39
775.77	233.31
776.09	233.24
776.42	233.15
776.74	233.09
777.07	233.00
777.39	232.93
777.72	232.85
778.04	232.77
778.36	232.71
778.69	232.60
779.01	232.53
779.33	232.34
779.66	232.14
779.98	232.06
780.31	232.02
780.63	231.98
780.95	231.94
781.28	231.89
781.60	231.83
781.92	231.76
782.25	231.70
782.57	231.61
782.89	231.55
783.22	231.49
783.54	231.39
783.86	231.37
784.19	231.25
784.51	231.21
784.83	231.16
785.16	231.09
785.48	231.05
785.80	231.02
786.12	230.99
786.45	230.98
786.77	230.95
787.09	230.85
