SpectraSuite Data File
++++++++++++++++++++++++++++++++++++
Date: Fri Feb 01 15:17:18 EST 2013
User: group
Dark Spectrum Present: No
Reference Spectrum Present: No
Number of Sampled Component Spectra: 1
Spectrometers: USB2E7196
Integration Time (usec): 35000 (USB2E7196)
Spectra Averaged: 100 (USB2E7196)
Boxcar Smoothing: 10 (USB2E7196)
Correct for Electrical Dark: No (USB2E7196)
Strobe/Lamp Enabled: No (USB2E7196)
Correct for Detector Non-linearity: No (USB2E7196)
Correct for Stray Light: No (USB2E7196)
Number of Pixels in Processed Spectrum: 2048
>>>>>Begin Processed Spectral Data<<<<<
339.09	0.00
339.48	215.64
339.86	216.78
340.24	217.67
340.63	219.70
341.01	222.34
341.39	222.37
341.78	223.66
342.16	224.51
342.54	225.15
342.93	213.52
343.31	224.34
343.69	224.84
344.07	225.28
344.46	225.73
344.84	226.09
345.22	226.31
345.60	226.57
345.99	226.73
346.37	226.87
346.75	226.98
347.13	227.03
347.52	227.12
347.90	227.21
348.28	227.26
348.66	227.31
349.05	227.30
349.43	227.33
349.81	227.38
350.19	227.42
350.57	227.49
350.96	227.54
351.34	227.60
351.72	227.69
352.10	227.80
352.48	227.86
352.87	227.91
353.25	227.98
353.63	228.03
354.01	228.11
354.39	228.17
354.77	228.27
355.15	228.38
355.54	228.43
355.92	228.47
356.30	228.53
356.68	228.65
357.06	228.75
357.44	228.81
357.82	228.89
358.20	228.95
358.58	229.00
358.97	229.07
359.35	229.13
359.73	229.24
360.11	229.30
360.49	229.37
360.87	229.41
361.25	229.49
361.63	229.56
362.01	229.61
362.39	229.65
362.77	229.67
363.15	229.71
363.53	229.74
363.91	229.74
364.29	229.74
364.67	229.66
365.05	229.67
365.43	229.68
365.81	229.70
366.19	229.74
366.57	229.76
366.95	229.76
367.33	229.72
367.71	229.67
368.09	229.65
368.47	229.63
368.85	229.57
369.23	229.53
369.61	229.44
369.99	229.41
370.37	229.36
370.75	229.35
371.13	229.29
371.51	229.23
371.89	229.20
372.27	229.17
372.65	229.10
373.03	229.01
373.41	228.98
373.78	228.91
374.16	228.82
374.54	228.75
374.92	228.67
375.30	228.65
375.68	228.54
376.06	228.50
376.44	228.40
376.82	228.35
377.19	228.29
377.57	228.22
377.95	228.14
378.33	228.07
378.71	227.90
379.09	227.81
379.47	227.74
379.84	227.65
380.22	227.56
380.60	227.48
380.98	227.40
381.36	227.29
381.73	227.21
382.11	227.13
382.49	227.05
382.87	226.96
383.25	226.89
383.62	226.93
384.00	226.85
384.38	226.80
384.76	226.78
385.13	226.72
385.51	226.68
385.89	226.60
386.27	226.56
386.64	226.55
387.02	226.51
387.40	226.50
387.78	226.46
388.15	226.43
388.53	226.40
388.91	226.38
389.29	226.34
389.66	226.32
390.04	226.32
390.42	226.31
390.79	226.31
391.17	226.31
391.55	226.25
391.92	226.24
392.30	226.23
392.68	226.23
393.05	226.27
393.43	226.27
393.81	226.32
394.18	226.37
394.56	226.37
394.94	226.44
395.31	226.47
395.69	226.56
396.06	226.58
396.44	226.64
396.82	226.67
397.19	226.75
397.57	226.81
397.95	226.85
398.32	226.86
398.70	226.94
399.07	226.99
399.45	227.05
399.82	227.11
400.20	227.20
400.58	227.28
400.95	227.33
401.33	227.44
401.70	227.56
402.08	227.65
402.45	227.77
402.83	227.86
403.20	227.98
403.58	228.03
403.95	228.20
404.33	228.32
404.71	228.47
405.08	228.69
405.46	228.80
405.83	228.98
406.21	229.16
406.58	229.31
406.96	229.51
407.33	229.68
407.70	229.88
408.08	230.18
408.45	230.39
408.83	230.60
409.20	230.80
409.58	231.02
409.95	231.28
410.33	231.56
410.70	231.81
411.08	232.06
411.45	232.40
411.82	232.70
412.20	233.06
412.57	233.50
412.95	233.76
413.32	234.22
413.69	234.61
414.07	235.04
414.44	235.52
414.82	235.99
415.19	236.55
415.56	237.10
415.94	237.62
416.31	238.26
416.68	238.90
417.06	239.63
417.43	240.32
417.81	241.10
418.18	241.87
418.55	242.71
418.93	243.61
419.30	244.51
419.67	245.45
420.04	246.41
420.42	247.36
420.79	248.57
421.16	249.70
421.54	250.86
421.91	252.12
422.28	253.35
422.66	254.68
423.03	255.95
423.40	257.25
423.77	258.63
424.15	260.04
424.52	261.52
424.89	263.14
425.26	264.67
425.64	266.09
426.01	267.67
426.38	269.34
426.75	271.00
427.13	272.70
427.50	274.50
427.87	276.38
428.24	278.30
428.61	280.01
428.99	281.94
429.36	284.07
429.73	286.08
430.10	288.13
430.47	290.20
430.85	292.34
431.22	294.63
431.59	297.03
431.96	299.29
432.33	301.77
432.70	304.17
433.08	306.97
433.45	309.65
433.82	312.32
434.19	315.23
434.56	318.07
434.93	320.72
435.30	323.32
435.68	326.28
436.05	329.05
436.42	331.87
436.79	334.45
437.16	337.14
437.53	340.03
437.90	342.87
438.27	345.65
438.64	348.52
439.01	351.13
439.38	353.41
439.75	355.57
440.13	358.08
440.50	360.41
440.87	362.31
441.24	364.24
441.61	366.37
441.98	367.84
442.35	369.67
442.72	371.55
443.09	373.35
443.46	374.28
443.83	374.96
444.20	375.48
444.57	376.28
444.94	376.56
445.31	376.87
445.68	377.20
446.05	377.26
446.42	376.89
446.79	376.45
447.16	375.97
447.53	375.67
447.90	374.52
448.27	373.32
448.64	371.71
449.01	370.57
449.37	368.58
449.74	366.66
450.11	364.38
450.48	361.91
450.85	359.40
451.22	357.27
451.59	355.19
451.96	353.21
452.33	350.61
452.70	348.25
453.07	345.43
453.43	342.53
453.80	339.75
454.17	337.03
454.54	334.51
454.91	331.81
455.28	329.11
455.65	326.59
456.02	324.17
456.38	322.02
456.75	319.37
457.12	317.12
457.49	314.94
457.86	312.76
458.23	310.91
458.59	308.90
458.96	306.80
459.33	304.93
459.70	303.09
460.07	301.57
460.43	299.86
460.80	298.23
461.17	296.77
461.54	295.24
461.91	293.80
462.27	292.32
462.64	291.02
463.01	289.68
463.38	288.39
463.74	287.04
464.11	285.87
464.48	284.82
464.85	283.71
465.21	282.84
465.58	281.91
465.95	280.76
466.32	279.81
466.68	278.93
467.05	278.01
467.42	277.10
467.78	276.17
468.15	275.27
468.52	274.57
468.88	273.70
469.25	272.92
469.62	272.27
469.98	271.59
470.35	270.94
470.72	270.34
471.08	269.64
471.45	269.09
471.82	268.53
472.18	267.91
472.55	267.45
472.92	266.91
473.28	266.42
473.65	265.97
474.02	265.51
474.38	265.11
474.75	264.82
475.11	264.47
475.48	264.21
475.85	264.01
476.21	263.79
476.58	263.60
476.94	263.48
477.31	263.28
477.67	263.13
478.04	263.06
478.41	263.01
478.77	263.07
479.14	262.98
479.50	263.01
479.87	263.06
480.23	263.11
480.60	263.16
480.96	263.24
481.33	263.47
481.69	263.72
482.06	263.93
482.42	264.11
482.79	264.37
483.15	264.67
483.52	265.00
483.88	265.34
484.25	265.71
484.61	266.14
484.98	266.60
485.34	267.18
485.71	267.74
486.07	268.35
486.44	268.95
486.80	269.62
487.17	270.32
487.53	271.12
487.90	272.00
488.26	272.96
488.62	273.98
488.99	274.90
489.35	275.92
489.72	277.06
490.08	278.25
490.44	279.48
490.81	280.84
491.17	282.24
491.54	283.73
491.90	285.28
492.26	286.91
492.63	288.68
492.99	290.43
493.36	292.31
493.72	294.33
494.08	296.40
494.45	298.67
494.81	301.07
495.17	303.52
495.54	306.09
495.90	308.76
496.26	311.53
496.63	314.55
496.99	317.66
497.35	320.93
497.72	324.34
498.08	327.83
498.44	331.45
498.80	335.32
499.17	339.36
499.53	343.52
499.89	347.85
500.26	352.35
500.62	357.01
500.98	362.01
501.34	367.07
501.71	372.38
502.07	377.82
502.43	383.41
502.79	389.24
503.16	395.23
503.52	401.46
503.88	407.88
504.24	414.49
504.60	421.38
504.97	428.51
505.33	435.81
505.69	443.54
506.05	451.32
506.41	459.19
506.78	467.34
507.14	475.77
507.50	484.51
507.86	493.55
508.22	502.71
508.59	511.96
508.95	521.49
509.31	531.31
509.67	541.36
510.03	551.68
510.39	562.21
510.75	573.06
511.12	584.01
511.48	595.26
511.84	606.65
512.20	618.07
512.56	629.94
512.92	642.10
513.28	654.44
513.64	666.96
514.00	679.66
514.37	692.60
514.73	705.68
515.09	718.74
515.45	732.02
515.81	745.61
516.17	759.47
516.53	773.70
516.89	787.93
517.25	802.14
517.61	816.58
517.97	831.03
518.33	845.50
518.69	860.27
519.05	875.25
519.41	890.44
519.77	906.05
520.13	921.63
520.49	937.10
520.85	952.59
521.21	968.37
521.57	984.61
521.93	1000.52
522.29	1016.99
522.65	1033.25
523.01	1049.59
523.37	1065.67
523.73	1081.99
524.09	1098.04
524.45	1114.33
524.81	1131.01
525.17	1147.84
525.53	1164.83
525.89	1181.72
526.25	1198.65
526.61	1215.18
526.97	1232.07
527.33	1248.67
527.68	1265.31
528.04	1281.81
528.40	1298.58
528.76	1315.66
529.12	1332.35
529.48	1349.21
529.84	1365.27
530.20	1381.96
530.56	1398.99
530.91	1416.48
531.27	1433.25
531.63	1449.78
531.99	1466.54
532.35	1482.62
532.71	1498.44
533.07	1514.90
533.42	1530.79
533.78	1546.91
534.14	1563.24
534.50	1578.54
534.86	1594.40
535.21	1609.57
535.57	1625.62
535.93	1641.18
536.29	1655.88
536.65	1671.07
537.00	1685.95
537.36	1701.30
537.72	1715.98
538.08	1730.42
538.44	1744.44
538.79	1758.37
539.15	1772.25
539.51	1786.06
539.87	1800.48
540.22	1814.52
540.58	1828.26
540.94	1841.83
541.29	1854.90
541.65	1867.67
542.01	1881.19
542.37	1893.61
542.72	1906.12
543.08	1918.09
543.44	1930.38
543.79	1941.79
544.15	1952.89
544.51	1964.45
544.87	1975.66
545.22	1986.40
545.58	1996.60
545.94	2006.24
546.29	2016.33
546.65	2026.12
547.01	2035.42
547.36	2044.26
547.72	2052.58
548.07	2060.48
548.43	2068.66
548.79	2076.63
549.14	2084.18
549.50	2091.36
549.86	2099.12
550.21	2106.41
550.57	2113.40
550.92	2120.02
551.28	2127.22
551.64	2134.27
551.99	2140.83
552.35	2146.78
552.70	2153.10
553.06	2159.23
553.41	2165.62
553.77	2171.45
554.13	2177.59
554.48	2183.67
554.84	2188.96
555.19	2194.39
555.55	2199.44
555.90	2203.94
556.26	2208.68
556.61	2213.44
556.97	2217.67
557.32	2221.72
557.68	2225.96
558.03	2230.15
558.39	2233.96
558.74	2238.51
559.10	2242.32
559.45	2246.03
559.81	2250.43
560.16	2254.24
560.52	2257.33
560.87	2260.83
561.23	2263.54
561.58	2266.49
561.94	2268.90
562.29	2271.38
562.64	2273.99
563.00	2276.52
563.35	2280.04
563.71	2283.13
564.06	2286.35
564.42	2289.20
564.77	2291.71
565.12	2293.86
565.48	2295.84
565.83	2297.49
566.19	2298.90
566.54	2299.93
566.89	2300.88
567.25	2301.30
567.60	2302.54
567.96	2304.16
568.31	2304.92
568.66	2306.01
569.02	2306.45
569.37	2306.72
569.72	2307.42
570.08	2307.46
570.43	2307.53
570.78	2306.71
571.14	2305.20
571.49	2303.86
571.84	2303.53
572.20	2302.24
572.55	2301.32
572.90	2299.80
573.26	2298.45
573.61	2296.54
573.96	2294.50
574.31	2291.46
574.67	2288.54
575.02	2284.91
575.37	2281.47
575.72	2277.51
576.08	2274.14
576.43	2270.73
576.78	2267.02
577.13	2263.86
577.49	2260.68
577.84	2257.11
578.19	2253.32
578.54	2249.60
578.90	2245.11
579.25	2239.44
579.60	2234.46
579.95	2229.17
580.30	2223.94
580.66	2218.65
581.01	2213.64
581.36	2208.61
581.71	2204.36
582.06	2199.80
582.42	2195.00
582.77	2189.68
583.12	2184.93
583.47	2180.03
583.82	2174.83
584.17	2169.46
584.53	2163.84
584.88	2158.20
585.23	2152.26
585.58	2146.78
585.93	2141.26
586.28	2136.42
586.63	2131.28
586.98	2126.04
587.34	2121.36
587.69	2116.37
588.04	2111.04
588.39	2105.21
588.74	2098.72
589.09	2092.43
589.44	2085.43
589.79	2079.50
590.14	2073.87
590.49	2067.37
590.84	2061.00
591.19	2054.92
591.54	2048.49
591.89	2040.89
592.25	2033.84
592.60	2026.63
592.95	2018.87
593.30	2011.39
593.65	2003.72
594.00	1996.72
594.35	1989.41
594.70	1981.28
595.05	1973.92
595.40	1966.54
595.75	1958.93
596.10	1952.63
596.45	1945.89
596.80	1939.67
597.15	1932.93
597.50	1925.73
597.85	1919.27
598.19	1912.40
598.54	1905.33
598.89	1898.54
599.24	1892.51
599.59	1885.82
599.94	1879.55
600.29	1873.24
600.64	1866.68
600.99	1859.09
601.34	1852.09
601.69	1845.13
602.04	1838.09
602.39	1830.83
602.74	1824.03
603.08	1817.38
603.43	1810.69
603.78	1803.35
604.13	1796.10
604.48	1788.72
604.83	1781.74
605.18	1774.65
605.53	1766.65
605.87	1758.57
606.22	1751.28
606.57	1743.53
606.92	1736.21
607.27	1728.97
607.62	1722.03
607.96	1714.72
608.31	1708.18
608.66	1700.57
609.01	1693.10
609.36	1685.47
609.70	1677.53
610.05	1669.30
610.40	1661.58
610.75	1653.16
611.10	1645.49
611.44	1637.13
611.79	1629.18
612.14	1620.55
612.49	1611.39
612.83	1603.13
613.18	1595.02
613.53	1587.12
613.88	1578.54
614.22	1570.28
614.57	1561.78
614.92	1553.78
615.27	1546.23
615.61	1537.81
615.96	1529.82
616.31	1522.06
616.65	1514.77
617.00	1507.11
617.35	1499.52
617.70	1491.07
618.04	1482.60
618.39	1474.28
618.74	1466.57
619.08	1458.29
619.43	1450.72
619.78	1443.79
620.12	1436.62
620.47	1429.14
620.82	1420.83
621.16	1413.48
621.51	1405.94
621.85	1398.27
622.20	1389.64
622.55	1381.36
622.89	1373.62
623.24	1366.00
623.59	1358.70
623.93	1351.15
624.28	1343.86
624.62	1336.33
624.97	1329.16
625.32	1322.40
625.66	1315.48
626.01	1308.33
626.35	1300.82
626.70	1293.08
627.04	1285.27
627.39	1277.44
627.73	1269.99
628.08	1263.14
628.43	1255.84
628.77	1248.43
629.12	1240.87
629.46	1233.71
629.81	1226.21
630.15	1218.92
630.50	1211.53
630.84	1203.36
631.19	1195.50
631.53	1188.06
631.88	1180.54
632.22	1172.94
632.57	1165.69
632.91	1158.16
633.26	1150.79
633.60	1143.51
633.95	1136.41
634.29	1129.55
634.64	1122.83
634.98	1115.43
635.32	1108.21
635.67	1101.57
636.01	1094.89
636.36	1088.01
636.70	1081.50
637.05	1074.85
637.39	1068.42
637.73	1061.89
638.08	1055.98
638.42	1050.03
638.77	1043.45
639.11	1036.72
639.45	1030.37
639.80	1023.57
640.14	1017.01
640.49	1010.47
640.83	1004.14
641.17	997.96
641.52	991.50
641.86	985.12
642.20	979.35
642.55	973.12
642.89	966.66
643.23	960.10
643.58	954.42
643.92	948.19
644.26	942.18
644.61	936.28
644.95	930.25
645.29	923.62
645.64	916.85
645.98	910.64
646.32	904.99
646.66	898.97
647.01	893.24
647.35	887.67
647.69	881.83
648.04	876.32
648.38	870.44
648.72	864.46
649.06	858.34
649.41	852.42
649.75	846.40
650.09	840.43
650.43	834.74
650.78	828.61
651.12	822.68
651.46	816.99
651.80	811.15
652.14	805.80
652.49	800.46
652.83	795.31
653.17	789.64
653.51	783.86
653.85	778.52
654.20	772.93
654.54	766.99
654.88	761.31
655.22	755.46
655.56	749.87
655.90	744.51
656.25	739.29
656.59	734.08
656.93	729.07
657.27	723.94
657.61	718.52
657.95	713.48
658.29	708.44
658.64	703.30
658.98	698.04
659.32	692.55
659.66	687.36
660.00	682.11
660.34	677.15
660.68	672.30
661.02	667.29
661.36	662.54
661.70	658.08
662.05	653.71
662.39	649.43
662.73	645.01
663.07	640.60
663.41	636.19
663.75	631.61
664.09	627.03
664.43	622.68
664.77	618.63
665.11	614.38
665.45	610.30
665.79	606.13
666.13	601.99
666.47	597.94
666.81	593.80
667.15	589.66
667.49	585.79
667.83	582.01
668.17	578.09
668.51	573.99
668.85	569.93
669.19	566.09
669.53	562.19
669.87	558.22
670.21	554.55
670.55	550.90
670.89	547.53
671.23	544.11
671.57	540.61
671.91	537.03
672.25	533.50
672.58	530.00
672.92	526.63
673.26	523.51
673.60	520.39
673.94	517.23
674.28	514.37
674.62	511.40
674.96	508.26
675.30	505.31
675.64	502.42
675.97	499.64
676.31	496.75
676.65	493.80
676.99	491.11
677.33	488.26
677.67	485.42
678.01	482.35
678.34	479.31
678.68	476.45
679.02	473.63
679.36	470.87
679.70	468.14
680.04	465.36
680.37	462.44
680.71	459.58
681.05	457.06
681.39	454.26
681.73	451.62
682.06	449.08
682.40	446.53
682.74	443.98
683.08	441.43
683.42	438.85
683.75	436.39
684.09	433.87
684.43	431.38
684.77	428.95
685.10	426.59
685.44	424.35
685.78	422.11
686.12	419.83
686.45	417.56
686.79	415.25
687.13	413.10
687.46	410.99
687.80	408.92
688.14	406.65
688.48	404.62
688.81	402.38
689.15	400.28
689.49	398.17
689.82	396.13
690.16	394.09
690.50	392.17
690.83	390.25
691.17	388.28
691.51	386.37
691.84	384.56
692.18	382.65
692.52	380.69
692.85	378.75
693.19	376.93
693.52	375.13
693.86	373.34
694.20	371.57
694.53	369.78
694.87	367.94
695.21	366.21
695.54	364.40
695.88	362.71
696.21	361.00
696.55	359.35
696.88	357.67
697.22	356.02
697.56	354.38
697.89	352.74
698.23	351.16
698.56	349.54
698.90	347.91
699.23	346.29
699.57	344.76
699.90	343.21
700.24	341.67
700.58	340.12
700.91	338.56
701.25	337.13
701.58	335.78
701.92	334.41
702.25	333.01
702.59	331.67
702.92	330.37
703.26	329.07
703.59	327.81
703.93	326.66
704.26	325.46
704.60	324.19
704.93	322.91
705.26	321.67
705.60	320.57
705.93	319.50
706.27	318.46
706.60	317.40
706.94	316.33
707.27	315.18
707.61	314.13
707.94	313.16
708.27	312.07
708.61	310.96
708.94	309.96
709.28	308.98
709.61	308.01
709.94	307.07
710.28	306.05
710.61	305.09
710.95	304.02
711.28	303.06
711.61	302.15
711.95	301.26
712.28	300.31
712.61	299.33
712.95	298.34
713.28	297.43
713.61	296.52
713.95	295.59
714.28	294.77
714.61	293.92
714.95	293.08
715.28	292.23
715.61	291.35
715.95	290.50
716.28	289.66
716.61	288.86
716.95	288.04
717.28	287.30
717.61	286.47
717.94	285.71
718.28	284.91
718.61	284.15
718.94	283.47
719.27	282.78
719.61	282.11
719.94	281.50
720.27	280.82
720.60	280.11
720.94	279.50
721.27	278.85
721.60	278.25
721.93	277.68
722.27	277.11
722.60	276.57
722.93	275.98
723.26	275.49
723.59	274.89
723.93	274.32
724.26	273.72
724.59	273.17
724.92	272.66
725.25	272.17
725.59	271.64
725.92	271.09
726.25	270.61
726.58	270.13
726.91	269.61
727.24	269.10
727.57	268.68
727.91	268.19
728.24	267.75
728.57	267.27
728.90	266.79
729.23	266.26
729.56	265.84
729.89	265.38
730.22	264.85
730.55	264.39
730.89	263.92
731.22	263.49
731.55	263.06
731.88	262.62
732.21	262.19
732.54	261.72
732.87	261.32
733.20	260.92
733.53	260.50
733.86	260.15
734.19	259.74
734.52	259.36
734.85	259.01
735.18	258.63
735.51	258.28
735.84	257.91
736.17	257.58
736.50	257.15
736.83	256.89
737.16	256.58
737.49	256.24
737.82	255.95
738.15	255.67
738.48	255.35
738.81	255.06
739.14	254.72
739.47	254.43
739.80	254.13
740.13	253.81
740.46	253.51
740.79	253.16
741.12	252.84
741.45	252.53
741.78	252.22
742.11	251.94
742.44	251.63
742.77	251.35
743.10	251.08
743.43	250.85
743.75	250.49
744.08	250.35
744.41	250.12
744.74	249.81
745.07	249.51
745.40	249.25
745.73	249.01
746.06	248.74
746.39	248.50
746.71	248.24
747.04	248.02
747.37	247.76
747.70	247.56
748.03	247.35
748.36	247.16
748.68	246.93
749.01	246.70
749.34	246.48
749.67	246.25
750.00	246.04
750.33	245.90
750.65	245.74
750.98	245.41
751.31	245.17
751.64	244.98
751.97	244.86
752.29	244.65
752.62	244.39
752.95	244.20
753.28	243.98
753.60	243.76
753.93	243.58
754.26	243.42
754.59	243.19
754.91	242.99
755.24	242.76
755.57	242.59
755.90	242.38
756.22	242.19
756.55	241.97
756.88	241.74
757.20	241.49
757.53	241.24
757.86	241.02
758.19	240.85
758.51	240.68
758.84	240.41
759.17	240.23
759.49	240.08
759.82	239.97
760.15	239.83
760.47	239.68
760.80	239.49
761.13	239.32
761.45	239.18
761.78	239.03
762.11	238.89
762.43	238.75
762.76	238.60
763.08	238.47
763.41	238.33
763.74	238.20
764.06	238.03
764.39	237.88
764.71	237.75
765.04	237.59
765.37	237.47
765.69	237.32
766.02	237.23
766.34	237.08
766.67	236.91
767.00	236.79
767.32	236.68
767.65	236.60
767.97	236.49
768.30	236.33
768.62	236.22
768.95	236.09
769.27	235.93
769.60	235.83
769.92	235.67
770.25	235.53
770.57	235.41
770.90	235.31
771.22	235.17
771.55	235.05
771.87	234.95
772.20	234.82
772.52	234.82
772.85	234.83
773.17	234.76
773.50	234.65
773.82	234.52
774.15	234.41
774.47	234.30
774.80	234.16
775.12	234.07
775.45	233.99
775.77	233.92
776.09	233.84
776.42	233.78
776.74	233.73
777.07	233.70
777.39	233.65
777.72	233.59
778.04	233.56
778.36	233.53
778.69	233.50
779.01	233.44
779.33	233.31
779.66	233.13
779.98	233.06
780.31	233.02
780.63	233.02
780.95	233.00
781.28	232.93
781.60	232.91
781.92	232.85
782.25	232.80
782.57	232.74
782.89	232.69
783.22	232.60
783.54	232.55
783.86	232.52
784.19	232.44
784.51	232.42
784.83	232.39
785.16	232.36
785.48	232.29
785.80	232.25
786.12	232.20
786.45	232.17
786.77	232.16
787.09	232.13
