SpectraSuite Data File
++++++++++++++++++++++++++++++++++++
Date: Fri Feb 01 16:50:24 EST 2013
User: group
Dark Spectrum Present: No
Reference Spectrum Present: No
Number of Sampled Component Spectra: 1
Spectrometers: USB2E7196
Integration Time (usec): 35000 (USB2E7196)
Spectra Averaged: 100 (USB2E7196)
Boxcar Smoothing: 10 (USB2E7196)
Correct for Electrical Dark: No (USB2E7196)
Strobe/Lamp Enabled: No (USB2E7196)
Correct for Detector Non-linearity: No (USB2E7196)
Correct for Stray Light: No (USB2E7196)
Number of Pixels in Processed Spectrum: 2048
>>>>>Begin Processed Spectral Data<<<<<
339.09	0.00
339.48	213.02
339.86	214.88
340.24	215.81
340.63	217.65
341.01	220.58
341.39	220.29
341.78	221.40
342.16	222.63
342.54	223.47
342.93	211.75
343.31	222.45
343.69	222.99
344.07	223.46
344.46	223.89
344.84	224.25
345.22	224.46
345.60	224.69
345.99	224.86
346.37	224.99
346.75	225.07
347.13	225.13
347.52	225.17
347.90	225.24
348.28	225.26
348.66	225.29
349.05	225.30
349.43	225.32
349.81	225.35
350.19	225.36
350.57	225.41
350.96	225.47
351.34	225.55
351.72	225.59
352.10	225.65
352.48	225.70
352.87	225.76
353.25	225.80
353.63	225.86
354.01	225.97
354.39	226.06
354.77	226.14
355.15	226.25
355.54	226.31
355.92	226.32
356.30	226.39
356.68	226.50
357.06	226.55
357.44	226.60
357.82	226.68
358.20	226.75
358.58	226.78
358.97	226.82
359.35	226.88
359.73	226.96
360.11	227.02
360.49	227.10
360.87	227.13
361.25	227.19
361.63	227.28
362.01	227.30
362.39	227.30
362.77	227.35
363.15	227.37
363.53	227.39
363.91	227.42
364.29	227.42
364.67	227.34
365.05	227.35
365.43	227.38
365.81	227.38
366.19	227.45
366.57	227.51
366.95	227.52
367.33	227.51
367.71	227.53
368.09	227.52
368.47	227.53
368.85	227.52
369.23	227.55
369.61	227.48
369.99	227.49
370.37	227.48
370.75	227.50
371.13	227.42
371.51	227.37
371.89	227.36
372.27	227.35
372.65	227.34
373.03	227.33
373.41	227.28
373.78	227.21
374.16	227.10
374.54	227.04
374.92	226.98
375.30	226.94
375.68	226.88
376.06	226.87
376.44	226.82
376.82	226.74
377.19	226.69
377.57	226.63
377.95	226.52
378.33	226.48
378.71	226.37
379.09	226.37
379.47	226.35
379.84	226.28
380.22	226.22
380.60	226.14
380.98	226.04
381.36	225.97
381.73	225.91
382.11	225.89
382.49	225.84
382.87	225.77
383.25	225.71
383.62	225.75
384.00	225.67
384.38	225.57
384.76	225.56
385.13	225.55
385.51	225.50
385.89	225.44
386.27	225.37
386.64	225.34
387.02	225.31
387.40	225.26
387.78	225.23
388.15	225.18
388.53	225.17
388.91	225.17
389.29	225.13
389.66	225.12
390.04	225.07
390.42	225.04
390.79	225.02
391.17	225.01
391.55	224.91
391.92	224.90
392.30	224.90
392.68	224.87
393.05	224.85
393.43	224.86
393.81	224.89
394.18	224.88
394.56	224.85
394.94	224.82
395.31	224.80
395.69	224.84
396.06	224.85
396.44	224.87
396.82	224.88
397.19	224.98
397.57	225.02
397.95	225.06
398.32	225.09
398.70	225.15
399.07	225.20
399.45	225.26
399.82	225.29
400.20	225.37
400.58	225.44
400.95	225.47
401.33	225.55
401.70	225.68
402.08	225.77
402.45	225.89
402.83	226.00
403.20	226.13
403.58	226.20
403.95	226.35
404.33	226.47
404.71	226.60
405.08	226.75
405.46	226.87
405.83	227.03
406.21	227.16
406.58	227.33
406.96	227.52
407.33	227.67
407.70	227.88
408.08	228.18
408.45	228.36
408.83	228.58
409.20	228.82
409.58	228.98
409.95	229.24
410.33	229.52
410.70	229.73
411.08	230.03
411.45	230.34
411.82	230.63
412.20	230.96
412.57	231.37
412.95	231.64
413.32	232.05
413.69	232.43
414.07	232.88
414.44	233.33
414.82	233.77
415.19	234.29
415.56	234.82
415.94	235.30
416.31	235.95
416.68	236.59
417.06	237.28
417.43	237.94
417.81	238.69
418.18	239.42
418.55	240.30
418.93	241.14
419.30	242.01
419.67	242.95
420.04	243.90
420.42	244.86
420.79	246.05
421.16	247.23
421.54	248.38
421.91	249.59
422.28	250.85
422.66	252.21
423.03	253.51
423.40	254.83
423.77	256.22
424.15	257.66
424.52	259.14
424.89	260.77
425.26	262.31
425.64	263.77
426.01	265.40
426.38	267.06
426.75	268.75
427.13	270.49
427.50	272.27
427.87	274.15
428.24	275.99
428.61	277.73
428.99	279.66
429.36	281.77
429.73	283.82
430.10	285.84
430.47	287.87
430.85	289.99
431.22	292.22
431.59	294.64
431.96	296.84
432.33	299.27
432.70	301.64
433.08	304.45
433.45	307.08
433.82	309.62
434.19	312.46
434.56	315.25
434.93	317.88
435.30	320.47
435.68	323.32
436.05	326.10
436.42	328.88
436.79	331.31
437.16	334.01
437.53	336.81
437.90	339.54
438.27	342.27
438.64	345.05
439.01	347.60
439.38	349.77
439.75	351.95
440.13	354.43
440.50	356.69
440.87	358.52
441.24	360.45
441.61	362.61
441.98	364.04
442.35	365.80
442.72	367.65
443.09	369.48
443.46	370.44
443.83	371.08
444.20	371.57
444.57	372.41
444.94	372.73
445.31	373.06
445.68	373.47
446.05	373.54
446.42	373.20
446.79	372.79
447.16	372.37
447.53	372.01
447.90	370.88
448.27	369.75
448.64	368.21
449.01	367.07
449.37	365.12
449.74	363.28
450.11	361.07
450.48	358.61
450.85	356.07
451.22	354.01
451.59	352.02
451.96	350.08
452.33	347.50
452.70	345.11
453.07	342.32
453.43	339.42
453.80	336.68
454.17	334.02
454.54	331.53
454.91	328.80
455.28	326.16
455.65	323.67
456.02	321.29
456.38	319.13
456.75	316.46
457.12	314.24
457.49	312.05
457.86	309.91
458.23	308.08
458.59	306.03
458.96	303.96
459.33	302.07
459.70	300.22
460.07	298.71
460.43	297.01
460.80	295.36
461.17	293.95
461.54	292.48
461.91	291.04
462.27	289.60
462.64	288.38
463.01	287.05
463.38	285.77
463.74	284.39
464.11	283.24
464.48	282.24
464.85	281.15
465.21	280.27
465.58	279.35
465.95	278.27
466.32	277.38
466.68	276.44
467.05	275.58
467.42	274.75
467.78	273.84
468.15	272.98
468.52	272.34
468.88	271.50
469.25	270.72
469.62	270.14
469.98	269.49
470.35	268.85
470.72	268.31
471.08	267.69
471.45	267.15
471.82	266.60
472.18	266.01
472.55	265.55
472.92	265.05
473.28	264.61
473.65	264.16
474.02	263.72
474.38	263.39
474.75	263.09
475.11	262.73
475.48	262.50
475.85	262.29
476.21	262.06
476.58	261.88
476.94	261.77
477.31	261.60
477.67	261.47
478.04	261.37
478.41	261.31
478.77	261.35
479.14	261.32
479.50	261.36
479.87	261.48
480.23	261.57
480.60	261.65
480.96	261.73
481.33	261.99
481.69	262.20
482.06	262.46
482.42	262.66
482.79	262.93
483.15	263.27
483.52	263.67
483.88	264.07
484.25	264.48
484.61	264.88
484.98	265.35
485.34	265.87
485.71	266.49
486.07	267.09
486.44	267.64
486.80	268.38
487.17	269.13
487.53	269.94
487.90	270.80
488.26	271.79
488.62	272.82
488.99	273.78
489.35	274.84
489.72	275.95
490.08	277.16
490.44	278.42
490.81	279.79
491.17	281.15
491.54	282.62
491.90	284.14
492.26	285.80
492.63	287.55
492.99	289.35
493.36	291.24
493.72	293.30
494.08	295.43
494.45	297.64
494.81	299.99
495.17	302.39
495.54	304.95
495.90	307.59
496.26	310.40
496.63	313.31
496.99	316.43
497.35	319.65
497.72	323.05
498.08	326.57
498.44	330.20
498.80	334.07
499.17	338.10
499.53	342.25
499.89	346.60
500.26	351.10
500.62	355.76
500.98	360.70
501.34	365.72
501.71	371.01
502.07	376.41
502.43	382.00
502.79	387.83
503.16	393.83
503.52	400.07
503.88	406.41
504.24	413.08
504.60	419.90
504.97	427.00
505.33	434.30
505.69	441.93
506.05	449.71
506.41	457.56
506.78	465.65
507.14	474.05
507.50	482.67
507.86	491.66
508.22	500.73
508.59	509.95
508.95	519.49
509.31	529.25
509.67	539.35
510.03	549.53
510.39	559.98
510.75	570.76
511.12	581.56
511.48	592.74
511.84	604.07
512.20	615.48
512.56	627.34
512.92	639.39
513.28	651.70
513.64	664.05
514.00	676.62
514.37	689.45
514.73	702.46
515.09	715.39
515.45	728.55
515.81	742.18
516.17	755.93
516.53	769.93
516.89	784.01
517.25	797.93
517.61	812.30
517.97	826.62
518.33	840.88
518.69	855.54
519.05	870.40
519.41	885.40
519.77	900.84
520.13	916.11
520.49	931.27
520.85	946.46
521.21	961.98
521.57	978.00
521.93	993.61
522.29	1009.74
522.65	1025.84
523.01	1041.85
523.37	1057.52
523.73	1073.54
524.09	1089.47
524.45	1105.54
524.81	1122.04
525.17	1138.57
525.53	1155.31
525.89	1171.93
526.25	1188.61
526.61	1204.79
526.97	1221.39
527.33	1237.64
527.68	1254.02
528.04	1270.30
528.40	1286.71
528.76	1303.50
529.12	1319.91
529.48	1336.58
529.84	1352.28
530.20	1368.66
530.56	1385.44
530.91	1402.66
531.27	1419.23
531.63	1435.41
531.99	1451.74
532.35	1467.48
532.71	1483.19
533.07	1499.15
533.42	1514.94
533.78	1530.71
534.14	1546.80
534.50	1561.91
534.86	1577.52
535.21	1592.51
535.57	1608.19
535.93	1623.46
536.29	1637.99
536.65	1652.89
537.00	1667.39
537.36	1682.62
537.72	1696.91
538.08	1711.13
538.44	1724.72
538.79	1738.41
539.15	1751.78
539.51	1765.27
539.87	1779.49
540.22	1792.91
540.58	1806.46
540.94	1819.44
541.29	1831.98
541.65	1844.37
542.01	1857.30
542.37	1869.45
542.72	1881.58
543.08	1893.21
543.44	1905.35
543.79	1916.49
544.15	1927.21
544.51	1938.65
544.87	1949.23
545.22	1960.10
545.58	1970.06
545.94	1979.73
546.29	1989.42
546.65	1999.27
547.01	2008.45
547.36	2017.04
547.72	2025.41
548.07	2033.29
548.43	2041.41
548.79	2049.34
549.14	2056.97
549.50	2064.22
549.86	2071.71
550.21	2078.97
550.57	2086.17
550.92	2092.78
551.28	2099.76
551.64	2106.77
551.99	2113.10
552.35	2119.43
552.70	2125.41
553.06	2131.47
553.41	2137.74
553.77	2143.66
554.13	2149.69
554.48	2155.82
554.84	2161.21
555.19	2166.50
555.55	2171.61
555.90	2176.17
556.26	2181.11
556.61	2185.72
556.97	2190.13
557.32	2194.41
557.68	2198.52
558.03	2202.71
558.39	2206.24
558.74	2210.80
559.10	2214.79
559.45	2218.58
559.81	2222.76
560.16	2226.65
560.52	2229.87
560.87	2233.31
561.23	2235.99
561.58	2238.90
561.94	2241.48
562.29	2243.78
562.64	2246.70
563.00	2249.20
563.35	2252.76
563.71	2255.91
564.06	2259.02
564.42	2262.10
564.77	2264.72
565.12	2267.23
565.48	2269.28
565.83	2271.49
566.19	2273.08
566.54	2273.93
566.89	2275.15
567.25	2275.89
567.60	2277.15
567.96	2278.96
568.31	2279.84
568.66	2281.18
569.02	2281.89
569.37	2282.34
569.72	2283.57
570.08	2283.74
570.43	2283.89
570.78	2283.35
571.14	2282.09
571.49	2280.99
571.84	2280.52
572.20	2279.60
572.55	2278.64
572.90	2277.12
573.26	2275.76
573.61	2274.03
573.96	2272.54
574.31	2269.75
574.67	2267.00
575.02	2263.77
575.37	2260.43
575.72	2256.98
576.08	2253.60
576.43	2250.22
576.78	2246.67
577.13	2243.42
577.49	2240.30
577.84	2237.18
578.19	2233.56
578.54	2230.12
578.90	2226.16
579.25	2220.81
579.60	2215.96
579.95	2211.08
580.30	2206.26
580.66	2201.23
581.01	2196.47
581.36	2191.64
581.71	2187.66
582.06	2183.47
582.42	2179.05
582.77	2174.15
583.12	2169.75
583.47	2165.42
583.82	2160.81
584.17	2155.78
584.53	2150.42
584.88	2144.94
585.23	2139.18
585.58	2133.88
585.93	2128.34
586.28	2123.62
586.63	2118.78
586.98	2113.88
587.34	2109.17
587.69	2104.29
588.04	2099.30
588.39	2093.92
588.74	2087.47
589.09	2081.40
589.44	2074.78
589.79	2068.64
590.14	2063.03
590.49	2056.48
590.84	2049.97
591.19	2044.04
591.54	2037.67
591.89	2030.60
592.25	2024.23
592.60	2017.21
592.95	2009.81
593.30	2002.78
593.65	1995.25
594.00	1988.23
594.35	1980.99
594.70	1973.08
595.05	1966.24
595.40	1959.01
595.75	1951.53
596.10	1945.61
596.45	1939.09
596.80	1932.92
597.15	1926.56
597.50	1919.74
597.85	1913.33
598.19	1906.92
598.54	1900.09
598.89	1893.51
599.24	1887.54
599.59	1880.94
599.94	1874.73
600.29	1868.54
600.64	1861.94
600.99	1854.73
601.34	1848.08
601.69	1841.14
602.04	1834.60
602.39	1827.12
602.74	1820.29
603.08	1813.56
603.43	1807.00
603.78	1799.65
604.13	1792.42
604.48	1785.21
604.83	1778.32
605.18	1771.61
605.53	1763.77
605.87	1755.72
606.22	1748.59
606.57	1740.78
606.92	1733.27
607.27	1726.30
607.62	1719.51
607.96	1712.49
608.31	1705.97
608.66	1698.46
609.01	1691.07
609.36	1683.60
609.70	1675.84
610.05	1667.96
610.40	1660.43
610.75	1652.08
611.10	1644.54
611.44	1636.15
611.79	1628.15
612.14	1619.51
612.49	1610.29
612.83	1601.85
613.18	1593.71
613.53	1585.69
613.88	1577.18
614.22	1569.06
614.57	1560.35
614.92	1552.25
615.27	1544.75
615.61	1536.43
615.96	1528.27
616.31	1520.54
616.65	1513.05
617.00	1505.43
617.35	1497.77
617.70	1489.57
618.04	1481.17
618.39	1472.94
618.74	1465.49
619.08	1457.34
619.43	1449.81
619.78	1442.92
620.12	1435.95
620.47	1428.56
620.82	1420.42
621.16	1412.98
621.51	1405.36
621.85	1397.79
622.20	1389.27
622.55	1380.83
622.89	1373.03
623.24	1365.38
623.59	1357.94
623.93	1350.45
624.28	1343.29
624.62	1335.74
624.97	1328.44
625.32	1321.60
625.66	1314.57
626.01	1307.36
626.35	1300.01
626.70	1292.24
627.04	1284.56
627.39	1276.62
627.73	1269.25
628.08	1262.34
628.43	1255.19
628.77	1247.91
629.12	1240.46
629.46	1233.39
629.81	1225.96
630.15	1218.69
630.50	1211.51
630.84	1203.42
631.19	1195.39
631.53	1187.82
631.88	1180.33
632.22	1172.71
632.57	1165.41
632.91	1157.92
633.26	1150.53
633.60	1142.99
633.95	1135.82
634.29	1128.57
634.64	1121.91
634.98	1114.43
635.32	1107.28
635.67	1100.56
636.01	1093.80
636.36	1086.96
636.70	1080.35
637.05	1073.82
637.39	1067.36
637.73	1060.81
638.08	1054.91
638.42	1048.99
638.77	1042.56
639.11	1036.00
639.45	1029.62
639.80	1022.99
640.14	1016.65
640.49	1010.15
640.83	1003.84
641.17	997.75
641.52	991.61
641.86	985.14
642.20	979.43
642.55	973.13
642.89	966.79
643.23	960.34
643.58	954.56
643.92	948.43
644.26	942.34
644.61	936.21
644.95	930.24
645.29	923.79
645.64	917.14
645.98	910.88
646.32	904.90
646.66	898.92
647.01	893.14
647.35	887.42
647.69	881.58
648.04	876.05
648.38	870.22
648.72	864.28
649.06	858.20
649.41	852.20
649.75	846.20
650.09	840.21
650.43	834.43
650.78	828.25
651.12	822.38
651.46	816.69
651.80	811.13
652.14	805.69
652.49	800.32
652.83	795.12
653.17	789.51
653.51	783.96
653.85	778.50
654.20	772.91
654.54	766.84
654.88	761.02
655.22	755.16
655.56	749.52
655.90	744.02
656.25	738.93
656.59	733.66
656.93	728.64
657.27	723.56
657.61	718.18
657.95	713.11
658.29	708.00
658.64	702.75
658.98	697.37
659.32	691.87
659.66	686.63
660.00	681.40
660.34	676.39
660.68	671.47
661.02	666.52
661.36	661.79
661.70	657.33
662.05	653.12
662.39	648.86
662.73	644.40
663.07	640.02
663.41	635.52
663.75	631.05
664.09	626.41
664.43	622.05
664.77	617.88
665.11	613.71
665.45	609.58
665.79	605.54
666.13	601.45
666.47	597.40
666.81	593.28
667.15	589.14
667.49	585.25
667.83	581.40
668.17	577.47
668.51	573.39
668.85	569.37
669.19	565.45
669.53	561.65
669.87	557.77
670.21	554.11
670.55	550.44
670.89	547.02
671.23	543.67
671.57	540.12
671.91	536.69
672.25	533.12
672.58	529.64
672.92	526.19
673.26	522.98
673.60	519.89
673.94	516.80
674.28	513.93
674.62	510.99
674.96	507.83
675.30	504.96
675.64	502.11
675.97	499.32
676.31	496.43
676.65	493.43
676.99	490.71
677.33	487.82
677.67	485.08
678.01	482.01
678.34	479.06
678.68	476.12
679.02	473.27
679.36	470.50
679.70	467.74
680.04	464.99
680.37	462.17
680.71	459.30
681.05	456.69
681.39	453.90
681.73	451.23
682.06	448.77
682.40	446.21
682.74	443.62
683.08	441.04
683.42	438.45
683.75	436.00
684.09	433.47
684.43	431.05
684.77	428.53
685.10	426.17
685.44	423.82
685.78	421.57
686.12	419.28
686.45	416.98
686.79	414.66
687.13	412.48
687.46	410.28
687.80	408.16
688.14	405.91
688.48	403.88
688.81	401.63
689.15	399.47
689.49	397.30
689.82	395.22
690.16	393.17
690.50	391.21
690.83	389.23
691.17	387.22
691.51	385.26
691.84	383.38
692.18	381.47
692.52	379.50
692.85	377.57
693.19	375.69
693.52	373.82
693.86	372.03
694.20	370.25
694.53	368.45
694.87	366.56
695.21	364.75
695.54	362.88
695.88	361.17
696.21	359.41
696.55	357.73
696.88	356.06
697.22	354.38
697.56	352.74
697.89	351.09
698.23	349.51
698.56	347.89
698.90	346.35
699.23	344.69
699.57	343.14
699.90	341.59
700.24	340.04
700.58	338.54
700.91	337.06
701.25	335.54
701.58	334.16
701.92	332.82
702.25	331.46
702.59	330.14
702.92	328.79
703.26	327.51
703.59	326.24
703.93	325.07
704.26	323.82
704.60	322.59
704.93	321.32
705.26	320.04
705.60	318.83
705.93	317.61
706.27	316.58
706.60	315.52
706.94	314.42
707.27	313.29
707.61	312.22
707.94	311.17
708.27	310.11
708.61	309.01
708.94	307.97
709.28	306.98
709.61	306.01
709.94	305.06
710.28	303.99
710.61	302.97
710.95	301.89
711.28	301.00
711.61	300.04
711.95	299.11
712.28	298.18
712.61	297.26
712.95	296.35
713.28	295.46
713.61	294.56
713.95	293.67
714.28	292.83
714.61	292.02
714.95	291.16
715.28	290.33
715.61	289.46
715.95	288.57
716.28	287.67
716.61	286.86
716.95	286.02
717.28	285.29
717.61	284.55
717.94	283.77
718.28	282.96
718.61	282.18
718.94	281.49
719.27	280.86
719.61	280.16
719.94	279.53
720.27	278.85
720.60	278.19
720.94	277.60
721.27	277.00
721.60	276.37
721.93	275.80
722.27	275.25
722.60	274.72
722.93	274.21
723.26	273.70
723.59	273.10
723.93	272.57
724.26	272.02
724.59	271.47
724.92	270.91
725.25	270.41
725.59	269.91
725.92	269.44
726.25	268.91
726.58	268.45
726.91	267.96
727.24	267.44
727.57	266.96
727.91	266.42
728.24	265.98
728.57	265.48
728.90	265.02
729.23	264.51
729.56	264.05
729.89	263.56
730.22	263.07
730.55	262.60
730.89	262.13
731.22	261.71
731.55	261.27
731.88	260.85
732.21	260.42
732.54	259.98
732.87	259.54
733.20	259.11
733.53	258.75
733.86	258.37
734.19	257.99
734.52	257.61
734.85	257.28
735.18	256.81
735.51	256.49
735.84	256.11
736.17	255.78
736.50	255.39
736.83	255.20
737.16	254.87
737.49	254.58
737.82	254.24
738.15	253.93
738.48	253.58
738.81	253.28
739.14	252.99
739.47	252.69
739.80	252.38
740.13	252.07
740.46	251.70
740.79	251.36
741.12	251.05
741.45	250.77
741.78	250.43
742.11	250.17
742.44	249.82
742.77	249.54
743.10	249.26
743.43	248.97
743.75	248.53
744.08	248.36
744.41	248.07
744.74	247.80
745.07	247.54
745.40	247.30
745.73	247.09
746.06	246.79
746.39	246.56
746.71	246.30
747.04	246.04
747.37	245.80
747.70	245.56
748.03	245.31
748.36	245.08
748.68	244.86
749.01	244.62
749.34	244.41
749.67	244.19
750.00	243.95
750.33	243.83
750.65	243.66
750.98	243.33
751.31	243.13
751.64	242.91
751.97	242.70
752.29	242.51
752.62	242.25
752.95	242.07
753.28	241.87
753.60	241.66
753.93	241.46
754.26	241.26
754.59	241.05
754.91	240.88
755.24	240.69
755.57	240.50
755.90	240.28
756.22	240.07
756.55	239.89
756.88	239.67
757.20	239.37
757.53	239.15
757.86	238.98
758.19	238.79
758.51	238.65
758.84	238.44
759.17	238.26
759.49	238.13
759.82	237.99
760.15	237.79
760.47	237.62
760.80	237.45
761.13	237.31
761.45	237.13
761.78	236.98
762.11	236.79
762.43	236.64
762.76	236.53
763.08	236.41
763.41	236.23
763.74	236.11
764.06	236.01
764.39	235.88
764.71	235.77
765.04	235.61
765.37	235.45
765.69	235.34
766.02	235.19
766.34	235.06
766.67	234.90
767.00	234.81
767.32	234.74
767.65	234.71
767.97	234.56
768.30	234.45
768.62	234.33
768.95	234.22
769.27	234.09
769.60	233.95
769.92	233.84
770.25	233.73
770.57	233.63
770.90	233.50
771.22	233.37
771.55	233.24
771.87	233.15
772.20	233.05
772.52	233.03
772.85	233.05
773.17	232.92
773.50	232.81
773.82	232.68
774.15	232.58
774.47	232.42
774.80	232.38
775.12	232.27
775.45	232.19
775.77	232.11
776.09	232.06
776.42	231.98
776.74	231.92
777.07	231.85
777.39	231.78
777.72	231.71
778.04	231.66
778.36	231.62
778.69	231.55
779.01	231.50
779.33	231.36
779.66	231.19
779.98	231.16
780.31	231.11
780.63	231.13
780.95	231.07
781.28	231.03
781.60	230.94
781.92	230.91
782.25	230.83
782.57	230.79
782.89	230.71
783.22	230.67
783.54	230.60
783.86	230.54
784.19	230.48
784.51	230.46
784.83	230.45
785.16	230.37
785.48	230.37
785.80	230.31
786.12	230.26
786.45	230.21
786.77	230.15
787.09	230.12
