SpectraSuite Data File
++++++++++++++++++++++++++++++++++++
Date: Fri Feb 01 15:08:03 EST 2013
User: group
Dark Spectrum Present: No
Reference Spectrum Present: No
Number of Sampled Component Spectra: 1
Spectrometers: USB2E7196
Integration Time (usec): 35000 (USB2E7196)
Spectra Averaged: 100 (USB2E7196)
Boxcar Smoothing: 10 (USB2E7196)
Correct for Electrical Dark: No (USB2E7196)
Strobe/Lamp Enabled: No (USB2E7196)
Correct for Detector Non-linearity: No (USB2E7196)
Correct for Stray Light: No (USB2E7196)
Number of Pixels in Processed Spectrum: 2048
>>>>>Begin Processed Spectral Data<<<<<
339.09	0.00
339.48	215.52
339.86	216.93
340.24	218.11
340.63	220.43
341.01	222.37
341.39	222.21
341.78	223.23
342.16	224.67
342.54	225.11
342.93	213.67
343.31	224.48
343.69	225.01
344.07	225.49
344.46	225.92
344.84	226.26
345.22	226.51
345.60	226.77
345.99	226.99
346.37	227.13
346.75	227.25
347.13	227.32
347.52	227.40
347.90	227.49
348.28	227.54
348.66	227.60
349.05	227.62
349.43	227.68
349.81	227.74
350.19	227.77
350.57	227.78
350.96	227.83
351.34	227.91
351.72	227.98
352.10	228.03
352.48	228.08
352.87	228.11
353.25	228.15
353.63	228.20
354.01	228.21
354.39	228.29
354.77	228.34
355.15	228.44
355.54	228.45
355.92	228.48
356.30	228.52
356.68	228.63
357.06	228.70
357.44	228.73
357.82	228.75
358.20	228.81
358.58	228.89
358.97	228.97
359.35	229.02
359.73	229.11
360.11	229.16
360.49	229.20
360.87	229.24
361.25	229.31
361.63	229.35
362.01	229.42
362.39	229.43
362.77	229.52
363.15	229.52
363.53	229.55
363.91	229.57
364.29	229.59
364.67	229.49
365.05	229.47
365.43	229.48
365.81	229.51
366.19	229.55
366.57	229.60
366.95	229.56
367.33	229.53
367.71	229.51
368.09	229.50
368.47	229.51
368.85	229.49
369.23	229.47
369.61	229.43
369.99	229.38
370.37	229.37
370.75	229.34
371.13	229.27
371.51	229.22
371.89	229.17
372.27	229.13
372.65	229.09
373.03	229.05
373.41	228.97
373.78	228.87
374.16	228.75
374.54	228.62
374.92	228.56
375.30	228.48
375.68	228.38
376.06	228.30
376.44	228.21
376.82	228.14
377.19	228.03
377.57	227.96
377.95	227.89
378.33	227.79
378.71	227.66
379.09	227.61
379.47	227.54
379.84	227.46
380.22	227.41
380.60	227.34
380.98	227.24
381.36	227.17
381.73	227.09
382.11	227.03
382.49	226.97
382.87	226.90
383.25	226.87
383.62	226.93
384.00	226.87
384.38	226.78
384.76	226.77
385.13	226.77
385.51	226.71
385.89	226.62
386.27	226.58
386.64	226.55
387.02	226.49
387.40	226.44
387.78	226.42
388.15	226.38
388.53	226.31
388.91	226.30
389.29	226.28
389.66	226.28
390.04	226.30
390.42	226.30
390.79	226.27
391.17	226.28
391.55	226.16
391.92	226.17
392.30	226.23
392.68	226.21
393.05	226.21
393.43	226.23
393.81	226.29
394.18	226.32
394.56	226.34
394.94	226.39
395.31	226.42
395.69	226.51
396.06	226.53
396.44	226.60
396.82	226.65
397.19	226.76
397.57	226.82
397.95	226.86
398.32	226.91
398.70	227.02
399.07	227.09
399.45	227.19
399.82	227.27
400.20	227.32
400.58	227.42
400.95	227.49
401.33	227.61
401.70	227.76
402.08	227.85
402.45	227.98
402.83	228.13
403.20	228.28
403.58	228.37
403.95	228.53
404.33	228.70
404.71	228.84
405.08	229.03
405.46	229.17
405.83	229.35
406.21	229.51
406.58	229.67
406.96	229.84
407.33	230.00
407.70	230.19
408.08	230.48
408.45	230.68
408.83	230.91
409.20	231.12
409.58	231.31
409.95	231.55
410.33	231.83
410.70	232.05
411.08	232.34
411.45	232.64
411.82	232.94
412.20	233.26
412.57	233.68
412.95	233.99
413.32	234.42
413.69	234.80
414.07	235.27
414.44	235.72
414.82	236.17
415.19	236.71
415.56	237.29
415.94	237.80
416.31	238.44
416.68	239.08
417.06	239.80
417.43	240.48
417.81	241.25
418.18	241.99
418.55	242.84
418.93	243.69
419.30	244.58
419.67	245.51
420.04	246.47
420.42	247.46
420.79	248.62
421.16	249.76
421.54	250.95
421.91	252.15
422.28	253.41
422.66	254.77
423.03	256.06
423.40	257.36
423.77	258.81
424.15	260.22
424.52	261.67
424.89	263.25
425.26	264.81
425.64	266.27
426.01	267.86
426.38	269.52
426.75	271.18
427.13	272.89
427.50	274.69
427.87	276.59
428.24	278.43
428.61	280.17
428.99	282.07
429.36	284.16
429.73	286.19
430.10	288.20
430.47	290.26
430.85	292.39
431.22	294.66
431.59	297.06
431.96	299.34
432.33	301.85
432.70	304.25
433.08	307.08
433.45	309.70
433.82	312.35
434.19	315.28
434.56	318.12
434.93	320.84
435.30	323.48
435.68	326.37
436.05	329.16
436.42	331.97
436.79	334.50
437.16	337.21
437.53	340.10
437.90	342.90
438.27	345.63
438.64	348.49
439.01	351.06
439.38	353.29
439.75	355.46
440.13	358.01
440.50	360.35
440.87	362.20
441.24	364.14
441.61	366.29
441.98	367.74
442.35	369.59
442.72	371.37
443.09	373.14
443.46	374.16
443.83	374.80
444.20	375.33
444.57	376.18
444.94	376.50
445.31	376.77
445.68	377.17
446.05	377.27
446.42	376.89
446.79	376.45
447.16	375.99
447.53	375.67
447.90	374.44
448.27	373.29
448.64	371.72
449.01	370.62
449.37	368.63
449.74	366.73
450.11	364.43
450.48	362.01
450.85	359.52
451.22	357.38
451.59	355.36
451.96	353.35
452.33	350.78
452.70	348.41
453.07	345.62
453.43	342.71
453.80	339.95
454.17	337.31
454.54	334.78
454.91	332.04
455.28	329.34
455.65	326.87
456.02	324.36
456.38	322.20
456.75	319.52
457.12	317.27
457.49	315.07
457.86	312.92
458.23	311.05
458.59	308.99
458.96	306.91
459.33	305.04
459.70	303.19
460.07	301.65
460.43	299.90
460.80	298.29
461.17	296.82
461.54	295.31
461.91	293.85
462.27	292.42
462.64	291.18
463.01	289.85
463.38	288.56
463.74	287.21
464.11	286.05
464.48	285.03
464.85	283.94
465.21	283.09
465.58	282.13
465.95	281.04
466.32	280.12
466.68	279.17
467.05	278.27
467.42	277.36
467.78	276.44
468.15	275.56
468.52	274.85
468.88	274.00
469.25	273.23
469.62	272.57
469.98	271.88
470.35	271.21
470.72	270.57
471.08	269.86
471.45	269.30
471.82	268.75
472.18	268.12
472.55	267.64
472.92	267.07
473.28	266.60
473.65	266.15
474.02	265.67
474.38	265.29
474.75	264.97
475.11	264.64
475.48	264.36
475.85	264.14
476.21	263.90
476.58	263.72
476.94	263.55
477.31	263.38
477.67	263.21
478.04	263.09
478.41	263.03
478.77	263.09
479.14	263.02
479.50	263.03
479.87	263.08
480.23	263.16
480.60	263.22
480.96	263.29
481.33	263.46
481.69	263.67
482.06	263.88
482.42	264.08
482.79	264.31
483.15	264.61
483.52	264.97
483.88	265.32
484.25	265.69
484.61	266.09
484.98	266.52
485.34	267.08
485.71	267.68
486.07	268.26
486.44	268.81
486.80	269.52
487.17	270.25
487.53	271.04
487.90	271.90
488.26	272.84
488.62	273.86
488.99	274.81
489.35	275.80
489.72	276.90
490.08	278.10
490.44	279.35
490.81	280.66
491.17	282.00
491.54	283.46
491.90	285.01
492.26	286.65
492.63	288.33
492.99	290.11
493.36	291.96
493.72	294.00
494.08	296.09
494.45	298.34
494.81	300.68
495.17	303.08
495.54	305.63
495.90	308.30
496.26	311.04
496.63	314.00
496.99	317.14
497.35	320.40
497.72	323.77
498.08	327.25
498.44	330.94
498.80	334.82
499.17	338.81
499.53	342.94
499.89	347.34
500.26	351.89
500.62	356.56
500.98	361.55
501.34	366.63
501.71	372.00
502.07	377.40
502.43	382.99
502.79	388.80
503.16	394.85
503.52	401.16
503.88	407.63
504.24	414.27
504.60	421.14
504.97	428.24
505.33	435.56
505.69	443.31
506.05	451.08
506.41	459.02
506.78	467.18
507.14	475.64
507.50	484.30
507.86	493.30
508.22	502.39
508.59	511.56
508.95	521.13
509.31	530.86
509.67	541.02
510.03	551.33
510.39	561.97
510.75	572.85
511.12	583.70
511.48	594.95
511.84	606.40
512.20	617.96
512.56	630.02
512.92	642.22
513.28	654.45
513.64	666.95
514.00	679.62
514.37	692.53
514.73	705.64
515.09	718.70
515.45	732.00
515.81	745.67
516.17	759.70
516.53	773.87
516.89	788.08
517.25	802.26
517.61	816.70
517.97	831.15
518.33	845.51
518.69	860.37
519.05	875.48
519.41	890.61
519.77	906.13
520.13	921.53
520.49	936.96
520.85	952.45
521.21	968.25
521.57	984.66
521.93	1000.59
522.29	1017.10
522.65	1033.46
523.01	1049.77
523.37	1065.78
523.73	1081.92
524.09	1098.02
524.45	1114.49
524.81	1131.21
525.17	1148.12
525.53	1165.10
525.89	1181.96
526.25	1198.77
526.61	1215.06
526.97	1231.95
527.33	1248.48
527.68	1265.21
528.04	1281.70
528.40	1298.54
528.76	1315.63
529.12	1332.05
529.48	1348.85
529.84	1364.87
530.20	1381.56
530.56	1398.67
530.91	1416.21
531.27	1433.03
531.63	1449.48
531.99	1466.11
532.35	1482.05
532.71	1497.93
533.07	1514.11
533.42	1530.14
533.78	1546.29
534.14	1562.64
534.50	1578.04
534.86	1594.07
535.21	1609.34
535.57	1625.50
535.93	1640.91
536.29	1655.81
536.65	1671.14
537.00	1686.12
537.36	1701.29
537.72	1715.90
538.08	1730.41
538.44	1744.28
538.79	1758.43
539.15	1772.35
539.51	1786.14
539.87	1800.66
540.22	1814.43
540.58	1828.29
540.94	1841.83
541.29	1854.78
541.65	1867.71
542.01	1881.04
542.37	1893.27
542.72	1905.75
543.08	1917.51
543.44	1930.09
543.79	1941.30
544.15	1952.17
544.51	1963.71
544.87	1975.03
545.22	1985.82
545.58	1996.04
545.94	2005.91
546.29	2015.79
546.65	2025.57
547.01	2034.68
547.36	2043.51
547.72	2052.09
548.07	2060.10
548.43	2068.22
548.79	2076.32
549.14	2083.79
549.50	2091.10
549.86	2098.96
550.21	2106.23
550.57	2113.51
550.92	2120.08
551.28	2127.23
551.64	2134.39
551.99	2141.03
552.35	2147.07
552.70	2153.16
553.06	2159.07
553.41	2165.37
553.77	2171.35
554.13	2177.46
554.48	2183.77
554.84	2188.95
555.19	2194.37
555.55	2199.45
555.90	2204.00
556.26	2208.84
556.61	2213.58
556.97	2217.77
557.32	2221.93
557.68	2225.94
558.03	2230.18
558.39	2233.94
558.74	2238.57
559.10	2242.39
559.45	2245.93
559.81	2250.35
560.16	2254.20
560.52	2257.49
560.87	2260.81
561.23	2263.41
561.58	2266.43
561.94	2268.85
562.29	2271.29
562.64	2273.84
563.00	2276.54
563.35	2279.90
563.71	2282.98
564.06	2286.24
564.42	2289.05
564.77	2291.41
565.12	2293.78
565.48	2295.41
565.83	2297.06
566.19	2298.20
566.54	2299.11
566.89	2300.13
567.25	2300.47
567.60	2301.82
567.96	2303.34
568.31	2304.22
568.66	2305.15
569.02	2305.63
569.37	2305.85
569.72	2306.54
570.08	2306.31
570.43	2306.05
570.78	2305.31
571.14	2303.57
571.49	2302.06
571.84	2301.71
572.20	2300.37
572.55	2299.17
572.90	2297.66
573.26	2296.13
573.61	2294.28
573.96	2292.26
574.31	2289.27
574.67	2286.12
575.02	2282.33
575.37	2278.70
575.72	2274.67
576.08	2271.22
576.43	2267.72
576.78	2263.91
577.13	2260.77
577.49	2257.69
577.84	2254.16
578.19	2250.28
578.54	2246.66
578.90	2242.25
579.25	2236.59
579.60	2231.49
579.95	2226.41
580.30	2221.32
580.66	2216.05
581.01	2211.02
581.36	2206.15
581.71	2201.72
582.06	2197.13
582.42	2192.51
582.77	2187.28
583.12	2182.64
583.47	2177.71
583.82	2172.58
584.17	2167.17
584.53	2161.43
584.88	2155.72
585.23	2149.73
585.58	2144.26
585.93	2138.58
586.28	2133.60
586.63	2128.40
586.98	2123.22
587.34	2118.45
587.69	2113.41
588.04	2108.02
588.39	2102.22
588.74	2095.57
589.09	2089.36
589.44	2082.50
589.79	2076.48
590.14	2070.80
590.49	2064.08
590.84	2057.76
591.19	2051.59
591.54	2045.09
591.89	2037.63
592.25	2030.72
592.60	2023.49
592.95	2015.75
593.30	2008.40
593.65	2000.87
594.00	1993.75
594.35	1986.42
594.70	1978.32
595.05	1970.89
595.40	1963.54
595.75	1956.05
596.10	1949.74
596.45	1942.93
596.80	1936.68
597.15	1929.77
597.50	1922.58
597.85	1916.16
598.19	1909.39
598.54	1902.24
598.89	1895.64
599.24	1889.74
599.59	1883.00
599.94	1876.70
600.29	1870.41
600.64	1863.83
600.99	1856.35
601.34	1849.33
601.69	1842.31
602.04	1835.23
602.39	1827.81
602.74	1820.86
603.08	1814.09
603.43	1807.42
603.78	1800.15
604.13	1792.83
604.48	1785.56
604.83	1778.66
605.18	1771.52
605.53	1763.48
605.87	1755.55
606.22	1748.28
606.57	1740.22
606.92	1733.06
607.27	1725.97
607.62	1718.89
607.96	1711.54
608.31	1704.84
608.66	1697.25
609.01	1689.74
609.36	1682.26
609.70	1674.31
610.05	1666.30
610.40	1658.51
610.75	1650.25
611.10	1642.49
611.44	1634.26
611.79	1626.28
612.14	1617.67
612.49	1608.64
612.83	1600.38
613.18	1592.24
613.53	1584.07
613.88	1575.58
614.22	1567.25
614.57	1558.60
614.92	1550.57
615.27	1542.91
615.61	1534.60
615.96	1526.79
616.31	1519.28
616.65	1511.80
617.00	1504.14
617.35	1496.47
617.70	1488.01
618.04	1479.41
618.39	1471.21
618.74	1463.62
619.08	1455.48
619.43	1447.90
619.78	1441.06
620.12	1433.76
620.47	1426.19
620.82	1418.07
621.16	1410.76
621.51	1403.18
621.85	1395.67
622.20	1387.19
622.55	1378.98
622.89	1371.15
623.24	1363.51
623.59	1356.09
623.93	1348.70
624.28	1341.59
624.62	1334.19
624.97	1327.18
625.32	1320.43
625.66	1313.42
626.01	1306.13
626.35	1298.56
626.70	1290.83
627.04	1283.10
627.39	1275.42
627.73	1268.09
628.08	1261.26
628.43	1253.89
628.77	1246.45
629.12	1238.79
629.46	1231.66
629.81	1224.31
630.15	1217.17
630.50	1209.82
630.84	1201.66
631.19	1193.74
631.53	1186.32
631.88	1178.73
632.22	1171.09
632.57	1163.84
632.91	1156.44
633.26	1149.02
633.60	1141.72
633.95	1134.72
634.29	1127.68
634.64	1121.08
634.98	1113.78
635.32	1106.64
635.67	1100.23
636.01	1093.58
636.36	1086.85
636.70	1080.37
637.05	1073.83
637.39	1067.40
637.73	1060.83
638.08	1055.05
638.42	1049.01
638.77	1042.54
639.11	1035.93
639.45	1029.63
639.80	1022.99
640.14	1016.52
640.49	1010.14
640.83	1003.84
641.17	997.55
641.52	991.21
641.86	984.85
642.20	978.97
642.55	972.72
642.89	966.18
643.23	959.79
643.58	953.98
643.92	947.82
644.26	941.74
644.61	935.68
644.95	929.67
645.29	922.98
645.64	916.27
645.98	909.94
646.32	904.20
646.66	898.24
647.01	892.50
647.35	886.83
647.69	881.11
648.04	875.69
648.38	869.90
648.72	863.94
649.06	857.81
649.41	851.91
649.75	845.88
650.09	839.92
650.43	834.06
650.78	827.98
651.12	822.06
651.46	816.29
651.80	810.52
652.14	805.15
652.49	799.84
652.83	794.72
653.17	789.03
653.51	783.25
653.85	777.90
654.20	772.20
654.54	766.20
654.88	760.38
655.22	754.46
655.56	748.80
655.90	743.33
656.25	738.15
656.59	732.85
656.93	727.81
657.27	722.64
657.61	717.30
657.95	712.22
658.29	707.14
658.64	701.98
658.98	696.73
659.32	691.26
659.66	686.09
660.00	680.80
660.34	675.86
660.68	671.05
661.02	665.94
661.36	661.27
661.70	656.85
662.05	652.56
662.39	648.29
662.73	643.92
663.07	639.53
663.41	635.05
663.75	630.53
664.09	625.93
664.43	621.62
664.77	617.55
665.11	613.29
665.45	609.17
665.79	605.11
666.13	600.99
666.47	596.97
666.81	592.76
667.15	588.72
667.49	584.91
667.83	581.15
668.17	577.22
668.51	573.15
668.85	569.08
669.19	565.19
669.53	561.29
669.87	557.36
670.21	553.78
670.55	550.17
670.89	546.76
671.23	543.36
671.57	539.85
671.91	536.27
672.25	532.80
672.58	529.29
672.92	525.85
673.26	522.66
673.60	519.49
673.94	516.40
674.28	513.42
674.62	510.46
674.96	507.31
675.30	504.46
675.64	501.57
675.97	498.87
676.31	496.03
676.65	493.14
676.99	490.46
677.33	487.58
677.67	484.80
678.01	481.78
678.34	478.80
678.68	475.94
679.02	473.07
679.36	470.35
679.70	467.73
680.04	464.98
680.37	462.14
680.71	459.39
681.05	456.81
681.39	454.16
681.73	451.56
682.06	449.11
682.40	446.60
682.74	444.07
683.08	441.51
683.42	438.92
683.75	436.46
684.09	433.93
684.43	431.48
684.77	429.03
685.10	426.79
685.44	424.53
685.78	422.26
686.12	420.10
686.45	417.85
686.79	415.52
687.13	413.38
687.46	411.19
687.80	409.09
688.14	406.91
688.48	404.85
688.81	402.59
689.15	400.44
689.49	398.25
689.82	396.19
690.16	394.12
690.50	392.18
690.83	390.24
691.17	388.29
691.51	386.41
691.84	384.54
692.18	382.49
692.52	380.57
692.85	378.69
693.19	376.82
693.52	374.98
693.86	373.19
694.20	371.42
694.53	369.70
694.87	367.88
695.21	366.08
695.54	364.32
695.88	362.63
696.21	360.92
696.55	359.28
696.88	357.62
697.22	356.00
697.56	354.40
697.89	352.74
698.23	351.15
698.56	349.56
698.90	347.99
699.23	346.43
699.57	344.83
699.90	343.29
700.24	341.72
700.58	340.20
700.91	338.71
701.25	337.25
701.58	335.90
701.92	334.52
702.25	333.17
702.59	331.79
702.92	330.46
703.26	329.11
703.59	327.84
703.93	326.68
704.26	325.44
704.60	324.15
704.93	322.92
705.26	321.69
705.60	320.53
705.93	319.37
706.27	318.35
706.60	317.36
706.94	316.26
707.27	315.16
707.61	314.12
707.94	313.10
708.27	312.01
708.61	310.91
708.94	309.91
709.28	308.92
709.61	307.96
709.94	307.02
710.28	306.00
710.61	305.06
710.95	303.99
711.28	303.05
711.61	302.08
711.95	301.14
712.28	300.12
712.61	299.14
712.95	298.22
713.28	297.29
713.61	296.37
713.95	295.48
714.28	294.62
714.61	293.72
714.95	292.86
715.28	292.00
715.61	291.12
715.95	290.29
716.28	289.49
716.61	288.68
716.95	287.90
717.28	287.16
717.61	286.37
717.94	285.65
718.28	284.90
718.61	284.21
718.94	283.52
719.27	282.87
719.61	282.20
719.94	281.51
720.27	280.83
720.60	280.17
720.94	279.56
721.27	278.98
721.60	278.45
721.93	277.86
722.27	277.33
722.60	276.81
722.93	276.21
723.26	275.64
723.59	275.05
723.93	274.47
724.26	273.90
724.59	273.35
724.92	272.82
725.25	272.35
725.59	271.80
725.92	271.30
726.25	270.83
726.58	270.41
726.91	269.96
727.24	269.49
727.57	269.04
727.91	268.53
728.24	268.08
728.57	267.58
728.90	267.13
729.23	266.63
729.56	266.20
729.89	265.73
730.22	265.27
730.55	264.85
730.89	264.43
731.22	264.04
731.55	263.59
731.88	263.20
732.21	262.75
732.54	262.34
732.87	261.90
733.20	261.47
733.53	261.02
733.86	260.65
734.19	260.27
734.52	259.87
734.85	259.61
735.18	259.20
735.51	258.84
735.84	258.47
736.17	258.17
736.50	257.73
736.83	257.50
737.16	257.18
737.49	256.80
737.82	256.43
738.15	256.09
738.48	255.76
738.81	255.39
739.14	255.06
739.47	254.74
739.80	254.44
740.13	254.17
740.46	253.86
740.79	253.52
741.12	253.19
741.45	252.86
741.78	252.43
742.11	252.13
742.44	251.84
742.77	251.52
743.10	251.16
743.43	250.91
743.75	250.52
744.08	250.34
744.41	250.08
744.74	249.79
745.07	249.49
745.40	249.21
745.73	248.97
746.06	248.70
746.39	248.44
746.71	248.16
747.04	247.86
747.37	247.59
747.70	247.35
748.03	247.12
748.36	246.91
748.68	246.67
749.01	246.39
749.34	246.15
749.67	245.92
750.00	245.72
750.33	245.53
750.65	245.29
750.98	244.94
751.31	244.72
751.64	244.52
751.97	244.35
752.29	244.15
752.62	243.95
752.95	243.73
753.28	243.50
753.60	243.26
753.93	243.08
754.26	242.88
754.59	242.63
754.91	242.40
755.24	242.22
755.57	242.04
755.90	241.93
756.22	241.70
756.55	241.51
756.88	241.29
757.20	241.06
757.53	240.93
757.86	240.78
758.19	240.64
758.51	240.47
758.84	240.27
759.17	240.10
759.49	239.92
759.82	239.83
760.15	239.66
760.47	239.53
760.80	239.40
761.13	239.27
761.45	239.09
761.78	238.97
762.11	238.78
762.43	238.66
762.76	238.47
763.08	238.36
763.41	238.23
763.74	238.10
764.06	237.95
764.39	237.78
764.71	237.63
765.04	237.49
765.37	237.37
765.69	237.19
766.02	237.05
766.34	236.92
766.67	236.75
767.00	236.69
767.32	236.64
767.65	236.55
767.97	236.47
768.30	236.40
768.62	236.31
768.95	236.22
769.27	236.11
769.60	236.02
769.92	235.91
770.25	235.79
770.57	235.70
770.90	235.63
771.22	235.55
771.55	235.47
771.87	235.38
772.20	235.29
772.52	235.34
772.85	235.35
773.17	235.27
773.50	235.18
773.82	235.08
774.15	234.93
774.47	234.80
774.80	234.68
775.12	234.59
775.45	234.49
775.77	234.42
776.09	234.33
776.42	234.26
776.74	234.22
777.07	234.14
777.39	234.08
777.72	234.01
778.04	233.95
778.36	233.88
778.69	233.81
779.01	233.75
779.33	233.61
779.66	233.46
779.98	233.40
780.31	233.36
780.63	233.32
780.95	233.27
781.28	233.19
781.60	233.12
781.92	233.06
782.25	232.99
782.57	232.93
782.89	232.90
783.22	232.84
783.54	232.76
783.86	232.71
784.19	232.62
784.51	232.58
784.83	232.49
785.16	232.43
785.48	232.36
785.80	232.31
786.12	232.26
786.45	232.19
786.77	232.09
787.09	232.01
