SpectraSuite Data File
++++++++++++++++++++++++++++++++++++
Date: Fri Feb 01 15:01:45 EST 2013
User: group
Dark Spectrum Present: No
Reference Spectrum Present: No
Number of Sampled Component Spectra: 1
Spectrometers: USB2E7196
Integration Time (usec): 35000 (USB2E7196)
Spectra Averaged: 100 (USB2E7196)
Boxcar Smoothing: 10 (USB2E7196)
Correct for Electrical Dark: No (USB2E7196)
Strobe/Lamp Enabled: No (USB2E7196)
Correct for Detector Non-linearity: No (USB2E7196)
Correct for Stray Light: No (USB2E7196)
Number of Pixels in Processed Spectrum: 2048
>>>>>Begin Processed Spectral Data<<<<<
339.09	0.00
339.48	215.12
339.86	216.83
340.24	217.97
340.63	220.09
341.01	222.06
341.39	222.31
341.78	223.64
342.16	224.88
342.54	225.24
342.93	213.54
343.31	224.35
343.69	224.91
344.07	225.41
344.46	225.84
344.84	226.18
345.22	226.42
345.60	226.69
345.99	226.84
346.37	226.96
346.75	227.07
347.13	227.18
347.52	227.24
347.90	227.36
348.28	227.40
348.66	227.46
349.05	227.44
349.43	227.49
349.81	227.56
350.19	227.60
350.57	227.64
350.96	227.71
351.34	227.77
351.72	227.84
352.10	227.88
352.48	227.94
352.87	228.02
353.25	228.07
353.63	228.09
354.01	228.19
354.39	228.27
354.77	228.37
355.15	228.43
355.54	228.47
355.92	228.46
356.30	228.53
356.68	228.64
357.06	228.75
357.44	228.78
357.82	228.86
358.20	228.93
358.58	228.97
358.97	229.00
359.35	229.07
359.73	229.13
360.11	229.19
360.49	229.24
360.87	229.26
361.25	229.33
361.63	229.40
362.01	229.42
362.39	229.44
362.77	229.42
363.15	229.42
363.53	229.44
363.91	229.49
364.29	229.48
364.67	229.40
365.05	229.38
365.43	229.39
365.81	229.36
366.19	229.40
366.57	229.43
366.95	229.41
367.33	229.38
367.71	229.37
368.09	229.34
368.47	229.32
368.85	229.29
369.23	229.27
369.61	229.23
369.99	229.23
370.37	229.21
370.75	229.20
371.13	229.12
371.51	229.05
371.89	228.99
372.27	228.97
372.65	228.91
373.03	228.86
373.41	228.79
373.78	228.71
374.16	228.56
374.54	228.49
374.92	228.43
375.30	228.35
375.68	228.23
376.06	228.18
376.44	228.09
376.82	228.03
377.19	227.93
377.57	227.82
377.95	227.70
378.33	227.61
378.71	227.52
379.09	227.49
379.47	227.45
379.84	227.37
380.22	227.26
380.60	227.21
380.98	227.11
381.36	227.04
381.73	226.99
382.11	226.97
382.49	226.88
382.87	226.84
383.25	226.81
383.62	226.85
384.00	226.77
384.38	226.74
384.76	226.68
385.13	226.66
385.51	226.60
385.89	226.55
386.27	226.53
386.64	226.48
387.02	226.42
387.40	226.36
387.78	226.32
388.15	226.32
388.53	226.25
388.91	226.23
389.29	226.20
389.66	226.18
390.04	226.15
390.42	226.11
390.79	226.07
391.17	226.04
391.55	225.95
391.92	225.97
392.30	225.94
392.68	225.90
393.05	225.90
393.43	225.94
393.81	225.94
394.18	225.91
394.56	225.93
394.94	225.98
395.31	225.99
395.69	226.04
396.06	226.07
396.44	226.15
396.82	226.19
397.19	226.32
397.57	226.37
397.95	226.41
398.32	226.47
398.70	226.57
399.07	226.66
399.45	226.72
399.82	226.80
400.20	226.87
400.58	227.01
400.95	227.07
401.33	227.18
401.70	227.38
402.08	227.49
402.45	227.61
402.83	227.72
403.20	227.84
403.58	227.97
403.95	228.11
404.33	228.26
404.71	228.41
405.08	228.59
405.46	228.76
405.83	228.93
406.21	229.09
406.58	229.28
406.96	229.44
407.33	229.63
407.70	229.83
408.08	230.12
408.45	230.36
408.83	230.61
409.20	230.84
409.58	230.99
409.95	231.27
410.33	231.56
410.70	231.81
411.08	232.14
411.45	232.44
411.82	232.78
412.20	233.13
412.57	233.52
412.95	233.81
413.32	234.23
413.69	234.65
414.07	235.08
414.44	235.53
414.82	236.03
415.19	236.59
415.56	237.13
415.94	237.69
416.31	238.32
416.68	238.94
417.06	239.66
417.43	240.35
417.81	241.14
418.18	241.90
418.55	242.75
418.93	243.60
419.30	244.51
419.67	245.41
420.04	246.35
420.42	247.34
420.79	248.52
421.16	249.63
421.54	250.85
421.91	252.09
422.28	253.36
422.66	254.68
423.03	255.98
423.40	257.34
423.77	258.72
424.15	260.13
424.52	261.63
424.89	263.22
425.26	264.78
425.64	266.22
426.01	267.84
426.38	269.48
426.75	271.16
427.13	272.89
427.50	274.70
427.87	276.58
428.24	278.45
428.61	280.19
428.99	282.18
429.36	284.25
429.73	286.33
430.10	288.36
430.47	290.42
430.85	292.54
431.22	294.77
431.59	297.17
431.96	299.43
432.33	301.90
432.70	304.27
433.08	307.10
433.45	309.75
433.82	312.36
434.19	315.29
434.56	318.12
434.93	320.78
435.30	323.41
435.68	326.35
436.05	329.12
436.42	331.95
436.79	334.46
437.16	337.18
437.53	340.03
437.90	342.84
438.27	345.61
438.64	348.46
439.01	351.07
439.38	353.29
439.75	355.48
440.13	358.01
440.50	360.35
440.87	362.21
441.24	364.15
441.61	366.32
441.98	367.81
442.35	369.59
442.72	371.43
443.09	373.26
443.46	374.23
443.83	374.93
444.20	375.41
444.57	376.26
444.94	376.53
445.31	376.82
445.68	377.21
446.05	377.29
446.42	376.88
446.79	376.44
447.16	376.03
447.53	375.70
447.90	374.53
448.27	373.35
448.64	371.78
449.01	370.62
449.37	368.66
449.74	366.74
450.11	364.52
450.48	362.07
450.85	359.50
451.22	357.37
451.59	355.29
451.96	353.35
452.33	350.72
452.70	348.37
453.07	345.55
453.43	342.66
453.80	339.86
454.17	337.17
454.54	334.63
454.91	331.92
455.28	329.24
455.65	326.73
456.02	324.30
456.38	322.07
456.75	319.39
457.12	317.12
457.49	314.90
457.86	312.72
458.23	310.84
458.59	308.81
458.96	306.67
459.33	304.84
459.70	302.99
460.07	301.48
460.43	299.74
460.80	298.10
461.17	296.64
461.54	295.14
461.91	293.74
462.27	292.28
462.64	291.02
463.01	289.62
463.38	288.31
463.74	286.95
464.11	285.81
464.48	284.81
464.85	283.69
465.21	282.80
465.58	281.87
465.95	280.76
466.32	279.85
466.68	278.95
467.05	278.02
467.42	277.10
467.78	276.12
468.15	275.26
468.52	274.58
468.88	273.66
469.25	272.88
469.62	272.23
469.98	271.57
470.35	270.86
470.72	270.27
471.08	269.59
471.45	269.00
471.82	268.45
472.18	267.80
472.55	267.35
472.92	266.79
473.28	266.29
473.65	265.82
474.02	265.38
474.38	264.98
474.75	264.64
475.11	264.29
475.48	264.02
475.85	263.77
476.21	263.54
476.58	263.34
476.94	263.19
477.31	263.00
477.67	262.85
478.04	262.75
478.41	262.65
478.77	262.69
479.14	262.61
479.50	262.63
479.87	262.72
480.23	262.77
480.60	262.87
480.96	262.95
481.33	263.17
481.69	263.33
482.06	263.54
482.42	263.77
482.79	263.98
483.15	264.30
483.52	264.66
483.88	264.98
484.25	265.39
484.61	265.78
484.98	266.23
485.34	266.77
485.71	267.36
486.07	267.96
486.44	268.51
486.80	269.21
487.17	269.90
487.53	270.69
487.90	271.54
488.26	272.45
488.62	273.43
488.99	274.38
489.35	275.42
489.72	276.54
490.08	277.71
490.44	278.99
490.81	280.31
491.17	281.66
491.54	283.16
491.90	284.69
492.26	286.39
492.63	288.12
492.99	289.86
493.36	291.79
493.72	293.83
494.08	295.98
494.45	298.21
494.81	300.57
495.17	303.07
495.54	305.61
495.90	308.28
496.26	311.14
496.63	314.10
496.99	317.20
497.35	320.47
497.72	323.86
498.08	327.32
498.44	330.98
498.80	334.88
499.17	338.91
499.53	343.00
499.89	347.31
500.26	351.81
500.62	356.47
500.98	361.40
501.34	366.43
501.71	371.75
502.07	377.24
502.43	382.83
502.79	388.54
503.16	394.62
503.52	400.89
503.88	407.19
504.24	413.79
504.60	420.68
504.97	427.80
505.33	435.09
505.69	442.79
506.05	450.57
506.41	458.47
506.78	466.57
507.14	475.03
507.50	483.79
507.86	492.77
508.22	501.97
508.59	511.15
508.95	520.76
509.31	530.57
509.67	540.58
510.03	550.86
510.39	561.47
510.75	572.27
511.12	583.26
511.48	594.59
511.84	606.08
512.20	617.59
512.56	629.53
512.92	641.78
513.28	654.05
513.64	666.50
514.00	679.21
514.37	692.20
514.73	705.22
515.09	718.19
515.45	731.50
515.81	745.02
516.17	759.02
516.53	773.16
516.89	787.31
517.25	801.53
517.61	815.97
517.97	830.37
518.33	844.75
518.69	859.49
519.05	874.58
519.41	889.76
519.77	905.39
520.13	920.86
520.49	936.19
520.85	951.65
521.21	967.48
521.57	983.81
521.93	999.60
522.29	1016.10
522.65	1032.37
523.01	1048.72
523.37	1065.00
523.73	1081.32
524.09	1097.45
524.45	1113.79
524.81	1130.45
525.17	1147.39
525.53	1164.36
525.89	1181.30
526.25	1198.11
526.61	1214.47
526.97	1231.26
527.33	1247.69
527.68	1264.31
528.04	1280.83
528.40	1297.66
528.76	1314.66
529.12	1331.34
529.48	1348.36
529.84	1364.35
530.20	1381.14
530.56	1398.26
530.91	1415.66
531.27	1432.40
531.63	1448.87
531.99	1465.57
532.35	1481.68
532.71	1497.51
533.07	1513.87
533.42	1529.86
533.78	1546.06
534.14	1562.42
534.50	1577.80
534.86	1593.85
535.21	1609.15
535.57	1625.23
535.93	1640.75
536.29	1655.73
536.65	1670.88
537.00	1685.72
537.36	1701.25
537.72	1715.97
538.08	1730.42
538.44	1744.27
538.79	1758.20
539.15	1772.15
539.51	1785.86
539.87	1800.39
540.22	1814.33
540.58	1828.24
540.94	1841.79
541.29	1854.77
541.65	1867.53
542.01	1880.91
542.37	1893.24
542.72	1905.69
543.08	1917.49
543.44	1930.05
543.79	1941.22
544.15	1952.19
544.51	1963.83
544.87	1974.87
545.22	1985.65
545.58	1995.84
545.94	2005.65
546.29	2015.66
546.65	2025.42
547.01	2034.72
547.36	2043.36
547.72	2051.89
548.07	2059.70
548.43	2067.92
548.79	2075.84
549.14	2083.36
549.50	2090.74
549.86	2098.44
550.21	2105.91
550.57	2113.13
550.92	2119.73
551.28	2127.03
551.64	2134.06
551.99	2140.59
552.35	2146.83
552.70	2152.93
553.06	2158.85
553.41	2165.15
553.77	2171.12
554.13	2177.37
554.48	2183.53
554.84	2188.91
555.19	2194.16
555.55	2199.22
555.90	2203.56
556.26	2208.63
556.61	2213.33
556.97	2217.57
557.32	2221.93
557.68	2225.98
558.03	2230.31
558.39	2233.96
558.74	2238.38
559.10	2242.30
559.45	2245.74
559.81	2249.97
560.16	2253.69
560.52	2257.02
560.87	2260.42
561.23	2262.88
561.58	2265.60
561.94	2268.08
562.29	2270.56
562.64	2273.13
563.00	2275.88
563.35	2279.41
563.71	2282.36
564.06	2285.61
564.42	2288.39
564.77	2290.55
565.12	2292.78
565.48	2294.49
565.83	2296.20
566.19	2297.28
566.54	2298.10
566.89	2299.20
567.25	2299.56
567.60	2300.85
567.96	2302.34
568.31	2303.10
568.66	2304.13
569.02	2304.56
569.37	2304.81
569.72	2305.36
570.08	2305.35
570.43	2305.09
570.78	2304.04
571.14	2302.47
571.49	2300.92
571.84	2300.44
572.20	2299.09
572.55	2297.69
572.90	2295.98
573.26	2294.30
573.61	2292.57
573.96	2290.58
574.31	2287.54
574.67	2284.25
575.02	2280.55
575.37	2276.99
575.72	2273.02
576.08	2269.63
576.43	2266.19
576.78	2262.43
577.13	2259.20
577.49	2255.99
577.84	2252.40
578.19	2248.73
578.54	2244.77
578.90	2240.38
579.25	2234.61
579.60	2229.51
579.95	2224.45
580.30	2219.32
580.66	2214.10
581.01	2209.05
581.36	2203.95
581.71	2199.49
582.06	2195.09
582.42	2190.31
582.77	2185.05
583.12	2180.22
583.47	2175.25
583.82	2170.10
584.17	2164.55
584.53	2159.05
584.88	2153.35
585.23	2147.34
585.58	2141.71
585.93	2136.12
586.28	2131.25
586.63	2126.07
586.98	2120.94
587.34	2116.30
587.69	2111.28
588.04	2105.71
588.39	2099.89
588.74	2093.43
589.09	2087.23
589.44	2080.22
589.79	2074.18
590.14	2068.43
590.49	2061.83
590.84	2055.35
591.19	2049.24
591.54	2042.80
591.89	2035.22
592.25	2028.26
592.60	2021.03
592.95	2013.29
593.30	2005.91
593.65	1998.20
594.00	1991.16
594.35	1983.85
594.70	1975.62
595.05	1968.28
595.40	1961.12
595.75	1953.67
596.10	1947.23
596.45	1940.38
596.80	1934.24
597.15	1927.59
597.50	1920.40
597.85	1913.96
598.19	1907.34
598.54	1900.09
598.89	1893.36
599.24	1887.26
599.59	1880.54
599.94	1874.35
600.29	1868.00
600.64	1861.34
600.99	1853.88
601.34	1847.01
601.69	1839.99
602.04	1833.09
602.39	1825.76
602.74	1818.96
603.08	1812.03
603.43	1805.43
603.78	1798.03
604.13	1790.76
604.48	1783.44
604.83	1776.55
605.18	1769.34
605.53	1761.36
605.87	1753.41
606.22	1746.15
606.57	1738.33
606.92	1731.01
607.27	1723.71
607.62	1716.93
607.96	1709.66
608.31	1702.95
608.66	1695.25
609.01	1687.76
609.36	1679.98
609.70	1671.85
610.05	1663.70
610.40	1656.02
610.75	1647.60
611.10	1640.03
611.44	1631.72
611.79	1623.74
612.14	1615.01
612.49	1606.11
612.83	1597.65
613.18	1589.57
613.53	1581.50
613.88	1572.99
614.22	1564.67
614.57	1556.14
614.92	1548.05
615.27	1540.54
615.61	1532.19
615.96	1524.20
616.31	1516.55
616.65	1509.28
617.00	1501.83
617.35	1494.12
617.70	1485.81
618.04	1477.25
618.39	1469.00
618.74	1461.33
619.08	1452.99
619.43	1445.40
619.78	1438.54
620.12	1431.44
620.47	1423.91
620.82	1415.67
621.16	1408.24
621.51	1400.62
621.85	1393.08
622.20	1384.57
622.55	1376.18
622.89	1368.48
623.24	1360.93
623.59	1353.67
623.93	1346.16
624.28	1338.96
624.62	1331.43
624.97	1324.29
625.32	1317.68
625.66	1310.67
626.01	1303.53
626.35	1296.06
626.70	1288.45
627.04	1280.67
627.39	1272.97
627.73	1265.59
628.08	1258.77
628.43	1251.45
628.77	1244.16
629.12	1236.58
629.46	1229.37
629.81	1222.08
630.15	1214.98
630.50	1207.56
630.84	1199.24
631.19	1191.49
631.53	1184.12
631.88	1176.72
632.22	1169.22
632.57	1161.92
632.91	1154.50
633.26	1147.19
633.60	1139.98
633.95	1132.97
634.29	1125.95
634.64	1119.30
634.98	1111.98
635.32	1104.98
635.67	1098.51
636.01	1091.92
636.36	1085.27
636.70	1078.89
637.05	1072.37
637.39	1065.90
637.73	1059.47
638.08	1053.70
638.42	1047.61
638.77	1041.08
639.11	1034.50
639.45	1028.12
639.80	1021.47
640.14	1015.13
640.49	1008.65
640.83	1002.30
641.17	996.04
641.52	989.79
641.86	983.41
642.20	977.63
642.55	971.32
642.89	964.80
643.23	958.37
643.58	952.55
643.92	946.35
644.26	940.16
644.61	934.15
644.95	928.14
645.29	921.64
645.64	915.02
645.98	908.73
646.32	902.94
646.66	896.94
647.01	891.20
647.35	885.49
647.69	879.61
648.04	874.13
648.38	868.39
648.72	862.35
649.06	856.26
649.41	850.36
649.75	844.35
650.09	838.44
650.43	832.66
650.78	826.51
651.12	820.58
651.46	814.94
651.80	809.15
652.14	803.77
652.49	798.40
652.83	793.28
653.17	787.63
653.51	781.89
653.85	776.56
654.20	770.93
654.54	764.91
654.88	759.28
655.22	753.44
655.56	747.69
655.90	742.29
656.25	737.01
656.59	731.68
656.93	726.58
657.27	721.47
657.61	715.99
657.95	710.97
658.29	705.89
658.64	700.76
658.98	695.55
659.32	690.06
659.66	684.85
660.00	679.47
660.34	674.56
660.68	669.72
661.02	664.71
661.36	660.11
661.70	655.69
662.05	651.31
662.39	647.01
662.73	642.60
663.07	638.23
663.41	633.93
663.75	629.46
664.09	624.96
664.43	620.67
664.77	616.60
665.11	612.36
665.45	608.35
665.79	604.25
666.13	600.10
666.47	596.10
666.81	591.92
667.15	587.89
667.49	584.02
667.83	580.20
668.17	576.24
668.51	572.11
668.85	568.10
669.19	564.33
669.53	560.50
669.87	556.68
670.21	553.05
670.55	549.37
670.89	545.98
671.23	542.62
671.57	539.10
671.91	535.59
672.25	532.14
672.58	528.65
672.92	525.33
673.26	522.26
673.60	519.17
673.94	516.14
674.28	513.27
674.62	510.34
674.96	507.28
675.30	504.41
675.64	501.57
675.97	498.80
676.31	495.88
676.65	492.94
676.99	490.26
677.33	487.41
677.67	484.64
678.01	481.63
678.34	478.64
678.68	475.77
679.02	472.95
679.36	470.14
679.70	467.40
680.04	464.65
680.37	461.76
680.71	458.97
681.05	456.34
681.39	453.65
681.73	451.09
682.06	448.57
682.40	446.06
682.74	443.50
683.08	440.97
683.42	438.43
683.75	435.99
684.09	433.46
684.43	431.01
684.77	428.57
685.10	426.24
685.44	423.99
685.78	421.75
686.12	419.57
686.45	417.36
686.79	415.07
687.13	412.89
687.46	410.79
687.80	408.68
688.14	406.52
688.48	404.48
688.81	402.20
689.15	400.13
689.49	398.00
689.82	395.94
690.16	393.88
690.50	391.93
690.83	390.00
691.17	388.02
691.51	386.11
691.84	384.24
692.18	382.28
692.52	380.27
692.85	378.36
693.19	376.47
693.52	374.63
693.86	372.86
694.20	371.08
694.53	369.26
694.87	367.41
695.21	365.62
695.54	363.82
695.88	362.15
696.21	360.41
696.55	358.73
696.88	357.08
697.22	355.45
697.56	353.81
697.89	352.18
698.23	350.57
698.56	348.95
698.90	347.36
699.23	345.75
699.57	344.24
699.90	342.66
700.24	341.12
700.58	339.61
700.91	338.12
701.25	336.67
701.58	335.24
701.92	333.89
702.25	332.52
702.59	331.14
702.92	329.82
703.26	328.52
703.59	327.26
703.93	326.07
704.26	324.83
704.60	323.55
704.93	322.29
705.26	321.02
705.60	319.88
705.93	318.77
706.27	317.78
706.60	316.74
706.94	315.68
707.27	314.57
707.61	313.53
707.94	312.51
708.27	311.45
708.61	310.45
708.94	309.45
709.28	308.51
709.61	307.59
709.94	306.65
710.28	305.64
710.61	304.68
710.95	303.61
711.28	302.75
711.61	301.80
711.95	300.86
712.28	299.96
712.61	298.98
712.95	298.05
713.28	297.14
713.61	296.24
713.95	295.35
714.28	294.54
714.61	293.66
714.95	292.84
715.28	291.97
715.61	291.12
715.95	290.27
716.28	289.38
716.61	288.56
716.95	287.75
717.28	287.03
717.61	286.25
717.94	285.51
718.28	284.70
718.61	284.00
718.94	283.34
719.27	282.71
719.61	282.11
719.94	281.46
720.27	280.73
720.60	280.07
720.94	279.50
721.27	278.85
721.60	278.28
721.93	277.70
722.27	277.16
722.60	276.59
722.93	276.02
723.26	275.52
723.59	274.95
723.93	274.39
724.26	273.86
724.59	273.29
724.92	272.77
725.25	272.30
725.59	271.81
725.92	271.29
726.25	270.77
726.58	270.27
726.91	269.78
727.24	269.33
727.57	268.88
727.91	268.35
728.24	267.94
728.57	267.44
728.90	266.99
729.23	266.50
729.56	266.06
729.89	265.62
730.22	265.13
730.55	264.64
730.89	264.23
731.22	263.74
731.55	263.32
731.88	262.89
732.21	262.43
732.54	262.02
732.87	261.59
733.20	261.17
733.53	260.80
733.86	260.40
734.19	260.02
734.52	259.64
734.85	259.30
735.18	258.90
735.51	258.56
735.84	258.13
736.17	257.77
736.50	257.43
736.83	257.20
737.16	256.85
737.49	256.53
737.82	256.15
738.15	255.82
738.48	255.48
738.81	255.19
739.14	254.87
739.47	254.50
739.80	254.21
740.13	253.91
740.46	253.55
740.79	253.26
741.12	252.95
741.45	252.64
741.78	252.32
742.11	252.03
742.44	251.72
742.77	251.42
743.10	251.10
743.43	250.78
743.75	250.32
744.08	250.15
744.41	249.86
744.74	249.59
745.07	249.33
745.40	249.08
745.73	248.84
746.06	248.51
746.39	248.24
746.71	247.97
747.04	247.72
747.37	247.49
747.70	247.18
748.03	246.94
748.36	246.69
748.68	246.44
749.01	246.19
749.34	245.95
749.67	245.73
750.00	245.51
750.33	245.35
750.65	245.20
750.98	244.87
751.31	244.68
751.64	244.49
751.97	244.32
752.29	244.13
752.62	243.89
752.95	243.74
753.28	243.55
753.60	243.34
753.93	243.14
754.26	242.93
754.59	242.77
754.91	242.54
755.24	242.35
755.57	242.16
755.90	241.97
756.22	241.79
756.55	241.63
756.88	241.43
757.20	241.22
757.53	241.02
757.86	240.88
758.19	240.71
758.51	240.53
758.84	240.32
759.17	240.13
759.49	239.97
759.82	239.83
760.15	239.69
760.47	239.54
760.80	239.39
761.13	239.30
761.45	239.10
761.78	238.97
762.11	238.85
762.43	238.71
762.76	238.57
763.08	238.43
763.41	238.26
763.74	238.14
764.06	237.99
764.39	237.88
764.71	237.73
765.04	237.61
765.37	237.46
765.69	237.33
766.02	237.23
766.34	237.10
766.67	236.97
767.00	236.92
767.32	236.83
767.65	236.78
767.97	236.61
768.30	236.55
768.62	236.45
768.95	236.31
769.27	236.17
769.60	236.07
769.92	235.97
770.25	235.92
770.57	235.83
770.90	235.69
771.22	235.52
771.55	235.43
771.87	235.31
772.20	235.21
772.52	235.20
772.85	235.18
773.17	235.08
773.50	234.96
773.82	234.80
774.15	234.69
774.47	234.53
774.80	234.46
775.12	234.34
775.45	234.26
775.77	234.18
776.09	234.12
776.42	234.05
776.74	233.93
777.07	233.78
777.39	233.70
777.72	233.69
778.04	233.62
778.36	233.53
778.69	233.50
779.01	233.46
779.33	233.31
779.66	233.15
779.98	233.09
780.31	233.03
780.63	233.01
780.95	232.96
781.28	232.91
781.60	232.86
781.92	232.82
782.25	232.74
782.57	232.70
782.89	232.67
783.22	232.59
783.54	232.53
783.86	232.51
784.19	232.44
784.51	232.38
784.83	232.34
785.16	232.29
785.48	232.21
785.80	232.16
786.12	232.10
786.45	232.02
786.77	231.99
787.09	231.91
