SpectraSuite Data File
++++++++++++++++++++++++++++++++++++
Date: Fri Feb 01 15:18:45 EST 2013
User: group
Dark Spectrum Present: No
Reference Spectrum Present: No
Number of Sampled Component Spectra: 1
Spectrometers: USB2E7196
Integration Time (usec): 35000 (USB2E7196)
Spectra Averaged: 100 (USB2E7196)
Boxcar Smoothing: 10 (USB2E7196)
Correct for Electrical Dark: No (USB2E7196)
Strobe/Lamp Enabled: No (USB2E7196)
Correct for Detector Non-linearity: No (USB2E7196)
Correct for Stray Light: No (USB2E7196)
Number of Pixels in Processed Spectrum: 2048
>>>>>Begin Processed Spectral Data<<<<<
339.09	0.00
339.48	215.19
339.86	217.27
340.24	217.53
340.63	219.10
341.01	222.01
341.39	221.72
341.78	223.53
342.16	224.34
342.54	224.56
342.93	213.24
343.31	224.03
343.69	224.55
344.07	224.95
344.46	225.39
344.84	225.81
345.22	226.06
345.60	226.32
345.99	226.50
346.37	226.64
346.75	226.76
347.13	226.85
347.52	226.94
347.90	227.02
348.28	227.07
348.66	227.15
349.05	227.18
349.43	227.19
349.81	227.21
350.19	227.27
350.57	227.29
350.96	227.38
351.34	227.45
351.72	227.54
352.10	227.69
352.48	227.75
352.87	227.76
353.25	227.81
353.63	227.88
354.01	227.96
354.39	228.04
354.77	228.14
355.15	228.24
355.54	228.30
355.92	228.31
356.30	228.41
356.68	228.52
357.06	228.59
357.44	228.68
357.82	228.77
358.20	228.85
358.58	228.95
358.97	229.03
359.35	229.11
359.73	229.19
360.11	229.19
360.49	229.26
360.87	229.34
361.25	229.40
361.63	229.45
362.01	229.48
362.39	229.51
362.77	229.52
363.15	229.56
363.53	229.58
363.91	229.63
364.29	229.67
364.67	229.58
365.05	229.59
365.43	229.59
365.81	229.60
366.19	229.63
366.57	229.63
366.95	229.60
367.33	229.57
367.71	229.55
368.09	229.57
368.47	229.54
368.85	229.49
369.23	229.48
369.61	229.43
369.99	229.40
370.37	229.37
370.75	229.40
371.13	229.31
371.51	229.24
371.89	229.19
372.27	229.14
372.65	229.09
373.03	229.01
373.41	228.95
373.78	228.88
374.16	228.75
374.54	228.64
374.92	228.57
375.30	228.53
375.68	228.44
376.06	228.35
376.44	228.29
376.82	228.23
377.19	228.15
377.57	228.09
377.95	228.03
378.33	227.93
378.71	227.80
379.09	227.77
379.47	227.72
379.84	227.65
380.22	227.55
380.60	227.47
380.98	227.39
381.36	227.33
381.73	227.24
382.11	227.20
382.49	227.10
382.87	227.02
383.25	226.94
383.62	227.00
384.00	226.92
384.38	226.85
384.76	226.80
385.13	226.78
385.51	226.70
385.89	226.61
386.27	226.57
386.64	226.50
387.02	226.43
387.40	226.37
387.78	226.32
388.15	226.29
388.53	226.23
388.91	226.22
389.29	226.18
389.66	226.15
390.04	226.12
390.42	226.14
390.79	226.12
391.17	226.10
391.55	225.98
391.92	226.00
392.30	226.03
392.68	226.03
393.05	226.01
393.43	226.01
393.81	226.06
394.18	226.08
394.56	226.10
394.94	226.14
395.31	226.15
395.69	226.21
396.06	226.25
396.44	226.32
396.82	226.35
397.19	226.45
397.57	226.50
397.95	226.58
398.32	226.64
398.70	226.72
399.07	226.82
399.45	226.87
399.82	226.94
400.20	227.01
400.58	227.07
400.95	227.14
401.33	227.23
401.70	227.37
402.08	227.46
402.45	227.57
402.83	227.70
403.20	227.83
403.58	227.93
403.95	228.06
404.33	228.20
404.71	228.33
405.08	228.51
405.46	228.66
405.83	228.80
406.21	228.92
406.58	229.09
406.96	229.24
407.33	229.47
407.70	229.64
408.08	229.90
408.45	230.15
408.83	230.37
409.20	230.61
409.58	230.79
409.95	231.04
410.33	231.34
410.70	231.61
411.08	231.89
411.45	232.23
411.82	232.55
412.20	232.92
412.57	233.31
412.95	233.61
413.32	233.98
413.69	234.41
414.07	234.85
414.44	235.31
414.82	235.76
415.19	236.30
415.56	236.86
415.94	237.38
416.31	238.01
416.68	238.63
417.06	239.38
417.43	240.07
417.81	240.83
418.18	241.57
418.55	242.39
418.93	243.27
419.30	244.13
419.67	245.08
420.04	246.03
420.42	247.05
420.79	248.24
421.16	249.42
421.54	250.61
421.91	251.84
422.28	253.11
422.66	254.45
423.03	255.75
423.40	257.09
423.77	258.54
424.15	259.93
424.52	261.40
424.89	262.93
425.26	264.47
425.64	265.94
426.01	267.58
426.38	269.21
426.75	270.91
427.13	272.63
427.50	274.40
427.87	276.25
428.24	278.11
428.61	279.84
428.99	281.75
429.36	283.86
429.73	285.92
430.10	287.92
430.47	290.00
430.85	292.11
431.22	294.36
431.59	296.71
431.96	298.99
432.33	301.54
432.70	303.93
433.08	306.74
433.45	309.43
433.82	312.06
434.19	314.95
434.56	317.76
434.93	320.39
435.30	323.06
435.68	325.95
436.05	328.79
436.42	331.58
436.79	334.14
437.16	336.85
437.53	339.65
437.90	342.54
438.27	345.31
438.64	348.11
439.01	350.72
439.38	352.96
439.75	355.15
440.13	357.63
440.50	359.98
440.87	361.87
441.24	363.74
441.61	365.88
441.98	367.39
442.35	369.18
442.72	371.08
443.09	372.90
443.46	373.92
443.83	374.52
444.20	375.02
444.57	375.88
444.94	376.17
445.31	376.53
445.68	376.87
446.05	376.94
446.42	376.59
446.79	376.17
447.16	375.72
447.53	375.38
447.90	374.20
448.27	373.05
448.64	371.48
449.01	370.39
449.37	368.46
449.74	366.57
450.11	364.32
450.48	361.83
450.85	359.29
451.22	357.16
451.59	355.19
451.96	353.26
452.33	350.62
452.70	348.22
453.07	345.38
453.43	342.48
453.80	339.72
454.17	337.06
454.54	334.49
454.91	331.80
455.28	329.11
455.65	326.62
456.02	324.15
456.38	321.98
456.75	319.30
457.12	317.02
457.49	314.78
457.86	312.63
458.23	310.79
458.59	308.78
458.96	306.67
459.33	304.80
459.70	302.97
460.07	301.51
460.43	299.83
460.80	298.23
461.17	296.78
461.54	295.29
461.91	293.88
462.27	292.47
462.64	291.21
463.01	289.89
463.38	288.64
463.74	287.28
464.11	286.10
464.48	285.06
464.85	283.93
465.21	283.06
465.58	282.11
465.95	281.01
466.32	280.05
466.68	279.11
467.05	278.18
467.42	277.23
467.78	276.25
468.15	275.39
468.52	274.70
468.88	273.79
469.25	272.98
469.62	272.30
469.98	271.53
470.35	270.91
470.72	270.26
471.08	269.59
471.45	269.04
471.82	268.47
472.18	267.84
472.55	267.37
472.92	266.85
473.28	266.39
473.65	265.94
474.02	265.45
474.38	265.05
474.75	264.70
475.11	264.37
475.48	264.10
475.85	263.83
476.21	263.56
476.58	263.40
476.94	263.22
477.31	263.06
477.67	262.94
478.04	262.80
478.41	262.74
478.77	262.76
479.14	262.68
479.50	262.69
479.87	262.76
480.23	262.86
480.60	262.92
480.96	263.00
481.33	263.21
481.69	263.42
482.06	263.64
482.42	263.85
482.79	264.08
483.15	264.40
483.52	264.79
483.88	265.19
484.25	265.54
484.61	265.99
484.98	266.44
485.34	267.00
485.71	267.58
486.07	268.15
486.44	268.70
486.80	269.39
487.17	270.14
487.53	270.96
487.90	271.74
488.26	272.70
488.62	273.67
488.99	274.66
489.35	275.73
489.72	276.89
490.08	278.09
490.44	279.34
490.81	280.70
491.17	282.04
491.54	283.56
491.90	285.12
492.26	286.78
492.63	288.52
492.99	290.28
493.36	292.17
493.72	294.29
494.08	296.40
494.45	298.70
494.81	301.07
495.17	303.52
495.54	306.19
495.90	308.89
496.26	311.73
496.63	314.65
496.99	317.76
497.35	320.98
497.72	324.40
498.08	327.92
498.44	331.52
498.80	335.48
499.17	339.46
499.53	343.63
499.89	348.01
500.26	352.54
500.62	357.25
500.98	362.23
501.34	367.28
501.71	372.57
502.07	378.04
502.43	383.64
502.79	389.43
503.16	395.41
503.52	401.66
503.88	408.05
504.24	414.69
504.60	421.59
504.97	428.76
505.33	436.08
505.69	443.78
506.05	451.61
506.41	459.47
506.78	467.59
507.14	476.05
507.50	484.75
507.86	493.73
508.22	502.88
508.59	512.11
508.95	521.75
509.31	531.58
509.67	541.58
510.03	551.87
510.39	562.46
510.75	573.31
511.12	584.27
511.48	595.57
511.84	607.02
512.20	618.50
512.56	630.42
512.92	642.63
513.28	654.93
513.64	667.40
514.00	680.10
514.37	693.05
514.73	706.11
515.09	719.10
515.45	732.37
515.81	745.94
516.17	759.85
516.53	773.91
516.89	788.08
517.25	802.33
517.61	816.67
517.97	831.12
518.33	845.59
518.69	860.35
519.05	875.33
519.41	890.53
519.77	906.16
520.13	921.69
520.49	937.12
520.85	952.62
521.21	968.39
521.57	984.66
521.93	1000.53
522.29	1016.95
522.65	1033.29
523.01	1049.64
523.37	1065.80
523.73	1082.01
524.09	1098.21
524.45	1114.61
524.81	1131.32
525.17	1148.29
525.53	1165.20
525.89	1182.13
526.25	1198.95
526.61	1215.37
526.97	1232.17
527.33	1248.63
527.68	1265.24
528.04	1281.75
528.40	1298.49
528.76	1315.65
529.12	1332.43
529.48	1349.35
529.84	1365.52
530.20	1382.16
530.56	1399.27
530.91	1416.58
531.27	1433.45
531.63	1449.94
531.99	1466.66
532.35	1482.62
532.71	1498.58
533.07	1514.91
533.42	1530.92
533.78	1547.11
534.14	1563.59
534.50	1579.02
534.86	1595.03
535.21	1610.19
535.57	1626.32
535.93	1641.83
536.29	1656.58
536.65	1671.63
537.00	1686.54
537.36	1701.88
537.72	1716.61
538.08	1730.99
538.44	1744.99
538.79	1759.04
539.15	1772.90
539.51	1786.58
539.87	1801.16
540.22	1815.00
540.58	1829.00
540.94	1842.36
541.29	1855.35
541.65	1867.97
542.01	1881.31
542.37	1893.68
542.72	1906.30
543.08	1918.15
543.44	1930.63
543.79	1942.05
544.15	1952.99
544.51	1964.40
544.87	1975.56
545.22	1986.38
545.58	1996.73
545.94	2006.60
546.29	2016.52
546.65	2026.24
547.01	2035.54
547.36	2044.32
547.72	2052.70
548.07	2060.49
548.43	2068.75
548.79	2076.79
549.14	2084.54
549.50	2091.88
549.86	2099.74
550.21	2106.96
550.57	2114.12
550.92	2120.79
551.28	2127.68
551.64	2134.88
551.99	2141.69
552.35	2147.55
552.70	2153.64
553.06	2159.55
553.41	2165.82
553.77	2171.79
554.13	2178.02
554.48	2184.21
554.84	2189.49
555.19	2194.98
555.55	2200.03
555.90	2204.45
556.26	2209.20
556.61	2213.77
556.97	2217.94
557.32	2221.85
557.68	2226.19
558.03	2230.42
558.39	2234.06
558.74	2238.75
559.10	2242.44
559.45	2245.94
559.81	2250.42
560.16	2254.23
560.52	2257.54
560.87	2261.04
561.23	2263.63
561.58	2266.42
561.94	2268.89
562.29	2271.30
562.64	2273.85
563.00	2276.51
563.35	2280.21
563.71	2283.52
564.06	2286.74
564.42	2289.56
564.77	2292.11
565.12	2294.15
565.48	2295.84
565.83	2297.50
566.19	2298.70
566.54	2299.78
566.89	2300.84
567.25	2301.27
567.60	2302.53
567.96	2304.03
568.31	2304.76
568.66	2305.75
569.02	2306.30
569.37	2306.62
569.72	2307.39
570.08	2307.42
570.43	2307.23
570.78	2306.24
571.14	2304.53
571.49	2303.09
571.84	2302.69
572.20	2301.40
572.55	2300.32
572.90	2298.83
573.26	2297.44
573.61	2295.75
573.96	2293.76
574.31	2290.63
574.67	2287.37
575.02	2283.64
575.37	2280.17
575.72	2276.16
576.08	2272.92
576.43	2269.65
576.78	2265.76
577.13	2262.51
577.49	2259.46
577.84	2256.11
578.19	2252.51
578.54	2248.73
578.90	2244.40
579.25	2238.95
579.60	2233.83
579.95	2228.76
580.30	2223.71
580.66	2218.41
581.01	2213.34
581.36	2208.33
581.71	2204.10
582.06	2199.73
582.42	2195.36
582.77	2190.10
583.12	2185.42
583.47	2180.54
583.82	2175.36
584.17	2170.11
584.53	2164.58
584.88	2158.68
585.23	2152.72
585.58	2147.08
585.93	2141.67
586.28	2136.85
586.63	2131.50
586.98	2126.52
587.34	2121.71
587.69	2116.67
588.04	2111.44
588.39	2105.77
588.74	2099.20
589.09	2092.95
589.44	2086.08
589.79	2080.00
590.14	2074.42
590.49	2067.91
590.84	2061.43
591.19	2055.45
591.54	2048.88
591.89	2041.32
592.25	2034.60
592.60	2027.30
592.95	2019.41
593.30	2011.75
593.65	2004.01
594.00	1996.95
594.35	1989.52
594.70	1981.58
595.05	1974.18
595.40	1966.68
595.75	1959.08
596.10	1952.86
596.45	1946.05
596.80	1939.79
597.15	1932.92
597.50	1925.58
597.85	1919.09
598.19	1912.39
598.54	1905.14
598.89	1898.43
599.24	1892.48
599.59	1885.54
599.94	1879.28
600.29	1873.11
600.64	1866.61
600.99	1859.11
601.34	1852.27
601.69	1845.29
602.04	1838.08
602.39	1830.80
602.74	1824.05
603.08	1817.32
603.43	1810.62
603.78	1803.42
604.13	1796.22
604.48	1788.82
604.83	1782.01
605.18	1774.94
605.53	1766.94
605.87	1758.79
606.22	1751.58
606.57	1743.62
606.92	1736.43
607.27	1729.31
607.62	1722.32
607.96	1715.05
608.31	1708.37
608.66	1700.65
609.01	1693.12
609.36	1685.67
609.70	1677.53
610.05	1669.40
610.40	1661.63
610.75	1653.10
611.10	1645.48
611.44	1637.02
611.79	1629.25
612.14	1620.55
612.49	1611.49
612.83	1603.06
613.18	1594.99
613.53	1586.90
613.88	1578.42
614.22	1570.14
614.57	1561.47
614.92	1553.30
615.27	1545.69
615.61	1537.47
615.96	1529.56
616.31	1521.92
616.65	1514.55
617.00	1507.05
617.35	1499.47
617.70	1491.09
618.04	1482.66
618.39	1474.29
618.74	1466.64
619.08	1458.18
619.43	1450.53
619.78	1443.57
620.12	1436.45
620.47	1428.84
620.82	1420.64
621.16	1413.26
621.51	1405.54
621.85	1397.95
622.20	1389.55
622.55	1381.21
622.89	1373.38
623.24	1365.71
623.59	1358.32
623.93	1350.75
624.28	1343.66
624.62	1336.04
624.97	1328.97
625.32	1322.26
625.66	1315.26
626.01	1308.14
626.35	1300.68
626.70	1293.09
627.04	1285.29
627.39	1277.47
627.73	1270.18
628.08	1263.32
628.43	1255.96
628.77	1248.62
629.12	1241.07
629.46	1233.86
629.81	1226.50
630.15	1219.21
630.50	1211.84
630.84	1203.59
631.19	1195.70
631.53	1188.10
631.88	1180.64
632.22	1173.04
632.57	1165.75
632.91	1158.23
633.26	1150.86
633.60	1143.58
633.95	1136.44
634.29	1129.46
634.64	1122.74
634.98	1115.29
635.32	1108.24
635.67	1101.71
636.01	1095.10
636.36	1088.27
636.70	1081.90
637.05	1075.41
637.39	1068.95
637.73	1062.49
638.08	1056.73
638.42	1050.81
638.77	1044.33
639.11	1037.65
639.45	1031.18
639.80	1024.54
640.14	1018.13
640.49	1011.62
640.83	1005.28
641.17	999.00
641.52	992.65
641.86	986.31
642.20	980.56
642.55	974.24
642.89	967.71
643.23	961.16
643.58	955.44
643.92	949.19
644.26	943.11
644.61	937.18
644.95	931.07
645.29	924.49
645.64	917.71
645.98	911.44
646.32	905.72
646.66	899.79
647.01	894.02
647.35	888.34
647.69	882.59
648.04	877.04
648.38	871.28
648.72	865.31
649.06	859.21
649.41	853.30
649.75	847.22
650.09	841.27
650.43	835.47
650.78	829.26
651.12	823.31
651.46	817.56
651.80	811.77
652.14	806.37
652.49	800.89
652.83	795.71
653.17	789.98
653.51	784.16
653.85	778.73
654.20	773.09
654.54	767.05
654.88	761.23
655.22	755.40
655.56	749.66
655.90	744.14
656.25	738.92
656.59	733.58
656.93	728.55
657.27	723.37
657.61	717.99
657.95	712.91
658.29	707.82
658.64	702.53
658.98	697.22
659.32	691.78
659.66	686.70
660.00	681.41
660.34	676.50
660.68	671.60
661.02	666.53
661.36	661.79
661.70	657.27
662.05	652.92
662.39	648.63
662.73	644.24
663.07	639.95
663.41	635.53
663.75	631.03
664.09	626.49
664.43	622.15
664.77	617.95
665.11	613.66
665.45	609.57
665.79	605.48
666.13	601.29
666.47	597.25
666.81	593.04
667.15	588.86
667.49	584.97
667.83	581.20
668.17	577.26
668.51	573.16
668.85	569.22
669.19	565.33
669.53	561.48
669.87	557.63
670.21	553.93
670.55	550.21
670.89	546.78
671.23	543.35
671.57	539.83
671.91	536.39
672.25	533.00
672.58	529.45
672.92	526.12
673.26	523.05
673.60	519.87
673.94	516.82
674.28	514.01
674.62	511.06
674.96	507.93
675.30	505.04
675.64	502.14
675.97	499.43
676.31	496.67
676.65	493.78
676.99	491.04
677.33	488.17
677.67	485.41
678.01	482.40
678.34	479.43
678.68	476.65
679.02	473.83
679.36	471.06
679.70	468.39
680.04	465.63
680.37	462.74
680.71	460.00
681.05	457.40
681.39	454.65
681.73	452.06
682.06	449.63
682.40	447.14
682.74	444.67
683.08	442.10
683.42	439.49
683.75	437.01
684.09	434.47
684.43	432.04
684.77	429.59
685.10	427.30
685.44	425.03
685.78	422.75
686.12	420.56
686.45	418.30
686.79	416.02
687.13	413.83
687.46	411.71
687.80	409.59
688.14	407.40
688.48	405.32
688.81	403.01
689.15	400.82
689.49	398.65
689.82	396.57
690.16	394.45
690.50	392.50
690.83	390.53
691.17	388.55
691.51	386.67
691.84	384.82
692.18	382.87
692.52	380.83
692.85	378.88
693.19	376.95
693.52	375.14
693.86	373.32
694.20	371.55
694.53	369.73
694.87	367.87
695.21	366.07
695.54	364.29
695.88	362.62
696.21	360.87
696.55	359.22
696.88	357.53
697.22	355.92
697.56	354.25
697.89	352.58
698.23	350.99
698.56	349.33
698.90	347.75
699.23	346.08
699.57	344.53
699.90	342.99
700.24	341.43
700.58	339.82
700.91	338.34
701.25	336.88
701.58	335.51
701.92	334.12
702.25	332.73
702.59	331.37
702.92	330.02
703.26	328.73
703.59	327.41
703.93	326.22
704.26	324.97
704.60	323.70
704.93	322.43
705.26	321.22
705.60	320.10
705.93	318.91
706.27	317.88
706.60	316.83
706.94	315.74
707.27	314.61
707.61	313.61
707.94	312.57
708.27	311.50
708.61	310.42
708.94	309.41
709.28	308.44
709.61	307.46
709.94	306.51
710.28	305.47
710.61	304.55
710.95	303.50
711.28	302.61
711.61	301.63
711.95	300.75
712.28	299.80
712.61	298.76
712.95	297.88
713.28	297.02
713.61	296.15
713.95	295.27
714.28	294.46
714.61	293.59
714.95	292.79
715.28	291.98
715.61	291.14
715.95	290.33
716.28	289.47
716.61	288.64
716.95	287.86
717.28	287.19
717.61	286.42
717.94	285.71
718.28	284.88
718.61	284.22
718.94	283.50
719.27	282.86
719.61	282.29
719.94	281.64
720.27	280.92
720.60	280.27
720.94	279.65
721.27	279.08
721.60	278.52
721.93	277.92
722.27	277.38
722.60	276.83
722.93	276.22
723.26	275.69
723.59	275.14
723.93	274.59
724.26	274.04
724.59	273.48
724.92	272.96
725.25	272.48
725.59	271.97
725.92	271.50
726.25	271.00
726.58	270.52
726.91	270.00
727.24	269.58
727.57	269.13
727.91	268.63
728.24	268.17
728.57	267.71
728.90	267.26
729.23	266.77
729.56	266.33
729.89	265.91
730.22	265.46
730.55	265.02
730.89	264.60
731.22	264.14
731.55	263.70
731.88	263.24
732.21	262.79
732.54	262.34
732.87	261.95
733.20	261.53
733.53	261.14
733.86	260.79
734.19	260.34
734.52	259.92
734.85	259.59
735.18	259.17
735.51	258.74
735.84	258.33
736.17	257.97
736.50	257.57
736.83	257.31
737.16	256.95
737.49	256.63
737.82	256.25
738.15	255.88
738.48	255.53
738.81	255.19
739.14	254.84
739.47	254.54
739.80	254.18
740.13	253.85
740.46	253.45
740.79	253.06
741.12	252.75
741.45	252.46
741.78	252.10
742.11	251.79
742.44	251.47
742.77	251.19
743.10	250.83
743.43	250.51
743.75	250.11
744.08	249.94
744.41	249.62
744.74	249.35
745.07	249.06
745.40	248.86
745.73	248.59
746.06	248.29
746.39	247.98
746.71	247.69
747.04	247.41
747.37	247.18
747.70	246.95
748.03	246.69
748.36	246.43
748.68	246.21
749.01	245.95
749.34	245.74
749.67	245.50
750.00	245.30
750.33	245.15
750.65	244.94
750.98	244.61
751.31	244.39
751.64	244.18
751.97	244.02
752.29	243.77
752.62	243.56
752.95	243.40
753.28	243.24
753.60	243.04
753.93	242.86
754.26	242.68
754.59	242.48
754.91	242.29
755.24	242.14
755.57	241.97
755.90	241.78
756.22	241.61
756.55	241.41
756.88	241.25
757.20	241.00
757.53	240.83
757.86	240.66
758.19	240.53
758.51	240.35
758.84	240.15
759.17	240.01
759.49	239.90
759.82	239.79
760.15	239.64
760.47	239.52
760.80	239.37
761.13	239.22
761.45	239.10
761.78	238.98
762.11	238.81
762.43	238.68
762.76	238.60
763.08	238.49
763.41	238.39
763.74	238.26
764.06	238.17
764.39	238.04
764.71	237.93
765.04	237.78
765.37	237.69
765.69	237.58
766.02	237.44
766.34	237.30
766.67	237.15
767.00	237.04
767.32	236.98
767.65	236.94
767.97	236.84
768.30	236.72
768.62	236.57
768.95	236.46
769.27	236.34
769.60	236.22
769.92	236.07
770.25	235.94
770.57	235.82
770.90	235.71
771.22	235.63
771.55	235.55
771.87	235.45
772.20	235.36
772.52	235.36
772.85	235.40
773.17	235.32
773.50	235.21
773.82	235.14
774.15	235.00
774.47	234.83
774.80	234.73
775.12	234.67
775.45	234.59
775.77	234.45
776.09	234.37
776.42	234.30
776.74	234.26
777.07	234.14
777.39	234.06
777.72	233.96
778.04	233.84
778.36	233.74
778.69	233.69
779.01	233.58
779.33	233.43
779.66	233.21
779.98	233.12
780.31	233.05
780.63	233.00
780.95	232.97
781.28	232.91
781.60	232.82
781.92	232.70
782.25	232.65
782.57	232.64
782.89	232.56
783.22	232.47
783.54	232.38
783.86	232.34
784.19	232.28
784.51	232.24
784.83	232.20
785.16	232.13
785.48	232.03
785.80	231.98
786.12	231.90
786.45	231.88
786.77	231.81
787.09	231.77
