SpectraSuite Data File
++++++++++++++++++++++++++++++++++++
Date: Fri Feb 01 15:59:32 EST 2013
User: group
Dark Spectrum Present: No
Reference Spectrum Present: No
Number of Sampled Component Spectra: 1
Spectrometers: USB2E7196
Integration Time (usec): 35000 (USB2E7196)
Spectra Averaged: 100 (USB2E7196)
Boxcar Smoothing: 10 (USB2E7196)
Correct for Electrical Dark: No (USB2E7196)
Strobe/Lamp Enabled: No (USB2E7196)
Correct for Detector Non-linearity: No (USB2E7196)
Correct for Stray Light: No (USB2E7196)
Number of Pixels in Processed Spectrum: 2048
>>>>>Begin Processed Spectral Data<<<<<
339.09	0.00
339.48	214.89
339.86	216.07
340.24	217.92
340.63	218.59
341.01	222.00
341.39	221.35
341.78	222.82
342.16	224.65
342.54	225.15
342.93	213.20
343.31	223.96
343.69	224.49
344.07	224.98
344.46	225.43
344.84	225.82
345.22	226.09
345.60	226.33
345.99	226.55
346.37	226.66
346.75	226.74
347.13	226.83
347.52	226.89
347.90	226.96
348.28	226.98
348.66	227.02
349.05	227.00
349.43	227.04
349.81	227.09
350.19	227.10
350.57	227.18
350.96	227.27
351.34	227.36
351.72	227.45
352.10	227.54
352.48	227.60
352.87	227.69
353.25	227.71
353.63	227.81
354.01	227.85
354.39	227.91
354.77	228.00
355.15	228.09
355.54	228.14
355.92	228.16
356.30	228.23
356.68	228.34
357.06	228.42
357.44	228.49
357.82	228.55
358.20	228.60
358.58	228.66
358.97	228.72
359.35	228.77
359.73	228.83
360.11	228.89
360.49	228.89
360.87	228.91
361.25	228.97
361.63	229.04
362.01	229.09
362.39	229.12
362.77	229.16
363.15	229.17
363.53	229.17
363.91	229.22
364.29	229.23
364.67	229.18
365.05	229.22
365.43	229.25
365.81	229.28
366.19	229.34
366.57	229.37
366.95	229.34
367.33	229.33
367.71	229.31
368.09	229.29
368.47	229.29
368.85	229.28
369.23	229.25
369.61	229.18
369.99	229.18
370.37	229.18
370.75	229.19
371.13	229.15
371.51	229.10
371.89	229.06
372.27	229.04
372.65	229.01
373.03	228.94
373.41	228.84
373.78	228.79
374.16	228.67
374.54	228.52
374.92	228.45
375.30	228.38
375.68	228.31
376.06	228.26
376.44	228.19
376.82	228.13
377.19	228.11
377.57	228.04
377.95	227.90
378.33	227.85
378.71	227.73
379.09	227.67
379.47	227.62
379.84	227.52
380.22	227.41
380.60	227.33
380.98	227.28
381.36	227.21
381.73	227.14
382.11	227.07
382.49	227.07
382.87	227.01
383.25	226.96
383.62	227.00
384.00	226.92
384.38	226.85
384.76	226.81
385.13	226.75
385.51	226.70
385.89	226.66
386.27	226.61
386.64	226.55
387.02	226.49
387.40	226.46
387.78	226.43
388.15	226.41
388.53	226.36
388.91	226.30
389.29	226.29
389.66	226.27
390.04	226.26
390.42	226.25
390.79	226.22
391.17	226.23
391.55	226.12
391.92	226.12
392.30	226.16
392.68	226.11
393.05	226.13
393.43	226.12
393.81	226.14
394.18	226.13
394.56	226.18
394.94	226.23
395.31	226.23
395.69	226.29
396.06	226.35
396.44	226.40
396.82	226.45
397.19	226.52
397.57	226.57
397.95	226.62
398.32	226.66
398.70	226.75
399.07	226.80
399.45	226.88
399.82	227.00
400.20	227.08
400.58	227.17
400.95	227.19
401.33	227.29
401.70	227.45
402.08	227.57
402.45	227.64
402.83	227.75
403.20	227.85
403.58	227.96
403.95	228.07
404.33	228.23
404.71	228.35
405.08	228.51
405.46	228.63
405.83	228.80
406.21	228.96
406.58	229.13
406.96	229.29
407.33	229.45
407.70	229.60
408.08	229.84
408.45	230.04
408.83	230.26
409.20	230.50
409.58	230.69
409.95	230.94
410.33	231.22
410.70	231.45
411.08	231.77
411.45	232.09
411.82	232.39
412.20	232.73
412.57	233.16
412.95	233.44
413.32	233.89
413.69	234.29
414.07	234.69
414.44	235.15
414.82	235.63
415.19	236.19
415.56	236.72
415.94	237.27
416.31	237.92
416.68	238.57
417.06	239.28
417.43	239.97
417.81	240.72
418.18	241.51
418.55	242.34
418.93	243.21
419.30	244.08
419.67	245.03
420.04	245.96
420.42	246.96
420.79	248.16
421.16	249.28
421.54	250.49
421.91	251.74
422.28	253.00
422.66	254.31
423.03	255.56
423.40	256.90
423.77	258.28
424.15	259.71
424.52	261.20
424.89	262.80
425.26	264.32
425.64	265.79
426.01	267.34
426.38	269.02
426.75	270.68
427.13	272.41
427.50	274.23
427.87	276.11
428.24	277.95
428.61	279.66
428.99	281.60
429.36	283.67
429.73	285.73
430.10	287.73
430.47	289.85
430.85	291.99
431.22	294.23
431.59	296.64
431.96	298.89
432.33	301.39
432.70	303.76
433.08	306.58
433.45	309.22
433.82	311.83
434.19	314.75
434.56	317.56
434.93	320.19
435.30	322.79
435.68	325.65
436.05	328.47
436.42	331.30
436.79	333.82
437.16	336.51
437.53	339.30
437.90	342.12
438.27	344.81
438.64	347.61
439.01	350.17
439.38	352.40
439.75	354.53
440.13	357.05
440.50	359.40
440.87	361.26
441.24	363.14
441.61	365.29
441.98	366.72
442.35	368.49
442.72	370.33
443.09	372.15
443.46	373.16
443.83	373.71
444.20	374.22
444.57	375.03
444.94	375.28
445.31	375.62
445.68	375.97
446.05	376.06
446.42	375.71
446.79	375.34
447.16	374.92
447.53	374.62
447.90	373.40
448.27	372.21
448.64	370.58
449.01	369.46
449.37	367.48
449.74	365.57
450.11	363.32
450.48	360.87
450.85	358.33
451.22	356.21
451.59	354.20
451.96	352.22
452.33	349.61
452.70	347.28
453.07	344.44
453.43	341.51
453.80	338.70
454.17	336.00
454.54	333.43
454.91	330.65
455.28	327.98
455.65	325.45
456.02	322.99
456.38	320.82
456.75	318.17
457.12	315.94
457.49	313.71
457.86	311.51
458.23	309.65
458.59	307.60
458.96	305.51
459.33	303.65
459.70	301.82
460.07	300.34
460.43	298.58
460.80	297.00
461.17	295.55
461.54	294.11
461.91	292.68
462.27	291.24
462.64	290.02
463.01	288.70
463.38	287.42
463.74	286.05
464.11	284.92
464.48	283.91
464.85	282.77
465.21	281.94
465.58	281.07
465.95	280.00
466.32	279.08
466.68	278.18
467.05	277.28
467.42	276.38
467.78	275.43
468.15	274.57
468.52	273.89
468.88	273.07
469.25	272.29
469.62	271.70
469.98	271.05
470.35	270.40
470.72	269.74
471.08	269.12
471.45	268.63
471.82	268.12
472.18	267.57
472.55	267.23
472.92	266.71
473.28	266.24
473.65	265.79
474.02	265.34
474.38	264.98
474.75	264.70
475.11	264.38
475.48	264.14
475.85	263.95
476.21	263.74
476.58	263.53
476.94	263.37
477.31	263.19
477.67	263.03
478.04	262.94
478.41	262.90
478.77	262.95
479.14	262.90
479.50	262.88
479.87	262.89
480.23	262.92
480.60	262.99
480.96	263.13
481.33	263.38
481.69	263.62
482.06	263.84
482.42	264.05
482.79	264.26
483.15	264.57
483.52	264.98
483.88	265.34
484.25	265.78
484.61	266.19
484.98	266.66
485.34	267.21
485.71	267.78
486.07	268.40
486.44	268.98
486.80	269.65
487.17	270.46
487.53	271.29
487.90	272.16
488.26	273.08
488.62	274.07
488.99	275.02
489.35	276.05
489.72	277.18
490.08	278.39
490.44	279.73
490.81	281.09
491.17	282.42
491.54	283.91
491.90	285.45
492.26	287.17
492.63	288.86
492.99	290.67
493.36	292.59
493.72	294.63
494.08	296.73
494.45	298.99
494.81	301.30
495.17	303.77
495.54	306.36
495.90	309.07
496.26	311.78
496.63	314.74
496.99	317.84
497.35	321.07
497.72	324.47
498.08	327.93
498.44	331.62
498.80	335.54
499.17	339.61
499.53	343.82
499.89	348.18
500.26	352.69
500.62	357.35
500.98	362.31
501.34	367.37
501.71	372.69
502.07	378.17
502.43	383.75
502.79	389.54
503.16	395.61
503.52	401.87
503.88	408.35
504.24	414.99
504.60	421.89
504.97	429.05
505.33	436.32
505.69	444.04
506.05	451.79
506.41	459.68
506.78	467.85
507.14	476.27
507.50	484.97
507.86	494.04
508.22	503.32
508.59	512.48
508.95	522.11
509.31	531.91
509.67	542.04
510.03	552.35
510.39	562.95
510.75	573.75
511.12	584.68
511.48	596.00
511.84	607.45
512.20	618.96
512.56	630.89
512.92	643.14
513.28	655.52
513.64	667.95
514.00	680.66
514.37	693.60
514.73	706.70
515.09	719.78
515.45	733.10
515.81	746.58
516.17	760.59
516.53	774.73
516.89	788.95
517.25	803.06
517.61	817.52
517.97	831.98
518.33	846.35
518.69	861.12
519.05	875.97
519.41	891.12
519.77	906.64
520.13	922.00
520.49	937.34
520.85	952.77
521.21	968.51
521.57	984.67
521.93	1000.41
522.29	1016.72
522.65	1032.86
523.01	1049.03
523.37	1065.06
523.73	1081.11
524.09	1097.06
524.45	1113.32
524.81	1129.95
525.17	1146.76
525.53	1163.65
525.89	1180.53
526.25	1197.27
526.61	1213.69
526.97	1230.42
527.33	1246.96
527.68	1263.53
528.04	1279.93
528.40	1296.50
528.76	1313.50
529.12	1330.08
529.48	1346.79
529.84	1362.76
530.20	1379.45
530.56	1396.49
530.91	1413.90
531.27	1430.72
531.63	1447.21
531.99	1463.72
532.35	1479.55
532.71	1495.37
533.07	1511.55
533.42	1527.32
533.78	1543.45
534.14	1559.70
534.50	1574.93
534.86	1590.78
535.21	1605.93
535.57	1621.85
535.93	1637.23
536.29	1651.98
536.65	1666.95
537.00	1681.77
537.36	1697.01
537.72	1711.43
538.08	1725.70
538.44	1739.44
538.79	1753.20
539.15	1766.87
539.51	1780.59
539.87	1795.03
540.22	1808.67
540.58	1822.43
540.94	1835.82
541.29	1848.60
541.65	1861.27
542.01	1874.53
542.37	1886.76
542.72	1899.12
543.08	1910.86
543.44	1923.21
543.79	1934.55
544.15	1945.56
544.51	1957.12
544.87	1968.03
545.22	1978.82
545.58	1989.03
545.94	1998.84
546.29	2008.86
546.65	2018.73
547.01	2027.91
547.36	2036.47
547.72	2045.01
548.07	2052.83
548.43	2060.89
548.79	2068.92
549.14	2076.37
549.50	2083.58
549.86	2091.23
550.21	2098.61
550.57	2105.76
550.92	2112.25
551.28	2119.19
551.64	2126.26
551.99	2132.84
552.35	2139.07
552.70	2145.27
553.06	2151.34
553.41	2157.54
553.77	2163.30
554.13	2169.30
554.48	2175.47
554.84	2180.98
555.19	2186.39
555.55	2191.45
555.90	2196.09
556.26	2200.94
556.61	2205.81
556.97	2210.22
557.32	2214.25
557.68	2218.30
558.03	2222.58
558.39	2226.33
558.74	2230.98
559.10	2234.83
559.45	2238.44
559.81	2242.86
560.16	2246.73
560.52	2249.81
560.87	2253.23
561.23	2256.13
561.58	2259.11
561.94	2261.53
562.29	2263.89
562.64	2266.31
563.00	2268.99
563.35	2272.44
563.71	2275.57
564.06	2278.70
564.42	2281.44
564.77	2283.98
565.12	2286.33
565.48	2288.18
565.83	2290.22
566.19	2291.45
566.54	2292.30
566.89	2293.42
567.25	2293.88
567.60	2295.08
567.96	2296.92
568.31	2297.85
568.66	2299.02
569.02	2299.48
569.37	2299.80
569.72	2300.71
570.08	2300.91
570.43	2300.81
570.78	2300.18
571.14	2298.59
571.49	2297.23
571.84	2296.99
572.20	2295.92
572.55	2294.91
572.90	2293.43
573.26	2291.92
573.61	2290.38
573.96	2288.63
574.31	2285.64
574.67	2282.68
575.02	2279.11
575.37	2275.60
575.72	2271.84
576.08	2268.41
576.43	2265.24
576.78	2261.71
577.13	2258.51
577.49	2255.53
577.84	2252.04
578.19	2248.33
578.54	2244.75
578.90	2240.57
579.25	2235.06
579.60	2230.09
579.95	2225.14
580.30	2220.15
580.66	2215.04
581.01	2209.98
581.36	2205.22
581.71	2200.99
582.06	2196.49
582.42	2191.98
582.77	2186.87
583.12	2182.22
583.47	2177.47
583.82	2172.43
584.17	2167.17
584.53	2161.73
584.88	2155.98
585.23	2150.26
585.58	2144.82
585.93	2139.40
586.28	2134.67
586.63	2129.50
586.98	2124.42
587.34	2119.67
587.69	2114.78
588.04	2109.43
588.39	2103.83
588.74	2097.27
589.09	2091.18
589.44	2084.40
589.79	2078.51
590.14	2072.94
590.49	2066.35
590.84	2060.03
591.19	2054.02
591.54	2047.59
591.89	2040.28
592.25	2033.48
592.60	2026.27
592.95	2018.72
593.30	2011.38
593.65	2003.73
594.00	1996.76
594.35	1989.46
594.70	1981.40
595.05	1974.18
595.40	1967.04
595.75	1959.51
596.10	1953.30
596.45	1946.55
596.80	1940.33
597.15	1933.46
597.50	1926.23
597.85	1919.77
598.19	1913.13
598.54	1905.99
598.89	1899.40
599.24	1893.43
599.59	1886.63
599.94	1880.57
600.29	1874.14
600.64	1867.66
600.99	1860.25
601.34	1853.46
601.69	1846.68
602.04	1839.75
602.39	1832.49
602.74	1825.62
603.08	1818.82
603.43	1812.06
603.78	1804.89
604.13	1797.67
604.48	1790.57
604.83	1783.78
605.18	1776.92
605.53	1768.85
605.87	1760.77
606.22	1753.51
606.57	1745.60
606.92	1738.54
607.27	1731.31
607.62	1724.42
607.96	1717.05
608.31	1710.45
608.66	1702.81
609.01	1695.19
609.36	1687.64
609.70	1679.58
610.05	1671.46
610.40	1663.85
610.75	1655.50
611.10	1647.75
611.44	1639.45
611.79	1631.40
612.14	1622.64
612.49	1613.41
612.83	1605.00
613.18	1597.04
613.53	1588.80
613.88	1580.17
614.22	1571.78
614.57	1563.18
614.92	1555.10
615.27	1547.47
615.61	1539.13
615.96	1531.01
616.31	1523.43
616.65	1516.08
617.00	1508.64
617.35	1501.00
617.70	1492.62
618.04	1484.17
618.39	1476.06
618.74	1468.43
619.08	1460.15
619.43	1452.59
619.78	1445.71
620.12	1438.56
620.47	1430.92
620.82	1422.92
621.16	1415.55
621.51	1408.01
621.85	1400.47
622.20	1391.98
622.55	1383.71
622.89	1375.88
623.24	1368.45
623.59	1361.00
623.93	1353.50
624.28	1346.27
624.62	1338.69
624.97	1331.49
625.32	1324.81
625.66	1317.77
626.01	1310.52
626.35	1303.04
626.70	1295.32
627.04	1287.53
627.39	1279.81
627.73	1272.48
628.08	1265.52
628.43	1258.17
628.77	1250.75
629.12	1243.09
629.46	1236.00
629.81	1228.61
630.15	1221.30
630.50	1213.84
630.84	1205.66
631.19	1197.80
631.53	1190.18
631.88	1182.71
632.22	1175.19
632.57	1167.81
632.91	1160.19
633.26	1152.85
633.60	1145.53
633.95	1138.51
634.29	1131.56
634.64	1124.85
634.98	1117.39
635.32	1110.26
635.67	1103.78
636.01	1097.22
636.36	1090.38
636.70	1083.82
637.05	1077.24
637.39	1070.88
637.73	1064.31
638.08	1058.33
638.42	1052.28
638.77	1045.89
639.11	1039.25
639.45	1032.80
639.80	1026.16
640.14	1019.79
640.49	1013.21
640.83	1006.91
641.17	1000.52
641.52	994.14
641.86	987.69
642.20	981.87
642.55	975.53
642.89	969.01
643.23	962.30
643.58	956.54
643.92	950.34
644.26	944.23
644.61	938.11
644.95	932.11
645.29	925.61
645.64	918.87
645.98	912.46
646.32	906.68
646.66	900.68
647.01	894.88
647.35	889.11
647.69	883.32
648.04	877.81
648.38	872.13
648.72	866.15
649.06	860.16
649.41	854.36
649.75	848.36
650.09	842.42
650.43	836.71
650.78	830.59
651.12	824.61
651.46	818.87
651.80	813.18
652.14	807.76
652.49	802.41
652.83	797.27
653.17	791.57
653.51	785.81
653.85	780.45
654.20	774.73
654.54	768.80
654.88	763.03
655.22	757.10
655.56	751.36
655.90	745.89
656.25	740.57
656.59	735.21
656.93	730.17
657.27	725.06
657.61	719.57
657.95	714.46
658.29	709.45
658.64	704.20
658.98	698.92
659.32	693.39
659.66	688.15
660.00	682.81
660.34	677.89
660.68	672.94
661.02	667.89
661.36	663.21
661.70	658.68
662.05	654.30
662.39	649.99
662.73	645.48
663.07	641.15
663.41	636.70
663.75	632.10
664.09	627.49
664.43	623.02
664.77	618.91
665.11	614.61
665.45	610.46
665.79	606.37
666.13	602.18
666.47	598.18
666.81	594.01
667.15	589.88
667.49	585.99
667.83	582.26
668.17	578.26
668.51	574.19
668.85	570.16
669.19	566.35
669.53	562.50
669.87	558.68
670.21	554.97
670.55	551.35
670.89	548.03
671.23	544.56
671.57	541.14
671.91	537.69
672.25	534.24
672.58	530.72
672.92	527.34
673.26	524.20
673.60	521.05
673.94	517.95
674.28	515.12
674.62	512.20
674.96	509.05
675.30	506.17
675.64	503.26
675.97	500.46
676.31	497.59
676.65	494.64
676.99	491.95
677.33	489.04
677.67	486.28
678.01	483.22
678.34	480.26
678.68	477.37
679.02	474.49
679.36	471.74
679.70	469.04
680.04	466.34
680.37	463.49
680.71	460.67
681.05	458.07
681.39	455.30
681.73	452.63
682.06	450.12
682.40	447.66
682.74	445.13
683.08	442.62
683.42	440.04
683.75	437.60
684.09	435.02
684.43	432.60
684.77	430.10
685.10	427.73
685.44	425.48
685.78	423.15
686.12	420.92
686.45	418.66
686.79	416.34
687.13	414.06
687.46	411.87
687.80	409.72
688.14	407.50
688.48	405.42
688.81	403.17
689.15	400.99
689.49	398.76
689.82	396.65
690.16	394.55
690.50	392.58
690.83	390.57
691.17	388.58
691.51	386.64
691.84	384.81
692.18	382.88
692.52	380.87
692.85	378.93
693.19	377.05
693.52	375.15
693.86	373.34
694.20	371.58
694.53	369.75
694.87	367.91
695.21	366.10
695.54	364.27
695.88	362.53
696.21	360.79
696.55	359.14
696.88	357.49
697.22	355.86
697.56	354.26
697.89	352.63
698.23	351.06
698.56	349.47
698.90	347.87
699.23	346.23
699.57	344.67
699.90	343.18
700.24	341.66
700.58	340.17
700.91	338.69
701.25	337.26
701.58	335.92
701.92	334.57
702.25	333.20
702.59	331.83
702.92	330.49
703.26	329.23
703.59	327.93
703.93	326.72
704.26	325.47
704.60	324.15
704.93	322.89
705.26	321.60
705.60	320.43
705.93	319.26
706.27	318.21
706.60	317.16
706.94	316.05
707.27	314.88
707.61	313.82
707.94	312.74
708.27	311.65
708.61	310.54
708.94	309.56
709.28	308.56
709.61	307.58
709.94	306.69
710.28	305.65
710.61	304.69
710.95	303.59
711.28	302.66
711.61	301.73
711.95	300.82
712.28	299.87
712.61	298.87
712.95	297.93
713.28	297.08
713.61	296.20
713.95	295.36
714.28	294.51
714.61	293.67
714.95	292.86
715.28	292.03
715.61	291.18
715.95	290.36
716.28	289.52
716.61	288.71
716.95	287.86
717.28	287.11
717.61	286.36
717.94	285.64
718.28	284.84
718.61	284.15
718.94	283.42
719.27	282.78
719.61	282.16
719.94	281.48
720.27	280.77
720.60	280.11
720.94	279.47
721.27	278.90
721.60	278.30
721.93	277.71
722.27	277.13
722.60	276.59
722.93	275.99
723.26	275.47
723.59	274.87
723.93	274.34
724.26	273.83
724.59	273.25
724.92	272.72
725.25	272.24
725.59	271.70
725.92	271.19
726.25	270.72
726.58	270.21
726.91	269.75
727.24	269.26
727.57	268.82
727.91	268.29
728.24	267.84
728.57	267.34
728.90	266.88
729.23	266.40
729.56	265.96
729.89	265.49
730.22	264.97
730.55	264.57
730.89	264.11
731.22	263.64
731.55	263.20
731.88	262.77
732.21	262.36
732.54	261.92
732.87	261.49
733.20	261.04
733.53	260.66
733.86	260.28
734.19	259.92
734.52	259.52
734.85	259.21
735.18	258.76
735.51	258.40
735.84	258.02
736.17	257.68
736.50	257.28
736.83	257.04
737.16	256.73
737.49	256.37
737.82	256.05
738.15	255.71
738.48	255.36
738.81	255.01
739.14	254.66
739.47	254.34
739.80	254.05
740.13	253.72
740.46	253.41
740.79	253.05
741.12	252.72
741.45	252.41
741.78	252.07
742.11	251.79
742.44	251.45
742.77	251.18
743.10	250.86
743.43	250.55
743.75	250.17
744.08	250.00
744.41	249.75
744.74	249.48
745.07	249.18
745.40	248.94
745.73	248.71
746.06	248.43
746.39	248.15
746.71	247.85
747.04	247.59
747.37	247.32
747.70	247.10
748.03	246.86
748.36	246.61
748.68	246.34
749.01	246.08
749.34	245.86
749.67	245.61
750.00	245.37
750.33	245.22
750.65	244.99
750.98	244.62
751.31	244.37
751.64	244.15
751.97	244.00
752.29	243.76
752.62	243.53
752.95	243.31
753.28	243.13
753.60	242.95
753.93	242.82
754.26	242.61
754.59	242.37
754.91	242.13
755.24	241.90
755.57	241.72
755.90	241.55
756.22	241.34
756.55	241.14
756.88	240.98
757.20	240.76
757.53	240.56
757.86	240.39
758.19	240.22
758.51	240.05
758.84	239.84
759.17	239.69
759.49	239.55
759.82	239.46
760.15	239.33
760.47	239.13
760.80	238.93
761.13	238.80
761.45	238.63
761.78	238.51
762.11	238.41
762.43	238.25
762.76	238.08
763.08	237.96
763.41	237.84
763.74	237.71
764.06	237.54
764.39	237.43
764.71	237.31
765.04	237.16
765.37	237.04
765.69	236.91
766.02	236.80
766.34	236.67
766.67	236.48
767.00	236.36
767.32	236.36
767.65	236.27
767.97	236.16
768.30	236.09
768.62	235.95
768.95	235.80
769.27	235.70
769.60	235.60
769.92	235.48
770.25	235.33
770.57	235.18
770.90	235.08
771.22	234.97
771.55	234.86
771.87	234.80
772.20	234.70
772.52	234.69
772.85	234.72
773.17	234.63
773.50	234.55
773.82	234.45
774.15	234.29
774.47	234.16
774.80	234.08
775.12	233.98
775.45	233.88
775.77	233.81
776.09	233.73
776.42	233.69
776.74	233.66
777.07	233.60
777.39	233.56
777.72	233.51
778.04	233.46
778.36	233.42
778.69	233.35
779.01	233.26
779.33	233.09
779.66	232.88
779.98	232.80
780.31	232.74
780.63	232.69
780.95	232.61
781.28	232.58
781.60	232.50
781.92	232.46
782.25	232.44
782.57	232.38
782.89	232.30
783.22	232.21
783.54	232.12
783.86	232.08
784.19	232.02
784.51	231.95
784.83	231.89
785.16	231.83
785.48	231.75
785.80	231.72
786.12	231.71
786.45	231.67
786.77	231.64
787.09	231.63
