SpectraSuite Data File
++++++++++++++++++++++++++++++++++++
Date: Fri Feb 01 15:20:52 EST 2013
User: group
Dark Spectrum Present: No
Reference Spectrum Present: No
Number of Sampled Component Spectra: 1
Spectrometers: USB2E7196
Integration Time (usec): 35000 (USB2E7196)
Spectra Averaged: 100 (USB2E7196)
Boxcar Smoothing: 10 (USB2E7196)
Correct for Electrical Dark: No (USB2E7196)
Strobe/Lamp Enabled: No (USB2E7196)
Correct for Detector Non-linearity: No (USB2E7196)
Correct for Stray Light: No (USB2E7196)
Number of Pixels in Processed Spectrum: 2048
>>>>>Begin Processed Spectral Data<<<<<
339.09	0.00
339.48	215.26
339.86	217.04
340.24	217.52
340.63	219.82
341.01	222.17
341.39	221.99
341.78	223.39
342.16	224.24
342.54	225.25
342.93	213.40
343.31	224.20
343.69	224.75
344.07	225.20
344.46	225.63
344.84	225.97
345.22	226.23
345.60	226.50
345.99	226.69
346.37	226.84
346.75	226.93
347.13	227.01
347.52	227.08
347.90	227.15
348.28	227.21
348.66	227.28
349.05	227.28
349.43	227.32
349.81	227.38
350.19	227.48
350.57	227.54
350.96	227.62
351.34	227.70
351.72	227.79
352.10	227.89
352.48	227.99
352.87	228.08
353.25	228.13
353.63	228.18
354.01	228.29
354.39	228.43
354.77	228.51
355.15	228.60
355.54	228.69
355.92	228.77
356.30	228.86
356.68	229.00
357.06	229.10
357.44	229.16
357.82	229.24
358.20	229.29
358.58	229.35
358.97	229.42
359.35	229.52
359.73	229.59
360.11	229.67
360.49	229.72
360.87	229.77
361.25	229.85
361.63	229.95
362.01	229.99
362.39	229.98
362.77	230.05
363.15	230.09
363.53	230.11
363.91	230.15
364.29	230.16
364.67	230.07
365.05	230.07
365.43	230.11
365.81	230.14
366.19	230.18
366.57	230.19
366.95	230.15
367.33	230.13
367.71	230.12
368.09	230.08
368.47	230.01
368.85	229.99
369.23	229.95
369.61	229.86
369.99	229.81
370.37	229.77
370.75	229.75
371.13	229.68
371.51	229.63
371.89	229.55
372.27	229.51
372.65	229.45
373.03	229.38
373.41	229.28
373.78	229.18
374.16	229.06
374.54	228.98
374.92	228.91
375.30	228.84
375.68	228.72
376.06	228.65
376.44	228.59
376.82	228.51
377.19	228.47
377.57	228.38
377.95	228.30
378.33	228.19
378.71	228.05
379.09	228.00
379.47	227.93
379.84	227.84
380.22	227.73
380.60	227.61
380.98	227.54
381.36	227.47
381.73	227.40
382.11	227.33
382.49	227.24
382.87	227.14
383.25	227.03
383.62	227.08
384.00	226.99
384.38	226.94
384.76	226.91
385.13	226.83
385.51	226.79
385.89	226.71
386.27	226.69
386.64	226.65
387.02	226.59
387.40	226.55
387.78	226.55
388.15	226.50
388.53	226.50
388.91	226.45
389.29	226.40
389.66	226.38
390.04	226.34
390.42	226.35
390.79	226.33
391.17	226.34
391.55	226.19
391.92	226.20
392.30	226.21
392.68	226.19
393.05	226.23
393.43	226.26
393.81	226.29
394.18	226.28
394.56	226.31
394.94	226.36
395.31	226.38
395.69	226.44
396.06	226.50
396.44	226.54
396.82	226.62
397.19	226.73
397.57	226.74
397.95	226.82
398.32	226.85
398.70	226.99
399.07	227.10
399.45	227.21
399.82	227.25
400.20	227.33
400.58	227.44
400.95	227.47
401.33	227.55
401.70	227.70
402.08	227.81
402.45	227.92
402.83	228.05
403.20	228.15
403.58	228.24
403.95	228.38
404.33	228.54
404.71	228.67
405.08	228.86
405.46	229.05
405.83	229.20
406.21	229.36
406.58	229.51
406.96	229.68
407.33	229.88
407.70	230.12
408.08	230.43
408.45	230.65
408.83	230.86
409.20	231.08
409.58	231.28
409.95	231.55
410.33	231.84
410.70	232.08
411.08	232.38
411.45	232.68
411.82	232.97
412.20	233.29
412.57	233.70
412.95	234.00
413.32	234.41
413.69	234.81
414.07	235.27
414.44	235.71
414.82	236.19
415.19	236.73
415.56	237.27
415.94	237.78
416.31	238.41
416.68	239.04
417.06	239.76
417.43	240.43
417.81	241.21
418.18	242.00
418.55	242.84
418.93	243.72
419.30	244.62
419.67	245.60
420.04	246.58
420.42	247.55
420.79	248.72
421.16	249.83
421.54	251.09
421.91	252.27
422.28	253.53
422.66	254.89
423.03	256.18
423.40	257.50
423.77	258.89
424.15	260.28
424.52	261.77
424.89	263.38
425.26	264.92
425.64	266.37
426.01	267.93
426.38	269.55
426.75	271.18
427.13	272.93
427.50	274.69
427.87	276.57
428.24	278.42
428.61	280.18
428.99	282.13
429.36	284.19
429.73	286.26
430.10	288.29
430.47	290.31
430.85	292.45
431.22	294.73
431.59	297.12
431.96	299.36
432.33	301.86
432.70	304.23
433.08	307.01
433.45	309.69
433.82	312.30
434.19	315.26
434.56	318.08
434.93	320.76
435.30	323.41
435.68	326.30
436.05	329.14
436.42	331.94
436.79	334.50
437.16	337.20
437.53	340.02
437.90	342.83
438.27	345.56
438.64	348.39
439.01	350.98
439.38	353.22
439.75	355.44
440.13	357.89
440.50	360.19
440.87	362.10
441.24	364.01
441.61	366.18
441.98	367.63
442.35	369.47
442.72	371.28
443.09	373.11
443.46	374.08
443.83	374.66
444.20	375.13
444.57	375.90
444.94	376.20
445.31	376.57
445.68	376.90
446.05	377.02
446.42	376.67
446.79	376.20
447.16	375.77
447.53	375.42
447.90	374.35
448.27	373.21
448.64	371.60
449.01	370.44
449.37	368.44
449.74	366.56
450.11	364.29
450.48	361.85
450.85	359.27
451.22	357.15
451.59	355.14
451.96	353.20
452.33	350.62
452.70	348.23
453.07	345.42
453.43	342.55
453.80	339.78
454.17	337.04
454.54	334.53
454.91	331.79
455.28	329.13
455.65	326.58
456.02	324.17
456.38	322.03
456.75	319.38
457.12	317.15
457.49	314.90
457.86	312.71
458.23	310.83
458.59	308.76
458.96	306.68
459.33	304.82
459.70	302.95
460.07	301.44
460.43	299.72
460.80	298.06
461.17	296.63
461.54	295.12
461.91	293.67
462.27	292.22
462.64	290.97
463.01	289.61
463.38	288.30
463.74	286.92
464.11	285.72
464.48	284.67
464.85	283.51
465.21	282.63
465.58	281.71
465.95	280.60
466.32	279.73
466.68	278.83
467.05	277.95
467.42	277.08
467.78	276.18
468.15	275.29
468.52	274.63
468.88	273.74
469.25	272.95
469.62	272.38
469.98	271.69
470.35	271.03
470.72	270.43
471.08	269.77
471.45	269.20
471.82	268.64
472.18	268.06
472.55	267.68
472.92	267.18
473.28	266.71
473.65	266.27
474.02	265.83
474.38	265.45
474.75	265.10
475.11	264.74
475.48	264.42
475.85	264.16
476.21	263.90
476.58	263.71
476.94	263.57
477.31	263.36
477.67	263.20
478.04	263.08
478.41	263.00
478.77	263.01
479.14	262.95
479.50	262.96
479.87	262.98
480.23	263.03
480.60	263.06
480.96	263.17
481.33	263.36
481.69	263.54
482.06	263.71
482.42	263.93
482.79	264.15
483.15	264.49
483.52	264.91
483.88	265.30
484.25	265.70
484.61	266.11
484.98	266.57
485.34	267.12
485.71	267.74
486.07	268.33
486.44	268.92
486.80	269.65
487.17	270.40
487.53	271.26
487.90	272.11
488.26	273.11
488.62	274.12
488.99	275.13
489.35	276.18
489.72	277.33
490.08	278.50
490.44	279.78
490.81	281.14
491.17	282.49
491.54	283.94
491.90	285.48
492.26	287.08
492.63	288.81
492.99	290.59
493.36	292.46
493.72	294.55
494.08	296.67
494.45	298.91
494.81	301.28
495.17	303.65
495.54	306.22
495.90	308.86
496.26	311.65
496.63	314.62
496.99	317.68
497.35	320.94
497.72	324.35
498.08	327.85
498.44	331.54
498.80	335.41
499.17	339.46
499.53	343.62
499.89	348.00
500.26	352.50
500.62	357.17
500.98	362.14
501.34	367.18
501.71	372.53
502.07	377.97
502.43	383.60
502.79	389.48
503.16	395.56
503.52	401.87
503.88	408.28
504.24	414.89
504.60	421.80
504.97	428.97
505.33	436.29
505.69	444.04
506.05	451.81
506.41	459.72
506.78	467.90
507.14	476.32
507.50	485.12
507.86	494.18
508.22	503.33
508.59	512.53
508.95	522.08
509.31	531.85
509.67	541.90
510.03	552.16
510.39	562.68
510.75	573.46
511.12	584.38
511.48	595.70
511.84	607.07
512.20	618.61
512.56	630.46
512.92	642.69
513.28	654.98
513.64	667.46
514.00	680.22
514.37	693.19
514.73	706.29
515.09	719.33
515.45	732.52
515.81	746.15
516.17	760.09
516.53	774.19
516.89	788.42
517.25	802.69
517.61	817.10
517.97	831.65
518.33	846.06
518.69	860.82
519.05	875.79
519.41	891.04
519.77	906.62
520.13	922.16
520.49	937.56
520.85	953.10
521.21	968.87
521.57	984.99
521.93	1000.77
522.29	1017.20
522.65	1033.49
523.01	1049.90
523.37	1066.07
523.73	1082.23
524.09	1098.36
524.45	1114.67
524.81	1131.31
525.17	1148.30
525.53	1165.18
525.89	1181.98
526.25	1198.84
526.61	1215.28
526.97	1232.12
527.33	1248.53
527.68	1265.27
528.04	1281.70
528.40	1298.39
528.76	1315.52
529.12	1332.30
529.48	1349.32
529.84	1365.29
530.20	1382.01
530.56	1399.10
530.91	1416.49
531.27	1433.34
531.63	1450.01
531.99	1466.74
532.35	1482.76
532.71	1498.63
533.07	1514.88
533.42	1531.05
533.78	1547.22
534.14	1563.58
534.50	1579.00
534.86	1595.09
535.21	1610.22
535.57	1626.28
535.93	1641.87
536.29	1656.73
536.65	1671.82
537.00	1686.59
537.36	1702.08
537.72	1716.60
538.08	1730.90
538.44	1744.68
538.79	1758.67
539.15	1772.36
539.51	1786.10
539.87	1800.51
540.22	1814.35
540.58	1828.33
540.94	1841.78
541.29	1854.81
541.65	1867.68
542.01	1880.92
542.37	1893.24
542.72	1905.73
543.08	1917.66
543.44	1930.05
543.79	1941.25
544.15	1952.26
544.51	1963.87
544.87	1974.87
545.22	1985.71
545.58	1995.93
545.94	2005.90
546.29	2015.79
546.65	2025.62
547.01	2035.02
547.36	2043.84
547.72	2052.29
548.07	2060.11
548.43	2068.41
548.79	2076.39
549.14	2083.75
549.50	2091.24
549.86	2099.02
550.21	2106.29
550.57	2113.42
550.92	2119.90
551.28	2127.04
551.64	2134.16
551.99	2140.68
552.35	2146.81
552.70	2152.94
553.06	2159.02
553.41	2165.35
553.77	2171.41
554.13	2177.44
554.48	2183.49
554.84	2188.89
555.19	2194.36
555.55	2199.52
555.90	2203.76
556.26	2208.63
556.61	2213.36
556.97	2217.39
557.32	2221.64
557.68	2225.79
558.03	2229.94
558.39	2233.68
558.74	2238.35
559.10	2242.24
559.45	2245.85
559.81	2250.15
560.16	2254.03
560.52	2257.16
560.87	2260.52
561.23	2263.13
561.58	2266.16
561.94	2268.68
562.29	2271.22
562.64	2273.80
563.00	2276.30
563.35	2279.86
563.71	2282.97
564.06	2286.29
564.42	2289.25
564.77	2291.50
565.12	2293.80
565.48	2295.70
565.83	2297.48
566.19	2298.66
566.54	2299.63
566.89	2300.80
567.25	2301.35
567.60	2302.62
567.96	2304.48
568.31	2305.37
568.66	2306.49
569.02	2307.09
569.37	2307.35
569.72	2308.01
570.08	2307.98
570.43	2307.94
570.78	2307.28
571.14	2305.53
571.49	2304.01
571.84	2303.69
572.20	2302.52
572.55	2301.37
572.90	2299.81
573.26	2298.36
573.61	2296.68
573.96	2294.74
574.31	2291.67
574.67	2288.55
575.02	2284.93
575.37	2281.43
575.72	2277.52
576.08	2274.11
576.43	2270.68
576.78	2267.00
577.13	2263.73
577.49	2260.75
577.84	2257.23
578.19	2253.57
578.54	2249.96
578.90	2245.65
579.25	2240.05
579.60	2234.94
579.95	2229.95
580.30	2224.81
580.66	2219.67
581.01	2214.56
581.36	2209.50
581.71	2205.21
582.06	2200.76
582.42	2196.06
582.77	2190.72
583.12	2186.08
583.47	2181.21
583.82	2176.03
584.17	2170.60
584.53	2165.11
584.88	2159.22
585.23	2153.42
585.58	2147.78
585.93	2142.28
586.28	2137.54
586.63	2132.37
586.98	2127.41
587.34	2122.64
587.69	2117.82
588.04	2112.47
588.39	2106.67
588.74	2100.07
589.09	2093.73
589.44	2086.79
589.79	2080.91
590.14	2075.14
590.49	2068.43
590.84	2062.05
591.19	2055.94
591.54	2049.45
591.89	2041.82
592.25	2034.97
592.60	2027.71
592.95	2019.95
593.30	2012.45
593.65	2004.71
594.00	1997.68
594.35	1990.31
594.70	1982.15
595.05	1974.75
595.40	1967.39
595.75	1959.96
596.10	1953.69
596.45	1946.99
596.80	1940.90
597.15	1934.06
597.50	1926.83
597.85	1920.53
598.19	1913.73
598.54	1906.62
598.89	1899.95
599.24	1894.09
599.59	1887.31
599.94	1881.01
600.29	1874.64
600.64	1868.21
600.99	1860.69
601.34	1853.66
601.69	1846.61
602.04	1839.63
602.39	1832.27
602.74	1825.33
603.08	1818.54
603.43	1811.83
603.78	1804.51
604.13	1797.15
604.48	1789.66
604.83	1782.87
605.18	1775.63
605.53	1767.54
605.87	1759.46
606.22	1752.16
606.57	1744.26
606.92	1736.99
607.27	1729.63
607.62	1722.70
607.96	1715.22
608.31	1708.59
608.66	1700.92
609.01	1693.28
609.36	1685.68
609.70	1677.62
610.05	1669.45
610.40	1661.64
610.75	1653.31
611.10	1645.65
611.44	1637.36
611.79	1629.49
612.14	1620.75
612.49	1611.72
612.83	1603.41
613.18	1595.30
613.53	1587.29
613.88	1578.68
614.22	1570.34
614.57	1561.89
614.92	1553.85
615.27	1546.31
615.61	1537.95
615.96	1529.94
616.31	1522.29
616.65	1514.95
617.00	1507.49
617.35	1499.96
617.70	1491.53
618.04	1483.02
618.39	1474.75
618.74	1467.04
619.08	1458.77
619.43	1451.32
619.78	1444.40
620.12	1437.18
620.47	1429.65
620.82	1421.40
621.16	1414.03
621.51	1406.41
621.85	1398.79
622.20	1390.27
622.55	1381.89
622.89	1374.04
623.24	1366.52
623.59	1359.28
623.93	1351.84
624.28	1344.50
624.62	1336.97
624.97	1329.91
625.32	1323.12
625.66	1316.18
626.01	1308.98
626.35	1301.56
626.70	1293.74
627.04	1285.89
627.39	1278.23
627.73	1270.84
628.08	1263.87
628.43	1256.46
628.77	1249.14
629.12	1241.49
629.46	1234.35
629.81	1226.92
630.15	1219.75
630.50	1212.31
630.84	1204.10
631.19	1196.16
631.53	1188.64
631.88	1181.08
632.22	1173.47
632.57	1166.24
632.91	1158.63
633.26	1151.25
633.60	1143.84
633.95	1136.84
634.29	1129.84
634.64	1123.11
634.98	1115.75
635.32	1108.75
635.67	1102.29
636.01	1095.62
636.36	1088.89
636.70	1082.32
637.05	1075.84
637.39	1069.35
637.73	1062.76
638.08	1056.90
638.42	1050.95
638.77	1044.60
639.11	1037.92
639.45	1031.48
639.80	1024.83
640.14	1018.45
640.49	1011.88
640.83	1005.63
641.17	999.29
641.52	992.97
641.86	986.64
642.20	980.83
642.55	974.57
642.89	968.03
643.23	961.52
643.58	955.80
643.92	949.65
644.26	943.55
644.61	937.68
644.95	931.71
645.29	925.00
645.64	918.15
645.98	911.76
646.32	905.99
646.66	899.98
647.01	894.17
647.35	888.43
647.69	882.65
648.04	877.18
648.38	871.44
648.72	865.48
649.06	859.43
649.41	853.54
649.75	847.42
650.09	841.48
650.43	835.67
650.78	829.47
651.12	823.47
651.46	817.73
651.80	811.91
652.14	806.50
652.49	801.18
652.83	796.09
653.17	790.39
653.51	784.62
653.85	779.30
654.20	773.60
654.54	767.56
654.88	761.82
655.22	755.91
655.56	750.15
655.90	744.66
656.25	739.30
656.59	733.96
656.93	728.91
657.27	723.78
657.61	718.38
657.95	713.28
658.29	708.25
658.64	703.07
658.98	697.72
659.32	692.27
659.66	687.06
660.00	681.73
660.34	676.89
660.68	672.04
661.02	667.00
661.36	662.35
661.70	657.92
662.05	653.61
662.39	649.26
662.73	644.87
663.07	640.55
663.41	636.18
663.75	631.73
664.09	627.12
664.43	622.75
664.77	618.62
665.11	614.38
665.45	610.29
665.79	606.16
666.13	602.09
666.47	598.02
666.81	593.86
667.15	589.75
667.49	585.90
667.83	582.12
668.17	578.18
668.51	574.11
668.85	570.08
669.19	566.23
669.53	562.42
669.87	558.52
670.21	554.80
670.55	551.14
670.89	547.69
671.23	544.30
671.57	540.76
671.91	537.23
672.25	533.79
672.58	530.31
672.92	526.94
673.26	523.83
673.60	520.74
673.94	517.64
674.28	514.75
674.62	511.76
674.96	508.62
675.30	505.75
675.64	502.79
675.97	500.04
676.31	497.18
676.65	494.24
676.99	491.53
677.33	488.66
677.67	485.90
678.01	482.88
678.34	479.89
678.68	477.06
679.02	474.23
679.36	471.42
679.70	468.62
680.04	465.83
680.37	462.87
680.71	460.00
681.05	457.41
681.39	454.69
681.73	451.99
682.06	449.49
682.40	446.90
682.74	444.45
683.08	441.94
683.42	439.32
683.75	436.81
684.09	434.32
684.43	431.85
684.77	429.29
685.10	426.93
685.44	424.64
685.78	422.35
686.12	420.11
686.45	417.86
686.79	415.60
687.13	413.45
687.46	411.33
687.80	409.17
688.14	406.92
688.48	404.88
688.81	402.67
689.15	400.54
689.49	398.42
689.82	396.35
690.16	394.24
690.50	392.32
690.83	390.41
691.17	388.40
691.51	386.52
691.84	384.73
692.18	382.77
692.52	380.77
692.85	378.88
693.19	377.05
693.52	375.21
693.86	373.42
694.20	371.62
694.53	369.81
694.87	368.01
695.21	366.27
695.54	364.47
695.88	362.73
696.21	360.99
696.55	359.32
696.88	357.61
697.22	355.99
697.56	354.37
697.89	352.69
698.23	351.11
698.56	349.49
698.90	347.92
699.23	346.29
699.57	344.79
699.90	343.24
700.24	341.71
700.58	340.18
700.91	338.65
701.25	337.24
701.58	335.89
701.92	334.56
702.25	333.17
702.59	331.79
702.92	330.50
703.26	329.25
703.59	327.97
703.93	326.80
704.26	325.54
704.60	324.25
704.93	323.02
705.26	321.72
705.60	320.58
705.93	319.42
706.27	318.41
706.60	317.34
706.94	316.28
707.27	315.15
707.61	314.09
707.94	313.12
708.27	312.05
708.61	310.96
708.94	309.95
709.28	309.00
709.61	308.02
709.94	307.06
710.28	306.01
710.61	305.08
710.95	304.04
711.28	303.18
711.61	302.23
711.95	301.28
712.28	300.38
712.61	299.39
712.95	298.49
713.28	297.60
713.61	296.70
713.95	295.83
714.28	294.99
714.61	294.14
714.95	293.30
715.28	292.46
715.61	291.59
715.95	290.74
716.28	289.86
716.61	289.03
716.95	288.22
717.28	287.46
717.61	286.65
717.94	285.90
718.28	285.07
718.61	284.34
718.94	283.70
719.27	283.01
719.61	282.37
719.94	281.70
720.27	280.98
720.60	280.30
720.94	279.63
721.27	279.02
721.60	278.41
721.93	277.77
722.27	277.22
722.60	276.68
722.93	276.09
723.26	275.57
723.59	275.03
723.93	274.48
724.26	273.92
724.59	273.37
724.92	272.82
725.25	272.32
725.59	271.80
725.92	271.25
726.25	270.75
726.58	270.29
726.91	269.79
727.24	269.35
727.57	268.89
727.91	268.42
728.24	267.95
728.57	267.51
728.90	267.08
729.23	266.56
729.56	266.13
729.89	265.66
730.22	265.17
730.55	264.72
730.89	264.27
731.22	263.84
731.55	263.39
731.88	262.96
732.21	262.51
732.54	262.05
732.87	261.66
733.20	261.27
733.53	260.84
733.86	260.45
734.19	260.05
734.52	259.68
734.85	259.33
735.18	258.89
735.51	258.51
735.84	258.12
736.17	257.80
736.50	257.38
736.83	257.18
737.16	256.83
737.49	256.49
737.82	256.14
738.15	255.84
738.48	255.48
738.81	255.16
739.14	254.87
739.47	254.61
739.80	254.29
740.13	254.00
740.46	253.67
740.79	253.31
741.12	253.03
741.45	252.68
741.78	252.35
742.11	252.11
742.44	251.82
742.77	251.51
743.10	251.22
743.43	250.93
743.75	250.53
744.08	250.40
744.41	250.19
744.74	249.92
745.07	249.65
745.40	249.43
745.73	249.22
746.06	248.94
746.39	248.67
746.71	248.37
747.04	248.06
747.37	247.82
747.70	247.60
748.03	247.34
748.36	247.10
748.68	246.87
749.01	246.60
749.34	246.37
749.67	246.16
750.00	245.92
750.33	245.77
750.65	245.55
750.98	245.23
751.31	244.96
751.64	244.75
751.97	244.59
752.29	244.38
752.62	244.11
752.95	243.90
753.28	243.68
753.60	243.51
753.93	243.35
754.26	243.17
754.59	242.93
754.91	242.72
755.24	242.53
755.57	242.32
755.90	242.14
756.22	241.95
756.55	241.75
756.88	241.53
757.20	241.28
757.53	241.08
757.86	240.89
758.19	240.77
758.51	240.62
758.84	240.36
759.17	240.17
759.49	239.97
759.82	239.86
760.15	239.68
760.47	239.53
760.80	239.34
761.13	239.19
761.45	239.11
761.78	238.96
762.11	238.82
762.43	238.68
762.76	238.54
763.08	238.38
763.41	238.24
763.74	238.12
764.06	237.97
764.39	237.85
764.71	237.70
765.04	237.52
765.37	237.36
765.69	237.27
766.02	237.16
766.34	237.06
766.67	236.91
767.00	236.82
767.32	236.72
767.65	236.71
767.97	236.59
768.30	236.44
768.62	236.35
768.95	236.21
769.27	236.11
769.60	236.03
769.92	235.92
770.25	235.78
770.57	235.66
770.90	235.59
771.22	235.47
771.55	235.41
771.87	235.32
772.20	235.24
772.52	235.20
772.85	235.20
773.17	235.13
773.50	235.03
773.82	234.95
774.15	234.83
774.47	234.64
774.80	234.54
775.12	234.47
775.45	234.40
775.77	234.36
776.09	234.27
776.42	234.20
776.74	234.16
777.07	234.13
777.39	234.09
777.72	233.99
778.04	233.95
778.36	233.88
778.69	233.82
779.01	233.78
779.33	233.65
779.66	233.51
779.98	233.43
780.31	233.37
780.63	233.34
780.95	233.29
781.28	233.24
781.60	233.18
781.92	233.09
782.25	233.02
782.57	232.94
782.89	232.91
783.22	232.84
783.54	232.74
783.86	232.68
784.19	232.63
784.51	232.62
784.83	232.53
785.16	232.42
785.48	232.37
785.80	232.28
786.12	232.26
786.45	232.17
786.77	232.11
787.09	232.05
