SpectraSuite Data File
++++++++++++++++++++++++++++++++++++
Date: Fri Feb 01 15:35:12 EST 2013
User: group
Dark Spectrum Present: No
Reference Spectrum Present: No
Number of Sampled Component Spectra: 1
Spectrometers: USB2E7196
Integration Time (usec): 35000 (USB2E7196)
Spectra Averaged: 100 (USB2E7196)
Boxcar Smoothing: 10 (USB2E7196)
Correct for Electrical Dark: No (USB2E7196)
Strobe/Lamp Enabled: No (USB2E7196)
Correct for Detector Non-linearity: No (USB2E7196)
Correct for Stray Light: No (USB2E7196)
Number of Pixels in Processed Spectrum: 2048
>>>>>Begin Processed Spectral Data<<<<<
339.09	0.00
339.48	214.80
339.86	215.96
340.24	217.27
340.63	219.07
341.01	222.07
341.39	221.84
341.78	223.33
342.16	224.84
342.54	225.41
342.93	213.22
343.31	224.01
343.69	224.58
344.07	225.07
344.46	225.53
344.84	225.91
345.22	226.15
345.60	226.38
345.99	226.57
346.37	226.69
346.75	226.76
347.13	226.83
347.52	226.87
347.90	226.93
348.28	226.98
348.66	227.03
349.05	227.03
349.43	227.10
349.81	227.13
350.19	227.14
350.57	227.16
350.96	227.23
351.34	227.30
351.72	227.37
352.10	227.49
352.48	227.52
352.87	227.59
353.25	227.63
353.63	227.71
354.01	227.77
354.39	227.84
354.77	227.92
355.15	228.02
355.54	228.09
355.92	228.08
356.30	228.13
356.68	228.25
357.06	228.28
357.44	228.32
357.82	228.38
358.20	228.51
358.58	228.57
358.97	228.61
359.35	228.68
359.73	228.75
360.11	228.75
360.49	228.82
360.87	228.84
361.25	228.89
361.63	228.98
362.01	229.04
362.39	229.04
362.77	229.08
363.15	229.08
363.53	229.13
363.91	229.20
364.29	229.22
364.67	229.14
365.05	229.19
365.43	229.19
365.81	229.19
366.19	229.22
366.57	229.25
366.95	229.26
367.33	229.21
367.71	229.17
368.09	229.19
368.47	229.19
368.85	229.19
369.23	229.17
369.61	229.07
369.99	229.05
370.37	229.03
370.75	229.08
371.13	229.03
371.51	228.96
371.89	228.91
372.27	228.88
372.65	228.84
373.03	228.79
373.41	228.74
373.78	228.71
374.16	228.58
374.54	228.50
374.92	228.42
375.30	228.37
375.68	228.30
376.06	228.22
376.44	228.14
376.82	228.05
377.19	227.99
377.57	227.96
377.95	227.85
378.33	227.76
378.71	227.57
379.09	227.51
379.47	227.46
379.84	227.37
380.22	227.26
380.60	227.19
380.98	227.12
381.36	227.06
381.73	227.00
382.11	226.99
382.49	226.93
382.87	226.86
383.25	226.79
383.62	226.83
384.00	226.77
384.38	226.72
384.76	226.74
385.13	226.73
385.51	226.67
385.89	226.61
386.27	226.58
386.64	226.57
387.02	226.53
387.40	226.45
387.78	226.46
388.15	226.46
388.53	226.43
388.91	226.40
389.29	226.35
389.66	226.32
390.04	226.25
390.42	226.25
390.79	226.26
391.17	226.27
391.55	226.17
391.92	226.16
392.30	226.17
392.68	226.12
393.05	226.13
393.43	226.14
393.81	226.19
394.18	226.18
394.56	226.23
394.94	226.26
395.31	226.29
395.69	226.37
396.06	226.37
396.44	226.40
396.82	226.44
397.19	226.52
397.57	226.55
397.95	226.64
398.32	226.66
398.70	226.71
399.07	226.80
399.45	226.84
399.82	226.92
400.20	226.98
400.58	227.04
400.95	227.03
401.33	227.15
401.70	227.28
402.08	227.41
402.45	227.48
402.83	227.60
403.20	227.73
403.58	227.78
403.95	227.94
404.33	228.08
404.71	228.20
405.08	228.42
405.46	228.55
405.83	228.70
406.21	228.88
406.58	229.03
406.96	229.19
407.33	229.38
407.70	229.58
408.08	229.82
408.45	230.04
408.83	230.33
409.20	230.51
409.58	230.70
409.95	230.95
410.33	231.21
410.70	231.47
411.08	231.76
411.45	232.09
411.82	232.41
412.20	232.77
412.57	233.18
412.95	233.48
413.32	233.89
413.69	234.31
414.07	234.74
414.44	235.18
414.82	235.63
415.19	236.17
415.56	236.71
415.94	237.31
416.31	237.95
416.68	238.54
417.06	239.28
417.43	239.98
417.81	240.74
418.18	241.55
418.55	242.38
418.93	243.24
419.30	244.16
419.67	245.07
420.04	246.02
420.42	247.00
420.79	248.16
421.16	249.30
421.54	250.48
421.91	251.68
422.28	252.97
422.66	254.32
423.03	255.64
423.40	256.96
423.77	258.34
424.15	259.76
424.52	261.23
424.89	262.81
425.26	264.33
425.64	265.80
426.01	267.41
426.38	269.07
426.75	270.75
427.13	272.45
427.50	274.28
427.87	276.19
428.24	278.07
428.61	279.83
428.99	281.78
429.36	283.88
429.73	285.98
430.10	288.00
430.47	290.04
430.85	292.17
431.22	294.44
431.59	296.87
431.96	299.17
432.33	301.70
432.70	304.12
433.08	306.93
433.45	309.57
433.82	312.16
434.19	315.07
434.56	317.88
434.93	320.53
435.30	323.16
435.68	325.99
436.05	328.84
436.42	331.67
436.79	334.24
437.16	336.95
437.53	339.82
437.90	342.62
438.27	345.41
438.64	348.20
439.01	350.78
439.38	352.97
439.75	355.15
440.13	357.64
440.50	359.95
440.87	361.82
441.24	363.79
441.61	365.97
441.98	367.45
442.35	369.25
442.72	371.12
443.09	372.96
443.46	373.99
443.83	374.58
444.20	375.07
444.57	375.91
444.94	376.20
445.31	376.50
445.68	376.87
446.05	376.94
446.42	376.59
446.79	376.17
447.16	375.66
447.53	375.34
447.90	374.16
448.27	373.00
448.64	371.42
449.01	370.24
449.37	368.26
449.74	366.34
450.11	364.13
450.48	361.62
450.85	359.07
451.22	356.89
451.59	354.80
451.96	352.86
452.33	350.24
452.70	347.88
453.07	345.02
453.43	342.13
453.80	339.33
454.17	336.67
454.54	334.16
454.91	331.46
455.28	328.74
455.65	326.29
456.02	323.82
456.38	321.67
456.75	318.97
457.12	316.71
457.49	314.47
457.86	312.26
458.23	310.43
458.59	308.34
458.96	306.27
459.33	304.42
459.70	302.54
460.07	301.02
460.43	299.30
460.80	297.70
461.17	296.25
461.54	294.75
461.91	293.32
462.27	291.84
462.64	290.55
463.01	289.21
463.38	287.82
463.74	286.44
464.11	285.25
464.48	284.24
464.85	283.10
465.21	282.25
465.58	281.34
465.95	280.26
466.32	279.32
466.68	278.41
467.05	277.52
467.42	276.58
467.78	275.62
468.15	274.72
468.52	274.04
468.88	273.19
469.25	272.38
469.62	271.72
469.98	271.06
470.35	270.46
470.72	269.86
471.08	269.25
471.45	268.70
471.82	268.17
472.18	267.59
472.55	267.17
472.92	266.62
473.28	266.15
473.65	265.67
474.02	265.27
474.38	264.92
474.75	264.60
475.11	264.29
475.48	264.06
475.85	263.83
476.21	263.61
476.58	263.42
476.94	263.27
477.31	263.11
477.67	262.94
478.04	262.84
478.41	262.81
478.77	262.85
479.14	262.83
479.50	262.87
479.87	262.94
480.23	263.03
480.60	263.11
480.96	263.19
481.33	263.40
481.69	263.61
482.06	263.78
482.42	263.97
482.79	264.23
483.15	264.55
483.52	264.94
483.88	265.27
484.25	265.68
484.61	266.13
484.98	266.62
485.34	267.18
485.71	267.76
486.07	268.35
486.44	268.94
486.80	269.63
487.17	270.35
487.53	271.19
487.90	272.03
488.26	272.97
488.62	273.98
488.99	274.96
489.35	276.02
489.72	277.17
490.08	278.42
490.44	279.68
490.81	281.00
491.17	282.36
491.54	283.85
491.90	285.41
492.26	287.08
492.63	288.81
492.99	290.60
493.36	292.51
493.72	294.55
494.08	296.64
494.45	298.89
494.81	301.28
495.17	303.71
495.54	306.25
495.90	308.91
496.26	311.69
496.63	314.64
496.99	317.76
497.35	321.00
497.72	324.38
498.08	327.90
498.44	331.57
498.80	335.50
499.17	339.53
499.53	343.68
499.89	348.08
500.26	352.59
500.62	357.28
500.98	362.23
501.34	367.32
501.71	372.61
502.07	378.02
502.43	383.60
502.79	389.42
503.16	395.50
503.52	401.76
503.88	408.17
504.24	414.83
504.60	421.68
504.97	428.79
505.33	436.10
505.69	443.76
506.05	451.50
506.41	459.30
506.78	467.46
507.14	475.86
507.50	484.53
507.86	493.48
508.22	502.66
508.59	511.90
508.95	521.47
509.31	531.26
509.67	541.39
510.03	551.60
510.39	562.13
510.75	572.97
511.12	583.95
511.48	595.22
511.84	606.64
512.20	618.18
512.56	630.06
512.92	642.20
513.28	654.52
513.64	666.98
514.00	679.71
514.37	692.64
514.73	705.72
515.09	718.74
515.45	732.04
515.81	745.64
516.17	759.63
516.53	773.69
516.89	787.97
517.25	802.15
517.61	816.67
517.97	831.18
518.33	845.56
518.69	860.38
519.05	875.43
519.41	890.65
519.77	906.27
520.13	921.88
520.49	937.30
520.85	952.70
521.21	968.49
521.57	984.78
521.93	1000.55
522.29	1017.00
522.65	1033.31
523.01	1049.59
523.37	1065.63
523.73	1081.79
524.09	1097.99
524.45	1114.29
524.81	1130.87
525.17	1147.70
525.53	1164.61
525.89	1181.52
526.25	1198.31
526.61	1214.69
526.97	1231.47
527.33	1247.87
527.68	1264.41
528.04	1280.89
528.40	1297.61
528.76	1314.75
529.12	1331.30
529.48	1348.22
529.84	1364.34
530.20	1380.99
530.56	1398.07
530.91	1415.52
531.27	1432.24
531.63	1448.74
531.99	1465.35
532.35	1481.25
532.71	1497.16
533.07	1513.53
533.42	1529.44
533.78	1545.52
534.14	1561.86
534.50	1577.19
534.86	1593.18
535.21	1608.41
535.57	1624.54
535.93	1640.03
536.29	1654.86
536.65	1669.98
537.00	1684.85
537.36	1700.11
537.72	1714.65
538.08	1729.05
538.44	1742.81
538.79	1756.75
539.15	1770.51
539.51	1784.40
539.87	1798.94
540.22	1812.75
540.58	1826.57
540.94	1839.89
541.29	1852.80
541.65	1865.52
542.01	1878.82
542.37	1891.10
542.72	1903.57
543.08	1915.24
543.44	1927.66
543.79	1938.87
544.15	1949.97
544.51	1961.47
544.87	1972.42
545.22	1983.33
545.58	1993.60
545.94	2003.37
546.29	2013.36
546.65	2023.24
547.01	2032.33
547.36	2041.11
547.72	2049.57
548.07	2057.36
548.43	2065.66
548.79	2073.68
549.14	2081.11
549.50	2088.57
549.86	2096.31
550.21	2103.72
550.57	2110.85
550.92	2117.34
551.28	2124.45
551.64	2131.53
551.99	2138.17
552.35	2144.35
552.70	2150.38
553.06	2156.28
553.41	2162.77
553.77	2168.74
554.13	2174.73
554.48	2180.91
554.84	2186.35
555.19	2191.53
555.55	2196.67
555.90	2201.06
556.26	2205.98
556.61	2210.87
556.97	2214.87
557.32	2219.04
557.68	2223.10
558.03	2227.53
558.39	2231.36
558.74	2235.88
559.10	2239.72
559.45	2243.36
559.81	2247.73
560.16	2251.67
560.52	2254.85
560.87	2258.31
561.23	2260.99
561.58	2264.07
561.94	2266.58
562.29	2268.86
562.64	2271.64
563.00	2274.29
563.35	2277.87
563.71	2281.00
564.06	2284.18
564.42	2287.22
564.77	2289.68
565.12	2291.96
565.48	2293.65
565.83	2295.43
566.19	2296.82
566.54	2297.78
566.89	2298.76
567.25	2299.29
567.60	2300.56
567.96	2302.34
568.31	2303.10
568.66	2304.14
569.02	2304.47
569.37	2304.79
569.72	2305.65
570.08	2305.71
570.43	2305.69
570.78	2305.01
571.14	2303.49
571.49	2302.07
571.84	2301.65
572.20	2300.26
572.55	2299.16
572.90	2297.76
573.26	2296.36
573.61	2294.52
573.96	2292.56
574.31	2289.60
574.67	2286.63
575.02	2283.05
575.37	2279.67
575.72	2275.78
576.08	2272.45
576.43	2269.21
576.78	2265.37
577.13	2262.19
577.49	2259.13
577.84	2255.47
578.19	2251.62
578.54	2247.86
578.90	2243.58
579.25	2238.05
579.60	2233.14
579.95	2228.09
580.30	2223.07
580.66	2217.86
581.01	2212.86
581.36	2207.81
581.71	2203.60
582.06	2198.88
582.42	2194.27
582.77	2188.86
583.12	2184.26
583.47	2179.38
583.82	2174.32
584.17	2169.15
584.53	2163.60
584.88	2157.78
585.23	2152.04
585.58	2146.58
585.93	2141.12
586.28	2136.23
586.63	2131.01
586.98	2126.05
587.34	2121.32
587.69	2116.13
588.04	2110.83
588.39	2105.34
588.74	2099.10
589.09	2092.91
589.44	2086.17
589.79	2080.11
590.14	2074.74
590.49	2068.10
590.84	2061.80
591.19	2055.71
591.54	2049.23
591.89	2041.71
592.25	2034.90
592.60	2027.65
592.95	2020.02
593.30	2012.64
593.65	2005.02
594.00	1998.07
594.35	1990.72
594.70	1982.56
595.05	1975.37
595.40	1967.96
595.75	1960.32
596.10	1953.92
596.45	1947.17
596.80	1941.00
597.15	1934.14
597.50	1926.72
597.85	1920.31
598.19	1913.58
598.54	1906.34
598.89	1899.69
599.24	1893.86
599.59	1887.20
599.94	1880.93
600.29	1874.61
600.64	1868.07
600.99	1860.65
601.34	1853.60
601.69	1846.52
602.04	1839.73
602.39	1832.39
602.74	1825.74
603.08	1818.95
603.43	1812.17
603.78	1804.80
604.13	1797.52
604.48	1790.36
604.83	1783.60
605.18	1776.48
605.53	1768.36
605.87	1760.43
606.22	1753.16
606.57	1745.26
606.92	1737.92
607.27	1730.62
607.62	1723.55
607.96	1716.12
608.31	1709.52
608.66	1701.94
609.01	1694.37
609.36	1686.74
609.70	1678.73
610.05	1670.55
610.40	1662.81
610.75	1654.42
611.10	1646.72
611.44	1638.44
611.79	1630.39
612.14	1621.63
612.49	1612.54
612.83	1604.20
613.18	1596.06
613.53	1587.92
613.88	1579.35
614.22	1571.04
614.57	1562.47
614.92	1554.44
615.27	1546.83
615.61	1538.49
615.96	1530.53
616.31	1522.94
616.65	1515.46
617.00	1507.89
617.35	1500.27
617.70	1491.80
618.04	1483.39
618.39	1475.23
618.74	1467.52
619.08	1459.34
619.43	1451.86
619.78	1444.97
620.12	1437.87
620.47	1430.33
620.82	1422.14
621.16	1414.79
621.51	1407.16
621.85	1399.62
622.20	1391.09
622.55	1382.84
622.89	1374.97
623.24	1367.36
623.59	1359.94
623.93	1352.45
624.28	1345.18
624.62	1337.61
624.97	1330.53
625.32	1323.81
625.66	1316.73
626.01	1309.55
626.35	1301.98
626.70	1294.11
627.04	1286.35
627.39	1278.53
627.73	1271.16
628.08	1264.29
628.43	1256.88
628.77	1249.49
629.12	1241.92
629.46	1234.91
629.81	1227.48
630.15	1220.29
630.50	1212.85
630.84	1204.75
631.19	1196.97
631.53	1189.47
631.88	1181.89
632.22	1174.27
632.57	1166.96
632.91	1159.52
633.26	1152.09
633.60	1144.78
633.95	1137.79
634.29	1130.70
634.64	1124.00
634.98	1116.62
635.32	1109.44
635.67	1102.90
636.01	1096.24
636.36	1089.49
636.70	1082.95
637.05	1076.38
637.39	1069.95
637.73	1063.37
638.08	1057.51
638.42	1051.49
638.77	1045.15
639.11	1038.64
639.45	1032.36
639.80	1025.64
640.14	1019.11
640.49	1012.54
640.83	1006.18
641.17	999.89
641.52	993.60
641.86	987.21
642.20	981.36
642.55	975.06
642.89	968.52
643.23	962.06
643.58	956.23
643.92	950.06
644.26	943.96
644.61	937.81
644.95	931.84
645.29	925.18
645.64	918.33
645.98	911.97
646.32	906.17
646.66	900.08
647.01	894.27
647.35	888.55
647.69	882.82
648.04	877.41
648.38	871.64
648.72	865.61
649.06	859.50
649.41	853.55
649.75	847.55
650.09	841.59
650.43	835.81
650.78	829.64
651.12	823.65
651.46	817.91
651.80	812.20
652.14	806.82
652.49	801.43
652.83	796.31
653.17	790.55
653.51	784.65
653.85	779.29
654.20	773.64
654.54	767.67
654.88	761.96
655.22	755.99
655.56	750.29
655.90	744.85
656.25	739.65
656.59	734.35
656.93	729.29
657.27	724.15
657.61	718.72
657.95	713.64
658.29	708.53
658.64	703.30
658.98	698.04
659.32	692.58
659.66	687.37
660.00	682.07
660.34	677.13
660.68	672.28
661.02	667.23
661.36	662.52
661.70	658.03
662.05	653.61
662.39	649.32
662.73	644.79
663.07	640.44
663.41	635.95
663.75	631.47
664.09	626.96
664.43	622.59
664.77	618.46
665.11	614.20
665.45	610.11
665.79	605.99
666.13	601.87
666.47	597.78
666.81	593.66
667.15	589.52
667.49	585.69
667.83	581.88
668.17	577.92
668.51	573.88
668.85	569.90
669.19	566.13
669.53	562.30
669.87	558.42
670.21	554.72
670.55	551.14
670.89	547.71
671.23	544.30
671.57	540.74
671.91	537.19
672.25	533.76
672.58	530.22
672.92	526.89
673.26	523.67
673.60	520.52
673.94	517.40
674.28	514.56
674.62	511.58
674.96	508.54
675.30	505.64
675.64	502.72
675.97	499.93
676.31	497.04
676.65	494.10
676.99	491.44
677.33	488.57
677.67	485.75
678.01	482.71
678.34	479.70
678.68	476.91
679.02	474.11
679.36	471.32
679.70	468.66
680.04	465.90
680.37	463.06
680.71	460.28
681.05	457.72
681.39	454.93
681.73	452.30
682.06	449.73
682.40	447.21
682.74	444.71
683.08	442.18
683.42	439.58
683.75	437.10
684.09	434.55
684.43	432.14
684.77	429.67
685.10	427.34
685.44	425.04
685.78	422.76
686.12	420.54
686.45	418.24
686.79	415.94
687.13	413.74
687.46	411.59
687.80	409.48
688.14	407.19
688.48	405.16
688.81	402.91
689.15	400.82
689.49	398.68
689.82	396.63
690.16	394.56
690.50	392.63
690.83	390.67
691.17	388.70
691.51	386.76
691.84	384.93
692.18	382.97
692.52	380.99
692.85	379.07
693.19	377.13
693.52	375.35
693.86	373.52
694.20	371.78
694.53	369.98
694.87	368.10
695.21	366.36
695.54	364.52
695.88	362.78
696.21	361.04
696.55	359.35
696.88	357.62
697.22	355.97
697.56	354.30
697.89	352.65
698.23	351.04
698.56	349.42
698.90	347.81
699.23	346.21
699.57	344.62
699.90	343.06
700.24	341.56
700.58	339.99
700.91	338.47
701.25	336.95
701.58	335.57
701.92	334.24
702.25	332.86
702.59	331.53
702.92	330.25
703.26	328.92
703.59	327.62
703.93	326.43
704.26	325.18
704.60	323.90
704.93	322.63
705.26	321.39
705.60	320.21
705.93	319.08
706.27	318.03
706.60	316.98
706.94	315.88
707.27	314.72
707.61	313.66
707.94	312.67
708.27	311.63
708.61	310.57
708.94	309.51
709.28	308.57
709.61	307.62
709.94	306.66
710.28	305.63
710.61	304.66
710.95	303.61
711.28	302.68
711.61	301.74
711.95	300.83
712.28	299.89
712.61	298.88
712.95	297.90
713.28	297.01
713.61	296.13
713.95	295.27
714.28	294.46
714.61	293.60
714.95	292.76
715.28	291.89
715.61	291.02
715.95	290.20
716.28	289.30
716.61	288.51
716.95	287.70
717.28	286.96
717.61	286.21
717.94	285.47
718.28	284.65
718.61	283.90
718.94	283.21
719.27	282.57
719.61	282.00
719.94	281.38
720.27	280.67
720.60	280.02
720.94	279.36
721.27	278.74
721.60	278.18
721.93	277.59
722.27	277.03
722.60	276.49
722.93	275.93
723.26	275.39
723.59	274.80
723.93	274.26
724.26	273.71
724.59	273.14
724.92	272.60
725.25	272.13
725.59	271.63
725.92	271.12
726.25	270.61
726.58	270.08
726.91	269.60
727.24	269.17
727.57	268.69
727.91	268.21
728.24	267.78
728.57	267.29
728.90	266.81
729.23	266.33
729.56	265.91
729.89	265.44
730.22	264.98
730.55	264.55
730.89	264.10
731.22	263.69
731.55	263.26
731.88	262.84
732.21	262.43
732.54	262.00
732.87	261.58
733.20	261.18
733.53	260.78
733.86	260.35
734.19	259.91
734.52	259.56
734.85	259.26
735.18	258.84
735.51	258.48
735.84	258.12
736.17	257.80
736.50	257.35
736.83	257.13
737.16	256.80
737.49	256.43
737.82	256.04
738.15	255.68
738.48	255.35
738.81	255.06
739.14	254.71
739.47	254.37
739.80	254.06
740.13	253.77
740.46	253.44
740.79	253.11
741.12	252.84
741.45	252.51
741.78	252.11
742.11	251.84
742.44	251.50
742.77	251.22
743.10	250.88
743.43	250.61
743.75	250.17
744.08	250.02
744.41	249.74
744.74	249.46
745.07	249.16
745.40	248.92
745.73	248.67
746.06	248.37
746.39	248.09
746.71	247.83
747.04	247.51
747.37	247.25
747.70	247.02
748.03	246.73
748.36	246.45
748.68	246.22
749.01	245.94
749.34	245.71
749.67	245.43
750.00	245.19
750.33	245.05
750.65	244.85
750.98	244.48
751.31	244.28
751.64	244.10
751.97	243.95
752.29	243.70
752.62	243.43
752.95	243.23
753.28	243.07
753.60	242.84
753.93	242.66
754.26	242.47
754.59	242.25
754.91	242.04
755.24	241.87
755.57	241.71
755.90	241.52
756.22	241.35
756.55	241.16
756.88	240.99
757.20	240.74
757.53	240.54
757.86	240.40
758.19	240.21
758.51	240.03
758.84	239.84
759.17	239.67
759.49	239.50
759.82	239.40
760.15	239.21
760.47	239.06
760.80	238.92
761.13	238.80
761.45	238.66
761.78	238.52
762.11	238.41
762.43	238.27
762.76	238.12
763.08	238.00
763.41	237.86
763.74	237.75
764.06	237.59
764.39	237.45
764.71	237.31
765.04	237.19
765.37	237.06
765.69	236.94
766.02	236.82
766.34	236.70
766.67	236.53
767.00	236.44
767.32	236.41
767.65	236.37
767.97	236.24
768.30	236.19
768.62	236.08
768.95	235.95
769.27	235.84
769.60	235.78
769.92	235.64
770.25	235.56
770.57	235.43
770.90	235.39
771.22	235.31
771.55	235.22
771.87	235.13
772.20	235.05
772.52	235.04
772.85	235.07
773.17	235.05
773.50	234.98
773.82	234.89
774.15	234.73
774.47	234.57
774.80	234.50
775.12	234.36
775.45	234.29
775.77	234.22
776.09	234.17
776.42	234.07
776.74	234.04
777.07	233.94
777.39	233.90
777.72	233.80
778.04	233.76
778.36	233.69
778.69	233.62
779.01	233.52
779.33	233.38
779.66	233.20
779.98	233.12
780.31	233.02
780.63	233.00
780.95	232.97
781.28	232.89
781.60	232.78
781.92	232.69
782.25	232.63
782.57	232.56
782.89	232.43
783.22	232.36
783.54	232.29
783.86	232.25
784.19	232.15
784.51	232.12
784.83	232.02
785.16	231.96
785.48	231.96
785.80	231.94
786.12	231.86
786.45	231.81
786.77	231.75
787.09	231.74
