SpectraSuite Data File
++++++++++++++++++++++++++++++++++++
Date: Fri Feb 01 15:59:58 EST 2013
User: group
Dark Spectrum Present: No
Reference Spectrum Present: No
Number of Sampled Component Spectra: 1
Spectrometers: USB2E7196
Integration Time (usec): 35000 (USB2E7196)
Spectra Averaged: 100 (USB2E7196)
Boxcar Smoothing: 10 (USB2E7196)
Correct for Electrical Dark: No (USB2E7196)
Strobe/Lamp Enabled: No (USB2E7196)
Correct for Detector Non-linearity: No (USB2E7196)
Correct for Stray Light: No (USB2E7196)
Number of Pixels in Processed Spectrum: 2048
>>>>>Begin Processed Spectral Data<<<<<
339.09	0.00
339.48	214.84
339.86	216.10
340.24	217.16
340.63	219.09
341.01	221.94
341.39	222.15
341.78	222.77
342.16	224.30
342.54	224.97
342.93	213.14
343.31	223.90
343.69	224.45
344.07	224.91
344.46	225.35
344.84	225.74
345.22	225.96
345.60	226.19
345.99	226.39
346.37	226.52
346.75	226.62
347.13	226.71
347.52	226.76
347.90	226.88
348.28	226.87
348.66	226.89
349.05	226.88
349.43	226.91
349.81	226.98
350.19	227.04
350.57	227.10
350.96	227.17
351.34	227.26
351.72	227.34
352.10	227.47
352.48	227.52
352.87	227.57
353.25	227.66
353.63	227.71
354.01	227.76
354.39	227.83
354.77	227.89
355.15	228.00
355.54	228.08
355.92	228.11
356.30	228.22
356.68	228.37
357.06	228.41
357.44	228.44
357.82	228.49
358.20	228.55
358.58	228.59
358.97	228.64
359.35	228.76
359.73	228.81
360.11	228.83
360.49	228.90
360.87	228.95
361.25	229.03
361.63	229.12
362.01	229.19
362.39	229.24
362.77	229.30
363.15	229.29
363.53	229.30
363.91	229.32
364.29	229.30
364.67	229.23
365.05	229.27
365.43	229.30
365.81	229.34
366.19	229.39
366.57	229.42
366.95	229.39
367.33	229.29
367.71	229.26
368.09	229.28
368.47	229.24
368.85	229.20
369.23	229.16
369.61	229.09
369.99	229.10
370.37	229.06
370.75	229.07
371.13	229.03
371.51	228.95
371.89	228.89
372.27	228.88
372.65	228.85
373.03	228.77
373.41	228.70
373.78	228.62
374.16	228.49
374.54	228.42
374.92	228.36
375.30	228.36
375.68	228.29
376.06	228.21
376.44	228.18
376.82	228.13
377.19	228.08
377.57	227.99
377.95	227.86
378.33	227.77
378.71	227.60
379.09	227.56
379.47	227.51
379.84	227.45
380.22	227.37
380.60	227.27
380.98	227.23
381.36	227.14
381.73	227.07
382.11	227.02
382.49	226.95
382.87	226.85
383.25	226.75
383.62	226.81
384.00	226.72
384.38	226.66
384.76	226.61
385.13	226.55
385.51	226.50
385.89	226.44
386.27	226.42
386.64	226.42
387.02	226.37
387.40	226.32
387.78	226.28
388.15	226.25
388.53	226.17
388.91	226.13
389.29	226.12
389.66	226.09
390.04	226.03
390.42	226.00
390.79	226.04
391.17	226.00
391.55	225.90
391.92	225.92
392.30	225.90
392.68	225.89
393.05	225.87
393.43	225.89
393.81	225.90
394.18	225.88
394.56	225.87
394.94	225.90
395.31	225.88
395.69	225.92
396.06	225.94
396.44	226.02
396.82	226.06
397.19	226.12
397.57	226.14
397.95	226.22
398.32	226.29
398.70	226.37
399.07	226.46
399.45	226.48
399.82	226.53
400.20	226.62
400.58	226.71
400.95	226.76
401.33	226.83
401.70	226.98
402.08	227.09
402.45	227.17
402.83	227.26
403.20	227.41
403.58	227.52
403.95	227.68
404.33	227.79
404.71	227.90
405.08	228.08
405.46	228.23
405.83	228.38
406.21	228.50
406.58	228.66
406.96	228.81
407.33	229.03
407.70	229.23
408.08	229.51
408.45	229.69
408.83	229.97
409.20	230.17
409.58	230.34
409.95	230.59
410.33	230.89
410.70	231.15
411.08	231.43
411.45	231.73
411.82	232.02
412.20	232.39
412.57	232.81
412.95	233.12
413.32	233.56
413.69	233.99
414.07	234.41
414.44	234.86
414.82	235.37
415.19	235.91
415.56	236.44
415.94	236.96
416.31	237.63
416.68	238.25
417.06	239.00
417.43	239.73
417.81	240.50
418.18	241.28
418.55	242.13
418.93	243.02
419.30	243.94
419.67	244.90
420.04	245.86
420.42	246.86
420.79	248.05
421.16	249.18
421.54	250.35
421.91	251.59
422.28	252.85
422.66	254.18
423.03	255.48
423.40	256.80
423.77	258.24
424.15	259.64
424.52	261.13
424.89	262.74
425.26	264.25
425.64	265.74
426.01	267.36
426.38	268.99
426.75	270.68
427.13	272.42
427.50	274.19
427.87	276.04
428.24	277.92
428.61	279.66
428.99	281.61
429.36	283.71
429.73	285.82
430.10	287.86
430.47	289.90
430.85	292.02
431.22	294.26
431.59	296.59
431.96	298.81
432.33	301.30
432.70	303.66
433.08	306.49
433.45	309.10
433.82	311.69
434.19	314.57
434.56	317.38
434.93	320.02
435.30	322.64
435.68	325.56
436.05	328.37
436.42	331.14
436.79	333.65
437.16	336.36
437.53	339.15
437.90	341.94
438.27	344.70
438.64	347.46
439.01	350.07
439.38	352.30
439.75	354.45
440.13	356.88
440.50	359.22
440.87	361.07
441.24	362.99
441.61	365.13
441.98	366.63
442.35	368.34
442.72	370.21
443.09	372.01
443.46	373.00
443.83	373.57
444.20	374.10
444.57	374.93
444.94	375.19
445.31	375.52
445.68	375.88
446.05	375.94
446.42	375.63
446.79	375.20
447.16	374.78
447.53	374.49
447.90	373.38
448.27	372.22
448.64	370.59
449.01	369.44
449.37	367.42
449.74	365.52
450.11	363.34
450.48	360.84
450.85	358.34
451.22	356.21
451.59	354.20
451.96	352.31
452.33	349.74
452.70	347.39
453.07	344.56
453.43	341.62
453.80	338.87
454.17	336.21
454.54	333.67
454.91	330.96
455.28	328.29
455.65	325.81
456.02	323.33
456.38	321.20
456.75	318.56
457.12	316.38
457.49	314.17
457.86	312.02
458.23	310.17
458.59	308.06
458.96	305.96
459.33	304.09
459.70	302.20
460.07	300.67
460.43	298.99
460.80	297.38
461.17	296.01
461.54	294.53
461.91	293.08
462.27	291.65
462.64	290.41
463.01	289.05
463.38	287.75
463.74	286.43
464.11	285.28
464.48	284.24
464.85	283.11
465.21	282.24
465.58	281.34
465.95	280.25
466.32	279.39
466.68	278.51
467.05	277.65
467.42	276.78
467.78	275.85
468.15	274.94
468.52	274.28
468.88	273.41
469.25	272.67
469.62	272.06
469.98	271.37
470.35	270.72
470.72	270.13
471.08	269.49
471.45	268.92
471.82	268.40
472.18	267.85
472.55	267.44
472.92	266.92
473.28	266.46
473.65	266.00
474.02	265.59
474.38	265.19
474.75	264.89
475.11	264.55
475.48	264.33
475.85	264.08
476.21	263.86
476.58	263.70
476.94	263.54
477.31	263.35
477.67	263.20
478.04	263.12
478.41	263.08
478.77	263.14
479.14	263.13
479.50	263.09
479.87	263.13
480.23	263.19
480.60	263.28
480.96	263.35
481.33	263.58
481.69	263.76
482.06	263.97
482.42	264.11
482.79	264.37
483.15	264.68
483.52	265.10
483.88	265.42
484.25	265.79
484.61	266.20
484.98	266.68
485.34	267.27
485.71	267.85
486.07	268.43
486.44	268.97
486.80	269.60
487.17	270.35
487.53	271.16
487.90	272.05
488.26	272.99
488.62	273.98
488.99	274.92
489.35	275.95
489.72	277.10
490.08	278.29
490.44	279.48
490.81	280.77
491.17	282.10
491.54	283.62
491.90	285.14
492.26	286.79
492.63	288.47
492.99	290.23
493.36	292.11
493.72	294.16
494.08	296.25
494.45	298.55
494.81	300.94
495.17	303.38
495.54	305.91
495.90	308.61
496.26	311.44
496.63	314.35
496.99	317.48
497.35	320.72
497.72	324.17
498.08	327.69
498.44	331.35
498.80	335.25
499.17	339.25
499.53	343.45
499.89	347.85
500.26	352.40
500.62	357.10
500.98	362.08
501.34	367.17
501.71	372.52
502.07	378.00
502.43	383.56
502.79	389.47
503.16	395.55
503.52	401.81
503.88	408.19
504.24	414.90
504.60	421.80
504.97	428.97
505.33	436.24
505.69	443.93
506.05	451.74
506.41	459.64
506.78	467.81
507.14	476.27
507.50	484.97
507.86	494.00
508.22	503.20
508.59	512.45
508.95	522.03
509.31	531.88
509.67	541.95
510.03	552.33
510.39	562.85
510.75	573.62
511.12	584.55
511.48	595.88
511.84	607.34
512.20	618.87
512.56	630.75
512.92	642.93
513.28	655.32
513.64	667.77
514.00	680.52
514.37	693.54
514.73	706.54
515.09	719.60
515.45	732.86
515.81	746.49
516.17	760.51
516.53	774.64
516.89	788.83
517.25	803.04
517.61	817.43
517.97	831.90
518.33	846.31
518.69	861.08
519.05	876.07
519.41	891.24
519.77	906.78
520.13	922.26
520.49	937.67
520.85	953.18
521.21	968.87
521.57	985.00
521.93	1000.61
522.29	1017.05
522.65	1033.25
523.01	1049.49
523.37	1065.48
523.73	1081.53
524.09	1097.51
524.45	1113.76
524.81	1130.34
525.17	1147.13
525.53	1163.88
525.89	1180.78
526.25	1197.62
526.61	1213.95
526.97	1230.66
527.33	1247.04
527.68	1263.71
528.04	1280.21
528.40	1296.66
528.76	1313.74
529.12	1330.36
529.48	1347.26
529.84	1363.23
530.20	1379.89
530.56	1396.86
530.91	1414.27
531.27	1430.98
531.63	1447.53
531.99	1463.98
532.35	1479.81
532.71	1495.63
533.07	1511.88
533.42	1527.74
533.78	1543.76
534.14	1560.01
534.50	1575.40
534.86	1591.26
535.21	1606.30
535.57	1622.10
535.93	1637.58
536.29	1652.40
536.65	1667.43
537.00	1682.10
537.36	1697.47
537.72	1711.88
538.08	1726.26
538.44	1739.87
538.79	1753.81
539.15	1767.46
539.51	1781.22
539.87	1795.61
540.22	1809.38
540.58	1823.09
540.94	1836.33
541.29	1849.17
541.65	1861.73
542.01	1874.87
542.37	1887.22
542.72	1899.63
543.08	1911.37
543.44	1923.78
543.79	1934.89
544.15	1945.83
544.51	1957.36
544.87	1968.11
545.22	1978.83
545.58	1989.04
545.94	1998.90
546.29	2008.65
546.65	2018.46
547.01	2027.72
547.36	2036.42
547.72	2044.81
548.07	2052.65
548.43	2060.81
548.79	2068.87
549.14	2076.33
549.50	2083.60
549.86	2091.14
550.21	2098.44
550.57	2105.72
550.92	2112.20
551.28	2119.20
551.64	2126.26
551.99	2132.87
552.35	2139.14
552.70	2145.38
553.06	2151.34
553.41	2157.61
553.77	2163.74
554.13	2169.87
554.48	2176.12
554.84	2181.67
555.19	2187.07
555.55	2192.25
555.90	2196.72
556.26	2201.50
556.61	2206.34
556.97	2210.58
557.32	2214.71
557.68	2218.82
558.03	2223.04
558.39	2226.88
558.74	2231.71
559.10	2235.57
559.45	2239.21
559.81	2243.41
560.16	2247.31
560.52	2250.42
560.87	2253.85
561.23	2256.47
561.58	2259.27
561.94	2261.75
562.29	2263.97
562.64	2266.65
563.00	2269.20
563.35	2272.77
563.71	2275.86
564.06	2279.06
564.42	2281.85
564.77	2284.37
565.12	2286.47
565.48	2288.32
565.83	2290.18
566.19	2291.31
566.54	2292.33
566.89	2293.46
567.25	2294.18
567.60	2295.50
567.96	2297.25
568.31	2298.22
568.66	2299.41
569.02	2300.00
569.37	2300.25
569.72	2301.22
570.08	2301.31
570.43	2301.54
570.78	2300.91
571.14	2299.47
571.49	2298.18
571.84	2297.98
572.20	2297.03
572.55	2296.23
572.90	2294.89
573.26	2293.53
573.61	2291.96
573.96	2290.12
574.31	2287.22
574.67	2284.11
575.02	2280.51
575.37	2277.20
575.72	2273.29
576.08	2269.93
576.43	2266.71
576.78	2263.09
577.13	2259.87
577.49	2256.80
577.84	2253.08
578.19	2249.51
578.54	2245.89
578.90	2241.71
579.25	2236.21
579.60	2231.03
579.95	2225.95
580.30	2220.64
580.66	2215.52
581.01	2210.51
581.36	2205.65
581.71	2201.36
582.06	2197.02
582.42	2192.37
582.77	2187.17
583.12	2182.50
583.47	2177.64
583.82	2172.50
584.17	2167.23
584.53	2161.69
584.88	2155.91
585.23	2150.16
585.58	2144.54
585.93	2139.04
586.28	2134.32
586.63	2129.19
586.98	2124.34
587.34	2119.60
587.69	2114.83
588.04	2109.53
588.39	2103.92
588.74	2097.45
589.09	2091.43
589.44	2084.65
589.79	2078.83
590.14	2073.21
590.49	2066.78
590.84	2060.53
591.19	2054.58
591.54	2048.24
591.89	2040.88
592.25	2034.22
592.60	2027.08
592.95	2019.50
593.30	2012.07
593.65	2004.39
594.00	1997.48
594.35	1990.21
594.70	1982.30
595.05	1975.14
595.40	1967.99
595.75	1960.52
596.10	1954.31
596.45	1947.50
596.80	1941.23
597.15	1934.47
597.50	1927.22
597.85	1920.74
598.19	1914.00
598.54	1906.83
598.89	1900.08
599.24	1894.32
599.59	1887.49
599.94	1881.35
600.29	1875.10
600.64	1868.67
600.99	1861.31
601.34	1854.44
601.69	1847.44
602.04	1840.52
602.39	1833.12
602.74	1826.09
603.08	1819.26
603.43	1812.56
603.78	1805.31
604.13	1798.10
604.48	1790.81
604.83	1784.08
605.18	1777.08
605.53	1769.17
605.87	1761.32
606.22	1754.10
606.57	1745.95
606.92	1738.82
607.27	1731.53
607.62	1724.58
607.96	1717.27
608.31	1710.66
608.66	1703.01
609.01	1695.39
609.36	1687.75
609.70	1679.85
610.05	1671.80
610.40	1664.09
610.75	1655.65
611.10	1647.93
611.44	1639.64
611.79	1631.72
612.14	1622.98
612.49	1613.88
612.83	1605.54
613.18	1597.33
613.53	1589.24
613.88	1580.81
614.22	1572.38
614.57	1563.93
614.92	1555.92
615.27	1548.33
615.61	1539.88
615.96	1531.87
616.31	1524.31
616.65	1517.05
617.00	1509.39
617.35	1501.73
617.70	1493.37
618.04	1484.96
618.39	1476.72
618.74	1469.04
619.08	1460.67
619.43	1453.08
619.78	1446.32
620.12	1439.04
620.47	1431.50
620.82	1423.31
621.16	1416.05
621.51	1408.54
621.85	1400.86
622.20	1392.23
622.55	1383.87
622.89	1376.05
623.24	1368.44
623.59	1361.05
623.93	1353.46
624.28	1346.25
624.62	1338.61
624.97	1331.47
625.32	1324.72
625.66	1317.79
626.01	1310.61
626.35	1303.22
626.70	1295.65
627.04	1287.75
627.39	1280.03
627.73	1272.67
628.08	1265.77
628.43	1258.31
628.77	1250.89
629.12	1243.41
629.46	1236.30
629.81	1228.93
630.15	1221.71
630.50	1214.29
630.84	1206.06
631.19	1198.20
631.53	1190.69
631.88	1183.27
632.22	1175.67
632.57	1168.22
632.91	1160.58
633.26	1153.15
633.60	1145.81
633.95	1138.60
634.29	1131.67
634.64	1125.03
634.98	1117.56
635.32	1110.41
635.67	1103.84
636.01	1097.24
636.36	1090.32
636.70	1083.85
637.05	1077.21
637.39	1070.80
637.73	1064.22
638.08	1058.41
638.42	1052.36
638.77	1045.87
639.11	1039.23
639.45	1032.83
639.80	1026.22
640.14	1019.81
640.49	1013.28
640.83	1006.88
641.17	1000.64
641.52	994.17
641.86	987.70
642.20	981.93
642.55	975.62
642.89	969.13
643.23	962.57
643.58	956.87
643.92	950.68
644.26	944.65
644.61	938.54
644.95	932.52
645.29	925.81
645.64	919.10
645.98	912.78
646.32	906.93
646.66	900.89
647.01	895.06
647.35	889.30
647.69	883.42
648.04	877.93
648.38	872.12
648.72	866.11
649.06	860.04
649.41	854.22
649.75	848.27
650.09	842.37
650.43	836.59
650.78	830.44
651.12	824.46
651.46	818.78
651.80	813.09
652.14	807.65
652.49	802.35
652.83	797.17
653.17	791.42
653.51	785.75
653.85	780.36
654.20	774.71
654.54	768.83
654.88	763.17
655.22	757.32
655.56	751.55
655.90	746.16
656.25	740.89
656.59	735.45
656.93	730.33
657.27	725.10
657.61	719.74
657.95	714.60
658.29	709.54
658.64	704.25
658.98	698.90
659.32	693.48
659.66	688.32
660.00	682.90
660.34	678.04
660.68	673.13
661.02	668.08
661.36	663.42
661.70	658.87
662.05	654.52
662.39	650.15
662.73	645.71
663.07	641.31
663.41	636.86
663.75	632.35
664.09	627.78
664.43	623.42
664.77	619.19
665.11	614.93
665.45	610.74
665.79	606.60
666.13	602.51
666.47	598.47
666.81	594.25
667.15	590.20
667.49	586.32
667.83	582.54
668.17	578.65
668.51	574.54
668.85	570.50
669.19	566.67
669.53	562.81
669.87	558.98
670.21	555.30
670.55	551.64
670.89	548.19
671.23	544.73
671.57	541.18
671.91	537.66
672.25	534.14
672.58	530.57
672.92	527.16
673.26	523.98
673.60	520.80
673.94	517.67
674.28	514.76
674.62	511.79
674.96	508.60
675.30	505.65
675.64	502.72
675.97	499.92
676.31	497.06
676.65	494.17
676.99	491.44
677.33	488.58
677.67	485.76
678.01	482.75
678.34	479.79
678.68	476.97
679.02	474.18
679.36	471.46
679.70	468.78
680.04	466.05
680.37	463.15
680.71	460.36
681.05	457.76
681.39	455.01
681.73	452.38
682.06	449.92
682.40	447.39
682.74	444.86
683.08	442.36
683.42	439.71
683.75	437.19
684.09	434.66
684.43	432.23
684.77	429.79
685.10	427.45
685.44	425.18
685.78	422.92
686.12	420.64
686.45	418.34
686.79	416.09
687.13	413.93
687.46	411.78
687.80	409.68
688.14	407.50
688.48	405.48
688.81	403.20
689.15	400.97
689.49	398.84
689.82	396.78
690.16	394.68
690.50	392.75
690.83	390.76
691.17	388.75
691.51	386.82
691.84	384.94
692.18	382.99
692.52	380.99
692.85	379.02
693.19	377.11
693.52	375.27
693.86	373.43
694.20	371.64
694.53	369.88
694.87	367.98
695.21	366.17
695.54	364.31
695.88	362.58
696.21	360.86
696.55	359.17
696.88	357.49
697.22	355.84
697.56	354.17
697.89	352.52
698.23	350.96
698.56	349.36
698.90	347.76
699.23	346.11
699.57	344.56
699.90	343.02
700.24	341.50
700.58	339.98
700.91	338.45
701.25	336.98
701.58	335.59
701.92	334.21
702.25	332.79
702.59	331.43
702.92	330.12
703.26	328.87
703.59	327.57
703.93	326.42
704.26	325.19
704.60	323.91
704.93	322.67
705.26	321.38
705.60	320.20
705.93	319.08
706.27	318.06
706.60	316.99
706.94	315.90
707.27	314.74
707.61	313.68
707.94	312.70
708.27	311.62
708.61	310.59
708.94	309.60
709.28	308.65
709.61	307.71
709.94	306.77
710.28	305.75
710.61	304.78
710.95	303.68
711.28	302.78
711.61	301.85
711.95	300.94
712.28	300.00
712.61	298.99
712.95	298.01
713.28	297.11
713.61	296.24
713.95	295.36
714.28	294.59
714.61	293.73
714.95	292.87
715.28	291.99
715.61	291.08
715.95	290.20
716.28	289.33
716.61	288.49
716.95	287.67
717.28	286.91
717.61	286.15
717.94	285.39
718.28	284.56
718.61	283.84
718.94	283.14
719.27	282.51
719.61	281.86
719.94	281.21
720.27	280.52
720.60	279.86
720.94	279.23
721.27	278.61
721.60	278.04
721.93	277.42
722.27	276.90
722.60	276.33
722.93	275.76
723.26	275.23
723.59	274.69
723.93	274.09
724.26	273.55
724.59	272.97
724.92	272.46
725.25	271.96
725.59	271.46
725.92	270.90
726.25	270.37
726.58	269.90
726.91	269.42
727.24	268.92
727.57	268.40
727.91	267.86
728.24	267.37
728.57	266.88
728.90	266.45
729.23	265.94
729.56	265.53
729.89	265.07
730.22	264.60
730.55	264.12
730.89	263.71
731.22	263.22
731.55	262.78
731.88	262.37
732.21	261.94
732.54	261.49
732.87	261.08
733.20	260.67
733.53	260.26
733.86	259.91
734.19	259.52
734.52	259.19
734.85	258.91
735.18	258.49
735.51	258.14
735.84	257.75
736.17	257.41
736.50	257.02
736.83	256.80
737.16	256.45
737.49	256.15
737.82	255.81
738.15	255.47
738.48	255.14
738.81	254.82
739.14	254.50
739.47	254.17
739.80	253.88
740.13	253.61
740.46	253.31
740.79	252.97
741.12	252.68
741.45	252.35
741.78	252.02
742.11	251.75
742.44	251.41
742.77	251.13
743.10	250.85
743.43	250.53
743.75	250.12
744.08	249.99
744.41	249.70
744.74	249.42
745.07	249.17
745.40	248.98
745.73	248.77
746.06	248.52
746.39	248.28
746.71	248.02
747.04	247.74
747.37	247.49
747.70	247.27
748.03	247.02
748.36	246.80
748.68	246.56
749.01	246.32
749.34	246.10
749.67	245.86
750.00	245.63
750.33	245.48
750.65	245.28
750.98	244.92
751.31	244.71
751.64	244.51
751.97	244.36
752.29	244.13
752.62	243.85
752.95	243.60
753.28	243.42
753.60	243.22
753.93	243.06
754.26	242.87
754.59	242.66
754.91	242.44
755.24	242.24
755.57	242.08
755.90	241.88
756.22	241.68
756.55	241.46
756.88	241.25
757.20	241.03
757.53	240.84
757.86	240.67
758.19	240.50
758.51	240.31
758.84	240.08
759.17	239.89
759.49	239.72
759.82	239.61
760.15	239.44
760.47	239.27
760.80	239.09
761.13	238.91
761.45	238.73
761.78	238.57
762.11	238.44
762.43	238.24
762.76	238.13
763.08	237.99
763.41	237.90
763.74	237.78
764.06	237.62
764.39	237.48
764.71	237.33
765.04	237.18
765.37	237.03
765.69	236.89
766.02	236.74
766.34	236.62
766.67	236.44
767.00	236.29
767.32	236.21
767.65	236.13
767.97	236.02
768.30	235.91
768.62	235.79
768.95	235.63
769.27	235.53
769.60	235.36
769.92	235.25
770.25	235.11
770.57	234.96
770.90	234.82
771.22	234.73
771.55	234.66
771.87	234.56
772.20	234.44
772.52	234.43
772.85	234.46
773.17	234.35
773.50	234.29
773.82	234.19
774.15	234.06
774.47	233.90
774.80	233.81
775.12	233.71
775.45	233.63
775.77	233.58
776.09	233.52
776.42	233.47
776.74	233.43
777.07	233.37
777.39	233.31
777.72	233.28
778.04	233.22
778.36	233.07
778.69	233.00
779.01	233.00
779.33	232.89
779.66	232.71
779.98	232.65
780.31	232.59
780.63	232.60
780.95	232.56
781.28	232.50
781.60	232.43
781.92	232.37
782.25	232.34
782.57	232.25
782.89	232.16
783.22	232.10
783.54	232.01
783.86	231.97
784.19	231.90
784.51	231.88
784.83	231.81
785.16	231.79
785.48	231.75
785.80	231.69
786.12	231.63
786.45	231.58
786.77	231.55
787.09	231.49
