SpectraSuite Data File
++++++++++++++++++++++++++++++++++++
Date: Fri Feb 01 16:14:17 EST 2013
User: group
Dark Spectrum Present: No
Reference Spectrum Present: No
Number of Sampled Component Spectra: 1
Spectrometers: USB2E7196
Integration Time (usec): 35000 (USB2E7196)
Spectra Averaged: 100 (USB2E7196)
Boxcar Smoothing: 10 (USB2E7196)
Correct for Electrical Dark: No (USB2E7196)
Strobe/Lamp Enabled: No (USB2E7196)
Correct for Detector Non-linearity: No (USB2E7196)
Correct for Stray Light: No (USB2E7196)
Number of Pixels in Processed Spectrum: 2048
>>>>>Begin Processed Spectral Data<<<<<
339.09	0.00
339.48	214.43
339.86	215.63
340.24	216.86
340.63	218.23
341.01	221.23
341.39	220.86
341.78	222.77
342.16	224.13
342.54	223.52
342.93	212.49
343.31	223.24
343.69	223.76
344.07	224.22
344.46	224.63
344.84	225.00
345.22	225.23
345.60	225.51
345.99	225.65
346.37	225.77
346.75	225.90
347.13	225.97
347.52	226.01
347.90	226.07
348.28	226.05
348.66	226.08
349.05	226.07
349.43	226.14
349.81	226.20
350.19	226.22
350.57	226.27
350.96	226.33
351.34	226.41
351.72	226.46
352.10	226.54
352.48	226.62
352.87	226.67
353.25	226.74
353.63	226.79
354.01	226.85
354.39	226.89
354.77	226.97
355.15	227.06
355.54	227.10
355.92	227.16
356.30	227.25
356.68	227.40
357.06	227.48
357.44	227.48
357.82	227.54
358.20	227.64
358.58	227.75
358.97	227.82
359.35	227.87
359.73	227.96
360.11	228.04
360.49	228.12
360.87	228.19
361.25	228.22
361.63	228.29
362.01	228.39
362.39	228.44
362.77	228.48
363.15	228.53
363.53	228.59
363.91	228.60
364.29	228.63
364.67	228.55
365.05	228.58
365.43	228.64
365.81	228.70
366.19	228.74
366.57	228.79
366.95	228.80
367.33	228.80
367.71	228.81
368.09	228.83
368.47	228.82
368.85	228.81
369.23	228.84
369.61	228.82
369.99	228.80
370.37	228.79
370.75	228.83
371.13	228.75
371.51	228.70
371.89	228.70
372.27	228.67
372.65	228.65
373.03	228.61
373.41	228.56
373.78	228.47
374.16	228.37
374.54	228.28
374.92	228.20
375.30	228.16
375.68	228.11
376.06	228.02
376.44	227.93
376.82	227.88
377.19	227.80
377.57	227.70
377.95	227.57
378.33	227.53
378.71	227.37
379.09	227.34
379.47	227.26
379.84	227.20
380.22	227.14
380.60	227.05
380.98	226.96
381.36	226.87
381.73	226.79
382.11	226.77
382.49	226.68
382.87	226.65
383.25	226.55
383.62	226.55
384.00	226.48
384.38	226.43
384.76	226.36
385.13	226.34
385.51	226.30
385.89	226.29
386.27	226.21
386.64	226.18
387.02	226.14
387.40	226.11
387.78	226.06
388.15	225.99
388.53	225.98
388.91	225.96
389.29	225.92
389.66	225.93
390.04	225.84
390.42	225.85
390.79	225.78
391.17	225.79
391.55	225.69
391.92	225.66
392.30	225.68
392.68	225.66
393.05	225.66
393.43	225.69
393.81	225.65
394.18	225.67
394.56	225.68
394.94	225.69
395.31	225.69
395.69	225.74
396.06	225.81
396.44	225.82
396.82	225.83
397.19	225.94
397.57	225.94
397.95	226.00
398.32	226.00
398.70	226.09
399.07	226.14
399.45	226.21
399.82	226.28
400.20	226.31
400.58	226.38
400.95	226.43
401.33	226.49
401.70	226.67
402.08	226.76
402.45	226.86
402.83	226.98
403.20	227.10
403.58	227.20
403.95	227.29
404.33	227.45
404.71	227.60
405.08	227.75
405.46	227.90
405.83	228.07
406.21	228.24
406.58	228.41
406.96	228.58
407.33	228.73
407.70	228.94
408.08	229.24
408.45	229.46
408.83	229.66
409.20	229.87
409.58	230.05
409.95	230.31
410.33	230.62
410.70	230.84
411.08	231.16
411.45	231.45
411.82	231.77
412.20	232.06
412.57	232.47
412.95	232.77
413.32	233.16
413.69	233.53
414.07	233.96
414.44	234.43
414.82	234.92
415.19	235.47
415.56	236.02
415.94	236.52
416.31	237.17
416.68	237.82
417.06	238.52
417.43	239.18
417.81	239.92
418.18	240.69
418.55	241.54
418.93	242.38
419.30	243.28
419.67	244.24
420.04	245.22
420.42	246.23
420.79	247.40
421.16	248.58
421.54	249.79
421.91	251.00
422.28	252.23
422.66	253.58
423.03	254.91
423.40	256.23
423.77	257.66
424.15	259.09
424.52	260.56
424.89	262.16
425.26	263.70
425.64	265.12
426.01	266.68
426.38	268.32
426.75	269.98
427.13	271.67
427.50	273.43
427.87	275.31
428.24	277.16
428.61	278.92
428.99	280.85
429.36	282.92
429.73	284.98
430.10	287.01
430.47	289.01
430.85	291.12
431.22	293.34
431.59	295.69
431.96	297.89
432.33	300.36
432.70	302.76
433.08	305.59
433.45	308.25
433.82	310.87
434.19	313.71
434.56	316.54
434.93	319.20
435.30	321.83
435.68	324.65
436.05	327.45
436.42	330.23
436.79	332.74
437.16	335.42
437.53	338.22
437.90	341.02
438.27	343.80
438.64	346.63
439.01	349.29
439.38	351.53
439.75	353.69
440.13	356.18
440.50	358.50
440.87	360.32
441.24	362.24
441.61	364.39
441.98	365.90
442.35	367.75
442.72	369.59
443.09	371.41
443.46	372.44
443.83	373.02
444.20	373.49
444.57	374.30
444.94	374.59
445.31	374.92
445.68	375.25
446.05	375.26
446.42	374.85
446.79	374.36
447.16	373.91
447.53	373.62
447.90	372.46
448.27	371.30
448.64	369.73
449.01	368.61
449.37	366.60
449.74	364.71
450.11	362.39
450.48	359.94
450.85	357.42
451.22	355.27
451.59	353.24
451.96	351.34
452.33	348.74
452.70	346.40
453.07	343.58
453.43	340.72
453.80	338.01
454.17	335.37
454.54	332.84
454.91	330.14
455.28	327.45
455.65	325.01
456.02	322.63
456.38	320.44
456.75	317.79
457.12	315.58
457.49	313.35
457.86	311.23
458.23	309.38
458.59	307.36
458.96	305.31
459.33	303.45
459.70	301.61
460.07	300.14
460.43	298.44
460.80	296.83
461.17	295.40
461.54	293.91
461.91	292.46
462.27	291.02
462.64	289.78
463.01	288.44
463.38	287.13
463.74	285.70
464.11	284.57
464.48	283.60
464.85	282.49
465.21	281.66
465.58	280.73
465.95	279.62
466.32	278.70
466.68	277.81
467.05	276.92
467.42	276.05
467.78	275.06
468.15	274.20
468.52	273.53
468.88	272.69
469.25	271.92
469.62	271.32
469.98	270.66
470.35	270.05
470.72	269.46
471.08	268.82
471.45	268.32
471.82	267.78
472.18	267.15
472.55	266.77
472.92	266.24
473.28	265.80
473.65	265.38
474.02	264.96
474.38	264.60
474.75	264.30
475.11	263.93
475.48	263.73
475.85	263.51
476.21	263.30
476.58	263.14
476.94	263.01
477.31	262.83
477.67	262.67
478.04	262.55
478.41	262.50
478.77	262.55
479.14	262.49
479.50	262.52
479.87	262.59
480.23	262.66
480.60	262.73
480.96	262.81
481.33	263.04
481.69	263.22
482.06	263.44
482.42	263.67
482.79	263.91
483.15	264.25
483.52	264.62
483.88	264.94
484.25	265.34
484.61	265.77
484.98	266.21
485.34	266.79
485.71	267.36
486.07	267.95
486.44	268.53
486.80	269.23
487.17	269.96
487.53	270.78
487.90	271.65
488.26	272.56
488.62	273.55
488.99	274.49
489.35	275.53
489.72	276.67
490.08	277.87
490.44	279.16
490.81	280.45
491.17	281.80
491.54	283.28
491.90	284.79
492.26	286.43
492.63	288.16
492.99	289.92
493.36	291.90
493.72	293.97
494.08	296.09
494.45	298.35
494.81	300.74
495.17	303.16
495.54	305.72
495.90	308.43
496.26	311.25
496.63	314.26
496.99	317.35
497.35	320.58
497.72	323.99
498.08	327.46
498.44	331.17
498.80	335.12
499.17	339.21
499.53	343.40
499.89	347.81
500.26	352.34
500.62	357.01
500.98	361.92
501.34	367.03
501.71	372.33
502.07	377.69
502.43	383.27
502.79	389.15
503.16	395.26
503.52	401.53
503.88	407.96
504.24	414.61
504.60	421.53
504.97	428.66
505.33	435.93
505.69	443.68
506.05	451.43
506.41	459.28
506.78	467.43
507.14	475.89
507.50	484.56
507.86	493.60
508.22	502.80
508.59	512.05
508.95	521.58
509.31	531.38
509.67	541.58
510.03	551.84
510.39	562.40
510.75	573.14
511.12	584.08
511.48	595.35
511.84	606.77
512.20	618.23
512.56	630.19
512.92	642.43
513.28	654.78
513.64	667.27
514.00	679.95
514.37	692.92
514.73	705.99
515.09	718.99
515.45	732.24
515.81	745.85
516.17	759.75
516.53	773.85
516.89	788.00
517.25	802.11
517.61	816.55
517.97	830.95
518.33	845.39
518.69	860.17
519.05	875.02
519.41	890.11
519.77	905.64
520.13	921.12
520.49	936.51
520.85	951.85
521.21	967.53
521.57	983.84
521.93	999.56
522.29	1015.86
522.65	1032.10
523.01	1048.33
523.37	1064.28
523.73	1080.43
524.09	1096.54
524.45	1112.89
524.81	1129.54
525.17	1146.19
525.53	1163.02
525.89	1179.77
526.25	1196.52
526.61	1213.01
526.97	1229.86
527.33	1246.29
527.68	1262.68
528.04	1279.10
528.40	1295.53
528.76	1312.57
529.12	1328.99
529.48	1345.79
529.84	1361.76
530.20	1378.35
530.56	1395.14
530.91	1412.36
531.27	1429.07
531.63	1445.42
531.99	1461.85
532.35	1477.73
532.71	1493.71
533.07	1509.96
533.42	1525.97
533.78	1541.93
534.14	1558.05
534.50	1573.19
534.86	1589.00
535.21	1604.22
535.57	1620.08
535.93	1635.59
536.29	1650.32
536.65	1665.38
537.00	1680.11
537.36	1695.38
537.72	1709.86
538.08	1724.33
538.44	1738.12
538.79	1751.93
539.15	1765.42
539.51	1779.15
539.87	1793.35
540.22	1806.88
540.58	1820.45
540.94	1833.42
541.29	1846.08
541.65	1858.73
542.01	1871.75
542.37	1884.11
542.72	1896.51
543.08	1908.10
543.44	1920.38
543.79	1931.57
544.15	1942.43
544.51	1953.82
544.87	1964.65
545.22	1975.49
545.58	1985.55
545.94	1995.23
546.29	2004.96
546.65	2014.98
547.01	2024.17
547.36	2032.89
547.72	2041.41
548.07	2049.37
548.43	2057.63
548.79	2065.58
549.14	2073.20
549.50	2080.52
549.86	2087.97
550.21	2095.15
550.57	2102.34
550.92	2109.00
551.28	2115.98
551.64	2123.07
551.99	2129.50
552.35	2135.63
552.70	2141.63
553.06	2147.57
553.41	2154.05
553.77	2160.15
554.13	2166.10
554.48	2172.26
554.84	2177.78
555.19	2182.91
555.55	2188.06
555.90	2192.55
556.26	2197.59
556.61	2202.11
556.97	2206.53
557.32	2210.58
557.68	2214.68
558.03	2218.91
558.39	2222.45
558.74	2226.98
559.10	2230.77
559.45	2234.44
559.81	2238.69
560.16	2242.66
560.52	2245.86
560.87	2249.22
561.23	2251.81
561.58	2254.51
561.94	2256.93
562.29	2259.03
562.64	2261.75
563.00	2264.17
563.35	2267.56
563.71	2270.76
564.06	2274.06
564.42	2277.01
564.77	2279.73
565.12	2282.09
565.48	2284.05
565.83	2286.13
566.19	2287.44
566.54	2288.29
566.89	2289.56
567.25	2290.34
567.60	2291.44
567.96	2293.21
568.31	2293.95
568.66	2295.03
569.02	2295.84
569.37	2296.21
569.72	2297.29
570.08	2297.53
570.43	2297.72
570.78	2297.26
571.14	2295.72
571.49	2294.31
571.84	2293.96
572.20	2292.90
572.55	2291.88
572.90	2290.27
573.26	2288.91
573.61	2287.27
573.96	2285.76
574.31	2282.83
574.67	2279.80
575.02	2276.27
575.37	2273.00
575.72	2269.34
576.08	2266.04
576.43	2262.58
576.78	2259.03
577.13	2255.84
577.49	2252.70
577.84	2249.17
578.19	2245.43
578.54	2241.87
578.90	2237.74
579.25	2232.26
579.60	2227.39
579.95	2222.45
580.30	2217.45
580.66	2212.25
581.01	2207.22
581.36	2202.25
581.71	2198.14
582.06	2193.75
582.42	2189.34
582.77	2184.02
583.12	2179.62
583.47	2175.03
583.82	2170.30
584.17	2164.99
584.53	2159.56
584.88	2154.02
585.23	2148.37
585.58	2142.85
585.93	2137.39
586.28	2132.44
586.63	2127.30
586.98	2122.08
587.34	2117.48
587.69	2112.61
588.04	2107.45
588.39	2101.87
588.74	2095.41
589.09	2089.29
589.44	2082.50
589.79	2076.30
590.14	2070.68
590.49	2064.08
590.84	2057.53
591.19	2051.43
591.54	2045.08
591.89	2037.87
592.25	2031.22
592.60	2024.05
592.95	2016.65
593.30	2009.38
593.65	2001.87
594.00	1994.80
594.35	1987.57
594.70	1979.33
595.05	1972.29
595.40	1964.96
595.75	1957.52
596.10	1951.44
596.45	1944.84
596.80	1938.66
597.15	1932.24
597.50	1925.40
597.85	1918.84
598.19	1912.48
598.54	1905.57
598.89	1898.91
599.24	1892.87
599.59	1886.28
599.94	1879.97
600.29	1873.61
600.64	1866.88
600.99	1859.66
601.34	1852.98
601.69	1846.00
602.04	1839.26
602.39	1831.95
602.74	1825.17
603.08	1818.64
603.43	1811.79
603.78	1804.37
604.13	1797.21
604.48	1790.08
604.83	1783.19
605.18	1776.30
605.53	1768.24
605.87	1760.02
606.22	1752.82
606.57	1744.90
606.92	1737.31
607.27	1730.24
607.62	1723.44
607.96	1716.37
608.31	1709.94
608.66	1702.36
609.01	1694.91
609.36	1687.55
609.70	1679.57
610.05	1671.69
610.40	1663.97
610.75	1655.73
611.10	1648.12
611.44	1639.70
611.79	1631.54
612.14	1622.92
612.49	1613.84
612.83	1605.50
613.18	1597.49
613.53	1589.43
613.88	1581.03
614.22	1572.89
614.57	1564.18
614.92	1556.18
615.27	1548.60
615.61	1540.18
615.96	1532.02
616.31	1524.46
616.65	1516.99
617.00	1509.37
617.35	1501.55
617.70	1493.20
618.04	1484.70
618.39	1476.39
618.74	1468.88
619.08	1460.66
619.43	1453.12
619.78	1446.10
620.12	1439.04
620.47	1431.54
620.82	1423.33
621.16	1415.85
621.51	1408.19
621.85	1400.64
622.20	1392.07
622.55	1383.75
622.89	1375.89
623.24	1368.35
623.59	1360.84
623.93	1353.19
624.28	1346.01
624.62	1338.54
624.97	1331.37
625.32	1324.52
625.66	1317.56
626.01	1310.31
626.35	1302.91
626.70	1295.10
627.04	1287.41
627.39	1279.58
627.73	1272.22
628.08	1265.31
628.43	1258.08
628.77	1250.83
629.12	1243.33
629.46	1236.11
629.81	1228.56
630.15	1221.27
630.50	1213.82
630.84	1205.72
631.19	1197.78
631.53	1190.15
631.88	1182.46
632.22	1174.93
632.57	1167.62
632.91	1160.05
633.26	1152.66
633.60	1145.24
633.95	1137.96
634.29	1130.86
634.64	1124.12
634.98	1116.60
635.32	1109.33
635.67	1102.76
636.01	1096.06
636.36	1089.25
636.70	1082.72
637.05	1076.20
637.39	1069.79
637.73	1063.31
638.08	1057.35
638.42	1051.45
638.77	1045.01
639.11	1038.64
639.45	1032.21
639.80	1025.56
640.14	1019.25
640.49	1012.81
640.83	1006.45
641.17	1000.39
641.52	994.16
641.86	987.66
642.20	981.94
642.55	975.67
642.89	969.09
643.23	962.48
643.58	956.75
643.92	950.56
644.26	944.58
644.61	938.40
644.95	932.41
645.29	925.91
645.64	919.17
645.98	912.94
646.32	906.90
646.66	900.82
647.01	895.07
647.35	889.30
647.69	883.39
648.04	877.87
648.38	872.06
648.72	866.07
649.06	860.09
649.41	854.11
649.75	848.19
650.09	842.23
650.43	836.50
650.78	830.30
651.12	824.41
651.46	818.67
651.80	813.04
652.14	807.62
652.49	802.22
652.83	797.01
653.17	791.34
653.51	785.70
653.85	780.22
654.20	774.59
654.54	768.55
654.88	762.75
655.22	756.84
655.56	751.10
655.90	745.57
656.25	740.30
656.59	734.97
656.93	729.85
657.27	724.73
657.61	719.26
657.95	714.14
658.29	709.01
658.64	703.71
658.98	698.34
659.32	692.89
659.66	687.68
660.00	682.37
660.34	677.37
660.68	672.42
661.02	667.45
661.36	662.73
661.70	658.31
662.05	653.99
662.39	649.77
662.73	645.31
663.07	640.93
663.41	636.48
663.75	632.06
664.09	627.55
664.43	623.20
664.77	619.15
665.11	614.95
665.45	610.81
665.79	606.80
666.13	602.75
666.47	598.63
666.81	594.46
667.15	590.38
667.49	586.46
667.83	582.64
668.17	578.72
668.51	574.66
668.85	570.54
669.19	566.66
669.53	562.79
669.87	558.94
670.21	555.31
670.55	551.68
670.89	548.18
671.23	544.76
671.57	541.22
671.91	537.75
672.25	534.18
672.58	530.66
672.92	527.21
673.26	523.98
673.60	520.86
673.94	517.80
674.28	514.92
674.62	511.96
674.96	508.90
675.30	505.93
675.64	503.06
675.97	500.28
676.31	497.46
676.65	494.51
676.99	491.81
677.33	488.93
677.67	486.05
678.01	483.04
678.34	480.03
678.68	477.15
679.02	474.25
679.36	471.47
679.70	468.75
680.04	465.97
680.37	463.13
680.71	460.34
681.05	457.67
681.39	454.93
681.73	452.29
682.06	449.73
682.40	447.23
682.74	444.62
683.08	442.08
683.42	439.44
683.75	436.96
684.09	434.37
684.43	431.86
684.77	429.45
685.10	427.08
685.44	424.73
685.78	422.39
686.12	420.17
686.45	417.98
686.79	415.68
687.13	413.49
687.46	411.30
687.80	409.13
688.14	406.91
688.48	404.83
688.81	402.58
689.15	400.45
689.49	398.29
689.82	396.22
690.16	394.10
690.50	392.14
690.83	390.19
691.17	388.20
691.51	386.32
691.84	384.48
692.18	382.58
692.52	380.66
692.85	378.71
693.19	376.76
693.52	374.88
693.86	373.02
694.20	371.26
694.53	369.43
694.87	367.60
695.21	365.82
695.54	363.99
695.88	362.26
696.21	360.53
696.55	358.83
696.88	357.14
697.22	355.45
697.56	353.76
697.89	352.12
698.23	350.58
698.56	348.98
698.90	347.38
699.23	345.74
699.57	344.19
699.90	342.70
700.24	341.21
700.58	339.63
700.91	338.17
701.25	336.71
701.58	335.39
701.92	334.04
702.25	332.67
702.59	331.32
702.92	329.98
703.26	328.64
703.59	327.37
703.93	326.22
704.26	325.01
704.60	323.79
704.93	322.49
705.26	321.18
705.60	320.00
705.93	318.83
706.27	317.77
706.60	316.72
706.94	315.66
707.27	314.49
707.61	313.44
707.94	312.39
708.27	311.29
708.61	310.18
708.94	309.15
709.28	308.13
709.61	307.14
709.94	306.21
710.28	305.20
710.61	304.22
710.95	303.13
711.28	302.22
711.61	301.25
711.95	300.35
712.28	299.46
712.61	298.46
712.95	297.53
713.28	296.64
713.61	295.73
713.95	294.78
714.28	293.97
714.61	293.12
714.95	292.26
715.28	291.41
715.61	290.58
715.95	289.71
716.28	288.86
716.61	288.05
716.95	287.22
717.28	286.47
717.61	285.69
717.94	284.94
718.28	284.16
718.61	283.45
718.94	282.75
719.27	282.07
719.61	281.42
719.94	280.77
720.27	280.07
720.60	279.39
720.94	278.75
721.27	278.17
721.60	277.59
721.93	277.02
722.27	276.48
722.60	275.89
722.93	275.31
723.26	274.76
723.59	274.21
723.93	273.70
724.26	273.15
724.59	272.58
724.92	272.08
725.25	271.56
725.59	271.02
725.92	270.51
726.25	269.98
726.58	269.50
726.91	268.94
727.24	268.47
727.57	268.00
727.91	267.55
728.24	267.06
728.57	266.55
728.90	266.10
729.23	265.58
729.56	265.15
729.89	264.69
730.22	264.21
730.55	263.71
730.89	263.24
731.22	262.79
731.55	262.36
731.88	261.91
732.21	261.47
732.54	261.04
732.87	260.61
733.20	260.21
733.53	259.85
733.86	259.50
734.19	259.08
734.52	258.75
734.85	258.44
735.18	258.01
735.51	257.66
735.84	257.28
736.17	256.96
736.50	256.55
736.83	256.35
737.16	256.03
737.49	255.72
737.82	255.37
738.15	255.02
738.48	254.67
738.81	254.36
739.14	254.02
739.47	253.73
739.80	253.41
740.13	253.10
740.46	252.74
740.79	252.39
741.12	252.11
741.45	251.79
741.78	251.41
742.11	251.17
742.44	250.84
742.77	250.55
743.10	250.23
743.43	249.97
743.75	249.54
744.08	249.39
744.41	249.11
744.74	248.84
745.07	248.57
745.40	248.36
745.73	248.10
746.06	247.86
746.39	247.57
746.71	247.31
747.04	247.03
747.37	246.77
747.70	246.56
748.03	246.31
748.36	246.05
748.68	245.84
749.01	245.57
749.34	245.39
749.67	245.17
750.00	244.92
750.33	244.77
750.65	244.56
750.98	244.22
751.31	244.01
751.64	243.79
751.97	243.67
752.29	243.44
752.62	243.21
752.95	243.02
753.28	242.83
753.60	242.64
753.93	242.48
754.26	242.30
754.59	242.08
754.91	241.84
755.24	241.64
755.57	241.42
755.90	241.22
756.22	241.00
756.55	240.82
756.88	240.63
757.20	240.37
757.53	240.20
757.86	240.04
758.19	239.88
758.51	239.70
758.84	239.46
759.17	239.27
759.49	239.12
759.82	238.99
760.15	238.86
760.47	238.70
760.80	238.55
761.13	238.42
761.45	238.24
761.78	238.10
762.11	237.95
762.43	237.79
762.76	237.65
763.08	237.51
763.41	237.35
763.74	237.26
764.06	237.14
764.39	237.00
764.71	236.86
765.04	236.68
765.37	236.51
765.69	236.39
766.02	236.30
766.34	236.17
766.67	235.98
767.00	235.86
767.32	235.76
767.65	235.72
767.97	235.61
768.30	235.53
768.62	235.41
768.95	235.29
769.27	235.21
769.60	235.12
769.92	235.01
770.25	234.89
770.57	234.77
770.90	234.64
771.22	234.51
771.55	234.40
771.87	234.33
772.20	234.26
772.52	234.22
772.85	234.21
773.17	234.11
773.50	234.06
773.82	233.97
774.15	233.84
774.47	233.64
774.80	233.54
775.12	233.43
775.45	233.36
775.77	233.32
776.09	233.21
776.42	233.13
776.74	233.10
777.07	233.00
777.39	232.92
777.72	232.85
778.04	232.80
778.36	232.69
778.69	232.62
779.01	232.55
779.33	232.41
779.66	232.23
779.98	232.15
780.31	232.09
780.63	232.03
780.95	231.96
781.28	231.88
781.60	231.80
781.92	231.77
782.25	231.73
782.57	231.62
782.89	231.57
783.22	231.47
783.54	231.38
783.86	231.33
784.19	231.25
784.51	231.25
784.83	231.19
785.16	231.16
785.48	231.08
785.80	231.06
786.12	231.04
786.45	231.00
786.77	230.98
787.09	230.89
