SpectraSuite Data File
++++++++++++++++++++++++++++++++++++
Date: Fri Feb 01 15:52:56 EST 2013
User: group
Dark Spectrum Present: No
Reference Spectrum Present: No
Number of Sampled Component Spectra: 1
Spectrometers: USB2E7196
Integration Time (usec): 35000 (USB2E7196)
Spectra Averaged: 100 (USB2E7196)
Boxcar Smoothing: 10 (USB2E7196)
Correct for Electrical Dark: No (USB2E7196)
Strobe/Lamp Enabled: No (USB2E7196)
Correct for Detector Non-linearity: No (USB2E7196)
Correct for Stray Light: No (USB2E7196)
Number of Pixels in Processed Spectrum: 2048
>>>>>Begin Processed Spectral Data<<<<<
339.09	0.00
339.48	214.23
339.86	216.51
340.24	217.97
340.63	219.57
341.01	221.63
341.39	222.09
341.78	223.25
342.16	224.76
342.54	224.73
342.93	213.33
343.31	224.09
343.69	224.66
344.07	225.09
344.46	225.52
344.84	225.88
345.22	226.12
345.60	226.33
345.99	226.53
346.37	226.64
346.75	226.74
347.13	226.82
347.52	226.86
347.90	226.92
348.28	226.94
348.66	226.93
349.05	226.91
349.43	226.94
349.81	226.98
350.19	227.01
350.57	227.06
350.96	227.10
351.34	227.19
351.72	227.23
352.10	227.33
352.48	227.36
352.87	227.39
353.25	227.45
353.63	227.48
354.01	227.51
354.39	227.57
354.77	227.64
355.15	227.73
355.54	227.78
355.92	227.80
356.30	227.83
356.68	227.96
357.06	228.01
357.44	228.05
357.82	228.10
358.20	228.19
358.58	228.20
358.97	228.23
359.35	228.25
359.73	228.36
360.11	228.42
360.49	228.48
360.87	228.55
361.25	228.59
361.63	228.68
362.01	228.72
362.39	228.74
362.77	228.76
363.15	228.77
363.53	228.82
363.91	228.85
364.29	228.91
364.67	228.79
365.05	228.82
365.43	228.83
365.81	228.82
366.19	228.82
366.57	228.87
366.95	228.89
367.33	228.89
367.71	228.85
368.09	228.84
368.47	228.82
368.85	228.80
369.23	228.82
369.61	228.78
369.99	228.77
370.37	228.74
370.75	228.74
371.13	228.69
371.51	228.60
371.89	228.55
372.27	228.50
372.65	228.51
373.03	228.46
373.41	228.39
373.78	228.37
374.16	228.28
374.54	228.19
374.92	228.12
375.30	228.07
375.68	228.02
376.06	227.96
376.44	227.88
376.82	227.84
377.19	227.76
377.57	227.69
377.95	227.59
378.33	227.53
378.71	227.38
379.09	227.36
379.47	227.36
379.84	227.33
380.22	227.23
380.60	227.17
380.98	227.09
381.36	227.03
381.73	226.92
382.11	226.86
382.49	226.82
382.87	226.76
383.25	226.69
383.62	226.75
384.00	226.66
384.38	226.60
384.76	226.57
385.13	226.56
385.51	226.54
385.89	226.51
386.27	226.49
386.64	226.49
387.02	226.38
387.40	226.30
387.78	226.22
388.15	226.20
388.53	226.15
388.91	226.12
389.29	226.10
389.66	226.11
390.04	226.10
390.42	226.09
390.79	226.08
391.17	226.08
391.55	225.97
391.92	225.99
392.30	226.01
392.68	225.95
393.05	225.91
393.43	225.92
393.81	225.93
394.18	225.90
394.56	225.93
394.94	226.01
395.31	226.03
395.69	226.11
396.06	226.16
396.44	226.20
396.82	226.26
397.19	226.32
397.57	226.35
397.95	226.39
398.32	226.41
398.70	226.46
399.07	226.51
399.45	226.57
399.82	226.61
400.20	226.68
400.58	226.75
400.95	226.83
401.33	226.91
401.70	227.08
402.08	227.18
402.45	227.26
402.83	227.37
403.20	227.48
403.58	227.54
403.95	227.66
404.33	227.77
404.71	227.91
405.08	228.14
405.46	228.27
405.83	228.45
406.21	228.60
406.58	228.78
406.96	228.96
407.33	229.15
407.70	229.34
408.08	229.62
408.45	229.83
408.83	230.04
409.20	230.24
409.58	230.41
409.95	230.68
410.33	230.94
410.70	231.18
411.08	231.48
411.45	231.81
411.82	232.07
412.20	232.42
412.57	232.79
412.95	233.06
413.32	233.48
413.69	233.88
414.07	234.33
414.44	234.80
414.82	235.27
415.19	235.80
415.56	236.37
415.94	236.88
416.31	237.55
416.68	238.20
417.06	238.96
417.43	239.63
417.81	240.41
418.18	241.21
418.55	242.05
418.93	242.92
419.30	243.83
419.67	244.78
420.04	245.76
420.42	246.75
420.79	247.90
421.16	249.07
421.54	250.24
421.91	251.43
422.28	252.71
422.66	254.03
423.03	255.34
423.40	256.64
423.77	258.04
424.15	259.45
424.52	260.93
424.89	262.50
425.26	264.04
425.64	265.48
426.01	267.07
426.38	268.71
426.75	270.42
427.13	272.14
427.50	273.98
427.87	275.86
428.24	277.74
428.61	279.47
428.99	281.37
429.36	283.48
429.73	285.53
430.10	287.53
430.47	289.59
430.85	291.74
431.22	293.97
431.59	296.38
431.96	298.61
432.33	301.10
432.70	303.44
433.08	306.25
433.45	308.88
433.82	311.47
434.19	314.34
434.56	317.15
434.93	319.79
435.30	322.37
435.68	325.24
436.05	328.05
436.42	330.89
436.79	333.46
437.16	336.14
437.53	338.99
437.90	341.84
438.27	344.57
438.64	347.35
439.01	349.98
439.38	352.25
439.75	354.43
440.13	356.93
440.50	359.28
440.87	361.11
441.24	363.08
441.61	365.26
441.98	366.80
442.35	368.59
442.72	370.51
443.09	372.36
443.46	373.37
443.83	373.98
444.20	374.48
444.57	375.27
444.94	375.58
445.31	375.94
445.68	376.24
446.05	376.35
446.42	375.99
446.79	375.62
447.16	375.12
447.53	374.80
447.90	373.63
448.27	372.52
448.64	370.97
449.01	369.80
449.37	367.81
449.74	365.92
450.11	363.70
450.48	361.19
450.85	358.64
451.22	356.53
451.59	354.51
451.96	352.55
452.33	350.00
452.70	347.64
453.07	344.79
453.43	341.95
453.80	339.18
454.17	336.49
454.54	333.89
454.91	331.24
455.28	328.56
455.65	326.11
456.02	323.65
456.38	321.53
456.75	318.88
457.12	316.65
457.49	314.41
457.86	312.19
458.23	310.36
458.59	308.32
458.96	306.27
459.33	304.41
459.70	302.56
460.07	301.07
460.43	299.33
460.80	297.75
461.17	296.26
461.54	294.79
461.91	293.36
462.27	291.93
462.64	290.60
463.01	289.31
463.38	288.02
463.74	286.65
464.11	285.45
464.48	284.44
464.85	283.36
465.21	282.49
465.58	281.60
465.95	280.51
466.32	279.61
466.68	278.65
467.05	277.75
467.42	276.88
467.78	275.92
468.15	275.07
468.52	274.38
468.88	273.51
469.25	272.72
469.62	272.10
469.98	271.43
470.35	270.83
470.72	270.20
471.08	269.54
471.45	269.00
471.82	268.45
472.18	267.86
472.55	267.40
472.92	266.86
473.28	266.35
473.65	265.90
474.02	265.48
474.38	265.15
474.75	264.85
475.11	264.49
475.48	264.21
475.85	263.97
476.21	263.72
476.58	263.59
476.94	263.43
477.31	263.29
477.67	263.14
478.04	263.04
478.41	262.96
478.77	262.96
479.14	262.92
479.50	262.92
479.87	262.99
480.23	263.09
480.60	263.18
480.96	263.31
481.33	263.49
481.69	263.65
482.06	263.78
482.42	263.99
482.79	264.25
483.15	264.60
483.52	264.95
483.88	265.31
484.25	265.68
484.61	266.12
484.98	266.52
485.34	267.08
485.71	267.64
486.07	268.24
486.44	268.83
486.80	269.49
487.17	270.22
487.53	271.01
487.90	271.83
488.26	272.73
488.62	273.68
488.99	274.66
489.35	275.73
489.72	276.90
490.08	278.08
490.44	279.32
490.81	280.65
491.17	282.05
491.54	283.55
491.90	285.08
492.26	286.71
492.63	288.46
492.99	290.23
493.36	292.10
493.72	294.13
494.08	296.25
494.45	298.50
494.81	300.92
495.17	303.37
495.54	305.92
495.90	308.61
496.26	311.45
496.63	314.41
496.99	317.50
497.35	320.72
497.72	324.12
498.08	327.65
498.44	331.32
498.80	335.21
499.17	339.23
499.53	343.47
499.89	347.85
500.26	352.40
500.62	357.10
500.98	362.08
501.34	367.19
501.71	372.50
502.07	377.98
502.43	383.54
502.79	389.31
503.16	395.45
503.52	401.77
503.88	408.18
504.24	414.87
504.60	421.79
504.97	428.94
505.33	436.26
505.69	443.99
506.05	451.80
506.41	459.66
506.78	467.79
507.14	476.23
507.50	484.97
507.86	493.96
508.22	503.16
508.59	512.41
508.95	521.98
509.31	531.75
509.67	541.85
510.03	552.22
510.39	562.85
510.75	573.60
511.12	584.45
511.48	595.80
511.84	607.28
512.20	618.72
512.56	630.68
512.92	642.84
513.28	655.07
513.64	667.61
514.00	680.37
514.37	693.35
514.73	706.40
515.09	719.39
515.45	732.70
515.81	746.23
516.17	760.26
516.53	774.38
516.89	788.62
517.25	802.78
517.61	817.13
517.97	831.50
518.33	845.93
518.69	860.74
519.05	875.65
519.41	890.72
519.77	906.33
520.13	921.72
520.49	937.18
520.85	952.75
521.21	968.39
521.57	984.64
521.93	1000.39
522.29	1016.79
522.65	1033.09
523.01	1049.34
523.37	1065.45
523.73	1081.54
524.09	1097.63
524.45	1113.94
524.81	1130.58
525.17	1147.34
525.53	1164.33
525.89	1181.25
526.25	1198.15
526.61	1214.59
526.97	1231.34
527.33	1247.81
527.68	1264.46
528.04	1280.93
528.40	1297.44
528.76	1314.44
529.12	1330.93
529.48	1347.72
529.84	1363.73
530.20	1380.31
530.56	1397.22
530.91	1414.54
531.27	1431.30
531.63	1447.73
531.99	1464.36
532.35	1480.27
532.71	1496.26
533.07	1512.44
533.42	1528.35
533.78	1544.28
534.14	1560.51
534.50	1575.86
534.86	1591.69
535.21	1606.82
535.57	1622.67
535.93	1638.11
536.29	1652.89
536.65	1668.02
537.00	1682.86
537.36	1698.12
537.72	1712.62
538.08	1727.03
538.44	1740.88
538.79	1754.75
539.15	1768.39
539.51	1782.02
539.87	1796.21
540.22	1809.86
540.58	1823.70
540.94	1836.98
541.29	1849.86
541.65	1862.40
542.01	1875.60
542.37	1887.86
542.72	1900.38
543.08	1912.11
543.44	1924.50
543.79	1935.81
544.15	1946.79
544.51	1958.39
544.87	1969.41
545.22	1980.25
545.58	1990.50
545.94	2000.08
546.29	2009.83
546.65	2019.60
547.01	2028.87
547.36	2037.68
547.72	2046.15
548.07	2053.97
548.43	2062.13
548.79	2070.22
549.14	2077.90
549.50	2085.18
549.86	2092.87
550.21	2100.15
550.57	2107.33
550.92	2113.94
551.28	2120.89
551.64	2127.77
551.99	2134.15
552.35	2140.25
552.70	2146.32
553.06	2152.35
553.41	2158.78
553.77	2164.85
554.13	2171.03
554.48	2177.10
554.84	2182.54
555.19	2187.84
555.55	2192.84
555.90	2197.30
556.26	2202.06
556.61	2206.68
556.97	2210.96
557.32	2215.10
557.68	2219.15
558.03	2223.38
558.39	2227.12
558.74	2231.75
559.10	2235.63
559.45	2239.37
559.81	2243.70
560.16	2247.56
560.52	2250.78
560.87	2254.13
561.23	2256.80
561.58	2259.79
561.94	2262.27
562.29	2264.64
562.64	2267.29
563.00	2269.83
563.35	2273.22
563.71	2276.40
564.06	2279.71
564.42	2282.59
564.77	2285.01
565.12	2287.27
565.48	2289.18
565.83	2290.95
566.19	2292.24
566.54	2293.18
566.89	2294.35
567.25	2294.70
567.60	2295.89
567.96	2297.39
568.31	2298.46
568.66	2299.57
569.02	2300.17
569.37	2300.46
569.72	2301.45
570.08	2301.53
570.43	2301.65
570.78	2301.07
571.14	2299.50
571.49	2298.08
571.84	2297.75
572.20	2296.69
572.55	2295.76
572.90	2294.31
573.26	2292.96
573.61	2291.24
573.96	2289.44
574.31	2286.38
574.67	2283.54
575.02	2280.09
575.37	2276.82
575.72	2272.86
576.08	2269.58
576.43	2266.10
576.78	2262.46
577.13	2259.21
577.49	2256.18
577.84	2252.59
578.19	2248.93
578.54	2245.33
578.90	2241.15
579.25	2235.56
579.60	2230.48
579.95	2225.34
580.30	2220.28
580.66	2215.15
581.01	2210.13
581.36	2205.27
581.71	2201.02
582.06	2196.63
582.42	2192.07
582.77	2186.83
583.12	2182.19
583.47	2177.52
583.82	2172.65
584.17	2167.56
584.53	2161.96
584.88	2156.40
585.23	2150.77
585.58	2145.44
585.93	2140.04
586.28	2135.19
586.63	2130.16
586.98	2125.14
587.34	2120.49
587.69	2115.61
588.04	2110.16
588.39	2104.65
588.74	2098.13
589.09	2092.09
589.44	2085.30
589.79	2079.40
590.14	2073.91
590.49	2067.40
590.84	2060.90
591.19	2054.90
591.54	2048.40
591.89	2041.08
592.25	2034.19
592.60	2026.85
592.95	2019.04
593.30	2011.67
593.65	2004.12
594.00	1997.12
594.35	1989.95
594.70	1981.91
595.05	1974.68
595.40	1967.63
595.75	1960.13
596.10	1954.01
596.45	1947.28
596.80	1941.10
597.15	1934.43
597.50	1927.23
597.85	1920.86
598.19	1914.21
598.54	1906.94
598.89	1900.24
599.24	1894.32
599.59	1887.57
599.94	1881.47
600.29	1875.26
600.64	1868.73
600.99	1861.29
601.34	1854.33
601.69	1847.45
602.04	1840.58
602.39	1833.19
602.74	1826.27
603.08	1819.52
603.43	1812.73
603.78	1805.36
604.13	1798.12
604.48	1790.76
604.83	1783.83
605.18	1776.74
605.53	1768.74
605.87	1760.71
606.22	1753.50
606.57	1745.60
606.92	1738.45
607.27	1731.21
607.62	1724.20
607.96	1716.74
608.31	1710.05
608.66	1702.56
609.01	1694.98
609.36	1687.45
609.70	1679.55
610.05	1671.47
610.40	1663.58
610.75	1655.29
611.10	1647.45
611.44	1638.94
611.79	1631.01
612.14	1622.41
612.49	1613.23
612.83	1604.94
613.18	1596.91
613.53	1588.67
613.88	1580.07
614.22	1571.66
614.57	1563.23
614.92	1555.26
615.27	1547.77
615.61	1539.46
615.96	1531.39
616.31	1523.69
616.65	1516.33
617.00	1508.70
617.35	1501.01
617.70	1492.77
618.04	1484.30
618.39	1476.29
618.74	1468.82
619.08	1460.49
619.43	1452.81
619.78	1445.90
620.12	1438.66
620.47	1431.15
620.82	1423.12
621.16	1415.89
621.51	1408.39
621.85	1400.76
622.20	1392.25
622.55	1383.97
622.89	1376.35
623.24	1368.72
623.59	1361.36
623.93	1353.85
624.28	1346.57
624.62	1339.08
624.97	1331.93
625.32	1325.16
625.66	1318.12
626.01	1310.93
626.35	1303.42
626.70	1295.73
627.04	1288.10
627.39	1280.33
627.73	1272.89
628.08	1265.93
628.43	1258.58
628.77	1251.02
629.12	1243.43
629.46	1236.28
629.81	1228.82
630.15	1221.39
630.50	1213.95
630.84	1205.77
631.19	1197.88
631.53	1190.42
631.88	1182.81
632.22	1175.14
632.57	1167.82
632.91	1160.35
633.26	1152.91
633.60	1145.60
633.95	1138.47
634.29	1131.40
634.64	1124.71
634.98	1117.32
635.32	1110.11
635.67	1103.47
636.01	1096.94
636.36	1090.07
636.70	1083.51
637.05	1076.93
637.39	1070.58
637.73	1064.15
638.08	1058.28
638.42	1052.18
638.77	1045.68
639.11	1039.10
639.45	1032.77
639.80	1026.12
640.14	1019.60
640.49	1013.07
640.83	1006.71
641.17	1000.50
641.52	994.17
641.86	987.79
642.20	981.94
642.55	975.79
642.89	969.29
643.23	962.78
643.58	956.97
643.92	950.80
644.26	944.73
644.61	938.63
644.95	932.49
645.29	925.90
645.64	919.19
645.98	912.97
646.32	907.19
646.66	901.20
647.01	895.40
647.35	889.68
647.69	883.81
648.04	878.29
648.38	872.47
648.72	866.44
649.06	860.30
649.41	854.47
649.75	848.43
650.09	842.57
650.43	836.71
650.78	830.57
651.12	824.55
651.46	818.82
651.80	813.08
652.14	807.66
652.49	802.22
652.83	797.08
653.17	791.34
653.51	785.59
653.85	780.20
654.20	774.51
654.54	768.54
654.88	762.84
655.22	756.97
655.56	751.30
655.90	745.86
656.25	740.61
656.59	735.24
656.93	730.17
657.27	724.90
657.61	719.53
657.95	714.51
658.29	709.48
658.64	704.23
658.98	698.97
659.32	693.51
659.66	688.32
660.00	682.91
660.34	678.00
660.68	673.05
661.02	668.00
661.36	663.30
661.70	658.78
662.05	654.41
662.39	650.11
662.73	645.70
663.07	641.34
663.41	636.96
663.75	632.44
664.09	627.84
664.43	623.52
664.77	619.46
665.11	615.20
665.45	611.10
665.79	606.98
666.13	602.76
666.47	598.77
666.81	594.60
667.15	590.53
667.49	586.60
667.83	582.83
668.17	578.90
668.51	574.86
668.85	570.83
669.19	567.01
669.53	563.14
669.87	559.21
670.21	555.57
670.55	551.91
670.89	548.52
671.23	545.12
671.57	541.54
671.91	537.95
672.25	534.45
672.58	530.88
672.92	527.57
673.26	524.40
673.60	521.22
673.94	518.15
674.28	515.23
674.62	512.30
674.96	509.18
675.30	506.29
675.64	503.36
675.97	500.61
676.31	497.68
676.65	494.79
676.99	492.06
677.33	489.13
677.67	486.29
678.01	483.17
678.34	480.15
678.68	477.31
679.02	474.49
679.36	471.70
679.70	468.95
680.04	466.12
680.37	463.23
680.71	460.47
681.05	457.81
681.39	455.08
681.73	452.39
682.06	449.89
682.40	447.32
682.74	444.78
683.08	442.21
683.42	439.63
683.75	437.11
684.09	434.60
684.43	432.15
684.77	429.67
685.10	427.38
685.44	425.16
685.78	422.83
686.12	420.59
686.45	418.30
686.79	416.03
687.13	413.83
687.46	411.73
687.80	409.58
688.14	407.42
688.48	405.38
688.81	403.16
689.15	400.99
689.49	398.81
689.82	396.78
690.16	394.73
690.50	392.80
690.83	390.87
691.17	388.91
691.51	386.97
691.84	385.14
692.18	383.19
692.52	381.14
692.85	379.26
693.19	377.35
693.52	375.54
693.86	373.75
694.20	371.97
694.53	370.15
694.87	368.29
695.21	366.46
695.54	364.62
695.88	362.86
696.21	361.12
696.55	359.49
696.88	357.79
697.22	356.13
697.56	354.50
697.89	352.81
698.23	351.17
698.56	349.55
698.90	347.93
699.23	346.28
699.57	344.72
699.90	343.18
700.24	341.64
700.58	340.08
700.91	338.56
701.25	337.10
701.58	335.71
701.92	334.31
702.25	332.95
702.59	331.55
702.92	330.26
703.26	328.94
703.59	327.63
703.93	326.43
704.26	325.14
704.60	323.80
704.93	322.50
705.26	321.25
705.60	320.10
705.93	318.94
706.27	317.90
706.60	316.86
706.94	315.78
707.27	314.65
707.61	313.60
707.94	312.58
708.27	311.49
708.61	310.44
708.94	309.45
709.28	308.48
709.61	307.54
709.94	306.55
710.28	305.52
710.61	304.52
710.95	303.43
711.28	302.56
711.61	301.63
711.95	300.74
712.28	299.78
712.61	298.81
712.95	297.87
713.28	296.96
713.61	296.03
713.95	295.15
714.28	294.31
714.61	293.46
714.95	292.62
715.28	291.78
715.61	290.90
715.95	290.05
716.28	289.20
716.61	288.37
716.95	287.57
717.28	286.85
717.61	286.12
717.94	285.41
718.28	284.56
718.61	283.87
718.94	283.18
719.27	282.55
719.61	281.89
719.94	281.27
720.27	280.62
720.60	279.96
720.94	279.31
721.27	278.71
721.60	278.12
721.93	277.52
722.27	276.96
722.60	276.42
722.93	275.85
723.26	275.32
723.59	274.79
723.93	274.22
724.26	273.66
724.59	273.11
724.92	272.58
725.25	272.09
725.59	271.56
725.92	271.06
726.25	270.53
726.58	270.05
726.91	269.52
727.24	269.05
727.57	268.59
727.91	268.07
728.24	267.59
728.57	267.12
728.90	266.69
729.23	266.19
729.56	265.76
729.89	265.29
730.22	264.80
730.55	264.31
730.89	263.87
731.22	263.43
731.55	262.96
731.88	262.53
732.21	262.10
732.54	261.66
732.87	261.24
733.20	260.86
733.53	260.47
733.86	260.11
734.19	259.68
734.52	259.29
734.85	259.01
735.18	258.60
735.51	258.19
735.84	257.77
736.17	257.45
736.50	257.04
736.83	256.82
737.16	256.49
737.49	256.14
737.82	255.79
738.15	255.46
738.48	255.13
738.81	254.79
739.14	254.46
739.47	254.15
739.80	253.82
740.13	253.53
740.46	253.22
740.79	252.86
741.12	252.54
741.45	252.26
741.78	251.92
742.11	251.66
742.44	251.35
742.77	251.09
743.10	250.76
743.43	250.45
743.75	250.02
744.08	249.85
744.41	249.58
744.74	249.33
745.07	249.04
745.40	248.78
745.73	248.55
746.06	248.27
746.39	247.99
746.71	247.75
747.04	247.45
747.37	247.16
747.70	246.94
748.03	246.68
748.36	246.43
748.68	246.18
749.01	245.90
749.34	245.68
749.67	245.43
750.00	245.24
750.33	245.08
750.65	244.88
750.98	244.55
751.31	244.35
751.64	244.13
751.97	243.94
752.29	243.74
752.62	243.50
752.95	243.31
753.28	243.12
753.60	242.91
753.93	242.75
754.26	242.55
754.59	242.31
754.91	242.13
755.24	241.95
755.57	241.75
755.90	241.58
756.22	241.36
756.55	241.17
756.88	240.94
757.20	240.72
757.53	240.56
757.86	240.41
758.19	240.23
758.51	240.03
758.84	239.82
759.17	239.66
759.49	239.51
759.82	239.41
760.15	239.22
760.47	239.09
760.80	238.89
761.13	238.77
761.45	238.64
761.78	238.50
762.11	238.33
762.43	238.22
762.76	238.09
763.08	237.99
763.41	237.86
763.74	237.74
764.06	237.63
764.39	237.46
764.71	237.33
765.04	237.21
765.37	237.11
765.69	237.00
766.02	236.85
766.34	236.69
766.67	236.50
767.00	236.43
767.32	236.32
767.65	236.31
767.97	236.20
768.30	236.08
768.62	235.95
768.95	235.83
769.27	235.69
769.60	235.56
769.92	235.42
770.25	235.29
770.57	235.15
770.90	235.04
771.22	234.94
771.55	234.83
771.87	234.73
772.20	234.64
772.52	234.63
772.85	234.67
773.17	234.61
773.50	234.52
773.82	234.39
774.15	234.25
774.47	234.04
774.80	233.96
775.12	233.88
775.45	233.83
775.77	233.74
776.09	233.66
776.42	233.58
776.74	233.52
777.07	233.48
777.39	233.43
777.72	233.35
778.04	233.30
778.36	233.22
778.69	233.13
779.01	233.02
779.33	232.85
779.66	232.66
779.98	232.60
780.31	232.56
780.63	232.52
780.95	232.52
781.28	232.48
781.60	232.40
781.92	232.33
782.25	232.24
782.57	232.20
782.89	232.16
783.22	232.08
783.54	232.04
783.86	231.96
784.19	231.91
784.51	231.88
784.83	231.84
785.16	231.78
785.48	231.74
785.80	231.71
786.12	231.70
786.45	231.66
786.77	231.62
787.09	231.57
