SpectraSuite Data File
++++++++++++++++++++++++++++++++++++
Date: Fri Feb 01 18:02:20 EST 2013
User: group
Dark Spectrum Present: No
Reference Spectrum Present: No
Number of Sampled Component Spectra: 1
Spectrometers: USB2E7196
Integration Time (usec): 35000 (USB2E7196)
Spectra Averaged: 100 (USB2E7196)
Boxcar Smoothing: 10 (USB2E7196)
Correct for Electrical Dark: No (USB2E7196)
Strobe/Lamp Enabled: No (USB2E7196)
Correct for Detector Non-linearity: No (USB2E7196)
Correct for Stray Light: No (USB2E7196)
Number of Pixels in Processed Spectrum: 2048
>>>>>Begin Processed Spectral Data<<<<<
339.09	0.00
339.48	212.92
339.86	214.36
340.24	215.76
340.63	216.78
341.01	219.38
341.39	219.99
341.78	221.07
342.16	222.32
342.54	222.54
342.93	211.24
343.31	221.92
343.69	222.46
344.07	222.93
344.46	223.34
344.84	223.72
345.22	223.99
345.60	224.23
345.99	224.39
346.37	224.51
346.75	224.61
347.13	224.66
347.52	224.72
347.90	224.78
348.28	224.80
348.66	224.84
349.05	224.86
349.43	224.91
349.81	224.94
350.19	224.97
350.57	225.04
350.96	225.11
351.34	225.18
351.72	225.27
352.10	225.36
352.48	225.45
352.87	225.50
353.25	225.55
353.63	225.61
354.01	225.73
354.39	225.83
354.77	225.93
355.15	226.05
355.54	226.09
355.92	226.13
356.30	226.22
356.68	226.37
357.06	226.48
357.44	226.54
357.82	226.61
358.20	226.71
358.58	226.79
358.97	226.83
359.35	226.93
359.73	227.03
360.11	227.10
360.49	227.16
360.87	227.25
361.25	227.34
361.63	227.40
362.01	227.47
362.39	227.50
362.77	227.54
363.15	227.59
363.53	227.67
363.91	227.72
364.29	227.74
364.67	227.67
365.05	227.70
365.43	227.71
365.81	227.75
366.19	227.81
366.57	227.84
366.95	227.87
367.33	227.85
367.71	227.81
368.09	227.82
368.47	227.84
368.85	227.81
369.23	227.83
369.61	227.79
369.99	227.76
370.37	227.75
370.75	227.75
371.13	227.70
371.51	227.63
371.89	227.61
372.27	227.57
372.65	227.56
373.03	227.50
373.41	227.47
373.78	227.39
374.16	227.26
374.54	227.18
374.92	227.11
375.30	227.04
375.68	226.98
376.06	226.94
376.44	226.86
376.82	226.82
377.19	226.70
377.57	226.66
377.95	226.58
378.33	226.53
378.71	226.40
379.09	226.33
379.47	226.30
379.84	226.25
380.22	226.21
380.60	226.10
380.98	226.03
381.36	225.95
381.73	225.89
382.11	225.85
382.49	225.80
382.87	225.74
383.25	225.71
383.62	225.75
384.00	225.63
384.38	225.59
384.76	225.52
385.13	225.53
385.51	225.47
385.89	225.40
386.27	225.32
386.64	225.31
387.02	225.29
387.40	225.24
387.78	225.18
388.15	225.12
388.53	225.11
388.91	225.09
389.29	225.07
389.66	225.03
390.04	225.01
390.42	225.00
390.79	224.99
391.17	224.98
391.55	224.88
391.92	224.90
392.30	224.88
392.68	224.86
393.05	224.86
393.43	224.86
393.81	224.88
394.18	224.89
394.56	224.88
394.94	224.91
395.31	224.91
395.69	224.97
396.06	224.99
396.44	225.01
396.82	225.03
397.19	225.09
397.57	225.14
397.95	225.17
398.32	225.23
398.70	225.26
399.07	225.37
399.45	225.43
399.82	225.49
400.20	225.56
400.58	225.65
400.95	225.70
401.33	225.77
401.70	225.91
402.08	226.04
402.45	226.13
402.83	226.22
403.20	226.34
403.58	226.45
403.95	226.61
404.33	226.76
404.71	226.89
405.08	227.12
405.46	227.27
405.83	227.49
406.21	227.62
406.58	227.83
406.96	227.98
407.33	228.21
407.70	228.45
408.08	228.73
408.45	228.99
408.83	229.31
409.20	229.59
409.58	229.84
409.95	230.15
410.33	230.55
410.70	230.90
411.08	231.29
411.45	231.70
411.82	232.10
412.20	232.53
412.57	233.07
412.95	233.45
413.32	234.01
413.69	234.53
414.07	235.12
414.44	235.73
414.82	236.37
415.19	237.08
415.56	237.80
415.94	238.58
416.31	239.45
416.68	240.27
417.06	241.29
417.43	242.22
417.81	243.22
418.18	244.26
418.55	245.38
418.93	246.56
419.30	247.75
419.67	249.01
420.04	250.32
420.42	251.66
420.79	253.23
421.16	254.76
421.54	256.33
421.91	258.00
422.28	259.70
422.66	261.52
423.03	263.28
423.40	265.10
423.77	267.01
424.15	268.93
424.52	270.94
424.89	273.07
425.26	275.16
425.64	277.13
426.01	279.29
426.38	281.58
426.75	283.82
427.13	286.20
427.50	288.67
427.87	291.23
428.24	293.76
428.61	296.19
428.99	298.81
429.36	301.72
429.73	304.53
430.10	307.27
430.47	310.03
430.85	312.95
431.22	315.99
431.59	319.18
431.96	322.19
432.33	325.58
432.70	328.83
433.08	332.66
433.45	336.26
433.82	339.79
434.19	343.65
434.56	347.47
434.93	351.04
435.30	354.61
435.68	358.55
436.05	362.41
436.42	366.22
436.79	369.73
437.16	373.37
437.53	377.22
437.90	381.09
438.27	384.85
438.64	388.66
439.01	392.21
439.38	395.27
439.75	398.31
440.13	401.65
440.50	404.87
440.87	407.40
441.24	410.07
441.61	413.07
441.98	415.11
442.35	417.60
442.72	420.18
443.09	422.59
443.46	423.95
443.83	424.80
444.20	425.50
444.57	426.65
444.94	427.10
445.31	427.57
445.68	428.02
446.05	428.17
446.42	427.69
446.79	427.14
447.16	426.59
447.53	426.15
447.90	424.66
448.27	423.09
448.64	420.93
449.01	419.35
449.37	416.62
449.74	414.07
450.11	410.99
450.48	407.64
450.85	404.23
451.22	401.35
451.59	398.55
451.96	395.87
452.33	392.28
452.70	389.03
453.07	385.20
453.43	381.30
453.80	377.51
454.17	373.88
454.54	370.42
454.91	366.69
455.28	363.04
455.65	359.65
456.02	356.22
456.38	353.28
456.75	349.67
457.12	346.67
457.49	343.61
457.86	340.69
458.23	338.06
458.59	335.24
458.96	332.35
459.33	329.81
459.70	327.26
460.07	325.23
460.43	322.86
460.80	320.59
461.17	318.56
461.54	316.46
461.91	314.48
462.27	312.47
462.64	310.75
463.01	308.87
463.38	307.05
463.74	305.22
464.11	303.64
464.48	302.23
464.85	300.65
465.21	299.40
465.58	298.14
465.95	296.64
466.32	295.38
466.68	294.11
467.05	292.90
467.42	291.66
467.78	290.33
468.15	289.13
468.52	288.20
468.88	287.05
469.25	285.98
469.62	285.06
469.98	284.12
470.35	283.26
470.72	282.41
471.08	281.51
471.45	280.75
471.82	279.98
472.18	279.14
472.55	278.51
472.92	277.84
473.28	277.14
473.65	276.54
474.02	275.91
474.38	275.43
474.75	274.96
475.11	274.42
475.48	274.06
475.85	273.72
476.21	273.35
476.58	273.06
476.94	272.82
477.31	272.59
477.67	272.32
478.04	272.07
478.41	271.92
478.77	271.88
479.14	271.73
479.50	271.65
479.87	271.69
480.23	271.73
480.60	271.73
480.96	271.74
481.33	271.93
481.69	272.10
482.06	272.20
482.42	272.32
482.79	272.57
483.15	272.82
483.52	273.18
483.88	273.50
484.25	273.83
484.61	274.20
484.98	274.62
485.34	275.20
485.71	275.76
486.07	276.38
486.44	276.96
486.80	277.68
487.17	278.42
487.53	279.22
487.90	280.09
488.26	281.05
488.62	282.11
488.99	283.09
489.35	284.17
489.72	285.38
490.08	286.66
490.44	287.96
490.81	289.35
491.17	290.79
491.54	292.38
491.90	294.03
492.26	295.77
492.63	297.61
492.99	299.49
493.36	301.51
493.72	303.71
494.08	305.93
494.45	308.33
494.81	310.86
495.17	313.44
495.54	316.18
495.90	319.06
496.26	322.03
496.63	325.16
496.99	328.46
497.35	331.88
497.72	335.51
498.08	339.25
498.44	343.19
498.80	347.34
499.17	351.62
499.53	356.06
499.89	360.73
500.26	365.54
500.62	370.50
500.98	375.80
501.34	381.15
501.71	386.81
502.07	392.66
502.43	398.61
502.79	404.82
503.16	411.23
503.52	417.86
503.88	424.66
504.24	431.68
504.60	438.95
504.97	446.56
505.33	454.35
505.69	462.63
506.05	470.95
506.41	479.38
506.78	488.07
507.14	497.08
507.50	506.36
507.86	515.95
508.22	525.75
508.59	535.56
508.95	545.80
509.31	556.24
509.67	566.98
510.03	578.00
510.39	589.28
510.75	600.88
511.12	612.63
511.48	624.75
511.84	637.04
512.20	649.49
512.56	662.33
512.92	675.39
513.28	688.61
513.64	701.99
514.00	715.68
514.37	729.68
514.73	743.74
515.09	757.81
515.45	772.18
515.81	786.90
516.17	801.99
516.53	817.35
516.89	832.78
517.25	848.06
517.61	863.69
517.97	879.49
518.33	895.13
518.69	911.11
519.05	927.37
519.41	943.91
519.77	960.78
520.13	977.64
520.49	994.41
520.85	1011.24
521.21	1028.31
521.57	1046.07
521.93	1063.26
522.29	1081.10
522.65	1098.98
523.01	1116.67
523.37	1134.28
523.73	1152.03
524.09	1169.63
524.45	1187.45
524.81	1205.82
525.17	1224.21
525.53	1242.79
525.89	1261.49
526.25	1280.21
526.61	1298.44
526.97	1317.00
527.33	1335.30
527.68	1353.55
528.04	1371.88
528.40	1390.21
528.76	1409.28
529.12	1427.67
529.48	1446.57
529.84	1464.54
530.20	1483.00
530.56	1501.98
530.91	1521.47
531.27	1540.29
531.63	1558.80
531.99	1577.46
532.35	1595.37
532.71	1613.54
533.07	1631.81
533.42	1649.72
533.78	1667.82
534.14	1686.11
534.50	1703.65
534.86	1721.68
535.21	1739.11
535.57	1757.20
535.93	1774.95
536.29	1791.86
536.65	1809.09
537.00	1825.88
537.36	1843.34
537.72	1859.98
538.08	1876.72
538.44	1892.68
538.79	1908.71
539.15	1924.53
539.51	1940.51
539.87	1957.30
540.22	1973.09
540.58	1989.13
540.94	2004.60
541.29	2019.67
541.65	2034.66
542.01	2050.16
542.37	2064.72
542.72	2079.41
543.08	2093.58
543.44	2108.27
543.79	2121.85
544.15	2135.16
544.51	2149.24
544.87	2162.52
545.22	2175.73
545.58	2188.12
545.94	2200.10
546.29	2212.25
546.65	2224.40
547.01	2235.83
547.36	2246.61
547.72	2257.37
548.07	2267.36
548.43	2277.64
548.79	2287.83
549.14	2297.41
549.50	2306.66
549.86	2316.47
550.21	2325.84
550.57	2334.99
550.92	2343.55
551.28	2352.55
551.64	2361.70
551.99	2370.03
552.35	2378.14
552.70	2386.24
553.06	2394.25
553.41	2402.31
553.77	2410.16
554.13	2418.21
554.48	2426.27
554.84	2433.68
555.19	2440.58
555.55	2447.62
555.90	2453.98
556.26	2460.62
556.61	2467.00
556.97	2473.12
557.32	2478.81
557.68	2484.71
558.03	2490.67
558.39	2495.93
558.74	2502.38
559.10	2507.71
559.45	2512.93
559.81	2518.71
560.16	2524.06
560.52	2528.69
560.87	2533.69
561.23	2537.72
561.58	2542.07
561.94	2546.17
562.29	2549.75
562.64	2554.07
563.00	2557.83
563.35	2562.68
563.71	2567.15
564.06	2571.85
564.42	2576.09
564.77	2579.92
565.12	2583.47
565.48	2586.56
565.83	2589.78
566.19	2592.19
566.54	2593.96
566.89	2596.17
567.25	2597.90
567.60	2600.27
567.96	2603.21
568.31	2605.08
568.66	2607.41
569.02	2608.82
569.37	2609.80
569.72	2611.68
570.08	2612.56
570.43	2613.46
570.78	2613.70
571.14	2612.64
571.49	2611.76
571.84	2611.97
572.20	2611.64
572.55	2611.09
572.90	2609.86
573.26	2609.00
573.61	2607.64
573.96	2606.61
574.31	2603.93
574.67	2601.17
575.02	2597.70
575.37	2594.23
575.72	2590.58
576.08	2587.20
576.43	2583.93
576.78	2580.47
577.13	2577.39
577.49	2574.12
577.84	2570.54
578.19	2566.56
578.54	2563.04
578.90	2558.90
579.25	2553.11
579.60	2547.69
579.95	2542.37
580.30	2537.13
580.66	2531.61
581.01	2526.33
581.36	2520.96
581.71	2516.63
582.06	2511.97
582.42	2507.31
582.77	2501.81
583.12	2496.98
583.47	2492.00
583.82	2486.63
584.17	2480.91
584.53	2474.93
584.88	2469.01
585.23	2462.86
585.58	2457.06
585.93	2451.12
586.28	2445.80
586.63	2440.33
586.98	2434.78
587.34	2429.66
587.69	2424.32
588.04	2418.53
588.39	2412.26
588.74	2405.17
589.09	2398.40
589.44	2390.88
589.79	2383.95
590.14	2377.66
590.49	2370.22
590.84	2363.07
591.19	2356.38
591.54	2349.24
591.89	2341.08
592.25	2333.42
592.60	2325.23
592.95	2316.65
593.30	2308.21
593.65	2299.58
594.00	2291.43
594.35	2283.24
594.70	2274.05
595.05	2266.02
595.40	2257.65
595.75	2249.13
596.10	2241.99
596.45	2234.15
596.80	2227.09
597.15	2219.76
597.50	2211.90
597.85	2204.43
598.19	2196.73
598.54	2188.65
598.89	2180.90
599.24	2173.92
599.59	2166.35
599.94	2159.21
600.29	2151.85
600.64	2144.24
600.99	2135.70
601.34	2127.98
601.69	2119.95
602.04	2112.09
602.39	2103.51
602.74	2095.55
603.08	2087.60
603.43	2079.73
603.78	2071.24
604.13	2062.85
604.48	2054.33
604.83	2046.16
605.18	2038.14
605.53	2028.86
605.87	2019.42
606.22	2010.89
606.57	2001.55
606.92	1992.72
607.27	1984.43
607.62	1976.39
607.96	1968.09
608.31	1960.45
608.66	1951.45
609.01	1942.60
609.36	1933.65
609.70	1924.18
610.05	1914.81
610.40	1905.85
610.75	1896.10
611.10	1887.03
611.44	1877.04
611.79	1867.53
612.14	1857.26
612.49	1846.45
612.83	1836.57
613.18	1826.96
613.53	1817.41
613.88	1807.41
614.22	1797.83
614.57	1787.57
614.92	1778.19
615.27	1769.21
615.61	1759.34
615.96	1749.89
616.31	1740.82
616.65	1732.16
617.00	1723.16
617.35	1713.90
617.70	1704.09
618.04	1694.05
618.39	1684.44
618.74	1675.49
619.08	1665.68
619.43	1656.60
619.78	1648.47
620.12	1640.10
620.47	1631.28
620.82	1621.60
621.16	1612.76
621.51	1603.64
621.85	1594.65
622.20	1584.56
622.55	1574.65
622.89	1565.36
623.24	1556.28
623.59	1547.43
623.93	1538.58
624.28	1530.14
624.62	1521.36
624.97	1512.88
625.32	1504.82
625.66	1496.45
626.01	1487.98
626.35	1479.31
626.70	1470.25
627.04	1461.07
627.39	1451.80
627.73	1443.03
628.08	1434.82
628.43	1426.36
628.77	1417.74
629.12	1408.85
629.46	1400.35
629.81	1391.46
630.15	1382.90
630.50	1374.24
630.84	1364.62
631.19	1355.21
631.53	1346.41
631.88	1337.60
632.22	1328.64
632.57	1320.09
632.91	1311.26
633.26	1302.63
633.60	1293.91
633.95	1285.62
634.29	1277.29
634.64	1269.45
634.98	1260.84
635.32	1252.50
635.67	1244.63
636.01	1236.87
636.36	1228.86
636.70	1221.20
637.05	1213.52
637.39	1205.96
637.73	1198.36
638.08	1191.42
638.42	1184.28
638.77	1176.71
639.11	1168.85
639.45	1161.34
639.80	1153.45
640.14	1145.95
640.49	1138.27
640.83	1130.86
641.17	1123.45
641.52	1116.02
641.86	1108.40
642.20	1101.55
642.55	1094.16
642.89	1086.67
643.23	1078.91
643.58	1072.19
643.92	1064.93
644.26	1057.96
644.61	1050.76
644.95	1043.72
645.29	1036.05
645.64	1028.26
645.98	1020.80
646.32	1014.06
646.66	1007.07
647.01	1000.48
647.35	993.82
647.69	986.93
648.04	980.50
648.38	973.90
648.72	967.12
649.06	960.18
649.41	953.33
649.75	946.45
650.09	939.54
650.43	932.86
650.78	925.69
651.12	918.82
651.46	912.20
651.80	905.68
652.14	899.41
652.49	893.26
652.83	887.32
653.17	880.79
653.51	874.21
653.85	867.90
654.20	861.31
654.54	854.36
654.88	847.72
655.22	840.82
655.56	834.17
655.90	827.77
656.25	821.67
656.59	815.44
656.93	809.53
657.27	803.59
657.61	797.25
657.95	791.35
658.29	785.42
658.64	779.20
658.98	773.01
659.32	766.61
659.66	760.53
660.00	754.35
660.34	748.54
660.68	742.79
661.02	736.94
661.36	731.46
661.70	726.21
662.05	721.20
662.39	716.25
662.73	711.02
663.07	705.95
663.41	700.78
663.75	695.59
664.09	690.28
664.43	685.18
664.77	680.45
665.11	675.56
665.45	670.82
665.79	666.16
666.13	661.40
666.47	656.70
666.81	651.92
667.15	647.09
667.49	642.57
667.83	638.11
668.17	633.64
668.51	628.99
668.85	624.29
669.19	619.82
669.53	615.38
669.87	610.94
670.21	606.62
670.55	602.39
670.89	598.43
671.23	594.41
671.57	590.33
671.91	586.24
672.25	582.06
672.58	578.00
672.92	574.01
673.26	570.35
673.60	566.71
673.94	563.12
674.28	559.82
674.62	556.40
674.96	552.87
675.30	549.42
675.64	546.07
675.97	542.90
676.31	539.60
676.65	536.24
676.99	533.11
677.33	529.82
677.67	526.57
678.01	523.06
678.34	519.73
678.68	516.40
679.02	513.16
679.36	510.05
679.70	506.89
680.04	503.75
680.37	500.44
680.71	497.20
681.05	494.20
681.39	491.04
681.73	488.01
682.06	485.12
682.40	482.20
682.74	479.27
683.08	476.30
683.42	473.27
683.75	470.42
684.09	467.40
684.43	464.53
684.77	461.68
685.10	458.87
685.44	456.12
685.78	453.48
686.12	450.88
686.45	448.15
686.79	445.48
687.13	442.88
687.46	440.34
687.80	437.81
688.14	435.21
688.48	432.85
688.81	430.24
689.15	427.71
689.49	425.22
689.82	422.78
690.16	420.35
690.50	418.08
690.83	415.77
691.17	413.53
691.51	411.30
691.84	409.14
692.18	406.99
692.52	404.73
692.85	402.46
693.19	400.26
693.52	398.18
693.86	396.07
694.20	394.03
694.53	391.94
694.87	389.79
695.21	387.69
695.54	385.52
695.88	383.49
696.21	381.48
696.55	379.49
696.88	377.51
697.22	375.56
697.56	373.66
697.89	371.74
698.23	369.88
698.56	368.00
698.90	366.13
699.23	364.20
699.57	362.42
699.90	360.64
700.24	358.83
700.58	357.04
700.91	355.29
701.25	353.57
701.58	351.95
701.92	350.36
702.25	348.78
702.59	347.19
702.92	345.69
703.26	344.16
703.59	342.66
703.93	341.25
704.26	339.85
704.60	338.34
704.93	336.85
705.26	335.36
705.60	333.94
705.93	332.61
706.27	331.40
706.60	330.12
706.94	328.85
707.27	327.52
707.61	326.31
707.94	325.10
708.27	323.83
708.61	322.54
708.94	321.36
709.28	320.18
709.61	319.07
709.94	317.91
710.28	316.70
710.61	315.58
710.95	314.37
711.28	313.26
711.61	312.17
711.95	311.13
712.28	310.05
712.61	308.92
712.95	307.81
713.28	306.79
713.61	305.77
713.95	304.72
714.28	303.76
714.61	302.72
714.95	301.77
715.28	300.78
715.61	299.80
715.95	298.78
716.28	297.77
716.61	296.79
716.95	295.84
717.28	294.99
717.61	294.07
717.94	293.19
718.28	292.29
718.61	291.42
718.94	290.61
719.27	289.84
719.61	289.12
719.94	288.39
720.27	287.53
720.60	286.74
720.94	286.00
721.27	285.30
721.60	284.65
721.93	283.94
722.27	283.30
722.60	282.64
722.93	282.01
723.26	281.42
723.59	280.76
723.93	280.13
724.26	279.47
724.59	278.83
724.92	278.25
725.25	277.67
725.59	277.08
725.92	276.45
726.25	275.85
726.58	275.27
726.91	274.63
727.24	274.10
727.57	273.54
727.91	272.92
728.24	272.36
728.57	271.78
728.90	271.24
729.23	270.68
729.56	270.19
729.89	269.64
730.22	269.04
730.55	268.50
730.89	268.02
731.22	267.52
731.55	267.03
731.88	266.48
732.21	265.98
732.54	265.46
732.87	264.95
733.20	264.48
733.53	264.02
733.86	263.61
734.19	263.12
734.52	262.69
734.85	262.35
735.18	261.86
735.51	261.47
735.84	261.04
736.17	260.64
736.50	260.18
736.83	259.89
737.16	259.53
737.49	259.14
737.82	258.69
738.15	258.32
738.48	257.90
738.81	257.53
739.14	257.13
739.47	256.76
739.80	256.40
740.13	256.06
740.46	255.67
740.79	255.30
741.12	254.98
741.45	254.60
741.78	254.23
742.11	253.93
742.44	253.52
742.77	253.18
743.10	252.81
743.43	252.49
743.75	252.03
744.08	251.84
744.41	251.54
744.74	251.23
745.07	250.89
745.40	250.63
745.73	250.34
746.06	250.03
746.39	249.70
746.71	249.40
747.04	249.07
747.37	248.73
747.70	248.42
748.03	248.11
748.36	247.82
748.68	247.52
749.01	247.20
749.34	246.94
749.67	246.64
750.00	246.41
750.33	246.17
750.65	245.97
750.98	245.55
751.31	245.27
751.64	245.00
751.97	244.80
752.29	244.53
752.62	244.22
752.95	243.98
753.28	243.73
753.60	243.48
753.93	243.29
754.26	243.13
754.59	242.89
754.91	242.63
755.24	242.44
755.57	242.21
755.90	242.00
756.22	241.76
756.55	241.52
756.88	241.30
757.20	241.04
757.53	240.79
757.86	240.59
758.19	240.43
758.51	240.23
758.84	239.98
759.17	239.77
759.49	239.61
759.82	239.44
760.15	239.29
760.47	239.14
760.80	238.92
761.13	238.73
761.45	238.53
761.78	238.36
762.11	238.21
762.43	238.04
762.76	237.89
763.08	237.78
763.41	237.65
763.74	237.48
764.06	237.33
764.39	237.18
764.71	237.02
765.04	236.86
765.37	236.70
765.69	236.58
766.02	236.46
766.34	236.29
766.67	236.15
767.00	236.04
767.32	235.95
767.65	235.91
767.97	235.77
768.30	235.68
768.62	235.57
768.95	235.44
769.27	235.32
769.60	235.20
769.92	235.06
770.25	234.93
770.57	234.81
770.90	234.69
771.22	234.55
771.55	234.47
771.87	234.36
772.20	234.30
772.52	234.26
772.85	234.26
773.17	234.21
773.50	234.08
773.82	233.98
774.15	233.80
774.47	233.62
774.80	233.53
775.12	233.43
775.45	233.36
775.77	233.27
776.09	233.19
776.42	233.12
776.74	233.05
777.07	232.96
777.39	232.85
777.72	232.75
778.04	232.70
778.36	232.64
778.69	232.56
779.01	232.48
779.33	232.35
779.66	232.18
779.98	232.05
780.31	232.00
780.63	231.94
780.95	231.90
781.28	231.81
781.60	231.73
781.92	231.68
782.25	231.61
782.57	231.50
782.89	231.41
783.22	231.34
783.54	231.23
783.86	231.15
784.19	231.10
784.51	231.10
784.83	231.01
785.16	230.92
785.48	230.86
785.80	230.80
786.12	230.73
786.45	230.67
