SpectraSuite Data File
++++++++++++++++++++++++++++++++++++
Date: Fri Feb 01 14:54:15 EST 2013
User: group
Dark Spectrum Present: No
Reference Spectrum Present: No
Number of Sampled Component Spectra: 1
Spectrometers: USB2E7196
Integration Time (usec): 35000 (USB2E7196)
Spectra Averaged: 100 (USB2E7196)
Boxcar Smoothing: 10 (USB2E7196)
Correct for Electrical Dark: No (USB2E7196)
Strobe/Lamp Enabled: No (USB2E7196)
Correct for Detector Non-linearity: No (USB2E7196)
Correct for Stray Light: No (USB2E7196)
Number of Pixels in Processed Spectrum: 2048
>>>>>Begin Processed Spectral Data<<<<<
339.09	0.00
339.48	215.66
339.86	217.21
340.24	218.12
340.63	219.77
341.01	222.31
341.39	222.47
341.78	223.73
342.16	224.81
342.54	225.57
342.93	213.80
343.31	224.60
343.69	225.15
344.07	225.59
344.46	225.99
344.84	226.36
345.22	226.60
345.60	226.83
345.99	227.00
346.37	227.14
346.75	227.23
347.13	227.31
347.52	227.32
347.90	227.39
348.28	227.42
348.66	227.46
349.05	227.47
349.43	227.52
349.81	227.58
350.19	227.60
350.57	227.65
350.96	227.74
351.34	227.82
351.72	227.91
352.10	228.01
352.48	228.10
352.87	228.16
353.25	228.23
353.63	228.29
354.01	228.38
354.39	228.44
354.77	228.50
355.15	228.60
355.54	228.71
355.92	228.72
356.30	228.81
356.68	228.92
357.06	228.98
357.44	228.98
357.82	229.07
358.20	229.13
358.58	229.18
358.97	229.21
359.35	229.28
359.73	229.33
360.11	229.35
360.49	229.41
360.87	229.44
361.25	229.47
361.63	229.57
362.01	229.57
362.39	229.59
362.77	229.63
363.15	229.61
363.53	229.62
363.91	229.65
364.29	229.64
364.67	229.55
365.05	229.59
365.43	229.62
365.81	229.61
366.19	229.65
366.57	229.68
366.95	229.68
367.33	229.64
367.71	229.60
368.09	229.64
368.47	229.62
368.85	229.57
369.23	229.53
369.61	229.46
369.99	229.48
370.37	229.43
370.75	229.41
371.13	229.35
371.51	229.27
371.89	229.23
372.27	229.17
372.65	229.13
373.03	229.05
373.41	228.98
373.78	228.87
374.16	228.74
374.54	228.65
374.92	228.53
375.30	228.45
375.68	228.38
376.06	228.27
376.44	228.20
376.82	228.14
377.19	228.10
377.57	228.01
377.95	227.88
378.33	227.79
378.71	227.68
379.09	227.65
379.47	227.62
379.84	227.51
380.22	227.46
380.60	227.38
380.98	227.28
381.36	227.20
381.73	227.14
382.11	227.12
382.49	227.04
382.87	226.98
383.25	226.91
383.62	226.93
384.00	226.89
384.38	226.82
384.76	226.81
385.13	226.74
385.51	226.71
385.89	226.67
386.27	226.68
386.64	226.67
387.02	226.59
387.40	226.52
387.78	226.50
388.15	226.44
388.53	226.44
388.91	226.47
389.29	226.43
389.66	226.41
390.04	226.37
390.42	226.36
390.79	226.38
391.17	226.40
391.55	226.30
391.92	226.29
392.30	226.33
392.68	226.31
393.05	226.30
393.43	226.33
393.81	226.36
394.18	226.32
394.56	226.34
394.94	226.41
395.31	226.47
395.69	226.57
396.06	226.66
396.44	226.67
396.82	226.69
397.19	226.81
397.57	226.89
397.95	226.96
398.32	226.98
398.70	227.06
399.07	227.17
399.45	227.25
399.82	227.31
400.20	227.39
400.58	227.49
400.95	227.57
401.33	227.65
401.70	227.84
402.08	227.98
402.45	228.09
402.83	228.22
403.20	228.32
403.58	228.40
403.95	228.49
404.33	228.63
404.71	228.76
405.08	228.96
405.46	229.11
405.83	229.26
406.21	229.43
406.58	229.60
406.96	229.78
407.33	229.96
407.70	230.21
408.08	230.47
408.45	230.68
408.83	230.90
409.20	231.11
409.58	231.29
409.95	231.56
410.33	231.85
410.70	232.08
411.08	232.43
411.45	232.74
411.82	233.06
412.20	233.42
412.57	233.85
412.95	234.13
413.32	234.55
413.69	234.97
414.07	235.40
414.44	235.90
414.82	236.35
415.19	236.88
415.56	237.39
415.94	237.95
416.31	238.57
416.68	239.24
417.06	239.95
417.43	240.62
417.81	241.34
418.18	242.09
418.55	242.92
418.93	243.74
419.30	244.63
419.67	245.56
420.04	246.51
420.42	247.49
420.79	248.67
421.16	249.80
421.54	251.00
421.91	252.23
422.28	253.49
422.66	254.82
423.03	256.12
423.40	257.46
423.77	258.83
424.15	260.25
424.52	261.73
424.89	263.33
425.26	264.88
425.64	266.35
426.01	267.94
426.38	269.58
426.75	271.26
427.13	272.99
427.50	274.81
427.87	276.70
428.24	278.54
428.61	280.30
428.99	282.22
429.36	284.32
429.73	286.35
430.10	288.35
430.47	290.36
430.85	292.50
431.22	294.68
431.59	297.12
431.96	299.37
432.33	301.83
432.70	304.21
433.08	307.02
433.45	309.65
433.82	312.27
434.19	315.16
434.56	317.99
434.93	320.65
435.30	323.26
435.68	326.13
436.05	329.00
436.42	331.77
436.79	334.33
437.16	337.07
437.53	339.90
437.90	342.71
438.27	345.50
438.64	348.34
439.01	351.00
439.38	353.19
439.75	355.40
440.13	357.93
440.50	360.32
440.87	362.15
441.24	364.08
441.61	366.25
441.98	367.75
442.35	369.54
442.72	371.45
443.09	373.27
443.46	374.29
443.83	374.86
444.20	375.37
444.57	376.19
444.94	376.45
445.31	376.83
445.68	377.17
446.05	377.27
446.42	376.92
446.79	376.50
447.16	376.09
447.53	375.72
447.90	374.52
448.27	373.29
448.64	371.75
449.01	370.66
449.37	368.70
449.74	366.81
450.11	364.60
450.48	362.08
450.85	359.56
451.22	357.38
451.59	355.34
451.96	353.43
452.33	350.82
452.70	348.43
453.07	345.60
453.43	342.71
453.80	339.92
454.17	337.17
454.54	334.62
454.91	331.88
455.28	329.21
455.65	326.71
456.02	324.32
456.38	322.13
456.75	319.47
457.12	317.20
457.49	315.00
457.86	312.78
458.23	310.90
458.59	308.83
458.96	306.77
459.33	304.90
459.70	303.02
460.07	301.52
460.43	299.78
460.80	298.15
461.17	296.70
461.54	295.20
461.91	293.79
462.27	292.30
462.64	291.06
463.01	289.69
463.38	288.43
463.74	287.00
464.11	285.83
464.48	284.78
464.85	283.66
465.21	282.78
465.58	281.86
465.95	280.76
466.32	279.83
466.68	278.87
467.05	277.96
467.42	277.06
467.78	276.10
468.15	275.28
468.52	274.61
468.88	273.71
469.25	272.92
469.62	272.29
469.98	271.62
470.35	270.97
470.72	270.39
471.08	269.73
471.45	269.21
471.82	268.65
472.18	268.03
472.55	267.58
472.92	267.00
473.28	266.50
473.65	266.05
474.02	265.63
474.38	265.29
474.75	264.96
475.11	264.59
475.48	264.31
475.85	264.04
476.21	263.80
476.58	263.65
476.94	263.47
477.31	263.26
477.67	263.13
478.04	263.06
478.41	262.98
478.77	262.97
479.14	262.88
479.50	262.89
479.87	262.96
480.23	263.02
480.60	263.11
480.96	263.23
481.33	263.40
481.69	263.59
482.06	263.77
482.42	263.96
482.79	264.22
483.15	264.52
483.52	264.88
483.88	265.22
484.25	265.59
484.61	266.03
484.98	266.46
485.34	266.98
485.71	267.50
486.07	268.06
486.44	268.64
486.80	269.36
487.17	270.11
487.53	270.86
487.90	271.71
488.26	272.64
488.62	273.60
488.99	274.57
489.35	275.56
489.72	276.68
490.08	277.92
490.44	279.16
490.81	280.51
491.17	281.83
491.54	283.29
491.90	284.82
492.26	286.46
492.63	288.19
492.99	289.95
493.36	291.84
493.72	293.95
494.08	296.04
494.45	298.26
494.81	300.57
495.17	303.02
495.54	305.53
495.90	308.17
496.26	310.99
496.63	313.96
496.99	317.10
497.35	320.35
497.72	323.70
498.08	327.19
498.44	330.82
498.80	334.68
499.17	338.67
499.53	342.81
499.89	347.18
500.26	351.70
500.62	356.37
500.98	361.31
501.34	366.31
501.71	371.61
502.07	377.03
502.43	382.63
502.79	388.44
503.16	394.52
503.52	400.76
503.88	407.13
504.24	413.70
504.60	420.55
504.97	427.60
505.33	434.93
505.69	442.60
506.05	450.35
506.41	458.25
506.78	466.43
507.14	474.87
507.50	483.54
507.86	492.54
508.22	501.67
508.59	510.81
508.95	520.38
509.31	530.20
509.67	540.22
510.03	550.49
510.39	561.00
510.75	571.76
511.12	582.72
511.48	593.94
511.84	605.41
512.20	616.91
512.56	628.92
512.92	641.06
513.28	653.43
513.64	665.96
514.00	678.64
514.37	691.56
514.73	704.55
515.09	717.56
515.45	730.78
515.81	744.41
516.17	758.41
516.53	772.62
516.89	786.70
517.25	800.98
517.61	815.40
517.97	829.84
518.33	844.30
518.69	859.09
519.05	874.18
519.41	889.36
519.77	904.97
520.13	920.43
520.49	935.84
520.85	951.30
521.21	967.04
521.57	983.44
521.93	999.27
522.29	1015.76
522.65	1032.07
523.01	1048.42
523.37	1064.51
523.73	1080.85
524.09	1096.97
524.45	1113.45
524.81	1130.16
525.17	1147.14
525.53	1164.23
525.89	1181.12
526.25	1197.94
526.61	1214.23
526.97	1231.06
527.33	1247.61
527.68	1264.29
528.04	1280.92
528.40	1297.47
528.76	1314.62
529.12	1331.19
529.48	1348.16
529.84	1364.32
530.20	1381.14
530.56	1398.30
530.91	1415.72
531.27	1432.46
531.63	1448.96
531.99	1465.60
532.35	1481.59
532.71	1497.50
533.07	1513.75
533.42	1529.80
533.78	1545.97
534.14	1562.46
534.50	1577.85
534.86	1593.69
535.21	1608.88
535.57	1624.89
535.93	1640.55
536.29	1655.36
536.65	1670.53
537.00	1685.43
537.36	1700.82
537.72	1715.38
538.08	1729.76
538.44	1743.64
538.79	1757.64
539.15	1771.49
539.51	1785.23
539.87	1799.65
540.22	1813.44
540.58	1827.27
540.94	1840.71
541.29	1853.67
541.65	1866.35
542.01	1879.64
542.37	1892.09
542.72	1904.60
543.08	1916.45
543.44	1929.11
543.79	1940.37
544.15	1951.40
544.51	1962.96
544.87	1973.94
545.22	1984.76
545.58	1994.91
545.94	2004.79
546.29	2014.74
546.65	2024.48
547.01	2033.82
547.36	2042.62
547.72	2051.08
548.07	2058.91
548.43	2067.06
548.79	2075.13
549.14	2082.70
549.50	2090.06
549.86	2097.75
550.21	2104.95
550.57	2111.98
550.92	2118.34
551.28	2125.56
551.64	2132.55
551.99	2139.07
552.35	2145.13
552.70	2151.20
553.06	2157.14
553.41	2163.51
553.77	2169.47
554.13	2175.59
554.48	2181.57
554.84	2186.83
555.19	2192.08
555.55	2197.16
555.90	2201.42
556.26	2206.07
556.61	2210.75
556.97	2214.77
557.32	2218.85
557.68	2222.99
558.03	2227.30
558.39	2230.78
558.74	2235.17
559.10	2238.84
559.45	2242.38
559.81	2246.72
560.16	2250.35
560.52	2253.58
560.87	2256.75
561.23	2259.18
561.58	2262.01
561.94	2264.51
562.29	2266.99
562.64	2269.52
563.00	2272.12
563.35	2275.73
563.71	2278.83
564.06	2282.12
564.42	2285.14
564.77	2287.42
565.12	2289.61
565.48	2291.25
565.83	2293.10
566.19	2294.29
566.54	2295.29
566.89	2296.31
567.25	2296.63
567.60	2297.97
567.96	2299.50
568.31	2300.19
568.66	2301.14
569.02	2301.44
569.37	2301.48
569.72	2301.96
570.08	2301.86
570.43	2301.72
570.78	2300.74
571.14	2299.09
571.49	2297.41
571.84	2296.84
572.20	2295.42
572.55	2294.18
572.90	2292.49
573.26	2290.88
573.61	2289.07
573.96	2287.04
574.31	2283.83
574.67	2280.56
575.02	2276.64
575.37	2273.04
575.72	2269.00
576.08	2265.66
576.43	2262.19
576.78	2258.39
577.13	2255.17
577.49	2251.90
577.84	2248.20
578.19	2244.45
578.54	2240.57
578.90	2236.21
579.25	2230.37
579.60	2225.34
579.95	2220.22
580.30	2215.09
580.66	2209.68
581.01	2204.45
581.36	2199.41
581.71	2195.06
582.06	2190.58
582.42	2186.07
582.77	2180.70
583.12	2176.11
583.47	2170.99
583.82	2165.88
584.17	2160.57
584.53	2154.84
584.88	2149.21
585.23	2143.26
585.58	2137.63
585.93	2131.93
586.28	2126.95
586.63	2121.83
586.98	2116.67
587.34	2111.79
587.69	2106.70
588.04	2101.35
588.39	2095.49
588.74	2088.86
589.09	2082.70
589.44	2075.77
589.79	2069.43
590.14	2063.70
590.49	2057.02
590.84	2050.59
591.19	2044.43
591.54	2037.74
591.89	2030.19
592.25	2023.18
592.60	2015.94
592.95	2008.19
593.30	2000.78
593.65	1992.98
594.00	1985.73
594.35	1978.45
594.70	1970.36
595.05	1963.08
595.40	1955.65
595.75	1948.17
596.10	1941.76
596.45	1934.64
596.80	1928.26
597.15	1921.66
597.50	1914.44
597.85	1907.88
598.19	1901.32
598.54	1894.13
598.89	1887.47
599.24	1881.58
599.59	1874.83
599.94	1868.49
600.29	1862.11
600.64	1855.46
600.99	1847.93
601.34	1840.99
601.69	1833.93
602.04	1827.03
602.39	1819.58
602.74	1812.81
603.08	1806.12
603.43	1799.42
603.78	1792.36
604.13	1785.20
604.48	1777.83
604.83	1771.02
605.18	1763.96
605.53	1755.88
605.87	1747.84
606.22	1740.77
606.57	1732.77
606.92	1725.50
607.27	1718.36
607.62	1711.34
607.96	1704.11
608.31	1697.59
608.66	1690.04
609.01	1682.55
609.36	1675.01
609.70	1667.00
610.05	1658.96
610.40	1651.25
610.75	1642.93
611.10	1635.20
611.44	1626.87
611.79	1618.84
612.14	1610.13
612.49	1601.30
612.83	1592.88
613.18	1584.90
613.53	1576.71
613.88	1568.33
614.22	1560.11
614.57	1551.47
614.92	1543.68
615.27	1536.15
615.61	1527.84
615.96	1519.89
616.31	1512.32
616.65	1504.90
617.00	1497.44
617.35	1489.78
617.70	1481.41
618.04	1473.03
618.39	1464.85
618.74	1457.25
619.08	1449.18
619.43	1441.69
619.78	1434.56
620.12	1427.41
620.47	1419.85
620.82	1411.82
621.16	1404.43
621.51	1396.89
621.85	1389.44
622.20	1381.01
622.55	1372.85
622.89	1365.18
623.24	1357.73
623.59	1350.33
623.93	1342.94
624.28	1335.72
624.62	1328.33
624.97	1321.33
625.32	1314.62
625.66	1307.65
626.01	1300.50
626.35	1292.99
626.70	1285.24
627.04	1277.64
627.39	1269.96
627.73	1262.73
628.08	1255.79
628.43	1248.56
628.77	1241.23
629.12	1233.63
629.46	1226.42
629.81	1219.11
630.15	1212.02
630.50	1204.60
630.84	1196.48
631.19	1188.65
631.53	1181.35
631.88	1173.88
632.22	1166.23
632.57	1159.03
632.91	1151.57
633.26	1144.31
633.60	1137.12
633.95	1130.27
634.29	1123.37
634.64	1116.81
634.98	1109.53
635.32	1102.50
635.67	1095.98
636.01	1089.47
636.36	1082.82
636.70	1076.35
637.05	1069.88
637.39	1063.40
637.73	1056.95
638.08	1051.19
638.42	1045.20
638.77	1038.71
639.11	1032.13
639.45	1025.89
639.80	1019.21
640.14	1012.84
640.49	1006.31
640.83	1000.03
641.17	993.83
641.52	987.53
641.86	981.22
642.20	975.41
642.55	969.22
642.89	962.76
643.23	956.19
643.58	950.43
643.92	944.31
644.26	938.18
644.61	932.23
644.95	926.15
645.29	919.55
645.64	912.88
645.98	906.70
646.32	901.00
646.66	895.03
647.01	889.37
647.35	883.72
647.69	878.01
648.04	872.58
648.38	866.72
648.72	860.67
649.06	854.59
649.41	848.77
649.75	842.77
650.09	836.85
650.43	831.05
650.78	824.96
651.12	819.10
651.46	813.39
651.80	807.63
652.14	802.47
652.49	797.21
652.83	792.03
653.17	786.34
653.51	780.60
653.85	775.19
654.20	769.56
654.54	763.55
654.88	757.89
655.22	751.99
655.56	746.41
655.90	741.07
656.25	735.78
656.59	730.45
656.93	725.42
657.27	720.34
657.61	715.02
657.95	709.93
658.29	704.88
658.64	699.66
658.98	694.44
659.32	688.95
659.66	683.81
660.00	678.54
660.34	673.60
660.68	668.80
661.02	663.86
661.36	659.18
661.70	654.83
662.05	650.44
662.39	646.18
662.73	641.80
663.07	637.47
663.41	633.15
663.75	628.64
664.09	624.11
664.43	619.82
664.77	615.70
665.11	611.54
665.45	607.47
665.79	603.50
666.13	599.42
666.47	595.37
666.81	591.16
667.15	587.10
667.49	583.30
667.83	579.48
668.17	575.60
668.51	571.53
668.85	567.57
669.19	563.82
669.53	560.02
669.87	556.19
670.21	552.49
670.55	548.91
670.89	545.52
671.23	542.14
671.57	538.54
671.91	535.09
672.25	531.60
672.58	528.10
672.92	524.73
673.26	521.55
673.60	518.49
673.94	515.42
674.28	512.56
674.62	509.57
674.96	506.50
675.30	503.59
675.64	500.74
675.97	497.98
676.31	495.06
676.65	492.14
676.99	489.38
677.33	486.55
677.67	483.67
678.01	480.73
678.34	477.78
678.68	474.99
679.02	472.16
679.36	469.41
679.70	466.71
680.04	463.97
680.37	461.11
680.71	458.36
681.05	455.78
681.39	453.08
681.73	450.49
682.06	447.94
682.40	445.44
682.74	442.87
683.08	440.36
683.42	437.84
683.75	435.41
684.09	432.93
684.43	430.52
684.77	428.13
685.10	425.75
685.44	423.48
685.78	421.21
686.12	419.04
686.45	416.80
686.79	414.55
687.13	412.40
687.46	410.30
687.80	408.12
688.14	405.99
688.48	403.99
688.81	401.74
689.15	399.62
689.49	397.53
689.82	395.53
690.16	393.42
690.50	391.48
690.83	389.50
691.17	387.54
691.51	385.61
691.84	383.81
692.18	381.96
692.52	380.01
692.85	378.10
693.19	376.20
693.52	374.42
693.86	372.62
694.20	370.84
694.53	369.07
694.87	367.25
695.21	365.45
695.54	363.61
695.88	361.97
696.21	360.26
696.55	358.55
696.88	356.87
697.22	355.29
697.56	353.68
697.89	352.06
698.23	350.48
698.56	348.96
698.90	347.35
699.23	345.70
699.57	344.18
699.90	342.72
700.24	341.22
700.58	339.71
700.91	338.25
701.25	336.82
701.58	335.49
701.92	334.16
702.25	332.83
702.59	331.52
702.92	330.20
703.26	328.93
703.59	327.67
703.93	326.49
704.26	325.27
704.60	324.00
704.93	322.76
705.26	321.55
705.60	320.39
705.93	319.27
706.27	318.24
706.60	317.17
706.94	316.07
707.27	314.99
707.61	313.96
707.94	312.94
708.27	311.83
708.61	310.72
708.94	309.68
709.28	308.68
709.61	307.70
709.94	306.75
710.28	305.73
710.61	304.79
710.95	303.75
711.28	302.80
711.61	301.85
711.95	300.96
712.28	300.01
712.61	299.00
712.95	298.09
713.28	297.25
713.61	296.36
713.95	295.48
714.28	294.57
714.61	293.70
714.95	292.87
715.28	292.04
715.61	291.19
715.95	290.40
716.28	289.57
716.61	288.76
716.95	287.96
717.28	287.24
717.61	286.49
717.94	285.76
718.28	284.96
718.61	284.25
718.94	283.54
719.27	282.86
719.61	282.25
719.94	281.60
720.27	280.85
720.60	280.20
720.94	279.59
721.27	279.03
721.60	278.43
721.93	277.81
722.27	277.30
722.60	276.77
722.93	276.15
723.26	275.61
723.59	275.05
723.93	274.49
724.26	273.94
724.59	273.35
724.92	272.81
725.25	272.34
725.59	271.83
725.92	271.34
726.25	270.86
726.58	270.35
726.91	269.81
727.24	269.33
727.57	268.83
727.91	268.33
728.24	267.87
728.57	267.41
728.90	267.00
729.23	266.48
729.56	266.03
729.89	265.56
730.22	265.07
730.55	264.60
730.89	264.16
731.22	263.70
731.55	263.28
731.88	262.84
732.21	262.38
732.54	261.96
732.87	261.53
733.20	261.14
733.53	260.76
733.86	260.39
734.19	260.02
734.52	259.65
734.85	259.31
735.18	258.88
735.51	258.52
735.84	258.09
736.17	257.75
736.50	257.32
736.83	257.11
737.16	256.79
737.49	256.47
737.82	256.11
738.15	255.81
738.48	255.48
738.81	255.17
739.14	254.89
739.47	254.54
739.80	254.24
740.13	253.91
740.46	253.57
740.79	253.28
741.12	253.01
741.45	252.70
741.78	252.36
742.11	252.09
742.44	251.77
742.77	251.53
743.10	251.22
743.43	250.98
743.75	250.60
744.08	250.46
744.41	250.21
744.74	249.97
745.07	249.67
745.40	249.45
745.73	249.21
746.06	248.92
746.39	248.68
746.71	248.41
747.04	248.16
747.37	247.90
747.70	247.65
748.03	247.38
748.36	247.18
748.68	246.97
749.01	246.72
749.34	246.49
749.67	246.27
750.00	246.09
750.33	245.94
750.65	245.76
750.98	245.40
751.31	245.17
751.64	244.97
751.97	244.81
752.29	244.60
752.62	244.35
752.95	244.17
753.28	244.00
753.60	243.80
753.93	243.63
754.26	243.43
754.59	243.23
754.91	242.99
755.24	242.77
755.57	242.55
755.90	242.37
756.22	242.17
756.55	241.94
756.88	241.73
757.20	241.47
757.53	241.22
757.86	241.05
758.19	240.87
758.51	240.68
758.84	240.50
759.17	240.30
759.49	240.15
759.82	239.99
760.15	239.82
760.47	239.68
760.80	239.49
761.13	239.38
761.45	239.22
761.78	239.09
762.11	238.93
762.43	238.81
762.76	238.66
763.08	238.53
763.41	238.42
763.74	238.26
764.06	238.11
764.39	238.00
764.71	237.86
765.04	237.73
765.37	237.58
765.69	237.42
766.02	237.30
766.34	237.16
766.67	237.00
767.00	236.88
767.32	236.82
767.65	236.77
767.97	236.62
768.30	236.47
768.62	236.34
768.95	236.23
769.27	236.11
769.60	236.02
769.92	235.88
770.25	235.77
770.57	235.68
770.90	235.61
771.22	235.51
771.55	235.38
771.87	235.31
772.20	235.23
772.52	235.22
772.85	235.25
773.17	235.17
773.50	235.08
773.82	234.99
774.15	234.83
774.47	234.66
774.80	234.57
775.12	234.51
775.45	234.44
775.77	234.36
776.09	234.30
776.42	234.26
776.74	234.24
777.07	234.13
777.39	234.05
777.72	233.95
778.04	233.89
778.36	233.84
778.69	233.74
779.01	233.66
779.33	233.50
779.66	233.32
779.98	233.24
780.31	233.18
780.63	233.14
780.95	233.07
781.28	233.02
781.60	232.97
781.92	232.90
782.25	232.84
782.57	232.77
782.89	232.68
783.22	232.58
783.54	232.51
783.86	232.50
784.19	232.43
784.51	232.43
784.83	232.34
785.16	232.32
785.48	232.27
785.80	232.25
786.12	232.22
786.45	232.18
786.77	232.16
787.09	232.12
