SpectraSuite Data File
++++++++++++++++++++++++++++++++++++
Date: Fri Feb 01 16:45:04 EST 2013
User: group
Dark Spectrum Present: No
Reference Spectrum Present: No
Number of Sampled Component Spectra: 1
Spectrometers: USB2E7196
Integration Time (usec): 35000 (USB2E7196)
Spectra Averaged: 100 (USB2E7196)
Boxcar Smoothing: 10 (USB2E7196)
Correct for Electrical Dark: No (USB2E7196)
Strobe/Lamp Enabled: No (USB2E7196)
Correct for Detector Non-linearity: No (USB2E7196)
Correct for Stray Light: No (USB2E7196)
Number of Pixels in Processed Spectrum: 2048
>>>>>Begin Processed Spectral Data<<<<<
339.09	0.00
339.48	213.48
339.86	215.47
340.24	215.79
340.63	217.81
341.01	221.23
341.39	220.73
341.78	222.20
342.16	223.11
342.54	223.18
342.93	212.05
343.31	222.78
343.69	223.32
344.07	223.79
344.46	224.23
344.84	224.62
345.22	224.82
345.60	225.04
345.99	225.20
346.37	225.31
346.75	225.41
347.13	225.50
347.52	225.58
347.90	225.60
348.28	225.64
348.66	225.66
349.05	225.64
349.43	225.64
349.81	225.69
350.19	225.71
350.57	225.73
350.96	225.81
351.34	225.84
351.72	225.90
352.10	225.96
352.48	226.05
352.87	226.08
353.25	226.15
353.63	226.23
354.01	226.27
354.39	226.32
354.77	226.39
355.15	226.45
355.54	226.52
355.92	226.57
356.30	226.61
356.68	226.74
357.06	226.82
357.44	226.87
357.82	226.90
358.20	226.96
358.58	227.06
358.97	227.11
359.35	227.20
359.73	227.29
360.11	227.34
360.49	227.35
360.87	227.42
361.25	227.46
361.63	227.51
362.01	227.58
362.39	227.60
362.77	227.64
363.15	227.69
363.53	227.68
363.91	227.67
364.29	227.67
364.67	227.60
365.05	227.63
365.43	227.67
365.81	227.70
366.19	227.75
366.57	227.74
366.95	227.73
367.33	227.70
367.71	227.66
368.09	227.66
368.47	227.65
368.85	227.64
369.23	227.63
369.61	227.60
369.99	227.59
370.37	227.60
370.75	227.63
371.13	227.56
371.51	227.51
371.89	227.52
372.27	227.51
372.65	227.49
373.03	227.41
373.41	227.37
373.78	227.32
374.16	227.18
374.54	227.10
374.92	227.04
375.30	226.99
375.68	226.93
376.06	226.90
376.44	226.82
376.82	226.74
377.19	226.68
377.57	226.60
377.95	226.49
378.33	226.44
378.71	226.34
379.09	226.32
379.47	226.28
379.84	226.20
380.22	226.14
380.60	226.02
380.98	225.97
381.36	225.91
381.73	225.83
382.11	225.82
382.49	225.78
382.87	225.74
383.25	225.69
383.62	225.75
384.00	225.67
384.38	225.62
384.76	225.62
385.13	225.57
385.51	225.51
385.89	225.46
386.27	225.40
386.64	225.34
387.02	225.27
387.40	225.24
387.78	225.20
388.15	225.20
388.53	225.19
388.91	225.13
389.29	225.10
389.66	225.11
390.04	225.06
390.42	225.05
390.79	225.02
391.17	225.01
391.55	224.87
391.92	224.88
392.30	224.91
392.68	224.86
393.05	224.87
393.43	224.90
393.81	224.94
394.18	224.94
394.56	224.94
394.94	225.00
395.31	225.01
395.69	225.07
396.06	225.12
396.44	225.16
396.82	225.22
397.19	225.30
397.57	225.32
397.95	225.41
398.32	225.44
398.70	225.52
399.07	225.61
399.45	225.68
399.82	225.72
400.20	225.77
400.58	225.87
400.95	225.91
401.33	225.99
401.70	226.13
402.08	226.24
402.45	226.32
402.83	226.41
403.20	226.50
403.58	226.59
403.95	226.68
404.33	226.84
404.71	226.96
405.08	227.11
405.46	227.23
405.83	227.38
406.21	227.52
406.58	227.67
406.96	227.84
407.33	228.01
407.70	228.21
408.08	228.45
408.45	228.67
408.83	228.91
409.20	229.11
409.58	229.27
409.95	229.50
410.33	229.77
410.70	230.02
411.08	230.32
411.45	230.59
411.82	230.87
412.20	231.15
412.57	231.55
412.95	231.88
413.32	232.29
413.69	232.67
414.07	233.10
414.44	233.56
414.82	234.01
415.19	234.56
415.56	235.09
415.94	235.59
416.31	236.22
416.68	236.82
417.06	237.51
417.43	238.21
417.81	238.97
418.18	239.76
418.55	240.63
418.93	241.45
419.30	242.37
419.67	243.31
420.04	244.29
420.42	245.25
420.79	246.39
421.16	247.53
421.54	248.71
421.91	249.90
422.28	251.14
422.66	252.42
423.03	253.72
423.40	255.05
423.77	256.49
424.15	257.85
424.52	259.36
424.89	261.00
425.26	262.54
425.64	263.97
426.01	265.52
426.38	267.16
426.75	268.83
427.13	270.50
427.50	272.32
427.87	274.16
428.24	275.99
428.61	277.70
428.99	279.56
429.36	281.62
429.73	283.69
430.10	285.69
430.47	287.73
430.85	289.79
431.22	292.03
431.59	294.38
431.96	296.63
432.33	299.02
432.70	301.34
433.08	304.08
433.45	306.73
433.82	309.31
434.19	312.12
434.56	314.92
434.93	317.62
435.30	320.16
435.68	323.04
436.05	325.86
436.42	328.60
436.79	331.14
437.16	333.86
437.53	336.65
437.90	339.46
438.27	342.22
438.64	345.04
439.01	347.59
439.38	349.81
439.75	351.96
440.13	354.46
440.50	356.78
440.87	358.62
441.24	360.52
441.61	362.67
441.98	364.18
442.35	365.96
442.72	367.74
443.09	369.57
443.46	370.53
443.83	371.14
444.20	371.69
444.57	372.54
444.94	372.84
445.31	373.18
445.68	373.56
446.05	373.61
446.42	373.25
446.79	372.89
447.16	372.46
447.53	372.17
447.90	371.08
448.27	369.96
448.64	368.41
449.01	367.33
449.37	365.39
449.74	363.53
450.11	361.33
450.48	358.95
450.85	356.44
451.22	354.36
451.59	352.35
451.96	350.42
452.33	347.85
452.70	345.48
453.07	342.71
453.43	339.84
453.80	337.14
454.17	334.52
454.54	331.93
454.91	329.24
455.28	326.61
455.65	324.11
456.02	321.67
456.38	319.56
456.75	316.91
457.12	314.71
457.49	312.48
457.86	310.32
458.23	308.49
458.59	306.46
458.96	304.40
459.33	302.60
459.70	300.78
460.07	299.36
460.43	297.64
460.80	296.02
461.17	294.57
461.54	293.08
461.91	291.64
462.27	290.25
462.64	289.02
463.01	287.66
463.38	286.43
463.74	285.07
464.11	283.90
464.48	282.93
464.85	281.79
465.21	280.96
465.58	280.06
465.95	278.98
466.32	278.11
466.68	277.19
467.05	276.26
467.42	275.37
467.78	274.40
468.15	273.58
468.52	272.95
468.88	272.09
469.25	271.35
469.62	270.76
469.98	270.07
470.35	269.44
470.72	268.86
471.08	268.21
471.45	267.68
471.82	267.19
472.18	266.57
472.55	266.15
472.92	265.62
473.28	265.16
473.65	264.66
474.02	264.21
474.38	263.85
474.75	263.55
475.11	263.25
475.48	263.01
475.85	262.78
476.21	262.51
476.58	262.34
476.94	262.18
477.31	261.99
477.67	261.85
478.04	261.76
478.41	261.73
478.77	261.72
479.14	261.69
479.50	261.66
479.87	261.74
480.23	261.87
480.60	261.95
480.96	262.06
481.33	262.31
481.69	262.54
482.06	262.77
482.42	262.96
482.79	263.17
483.15	263.44
483.52	263.77
483.88	264.12
484.25	264.51
484.61	264.96
484.98	265.44
485.34	266.01
485.71	266.62
486.07	267.19
486.44	267.81
486.80	268.48
487.17	269.24
487.53	270.03
487.90	270.90
488.26	271.84
488.62	272.84
488.99	273.81
489.35	274.82
489.72	275.93
490.08	277.11
490.44	278.39
490.81	279.75
491.17	281.14
491.54	282.62
491.90	284.15
492.26	285.75
492.63	287.48
492.99	289.24
493.36	291.10
493.72	293.16
494.08	295.27
494.45	297.56
494.81	299.92
495.17	302.36
495.54	304.89
495.90	307.57
496.26	310.37
496.63	313.33
496.99	316.49
497.35	319.72
497.72	323.14
498.08	326.67
498.44	330.32
498.80	334.27
499.17	338.34
499.53	342.51
499.89	346.92
500.26	351.44
500.62	356.13
500.98	361.08
501.34	366.14
501.71	371.40
502.07	376.81
502.43	382.45
502.79	388.29
503.16	394.31
503.52	400.57
503.88	406.94
504.24	413.56
504.60	420.39
504.97	427.53
505.33	434.86
505.69	442.52
506.05	450.29
506.41	458.12
506.78	466.27
507.14	474.73
507.50	483.37
507.86	492.39
508.22	501.55
508.59	510.73
508.95	520.25
509.31	530.07
509.67	540.15
510.03	550.28
510.39	560.79
510.75	571.58
511.12	582.48
511.48	593.73
511.84	605.17
512.20	616.57
512.56	628.46
512.92	640.59
513.28	652.89
513.64	665.29
514.00	677.91
514.37	690.83
514.73	703.82
515.09	716.72
515.45	729.96
515.81	743.46
516.17	757.41
516.53	771.58
516.89	785.67
517.25	799.80
517.61	814.19
517.97	828.55
518.33	842.89
518.69	857.54
519.05	872.47
519.41	887.50
519.77	902.97
520.13	918.23
520.49	933.44
520.85	948.70
521.21	964.29
521.57	980.44
521.93	996.05
522.29	1012.33
522.65	1028.55
523.01	1044.46
523.37	1060.46
523.73	1076.51
524.09	1092.41
524.45	1108.46
524.81	1124.91
525.17	1141.52
525.53	1158.23
525.89	1174.96
526.25	1191.56
526.61	1207.69
526.97	1224.26
527.33	1240.60
527.68	1257.17
528.04	1273.51
528.40	1289.95
528.76	1306.84
529.12	1323.19
529.48	1340.00
529.84	1355.90
530.20	1372.31
530.56	1389.17
530.91	1406.33
531.27	1422.79
531.63	1439.00
531.99	1455.46
532.35	1471.32
532.71	1487.07
533.07	1503.20
533.42	1519.00
533.78	1534.91
534.14	1551.10
534.50	1566.29
534.86	1582.03
535.21	1597.03
535.57	1612.83
535.93	1628.13
536.29	1642.71
536.65	1657.72
537.00	1672.21
537.36	1687.24
537.72	1701.62
538.08	1716.03
538.44	1729.61
538.79	1743.44
539.15	1756.90
539.51	1770.43
539.87	1784.57
540.22	1798.01
540.58	1811.47
540.94	1824.52
541.29	1837.24
541.65	1849.71
542.01	1862.71
542.37	1874.83
542.72	1887.05
543.08	1898.74
543.44	1910.90
543.79	1922.03
544.15	1932.79
544.51	1944.36
544.87	1955.13
545.22	1965.89
545.58	1975.93
545.94	1985.46
546.29	1995.16
546.65	2005.01
547.01	2014.32
547.36	2022.89
547.72	2031.42
548.07	2039.42
548.43	2047.51
548.79	2055.54
549.14	2063.02
549.50	2070.20
549.86	2077.90
550.21	2085.10
550.57	2092.08
550.92	2098.66
551.28	2105.67
551.64	2112.62
551.99	2118.91
552.35	2125.17
552.70	2131.24
553.06	2137.13
553.41	2143.49
553.77	2149.28
554.13	2155.17
554.48	2161.22
554.84	2166.74
555.19	2171.92
555.55	2176.95
555.90	2181.28
556.26	2186.18
556.61	2190.83
556.97	2195.23
557.32	2199.31
557.68	2203.45
558.03	2207.71
558.39	2211.32
558.74	2215.80
559.10	2219.80
559.45	2223.50
559.81	2227.60
560.16	2231.39
560.52	2234.61
560.87	2237.95
561.23	2240.83
561.58	2243.89
561.94	2246.35
562.29	2248.57
562.64	2251.36
563.00	2253.80
563.35	2257.32
563.71	2260.23
564.06	2263.48
564.42	2266.39
564.77	2268.88
565.12	2271.31
565.48	2273.44
565.83	2275.57
566.19	2277.17
566.54	2277.89
566.89	2278.99
567.25	2279.78
567.60	2281.13
567.96	2282.90
568.31	2283.94
568.66	2285.21
569.02	2285.98
569.37	2286.40
569.72	2287.44
570.08	2287.58
570.43	2287.80
570.78	2287.53
571.14	2286.29
571.49	2285.00
571.84	2284.72
572.20	2283.87
572.55	2282.81
572.90	2281.14
573.26	2279.74
573.61	2277.96
573.96	2276.46
574.31	2273.66
574.67	2270.77
575.02	2267.26
575.37	2263.98
575.72	2260.26
576.08	2256.70
576.43	2253.21
576.78	2249.75
577.13	2246.68
577.49	2243.59
577.84	2240.31
578.19	2236.53
578.54	2233.07
578.90	2229.13
579.25	2223.67
579.60	2218.75
579.95	2213.89
580.30	2209.05
580.66	2204.08
581.01	2199.32
581.36	2194.60
581.71	2190.54
582.06	2186.13
582.42	2181.86
582.77	2176.81
583.12	2172.48
583.47	2168.10
583.82	2163.32
584.17	2158.13
584.53	2152.73
584.88	2147.24
585.23	2141.49
585.58	2136.25
585.93	2130.74
586.28	2125.99
586.63	2121.10
586.98	2115.99
587.34	2111.25
587.69	2106.30
588.04	2101.15
588.39	2095.52
588.74	2089.00
589.09	2082.90
589.44	2076.23
589.79	2070.13
590.14	2064.53
590.49	2058.04
590.84	2051.71
591.19	2045.73
591.54	2039.37
591.89	2032.20
592.25	2025.57
592.60	2018.55
592.95	2011.02
593.30	2003.81
593.65	1996.29
594.00	1989.30
594.35	1982.18
594.70	1974.36
595.05	1967.48
595.40	1960.18
595.75	1952.80
596.10	1946.81
596.45	1940.28
596.80	1934.20
597.15	1927.71
597.50	1920.79
597.85	1914.34
598.19	1907.80
598.54	1900.89
598.89	1894.31
599.24	1888.49
599.59	1881.90
599.94	1875.61
600.29	1869.38
600.64	1862.85
600.99	1855.61
601.34	1848.83
601.69	1842.00
602.04	1835.27
602.39	1827.88
602.74	1821.11
603.08	1814.46
603.43	1807.77
603.78	1800.45
604.13	1793.36
604.48	1786.20
604.83	1779.33
605.18	1772.55
605.53	1764.71
605.87	1756.72
606.22	1749.60
606.57	1741.67
606.92	1734.31
607.27	1727.32
607.62	1720.41
607.96	1713.38
608.31	1706.87
608.66	1699.33
609.01	1691.85
609.36	1684.27
609.70	1676.36
610.05	1668.47
610.40	1660.73
610.75	1652.52
611.10	1645.00
611.44	1636.58
611.79	1628.69
612.14	1620.01
612.49	1610.89
612.83	1602.42
613.18	1594.29
613.53	1586.12
613.88	1577.58
614.22	1569.46
614.57	1560.87
614.92	1552.94
615.27	1545.31
615.61	1536.90
615.96	1528.89
616.31	1521.13
616.65	1513.76
617.00	1506.36
617.35	1498.66
617.70	1490.52
618.04	1482.04
618.39	1473.71
618.74	1466.13
619.08	1457.75
619.43	1450.25
619.78	1443.36
620.12	1436.28
620.47	1428.82
620.82	1420.81
621.16	1413.48
621.51	1405.86
621.85	1398.20
622.20	1389.69
622.55	1381.41
622.89	1373.63
623.24	1366.03
623.59	1358.72
623.93	1351.36
624.28	1344.03
624.62	1336.52
624.97	1329.35
625.32	1322.42
625.66	1315.50
626.01	1308.36
626.35	1301.00
626.70	1293.33
627.04	1285.58
627.39	1277.77
627.73	1270.45
628.08	1263.46
628.43	1256.18
628.77	1248.86
629.12	1241.42
629.46	1234.30
629.81	1226.72
630.15	1219.40
630.50	1211.95
630.84	1203.74
631.19	1195.65
631.53	1188.17
631.88	1180.56
632.22	1172.96
632.57	1165.75
632.91	1158.10
633.26	1150.72
633.60	1143.20
633.95	1135.97
634.29	1129.00
634.64	1122.35
634.98	1114.99
635.32	1107.82
635.67	1101.22
636.01	1094.66
636.36	1087.84
636.70	1081.25
637.05	1074.82
637.39	1068.37
637.73	1062.07
638.08	1056.22
638.42	1050.35
638.77	1043.87
639.11	1037.42
639.45	1031.01
639.80	1024.36
640.14	1018.11
640.49	1011.62
640.83	1005.43
641.17	999.18
641.52	992.77
641.86	986.28
642.20	980.48
642.55	974.22
642.89	967.78
643.23	961.11
643.58	955.44
643.92	949.26
644.26	943.20
644.61	937.13
644.95	931.03
645.29	924.49
645.64	917.69
645.98	911.40
646.32	905.57
646.66	899.56
647.01	893.88
647.35	888.20
647.69	882.33
648.04	876.76
648.38	871.07
648.72	865.23
649.06	859.29
649.41	853.33
649.75	847.42
650.09	841.43
650.43	835.77
650.78	829.56
651.12	823.66
651.46	817.98
651.80	812.34
652.14	807.02
652.49	801.64
652.83	796.52
653.17	790.89
653.51	785.12
653.85	779.67
654.20	774.01
654.54	767.95
654.88	762.29
655.22	756.43
655.56	750.72
655.90	745.18
656.25	739.90
656.59	734.57
656.93	729.38
657.27	724.27
657.61	718.80
657.95	713.67
658.29	708.53
658.64	703.21
658.98	697.84
659.32	692.33
659.66	687.13
660.00	681.82
660.34	676.84
660.68	671.95
661.02	666.93
661.36	662.20
661.70	657.78
662.05	653.42
662.39	649.13
662.73	644.63
663.07	640.24
663.41	635.76
663.75	631.24
664.09	626.73
664.43	622.35
664.77	618.19
665.11	613.93
665.45	609.79
665.79	605.71
666.13	601.63
666.47	597.51
666.81	593.33
667.15	589.25
667.49	585.37
667.83	581.52
668.17	577.62
668.51	573.53
668.85	569.46
669.19	565.56
669.53	561.71
669.87	557.83
670.21	554.14
670.55	550.51
670.89	547.12
671.23	543.69
671.57	540.15
671.91	536.64
672.25	533.13
672.58	529.67
672.92	526.23
673.26	522.97
673.60	519.80
673.94	516.68
674.28	513.77
674.62	510.78
674.96	507.67
675.30	504.77
675.64	501.85
675.97	499.01
676.31	496.11
676.65	493.18
676.99	490.53
677.33	487.64
677.67	484.82
678.01	481.77
678.34	478.80
678.68	475.95
679.02	473.13
679.36	470.39
679.70	467.66
680.04	464.97
680.37	462.18
680.71	459.39
681.05	456.81
681.39	454.08
681.73	451.42
682.06	448.94
682.40	446.44
682.74	443.93
683.08	441.39
683.42	438.80
683.75	436.29
684.09	433.72
684.43	431.27
684.77	428.79
685.10	426.45
685.44	424.11
685.78	421.83
686.12	419.60
686.45	417.31
686.79	415.06
687.13	412.85
687.46	410.73
687.80	408.56
688.14	406.32
688.48	404.26
688.81	402.02
689.15	399.86
689.49	397.63
689.82	395.56
690.16	393.46
690.50	391.51
690.83	389.60
691.17	387.64
691.51	385.69
691.84	383.85
692.18	381.90
692.52	379.95
692.85	377.96
693.19	376.05
693.52	374.20
693.86	372.30
694.20	370.51
694.53	368.67
694.87	366.83
695.21	365.07
695.54	363.28
695.88	361.55
696.21	359.76
696.55	358.08
696.88	356.38
697.22	354.65
697.56	353.02
697.89	351.33
698.23	349.71
698.56	348.13
698.90	346.60
699.23	345.00
699.57	343.41
699.90	341.92
700.24	340.35
700.58	338.88
700.91	337.41
701.25	335.89
701.58	334.55
701.92	333.19
702.25	331.83
702.59	330.43
702.92	329.09
703.26	327.82
703.59	326.54
703.93	325.34
704.26	324.17
704.60	322.86
704.93	321.63
705.26	320.32
705.60	319.11
705.93	317.89
706.27	316.83
706.60	315.80
706.94	314.67
707.27	313.60
707.61	312.50
707.94	311.45
708.27	310.40
708.61	309.31
708.94	308.33
709.28	307.28
709.61	306.31
709.94	305.40
710.28	304.40
710.61	303.41
710.95	302.34
711.28	301.45
711.61	300.53
711.95	299.61
712.28	298.73
712.61	297.80
712.95	296.90
713.28	296.02
713.61	295.10
713.95	294.22
714.28	293.33
714.61	292.49
714.95	291.67
715.28	290.84
715.61	289.93
715.95	289.08
716.28	288.24
716.61	287.42
716.95	286.58
717.28	285.81
717.61	285.02
717.94	284.32
718.28	283.49
718.61	282.73
718.94	282.05
719.27	281.42
719.61	280.76
719.94	280.08
720.27	279.37
720.60	278.72
720.94	278.11
721.27	277.52
721.60	276.93
721.93	276.33
722.27	275.78
722.60	275.20
722.93	274.60
723.26	274.09
723.59	273.56
723.93	273.02
724.26	272.48
724.59	271.97
724.92	271.40
725.25	270.92
725.59	270.41
725.92	269.89
726.25	269.35
726.58	268.87
726.91	268.37
727.24	267.88
727.57	267.42
727.91	266.88
728.24	266.41
728.57	265.90
728.90	265.44
729.23	264.94
729.56	264.54
729.89	264.11
730.22	263.62
730.55	263.11
730.89	262.65
731.22	262.18
731.55	261.74
731.88	261.34
732.21	260.92
732.54	260.50
732.87	260.07
733.20	259.66
733.53	259.27
733.86	258.89
734.19	258.53
734.52	258.17
734.85	257.84
735.18	257.45
735.51	257.09
735.84	256.68
736.17	256.33
736.50	255.90
736.83	255.66
737.16	255.31
737.49	254.98
737.82	254.67
738.15	254.35
738.48	253.98
738.81	253.58
739.14	253.22
739.47	252.88
739.80	252.55
740.13	252.24
740.46	251.91
740.79	251.57
741.12	251.20
741.45	250.83
741.78	250.50
742.11	250.22
742.44	249.90
742.77	249.62
743.10	249.32
743.43	249.08
743.75	248.67
744.08	248.49
744.41	248.21
744.74	247.93
745.07	247.64
745.40	247.41
745.73	247.21
746.06	246.96
746.39	246.68
746.71	246.41
747.04	246.12
747.37	245.86
747.70	245.62
748.03	245.40
748.36	245.20
748.68	244.99
749.01	244.71
749.34	244.49
749.67	244.26
750.00	244.05
750.33	243.86
750.65	243.65
750.98	243.35
751.31	243.15
751.64	242.91
751.97	242.75
752.29	242.57
752.62	242.32
752.95	242.13
753.28	241.95
753.60	241.74
753.93	241.58
754.26	241.41
754.59	241.17
754.91	240.94
755.24	240.77
755.57	240.57
755.90	240.42
756.22	240.24
756.55	240.04
756.88	239.84
757.20	239.61
757.53	239.45
757.86	239.26
758.19	239.12
758.51	238.97
758.84	238.76
759.17	238.58
759.49	238.45
759.82	238.33
760.15	238.20
760.47	238.06
760.80	237.84
761.13	237.70
761.45	237.56
761.78	237.42
762.11	237.25
762.43	237.09
762.76	236.94
763.08	236.77
763.41	236.68
763.74	236.55
764.06	236.40
764.39	236.22
764.71	236.08
765.04	235.93
765.37	235.78
765.69	235.63
766.02	235.45
766.34	235.27
766.67	235.10
767.00	234.97
767.32	234.91
767.65	234.90
767.97	234.76
768.30	234.64
768.62	234.53
768.95	234.42
769.27	234.30
769.60	234.18
769.92	234.10
770.25	233.97
770.57	233.84
770.90	233.74
771.22	233.66
771.55	233.57
771.87	233.47
772.20	233.37
772.52	233.35
772.85	233.42
773.17	233.36
773.50	233.24
773.82	233.16
774.15	233.00
774.47	232.87
774.80	232.80
775.12	232.71
775.45	232.66
775.77	232.62
776.09	232.59
776.42	232.53
776.74	232.46
777.07	232.35
777.39	232.31
777.72	232.23
778.04	232.16
778.36	232.09
778.69	232.03
779.01	231.99
779.33	231.87
779.66	231.67
779.98	231.61
780.31	231.58
780.63	231.56
780.95	231.50
781.28	231.39
781.60	231.32
781.92	231.25
782.25	231.15
782.57	231.02
782.89	230.95
783.22	230.85
783.54	230.77
783.86	230.73
784.19	230.63
784.51	230.60
784.83	230.53
785.16	230.48
785.48	230.44
785.80	230.38
786.12	230.31
786.45	230.26
786.77	230.19
787.09	230.13
