SpectraSuite Data File
++++++++++++++++++++++++++++++++++++
Date: Fri Feb 01 15:29:20 EST 2013
User: group
Dark Spectrum Present: No
Reference Spectrum Present: No
Number of Sampled Component Spectra: 1
Spectrometers: USB2E7196
Integration Time (usec): 35000 (USB2E7196)
Spectra Averaged: 100 (USB2E7196)
Boxcar Smoothing: 10 (USB2E7196)
Correct for Electrical Dark: No (USB2E7196)
Strobe/Lamp Enabled: No (USB2E7196)
Correct for Detector Non-linearity: No (USB2E7196)
Correct for Stray Light: No (USB2E7196)
Number of Pixels in Processed Spectrum: 2048
>>>>>Begin Processed Spectral Data<<<<<
339.09	0.00
339.48	215.24
339.86	216.45
340.24	218.09
340.63	219.06
341.01	222.08
341.39	222.18
341.78	223.47
342.16	224.88
342.54	225.11
342.93	213.43
343.31	224.21
343.69	224.73
344.07	225.22
344.46	225.65
344.84	226.03
345.22	226.28
345.60	226.52
345.99	226.69
346.37	226.81
346.75	226.90
347.13	226.98
347.52	227.03
347.90	227.09
348.28	227.11
348.66	227.20
349.05	227.18
349.43	227.22
349.81	227.30
350.19	227.34
350.57	227.40
350.96	227.48
351.34	227.56
351.72	227.66
352.10	227.74
352.48	227.79
352.87	227.85
353.25	227.89
353.63	227.96
354.01	228.07
354.39	228.16
354.77	228.23
355.15	228.33
355.54	228.40
355.92	228.46
356.30	228.53
356.68	228.64
357.06	228.72
357.44	228.76
357.82	228.82
358.20	228.89
358.58	228.94
358.97	228.99
359.35	229.07
359.73	229.11
360.11	229.16
360.49	229.22
360.87	229.25
361.25	229.32
361.63	229.35
362.01	229.39
362.39	229.41
362.77	229.43
363.15	229.43
363.53	229.47
363.91	229.47
364.29	229.47
364.67	229.34
365.05	229.34
365.43	229.37
365.81	229.36
366.19	229.39
366.57	229.39
366.95	229.34
367.33	229.29
367.71	229.27
368.09	229.26
368.47	229.23
368.85	229.20
369.23	229.19
369.61	229.13
369.99	229.12
370.37	229.05
370.75	229.09
371.13	229.03
371.51	228.92
371.89	228.89
372.27	228.86
372.65	228.85
373.03	228.80
373.41	228.71
373.78	228.65
374.16	228.49
374.54	228.42
374.92	228.35
375.30	228.31
375.68	228.22
376.06	228.13
376.44	228.05
376.82	227.98
377.19	227.88
377.57	227.80
377.95	227.66
378.33	227.60
378.71	227.44
379.09	227.39
379.47	227.34
379.84	227.24
380.22	227.16
380.60	227.06
380.98	226.97
381.36	226.91
381.73	226.81
382.11	226.80
382.49	226.74
382.87	226.67
383.25	226.60
383.62	226.66
384.00	226.59
384.38	226.54
384.76	226.52
385.13	226.50
385.51	226.46
385.89	226.43
386.27	226.39
386.64	226.37
387.02	226.28
387.40	226.26
387.78	226.24
388.15	226.20
388.53	226.20
388.91	226.17
389.29	226.14
389.66	226.17
390.04	226.17
390.42	226.16
390.79	226.17
391.17	226.17
391.55	226.05
391.92	226.05
392.30	226.05
392.68	226.01
393.05	226.07
393.43	226.09
393.81	226.11
394.18	226.11
394.56	226.12
394.94	226.20
395.31	226.18
395.69	226.23
396.06	226.30
396.44	226.35
396.82	226.39
397.19	226.50
397.57	226.51
397.95	226.55
398.32	226.58
398.70	226.65
399.07	226.68
399.45	226.77
399.82	226.84
400.20	226.92
400.58	227.02
400.95	227.04
401.33	227.15
401.70	227.30
402.08	227.42
402.45	227.55
402.83	227.67
403.20	227.84
403.58	227.97
403.95	228.11
404.33	228.24
404.71	228.39
405.08	228.55
405.46	228.69
405.83	228.86
406.21	229.03
406.58	229.22
406.96	229.44
407.33	229.64
407.70	229.88
408.08	230.14
408.45	230.39
408.83	230.63
409.20	230.83
409.58	231.01
409.95	231.26
410.33	231.52
410.70	231.80
411.08	232.10
411.45	232.39
411.82	232.71
412.20	233.06
412.57	233.47
412.95	233.76
413.32	234.19
413.69	234.60
414.07	235.04
414.44	235.51
414.82	235.96
415.19	236.51
415.56	237.03
415.94	237.58
416.31	238.23
416.68	238.86
417.06	239.57
417.43	240.29
417.81	241.05
418.18	241.81
418.55	242.64
418.93	243.51
419.30	244.39
419.67	245.31
420.04	246.25
420.42	247.25
420.79	248.44
421.16	249.60
421.54	250.82
421.91	252.04
422.28	253.26
422.66	254.58
423.03	255.88
423.40	257.20
423.77	258.62
424.15	260.00
424.52	261.49
424.89	263.11
425.26	264.65
425.64	266.11
426.01	267.70
426.38	269.35
426.75	271.03
427.13	272.75
427.50	274.57
427.87	276.46
428.24	278.33
428.61	280.07
428.99	282.02
429.36	284.08
429.73	286.10
430.10	288.14
430.47	290.23
430.85	292.30
431.22	294.58
431.59	296.95
431.96	299.21
432.33	301.70
432.70	304.11
433.08	306.88
433.45	309.49
433.82	312.17
434.19	315.08
434.56	317.88
434.93	320.57
435.30	323.18
435.68	326.08
436.05	328.91
436.42	331.75
436.79	334.27
437.16	337.00
437.53	339.88
437.90	342.70
438.27	345.40
438.64	348.31
439.01	350.90
439.38	353.12
439.75	355.31
440.13	357.84
440.50	360.18
440.87	362.08
441.24	364.05
441.61	366.14
441.98	367.59
442.35	369.42
442.72	371.31
443.09	373.11
443.46	374.12
443.83	374.73
444.20	375.20
444.57	375.99
444.94	376.28
445.31	376.63
445.68	376.99
446.05	377.14
446.42	376.74
446.79	376.29
447.16	375.89
447.53	375.56
447.90	374.35
448.27	373.15
448.64	371.54
449.01	370.40
449.37	368.44
449.74	366.58
450.11	364.32
450.48	361.82
450.85	359.27
451.22	357.09
451.59	355.04
451.96	353.12
452.33	350.59
452.70	348.20
453.07	345.33
453.43	342.43
453.80	339.63
454.17	336.95
454.54	334.43
454.91	331.69
455.28	329.01
455.65	326.51
456.02	324.06
456.38	321.91
456.75	319.24
457.12	316.98
457.49	314.74
457.86	312.56
458.23	310.70
458.59	308.68
458.96	306.57
459.33	304.69
459.70	302.78
460.07	301.21
460.43	299.53
460.80	297.92
461.17	296.50
461.54	294.97
461.91	293.50
462.27	292.06
462.64	290.80
463.01	289.45
463.38	288.14
463.74	286.74
464.11	285.60
464.48	284.60
464.85	283.50
465.21	282.62
465.58	281.69
465.95	280.58
466.32	279.65
466.68	278.77
467.05	277.90
467.42	277.03
467.78	276.10
468.15	275.19
468.52	274.50
468.88	273.60
469.25	272.85
469.62	272.25
469.98	271.56
470.35	270.95
470.72	270.36
471.08	269.70
471.45	269.20
471.82	268.63
472.18	268.00
472.55	267.54
472.92	266.99
473.28	266.50
473.65	266.01
474.02	265.58
474.38	265.20
474.75	264.82
475.11	264.45
475.48	264.16
475.85	263.91
476.21	263.65
476.58	263.51
476.94	263.35
477.31	263.17
477.67	262.97
478.04	262.82
478.41	262.73
478.77	262.75
479.14	262.67
479.50	262.67
479.87	262.75
480.23	262.80
480.60	262.88
480.96	262.99
481.33	263.21
481.69	263.39
482.06	263.55
482.42	263.79
482.79	264.06
483.15	264.42
483.52	264.82
483.88	265.20
484.25	265.57
484.61	266.01
484.98	266.46
485.34	267.06
485.71	267.65
486.07	268.28
486.44	268.85
486.80	269.55
487.17	270.27
487.53	271.07
487.90	271.92
488.26	272.90
488.62	273.86
488.99	274.79
489.35	275.86
489.72	277.01
490.08	278.18
490.44	279.43
490.81	280.73
491.17	282.06
491.54	283.54
491.90	285.10
492.26	286.75
492.63	288.48
492.99	290.26
493.36	292.17
493.72	294.17
494.08	296.29
494.45	298.53
494.81	300.91
495.17	303.32
495.54	305.92
495.90	308.56
496.26	311.40
496.63	314.40
496.99	317.54
497.35	320.81
497.72	324.26
498.08	327.75
498.44	331.41
498.80	335.37
499.17	339.38
499.53	343.56
499.89	347.94
500.26	352.43
500.62	357.08
500.98	362.02
501.34	367.17
501.71	372.51
502.07	377.96
502.43	383.57
502.79	389.44
503.16	395.51
503.52	401.81
503.88	408.25
504.24	414.95
504.60	421.81
504.97	428.99
505.33	436.28
505.69	443.96
506.05	451.80
506.41	459.73
506.78	467.88
507.14	476.33
507.50	485.04
507.86	494.07
508.22	503.30
508.59	512.52
508.95	522.13
509.31	531.93
509.67	542.07
510.03	552.34
510.39	562.91
510.75	573.76
511.12	584.71
511.48	595.94
511.84	607.36
512.20	618.93
512.56	630.87
512.92	643.08
513.28	655.43
513.64	667.88
514.00	680.61
514.37	693.59
514.73	706.63
515.09	719.62
515.45	732.95
515.81	746.56
516.17	760.57
516.53	774.67
516.89	788.90
517.25	803.06
517.61	817.60
517.97	832.06
518.33	846.49
518.69	861.26
519.05	876.34
519.41	891.58
519.77	907.15
520.13	922.60
520.49	938.02
520.85	953.55
521.21	969.35
521.57	985.57
521.93	1001.47
522.29	1017.99
522.65	1034.35
523.01	1050.56
523.37	1066.64
523.73	1082.87
524.09	1099.04
524.45	1115.37
524.81	1132.02
525.17	1148.83
525.53	1165.72
525.89	1182.67
526.25	1199.51
526.61	1216.00
526.97	1232.77
527.33	1249.31
527.68	1265.93
528.04	1282.54
528.40	1299.24
528.76	1316.39
529.12	1333.10
529.48	1349.96
529.84	1365.97
530.20	1382.70
530.56	1399.78
530.91	1417.27
531.27	1434.04
531.63	1450.47
531.99	1467.11
532.35	1483.17
532.71	1499.10
533.07	1515.46
533.42	1531.39
533.78	1547.50
534.14	1563.65
534.50	1579.05
534.86	1594.87
535.21	1610.18
535.57	1626.23
535.93	1641.76
536.29	1656.50
536.65	1671.74
537.00	1686.69
537.36	1702.06
537.72	1716.59
538.08	1731.09
538.44	1744.90
538.79	1758.88
539.15	1772.81
539.51	1786.63
539.87	1801.09
540.22	1814.86
540.58	1828.76
540.94	1842.23
541.29	1855.26
541.65	1868.18
542.01	1881.56
542.37	1894.06
542.72	1906.57
543.08	1918.19
543.44	1930.60
543.79	1941.94
544.15	1952.94
544.51	1964.34
544.87	1975.45
545.22	1986.27
545.58	1996.58
545.94	2006.43
546.29	2016.43
546.65	2026.12
547.01	2035.46
547.36	2044.25
547.72	2052.87
548.07	2060.84
548.43	2069.06
548.79	2077.10
549.14	2084.71
549.50	2092.03
549.86	2099.74
550.21	2106.94
550.57	2114.33
550.92	2120.95
551.28	2127.96
551.64	2135.04
551.99	2141.69
552.35	2147.97
552.70	2154.12
553.06	2160.06
553.41	2166.45
553.77	2172.50
554.13	2178.66
554.48	2184.75
554.84	2190.19
555.19	2195.48
555.55	2200.47
555.90	2204.92
556.26	2209.75
556.61	2214.40
556.97	2218.66
557.32	2222.83
557.68	2227.08
558.03	2231.33
558.39	2235.07
558.74	2239.74
559.10	2243.48
559.45	2247.04
559.81	2251.27
560.16	2255.17
560.52	2258.48
560.87	2261.81
561.23	2264.47
561.58	2267.38
561.94	2269.87
562.29	2272.23
562.64	2274.97
563.00	2277.55
563.35	2281.11
563.71	2284.29
564.06	2287.47
564.42	2290.40
564.77	2292.85
565.12	2295.04
565.48	2296.80
565.83	2298.54
566.19	2299.97
566.54	2300.87
566.89	2302.16
567.25	2302.62
567.60	2303.94
567.96	2305.57
568.31	2306.52
568.66	2307.47
569.02	2308.12
569.37	2308.45
569.72	2309.15
570.08	2309.16
570.43	2309.13
570.78	2308.40
571.14	2306.79
571.49	2305.44
571.84	2304.98
572.20	2303.71
572.55	2302.66
572.90	2301.13
573.26	2299.68
573.61	2297.79
573.96	2295.98
574.31	2292.86
574.67	2289.84
575.02	2286.01
575.37	2282.53
575.72	2278.49
576.08	2275.23
576.43	2271.75
576.78	2267.94
577.13	2264.87
577.49	2261.76
577.84	2258.20
578.19	2254.29
578.54	2250.52
578.90	2246.28
579.25	2240.68
579.60	2235.63
579.95	2230.52
580.30	2225.34
580.66	2220.13
581.01	2215.27
581.36	2210.22
581.71	2205.85
582.06	2201.30
582.42	2196.95
582.77	2191.70
583.12	2187.10
583.47	2182.08
583.82	2177.15
584.17	2171.79
584.53	2166.10
584.88	2160.34
585.23	2154.46
585.58	2148.92
585.93	2143.38
586.28	2138.42
586.63	2133.17
586.98	2128.10
587.34	2123.54
587.69	2118.62
588.04	2113.35
588.39	2107.44
588.74	2100.92
589.09	2094.90
589.44	2088.06
589.79	2081.84
590.14	2076.11
590.49	2069.56
590.84	2063.23
591.19	2056.99
591.54	2050.50
591.89	2042.99
592.25	2036.08
592.60	2028.96
592.95	2021.43
593.30	2014.14
593.65	2006.55
594.00	1999.59
594.35	1992.24
594.70	1983.90
595.05	1976.56
595.40	1969.28
595.75	1961.70
596.10	1955.45
596.45	1948.54
596.80	1942.21
597.15	1935.46
597.50	1928.27
597.85	1921.77
598.19	1915.01
598.54	1907.90
598.89	1901.41
599.24	1895.52
599.59	1888.77
599.94	1882.43
600.29	1876.02
600.64	1869.29
600.99	1861.70
601.34	1854.71
601.69	1847.76
602.04	1840.80
602.39	1833.53
602.74	1826.51
603.08	1819.84
603.43	1813.11
603.78	1805.77
604.13	1798.57
604.48	1791.36
604.83	1784.51
605.18	1777.31
605.53	1769.37
605.87	1761.27
606.22	1753.86
606.57	1745.93
606.92	1738.62
607.27	1731.46
607.62	1724.48
607.96	1717.26
608.31	1710.70
608.66	1703.02
609.01	1695.42
609.36	1687.95
609.70	1679.80
610.05	1671.77
610.40	1663.93
610.75	1655.57
611.10	1647.91
611.44	1639.64
611.79	1631.56
612.14	1622.90
612.49	1613.89
612.83	1605.53
613.18	1597.50
613.53	1589.47
613.88	1580.98
614.22	1572.71
614.57	1564.04
614.92	1556.12
615.27	1548.53
615.61	1540.17
615.96	1532.13
616.31	1524.39
616.65	1516.96
617.00	1509.59
617.35	1501.93
617.70	1493.65
618.04	1485.04
618.39	1476.71
618.74	1468.95
619.08	1460.69
619.43	1453.06
619.78	1446.12
620.12	1438.87
620.47	1431.24
620.82	1423.05
621.16	1415.64
621.51	1408.04
621.85	1400.47
622.20	1392.02
622.55	1383.67
622.89	1375.80
623.24	1368.21
623.59	1360.90
623.93	1353.42
624.28	1346.04
624.62	1338.48
624.97	1331.27
625.32	1324.58
625.66	1317.61
626.01	1310.43
626.35	1302.90
626.70	1295.24
627.04	1287.38
627.39	1279.61
627.73	1272.15
628.08	1265.19
628.43	1257.82
628.77	1250.37
629.12	1242.70
629.46	1235.25
629.81	1227.69
630.15	1220.50
630.50	1213.04
630.84	1204.84
631.19	1196.86
631.53	1189.36
631.88	1181.90
632.22	1174.30
632.57	1166.96
632.91	1159.33
633.26	1151.84
633.60	1144.59
633.95	1137.43
634.29	1130.48
634.64	1123.79
634.98	1116.43
635.32	1109.28
635.67	1102.72
636.01	1096.11
636.36	1089.37
636.70	1082.95
637.05	1076.50
637.39	1069.99
637.73	1063.51
638.08	1057.68
638.42	1051.76
638.77	1045.37
639.11	1038.73
639.45	1032.38
639.80	1025.73
640.14	1019.40
640.49	1012.85
640.83	1006.49
641.17	1000.23
641.52	993.97
641.86	987.53
642.20	981.78
642.55	975.51
642.89	969.03
643.23	962.39
643.58	956.62
643.92	950.40
644.26	944.28
644.61	938.34
644.95	932.33
645.29	925.62
645.64	918.89
645.98	912.47
646.32	906.57
646.66	900.57
647.01	894.79
647.35	889.10
647.69	883.40
648.04	877.88
648.38	872.09
648.72	866.02
649.06	860.04
649.41	854.14
649.75	848.11
650.09	842.15
650.43	836.41
650.78	830.24
651.12	824.34
651.46	818.64
651.80	812.79
652.14	807.39
652.49	802.11
652.83	796.89
653.17	791.21
653.51	785.48
653.85	780.05
654.20	774.35
654.54	768.33
654.88	762.52
655.22	756.63
655.56	750.95
655.90	745.46
656.25	740.14
656.59	734.78
656.93	729.75
657.27	724.56
657.61	719.11
657.95	714.02
658.29	708.95
658.64	703.71
658.98	698.40
659.32	692.98
659.66	687.75
660.00	682.48
660.34	677.55
660.68	672.63
661.02	667.61
661.36	662.90
661.70	658.42
662.05	654.11
662.39	649.79
662.73	645.30
663.07	640.97
663.41	636.56
663.75	631.96
664.09	627.29
664.43	622.89
664.77	618.85
665.11	614.59
665.45	610.45
665.79	606.37
666.13	602.31
666.47	598.18
666.81	593.95
667.15	589.85
667.49	586.01
667.83	582.24
668.17	578.29
668.51	574.27
668.85	570.24
669.19	566.39
669.53	562.51
669.87	558.63
670.21	554.92
670.55	551.22
670.89	547.85
671.23	544.47
671.57	541.01
671.91	537.47
672.25	534.01
672.58	530.50
672.92	527.14
673.26	523.96
673.60	520.86
673.94	517.80
674.28	514.82
674.62	511.87
674.96	508.75
675.30	505.79
675.64	502.87
675.97	500.13
676.31	497.28
676.65	494.33
676.99	491.66
677.33	488.82
677.67	486.06
678.01	483.04
678.34	480.04
678.68	477.11
679.02	474.31
679.36	471.54
679.70	468.79
680.04	465.99
680.37	463.11
680.71	460.30
681.05	457.73
681.39	455.02
681.73	452.36
682.06	449.87
682.40	447.34
682.74	444.79
683.08	442.24
683.42	439.61
683.75	437.13
684.09	434.56
684.43	432.09
684.77	429.59
685.10	427.28
685.44	425.06
685.78	422.81
686.12	420.59
686.45	418.32
686.79	416.07
687.13	413.94
687.46	411.81
687.80	409.61
688.14	407.38
688.48	405.34
688.81	403.08
689.15	400.89
689.49	398.80
689.82	396.76
690.16	394.65
690.50	392.73
690.83	390.78
691.17	388.83
691.51	386.90
691.84	385.06
692.18	383.09
692.52	381.03
692.85	379.11
693.19	377.17
693.52	375.33
693.86	373.50
694.20	371.71
694.53	369.90
694.87	368.13
695.21	366.35
695.54	364.57
695.88	362.81
696.21	361.15
696.55	359.46
696.88	357.74
697.22	356.08
697.56	354.44
697.89	352.80
698.23	351.18
698.56	349.57
698.90	348.02
699.23	346.37
699.57	344.83
699.90	343.27
700.24	341.72
700.58	340.19
700.91	338.68
701.25	337.18
701.58	335.80
701.92	334.46
702.25	333.08
702.59	331.71
702.92	330.40
703.26	329.05
703.59	327.77
703.93	326.60
704.26	325.35
704.60	324.04
704.93	322.80
705.26	321.58
705.60	320.42
705.93	319.23
706.27	318.23
706.60	317.22
706.94	316.17
707.27	315.05
707.61	313.98
707.94	312.96
708.27	311.91
708.61	310.81
708.94	309.76
709.28	308.78
709.61	307.78
709.94	306.81
710.28	305.78
710.61	304.81
710.95	303.73
711.28	302.80
711.61	301.87
711.95	300.91
712.28	299.90
712.61	298.94
712.95	297.98
713.28	297.10
713.61	296.19
713.95	295.31
714.28	294.49
714.61	293.65
714.95	292.77
715.28	291.92
715.61	291.03
715.95	290.18
716.28	289.29
716.61	288.46
716.95	287.65
717.28	286.94
717.61	286.18
717.94	285.47
718.28	284.69
718.61	283.98
718.94	283.32
719.27	282.72
719.61	282.10
719.94	281.45
720.27	280.70
720.60	280.03
720.94	279.39
721.27	278.80
721.60	278.23
721.93	277.61
722.27	277.09
722.60	276.55
722.93	275.97
723.26	275.44
723.59	274.89
723.93	274.37
724.26	273.80
724.59	273.21
724.92	272.68
725.25	272.15
725.59	271.64
725.92	271.11
726.25	270.59
726.58	270.09
726.91	269.61
727.24	269.19
727.57	268.73
727.91	268.24
728.24	267.75
728.57	267.28
728.90	266.87
729.23	266.34
729.56	265.93
729.89	265.46
730.22	265.00
730.55	264.52
730.89	264.08
731.22	263.66
731.55	263.25
731.88	262.81
732.21	262.38
732.54	261.93
732.87	261.51
733.20	261.11
733.53	260.74
733.86	260.34
734.19	259.89
734.52	259.51
734.85	259.21
735.18	258.78
735.51	258.38
735.84	258.03
736.17	257.68
736.50	257.29
736.83	257.06
737.16	256.72
737.49	256.43
737.82	256.06
738.15	255.70
738.48	255.36
738.81	255.03
739.14	254.74
739.47	254.42
739.80	254.11
740.13	253.78
740.46	253.43
740.79	253.09
741.12	252.79
741.45	252.46
741.78	252.09
742.11	251.84
742.44	251.53
742.77	251.19
743.10	250.89
743.43	250.62
743.75	250.22
744.08	250.06
744.41	249.76
744.74	249.50
745.07	249.19
745.40	248.96
745.73	248.75
746.06	248.45
746.39	248.15
746.71	247.86
747.04	247.60
747.37	247.34
747.70	247.13
748.03	246.85
748.36	246.63
748.68	246.38
749.01	246.16
749.34	245.92
749.67	245.69
750.00	245.45
750.33	245.25
750.65	245.06
750.98	244.72
751.31	244.46
751.64	244.27
751.97	244.07
752.29	243.84
752.62	243.55
752.95	243.33
753.28	243.15
753.60	242.97
753.93	242.79
754.26	242.58
754.59	242.33
754.91	242.17
755.24	241.95
755.57	241.74
755.90	241.54
756.22	241.34
756.55	241.12
756.88	240.96
757.20	240.75
757.53	240.53
757.86	240.37
758.19	240.24
758.51	240.09
758.84	239.94
759.17	239.78
759.49	239.67
759.82	239.57
760.15	239.46
760.47	239.33
760.80	239.17
761.13	239.08
761.45	238.98
761.78	238.84
762.11	238.71
762.43	238.58
762.76	238.43
763.08	238.32
763.41	238.22
763.74	238.10
764.06	237.95
764.39	237.88
764.71	237.75
765.04	237.62
765.37	237.46
765.69	237.34
766.02	237.20
766.34	237.09
766.67	236.97
767.00	236.84
767.32	236.80
767.65	236.75
767.97	236.64
768.30	236.51
768.62	236.39
768.95	236.28
769.27	236.17
769.60	236.07
769.92	235.98
770.25	235.90
770.57	235.75
770.90	235.65
771.22	235.51
771.55	235.43
771.87	235.35
772.20	235.29
772.52	235.24
772.85	235.28
773.17	235.18
773.50	235.05
773.82	234.97
774.15	234.81
774.47	234.66
774.80	234.53
775.12	234.44
775.45	234.35
775.77	234.30
776.09	234.24
776.42	234.18
776.74	234.11
777.07	234.02
777.39	233.95
777.72	233.84
778.04	233.77
778.36	233.71
778.69	233.62
779.01	233.53
779.33	233.39
779.66	233.20
779.98	233.11
780.31	233.05
780.63	233.00
780.95	232.94
781.28	232.86
781.60	232.79
781.92	232.72
782.25	232.65
782.57	232.55
782.89	232.46
783.22	232.38
783.54	232.28
783.86	232.23
784.19	232.18
784.51	232.18
784.83	232.11
785.16	232.02
785.48	231.96
785.80	231.90
786.12	231.81
786.45	231.75
786.77	231.71
787.09	231.67
