SpectraSuite Data File
++++++++++++++++++++++++++++++++++++
Date: Fri Feb 01 16:13:23 EST 2013
User: group
Dark Spectrum Present: No
Reference Spectrum Present: No
Number of Sampled Component Spectra: 1
Spectrometers: USB2E7196
Integration Time (usec): 35000 (USB2E7196)
Spectra Averaged: 100 (USB2E7196)
Boxcar Smoothing: 10 (USB2E7196)
Correct for Electrical Dark: No (USB2E7196)
Strobe/Lamp Enabled: No (USB2E7196)
Correct for Detector Non-linearity: No (USB2E7196)
Correct for Stray Light: No (USB2E7196)
Number of Pixels in Processed Spectrum: 2048
>>>>>Begin Processed Spectral Data<<<<<
339.09	0.00
339.48	214.43
339.86	216.26
340.24	217.54
340.63	218.78
341.01	221.93
341.39	221.33
341.78	223.03
342.16	224.07
342.54	224.50
342.93	212.86
343.31	223.63
343.69	224.13
344.07	224.54
344.46	224.96
344.84	225.31
345.22	225.51
345.60	225.74
345.99	225.90
346.37	226.04
346.75	226.14
347.13	226.19
347.52	226.22
347.90	226.28
348.28	226.31
348.66	226.32
349.05	226.34
349.43	226.34
349.81	226.36
350.19	226.40
350.57	226.48
350.96	226.57
351.34	226.65
351.72	226.75
352.10	226.87
352.48	226.89
352.87	226.93
353.25	226.99
353.63	227.07
354.01	227.11
354.39	227.17
354.77	227.23
355.15	227.31
355.54	227.39
355.92	227.41
356.30	227.46
356.68	227.65
357.06	227.71
357.44	227.76
357.82	227.82
358.20	227.89
358.58	227.94
358.97	228.00
359.35	228.08
359.73	228.15
360.11	228.19
360.49	228.27
360.87	228.35
361.25	228.43
361.63	228.51
362.01	228.56
362.39	228.56
362.77	228.57
363.15	228.62
363.53	228.62
363.91	228.63
364.29	228.66
364.67	228.55
365.05	228.58
365.43	228.63
365.81	228.68
366.19	228.73
366.57	228.79
366.95	228.78
367.33	228.71
367.71	228.72
368.09	228.76
368.47	228.74
368.85	228.74
369.23	228.71
369.61	228.64
369.99	228.66
370.37	228.68
370.75	228.74
371.13	228.68
371.51	228.62
371.89	228.64
372.27	228.61
372.65	228.58
373.03	228.52
373.41	228.45
373.78	228.37
374.16	228.29
374.54	228.19
374.92	228.14
375.30	228.08
375.68	228.03
376.06	227.94
376.44	227.88
376.82	227.80
377.19	227.73
377.57	227.66
377.95	227.53
378.33	227.43
378.71	227.31
379.09	227.26
379.47	227.23
379.84	227.13
380.22	227.06
380.60	226.97
380.98	226.90
381.36	226.83
381.73	226.75
382.11	226.68
382.49	226.61
382.87	226.53
383.25	226.50
383.62	226.51
384.00	226.46
384.38	226.41
384.76	226.36
385.13	226.34
385.51	226.31
385.89	226.28
386.27	226.26
386.64	226.22
387.02	226.17
387.40	226.13
387.78	226.09
388.15	226.05
388.53	226.03
388.91	226.02
389.29	225.98
389.66	225.97
390.04	225.91
390.42	225.92
390.79	225.88
391.17	225.84
391.55	225.72
391.92	225.67
392.30	225.66
392.68	225.66
393.05	225.65
393.43	225.65
393.81	225.63
394.18	225.63
394.56	225.63
394.94	225.68
395.31	225.68
395.69	225.76
396.06	225.79
396.44	225.81
396.82	225.80
397.19	225.92
397.57	225.92
397.95	226.00
398.32	226.01
398.70	226.05
399.07	226.16
399.45	226.21
399.82	226.29
400.20	226.34
400.58	226.39
400.95	226.43
401.33	226.53
401.70	226.68
402.08	226.74
402.45	226.83
402.83	226.95
403.20	227.06
403.58	227.13
403.95	227.28
404.33	227.41
404.71	227.55
405.08	227.71
405.46	227.86
405.83	227.99
406.21	228.12
406.58	228.30
406.96	228.43
407.33	228.63
407.70	228.80
408.08	229.07
408.45	229.31
408.83	229.54
409.20	229.77
409.58	229.95
409.95	230.23
410.33	230.51
410.70	230.73
411.08	231.03
411.45	231.29
411.82	231.54
412.20	231.90
412.57	232.28
412.95	232.60
413.32	233.01
413.69	233.43
414.07	233.88
414.44	234.35
414.82	234.83
415.19	235.39
415.56	235.96
415.94	236.49
416.31	237.14
416.68	237.76
417.06	238.44
417.43	239.13
417.81	239.88
418.18	240.64
418.55	241.47
418.93	242.31
419.30	243.21
419.67	244.19
420.04	245.15
420.42	246.15
420.79	247.29
421.16	248.42
421.54	249.59
421.91	250.85
422.28	252.09
422.66	253.41
423.03	254.69
423.40	256.02
423.77	257.41
424.15	258.80
424.52	260.28
424.89	261.88
425.26	263.44
425.64	264.87
426.01	266.46
426.38	268.12
426.75	269.81
427.13	271.54
427.50	273.35
427.87	275.20
428.24	277.07
428.61	278.81
428.99	280.77
429.36	282.88
429.73	284.89
430.10	286.91
430.47	288.99
430.85	291.15
431.22	293.36
431.59	295.74
431.96	298.05
432.33	300.53
432.70	302.94
433.08	305.75
433.45	308.40
433.82	311.02
434.19	313.87
434.56	316.69
434.93	319.36
435.30	321.94
435.68	324.83
436.05	327.67
436.42	330.48
436.79	332.98
437.16	335.65
437.53	338.49
437.90	341.31
438.27	343.99
438.64	346.77
439.01	349.34
439.38	351.54
439.75	353.66
440.13	356.16
440.50	358.46
440.87	360.28
441.24	362.21
441.61	364.33
441.98	365.81
442.35	367.56
442.72	369.39
443.09	371.21
443.46	372.19
443.83	372.74
444.20	373.23
444.57	374.03
444.94	374.31
445.31	374.66
445.68	375.02
446.05	375.13
446.42	374.70
446.79	374.30
447.16	373.89
447.53	373.59
447.90	372.40
448.27	371.22
448.64	369.64
449.01	368.47
449.37	366.54
449.74	364.67
450.11	362.46
450.48	360.02
450.85	357.46
451.22	355.34
451.59	353.37
451.96	351.47
452.33	348.92
452.70	346.54
453.07	343.71
453.43	340.83
453.80	338.09
454.17	335.49
454.54	332.99
454.91	330.32
455.28	327.64
455.65	325.18
456.02	322.78
456.38	320.67
456.75	318.05
457.12	315.86
457.49	313.62
457.86	311.44
458.23	309.60
458.59	307.59
458.96	305.49
459.33	303.62
459.70	301.77
460.07	300.26
460.43	298.58
460.80	296.98
461.17	295.54
461.54	294.08
461.91	292.66
462.27	291.22
462.64	289.94
463.01	288.59
463.38	287.30
463.74	285.92
464.11	284.73
464.48	283.73
464.85	282.60
465.21	281.80
465.58	280.92
465.95	279.83
466.32	278.96
466.68	278.11
467.05	277.23
467.42	276.36
467.78	275.44
468.15	274.57
468.52	273.92
468.88	273.06
469.25	272.30
469.62	271.68
469.98	271.03
470.35	270.41
470.72	269.82
471.08	269.15
471.45	268.61
471.82	268.10
472.18	267.49
472.55	267.03
472.92	266.50
473.28	266.03
473.65	265.58
474.02	265.13
474.38	264.75
474.75	264.41
475.11	264.06
475.48	263.79
475.85	263.57
476.21	263.34
476.58	263.16
476.94	262.99
477.31	262.85
477.67	262.68
478.04	262.58
478.41	262.54
478.77	262.59
479.14	262.55
479.50	262.59
479.87	262.69
480.23	262.75
480.60	262.83
480.96	262.93
481.33	263.14
481.69	263.37
482.06	263.60
482.42	263.79
482.79	264.04
483.15	264.36
483.52	264.75
483.88	265.06
484.25	265.43
484.61	265.86
484.98	266.26
485.34	266.83
485.71	267.44
486.07	268.02
486.44	268.63
486.80	269.32
487.17	270.02
487.53	270.83
487.90	271.65
488.26	272.54
488.62	273.52
488.99	274.49
489.35	275.51
489.72	276.60
490.08	277.81
490.44	279.05
490.81	280.39
491.17	281.70
491.54	283.14
491.90	284.70
492.26	286.32
492.63	288.07
492.99	289.84
493.36	291.74
493.72	293.82
494.08	295.94
494.45	298.21
494.81	300.57
495.17	303.01
495.54	305.65
495.90	308.35
496.26	311.16
496.63	314.11
496.99	317.24
497.35	320.55
497.72	323.94
498.08	327.45
498.44	331.11
498.80	335.09
499.17	339.20
499.53	343.37
499.89	347.79
500.26	352.31
500.62	356.99
500.98	361.96
501.34	367.06
501.71	372.35
502.07	377.76
502.43	383.38
502.79	389.20
503.16	395.26
503.52	401.52
503.88	407.99
504.24	414.65
504.60	421.53
504.97	428.70
505.33	436.07
505.69	443.78
506.05	451.62
506.41	459.49
506.78	467.66
507.14	476.09
507.50	484.78
507.86	493.84
508.22	503.07
508.59	512.21
508.95	521.74
509.31	531.58
509.67	541.74
510.03	552.02
510.39	562.53
510.75	573.31
511.12	584.25
511.48	595.48
511.84	606.96
512.20	618.50
512.56	630.42
512.92	642.55
513.28	654.93
513.64	667.39
514.00	680.15
514.37	693.01
514.73	706.16
515.09	719.22
515.45	732.44
515.81	746.00
516.17	759.97
516.53	774.06
516.89	788.24
517.25	802.38
517.61	816.83
517.97	831.31
518.33	845.76
518.69	860.63
519.05	875.61
519.41	890.75
519.77	906.24
520.13	921.63
520.49	936.94
520.85	952.21
521.21	967.75
521.57	983.98
521.93	999.65
522.29	1015.97
522.65	1032.08
523.01	1048.18
523.37	1064.22
523.73	1080.37
524.09	1096.50
524.45	1112.71
524.81	1129.23
525.17	1145.89
525.53	1162.72
525.89	1179.47
526.25	1196.15
526.61	1212.56
526.97	1229.20
527.33	1245.66
527.68	1262.18
528.04	1278.62
528.40	1295.27
528.76	1312.39
529.12	1328.83
529.48	1345.76
529.84	1361.71
530.20	1378.36
530.56	1395.38
530.91	1412.62
531.27	1429.36
531.63	1445.82
531.99	1462.34
532.35	1478.34
532.71	1494.23
533.07	1510.49
533.42	1526.48
533.78	1542.53
534.14	1558.65
534.50	1573.83
534.86	1589.56
535.21	1604.63
535.57	1620.48
535.93	1635.94
536.29	1650.68
536.65	1665.72
537.00	1680.35
537.36	1695.58
537.72	1709.96
538.08	1724.35
538.44	1738.14
538.79	1751.88
539.15	1765.36
539.51	1779.06
539.87	1793.26
540.22	1806.85
540.58	1820.35
540.94	1833.43
541.29	1846.12
541.65	1858.69
542.01	1871.87
542.37	1884.24
542.72	1896.64
543.08	1908.41
543.44	1920.55
543.79	1931.72
544.15	1942.48
544.51	1954.01
544.87	1964.84
545.22	1975.73
545.58	1985.73
545.94	1995.37
546.29	2005.26
546.65	2015.15
547.01	2024.44
547.36	2032.95
547.72	2041.53
548.07	2049.49
548.43	2057.66
548.79	2065.70
549.14	2073.36
549.50	2080.67
549.86	2088.06
550.21	2095.40
550.57	2102.58
550.92	2109.30
551.28	2116.17
551.64	2123.37
551.99	2129.88
552.35	2136.05
552.70	2142.26
553.06	2148.40
553.41	2154.72
553.77	2160.58
554.13	2166.59
554.48	2172.60
554.84	2178.50
555.19	2183.79
555.55	2188.93
555.90	2193.42
556.26	2198.35
556.61	2202.95
556.97	2207.35
557.32	2211.55
557.68	2215.72
558.03	2219.86
558.39	2223.41
558.74	2228.09
559.10	2231.95
559.45	2235.62
559.81	2239.79
560.16	2243.42
560.52	2246.57
560.87	2250.14
561.23	2252.88
561.58	2255.75
561.94	2258.25
562.29	2260.31
562.64	2262.96
563.00	2265.58
563.35	2269.14
563.71	2272.14
564.06	2275.30
564.42	2278.16
564.77	2280.81
565.12	2283.16
565.48	2285.12
565.83	2287.10
566.19	2288.54
566.54	2289.41
566.89	2290.57
567.25	2291.26
567.60	2292.63
567.96	2294.44
568.31	2295.19
568.66	2296.45
569.02	2297.06
569.37	2297.57
569.72	2298.65
570.08	2298.95
570.43	2298.87
570.78	2298.33
571.14	2296.86
571.49	2295.63
571.84	2295.34
572.20	2294.32
572.55	2293.19
572.90	2291.72
573.26	2290.36
573.61	2288.51
573.96	2286.90
574.31	2283.95
574.67	2281.02
575.02	2277.47
575.37	2273.98
575.72	2270.18
576.08	2266.78
576.43	2263.45
576.78	2259.80
577.13	2256.41
577.49	2253.25
577.84	2249.94
578.19	2246.22
578.54	2242.66
578.90	2238.38
579.25	2232.78
579.60	2227.87
579.95	2222.87
580.30	2217.83
580.66	2212.68
581.01	2207.87
581.36	2202.88
581.71	2198.83
582.06	2194.59
582.42	2190.08
582.77	2184.98
583.12	2180.51
583.47	2175.93
583.82	2171.08
584.17	2165.90
584.53	2160.51
584.88	2154.76
585.23	2149.04
585.58	2143.46
585.93	2137.99
586.28	2133.26
586.63	2128.37
586.98	2123.14
587.34	2118.50
587.69	2113.69
588.04	2108.54
588.39	2102.96
588.74	2096.56
589.09	2090.37
589.44	2083.57
589.79	2077.49
590.14	2071.84
590.49	2065.30
590.84	2058.76
591.19	2052.64
591.54	2046.11
591.89	2038.95
592.25	2032.39
592.60	2025.09
592.95	2017.74
593.30	2010.44
593.65	2002.98
594.00	1995.86
594.35	1988.68
594.70	1980.65
595.05	1973.48
595.40	1966.18
595.75	1958.65
596.10	1952.58
596.45	1945.95
596.80	1939.81
597.15	1933.40
597.50	1926.49
597.85	1920.07
598.19	1913.55
598.54	1906.74
598.89	1900.15
599.24	1894.10
599.59	1887.48
599.94	1881.28
600.29	1874.90
600.64	1868.26
600.99	1860.79
601.34	1854.03
601.69	1847.06
602.04	1840.18
602.39	1832.88
602.74	1826.01
603.08	1819.31
603.43	1812.46
603.78	1805.08
604.13	1797.84
604.48	1790.66
604.83	1783.73
605.18	1776.94
605.53	1768.92
605.87	1760.68
606.22	1753.43
606.57	1745.57
606.92	1738.02
607.27	1731.05
607.62	1724.10
607.96	1717.07
608.31	1710.52
608.66	1702.90
609.01	1695.40
609.36	1687.89
609.70	1679.82
610.05	1671.89
610.40	1664.18
610.75	1655.90
611.10	1648.22
611.44	1639.77
611.79	1631.68
612.14	1622.98
612.49	1613.63
612.83	1605.25
613.18	1597.17
613.53	1589.06
613.88	1580.57
614.22	1572.41
614.57	1563.76
614.92	1555.86
615.27	1548.31
615.61	1540.04
615.96	1532.01
616.31	1524.35
616.65	1517.02
617.00	1509.53
617.35	1501.81
617.70	1493.63
618.04	1485.16
618.39	1477.04
618.74	1469.48
619.08	1461.09
619.43	1453.52
619.78	1446.66
620.12	1439.60
620.47	1432.11
620.82	1423.79
621.16	1416.33
621.51	1408.69
621.85	1401.01
622.20	1392.47
622.55	1383.99
622.89	1376.08
623.24	1368.31
623.59	1360.90
623.93	1353.40
624.28	1346.17
624.62	1338.66
624.97	1331.42
625.32	1324.67
625.66	1317.54
626.01	1310.35
626.35	1303.05
626.70	1295.36
627.04	1287.65
627.39	1279.81
627.73	1272.41
628.08	1265.57
628.43	1258.35
628.77	1251.02
629.12	1243.50
629.46	1236.31
629.81	1228.78
630.15	1221.54
630.50	1214.19
630.84	1206.03
631.19	1197.97
631.53	1190.41
631.88	1182.90
632.22	1175.23
632.57	1167.87
632.91	1160.33
633.26	1152.94
633.60	1145.44
633.95	1138.25
634.29	1131.13
634.64	1124.40
634.98	1117.09
635.32	1110.02
635.67	1103.39
636.01	1096.66
636.36	1089.88
636.70	1083.26
637.05	1076.78
637.39	1070.33
637.73	1063.88
638.08	1058.07
638.42	1052.15
638.77	1045.76
639.11	1039.27
639.45	1032.86
639.80	1026.24
640.14	1019.97
640.49	1013.42
640.83	1007.17
641.17	1001.04
641.52	994.76
641.86	988.25
642.20	982.42
642.55	976.03
642.89	969.59
643.23	963.03
643.58	957.22
643.92	951.10
644.26	945.13
644.61	938.97
644.95	933.01
645.29	926.47
645.64	919.79
645.98	913.34
646.32	907.26
646.66	901.19
647.01	895.36
647.35	889.59
647.69	883.71
648.04	878.12
648.38	872.23
648.72	866.27
649.06	860.33
649.41	854.37
649.75	848.48
650.09	842.40
650.43	836.61
650.78	830.41
651.12	824.43
651.46	818.61
651.80	813.02
652.14	807.57
652.49	802.11
652.83	796.90
653.17	791.30
653.51	785.67
653.85	780.30
654.20	774.67
654.54	768.56
654.88	762.84
655.22	756.95
655.56	751.24
655.90	745.70
656.25	740.36
656.59	734.95
656.93	729.84
657.27	724.69
657.61	719.22
657.95	714.21
658.29	709.06
658.64	703.79
658.98	698.39
659.32	692.96
659.66	687.72
660.00	682.47
660.34	677.54
660.68	672.62
661.02	667.59
661.36	662.90
661.70	658.46
662.05	654.08
662.39	649.80
662.73	645.40
663.07	641.10
663.41	636.66
663.75	632.26
664.09	627.64
664.43	623.31
664.77	619.27
665.11	614.96
665.45	610.86
665.79	606.83
666.13	602.72
666.47	598.61
666.81	594.48
667.15	590.22
667.49	586.26
667.83	582.43
668.17	578.49
668.51	574.44
668.85	570.37
669.19	566.54
669.53	562.70
669.87	558.83
670.21	555.07
670.55	551.43
670.89	548.00
671.23	544.60
671.57	541.04
671.91	537.56
672.25	534.04
672.58	530.61
672.92	527.17
673.26	524.00
673.60	520.83
673.94	517.72
674.28	514.89
674.62	511.94
674.96	508.80
675.30	505.94
675.64	503.01
675.97	500.23
676.31	497.34
676.65	494.42
676.99	491.68
677.33	488.77
677.67	485.99
678.01	482.90
678.34	479.94
678.68	477.09
679.02	474.20
679.36	471.47
679.70	468.70
680.04	465.98
680.37	463.12
680.71	460.37
681.05	457.77
681.39	455.02
681.73	452.38
682.06	449.88
682.40	447.29
682.74	444.75
683.08	442.21
683.42	439.64
683.75	437.13
684.09	434.55
684.43	432.13
684.77	429.61
685.10	427.25
685.44	424.91
685.78	422.55
686.12	420.29
686.45	418.02
686.79	415.68
687.13	413.49
687.46	411.32
687.80	409.08
688.14	406.81
688.48	404.77
688.81	402.54
689.15	400.36
689.49	398.16
689.82	396.06
690.16	393.92
690.50	391.94
690.83	390.01
691.17	387.97
691.51	386.05
691.84	384.25
692.18	382.34
692.52	380.38
692.85	378.50
693.19	376.63
693.52	374.78
693.86	373.00
694.20	371.18
694.53	369.38
694.87	367.57
695.21	365.79
695.54	363.92
695.88	362.16
696.21	360.46
696.55	358.78
696.88	357.06
697.22	355.45
697.56	353.83
697.89	352.15
698.23	350.63
698.56	349.01
698.90	347.44
699.23	345.78
699.57	344.21
699.90	342.65
700.24	341.10
700.58	339.54
700.91	338.01
701.25	336.56
701.58	335.21
701.92	333.83
702.25	332.47
702.59	331.14
702.92	329.85
703.26	328.54
703.59	327.27
703.93	326.09
704.26	324.87
704.60	323.55
704.93	322.26
705.26	320.97
705.60	319.83
705.93	318.60
706.27	317.52
706.60	316.48
706.94	315.41
707.27	314.32
707.61	313.27
707.94	312.26
708.27	311.19
708.61	310.11
708.94	309.10
709.28	308.13
709.61	307.17
709.94	306.21
710.28	305.19
710.61	304.20
710.95	303.14
711.28	302.21
711.61	301.30
711.95	300.41
712.28	299.50
712.61	298.54
712.95	297.66
713.28	296.82
713.61	295.96
713.95	295.08
714.28	294.24
714.61	293.39
714.95	292.58
715.28	291.72
715.61	290.85
715.95	290.02
716.28	289.11
716.61	288.24
716.95	287.42
717.28	286.69
717.61	285.95
717.94	285.23
718.28	284.41
718.61	283.67
718.94	282.98
719.27	282.32
719.61	281.64
719.94	280.96
720.27	280.25
720.60	279.56
720.94	278.95
721.27	278.34
721.60	277.80
721.93	277.16
722.27	276.62
722.60	276.04
722.93	275.45
723.26	274.96
723.59	274.37
723.93	273.80
724.26	273.26
724.59	272.69
724.92	272.14
725.25	271.65
725.59	271.16
725.92	270.69
726.25	270.16
726.58	269.67
726.91	269.18
727.24	268.74
727.57	268.25
727.91	267.73
728.24	267.21
728.57	266.69
728.90	266.24
729.23	265.72
729.56	265.30
729.89	264.83
730.22	264.33
730.55	263.92
730.89	263.48
731.22	263.02
731.55	262.60
731.88	262.18
732.21	261.77
732.54	261.31
732.87	260.83
733.20	260.44
733.53	260.05
733.86	259.68
734.19	259.24
734.52	258.89
734.85	258.57
735.18	258.18
735.51	257.81
735.84	257.42
736.17	257.08
736.50	256.68
736.83	256.46
737.16	256.13
737.49	255.76
737.82	255.39
738.15	255.07
738.48	254.77
738.81	254.41
739.14	254.07
739.47	253.75
739.80	253.47
740.13	253.13
740.46	252.76
740.79	252.39
741.12	252.09
741.45	251.75
741.78	251.42
742.11	251.14
742.44	250.81
742.77	250.52
743.10	250.20
743.43	249.88
743.75	249.49
744.08	249.32
744.41	249.06
744.74	248.82
745.07	248.55
745.40	248.27
745.73	248.07
746.06	247.80
746.39	247.55
746.71	247.27
747.04	247.03
747.37	246.81
747.70	246.57
748.03	246.33
748.36	246.11
748.68	245.85
749.01	245.62
749.34	245.42
749.67	245.19
750.00	244.95
750.33	244.79
750.65	244.60
750.98	244.26
751.31	244.05
751.64	243.86
751.97	243.70
752.29	243.48
752.62	243.21
752.95	242.99
753.28	242.75
753.60	242.54
753.93	242.36
754.26	242.15
754.59	241.97
754.91	241.78
755.24	241.60
755.57	241.41
755.90	241.19
756.22	240.98
756.55	240.78
756.88	240.60
757.20	240.36
757.53	240.13
757.86	239.99
758.19	239.82
758.51	239.63
758.84	239.40
759.17	239.25
759.49	239.10
759.82	239.01
760.15	238.89
760.47	238.75
760.80	238.55
761.13	238.43
761.45	238.27
761.78	238.10
762.11	237.93
762.43	237.79
762.76	237.68
763.08	237.57
763.41	237.43
763.74	237.33
764.06	237.17
764.39	237.06
764.71	236.89
765.04	236.76
765.37	236.61
765.69	236.48
766.02	236.34
766.34	236.20
766.67	236.02
767.00	235.93
767.32	235.86
767.65	235.84
767.97	235.74
768.30	235.62
768.62	235.54
768.95	235.40
769.27	235.27
769.60	235.16
769.92	235.04
770.25	234.91
770.57	234.78
770.90	234.73
771.22	234.60
771.55	234.50
771.87	234.39
772.20	234.32
772.52	234.33
772.85	234.35
773.17	234.25
773.50	234.17
773.82	234.07
774.15	233.96
774.47	233.77
774.80	233.61
775.12	233.52
775.45	233.43
775.77	233.37
776.09	233.27
776.42	233.20
776.74	233.15
777.07	233.08
777.39	233.00
777.72	232.90
778.04	232.88
778.36	232.79
778.69	232.77
779.01	232.70
779.33	232.52
779.66	232.36
779.98	232.30
780.31	232.24
780.63	232.20
780.95	232.14
781.28	232.10
781.60	232.08
781.92	232.02
782.25	231.97
782.57	231.89
782.89	231.83
783.22	231.76
783.54	231.68
783.86	231.65
784.19	231.63
784.51	231.61
784.83	231.52
785.16	231.50
785.48	231.43
785.80	231.36
786.12	231.31
786.45	231.27
786.77	231.21
787.09	231.14
