SpectraSuite Data File
++++++++++++++++++++++++++++++++++++
Date: Fri Feb 01 16:33:30 EST 2013
User: group
Dark Spectrum Present: No
Reference Spectrum Present: No
Number of Sampled Component Spectra: 1
Spectrometers: USB2E7196
Integration Time (usec): 35000 (USB2E7196)
Spectra Averaged: 100 (USB2E7196)
Boxcar Smoothing: 10 (USB2E7196)
Correct for Electrical Dark: No (USB2E7196)
Strobe/Lamp Enabled: No (USB2E7196)
Correct for Detector Non-linearity: No (USB2E7196)
Correct for Stray Light: No (USB2E7196)
Number of Pixels in Processed Spectrum: 2048
>>>>>Begin Processed Spectral Data<<<<<
339.09	0.00
339.48	214.20
339.86	215.31
340.24	216.47
340.63	218.15
341.01	221.10
341.39	221.03
341.78	221.90
342.16	223.75
342.54	224.21
342.93	212.31
343.31	223.05
343.69	223.58
344.07	224.04
344.46	224.49
344.84	224.89
345.22	225.09
345.60	225.34
345.99	225.53
346.37	225.61
346.75	225.68
347.13	225.71
347.52	225.74
347.90	225.79
348.28	225.81
348.66	225.85
349.05	225.85
349.43	225.87
349.81	225.89
350.19	225.91
350.57	225.95
350.96	226.02
351.34	226.08
351.72	226.18
352.10	226.25
352.48	226.28
352.87	226.31
353.25	226.38
353.63	226.44
354.01	226.50
354.39	226.58
354.77	226.63
355.15	226.76
355.54	226.83
355.92	226.89
356.30	226.97
356.68	227.10
357.06	227.21
357.44	227.25
357.82	227.33
358.20	227.41
358.58	227.46
358.97	227.52
359.35	227.61
359.73	227.63
360.11	227.74
360.49	227.85
360.87	227.90
361.25	227.98
361.63	228.05
362.01	228.13
362.39	228.20
362.77	228.28
363.15	228.32
363.53	228.37
363.91	228.39
364.29	228.41
364.67	228.32
365.05	228.34
365.43	228.38
365.81	228.43
366.19	228.49
366.57	228.56
366.95	228.56
367.33	228.53
367.71	228.56
368.09	228.52
368.47	228.48
368.85	228.47
369.23	228.48
369.61	228.45
369.99	228.44
370.37	228.41
370.75	228.43
371.13	228.41
371.51	228.33
371.89	228.31
372.27	228.29
372.65	228.27
373.03	228.21
373.41	228.16
373.78	228.10
374.16	228.01
374.54	227.94
374.92	227.89
375.30	227.87
375.68	227.79
376.06	227.73
376.44	227.71
376.82	227.63
377.19	227.56
377.57	227.48
377.95	227.39
378.33	227.34
378.71	227.22
379.09	227.21
379.47	227.18
379.84	227.11
380.22	227.03
380.60	226.95
380.98	226.90
381.36	226.87
381.73	226.81
382.11	226.75
382.49	226.71
382.87	226.61
383.25	226.53
383.62	226.59
384.00	226.52
384.38	226.45
384.76	226.43
385.13	226.41
385.51	226.38
385.89	226.32
386.27	226.28
386.64	226.24
387.02	226.16
387.40	226.11
387.78	226.09
388.15	226.10
388.53	226.06
388.91	226.04
389.29	225.95
389.66	225.96
390.04	225.90
390.42	225.86
390.79	225.88
391.17	225.87
391.55	225.74
391.92	225.75
392.30	225.75
392.68	225.74
393.05	225.73
393.43	225.71
393.81	225.73
394.18	225.72
394.56	225.74
394.94	225.75
395.31	225.76
395.69	225.82
396.06	225.84
396.44	225.85
396.82	225.89
397.19	226.00
397.57	225.98
397.95	226.06
398.32	226.08
398.70	226.14
399.07	226.21
399.45	226.26
399.82	226.30
400.20	226.33
400.58	226.42
400.95	226.44
401.33	226.54
401.70	226.66
402.08	226.74
402.45	226.81
402.83	226.90
403.20	226.98
403.58	227.02
403.95	227.15
404.33	227.30
404.71	227.38
405.08	227.57
405.46	227.70
405.83	227.84
406.21	227.98
406.58	228.14
406.96	228.27
407.33	228.45
407.70	228.67
408.08	228.95
408.45	229.11
408.83	229.35
409.20	229.54
409.58	229.72
409.95	229.98
410.33	230.26
410.70	230.53
411.08	230.85
411.45	231.18
411.82	231.46
412.20	231.81
412.57	232.23
412.95	232.47
413.32	232.88
413.69	233.31
414.07	233.75
414.44	234.19
414.82	234.68
415.19	235.23
415.56	235.77
415.94	236.29
416.31	236.93
416.68	237.54
417.06	238.28
417.43	238.94
417.81	239.69
418.18	240.48
418.55	241.32
418.93	242.17
419.30	243.05
419.67	243.99
420.04	244.93
420.42	245.88
420.79	247.08
421.16	248.22
421.54	249.35
421.91	250.55
422.28	251.79
422.66	253.13
423.03	254.41
423.40	255.70
423.77	257.11
424.15	258.57
424.52	260.08
424.89	261.68
425.26	263.24
425.64	264.68
426.01	266.24
426.38	267.88
426.75	269.52
427.13	271.21
427.50	272.98
427.87	274.87
428.24	276.77
428.61	278.49
428.99	280.41
429.36	282.51
429.73	284.59
430.10	286.61
430.47	288.64
430.85	290.74
431.22	292.98
431.59	295.33
431.96	297.52
432.33	299.95
432.70	302.25
433.08	305.07
433.45	307.68
433.82	310.26
434.19	313.14
434.56	315.98
434.93	318.62
435.30	321.27
435.68	324.15
436.05	326.96
436.42	329.71
436.79	332.23
437.16	334.94
437.53	337.75
437.90	340.53
438.27	343.25
438.64	346.08
439.01	348.61
439.38	350.85
439.75	353.03
440.13	355.48
440.50	357.82
440.87	359.61
441.24	361.52
441.61	363.71
441.98	365.17
442.35	366.90
442.72	368.76
443.09	370.55
443.46	371.51
443.83	372.06
444.20	372.58
444.57	373.35
444.94	373.65
445.31	373.95
445.68	374.33
446.05	374.37
446.42	374.00
446.79	373.60
447.16	373.12
447.53	372.79
447.90	371.65
448.27	370.53
448.64	368.97
449.01	367.87
449.37	365.86
449.74	364.00
450.11	361.75
450.48	359.30
450.85	356.78
451.22	354.65
451.59	352.63
451.96	350.67
452.33	348.10
452.70	345.74
453.07	342.92
453.43	340.02
453.80	337.30
454.17	334.62
454.54	332.13
454.91	329.46
455.28	326.83
455.65	324.37
456.02	321.94
456.38	319.78
456.75	317.11
457.12	314.86
457.49	312.65
457.86	310.50
458.23	308.65
458.59	306.59
458.96	304.55
459.33	302.73
459.70	300.90
460.07	299.44
460.43	297.74
460.80	296.15
461.17	294.73
461.54	293.23
461.91	291.83
462.27	290.37
462.64	289.14
463.01	287.75
463.38	286.50
463.74	285.09
464.11	283.99
464.48	282.99
464.85	281.91
465.21	281.03
465.58	280.13
465.95	279.07
466.32	278.20
466.68	277.28
467.05	276.40
467.42	275.54
467.78	274.61
468.15	273.71
468.52	273.05
468.88	272.23
469.25	271.46
469.62	270.85
469.98	270.20
470.35	269.55
470.72	268.99
471.08	268.32
471.45	267.83
471.82	267.31
472.18	266.71
472.55	266.27
472.92	265.75
473.28	265.32
473.65	264.85
474.02	264.41
474.38	264.05
474.75	263.74
475.11	263.40
475.48	263.13
475.85	262.90
476.21	262.67
476.58	262.49
476.94	262.37
477.31	262.20
477.67	262.04
478.04	261.96
478.41	261.87
478.77	261.91
479.14	261.82
479.50	261.82
479.87	261.87
480.23	261.94
480.60	262.01
480.96	262.07
481.33	262.27
481.69	262.50
482.06	262.65
482.42	262.83
482.79	263.07
483.15	263.39
483.52	263.79
483.88	264.12
484.25	264.48
484.61	264.90
484.98	265.33
485.34	265.89
485.71	266.45
486.07	267.08
486.44	267.63
486.80	268.36
487.17	269.10
487.53	269.92
487.90	270.80
488.26	271.74
488.62	272.76
488.99	273.75
489.35	274.80
489.72	275.96
490.08	277.17
490.44	278.46
490.81	279.82
491.17	281.18
491.54	282.67
491.90	284.21
492.26	285.87
492.63	287.60
492.99	289.38
493.36	291.32
493.72	293.38
494.08	295.53
494.45	297.79
494.81	300.15
495.17	302.66
495.54	305.27
495.90	307.98
496.26	310.78
496.63	313.77
496.99	316.91
497.35	320.21
497.72	323.67
498.08	327.19
498.44	330.83
498.80	334.74
499.17	338.87
499.53	343.08
499.89	347.45
500.26	351.97
500.62	356.66
500.98	361.63
501.34	366.74
501.71	372.02
502.07	377.48
502.43	383.13
502.79	388.95
503.16	395.05
503.52	401.33
503.88	407.80
504.24	414.47
504.60	421.35
504.97	428.44
505.33	435.83
505.69	443.55
506.05	451.43
506.41	459.34
506.78	467.46
507.14	475.89
507.50	484.62
507.86	493.67
508.22	502.88
508.59	512.10
508.95	521.63
509.31	531.47
509.67	541.60
510.03	551.88
510.39	562.41
510.75	573.14
511.12	584.10
511.48	595.35
511.84	606.74
512.20	618.22
512.56	630.17
512.92	642.23
513.28	654.59
513.64	667.01
514.00	679.66
514.37	692.57
514.73	705.61
515.09	718.64
515.45	731.92
515.81	745.50
516.17	759.42
516.53	773.60
516.89	787.76
517.25	801.90
517.61	816.33
517.97	830.75
518.33	845.15
518.69	859.87
519.05	874.76
519.41	889.97
519.77	905.53
520.13	921.03
520.49	936.41
520.85	951.65
521.21	967.30
521.57	983.69
521.93	999.41
522.29	1015.73
522.65	1031.87
523.01	1048.03
523.37	1064.12
523.73	1080.26
524.09	1096.24
524.45	1112.48
524.81	1129.01
525.17	1145.69
525.53	1162.44
525.89	1179.38
526.25	1196.16
526.61	1212.56
526.97	1229.20
527.33	1245.58
527.68	1262.14
528.04	1278.49
528.40	1295.10
528.76	1312.08
529.12	1328.32
529.48	1345.19
529.84	1361.07
530.20	1377.67
530.56	1394.44
530.91	1411.61
531.27	1428.22
531.63	1444.52
531.99	1461.05
532.35	1476.87
532.71	1492.61
533.07	1508.85
533.42	1524.64
533.78	1540.56
534.14	1556.64
534.50	1571.88
534.86	1587.62
535.21	1602.52
535.57	1618.35
535.93	1633.74
536.29	1648.37
536.65	1663.36
537.00	1677.78
537.36	1692.86
537.72	1707.13
538.08	1721.43
538.44	1734.99
538.79	1748.65
539.15	1762.17
539.51	1775.66
539.87	1789.85
540.22	1803.35
540.58	1816.86
540.94	1829.75
541.29	1842.26
541.65	1854.73
542.01	1867.63
542.37	1879.74
542.72	1892.11
543.08	1903.74
543.44	1915.97
543.79	1927.08
544.15	1937.97
544.51	1949.61
544.87	1960.62
545.22	1971.49
545.58	1981.74
545.94	1991.64
546.29	2001.50
546.65	2011.34
547.01	2020.53
547.36	2029.27
547.72	2037.70
548.07	2045.47
548.43	2053.78
548.79	2061.88
549.14	2069.47
549.50	2076.79
549.86	2084.55
550.21	2091.78
550.57	2099.13
550.92	2105.58
551.28	2112.68
551.64	2119.71
551.99	2126.13
552.35	2132.33
552.70	2138.47
553.06	2144.52
553.41	2150.70
553.77	2156.81
554.13	2162.81
554.48	2169.02
554.84	2174.64
555.19	2179.97
555.55	2185.33
555.90	2189.78
556.26	2194.78
556.61	2199.56
556.97	2204.03
557.32	2208.10
557.68	2212.26
558.03	2216.40
558.39	2220.17
558.74	2224.75
559.10	2228.67
559.45	2232.34
559.81	2236.56
560.16	2240.49
560.52	2243.67
560.87	2247.15
561.23	2249.83
561.58	2252.87
561.94	2255.43
562.29	2257.64
562.64	2260.43
563.00	2262.96
563.35	2266.53
563.71	2269.65
564.06	2272.84
564.42	2275.54
564.77	2278.08
565.12	2280.54
565.48	2282.54
565.83	2284.68
566.19	2286.16
566.54	2287.12
566.89	2288.32
567.25	2289.01
567.60	2290.21
567.96	2292.06
568.31	2293.02
568.66	2294.13
569.02	2294.76
569.37	2295.15
569.72	2296.15
570.08	2296.41
570.43	2296.53
570.78	2295.95
571.14	2294.58
571.49	2293.36
571.84	2293.17
572.20	2292.18
572.55	2291.06
572.90	2289.35
573.26	2287.84
573.61	2286.04
573.96	2284.43
574.31	2281.59
574.67	2278.68
575.02	2275.12
575.37	2271.61
575.72	2267.79
576.08	2264.46
576.43	2261.17
576.78	2257.61
577.13	2254.37
577.49	2251.20
577.84	2247.80
578.19	2244.21
578.54	2240.62
578.90	2236.57
579.25	2231.03
579.60	2226.09
579.95	2221.10
580.30	2216.06
580.66	2211.03
581.01	2206.11
581.36	2201.12
581.71	2196.95
582.06	2192.59
582.42	2188.31
582.77	2183.10
583.12	2178.71
583.47	2174.15
583.82	2169.27
584.17	2164.03
584.53	2158.55
584.88	2153.04
585.23	2147.35
585.58	2141.81
585.93	2136.27
586.28	2131.37
586.63	2126.48
586.98	2121.52
587.34	2116.84
587.69	2112.18
588.04	2106.86
588.39	2101.34
588.74	2094.90
589.09	2088.76
589.44	2082.07
589.79	2075.93
590.14	2070.34
590.49	2063.80
590.84	2057.40
591.19	2051.35
591.54	2044.95
591.89	2037.86
592.25	2031.09
592.60	2023.83
592.95	2016.44
593.30	2009.20
593.65	2001.67
594.00	1994.59
594.35	1987.27
594.70	1979.26
595.05	1972.25
595.40	1965.02
595.75	1957.47
596.10	1951.43
596.45	1944.98
596.80	1938.89
597.15	1932.36
597.50	1925.47
597.85	1919.03
598.19	1912.43
598.54	1905.47
598.89	1898.85
599.24	1892.85
599.59	1886.35
599.94	1880.13
600.29	1873.86
600.64	1867.41
600.99	1860.08
601.34	1853.42
601.69	1846.58
602.04	1839.87
602.39	1832.54
602.74	1825.81
603.08	1819.17
603.43	1812.38
603.78	1804.99
604.13	1797.66
604.48	1790.42
604.83	1783.54
605.18	1776.54
605.53	1768.69
605.87	1760.60
606.22	1753.24
606.57	1745.24
606.92	1737.77
607.27	1730.76
607.62	1723.85
607.96	1716.49
608.31	1709.85
608.66	1702.19
609.01	1694.63
609.36	1686.99
609.70	1678.95
610.05	1671.02
610.40	1663.28
610.75	1654.95
611.10	1647.19
611.44	1638.77
611.79	1630.76
612.14	1622.14
612.49	1613.02
612.83	1604.58
613.18	1596.57
613.53	1588.66
613.88	1580.22
614.22	1571.99
614.57	1563.27
614.92	1555.26
615.27	1547.79
615.61	1539.53
615.96	1531.48
616.31	1523.86
616.65	1516.57
617.00	1509.04
617.35	1501.19
617.70	1493.01
618.04	1484.62
618.39	1476.46
618.74	1468.92
619.08	1460.67
619.43	1453.06
619.78	1446.15
620.12	1439.02
620.47	1431.49
620.82	1423.26
621.16	1415.83
621.51	1408.32
621.85	1400.77
622.20	1392.18
622.55	1383.81
622.89	1375.90
623.24	1368.35
623.59	1360.84
623.93	1353.24
624.28	1345.99
624.62	1338.57
624.97	1331.38
625.32	1324.58
625.66	1317.52
626.01	1310.37
626.35	1302.90
626.70	1295.20
627.04	1287.53
627.39	1279.65
627.73	1272.20
628.08	1265.37
628.43	1258.02
628.77	1250.59
629.12	1243.13
629.46	1235.98
629.81	1228.45
630.15	1221.36
630.50	1213.85
630.84	1205.72
631.19	1197.77
631.53	1190.12
631.88	1182.54
632.22	1174.90
632.57	1167.63
632.91	1160.16
633.26	1152.74
633.60	1145.30
633.95	1138.12
634.29	1131.07
634.64	1124.46
634.98	1117.10
635.32	1109.94
635.67	1103.42
636.01	1096.70
636.36	1089.77
636.70	1083.14
637.05	1076.62
637.39	1070.08
637.73	1063.64
638.08	1057.79
638.42	1051.84
638.77	1045.43
639.11	1038.80
639.45	1032.36
639.80	1025.65
640.14	1019.22
640.49	1012.71
640.83	1006.48
641.17	1000.26
641.52	993.90
641.86	987.27
642.20	981.46
642.55	975.04
642.89	968.51
643.23	961.94
643.58	956.21
643.92	950.05
644.26	944.03
644.61	937.91
644.95	931.91
645.29	925.39
645.64	918.72
645.98	912.42
646.32	906.65
646.66	900.73
647.01	894.97
647.35	889.27
647.69	883.47
648.04	877.88
648.38	872.13
648.72	866.21
649.06	860.24
649.41	854.30
649.75	848.39
650.09	842.50
650.43	836.88
650.78	830.82
651.12	825.01
651.46	819.28
651.80	813.60
652.14	808.22
652.49	802.88
652.83	797.70
653.17	792.11
653.51	786.41
653.85	780.94
654.20	775.33
654.54	769.29
654.88	763.49
655.22	757.59
655.56	751.91
655.90	746.37
656.25	741.17
656.59	735.80
656.93	730.69
657.27	725.48
657.61	720.01
657.95	714.87
658.29	709.74
658.64	704.49
658.98	699.13
659.32	693.68
659.66	688.45
660.00	683.10
660.34	678.13
660.68	673.23
661.02	668.24
661.36	663.49
661.70	659.01
662.05	654.72
662.39	650.45
662.73	645.96
663.07	641.68
663.41	637.25
663.75	632.79
664.09	628.31
664.43	623.93
664.77	619.84
665.11	615.51
665.45	611.36
665.79	607.25
666.13	603.20
666.47	599.05
666.81	594.84
667.15	590.65
667.49	586.61
667.83	582.70
668.17	578.74
668.51	574.66
668.85	570.67
669.19	566.72
669.53	562.89
669.87	559.00
670.21	555.19
670.55	551.54
670.89	548.09
671.23	544.58
671.57	541.04
671.91	537.40
672.25	533.91
672.58	530.38
672.92	526.92
673.26	523.66
673.60	520.48
673.94	517.38
674.28	514.53
674.62	511.64
674.96	508.54
675.30	505.60
675.64	502.67
675.97	499.84
676.31	496.97
676.65	494.00
676.99	491.27
677.33	488.35
677.67	485.48
678.01	482.42
678.34	479.42
678.68	476.54
679.02	473.76
679.36	470.95
679.70	468.14
680.04	465.42
680.37	462.58
680.71	459.77
681.05	457.20
681.39	454.42
681.73	451.74
682.06	449.22
682.40	446.66
682.74	444.08
683.08	441.48
683.42	438.91
683.75	436.38
684.09	433.79
684.43	431.36
684.77	428.91
685.10	426.57
685.44	424.25
685.78	421.98
686.12	419.72
686.45	417.44
686.79	415.21
687.13	412.99
687.46	410.85
687.80	408.70
688.14	406.42
688.48	404.37
688.81	402.16
689.15	399.98
689.49	397.82
689.82	395.75
690.16	393.67
690.50	391.72
690.83	389.78
691.17	387.84
691.51	385.94
691.84	384.12
692.18	382.20
692.52	380.25
692.85	378.33
693.19	376.44
693.52	374.62
693.86	372.85
694.20	371.08
694.53	369.30
694.87	367.41
695.21	365.64
695.54	363.84
695.88	362.12
696.21	360.41
696.55	358.77
696.88	357.09
697.22	355.43
697.56	353.81
697.89	352.17
698.23	350.54
698.56	348.92
698.90	347.33
699.23	345.75
699.57	344.23
699.90	342.68
700.24	341.18
700.58	339.64
700.91	338.09
701.25	336.62
701.58	335.27
701.92	333.95
702.25	332.60
702.59	331.24
702.92	329.92
703.26	328.63
703.59	327.35
703.93	326.19
704.26	324.97
704.60	323.69
704.93	322.42
705.26	321.18
705.60	320.01
705.93	318.82
706.27	317.75
706.60	316.67
706.94	315.60
707.27	314.42
707.61	313.36
707.94	312.32
708.27	311.22
708.61	310.09
708.94	309.06
709.28	308.06
709.61	307.10
709.94	306.16
710.28	305.14
710.61	304.13
710.95	303.05
711.28	302.12
711.61	301.14
711.95	300.22
712.28	299.28
712.61	298.33
712.95	297.42
713.28	296.53
713.61	295.59
713.95	294.69
714.28	293.85
714.61	292.99
714.95	292.14
715.28	291.28
715.61	290.42
715.95	289.56
716.28	288.67
716.61	287.78
716.95	286.96
717.28	286.19
717.61	285.41
717.94	284.64
718.28	283.83
718.61	283.09
718.94	282.38
719.27	281.70
719.61	281.00
719.94	280.29
720.27	279.55
720.60	278.89
720.94	278.26
721.27	277.63
721.60	277.07
721.93	276.47
722.27	275.97
722.60	275.40
722.93	274.81
723.26	274.28
723.59	273.77
723.93	273.18
724.26	272.63
724.59	272.05
724.92	271.53
725.25	271.02
725.59	270.50
725.92	269.98
726.25	269.46
726.58	268.99
726.91	268.52
727.24	268.04
727.57	267.59
727.91	267.06
728.24	266.59
728.57	266.06
728.90	265.63
729.23	265.12
729.56	264.67
729.89	264.22
730.22	263.73
730.55	263.23
730.89	262.80
731.22	262.35
731.55	261.94
731.88	261.49
732.21	261.06
732.54	260.63
732.87	260.25
733.20	259.85
733.53	259.46
733.86	259.07
734.19	258.71
734.52	258.31
734.85	258.00
735.18	257.63
735.51	257.28
735.84	256.91
736.17	256.58
736.50	256.19
736.83	255.99
737.16	255.71
737.49	255.38
737.82	255.03
738.15	254.68
738.48	254.35
738.81	254.05
739.14	253.76
739.47	253.47
739.80	253.14
740.13	252.85
740.46	252.51
740.79	252.19
741.12	251.84
741.45	251.53
741.78	251.21
742.11	250.91
742.44	250.61
742.77	250.33
743.10	250.03
743.43	249.75
743.75	249.33
744.08	249.18
744.41	248.92
744.74	248.68
745.07	248.43
745.40	248.15
745.73	247.92
746.06	247.63
746.39	247.33
746.71	247.07
747.04	246.79
747.37	246.51
747.70	246.28
748.03	246.06
748.36	245.86
748.68	245.62
749.01	245.35
749.34	245.16
749.67	244.93
750.00	244.69
750.33	244.52
750.65	244.29
750.98	243.94
751.31	243.73
751.64	243.48
751.97	243.34
752.29	243.15
752.62	242.89
752.95	242.68
753.28	242.49
753.60	242.30
753.93	242.17
754.26	242.02
754.59	241.81
754.91	241.59
755.24	241.38
755.57	241.16
755.90	241.01
756.22	240.77
756.55	240.57
756.88	240.38
757.20	240.16
757.53	240.00
757.86	239.82
758.19	239.67
758.51	239.51
758.84	239.27
759.17	239.10
759.49	238.96
759.82	238.84
760.15	238.69
760.47	238.56
760.80	238.33
761.13	238.16
761.45	238.02
761.78	237.88
762.11	237.73
762.43	237.59
762.76	237.43
763.08	237.33
763.41	237.17
763.74	237.01
764.06	236.84
764.39	236.71
764.71	236.56
765.04	236.41
765.37	236.27
765.69	236.17
766.02	236.02
766.34	235.89
766.67	235.77
767.00	235.69
767.32	235.58
767.65	235.56
767.97	235.45
768.30	235.33
768.62	235.19
768.95	235.04
769.27	234.94
769.60	234.87
769.92	234.71
770.25	234.62
770.57	234.53
770.90	234.44
771.22	234.33
771.55	234.25
771.87	234.13
772.20	234.05
772.52	234.05
772.85	234.07
773.17	233.94
773.50	233.83
773.82	233.67
774.15	233.55
774.47	233.39
774.80	233.31
775.12	233.20
775.45	233.13
775.77	233.12
776.09	233.04
776.42	232.94
776.74	232.91
777.07	232.84
777.39	232.76
777.72	232.69
778.04	232.61
778.36	232.53
778.69	232.50
779.01	232.44
779.33	232.27
779.66	232.13
779.98	232.08
780.31	232.03
780.63	232.02
780.95	231.98
781.28	231.93
781.60	231.84
781.92	231.79
782.25	231.74
782.57	231.68
782.89	231.63
783.22	231.56
783.54	231.49
783.86	231.43
784.19	231.39
784.51	231.37
784.83	231.31
785.16	231.25
785.48	231.16
785.80	231.10
786.12	231.04
786.45	230.99
786.77	230.96
787.09	230.91
