SpectraSuite Data File
++++++++++++++++++++++++++++++++++++
Date: Fri Feb 01 15:32:40 EST 2013
User: group
Dark Spectrum Present: No
Reference Spectrum Present: No
Number of Sampled Component Spectra: 1
Spectrometers: USB2E7196
Integration Time (usec): 35000 (USB2E7196)
Spectra Averaged: 100 (USB2E7196)
Boxcar Smoothing: 10 (USB2E7196)
Correct for Electrical Dark: No (USB2E7196)
Strobe/Lamp Enabled: No (USB2E7196)
Correct for Detector Non-linearity: No (USB2E7196)
Correct for Stray Light: No (USB2E7196)
Number of Pixels in Processed Spectrum: 2048
>>>>>Begin Processed Spectral Data<<<<<
339.09	0.00
339.48	214.84
339.86	216.12
340.24	217.64
340.63	219.26
341.01	221.40
341.39	221.60
341.78	223.64
342.16	224.11
342.54	224.76
342.93	213.27
343.31	224.05
343.69	224.60
344.07	225.07
344.46	225.50
344.84	225.89
345.22	226.15
345.60	226.40
345.99	226.54
346.37	226.68
346.75	226.77
347.13	226.84
347.52	226.86
347.90	226.93
348.28	226.97
348.66	226.99
349.05	226.97
349.43	227.02
349.81	227.06
350.19	227.12
350.57	227.18
350.96	227.21
351.34	227.28
351.72	227.35
352.10	227.44
352.48	227.51
352.87	227.55
353.25	227.65
353.63	227.72
354.01	227.80
354.39	227.90
354.77	228.00
355.15	228.07
355.54	228.16
355.92	228.18
356.30	228.26
356.68	228.39
357.06	228.46
357.44	228.52
357.82	228.59
358.20	228.65
358.58	228.69
358.97	228.76
359.35	228.83
359.73	228.89
360.11	228.94
360.49	228.95
360.87	228.98
361.25	229.03
361.63	229.09
362.01	229.11
362.39	229.11
362.77	229.14
363.15	229.15
363.53	229.15
363.91	229.19
364.29	229.23
364.67	229.16
365.05	229.16
365.43	229.15
365.81	229.16
366.19	229.19
366.57	229.23
366.95	229.26
367.33	229.27
367.71	229.26
368.09	229.29
368.47	229.32
368.85	229.31
369.23	229.31
369.61	229.25
369.99	229.26
370.37	229.24
370.75	229.28
371.13	229.23
371.51	229.21
371.89	229.21
372.27	229.14
372.65	229.10
373.03	229.06
373.41	228.99
373.78	228.96
374.16	228.85
374.54	228.75
374.92	228.64
375.30	228.56
375.68	228.49
376.06	228.41
376.44	228.34
376.82	228.29
377.19	228.21
377.57	228.14
377.95	228.07
378.33	227.96
378.71	227.80
379.09	227.78
379.47	227.74
379.84	227.62
380.22	227.55
380.60	227.48
380.98	227.42
381.36	227.37
381.73	227.27
382.11	227.24
382.49	227.20
382.87	227.15
383.25	227.08
383.62	227.11
384.00	227.06
384.38	226.98
384.76	226.93
385.13	226.91
385.51	226.88
385.89	226.77
386.27	226.77
386.64	226.74
387.02	226.67
387.40	226.59
387.78	226.58
388.15	226.54
388.53	226.52
388.91	226.46
389.29	226.42
389.66	226.41
390.04	226.36
390.42	226.34
390.79	226.35
391.17	226.35
391.55	226.22
391.92	226.20
392.30	226.22
392.68	226.19
393.05	226.18
393.43	226.17
393.81	226.23
394.18	226.21
394.56	226.25
394.94	226.26
395.31	226.27
395.69	226.27
396.06	226.31
396.44	226.30
396.82	226.36
397.19	226.48
397.57	226.48
397.95	226.55
398.32	226.56
398.70	226.61
399.07	226.68
399.45	226.79
399.82	226.86
400.20	226.90
400.58	226.96
400.95	226.99
401.33	227.09
401.70	227.22
402.08	227.33
402.45	227.42
402.83	227.56
403.20	227.68
403.58	227.81
403.95	227.95
404.33	228.09
404.71	228.22
405.08	228.38
405.46	228.54
405.83	228.67
406.21	228.85
406.58	229.01
406.96	229.18
407.33	229.34
407.70	229.54
408.08	229.82
408.45	230.06
408.83	230.31
409.20	230.48
409.58	230.66
409.95	230.93
410.33	231.21
410.70	231.46
411.08	231.79
411.45	232.11
411.82	232.41
412.20	232.79
412.57	233.20
412.95	233.50
413.32	233.95
413.69	234.39
414.07	234.86
414.44	235.35
414.82	235.81
415.19	236.40
415.56	236.95
415.94	237.51
416.31	238.19
416.68	238.83
417.06	239.60
417.43	240.32
417.81	241.06
418.18	241.89
418.55	242.73
418.93	243.60
419.30	244.50
419.67	245.45
420.04	246.42
420.42	247.47
420.79	248.66
421.16	249.82
421.54	251.02
421.91	252.22
422.28	253.47
422.66	254.84
423.03	256.14
423.40	257.52
423.77	258.96
424.15	260.38
424.52	261.85
424.89	263.45
425.26	265.00
425.64	266.48
426.01	268.05
426.38	269.70
426.75	271.35
427.13	273.07
427.50	274.88
427.87	276.75
428.24	278.59
428.61	280.33
428.99	282.25
429.36	284.35
429.73	286.42
430.10	288.42
430.47	290.47
430.85	292.55
431.22	294.79
431.59	297.17
431.96	299.38
432.33	301.90
432.70	304.27
433.08	307.08
433.45	309.73
433.82	312.34
434.19	315.24
434.56	318.12
434.93	320.76
435.30	323.37
435.68	326.29
436.05	329.09
436.42	331.90
436.79	334.40
437.16	337.13
437.53	339.96
437.90	342.82
438.27	345.53
438.64	348.36
439.01	350.92
439.38	353.11
439.75	355.32
440.13	357.81
440.50	360.13
440.87	361.99
441.24	363.95
441.61	366.07
441.98	367.53
442.35	369.24
442.72	371.08
443.09	372.92
443.46	373.88
443.83	374.50
444.20	374.99
444.57	375.82
444.94	376.07
445.31	376.42
445.68	376.73
446.05	376.83
446.42	376.46
446.79	376.05
447.16	375.59
447.53	375.22
447.90	374.00
448.27	372.82
448.64	371.21
449.01	370.07
449.37	368.10
449.74	366.18
450.11	364.01
450.48	361.56
450.85	359.00
451.22	356.85
451.59	354.82
451.96	352.87
452.33	350.26
452.70	347.92
453.07	345.06
453.43	342.21
453.80	339.42
454.17	336.73
454.54	334.18
454.91	331.49
455.28	328.81
455.65	326.36
456.02	323.93
456.38	321.82
456.75	319.10
457.12	316.85
457.49	314.65
457.86	312.45
458.23	310.56
458.59	308.52
458.96	306.45
459.33	304.59
459.70	302.74
460.07	301.24
460.43	299.49
460.80	297.89
461.17	296.45
461.54	294.95
461.91	293.53
462.27	292.07
462.64	290.82
463.01	289.50
463.38	288.20
463.74	286.82
464.11	285.65
464.48	284.65
464.85	283.59
465.21	282.76
465.58	281.84
465.95	280.74
466.32	279.84
466.68	278.91
467.05	278.03
467.42	277.10
467.78	276.19
468.15	275.31
468.52	274.61
468.88	273.73
469.25	272.97
469.62	272.32
469.98	271.65
470.35	271.03
470.72	270.41
471.08	269.78
471.45	269.25
471.82	268.72
472.18	268.16
472.55	267.68
472.92	267.13
473.28	266.67
473.65	266.26
474.02	265.80
474.38	265.45
474.75	265.09
475.11	264.75
475.48	264.46
475.85	264.23
476.21	264.03
476.58	263.84
476.94	263.69
477.31	263.57
477.67	263.39
478.04	263.29
478.41	263.22
478.77	263.22
479.14	263.14
479.50	263.09
479.87	263.12
480.23	263.20
480.60	263.27
480.96	263.33
481.33	263.54
481.69	263.72
482.06	263.90
482.42	264.11
482.79	264.36
483.15	264.67
483.52	265.06
483.88	265.39
484.25	265.78
484.61	266.18
484.98	266.63
485.34	267.21
485.71	267.76
486.07	268.36
486.44	268.93
486.80	269.65
487.17	270.43
487.53	271.24
487.90	272.08
488.26	272.98
488.62	273.98
488.99	274.93
489.35	275.98
489.72	277.10
490.08	278.30
490.44	279.53
490.81	280.88
491.17	282.21
491.54	283.68
491.90	285.19
492.26	286.85
492.63	288.54
492.99	290.30
493.36	292.19
493.72	294.25
494.08	296.35
494.45	298.57
494.81	300.90
495.17	303.35
495.54	305.93
495.90	308.64
496.26	311.47
496.63	314.46
496.99	317.54
497.35	320.82
497.72	324.21
498.08	327.77
498.44	331.42
498.80	335.35
499.17	339.42
499.53	343.59
499.89	347.94
500.26	352.45
500.62	357.14
500.98	362.07
501.34	367.12
501.71	372.48
502.07	377.96
502.43	383.59
502.79	389.42
503.16	395.50
503.52	401.83
503.88	408.20
504.24	414.79
504.60	421.76
504.97	428.87
505.33	436.16
505.69	443.84
506.05	451.69
506.41	459.61
506.78	467.80
507.14	476.31
507.50	485.04
507.86	494.04
508.22	503.27
508.59	512.56
508.95	522.20
509.31	532.03
509.67	542.12
510.03	552.43
510.39	563.01
510.75	573.84
511.12	584.74
511.48	596.10
511.84	607.61
512.20	619.17
512.56	631.13
512.92	643.34
513.28	655.65
513.64	668.11
514.00	680.80
514.37	693.65
514.73	706.74
515.09	719.79
515.45	733.18
515.81	746.81
516.17	760.83
516.53	774.90
516.89	789.14
517.25	803.39
517.61	817.78
517.97	832.30
518.33	846.77
518.69	861.55
519.05	876.64
519.41	891.80
519.77	907.34
520.13	922.77
520.49	938.18
520.85	953.75
521.21	969.45
521.57	985.78
521.93	1001.64
522.29	1017.99
522.65	1034.34
523.01	1050.54
523.37	1066.51
523.73	1082.67
524.09	1098.76
524.45	1115.08
524.81	1131.70
525.17	1148.68
525.53	1165.68
525.89	1182.56
526.25	1199.36
526.61	1215.64
526.97	1232.37
527.33	1248.81
527.68	1265.59
528.04	1282.23
528.40	1298.85
528.76	1315.98
529.12	1332.56
529.48	1349.55
529.84	1365.67
530.20	1382.35
530.56	1399.49
530.91	1416.93
531.27	1433.72
531.63	1450.37
531.99	1467.00
532.35	1483.08
532.71	1499.01
533.07	1515.09
533.42	1530.92
533.78	1547.12
534.14	1563.45
534.50	1578.90
534.86	1594.87
535.21	1609.97
535.57	1625.90
535.93	1641.33
536.29	1656.05
536.65	1671.17
537.00	1686.02
537.36	1701.37
537.72	1715.86
538.08	1730.26
538.44	1744.19
538.79	1758.21
539.15	1771.92
539.51	1785.73
539.87	1800.04
540.22	1813.84
540.58	1827.73
540.94	1841.28
541.29	1854.22
541.65	1867.01
542.01	1880.14
542.37	1892.50
542.72	1905.03
543.08	1916.73
543.44	1929.18
543.79	1940.57
544.15	1951.64
544.51	1963.13
544.87	1974.00
545.22	1984.83
545.58	1995.01
545.94	2004.71
546.29	2014.57
546.65	2024.38
547.01	2033.62
547.36	2042.51
547.72	2050.84
548.07	2058.67
548.43	2066.77
548.79	2074.73
549.14	2082.27
549.50	2089.90
549.86	2097.76
550.21	2105.12
550.57	2112.42
550.92	2119.12
551.28	2126.15
551.64	2133.07
551.99	2139.63
552.35	2145.86
552.70	2152.13
553.06	2158.13
553.41	2164.51
553.77	2170.45
554.13	2176.59
554.48	2182.60
554.84	2187.96
555.19	2193.27
555.55	2198.52
555.90	2202.84
556.26	2207.66
556.61	2212.42
556.97	2216.47
557.32	2220.51
557.68	2224.60
558.03	2228.88
558.39	2232.53
558.74	2237.23
559.10	2241.15
559.45	2244.79
559.81	2249.14
560.16	2252.82
560.52	2256.12
560.87	2259.63
561.23	2262.37
561.58	2265.28
561.94	2267.89
562.29	2270.25
562.64	2272.93
563.00	2275.57
563.35	2279.21
563.71	2282.41
564.06	2285.48
564.42	2288.42
564.77	2290.81
565.12	2293.02
565.48	2294.82
565.83	2296.66
566.19	2297.83
566.54	2298.94
566.89	2300.13
567.25	2300.65
567.60	2302.15
567.96	2303.72
568.31	2304.47
568.66	2305.52
569.02	2305.92
569.37	2306.28
569.72	2307.20
570.08	2307.47
570.43	2307.34
570.78	2306.82
571.14	2305.22
571.49	2304.05
571.84	2303.65
572.20	2302.46
572.55	2301.32
572.90	2299.78
573.26	2298.39
573.61	2296.73
573.96	2294.76
574.31	2291.62
574.67	2288.59
575.02	2284.85
575.37	2281.37
575.72	2277.54
576.08	2274.22
576.43	2270.90
576.78	2267.25
577.13	2264.06
577.49	2260.83
577.84	2257.30
578.19	2253.37
578.54	2249.68
578.90	2245.29
579.25	2239.74
579.60	2234.59
579.95	2229.68
580.30	2224.68
580.66	2219.43
581.01	2214.43
581.36	2209.43
581.71	2205.17
582.06	2200.65
582.42	2196.02
582.77	2190.85
583.12	2186.14
583.47	2181.15
583.82	2176.10
584.17	2170.55
584.53	2164.85
584.88	2159.00
585.23	2153.07
585.58	2147.74
585.93	2142.30
586.28	2137.55
586.63	2132.38
586.98	2127.47
587.34	2122.69
587.69	2117.63
588.04	2112.30
588.39	2106.43
588.74	2100.00
589.09	2093.90
589.44	2086.94
589.79	2081.03
590.14	2075.34
590.49	2068.74
590.84	2062.49
591.19	2056.52
591.54	2050.12
591.89	2042.65
592.25	2035.88
592.60	2028.70
592.95	2020.83
593.30	2013.47
593.65	2005.75
594.00	1998.83
594.35	1991.57
594.70	1983.43
595.05	1976.08
595.40	1968.79
595.75	1961.35
596.10	1954.94
596.45	1947.95
596.80	1941.94
597.15	1935.13
597.50	1927.93
597.85	1921.50
598.19	1914.75
598.54	1907.49
598.89	1900.83
599.24	1894.94
599.59	1888.20
599.94	1881.98
600.29	1875.81
600.64	1869.12
600.99	1861.61
601.34	1854.58
601.69	1847.50
602.04	1840.45
602.39	1833.19
602.74	1826.36
603.08	1819.61
603.43	1812.96
603.78	1805.69
604.13	1798.36
604.48	1791.03
604.83	1784.19
605.18	1777.11
605.53	1769.03
605.87	1760.96
606.22	1753.73
606.57	1745.78
606.92	1738.46
607.27	1731.37
607.62	1724.35
607.96	1717.10
608.31	1710.44
608.66	1702.72
609.01	1695.14
609.36	1687.66
609.70	1679.69
610.05	1671.50
610.40	1663.85
610.75	1655.39
611.10	1647.69
611.44	1639.39
611.79	1631.39
612.14	1622.68
612.49	1613.63
612.83	1605.30
613.18	1597.28
613.53	1589.22
613.88	1580.56
614.22	1572.32
614.57	1563.58
614.92	1555.41
615.27	1547.69
615.61	1539.34
615.96	1531.51
616.31	1523.87
616.65	1516.45
617.00	1508.74
617.35	1501.04
617.70	1492.53
618.04	1484.05
618.39	1475.94
618.74	1468.33
619.08	1459.97
619.43	1452.36
619.78	1445.41
620.12	1438.19
620.47	1430.71
620.82	1422.43
621.16	1415.11
621.51	1407.43
621.85	1399.86
622.20	1391.42
622.55	1383.09
622.89	1375.24
623.24	1367.49
623.59	1360.12
623.93	1352.64
624.28	1345.47
624.62	1338.00
624.97	1330.93
625.32	1324.19
625.66	1317.09
626.01	1309.72
626.35	1302.30
626.70	1294.61
627.04	1286.81
627.39	1279.09
627.73	1271.60
628.08	1264.71
628.43	1257.35
628.77	1249.97
629.12	1242.34
629.46	1235.12
629.81	1227.79
630.15	1220.47
630.50	1213.06
630.84	1204.84
631.19	1196.93
631.53	1189.46
631.88	1181.86
632.22	1174.22
632.57	1166.88
632.91	1159.43
633.26	1152.15
633.60	1144.82
633.95	1137.68
634.29	1130.70
634.64	1123.92
634.98	1116.57
635.32	1109.39
635.67	1102.87
636.01	1096.29
636.36	1089.58
636.70	1083.20
637.05	1076.62
637.39	1070.33
637.73	1063.81
638.08	1057.95
638.42	1052.00
638.77	1045.51
639.11	1038.90
639.45	1032.56
639.80	1025.92
640.14	1019.40
640.49	1012.91
640.83	1006.61
641.17	1000.30
641.52	994.01
641.86	987.71
642.20	981.90
642.55	975.63
642.89	969.13
643.23	962.58
643.58	956.78
643.92	950.50
644.26	944.42
644.61	938.43
644.95	932.41
645.29	925.75
645.64	918.99
645.98	912.69
646.32	906.95
646.66	900.84
647.01	895.10
647.35	889.43
647.69	883.52
648.04	877.98
648.38	872.17
648.72	866.06
649.06	859.94
649.41	854.03
649.75	847.97
650.09	841.92
650.43	836.15
650.78	829.91
651.12	823.89
651.46	818.16
651.80	812.23
652.14	806.81
652.49	801.48
652.83	796.24
653.17	790.52
653.51	784.69
653.85	779.34
654.20	773.68
654.54	767.69
654.88	761.97
655.22	756.15
655.56	750.50
655.90	745.11
656.25	739.84
656.59	734.46
656.93	729.45
657.27	724.30
657.61	718.85
657.95	713.83
658.29	708.78
658.64	703.57
658.98	698.38
659.32	692.96
659.66	687.73
660.00	682.50
660.34	677.59
660.68	672.78
661.02	667.79
661.36	663.00
661.70	658.53
662.05	654.13
662.39	649.75
662.73	645.30
663.07	640.93
663.41	636.52
663.75	632.04
664.09	627.47
664.43	623.19
664.77	619.08
665.11	614.83
665.45	610.75
665.79	606.63
666.13	602.38
666.47	598.24
666.81	594.06
667.15	589.91
667.49	586.08
667.83	582.20
668.17	578.28
668.51	574.29
668.85	570.22
669.19	566.41
669.53	562.52
669.87	558.66
670.21	554.99
670.55	551.33
670.89	547.88
671.23	544.48
671.57	540.94
671.91	537.37
672.25	533.92
672.58	530.43
672.92	527.07
673.26	524.00
673.60	520.87
673.94	517.82
674.28	514.98
674.62	511.95
674.96	508.91
675.30	505.98
675.64	503.04
675.97	500.33
676.31	497.49
676.65	494.55
676.99	491.87
677.33	488.98
677.67	486.14
678.01	483.17
678.34	480.12
678.68	477.24
679.02	474.43
679.36	471.62
679.70	468.92
680.04	466.13
680.37	463.26
680.71	460.54
681.05	457.89
681.39	455.13
681.73	452.47
682.06	449.90
682.40	447.41
682.74	444.85
683.08	442.23
683.42	439.57
683.75	437.13
684.09	434.56
684.43	432.05
684.77	429.60
685.10	427.18
685.44	424.96
685.78	422.64
686.12	420.40
686.45	418.14
686.79	415.79
687.13	413.59
687.46	411.44
687.80	409.22
688.14	407.02
688.48	404.92
688.81	402.66
689.15	400.50
689.49	398.26
689.82	396.20
690.16	394.13
690.50	392.20
690.83	390.23
691.17	388.25
691.51	386.38
691.84	384.51
692.18	382.62
692.52	380.60
692.85	378.68
693.19	376.78
693.52	374.96
693.86	373.17
694.20	371.38
694.53	369.58
694.87	367.76
695.21	365.97
695.54	364.18
695.88	362.46
696.21	360.75
696.55	359.06
696.88	357.36
697.22	355.73
697.56	354.12
697.89	352.45
698.23	350.84
698.56	349.22
698.90	347.63
699.23	346.01
699.57	344.44
699.90	342.94
700.24	341.42
700.58	339.84
700.91	338.32
701.25	336.89
701.58	335.48
701.92	334.14
702.25	332.82
702.59	331.49
702.92	330.16
703.26	328.87
703.59	327.60
703.93	326.46
704.26	325.25
704.60	323.95
704.93	322.73
705.26	321.49
705.60	320.34
705.93	319.21
706.27	318.18
706.60	317.17
706.94	316.08
707.27	314.92
707.61	313.88
707.94	312.86
708.27	311.77
708.61	310.70
708.94	309.68
709.28	308.70
709.61	307.74
709.94	306.79
710.28	305.75
710.61	304.83
710.95	303.74
711.28	302.84
711.61	301.90
711.95	300.99
712.28	300.04
712.61	299.07
712.95	298.13
713.28	297.25
713.61	296.34
713.95	295.41
714.28	294.60
714.61	293.72
714.95	292.90
715.28	292.10
715.61	291.27
715.95	290.40
716.28	289.55
716.61	288.71
716.95	287.89
717.28	287.20
717.61	286.44
717.94	285.69
718.28	284.91
718.61	284.17
718.94	283.46
719.27	282.83
719.61	282.17
719.94	281.52
720.27	280.82
720.60	280.14
720.94	279.56
721.27	278.97
721.60	278.44
721.93	277.84
722.27	277.26
722.60	276.68
722.93	276.10
723.26	275.52
723.59	274.96
723.93	274.42
724.26	273.84
724.59	273.30
724.92	272.78
725.25	272.22
725.59	271.71
725.92	271.20
726.25	270.65
726.58	270.16
726.91	269.64
727.24	269.16
727.57	268.73
727.91	268.20
728.24	267.72
728.57	267.17
728.90	266.72
729.23	266.20
729.56	265.77
729.89	265.29
730.22	264.83
730.55	264.37
730.89	263.93
731.22	263.47
731.55	263.02
731.88	262.57
732.21	262.12
732.54	261.70
732.87	261.23
733.20	260.86
733.53	260.45
733.86	260.08
734.19	259.67
734.52	259.25
734.85	258.93
735.18	258.53
735.51	258.21
735.84	257.81
736.17	257.47
736.50	257.05
736.83	256.83
737.16	256.49
737.49	256.16
737.82	255.83
738.15	255.50
738.48	255.16
738.81	254.86
739.14	254.52
739.47	254.18
739.80	253.88
740.13	253.57
740.46	253.25
740.79	252.93
741.12	252.59
741.45	252.29
741.78	251.94
742.11	251.65
742.44	251.30
742.77	251.02
743.10	250.71
743.43	250.44
743.75	250.07
744.08	249.95
744.41	249.68
744.74	249.40
745.07	249.13
745.40	248.87
745.73	248.60
746.06	248.39
746.39	248.17
746.71	247.91
747.04	247.64
747.37	247.38
747.70	247.13
748.03	246.90
748.36	246.69
748.68	246.46
749.01	246.24
749.34	246.04
749.67	245.82
750.00	245.59
750.33	245.42
750.65	245.24
750.98	244.88
751.31	244.66
751.64	244.46
751.97	244.29
752.29	244.11
752.62	243.88
752.95	243.67
753.28	243.45
753.60	243.26
753.93	243.09
754.26	242.92
754.59	242.72
754.91	242.54
755.24	242.32
755.57	242.16
755.90	241.95
756.22	241.75
756.55	241.54
756.88	241.37
757.20	241.14
757.53	240.91
757.86	240.74
758.19	240.58
758.51	240.41
758.84	240.20
759.17	239.99
759.49	239.88
759.82	239.75
760.15	239.62
760.47	239.47
760.80	239.30
761.13	239.17
761.45	239.01
761.78	238.84
762.11	238.69
762.43	238.53
762.76	238.43
763.08	238.31
763.41	238.20
763.74	238.05
764.06	237.90
764.39	237.75
764.71	237.62
765.04	237.47
765.37	237.32
765.69	237.20
766.02	237.10
766.34	236.91
766.67	236.70
767.00	236.59
767.32	236.51
767.65	236.44
767.97	236.32
768.30	236.20
768.62	236.10
768.95	236.00
769.27	235.85
769.60	235.73
769.92	235.57
770.25	235.45
770.57	235.33
770.90	235.23
771.22	235.11
771.55	234.99
771.87	234.90
772.20	234.80
772.52	234.77
772.85	234.79
773.17	234.66
773.50	234.61
773.82	234.50
774.15	234.37
774.47	234.21
774.80	234.07
775.12	233.98
775.45	233.91
775.77	233.80
776.09	233.75
776.42	233.67
776.74	233.62
777.07	233.53
777.39	233.47
777.72	233.38
778.04	233.33
778.36	233.27
778.69	233.23
779.01	233.16
779.33	233.01
779.66	232.82
779.98	232.80
780.31	232.75
780.63	232.70
780.95	232.62
781.28	232.59
781.60	232.55
781.92	232.49
782.25	232.40
782.57	232.36
782.89	232.30
783.22	232.24
783.54	232.17
783.86	232.11
784.19	232.08
784.51	232.06
784.83	232.02
785.16	231.97
785.48	231.91
785.80	231.89
786.12	231.85
786.45	231.82
786.77	231.78
787.09	231.69
