SpectraSuite Data File
++++++++++++++++++++++++++++++++++++
Date: Fri Feb 01 17:43:51 EST 2013
User: group
Dark Spectrum Present: No
Reference Spectrum Present: No
Number of Sampled Component Spectra: 1
Spectrometers: USB2E7196
Integration Time (usec): 35000 (USB2E7196)
Spectra Averaged: 100 (USB2E7196)
Boxcar Smoothing: 10 (USB2E7196)
Correct for Electrical Dark: No (USB2E7196)
Strobe/Lamp Enabled: No (USB2E7196)
Correct for Detector Non-linearity: No (USB2E7196)
Correct for Stray Light: No (USB2E7196)
Number of Pixels in Processed Spectrum: 2048
>>>>>Begin Processed Spectral Data<<<<<
339.09	0.00
339.48	211.98
339.86	214.12
340.24	215.14
340.63	216.43
341.01	220.14
341.39	219.44
341.78	220.67
342.16	222.02
342.54	222.24
342.93	210.96
343.31	221.64
343.69	222.19
344.07	222.65
344.46	223.09
344.84	223.49
345.22	223.70
345.60	223.96
345.99	224.17
346.37	224.29
346.75	224.44
347.13	224.45
347.52	224.48
347.90	224.56
348.28	224.60
348.66	224.69
349.05	224.69
349.43	224.72
349.81	224.76
350.19	224.82
350.57	224.90
350.96	224.99
351.34	225.09
351.72	225.20
352.10	225.31
352.48	225.39
352.87	225.42
353.25	225.49
353.63	225.55
354.01	225.59
354.39	225.69
354.77	225.73
355.15	225.86
355.54	225.95
355.92	225.99
356.30	226.06
356.68	226.19
357.06	226.24
357.44	226.29
357.82	226.36
358.20	226.46
358.58	226.48
358.97	226.54
359.35	226.61
359.73	226.68
360.11	226.71
360.49	226.75
360.87	226.79
361.25	226.86
361.63	226.95
362.01	227.01
362.39	227.01
362.77	227.05
363.15	227.08
363.53	227.12
363.91	227.13
364.29	227.16
364.67	227.08
365.05	227.10
365.43	227.13
365.81	227.17
366.19	227.21
366.57	227.27
366.95	227.26
367.33	227.23
367.71	227.19
368.09	227.22
368.47	227.22
368.85	227.19
369.23	227.17
369.61	227.09
369.99	227.10
370.37	227.13
370.75	227.15
371.13	227.08
371.51	227.00
371.89	226.99
372.27	226.92
372.65	226.87
373.03	226.81
373.41	226.75
373.78	226.69
374.16	226.59
374.54	226.52
374.92	226.45
375.30	226.38
375.68	226.34
376.06	226.26
376.44	226.23
376.82	226.20
377.19	226.14
377.57	226.08
377.95	225.99
378.33	225.89
378.71	225.75
379.09	225.70
379.47	225.67
379.84	225.58
380.22	225.53
380.60	225.45
380.98	225.41
381.36	225.36
381.73	225.29
382.11	225.25
382.49	225.20
382.87	225.12
383.25	225.08
383.62	225.13
384.00	225.05
384.38	224.97
384.76	224.94
385.13	224.90
385.51	224.89
385.89	224.82
386.27	224.81
386.64	224.79
387.02	224.73
387.40	224.68
387.78	224.66
388.15	224.65
388.53	224.61
388.91	224.58
389.29	224.55
389.66	224.54
390.04	224.50
390.42	224.50
390.79	224.49
391.17	224.46
391.55	224.33
391.92	224.32
392.30	224.31
392.68	224.30
393.05	224.31
393.43	224.27
393.81	224.28
394.18	224.27
394.56	224.24
394.94	224.34
395.31	224.34
395.69	224.42
396.06	224.48
396.44	224.52
396.82	224.54
397.19	224.61
397.57	224.65
397.95	224.70
398.32	224.71
398.70	224.77
399.07	224.86
399.45	224.91
399.82	225.01
400.20	225.06
400.58	225.09
400.95	225.17
401.33	225.26
401.70	225.42
402.08	225.50
402.45	225.62
402.83	225.70
403.20	225.82
403.58	225.89
403.95	226.00
404.33	226.11
404.71	226.25
405.08	226.45
405.46	226.56
405.83	226.72
406.21	226.87
406.58	227.05
406.96	227.21
407.33	227.41
407.70	227.61
408.08	227.91
408.45	228.18
408.83	228.39
409.20	228.66
409.58	228.86
409.95	229.18
410.33	229.49
410.70	229.75
411.08	230.07
411.45	230.41
411.82	230.75
412.20	231.18
412.57	231.66
412.95	231.98
413.32	232.44
413.69	232.91
414.07	233.45
414.44	234.00
414.82	234.56
415.19	235.22
415.56	235.90
415.94	236.57
416.31	237.37
416.68	238.10
417.06	238.93
417.43	239.75
417.81	240.62
418.18	241.58
418.55	242.63
418.93	243.72
419.30	244.80
419.67	245.94
420.04	247.10
420.42	248.32
420.79	249.75
421.16	251.17
421.54	252.63
421.91	254.10
422.28	255.63
422.66	257.27
423.03	258.81
423.40	260.43
423.77	262.15
424.15	263.86
424.52	265.69
424.89	267.66
425.26	269.57
425.64	271.37
426.01	273.26
426.38	275.30
426.75	277.30
427.13	279.41
427.50	281.61
427.87	283.87
428.24	286.13
428.61	288.28
428.99	290.66
429.36	293.25
429.73	295.75
430.10	298.23
430.47	300.74
430.85	303.40
431.22	306.12
431.59	308.96
431.96	311.70
432.33	314.76
432.70	317.69
433.08	321.09
433.45	324.32
433.82	327.58
434.19	331.08
434.56	334.50
434.93	337.75
435.30	340.98
435.68	344.55
436.05	347.97
436.42	351.40
436.79	354.50
437.16	357.78
437.53	361.23
437.90	364.64
438.27	368.02
438.64	371.45
439.01	374.62
439.38	377.45
439.75	380.10
440.13	383.14
440.50	385.96
440.87	388.24
441.24	390.62
441.61	393.23
441.98	395.09
442.35	397.36
442.72	399.67
443.09	401.92
443.46	403.15
443.83	403.92
444.20	404.57
444.57	405.62
444.94	405.98
445.31	406.49
445.68	406.97
446.05	407.09
446.42	406.66
446.79	406.19
447.16	405.64
447.53	405.28
447.90	403.86
448.27	402.48
448.64	400.59
449.01	399.25
449.37	396.88
449.74	394.55
450.11	391.77
450.48	388.72
450.85	385.55
451.22	382.96
451.59	380.52
451.96	378.10
452.33	374.91
452.70	372.06
453.07	368.59
453.43	365.07
453.80	361.68
454.17	358.42
454.54	355.28
454.91	351.97
455.28	348.71
455.65	345.65
456.02	342.62
456.38	339.96
456.75	336.65
457.12	333.86
457.49	331.13
457.86	328.49
458.23	326.23
458.59	323.79
458.96	321.20
459.33	318.91
459.70	316.65
460.07	314.80
460.43	312.65
460.80	310.62
461.17	308.83
461.54	306.94
461.91	305.10
462.27	303.30
462.64	301.73
463.01	300.06
463.38	298.48
463.74	296.83
464.11	295.41
464.48	294.18
464.85	292.83
465.21	291.75
465.58	290.64
465.95	289.27
466.32	288.14
466.68	287.03
467.05	285.94
467.42	284.84
467.78	283.70
468.15	282.61
468.52	281.77
468.88	280.71
469.25	279.81
469.62	279.07
469.98	278.27
470.35	277.48
470.72	276.74
471.08	275.99
471.45	275.32
471.82	274.61
472.18	273.84
472.55	273.34
472.92	272.68
473.28	272.11
473.65	271.57
474.02	271.03
474.38	270.55
474.75	270.10
475.11	269.65
475.48	269.31
475.85	269.04
476.21	268.75
476.58	268.51
476.94	268.33
477.31	268.10
477.67	267.86
478.04	267.69
478.41	267.55
478.77	267.51
479.14	267.38
479.50	267.40
479.87	267.46
480.23	267.45
480.60	267.50
480.96	267.54
481.33	267.73
481.69	267.89
482.06	268.09
482.42	268.29
482.79	268.50
483.15	268.81
483.52	269.16
483.88	269.50
484.25	269.85
484.61	270.20
484.98	270.67
485.34	271.25
485.71	271.87
486.07	272.56
486.44	273.14
486.80	273.86
487.17	274.61
487.53	275.43
487.90	276.32
488.26	277.27
488.62	278.29
488.99	279.30
489.35	280.34
489.72	281.48
490.08	282.68
490.44	283.96
490.81	285.31
491.17	286.69
491.54	288.21
491.90	289.79
492.26	291.51
492.63	293.25
492.99	295.07
493.36	296.98
493.72	299.05
494.08	301.19
494.45	303.51
494.81	305.92
495.17	308.42
495.54	311.05
495.90	313.81
496.26	316.66
496.63	319.69
496.99	322.92
497.35	326.25
497.72	329.78
498.08	333.39
498.44	337.19
498.80	341.27
499.17	345.43
499.53	349.72
499.89	354.24
500.26	358.87
500.62	363.65
500.98	368.78
501.34	373.97
501.71	379.44
502.07	385.03
502.43	390.82
502.79	396.81
503.16	403.06
503.52	409.52
503.88	416.18
504.24	423.02
504.60	430.08
504.97	437.41
505.33	444.97
505.69	452.90
506.05	460.89
506.41	468.94
506.78	477.38
507.14	486.07
507.50	495.06
507.86	504.43
508.22	513.96
508.59	523.48
508.95	533.35
509.31	543.51
509.67	553.96
510.03	564.51
510.39	575.44
510.75	586.50
511.12	597.71
511.48	609.31
511.84	621.10
512.20	633.03
512.56	645.41
512.92	657.94
513.28	670.65
513.64	683.59
514.00	696.79
514.37	710.19
514.73	723.82
515.09	737.25
515.45	750.99
515.81	765.03
516.17	779.46
516.53	794.20
516.89	808.91
517.25	823.63
517.61	838.67
517.97	853.66
518.33	868.69
518.69	884.20
519.05	899.74
519.41	915.53
519.77	931.65
520.13	947.66
520.49	963.71
520.85	979.82
521.21	996.09
521.57	1012.96
521.93	1029.37
522.29	1046.35
522.65	1063.38
523.01	1080.33
523.37	1097.11
523.73	1114.07
524.09	1130.85
524.45	1147.79
524.81	1165.25
525.17	1182.75
525.53	1200.37
525.89	1218.11
526.25	1235.79
526.61	1253.04
526.97	1270.75
527.33	1288.19
527.68	1305.71
528.04	1323.11
528.40	1340.61
528.76	1358.77
529.12	1376.39
529.48	1394.29
529.84	1411.23
530.20	1428.84
530.56	1446.79
530.91	1465.23
531.27	1483.06
531.63	1500.63
531.99	1518.33
532.35	1535.35
532.71	1552.49
533.07	1569.84
533.42	1587.03
533.78	1604.26
534.14	1621.69
534.50	1637.99
534.86	1654.99
535.21	1671.34
535.57	1688.35
535.93	1705.02
536.29	1720.98
536.65	1737.26
537.00	1753.15
537.36	1769.80
537.72	1785.54
538.08	1801.35
538.44	1816.47
538.79	1831.56
539.15	1846.36
539.51	1861.31
539.87	1876.95
540.22	1891.75
540.58	1906.88
540.94	1921.17
541.29	1935.02
541.65	1949.00
542.01	1963.59
542.37	1977.21
542.72	1990.98
543.08	2004.25
543.44	2018.00
543.79	2030.43
544.15	2042.62
544.51	2055.53
544.87	2067.85
545.22	2080.14
545.58	2091.62
545.94	2102.69
546.29	2113.98
546.65	2125.34
547.01	2136.12
547.36	2146.12
547.72	2155.92
548.07	2165.22
548.43	2174.97
548.79	2184.31
549.14	2193.36
549.50	2201.95
549.86	2210.84
550.21	2219.39
550.57	2227.78
550.92	2235.68
551.28	2244.11
551.64	2252.45
551.99	2260.24
552.35	2267.68
552.70	2274.97
553.06	2282.16
553.41	2289.54
553.77	2296.68
554.13	2303.83
554.48	2311.05
554.84	2317.89
555.19	2324.31
555.55	2330.55
555.90	2336.04
556.26	2342.46
556.61	2348.07
556.97	2353.70
557.32	2359.04
557.68	2364.24
558.03	2369.52
558.39	2374.23
558.74	2379.92
559.10	2384.93
559.45	2389.77
559.81	2395.00
560.16	2399.95
560.52	2404.23
560.87	2408.85
561.23	2412.43
561.58	2416.19
561.94	2419.72
562.29	2422.76
562.64	2426.68
563.00	2430.11
563.35	2434.38
563.71	2438.33
564.06	2442.46
564.42	2446.26
564.77	2449.71
565.12	2453.10
565.48	2456.02
565.83	2458.71
566.19	2461.01
566.54	2462.58
566.89	2464.52
567.25	2466.02
567.60	2467.97
567.96	2470.48
568.31	2471.93
568.66	2473.81
569.02	2475.21
569.37	2476.19
569.72	2477.82
570.08	2478.58
570.43	2479.23
570.78	2479.57
571.14	2478.46
571.49	2477.75
571.84	2477.65
572.20	2476.98
572.55	2476.30
572.90	2474.98
573.26	2474.34
573.61	2472.80
573.96	2471.71
574.31	2468.96
574.67	2466.13
575.02	2462.80
575.37	2459.49
575.72	2455.96
576.08	2452.72
576.43	2449.54
576.78	2446.28
577.13	2443.22
577.49	2440.15
577.84	2436.99
578.19	2433.21
578.54	2429.92
578.90	2425.83
579.25	2420.45
579.60	2415.67
579.95	2410.77
580.30	2405.78
580.66	2400.34
581.01	2395.32
581.36	2390.18
581.71	2386.13
582.06	2381.89
582.42	2377.49
582.77	2372.38
583.12	2367.87
583.47	2363.40
583.82	2358.51
584.17	2353.15
584.53	2347.57
584.88	2341.85
585.23	2335.95
585.58	2330.17
585.93	2324.52
586.28	2319.43
586.63	2314.30
586.98	2308.93
587.34	2303.79
587.69	2298.78
588.04	2293.56
588.39	2287.66
588.74	2280.86
589.09	2274.46
589.44	2267.31
589.79	2260.65
590.14	2254.43
590.49	2247.37
590.84	2240.29
591.19	2233.78
591.54	2226.78
591.89	2219.18
592.25	2212.02
592.60	2204.38
592.95	2196.63
593.30	2188.65
593.65	2180.50
594.00	2172.77
594.35	2165.02
594.70	2156.48
595.05	2148.88
595.40	2140.81
595.75	2132.87
596.10	2126.34
596.45	2118.98
596.80	2112.21
597.15	2105.12
597.50	2097.86
597.85	2090.89
598.19	2083.90
598.54	2076.42
598.89	2069.27
599.24	2062.66
599.59	2055.67
599.94	2048.74
600.29	2041.64
600.64	2034.25
600.99	2026.21
601.34	2018.87
601.69	2011.11
602.04	2003.73
602.39	1995.73
602.74	1988.36
603.08	1981.02
603.43	1973.56
603.78	1965.67
604.13	1957.78
604.48	1950.04
604.83	1942.41
605.18	1935.02
605.53	1926.37
605.87	1917.49
606.22	1909.59
606.57	1900.87
606.92	1892.35
607.27	1884.59
607.62	1877.12
607.96	1869.43
608.31	1862.43
608.66	1854.11
609.01	1846.11
609.36	1837.88
609.70	1829.05
610.05	1820.19
610.40	1811.75
610.75	1802.56
611.10	1794.12
611.44	1784.80
611.79	1775.88
612.14	1766.34
612.49	1756.07
612.83	1746.66
613.18	1737.59
613.53	1728.59
613.88	1719.27
614.22	1710.25
614.57	1700.68
614.92	1691.81
615.27	1683.65
615.61	1674.38
615.96	1665.41
616.31	1656.80
616.65	1648.42
617.00	1640.06
617.35	1631.53
617.70	1622.31
618.04	1613.08
618.39	1603.79
618.74	1595.50
619.08	1586.29
619.43	1577.95
619.78	1570.28
620.12	1562.47
620.47	1554.31
620.82	1545.19
621.16	1536.73
621.51	1528.23
621.85	1519.75
622.20	1510.33
622.55	1500.80
622.89	1492.05
623.24	1483.52
623.59	1475.22
623.93	1467.02
624.28	1458.90
624.62	1450.60
624.97	1442.54
625.32	1434.88
625.66	1427.14
626.01	1419.21
626.35	1411.17
626.70	1402.36
627.04	1393.80
627.39	1385.09
627.73	1376.81
628.08	1369.24
628.43	1361.36
628.77	1353.25
629.12	1344.87
629.46	1336.91
629.81	1328.53
630.15	1320.47
630.50	1312.32
630.84	1303.37
631.19	1294.39
631.53	1286.03
631.88	1277.55
632.22	1269.19
632.57	1260.99
632.91	1252.58
633.26	1244.29
633.60	1235.96
633.95	1228.01
634.29	1220.14
634.64	1212.58
634.98	1204.38
635.32	1196.42
635.67	1189.03
636.01	1181.71
636.36	1174.40
636.70	1167.07
637.05	1159.91
637.39	1152.65
637.73	1145.56
638.08	1138.92
638.42	1132.35
638.77	1125.26
639.11	1118.03
639.45	1110.88
639.80	1103.55
640.14	1096.46
640.49	1089.22
640.83	1082.25
641.17	1075.54
641.52	1068.56
641.86	1061.53
642.20	1055.08
642.55	1048.01
642.89	1040.85
643.23	1033.55
643.58	1027.10
643.92	1020.23
644.26	1013.63
644.61	1006.94
644.95	1000.29
645.29	993.04
645.64	985.61
645.98	978.54
646.32	971.97
646.66	965.40
647.01	959.05
647.35	952.80
647.69	946.35
648.04	940.27
648.38	933.96
648.72	927.51
649.06	920.90
649.41	914.39
649.75	907.89
650.09	901.43
650.43	895.07
650.78	888.20
651.12	881.76
651.46	875.44
651.80	869.32
652.14	863.26
652.49	857.42
652.83	851.81
653.17	845.75
653.51	839.62
653.85	833.64
654.20	827.52
654.54	820.97
654.88	814.69
655.22	808.15
655.56	801.76
655.90	795.66
656.25	789.91
656.59	784.08
656.93	778.44
657.27	772.77
657.61	766.78
657.95	761.19
658.29	755.59
658.64	749.77
658.98	743.74
659.32	737.79
659.66	732.09
660.00	726.32
660.34	720.87
660.68	715.48
661.02	709.98
661.36	704.75
661.70	699.83
662.05	695.04
662.39	690.38
662.73	685.54
663.07	680.75
663.41	675.83
663.75	670.91
664.09	665.89
664.43	661.08
664.77	656.65
665.11	652.08
665.45	647.49
665.79	643.11
666.13	638.74
666.47	634.33
666.81	629.83
667.15	625.22
667.49	620.87
667.83	616.58
668.17	612.29
668.51	607.87
668.85	603.34
669.19	599.07
669.53	594.86
669.87	590.61
670.21	586.57
670.55	582.59
670.89	578.77
671.23	575.02
671.57	571.14
671.91	567.29
672.25	563.39
672.58	559.58
672.92	555.76
673.26	552.18
673.60	548.65
673.94	545.21
674.28	542.00
674.62	538.82
674.96	535.52
675.30	532.39
675.64	529.16
675.97	526.15
676.31	522.98
676.65	519.73
676.99	516.80
677.33	513.58
677.67	510.51
678.01	507.24
678.34	504.04
678.68	500.87
679.02	497.79
679.36	494.76
679.70	491.74
680.04	488.78
680.37	485.68
680.71	482.66
681.05	479.74
681.39	476.84
681.73	473.92
682.06	471.16
682.40	468.34
682.74	465.59
683.08	462.79
683.42	459.95
683.75	457.20
684.09	454.40
684.43	451.72
684.77	449.00
685.10	446.41
685.44	443.86
685.78	441.36
686.12	438.83
686.45	436.29
686.79	433.80
687.13	431.34
687.46	428.97
687.80	426.55
688.14	424.07
688.48	421.78
688.81	419.27
689.15	416.88
689.49	414.48
689.82	412.11
690.16	409.79
690.50	407.63
690.83	405.54
691.17	403.27
691.51	401.13
691.84	399.08
692.18	396.96
692.52	394.78
692.85	392.62
693.19	390.52
693.52	388.52
693.86	386.50
694.20	384.50
694.53	382.49
694.87	380.50
695.21	378.55
695.54	376.52
695.88	374.57
696.21	372.63
696.55	370.79
696.88	368.94
697.22	367.13
697.56	365.34
697.89	363.48
698.23	361.74
698.56	359.99
698.90	358.24
699.23	356.48
699.57	354.77
699.90	353.08
700.24	351.36
700.58	349.70
700.91	348.10
701.25	346.49
701.58	345.01
701.92	343.51
702.25	342.00
702.59	340.52
702.92	339.12
703.26	337.72
703.59	336.30
703.93	335.00
704.26	333.64
704.60	332.25
704.93	330.85
705.26	329.47
705.60	328.12
705.93	326.89
706.27	325.72
706.60	324.55
706.94	323.35
707.27	322.12
707.61	320.91
707.94	319.77
708.27	318.61
708.61	317.39
708.94	316.24
709.28	315.14
709.61	314.09
709.94	312.99
710.28	311.87
710.61	310.78
710.95	309.61
711.28	308.58
711.61	307.51
711.95	306.52
712.28	305.54
712.61	304.55
712.95	303.51
713.28	302.51
713.61	301.55
713.95	300.58
714.28	299.66
714.61	298.71
714.95	297.75
715.28	296.81
715.61	295.89
715.95	294.94
716.28	294.01
716.61	293.06
716.95	292.20
717.28	291.35
717.61	290.50
717.94	289.67
718.28	288.78
718.61	288.01
718.94	287.23
719.27	286.48
719.61	285.70
719.94	284.96
720.27	284.16
720.60	283.43
720.94	282.74
721.27	282.08
721.60	281.44
721.93	280.81
722.27	280.20
722.60	279.56
722.93	278.92
723.26	278.34
723.59	277.73
723.93	277.11
724.26	276.50
724.59	275.88
724.92	275.31
725.25	274.76
725.59	274.16
725.92	273.57
726.25	273.01
726.58	272.48
726.91	271.93
727.24	271.40
727.57	270.86
727.91	270.29
728.24	269.75
728.57	269.19
728.90	268.63
729.23	268.05
729.56	267.58
729.89	267.08
730.22	266.53
730.55	266.00
730.89	265.53
731.22	265.05
731.55	264.58
731.88	264.09
732.21	263.62
732.54	263.13
732.87	262.69
733.20	262.23
733.53	261.79
733.86	261.37
734.19	260.95
734.52	260.56
734.85	260.21
735.18	259.77
735.51	259.41
735.84	259.03
736.17	258.68
736.50	258.23
736.83	257.96
737.16	257.61
737.49	257.25
737.82	256.88
738.15	256.53
738.48	256.18
738.81	255.81
739.14	255.48
739.47	255.15
739.80	254.84
740.13	254.48
740.46	254.14
740.79	253.76
741.12	253.42
741.45	253.05
741.78	252.67
742.11	252.37
742.44	252.00
742.77	251.64
743.10	251.32
743.43	251.01
743.75	250.57
744.08	250.40
744.41	250.10
744.74	249.77
745.07	249.44
745.40	249.17
745.73	248.92
746.06	248.59
746.39	248.28
746.71	247.93
747.04	247.63
747.37	247.34
747.70	247.06
748.03	246.81
748.36	246.55
748.68	246.29
749.01	245.96
749.34	245.74
749.67	245.51
750.00	245.23
750.33	245.03
750.65	244.83
750.98	244.45
751.31	244.19
751.64	243.93
751.97	243.75
752.29	243.46
752.62	243.21
752.95	243.00
753.28	242.82
753.60	242.61
753.93	242.40
754.26	242.17
754.59	241.97
754.91	241.71
755.24	241.50
755.57	241.28
755.90	241.13
756.22	240.88
756.55	240.66
756.88	240.44
757.20	240.21
757.53	240.00
757.86	239.82
758.19	239.63
758.51	239.48
758.84	239.29
759.17	239.15
759.49	238.96
759.82	238.83
760.15	238.63
760.47	238.48
760.80	238.29
761.13	238.14
761.45	237.97
761.78	237.81
762.11	237.67
762.43	237.53
762.76	237.35
763.08	237.20
763.41	237.06
763.74	236.91
764.06	236.74
764.39	236.59
764.71	236.39
765.04	236.22
765.37	236.05
765.69	235.84
766.02	235.67
766.34	235.52
766.67	235.30
767.00	235.20
767.32	235.12
767.65	235.08
767.97	234.96
768.30	234.83
768.62	234.72
768.95	234.56
769.27	234.40
769.60	234.32
769.92	234.20
770.25	234.07
770.57	233.94
770.90	233.81
771.22	233.68
771.55	233.60
771.87	233.52
772.20	233.41
772.52	233.43
772.85	233.49
773.17	233.37
773.50	233.30
773.82	233.19
774.15	233.01
774.47	232.83
774.80	232.70
775.12	232.61
775.45	232.51
775.77	232.41
776.09	232.33
776.42	232.23
776.74	232.17
777.07	232.06
777.39	232.01
777.72	231.92
778.04	231.88
778.36	231.78
778.69	231.70
779.01	231.63
779.33	231.49
779.66	231.24
779.98	231.16
780.31	231.07
780.63	231.01
780.95	230.96
781.28	230.87
781.60	230.81
781.92	230.75
782.25	230.66
782.57	230.62
782.89	230.56
783.22	230.49
783.54	230.41
783.86	230.38
784.19	230.27
784.51	230.26
784.83	230.17
785.16	230.11
785.48	230.07
785.80	230.05
786.12	229.97
786.45	229.92
786.77	229.91
