SpectraSuite Data File
++++++++++++++++++++++++++++++++++++
Date: Fri Feb 01 15:03:12 EST 2013
User: group
Dark Spectrum Present: No
Reference Spectrum Present: No
Number of Sampled Component Spectra: 1
Spectrometers: USB2E7196
Integration Time (usec): 35000 (USB2E7196)
Spectra Averaged: 100 (USB2E7196)
Boxcar Smoothing: 10 (USB2E7196)
Correct for Electrical Dark: No (USB2E7196)
Strobe/Lamp Enabled: No (USB2E7196)
Correct for Detector Non-linearity: No (USB2E7196)
Correct for Stray Light: No (USB2E7196)
Number of Pixels in Processed Spectrum: 2048
>>>>>Begin Processed Spectral Data<<<<<
339.09	0.00
339.48	214.45
339.86	216.44
340.24	217.73
340.63	219.08
341.01	221.57
341.39	221.83
341.78	223.70
342.16	224.97
342.54	224.69
342.93	213.29
343.31	224.06
343.69	224.64
344.07	225.12
344.46	225.56
344.84	225.96
345.22	226.20
345.60	226.46
345.99	226.64
346.37	226.74
346.75	226.82
347.13	226.90
347.52	226.96
347.90	227.07
348.28	227.10
348.66	227.17
349.05	227.17
349.43	227.22
349.81	227.27
350.19	227.30
350.57	227.43
350.96	227.44
351.34	227.55
351.72	227.62
352.10	227.71
352.48	227.78
352.87	227.84
353.25	227.94
353.63	228.00
354.01	228.07
354.39	228.14
354.77	228.26
355.15	228.36
355.54	228.42
355.92	228.42
356.30	228.51
356.68	228.61
357.06	228.69
357.44	228.73
357.82	228.81
358.20	228.88
358.58	228.92
358.97	229.00
359.35	229.07
359.73	229.18
360.11	229.22
360.49	229.23
360.87	229.28
361.25	229.35
361.63	229.41
362.01	229.46
362.39	229.49
362.77	229.52
363.15	229.54
363.53	229.56
363.91	229.61
364.29	229.62
364.67	229.53
365.05	229.54
365.43	229.53
365.81	229.53
366.19	229.53
366.57	229.55
366.95	229.54
367.33	229.51
367.71	229.42
368.09	229.42
368.47	229.40
368.85	229.36
369.23	229.30
369.61	229.22
369.99	229.19
370.37	229.15
370.75	229.17
371.13	229.11
371.51	229.06
371.89	229.02
372.27	228.97
372.65	228.92
373.03	228.86
373.41	228.80
373.78	228.74
374.16	228.65
374.54	228.55
374.92	228.47
375.30	228.40
375.68	228.35
376.06	228.29
376.44	228.22
376.82	228.14
377.19	228.05
377.57	227.99
377.95	227.89
378.33	227.81
378.71	227.69
379.09	227.61
379.47	227.54
379.84	227.46
380.22	227.39
380.60	227.32
380.98	227.24
381.36	227.16
381.73	227.06
382.11	226.99
382.49	226.93
382.87	226.88
383.25	226.78
383.62	226.81
384.00	226.72
384.38	226.67
384.76	226.67
385.13	226.67
385.51	226.61
385.89	226.53
386.27	226.50
386.64	226.46
387.02	226.42
387.40	226.36
387.78	226.31
388.15	226.25
388.53	226.24
388.91	226.22
389.29	226.17
389.66	226.15
390.04	226.14
390.42	226.12
390.79	226.10
391.17	226.14
391.55	226.01
391.92	226.02
392.30	226.04
392.68	226.01
393.05	226.03
393.43	226.08
393.81	226.10
394.18	226.11
394.56	226.13
394.94	226.19
395.31	226.20
395.69	226.28
396.06	226.34
396.44	226.37
396.82	226.43
397.19	226.52
397.57	226.59
397.95	226.63
398.32	226.69
398.70	226.78
399.07	226.83
399.45	226.96
399.82	227.02
400.20	227.09
400.58	227.17
400.95	227.21
401.33	227.30
401.70	227.49
402.08	227.56
402.45	227.69
402.83	227.79
403.20	227.95
403.58	228.06
403.95	228.23
404.33	228.36
404.71	228.48
405.08	228.69
405.46	228.82
405.83	228.98
406.21	229.12
406.58	229.27
406.96	229.48
407.33	229.64
407.70	229.84
408.08	230.13
408.45	230.37
408.83	230.63
409.20	230.86
409.58	231.05
409.95	231.33
410.33	231.58
410.70	231.85
411.08	232.14
411.45	232.42
411.82	232.69
412.20	233.05
412.57	233.47
412.95	233.77
413.32	234.21
413.69	234.61
414.07	235.11
414.44	235.59
414.82	236.08
415.19	236.62
415.56	237.17
415.94	237.66
416.31	238.28
416.68	238.86
417.06	239.58
417.43	240.23
417.81	240.99
418.18	241.78
418.55	242.60
418.93	243.49
419.30	244.41
419.67	245.36
420.04	246.32
420.42	247.29
420.79	248.48
421.16	249.61
421.54	250.82
421.91	251.98
422.28	253.24
422.66	254.53
423.03	255.81
423.40	257.16
423.77	258.58
424.15	260.02
424.52	261.54
424.89	263.12
425.26	264.68
425.64	266.13
426.01	267.70
426.38	269.36
426.75	270.96
427.13	272.69
427.50	274.46
427.87	276.36
428.24	278.25
428.61	280.00
428.99	281.97
429.36	284.07
429.73	286.15
430.10	288.17
430.47	290.26
430.85	292.39
431.22	294.63
431.59	297.04
431.96	299.30
432.33	301.78
432.70	304.17
433.08	307.00
433.45	309.64
433.82	312.25
434.19	315.13
434.56	317.97
434.93	320.64
435.30	323.31
435.68	326.21
436.05	329.06
436.42	331.86
436.79	334.41
437.16	337.09
437.53	339.96
437.90	342.80
438.27	345.54
438.64	348.40
439.01	350.98
439.38	353.21
439.75	355.36
440.13	357.88
440.50	360.23
440.87	362.11
441.24	364.07
441.61	366.25
441.98	367.74
442.35	369.54
442.72	371.40
443.09	373.23
443.46	374.20
443.83	374.79
444.20	375.29
444.57	376.09
444.94	376.39
445.31	376.70
445.68	377.02
446.05	377.07
446.42	376.69
446.79	376.32
447.16	375.88
447.53	375.56
447.90	374.40
448.27	373.21
448.64	371.59
449.01	370.43
449.37	368.46
449.74	366.58
450.11	364.37
450.48	361.88
450.85	359.33
451.22	357.20
451.59	355.15
451.96	353.22
452.33	350.64
452.70	348.29
453.07	345.44
453.43	342.54
453.80	339.83
454.17	337.11
454.54	334.54
454.91	331.81
455.28	329.09
455.65	326.59
456.02	324.15
456.38	322.03
456.75	319.38
457.12	317.09
457.49	314.84
457.86	312.66
458.23	310.80
458.59	308.72
458.96	306.62
459.33	304.78
459.70	302.88
460.07	301.34
460.43	299.61
460.80	297.94
461.17	296.54
461.54	295.00
461.91	293.60
462.27	292.11
462.64	290.85
463.01	289.49
463.38	288.21
463.74	286.83
464.11	285.63
464.48	284.59
464.85	283.50
465.21	282.66
465.58	281.74
465.95	280.64
466.32	279.74
466.68	278.82
467.05	277.91
467.42	277.01
467.78	276.06
468.15	275.16
468.52	274.51
468.88	273.59
469.25	272.81
469.62	272.18
469.98	271.54
470.35	270.87
470.72	270.31
471.08	269.60
471.45	269.08
471.82	268.53
472.18	267.96
472.55	267.52
472.92	266.95
473.28	266.45
473.65	265.98
474.02	265.51
474.38	265.16
474.75	264.80
475.11	264.45
475.48	264.22
475.85	264.01
476.21	263.78
476.58	263.58
476.94	263.40
477.31	263.24
477.67	263.06
478.04	262.97
478.41	262.86
478.77	262.91
479.14	262.79
479.50	262.79
479.87	262.84
480.23	262.89
480.60	262.95
480.96	263.04
481.33	263.25
481.69	263.46
482.06	263.64
482.42	263.84
482.79	264.09
483.15	264.37
483.52	264.72
483.88	265.07
484.25	265.44
484.61	265.88
484.98	266.27
485.34	266.90
485.71	267.50
486.07	268.11
486.44	268.66
486.80	269.36
487.17	270.06
487.53	270.85
487.90	271.70
488.26	272.66
488.62	273.63
488.99	274.60
489.35	275.61
489.72	276.76
490.08	277.94
490.44	279.21
490.81	280.55
491.17	281.89
491.54	283.35
491.90	284.91
492.26	286.54
492.63	288.29
492.99	290.03
493.36	291.88
493.72	293.91
494.08	296.00
494.45	298.27
494.81	300.65
495.17	303.09
495.54	305.65
495.90	308.33
496.26	311.17
496.63	314.11
496.99	317.23
497.35	320.46
497.72	323.90
498.08	327.37
498.44	331.01
498.80	334.95
499.17	339.00
499.53	343.19
499.89	347.55
500.26	352.06
500.62	356.68
500.98	361.64
501.34	366.74
501.71	372.04
502.07	377.51
502.43	383.08
502.79	388.86
503.16	394.91
503.52	401.19
503.88	407.58
504.24	414.21
504.60	421.12
504.97	428.22
505.33	435.46
505.69	443.15
506.05	450.98
506.41	458.76
506.78	466.90
507.14	475.31
507.50	483.99
507.86	492.99
508.22	502.16
508.59	511.34
508.95	520.91
509.31	530.72
509.67	540.76
510.03	551.04
510.39	561.60
510.75	572.36
511.12	583.24
511.48	594.50
511.84	605.94
512.20	617.37
512.56	629.34
512.92	641.52
513.28	653.82
513.64	666.29
514.00	679.00
514.37	691.88
514.73	704.93
515.09	718.08
515.45	731.30
515.81	744.89
516.17	758.98
516.53	773.03
516.89	787.16
517.25	801.30
517.61	815.81
517.97	830.34
518.33	844.83
518.69	859.65
519.05	874.60
519.41	889.78
519.77	905.42
520.13	920.88
520.49	936.27
520.85	951.84
521.21	967.59
521.57	983.93
521.93	999.87
522.29	1016.35
522.65	1032.53
523.01	1048.81
523.37	1064.88
523.73	1081.06
524.09	1097.35
524.45	1113.75
524.81	1130.44
525.17	1147.35
525.53	1164.25
525.89	1181.10
526.25	1197.98
526.61	1214.53
526.97	1231.34
527.33	1247.85
527.68	1264.53
528.04	1281.04
528.40	1297.76
528.76	1314.87
529.12	1331.54
529.48	1348.39
529.84	1364.47
530.20	1381.18
530.56	1398.42
530.91	1415.93
531.27	1432.82
531.63	1449.24
531.99	1465.89
532.35	1481.97
532.71	1497.69
533.07	1514.08
533.42	1530.13
533.78	1546.14
534.14	1562.41
534.50	1577.84
534.86	1593.81
535.21	1609.03
535.57	1625.14
535.93	1640.53
536.29	1655.34
536.65	1670.52
537.00	1685.43
537.36	1700.83
537.72	1715.56
538.08	1729.88
538.44	1743.70
538.79	1757.55
539.15	1771.42
539.51	1785.36
539.87	1799.85
540.22	1813.89
540.58	1827.87
540.94	1841.33
541.29	1854.42
541.65	1867.30
542.01	1880.64
542.37	1892.97
542.72	1905.45
543.08	1917.27
543.44	1929.79
543.79	1941.07
544.15	1952.00
544.51	1963.59
544.87	1974.70
545.22	1985.49
545.58	1995.86
545.94	2005.83
546.29	2015.80
546.65	2025.56
547.01	2034.83
547.36	2043.70
547.72	2052.12
548.07	2059.86
548.43	2068.04
548.79	2076.15
549.14	2083.69
549.50	2091.01
549.86	2098.87
550.21	2106.27
550.57	2113.37
550.92	2119.86
551.28	2126.96
551.64	2134.06
551.99	2140.62
552.35	2146.66
552.70	2152.74
553.06	2158.57
553.41	2164.77
553.77	2170.77
554.13	2176.99
554.48	2183.08
554.84	2188.36
555.19	2193.50
555.55	2198.45
555.90	2202.89
556.26	2207.60
556.61	2212.32
556.97	2216.33
557.32	2220.44
557.68	2224.55
558.03	2228.94
558.39	2232.80
558.74	2237.42
559.10	2241.27
559.45	2244.85
559.81	2249.10
560.16	2252.92
560.52	2256.26
560.87	2259.66
561.23	2262.20
561.58	2265.09
561.94	2267.46
562.29	2269.76
562.64	2272.56
563.00	2275.20
563.35	2278.65
563.71	2281.78
564.06	2284.86
564.42	2287.90
564.77	2290.11
565.12	2292.26
565.48	2293.86
565.83	2295.55
566.19	2296.72
566.54	2297.60
566.89	2298.59
567.25	2298.97
567.60	2300.20
567.96	2301.56
568.31	2302.36
568.66	2303.36
569.02	2303.64
569.37	2303.83
569.72	2304.40
570.08	2304.43
570.43	2304.35
570.78	2303.52
571.14	2301.91
571.49	2300.53
571.84	2300.00
572.20	2298.74
572.55	2297.51
572.90	2295.99
573.26	2294.49
573.61	2292.73
573.96	2290.76
574.31	2287.57
574.67	2284.54
575.02	2280.75
575.37	2277.45
575.72	2273.37
576.08	2269.90
576.43	2266.57
576.78	2262.78
577.13	2259.59
577.49	2256.32
577.84	2252.73
578.19	2248.99
578.54	2245.02
578.90	2240.59
579.25	2235.00
579.60	2229.99
579.95	2224.84
580.30	2219.70
580.66	2214.31
581.01	2209.14
581.36	2204.07
581.71	2199.99
582.06	2195.33
582.42	2190.68
582.77	2185.32
583.12	2180.64
583.47	2175.67
583.82	2170.36
584.17	2165.01
584.53	2159.37
584.88	2153.55
585.23	2147.59
585.58	2141.97
585.93	2136.67
586.28	2131.78
586.63	2126.49
586.98	2121.21
587.34	2116.45
587.69	2111.45
588.04	2106.03
588.39	2100.14
588.74	2093.60
589.09	2087.18
589.44	2080.31
589.79	2074.33
590.14	2068.70
590.49	2062.04
590.84	2055.73
591.19	2049.71
591.54	2043.29
591.89	2035.71
592.25	2028.82
592.60	2021.52
592.95	2013.74
593.30	2006.20
593.65	1998.57
594.00	1991.51
594.35	1984.17
594.70	1976.18
595.05	1968.75
595.40	1961.51
595.75	1954.10
596.10	1947.68
596.45	1940.83
596.80	1934.54
597.15	1927.67
597.50	1920.23
597.85	1913.77
598.19	1907.02
598.54	1899.84
598.89	1893.12
599.24	1887.19
599.59	1880.31
599.94	1874.06
600.29	1867.77
600.64	1861.12
600.99	1853.46
601.34	1846.48
601.69	1839.59
602.04	1832.45
602.39	1825.13
602.74	1818.20
603.08	1811.50
603.43	1805.00
603.78	1797.73
604.13	1790.47
604.48	1783.14
604.83	1776.33
605.18	1769.25
605.53	1761.14
605.87	1753.01
606.22	1745.71
606.57	1737.91
606.92	1730.78
607.27	1723.58
607.62	1716.56
607.96	1709.28
608.31	1702.69
608.66	1695.15
609.01	1687.51
609.36	1679.96
609.70	1671.96
610.05	1663.96
610.40	1656.16
610.75	1647.58
611.10	1639.98
611.44	1631.71
611.79	1623.82
612.14	1615.24
612.49	1606.22
612.83	1597.91
613.18	1589.98
613.53	1581.92
613.88	1573.37
614.22	1564.99
614.57	1556.57
614.92	1548.59
615.27	1540.98
615.61	1532.69
615.96	1524.71
616.31	1517.14
616.65	1509.89
617.00	1502.44
617.35	1494.78
617.70	1486.43
618.04	1478.00
618.39	1469.78
618.74	1462.10
619.08	1453.87
619.43	1446.30
619.78	1439.35
620.12	1432.23
620.47	1424.69
620.82	1416.47
621.16	1409.10
621.51	1401.75
621.85	1394.18
622.20	1385.74
622.55	1377.54
622.89	1369.80
623.24	1362.21
623.59	1354.86
623.93	1347.39
624.28	1340.12
624.62	1332.62
624.97	1325.55
625.32	1318.89
625.66	1311.83
626.01	1304.73
626.35	1297.18
626.70	1289.43
627.04	1281.74
627.39	1274.02
627.73	1266.68
628.08	1259.82
628.43	1252.53
628.77	1245.05
629.12	1237.43
629.46	1230.28
629.81	1222.83
630.15	1215.69
630.50	1208.29
630.84	1200.20
631.19	1192.33
631.53	1184.90
631.88	1177.33
632.22	1169.79
632.57	1162.54
632.91	1155.03
633.26	1147.71
633.60	1140.58
633.95	1133.67
634.29	1126.75
634.64	1120.11
634.98	1112.73
635.32	1105.69
635.67	1099.20
636.01	1092.60
636.36	1085.86
636.70	1079.41
637.05	1072.89
637.39	1066.42
637.73	1059.90
638.08	1053.97
638.42	1047.97
638.77	1041.62
639.11	1035.03
639.45	1028.67
639.80	1022.08
640.14	1015.71
640.49	1009.19
640.83	1002.80
641.17	996.42
641.52	990.10
641.86	983.71
642.20	977.98
642.55	971.80
642.89	965.28
643.23	958.77
643.58	952.94
643.92	946.69
644.26	940.50
644.61	934.52
644.95	928.51
645.29	921.90
645.64	915.19
645.98	908.77
646.32	903.03
646.66	896.97
647.01	891.13
647.35	885.47
647.69	879.63
648.04	874.24
648.38	868.42
648.72	862.41
649.06	856.38
649.41	850.48
649.75	844.33
650.09	838.40
650.43	832.64
650.78	826.53
651.12	820.62
651.46	814.94
651.80	809.12
652.14	803.70
652.49	798.36
652.83	793.28
653.17	787.62
653.51	781.85
653.85	776.52
654.20	770.87
654.54	764.93
654.88	759.25
655.22	753.38
655.56	747.86
655.90	742.39
656.25	737.11
656.59	731.79
656.93	726.79
657.27	721.72
657.61	716.33
657.95	711.21
658.29	706.13
658.64	701.04
658.98	695.78
659.32	690.40
659.66	685.22
660.00	679.85
660.34	674.95
660.68	670.08
661.02	665.07
661.36	660.47
661.70	656.03
662.05	651.67
662.39	647.28
662.73	642.80
663.07	638.40
663.41	633.97
663.75	629.48
664.09	624.99
664.43	620.62
664.77	616.52
665.11	612.32
665.45	608.27
665.79	604.20
666.13	600.14
666.47	596.09
666.81	591.98
667.15	587.95
667.49	584.12
667.83	580.42
668.17	576.53
668.51	572.46
668.85	568.42
669.19	564.61
669.53	560.81
669.87	556.98
670.21	553.43
670.55	549.90
670.89	546.48
671.23	543.07
671.57	539.57
671.91	536.11
672.25	532.72
672.58	529.24
672.92	525.90
673.26	522.80
673.60	519.71
673.94	516.61
674.28	513.68
674.62	510.71
674.96	507.60
675.30	504.68
675.64	501.78
675.97	499.05
676.31	496.27
676.65	493.34
676.99	490.63
677.33	487.69
677.67	484.87
678.01	481.84
678.34	478.82
678.68	476.01
679.02	473.13
679.36	470.35
679.70	467.61
680.04	464.86
680.37	461.93
680.71	459.15
681.05	456.51
681.39	453.83
681.73	451.25
682.06	448.74
682.40	446.16
682.74	443.64
683.08	441.10
683.42	438.50
683.75	436.04
684.09	433.51
684.43	431.11
684.77	428.61
685.10	426.33
685.44	424.00
685.78	421.66
686.12	419.43
686.45	417.17
686.79	414.89
687.13	412.71
687.46	410.56
687.80	408.44
688.14	406.32
688.48	404.27
688.81	401.98
689.15	399.81
689.49	397.74
689.82	395.65
690.16	393.59
690.50	391.64
690.83	389.66
691.17	387.73
691.51	385.80
691.84	384.04
692.18	382.05
692.52	380.11
692.85	378.20
693.19	376.31
693.52	374.50
693.86	372.71
694.20	370.90
694.53	369.15
694.87	367.34
695.21	365.53
695.54	363.71
695.88	362.02
696.21	360.35
696.55	358.65
696.88	356.94
697.22	355.26
697.56	353.67
697.89	352.05
698.23	350.40
698.56	348.83
698.90	347.21
699.23	345.59
699.57	344.05
699.90	342.53
700.24	341.02
700.58	339.47
700.91	337.96
701.25	336.53
701.58	335.14
701.92	333.74
702.25	332.40
702.59	331.09
702.92	329.78
703.26	328.43
703.59	327.18
703.93	326.04
704.26	324.83
704.60	323.52
704.93	322.26
705.26	321.04
705.60	319.91
705.93	318.77
706.27	317.76
706.60	316.74
706.94	315.72
707.27	314.58
707.61	313.53
707.94	312.54
708.27	311.48
708.61	310.44
708.94	309.47
709.28	308.48
709.61	307.53
709.94	306.61
710.28	305.65
710.61	304.74
710.95	303.66
711.28	302.75
711.61	301.83
711.95	300.93
712.28	300.00
712.61	298.99
712.95	298.09
713.28	297.22
713.61	296.32
713.95	295.42
714.28	294.66
714.61	293.81
714.95	292.98
715.28	292.11
715.61	291.23
715.95	290.42
716.28	289.57
716.61	288.77
716.95	287.94
717.28	287.18
717.61	286.37
717.94	285.65
718.28	284.87
718.61	284.17
718.94	283.50
719.27	282.87
719.61	282.24
719.94	281.54
720.27	280.85
720.60	280.20
720.94	279.57
721.27	278.90
721.60	278.36
721.93	277.76
722.27	277.25
722.60	276.65
722.93	276.04
723.26	275.50
723.59	274.93
723.93	274.40
724.26	273.89
724.59	273.30
724.92	272.77
725.25	272.27
725.59	271.70
725.92	271.19
726.25	270.65
726.58	270.15
726.91	269.65
727.24	269.18
727.57	268.69
727.91	268.22
728.24	267.78
728.57	267.27
728.90	266.82
729.23	266.31
729.56	265.95
729.89	265.50
730.22	264.99
730.55	264.49
730.89	264.01
731.22	263.49
731.55	263.09
731.88	262.68
732.21	262.23
732.54	261.80
732.87	261.36
733.20	260.98
733.53	260.60
733.86	260.22
734.19	259.81
734.52	259.46
734.85	259.09
735.18	258.65
735.51	258.29
735.84	257.88
736.17	257.50
736.50	257.09
736.83	256.85
737.16	256.51
737.49	256.16
737.82	255.82
738.15	255.52
738.48	255.16
738.81	254.86
739.14	254.56
739.47	254.22
739.80	253.92
740.13	253.59
740.46	253.24
740.79	252.95
741.12	252.64
741.45	252.31
741.78	251.98
742.11	251.72
742.44	251.39
742.77	251.14
743.10	250.88
743.43	250.56
743.75	250.20
744.08	250.07
744.41	249.82
744.74	249.56
745.07	249.31
745.40	249.09
745.73	248.82
746.06	248.53
746.39	248.31
746.71	248.04
747.04	247.75
747.37	247.52
747.70	247.27
748.03	247.05
748.36	246.83
748.68	246.61
749.01	246.35
749.34	246.12
749.67	245.89
750.00	245.67
750.33	245.53
750.65	245.30
750.98	244.96
751.31	244.75
751.64	244.56
751.97	244.40
752.29	244.18
752.62	243.95
752.95	243.72
753.28	243.51
753.60	243.34
753.93	243.19
754.26	242.99
754.59	242.78
754.91	242.55
755.24	242.33
755.57	242.17
755.90	241.98
756.22	241.81
756.55	241.59
756.88	241.41
757.20	241.21
757.53	241.03
757.86	240.86
758.19	240.68
758.51	240.51
758.84	240.28
759.17	240.12
759.49	239.98
759.82	239.87
760.15	239.72
760.47	239.58
760.80	239.42
761.13	239.27
761.45	239.13
761.78	238.98
762.11	238.85
762.43	238.69
762.76	238.53
763.08	238.38
763.41	238.27
763.74	238.15
764.06	237.97
764.39	237.83
764.71	237.69
765.04	237.56
765.37	237.43
765.69	237.32
766.02	237.21
766.34	237.04
766.67	236.89
767.00	236.77
767.32	236.67
767.65	236.61
767.97	236.50
768.30	236.36
768.62	236.26
768.95	236.14
769.27	235.99
769.60	235.91
769.92	235.79
770.25	235.64
770.57	235.50
770.90	235.40
771.22	235.28
771.55	235.16
771.87	235.07
772.20	234.93
772.52	234.90
772.85	234.87
773.17	234.82
773.50	234.71
773.82	234.61
774.15	234.45
774.47	234.27
774.80	234.15
775.12	234.06
775.45	233.99
775.77	233.91
776.09	233.85
776.42	233.81
776.74	233.77
777.07	233.71
777.39	233.64
777.72	233.54
778.04	233.50
778.36	233.46
778.69	233.41
779.01	233.35
779.33	233.20
779.66	233.04
779.98	232.96
780.31	232.90
780.63	232.89
780.95	232.84
781.28	232.81
781.60	232.77
781.92	232.72
782.25	232.64
782.57	232.56
782.89	232.51
783.22	232.42
783.54	232.33
783.86	232.26
784.19	232.21
784.51	232.20
784.83	232.13
785.16	232.07
785.48	232.00
785.80	231.93
786.12	231.91
786.45	231.87
786.77	231.82
787.09	231.78
