SpectraSuite Data File
++++++++++++++++++++++++++++++++++++
Date: Fri Feb 01 15:25:33 EST 2013
User: group
Dark Spectrum Present: No
Reference Spectrum Present: No
Number of Sampled Component Spectra: 1
Spectrometers: USB2E7196
Integration Time (usec): 35000 (USB2E7196)
Spectra Averaged: 100 (USB2E7196)
Boxcar Smoothing: 10 (USB2E7196)
Correct for Electrical Dark: No (USB2E7196)
Strobe/Lamp Enabled: No (USB2E7196)
Correct for Detector Non-linearity: No (USB2E7196)
Correct for Stray Light: No (USB2E7196)
Number of Pixels in Processed Spectrum: 2048
>>>>>Begin Processed Spectral Data<<<<<
339.09	0.00
339.48	214.68
339.86	216.34
340.24	217.63
340.63	219.45
341.01	222.25
341.39	221.82
341.78	223.30
342.16	224.58
342.54	225.34
342.93	213.35
343.31	224.13
343.69	224.69
344.07	225.12
344.46	225.58
344.84	225.96
345.22	226.22
345.60	226.49
345.99	226.70
346.37	226.81
346.75	226.93
347.13	227.00
347.52	227.08
347.90	227.14
348.28	227.16
348.66	227.20
349.05	227.22
349.43	227.28
349.81	227.36
350.19	227.43
350.57	227.46
350.96	227.55
351.34	227.64
351.72	227.73
352.10	227.84
352.48	227.91
352.87	227.96
353.25	228.03
353.63	228.10
354.01	228.16
354.39	228.24
354.77	228.29
355.15	228.39
355.54	228.49
355.92	228.57
356.30	228.67
356.68	228.80
357.06	228.86
357.44	228.91
357.82	228.95
358.20	229.01
358.58	229.10
358.97	229.15
359.35	229.24
359.73	229.32
360.11	229.37
360.49	229.46
360.87	229.49
361.25	229.53
361.63	229.56
362.01	229.59
362.39	229.64
362.77	229.66
363.15	229.68
363.53	229.68
363.91	229.70
364.29	229.69
364.67	229.62
365.05	229.64
365.43	229.64
365.81	229.64
366.19	229.67
366.57	229.71
366.95	229.71
367.33	229.66
367.71	229.65
368.09	229.67
368.47	229.63
368.85	229.60
369.23	229.61
369.61	229.54
369.99	229.55
370.37	229.49
370.75	229.50
371.13	229.47
371.51	229.41
371.89	229.34
372.27	229.33
372.65	229.30
373.03	229.21
373.41	229.16
373.78	229.13
374.16	229.06
374.54	228.96
374.92	228.89
375.30	228.81
375.68	228.67
376.06	228.62
376.44	228.54
376.82	228.48
377.19	228.35
377.57	228.29
377.95	228.17
378.33	228.12
378.71	228.01
379.09	227.93
379.47	227.86
379.84	227.79
380.22	227.67
380.60	227.59
380.98	227.51
381.36	227.41
381.73	227.31
382.11	227.22
382.49	227.14
382.87	227.07
383.25	227.00
383.62	227.08
384.00	226.98
384.38	226.93
384.76	226.86
385.13	226.82
385.51	226.78
385.89	226.70
386.27	226.65
386.64	226.60
387.02	226.54
387.40	226.50
387.78	226.49
388.15	226.44
388.53	226.35
388.91	226.32
389.29	226.30
389.66	226.31
390.04	226.30
390.42	226.28
390.79	226.24
391.17	226.29
391.55	226.16
391.92	226.16
392.30	226.16
392.68	226.18
393.05	226.20
393.43	226.21
393.81	226.26
394.18	226.27
394.56	226.30
394.94	226.35
395.31	226.34
395.69	226.40
396.06	226.47
396.44	226.53
396.82	226.59
397.19	226.69
397.57	226.72
397.95	226.80
398.32	226.81
398.70	226.88
399.07	226.93
399.45	227.00
399.82	227.08
400.20	227.17
400.58	227.26
400.95	227.34
401.33	227.44
401.70	227.62
402.08	227.71
402.45	227.83
402.83	227.94
403.20	228.08
403.58	228.17
403.95	228.30
404.33	228.45
404.71	228.59
405.08	228.76
405.46	228.90
405.83	229.06
406.21	229.25
406.58	229.45
406.96	229.62
407.33	229.83
407.70	230.01
408.08	230.29
408.45	230.50
408.83	230.72
409.20	230.93
409.58	231.10
409.95	231.36
410.33	231.61
410.70	231.88
411.08	232.18
411.45	232.48
411.82	232.78
412.20	233.13
412.57	233.53
412.95	233.83
413.32	234.23
413.69	234.65
414.07	235.09
414.44	235.56
414.82	236.04
415.19	236.55
415.56	237.11
415.94	237.64
416.31	238.27
416.68	238.89
417.06	239.60
417.43	240.28
417.81	241.03
418.18	241.85
418.55	242.67
418.93	243.56
419.30	244.47
419.67	245.44
420.04	246.39
420.42	247.38
420.79	248.55
421.16	249.70
421.54	250.85
421.91	252.04
422.28	253.27
422.66	254.58
423.03	255.90
423.40	257.21
423.77	258.58
424.15	259.97
424.52	261.47
424.89	263.03
425.26	264.58
425.64	266.01
426.01	267.59
426.38	269.25
426.75	270.92
427.13	272.63
427.50	274.41
427.87	276.28
428.24	278.12
428.61	279.91
428.99	281.88
429.36	283.97
429.73	286.05
430.10	288.05
430.47	290.13
430.85	292.25
431.22	294.54
431.59	296.94
431.96	299.15
432.33	301.64
432.70	304.06
433.08	306.85
433.45	309.53
433.82	312.11
434.19	315.01
434.56	317.80
434.93	320.51
435.30	323.12
435.68	326.03
436.05	328.89
436.42	331.64
436.79	334.14
437.16	336.86
437.53	339.63
437.90	342.48
438.27	345.23
438.64	348.03
439.01	350.62
439.38	352.85
439.75	355.10
440.13	357.57
440.50	359.90
440.87	361.74
441.24	363.70
441.61	365.87
441.98	367.31
442.35	369.13
442.72	370.94
443.09	372.76
443.46	373.72
443.83	374.33
444.20	374.88
444.57	375.73
444.94	376.03
445.31	376.44
445.68	376.79
446.05	376.89
446.42	376.54
446.79	376.12
447.16	375.70
447.53	375.41
447.90	374.30
448.27	373.21
448.64	371.64
449.01	370.51
449.37	368.54
449.74	366.66
450.11	364.41
450.48	361.93
450.85	359.41
451.22	357.28
451.59	355.23
451.96	353.26
452.33	350.63
452.70	348.29
453.07	345.46
453.43	342.55
453.80	339.75
454.17	337.08
454.54	334.56
454.91	331.80
455.28	329.10
455.65	326.58
456.02	324.06
456.38	321.96
456.75	319.29
457.12	317.02
457.49	314.81
457.86	312.64
458.23	310.79
458.59	308.76
458.96	306.69
459.33	304.86
459.70	303.01
460.07	301.50
460.43	299.80
460.80	298.20
461.17	296.78
461.54	295.30
461.91	293.82
462.27	292.34
462.64	291.12
463.01	289.74
463.38	288.42
463.74	287.06
464.11	285.86
464.48	284.80
464.85	283.69
465.21	282.79
465.58	281.89
465.95	280.79
466.32	279.86
466.68	278.93
467.05	278.04
467.42	277.14
467.78	276.22
468.15	275.29
468.52	274.57
468.88	273.66
469.25	272.85
469.62	272.26
469.98	271.59
470.35	270.91
470.72	270.30
471.08	269.69
471.45	269.14
471.82	268.60
472.18	267.96
472.55	267.52
472.92	267.01
473.28	266.48
473.65	265.98
474.02	265.52
474.38	265.16
474.75	264.79
475.11	264.43
475.48	264.16
475.85	263.94
476.21	263.70
476.58	263.48
476.94	263.32
477.31	263.11
477.67	262.96
478.04	262.83
478.41	262.76
478.77	262.72
479.14	262.65
479.50	262.65
479.87	262.71
480.23	262.78
480.60	262.88
480.96	262.97
481.33	263.23
481.69	263.42
482.06	263.61
482.42	263.81
482.79	264.05
483.15	264.35
483.52	264.71
483.88	265.09
484.25	265.50
484.61	265.92
484.98	266.41
485.34	266.96
485.71	267.57
486.07	268.17
486.44	268.78
486.80	269.47
487.17	270.20
487.53	271.03
487.90	271.85
488.26	272.76
488.62	273.77
488.99	274.69
489.35	275.75
489.72	276.85
490.08	278.05
490.44	279.28
490.81	280.60
491.17	281.96
491.54	283.42
491.90	284.95
492.26	286.61
492.63	288.30
492.99	290.05
493.36	291.94
493.72	294.01
494.08	296.11
494.45	298.36
494.81	300.72
495.17	303.15
495.54	305.72
495.90	308.40
496.26	311.21
496.63	314.19
496.99	317.30
497.35	320.57
497.72	324.00
498.08	327.55
498.44	331.24
498.80	335.17
499.17	339.24
499.53	343.41
499.89	347.83
500.26	352.35
500.62	357.06
500.98	362.02
501.34	367.08
501.71	372.39
502.07	377.84
502.43	383.48
502.79	389.33
503.16	395.46
503.52	401.76
503.88	408.17
504.24	414.80
504.60	421.67
504.97	428.80
505.33	436.14
505.69	443.84
506.05	451.61
506.41	459.51
506.78	467.65
507.14	476.11
507.50	484.81
507.86	493.88
508.22	503.06
508.59	512.25
508.95	521.83
509.31	531.67
509.67	541.77
510.03	552.10
510.39	562.62
510.75	573.37
511.12	584.28
511.48	595.56
511.84	607.00
512.20	618.54
512.56	630.56
512.92	642.67
513.28	655.03
513.64	667.54
514.00	680.19
514.37	693.19
514.73	706.26
515.09	719.35
515.45	732.62
515.81	746.23
516.17	760.24
516.53	774.43
516.89	788.62
517.25	802.87
517.61	817.32
517.97	831.87
518.33	846.36
518.69	861.17
519.05	876.23
519.41	891.50
519.77	907.11
520.13	922.50
520.49	937.95
520.85	953.49
521.21	969.25
521.57	985.60
521.93	1001.35
522.29	1017.73
522.65	1033.96
523.01	1050.24
523.37	1066.31
523.73	1082.61
524.09	1098.76
524.45	1115.12
524.81	1131.70
525.17	1148.54
525.53	1165.48
525.89	1182.36
526.25	1199.24
526.61	1215.64
526.97	1232.47
527.33	1249.01
527.68	1265.82
528.04	1282.34
528.40	1298.97
528.76	1315.97
529.12	1332.63
529.48	1349.56
529.84	1365.75
530.20	1382.50
530.56	1399.60
530.91	1417.06
531.27	1433.83
531.63	1450.29
531.99	1467.03
532.35	1483.13
532.71	1499.01
533.07	1515.22
533.42	1531.23
533.78	1547.34
534.14	1563.78
534.50	1579.06
534.86	1594.96
535.21	1610.16
535.57	1626.22
535.93	1641.67
536.29	1656.63
536.65	1671.76
537.00	1686.62
537.36	1701.93
537.72	1716.46
538.08	1730.81
538.44	1744.71
538.79	1758.66
539.15	1772.50
539.51	1786.24
539.87	1800.72
540.22	1814.59
540.58	1828.54
540.94	1841.94
541.29	1854.98
541.65	1867.63
542.01	1880.92
542.37	1893.19
542.72	1905.57
543.08	1917.32
543.44	1929.75
543.79	1941.11
544.15	1952.19
544.51	1963.73
544.87	1974.87
545.22	1985.69
545.58	1996.06
545.94	2005.86
546.29	2015.69
546.65	2025.53
547.01	2034.89
547.36	2043.60
547.72	2052.03
548.07	2059.80
548.43	2068.09
548.79	2076.13
549.14	2083.60
549.50	2091.13
549.86	2099.04
550.21	2106.29
550.57	2113.55
550.92	2120.30
551.28	2127.15
551.64	2134.15
551.99	2140.74
552.35	2146.74
552.70	2153.02
553.06	2158.91
553.41	2165.27
553.77	2171.44
554.13	2177.46
554.48	2183.42
554.84	2188.73
555.19	2194.14
555.55	2199.28
555.90	2203.65
556.26	2208.45
556.61	2213.32
556.97	2217.37
557.32	2221.42
557.68	2225.68
558.03	2229.99
558.39	2233.79
558.74	2238.57
559.10	2242.39
559.45	2246.07
559.81	2250.48
560.16	2254.22
560.52	2257.56
560.87	2261.12
561.23	2263.64
561.58	2266.73
561.94	2269.26
562.29	2271.82
562.64	2274.46
563.00	2277.22
563.35	2280.66
563.71	2283.80
564.06	2286.94
564.42	2289.97
564.77	2292.45
565.12	2294.68
565.48	2296.35
565.83	2298.00
566.19	2299.28
566.54	2300.31
566.89	2301.41
567.25	2301.87
567.60	2303.21
567.96	2304.78
568.31	2305.59
568.66	2306.65
569.02	2307.05
569.37	2307.41
569.72	2308.22
570.08	2308.31
570.43	2308.21
570.78	2307.58
571.14	2305.99
571.49	2304.81
571.84	2304.27
572.20	2302.96
572.55	2301.96
572.90	2300.51
573.26	2299.07
573.61	2297.28
573.96	2295.33
574.31	2292.22
574.67	2289.12
575.02	2285.41
575.37	2281.88
575.72	2277.79
576.08	2274.52
576.43	2271.11
576.78	2267.21
577.13	2263.87
577.49	2260.78
577.84	2257.16
578.19	2253.42
578.54	2249.66
578.90	2245.12
579.25	2239.55
579.60	2234.70
579.95	2229.52
580.30	2224.43
580.66	2219.16
581.01	2214.01
581.36	2208.99
581.71	2204.69
582.06	2200.16
582.42	2195.62
582.77	2190.46
583.12	2185.81
583.47	2180.97
583.82	2175.82
584.17	2170.64
584.53	2165.02
584.88	2159.28
585.23	2153.44
585.58	2147.80
585.93	2142.30
586.28	2137.53
586.63	2132.34
586.98	2127.15
587.34	2122.38
587.69	2117.41
588.04	2112.11
588.39	2106.58
588.74	2100.12
589.09	2094.06
589.44	2087.15
589.79	2081.02
590.14	2075.22
590.49	2068.50
590.84	2062.03
591.19	2056.01
591.54	2049.50
591.89	2042.08
592.25	2035.17
592.60	2027.93
592.95	2020.29
593.30	2012.88
593.65	2005.09
594.00	1998.07
594.35	1990.72
594.70	1982.64
595.05	1975.38
595.40	1967.95
595.75	1960.24
596.10	1953.74
596.45	1946.96
596.80	1940.74
597.15	1933.95
597.50	1926.73
597.85	1920.43
598.19	1913.76
598.54	1906.69
598.89	1899.96
599.24	1894.03
599.59	1887.18
599.94	1880.91
600.29	1874.68
600.64	1868.10
600.99	1860.65
601.34	1853.64
601.69	1846.63
602.04	1839.68
602.39	1832.33
602.74	1825.51
603.08	1818.78
603.43	1812.08
603.78	1804.77
604.13	1797.62
604.48	1790.34
604.83	1783.62
605.18	1776.53
605.53	1768.44
605.87	1760.29
606.22	1753.08
606.57	1745.14
606.92	1737.78
607.27	1730.50
607.62	1723.52
607.96	1716.09
608.31	1709.48
608.66	1701.79
609.01	1694.13
609.36	1686.42
609.70	1678.34
610.05	1670.19
610.40	1662.49
610.75	1654.24
611.10	1646.49
611.44	1638.09
611.79	1630.06
612.14	1621.31
612.49	1612.26
612.83	1603.92
613.18	1595.74
613.53	1587.68
613.88	1579.10
614.22	1570.89
614.57	1562.37
614.92	1554.24
615.27	1546.73
615.61	1538.35
615.96	1530.48
616.31	1522.95
616.65	1515.59
617.00	1508.08
617.35	1500.47
617.70	1491.99
618.04	1483.34
618.39	1474.97
618.74	1467.28
619.08	1459.09
619.43	1451.53
619.78	1444.58
620.12	1437.38
620.47	1429.93
620.82	1421.68
621.16	1414.34
621.51	1406.82
621.85	1399.26
622.20	1390.73
622.55	1382.33
622.89	1374.59
623.24	1366.96
623.59	1359.48
623.93	1352.06
624.28	1344.67
624.62	1337.08
624.97	1330.07
625.32	1323.47
625.66	1316.51
626.01	1309.32
626.35	1301.80
626.70	1294.05
627.04	1286.15
627.39	1278.33
627.73	1270.88
628.08	1263.89
628.43	1256.50
628.77	1249.11
629.12	1241.37
629.46	1234.23
629.81	1226.88
630.15	1219.68
630.50	1212.27
630.84	1204.08
631.19	1196.13
631.53	1188.67
631.88	1181.21
632.22	1173.61
632.57	1166.26
632.91	1158.76
633.26	1151.39
633.60	1144.17
633.95	1137.11
634.29	1130.21
634.64	1123.54
634.98	1116.23
635.32	1109.20
635.67	1102.70
636.01	1095.98
636.36	1089.28
636.70	1082.80
637.05	1076.23
637.39	1069.76
637.73	1063.20
638.08	1057.41
638.42	1051.41
638.77	1045.02
639.11	1038.52
639.45	1032.08
639.80	1025.44
640.14	1018.95
640.49	1012.40
640.83	1006.01
641.17	999.78
641.52	993.47
641.86	987.10
642.20	981.27
642.55	974.98
642.89	968.34
643.23	961.86
643.58	956.17
643.92	949.94
644.26	943.82
644.61	937.77
644.95	931.75
645.29	925.06
645.64	918.33
645.98	912.03
646.32	906.17
646.66	900.21
647.01	894.41
647.35	888.86
647.69	883.09
648.04	877.62
648.38	871.79
648.72	865.74
649.06	859.62
649.41	853.75
649.75	847.64
650.09	841.77
650.43	835.88
650.78	829.70
651.12	823.72
651.46	817.99
651.80	812.13
652.14	806.72
652.49	801.47
652.83	796.33
653.17	790.53
653.51	784.65
653.85	779.25
654.20	773.65
654.54	767.59
654.88	761.81
655.22	755.85
655.56	750.14
655.90	744.69
656.25	739.43
656.59	734.02
656.93	728.98
657.27	723.75
657.61	718.41
657.95	713.28
658.29	708.28
658.64	703.01
658.98	697.85
659.32	692.43
659.66	687.25
660.00	681.92
660.34	677.16
660.68	672.33
661.02	667.26
661.36	662.51
661.70	658.01
662.05	653.65
662.39	649.34
662.73	644.97
663.07	640.65
663.41	636.28
663.75	631.76
664.09	627.23
664.43	622.95
664.77	618.84
665.11	614.57
665.45	610.38
665.79	606.34
666.13	602.17
666.47	598.07
666.81	593.85
667.15	589.70
667.49	585.76
667.83	582.01
668.17	578.10
668.51	573.99
668.85	569.96
669.19	566.16
669.53	562.26
669.87	558.34
670.21	554.60
670.55	550.88
670.89	547.47
671.23	544.06
671.57	540.56
671.91	537.04
672.25	533.55
672.58	530.07
672.92	526.75
673.26	523.63
673.60	520.53
673.94	517.46
674.28	514.59
674.62	511.67
674.96	508.54
675.30	505.62
675.64	502.73
675.97	500.03
676.31	497.11
676.65	494.23
676.99	491.50
677.33	488.66
677.67	485.90
678.01	482.91
678.34	479.93
678.68	477.11
679.02	474.25
679.36	471.57
679.70	468.85
680.04	466.03
680.37	463.13
680.71	460.35
681.05	457.72
681.39	455.00
681.73	452.29
682.06	449.76
682.40	447.23
682.74	444.72
683.08	442.15
683.42	439.65
683.75	437.21
684.09	434.68
684.43	432.23
684.77	429.79
685.10	427.48
685.44	425.23
685.78	422.93
686.12	420.69
686.45	418.39
686.79	416.08
687.13	413.93
687.46	411.76
687.80	409.61
688.14	407.44
688.48	405.44
688.81	403.22
689.15	401.07
689.49	398.94
689.82	396.90
690.16	394.82
690.50	392.87
690.83	390.84
691.17	388.88
691.51	386.96
691.84	385.11
692.18	383.16
692.52	381.16
692.85	379.21
693.19	377.34
693.52	375.51
693.86	373.73
694.20	371.93
694.53	370.14
694.87	368.27
695.21	366.49
695.54	364.64
695.88	362.94
696.21	361.21
696.55	359.52
696.88	357.81
697.22	356.14
697.56	354.44
697.89	352.81
698.23	351.19
698.56	349.59
698.90	347.96
699.23	346.29
699.57	344.70
699.90	343.14
700.24	341.57
700.58	339.99
700.91	338.48
701.25	337.04
701.58	335.64
701.92	334.31
702.25	332.90
702.59	331.48
702.92	330.14
703.26	328.84
703.59	327.60
703.93	326.42
704.26	325.17
704.60	323.92
704.93	322.68
705.26	321.47
705.60	320.29
705.93	319.15
706.27	318.14
706.60	317.06
706.94	316.00
707.27	314.91
707.61	313.87
707.94	312.86
708.27	311.80
708.61	310.75
708.94	309.77
709.28	308.73
709.61	307.79
709.94	306.88
710.28	305.83
710.61	304.82
710.95	303.75
711.28	302.87
711.61	301.91
711.95	300.99
712.28	300.03
712.61	299.09
712.95	298.15
713.28	297.26
713.61	296.41
713.95	295.51
714.28	294.68
714.61	293.83
714.95	293.01
715.28	292.12
715.61	291.29
715.95	290.43
716.28	289.65
716.61	288.86
716.95	288.02
717.28	287.34
717.61	286.56
717.94	285.84
718.28	285.01
718.61	284.30
718.94	283.59
719.27	282.92
719.61	282.24
719.94	281.60
720.27	280.91
720.60	280.22
720.94	279.58
721.27	278.97
721.60	278.41
721.93	277.78
722.27	277.28
722.60	276.68
722.93	276.09
723.26	275.47
723.59	274.87
723.93	274.32
724.26	273.76
724.59	273.22
724.92	272.69
725.25	272.23
725.59	271.73
725.92	271.24
726.25	270.75
726.58	270.28
726.91	269.77
727.24	269.31
727.57	268.85
727.91	268.37
728.24	267.90
728.57	267.39
728.90	266.94
729.23	266.43
729.56	266.03
729.89	265.58
730.22	265.16
730.55	264.73
730.89	264.29
731.22	263.85
731.55	263.38
731.88	262.94
732.21	262.49
732.54	262.04
732.87	261.60
733.20	261.21
733.53	260.82
733.86	260.46
734.19	260.02
734.52	259.64
734.85	259.33
735.18	258.90
735.51	258.52
735.84	258.14
736.17	257.78
736.50	257.38
736.83	257.14
737.16	256.84
737.49	256.53
737.82	256.16
738.15	255.83
738.48	255.51
738.81	255.20
739.14	254.86
739.47	254.52
739.80	254.18
740.13	253.85
740.46	253.48
740.79	253.14
741.12	252.84
741.45	252.52
741.78	252.15
742.11	251.90
742.44	251.57
742.77	251.27
743.10	250.96
743.43	250.65
743.75	250.27
744.08	250.07
744.41	249.76
744.74	249.49
745.07	249.22
745.40	248.95
745.73	248.72
746.06	248.46
746.39	248.21
746.71	247.98
747.04	247.70
747.37	247.49
747.70	247.28
748.03	247.06
748.36	246.86
748.68	246.64
749.01	246.36
749.34	246.15
749.67	245.91
750.00	245.69
750.33	245.54
750.65	245.33
750.98	245.02
751.31	244.82
751.64	244.64
751.97	244.51
752.29	244.34
752.62	244.08
752.95	243.88
753.28	243.67
753.60	243.48
753.93	243.32
754.26	243.12
754.59	242.87
754.91	242.64
755.24	242.42
755.57	242.23
755.90	242.07
756.22	241.91
756.55	241.75
756.88	241.59
757.20	241.37
757.53	241.14
757.86	240.97
758.19	240.78
758.51	240.64
758.84	240.40
759.17	240.21
759.49	240.09
759.82	239.99
760.15	239.85
760.47	239.70
760.80	239.54
761.13	239.41
761.45	239.29
761.78	239.16
762.11	239.05
762.43	238.89
762.76	238.72
763.08	238.58
763.41	238.43
763.74	238.29
764.06	238.11
764.39	238.03
764.71	237.86
765.04	237.75
765.37	237.61
765.69	237.46
766.02	237.32
766.34	237.16
766.67	236.98
767.00	236.87
767.32	236.80
767.65	236.73
767.97	236.61
768.30	236.48
768.62	236.36
768.95	236.25
769.27	236.16
769.60	236.06
769.92	235.96
770.25	235.85
770.57	235.71
770.90	235.65
771.22	235.55
771.55	235.46
771.87	235.34
772.20	235.22
772.52	235.24
772.85	235.28
773.17	235.18
773.50	235.09
773.82	234.97
774.15	234.79
774.47	234.65
774.80	234.56
775.12	234.49
775.45	234.40
775.77	234.28
776.09	234.19
776.42	234.14
776.74	234.05
777.07	233.94
777.39	233.88
777.72	233.78
778.04	233.68
778.36	233.64
778.69	233.58
779.01	233.49
779.33	233.32
779.66	233.16
779.98	233.11
780.31	232.99
780.63	232.98
780.95	232.93
781.28	232.88
781.60	232.80
781.92	232.71
782.25	232.68
782.57	232.63
782.89	232.56
783.22	232.47
783.54	232.42
783.86	232.40
784.19	232.34
784.51	232.32
784.83	232.29
785.16	232.20
785.48	232.15
785.80	232.13
786.12	232.09
786.45	232.00
786.77	231.92
787.09	231.91
