SpectraSuite Data File
++++++++++++++++++++++++++++++++++++
Date: Fri Feb 01 16:42:47 EST 2013
User: group
Dark Spectrum Present: No
Reference Spectrum Present: No
Number of Sampled Component Spectra: 1
Spectrometers: USB2E7196
Integration Time (usec): 35000 (USB2E7196)
Spectra Averaged: 100 (USB2E7196)
Boxcar Smoothing: 10 (USB2E7196)
Correct for Electrical Dark: No (USB2E7196)
Strobe/Lamp Enabled: No (USB2E7196)
Correct for Detector Non-linearity: No (USB2E7196)
Correct for Stray Light: No (USB2E7196)
Number of Pixels in Processed Spectrum: 2048
>>>>>Begin Processed Spectral Data<<<<<
339.09	0.00
339.48	213.87
339.86	214.26
340.24	216.55
340.63	218.04
341.01	219.98
341.39	220.61
341.78	221.80
342.16	223.02
342.54	223.53
342.93	211.97
343.31	222.66
343.69	223.21
344.07	223.69
344.46	224.10
344.84	224.45
345.22	224.71
345.60	224.97
345.99	225.16
346.37	225.28
346.75	225.35
347.13	225.39
347.52	225.49
347.90	225.53
348.28	225.49
348.66	225.56
349.05	225.54
349.43	225.57
349.81	225.57
350.19	225.60
350.57	225.67
350.96	225.75
351.34	225.85
351.72	225.92
352.10	226.05
352.48	226.10
352.87	226.19
353.25	226.26
353.63	226.31
354.01	226.34
354.39	226.43
354.77	226.54
355.15	226.63
355.54	226.71
355.92	226.75
356.30	226.89
356.68	227.00
357.06	227.11
357.44	227.16
357.82	227.27
358.20	227.38
358.58	227.46
358.97	227.54
359.35	227.62
359.73	227.69
360.11	227.75
360.49	227.82
360.87	227.85
361.25	227.90
361.63	227.98
362.01	228.08
362.39	228.16
362.77	228.21
363.15	228.23
363.53	228.25
363.91	228.33
364.29	228.32
364.67	228.25
365.05	228.28
365.43	228.31
365.81	228.31
366.19	228.35
366.57	228.36
366.95	228.33
367.33	228.31
367.71	228.31
368.09	228.31
368.47	228.30
368.85	228.29
369.23	228.30
369.61	228.22
369.99	228.21
370.37	228.15
370.75	228.15
371.13	228.12
371.51	228.07
371.89	228.00
372.27	228.01
372.65	227.99
373.03	227.95
373.41	227.89
373.78	227.86
374.16	227.74
374.54	227.68
374.92	227.58
375.30	227.53
375.68	227.40
376.06	227.33
376.44	227.26
376.82	227.22
377.19	227.14
377.57	227.11
377.95	227.03
378.33	226.95
378.71	226.82
379.09	226.75
379.47	226.71
379.84	226.64
380.22	226.56
380.60	226.46
380.98	226.38
381.36	226.33
381.73	226.22
382.11	226.20
382.49	226.14
382.87	226.09
383.25	226.01
383.62	226.09
384.00	226.04
384.38	225.98
384.76	225.92
385.13	225.91
385.51	225.84
385.89	225.74
386.27	225.71
386.64	225.70
387.02	225.64
387.40	225.62
387.78	225.57
388.15	225.51
388.53	225.49
388.91	225.46
389.29	225.41
389.66	225.42
390.04	225.38
390.42	225.34
390.79	225.34
391.17	225.37
391.55	225.27
391.92	225.26
392.30	225.28
392.68	225.28
393.05	225.24
393.43	225.25
393.81	225.29
394.18	225.29
394.56	225.29
394.94	225.34
395.31	225.35
395.69	225.39
396.06	225.44
396.44	225.46
396.82	225.47
397.19	225.58
397.57	225.58
397.95	225.66
398.32	225.70
398.70	225.78
399.07	225.85
399.45	225.89
399.82	225.93
400.20	225.97
400.58	226.02
400.95	226.10
401.33	226.18
401.70	226.32
402.08	226.38
402.45	226.51
402.83	226.64
403.20	226.72
403.58	226.80
403.95	226.93
404.33	227.05
404.71	227.18
405.08	227.33
405.46	227.48
405.83	227.58
406.21	227.73
406.58	227.85
406.96	227.98
407.33	228.15
407.70	228.34
408.08	228.61
408.45	228.82
408.83	229.04
409.20	229.24
409.58	229.39
409.95	229.65
410.33	229.88
410.70	230.09
411.08	230.40
411.45	230.68
411.82	230.96
412.20	231.28
412.57	231.67
412.95	231.94
413.32	232.35
413.69	232.74
414.07	233.17
414.44	233.61
414.82	234.06
415.19	234.59
415.56	235.13
415.94	235.67
416.31	236.33
416.68	236.91
417.06	237.62
417.43	238.30
417.81	239.04
418.18	239.81
418.55	240.63
418.93	241.52
419.30	242.42
419.67	243.37
420.04	244.37
420.42	245.35
420.79	246.50
421.16	247.63
421.54	248.84
421.91	250.02
422.28	251.27
422.66	252.60
423.03	253.88
423.40	255.18
423.77	256.57
424.15	257.96
424.52	259.45
424.89	261.03
425.26	262.55
425.64	264.02
426.01	265.61
426.38	267.23
426.75	268.83
427.13	270.51
427.50	272.26
427.87	274.07
428.24	275.88
428.61	277.65
428.99	279.55
429.36	281.63
429.73	283.69
430.10	285.67
430.47	287.69
430.85	289.81
431.22	292.05
431.59	294.38
431.96	296.61
432.33	299.08
432.70	301.44
433.08	304.28
433.45	306.87
433.82	309.45
434.19	312.33
434.56	315.09
434.93	317.74
435.30	320.34
435.68	323.20
436.05	326.02
436.42	328.78
436.79	331.28
437.16	333.96
437.53	336.74
437.90	339.55
438.27	342.26
438.64	345.03
439.01	347.61
439.38	349.80
439.75	351.95
440.13	354.42
440.50	356.74
440.87	358.55
441.24	360.48
441.61	362.57
441.98	364.07
442.35	365.92
442.72	367.77
443.09	369.61
443.46	370.60
443.83	371.20
444.20	371.72
444.57	372.58
444.94	372.88
445.31	373.23
445.68	373.59
446.05	373.71
446.42	373.35
446.79	372.92
447.16	372.52
447.53	372.19
447.90	371.06
448.27	369.97
448.64	368.42
449.01	367.30
449.37	365.40
449.74	363.53
450.11	361.32
450.48	358.90
450.85	356.40
451.22	354.33
451.59	352.39
451.96	350.47
452.33	347.89
452.70	345.54
453.07	342.77
453.43	339.91
453.80	337.19
454.17	334.57
454.54	332.10
454.91	329.44
455.28	326.81
455.65	324.35
456.02	321.89
456.38	319.75
456.75	317.15
457.12	314.93
457.49	312.73
457.86	310.55
458.23	308.70
458.59	306.66
458.96	304.58
459.33	302.73
459.70	300.90
460.07	299.41
460.43	297.73
460.80	296.12
461.17	294.72
461.54	293.21
461.91	291.81
462.27	290.35
462.64	289.09
463.01	287.73
463.38	286.45
463.74	285.14
464.11	283.99
464.48	282.95
464.85	281.84
465.21	280.99
465.58	280.07
465.95	278.98
466.32	278.08
466.68	277.23
467.05	276.31
467.42	275.40
467.78	274.47
468.15	273.60
468.52	272.94
468.88	272.11
469.25	271.35
469.62	270.74
469.98	270.09
470.35	269.46
470.72	268.91
471.08	268.28
471.45	267.76
471.82	267.23
472.18	266.65
472.55	266.22
472.92	265.69
473.28	265.25
473.65	264.83
474.02	264.41
474.38	264.05
474.75	263.75
475.11	263.44
475.48	263.19
475.85	262.99
476.21	262.78
476.58	262.58
476.94	262.45
477.31	262.28
477.67	262.11
478.04	262.03
478.41	261.97
478.77	262.00
479.14	261.88
479.50	261.87
479.87	261.92
480.23	262.02
480.60	262.15
480.96	262.24
481.33	262.40
481.69	262.60
482.06	262.75
482.42	262.98
482.79	263.20
483.15	263.54
483.52	263.91
483.88	264.23
484.25	264.61
484.61	265.01
484.98	265.44
485.34	266.05
485.71	266.65
486.07	267.26
486.44	267.79
486.80	268.55
487.17	269.29
487.53	270.17
487.90	270.96
488.26	271.86
488.62	272.85
488.99	273.86
489.35	274.89
489.72	276.05
490.08	277.24
490.44	278.49
490.81	279.82
491.17	281.17
491.54	282.67
491.90	284.21
492.26	285.87
492.63	287.64
492.99	289.37
493.36	291.26
493.72	293.26
494.08	295.42
494.45	297.63
494.81	299.97
495.17	302.35
495.54	305.00
495.90	307.67
496.26	310.50
496.63	313.45
496.99	316.58
497.35	319.85
497.72	323.23
498.08	326.79
498.44	330.43
498.80	334.33
499.17	338.41
499.53	342.57
499.89	346.96
500.26	351.48
500.62	356.16
500.98	361.11
501.34	366.22
501.71	371.52
502.07	376.97
502.43	382.59
502.79	388.43
503.16	394.47
503.52	400.74
503.88	407.13
504.24	413.72
504.60	420.53
504.97	427.63
505.33	434.97
505.69	442.64
506.05	450.48
506.41	458.41
506.78	466.56
507.14	475.01
507.50	483.73
507.86	492.68
508.22	501.87
508.59	511.07
508.95	520.62
509.31	530.42
509.67	540.50
510.03	550.82
510.39	561.33
510.75	572.10
511.12	583.05
511.48	594.29
511.84	605.78
512.20	617.24
512.56	629.14
512.92	641.21
513.28	653.47
513.64	665.82
514.00	678.46
514.37	691.29
514.73	704.29
515.09	717.22
515.45	730.52
515.81	744.02
516.17	757.90
516.53	771.97
516.89	786.06
517.25	800.18
517.61	814.50
517.97	828.85
518.33	843.24
518.69	857.89
519.05	872.80
519.41	887.83
519.77	903.38
520.13	918.70
520.49	934.09
520.85	949.35
521.21	964.91
521.57	980.98
521.93	996.59
522.29	1012.80
522.65	1029.00
523.01	1045.06
523.37	1060.97
523.73	1076.97
524.09	1092.83
524.45	1108.92
524.81	1125.42
525.17	1142.09
525.53	1158.81
525.89	1175.44
526.25	1192.03
526.61	1208.28
526.97	1224.93
527.33	1241.21
527.68	1257.73
528.04	1273.99
528.40	1290.48
528.76	1307.43
529.12	1323.83
529.48	1340.68
529.84	1356.59
530.20	1373.01
530.56	1389.63
530.91	1406.89
531.27	1423.45
531.63	1439.79
531.99	1456.27
532.35	1472.10
532.71	1487.78
533.07	1503.90
533.42	1519.73
533.78	1535.88
534.14	1551.97
534.50	1567.17
534.86	1582.75
535.21	1597.75
535.57	1613.51
535.93	1628.79
536.29	1643.40
536.65	1658.41
537.00	1672.85
537.36	1687.92
537.72	1702.11
538.08	1716.42
538.44	1729.88
538.79	1743.61
539.15	1756.91
539.51	1770.34
539.87	1784.42
540.22	1797.74
540.58	1811.15
540.94	1824.12
541.29	1836.31
541.65	1848.73
542.01	1861.73
542.37	1873.95
542.72	1886.15
543.08	1897.67
543.44	1909.84
543.79	1920.96
544.15	1931.69
544.51	1943.14
544.87	1953.96
545.22	1964.75
545.58	1974.98
545.94	1984.72
546.29	1994.56
546.65	2004.53
547.01	2013.90
547.36	2022.55
547.72	2031.20
548.07	2039.29
548.43	2047.42
548.79	2055.51
549.14	2063.25
549.50	2070.32
549.86	2077.82
550.21	2085.14
550.57	2092.27
550.92	2098.88
551.28	2105.96
551.64	2113.09
551.99	2119.67
552.35	2125.85
552.70	2131.97
553.06	2137.85
553.41	2144.21
553.77	2150.08
554.13	2156.01
554.48	2161.91
554.84	2167.54
555.19	2172.65
555.55	2177.76
555.90	2182.38
556.26	2187.40
556.61	2191.93
556.97	2196.46
557.32	2200.75
557.68	2204.88
558.03	2209.26
558.39	2212.88
558.74	2217.36
559.10	2221.16
559.45	2224.66
559.81	2228.84
560.16	2232.69
560.52	2236.01
560.87	2239.37
561.23	2242.16
561.58	2245.03
561.94	2247.79
562.29	2249.82
562.64	2252.85
563.00	2255.31
563.35	2258.75
563.71	2261.87
564.06	2265.02
564.42	2267.97
564.77	2270.53
565.12	2272.95
565.48	2274.87
565.83	2276.99
566.19	2278.39
566.54	2279.32
566.89	2280.60
567.25	2281.40
567.60	2282.77
567.96	2284.46
568.31	2285.36
568.66	2286.55
569.02	2287.37
569.37	2287.56
569.72	2288.74
570.08	2288.81
570.43	2289.07
570.78	2288.67
571.14	2287.12
571.49	2285.85
571.84	2285.37
572.20	2284.36
572.55	2283.29
572.90	2281.63
573.26	2280.36
573.61	2278.57
573.96	2276.91
574.31	2274.06
574.67	2271.09
575.02	2267.58
575.37	2264.34
575.72	2260.74
576.08	2257.24
576.43	2253.73
576.78	2250.32
577.13	2247.07
577.49	2243.86
577.84	2240.52
578.19	2236.63
578.54	2233.33
578.90	2229.41
579.25	2224.03
579.60	2219.31
579.95	2214.40
580.30	2209.56
580.66	2204.34
581.01	2199.43
581.36	2194.55
581.71	2190.58
582.06	2186.24
582.42	2181.85
582.77	2176.72
583.12	2172.20
583.47	2167.82
583.82	2163.27
584.17	2158.12
584.53	2152.77
584.88	2147.33
585.23	2141.61
585.58	2136.20
585.93	2130.56
586.28	2125.58
586.63	2120.70
586.98	2115.53
587.34	2110.81
587.69	2105.98
588.04	2100.95
588.39	2095.49
588.74	2089.17
589.09	2082.88
589.44	2076.14
589.79	2070.04
590.14	2064.39
590.49	2057.90
590.84	2051.34
591.19	2045.15
591.54	2038.69
591.89	2031.65
592.25	2025.11
592.60	2017.93
592.95	2010.51
593.30	2003.50
593.65	1995.96
594.00	1988.89
594.35	1981.70
594.70	1973.78
595.05	1966.84
595.40	1959.63
595.75	1952.18
596.10	1946.07
596.45	1939.69
596.80	1933.74
597.15	1927.46
597.50	1920.61
597.85	1914.13
598.19	1907.80
598.54	1901.09
598.89	1894.53
599.24	1888.50
599.59	1881.93
599.94	1875.71
600.29	1869.48
600.64	1862.81
600.99	1855.60
601.34	1848.89
601.69	1841.98
602.04	1835.28
602.39	1827.86
602.74	1821.03
603.08	1814.59
603.43	1807.89
603.78	1800.54
604.13	1793.31
604.48	1786.00
604.83	1779.17
605.18	1772.48
605.53	1764.52
605.87	1756.36
606.22	1749.08
606.57	1741.16
606.92	1733.69
607.27	1726.62
607.62	1719.82
607.96	1712.71
608.31	1706.40
608.66	1698.92
609.01	1691.41
609.36	1683.95
609.70	1676.06
610.05	1668.26
610.40	1660.46
610.75	1652.24
611.10	1644.55
611.44	1636.21
611.79	1628.16
612.14	1619.58
612.49	1610.44
612.83	1602.10
613.18	1594.02
613.53	1586.03
613.88	1577.56
614.22	1569.40
614.57	1560.72
614.92	1552.71
615.27	1545.30
615.61	1536.89
615.96	1528.77
616.31	1521.23
616.65	1513.82
617.00	1506.28
617.35	1498.45
617.70	1490.29
618.04	1481.86
618.39	1473.66
618.74	1466.16
619.08	1457.98
619.43	1450.41
619.78	1443.46
620.12	1436.32
620.47	1428.92
620.82	1420.82
621.16	1413.32
621.51	1405.61
621.85	1398.06
622.20	1389.65
622.55	1381.20
622.89	1373.33
623.24	1365.75
623.59	1358.25
623.93	1350.70
624.28	1343.45
624.62	1336.00
624.97	1328.78
625.32	1321.93
625.66	1314.86
626.01	1307.63
626.35	1300.31
626.70	1292.44
627.04	1284.86
627.39	1277.04
627.73	1269.60
628.08	1262.68
628.43	1255.63
628.77	1248.39
629.12	1240.94
629.46	1233.78
629.81	1226.26
630.15	1218.94
630.50	1211.64
630.84	1203.54
631.19	1195.58
631.53	1188.10
631.88	1180.54
632.22	1172.98
632.57	1165.67
632.91	1158.22
633.26	1150.93
633.60	1143.45
633.95	1136.27
634.29	1129.04
634.64	1122.45
634.98	1115.13
635.32	1108.07
635.67	1101.33
636.01	1094.73
636.36	1087.94
636.70	1081.39
637.05	1074.89
637.39	1068.53
637.73	1061.99
638.08	1056.13
638.42	1050.13
638.77	1043.72
639.11	1037.16
639.45	1030.86
639.80	1024.24
640.14	1017.87
640.49	1011.31
640.83	1005.04
641.17	999.06
641.52	992.92
641.86	986.40
642.20	980.59
642.55	974.12
642.89	967.73
643.23	961.12
643.58	955.35
643.92	949.16
644.26	943.27
644.61	937.25
644.95	931.32
645.29	924.77
645.64	918.13
645.98	911.76
646.32	905.82
646.66	899.71
647.01	893.90
647.35	888.20
647.69	882.32
648.04	876.73
648.38	870.86
648.72	864.87
649.06	858.88
649.41	852.95
649.75	847.09
650.09	841.08
650.43	835.36
650.78	829.33
651.12	823.41
651.46	817.61
651.80	811.90
652.14	806.45
652.49	801.13
652.83	795.94
653.17	790.40
653.51	784.80
653.85	779.41
654.20	773.83
654.54	767.88
654.88	762.10
655.22	756.22
655.56	750.52
655.90	745.02
656.25	739.76
656.59	734.50
656.93	729.44
657.27	724.36
657.61	718.83
657.95	713.66
658.29	708.62
658.64	703.32
658.98	697.94
659.32	692.45
659.66	687.27
660.00	682.06
660.34	677.06
660.68	672.11
661.02	667.01
661.36	662.35
661.70	657.84
662.05	653.55
662.39	649.29
662.73	644.83
663.07	640.44
663.41	636.04
663.75	631.50
664.09	626.91
664.43	622.53
664.77	618.52
665.11	614.25
665.45	610.12
665.79	606.15
666.13	602.10
666.47	597.99
666.81	593.81
667.15	589.63
667.49	585.64
667.83	581.80
668.17	577.93
668.51	573.86
668.85	569.79
669.19	565.88
669.53	562.01
669.87	558.16
670.21	554.47
670.55	550.79
670.89	547.41
671.23	544.05
671.57	540.53
671.91	537.03
672.25	533.43
672.58	529.86
672.92	526.35
673.26	523.09
673.60	519.95
673.94	516.86
674.28	513.96
674.62	511.12
674.96	508.05
675.30	505.10
675.64	502.23
675.97	499.41
676.31	496.60
676.65	493.65
676.99	490.92
677.33	488.06
677.67	485.22
678.01	482.13
678.34	479.15
678.68	476.23
679.02	473.37
679.36	470.74
679.70	467.99
680.04	465.24
680.37	462.42
680.71	459.62
681.05	456.99
681.39	454.22
681.73	451.49
682.06	448.91
682.40	446.39
682.74	443.75
683.08	441.21
683.42	438.53
683.75	436.02
684.09	433.42
684.43	430.96
684.77	428.51
685.10	426.17
685.44	423.83
685.78	421.54
686.12	419.31
686.45	416.96
686.79	414.69
687.13	412.48
687.46	410.34
687.80	408.15
688.14	405.94
688.48	403.90
688.81	401.68
689.15	399.52
689.49	397.38
689.82	395.35
690.16	393.29
690.50	391.37
690.83	389.50
691.17	387.51
691.51	385.61
691.84	383.81
692.18	381.92
692.52	379.99
692.85	378.03
693.19	376.13
693.52	374.29
693.86	372.50
694.20	370.74
694.53	368.95
694.87	367.12
695.21	365.31
695.54	363.53
695.88	361.79
696.21	360.09
696.55	358.36
696.88	356.66
697.22	354.96
697.56	353.29
697.89	351.63
698.23	350.05
698.56	348.42
698.90	346.81
699.23	345.15
699.57	343.61
699.90	342.06
700.24	340.51
700.58	339.01
700.91	337.53
701.25	336.07
701.58	334.73
701.92	333.36
702.25	331.95
702.59	330.54
702.92	329.23
703.26	327.94
703.59	326.68
703.93	325.52
704.26	324.30
704.60	323.02
704.93	321.74
705.26	320.50
705.60	319.27
705.93	318.11
706.27	317.12
706.60	316.01
706.94	314.97
707.27	313.85
707.61	312.74
707.94	311.67
708.27	310.60
708.61	309.46
708.94	308.44
709.28	307.47
709.61	306.52
709.94	305.56
710.28	304.52
710.61	303.56
710.95	302.49
711.28	301.57
711.61	300.65
711.95	299.75
712.28	298.86
712.61	297.91
712.95	296.99
713.28	296.06
713.61	295.19
713.95	294.29
714.28	293.47
714.61	292.69
714.95	291.85
715.28	291.00
715.61	290.16
715.95	289.30
716.28	288.46
716.61	287.62
716.95	286.75
717.28	285.98
717.61	285.21
717.94	284.46
718.28	283.69
718.61	282.97
718.94	282.27
719.27	281.58
719.61	280.93
719.94	280.28
720.27	279.56
720.60	278.89
720.94	278.24
721.27	277.63
721.60	277.00
721.93	276.44
722.27	275.91
722.60	275.30
722.93	274.78
723.26	274.23
723.59	273.69
723.93	273.21
724.26	272.69
724.59	272.12
724.92	271.57
725.25	271.08
725.59	270.58
725.92	270.07
726.25	269.57
726.58	269.12
726.91	268.61
727.24	268.11
727.57	267.65
727.91	267.14
728.24	266.68
728.57	266.21
728.90	265.74
729.23	265.21
729.56	264.85
729.89	264.34
730.22	263.84
730.55	263.37
730.89	262.90
731.22	262.47
731.55	262.02
731.88	261.62
732.21	261.17
732.54	260.67
732.87	260.24
733.20	259.83
733.53	259.41
733.86	259.05
734.19	258.68
734.52	258.32
734.85	258.01
735.18	257.61
735.51	257.22
735.84	256.85
736.17	256.53
736.50	256.09
736.83	255.84
737.16	255.53
737.49	255.24
737.82	254.90
738.15	254.56
738.48	254.23
738.81	253.91
739.14	253.58
739.47	253.24
739.80	252.98
740.13	252.65
740.46	252.30
740.79	251.95
741.12	251.62
741.45	251.27
741.78	250.96
742.11	250.68
742.44	250.33
742.77	250.01
743.10	249.67
743.43	249.39
743.75	249.05
744.08	248.89
744.41	248.57
744.74	248.30
745.07	248.03
745.40	247.79
745.73	247.50
746.06	247.24
746.39	247.02
746.71	246.71
747.04	246.46
747.37	246.23
747.70	245.99
748.03	245.74
748.36	245.54
748.68	245.24
749.01	244.97
749.34	244.75
749.67	244.51
750.00	244.28
750.33	244.12
750.65	243.88
750.98	243.51
751.31	243.28
751.64	243.07
751.97	242.87
752.29	242.63
752.62	242.38
752.95	242.14
753.28	241.94
753.60	241.73
753.93	241.53
754.26	241.28
754.59	241.04
754.91	240.81
755.24	240.59
755.57	240.40
755.90	240.20
756.22	240.03
756.55	239.83
756.88	239.67
757.20	239.40
757.53	239.19
757.86	239.07
758.19	238.89
758.51	238.71
758.84	238.50
759.17	238.35
759.49	238.21
759.82	238.08
760.15	237.95
760.47	237.81
760.80	237.63
761.13	237.51
761.45	237.37
761.78	237.24
762.11	237.12
762.43	237.00
762.76	236.86
763.08	236.70
763.41	236.59
763.74	236.45
764.06	236.36
764.39	236.26
764.71	236.08
765.04	235.95
765.37	235.83
765.69	235.73
766.02	235.59
766.34	235.49
766.67	235.33
767.00	235.22
767.32	235.12
767.65	235.11
767.97	235.01
768.30	234.91
768.62	234.81
768.95	234.67
769.27	234.58
769.60	234.53
769.92	234.45
770.25	234.33
770.57	234.22
770.90	234.11
771.22	234.02
771.55	233.97
771.87	233.91
772.20	233.81
772.52	233.79
772.85	233.82
773.17	233.74
773.50	233.68
773.82	233.60
774.15	233.50
774.47	233.35
774.80	233.24
775.12	233.18
775.45	233.12
775.77	233.07
776.09	232.98
776.42	232.90
776.74	232.83
777.07	232.73
777.39	232.66
777.72	232.58
778.04	232.50
778.36	232.39
778.69	232.33
779.01	232.29
779.33	232.16
779.66	231.99
779.98	231.89
780.31	231.81
780.63	231.78
780.95	231.76
781.28	231.69
781.60	231.64
781.92	231.60
782.25	231.56
782.57	231.49
782.89	231.42
783.22	231.36
783.54	231.31
783.86	231.25
784.19	231.21
784.51	231.17
784.83	231.07
785.16	231.01
785.48	230.93
785.80	230.87
786.12	230.79
786.45	230.77
786.77	230.73
787.09	230.66
