SpectraSuite Data File
++++++++++++++++++++++++++++++++++++
Date: Fri Feb 01 15:49:07 EST 2013
User: group
Dark Spectrum Present: No
Reference Spectrum Present: No
Number of Sampled Component Spectra: 1
Spectrometers: USB2E7196
Integration Time (usec): 35000 (USB2E7196)
Spectra Averaged: 100 (USB2E7196)
Boxcar Smoothing: 10 (USB2E7196)
Correct for Electrical Dark: No (USB2E7196)
Strobe/Lamp Enabled: No (USB2E7196)
Correct for Detector Non-linearity: No (USB2E7196)
Correct for Stray Light: No (USB2E7196)
Number of Pixels in Processed Spectrum: 2048
>>>>>Begin Processed Spectral Data<<<<<
339.09	0.00
339.48	214.74
339.86	216.05
340.24	217.84
340.63	219.25
341.01	222.01
341.39	222.10
341.78	222.91
342.16	224.44
342.54	225.47
342.93	213.23
343.31	224.01
343.69	224.57
344.07	225.03
344.46	225.44
344.84	225.82
345.22	226.04
345.60	226.25
345.99	226.43
346.37	226.56
346.75	226.62
347.13	226.68
347.52	226.75
347.90	226.80
348.28	226.80
348.66	226.84
349.05	226.84
349.43	226.90
349.81	226.92
350.19	226.94
350.57	226.97
350.96	227.07
351.34	227.13
351.72	227.19
352.10	227.31
352.48	227.37
352.87	227.41
353.25	227.47
353.63	227.57
354.01	227.62
354.39	227.70
354.77	227.76
355.15	227.82
355.54	227.90
355.92	227.91
356.30	227.99
356.68	228.12
357.06	228.19
357.44	228.25
357.82	228.31
358.20	228.38
358.58	228.45
358.97	228.50
359.35	228.59
359.73	228.65
360.11	228.70
360.49	228.77
360.87	228.85
361.25	228.92
361.63	229.00
362.01	229.06
362.39	229.10
362.77	229.16
363.15	229.20
363.53	229.26
363.91	229.35
364.29	229.42
364.67	229.31
365.05	229.33
365.43	229.33
365.81	229.36
366.19	229.42
366.57	229.45
366.95	229.44
367.33	229.41
367.71	229.43
368.09	229.44
368.47	229.46
368.85	229.41
369.23	229.41
369.61	229.34
369.99	229.33
370.37	229.30
370.75	229.32
371.13	229.31
371.51	229.25
371.89	229.17
372.27	229.11
372.65	229.11
373.03	229.11
373.41	229.06
373.78	229.01
374.16	228.91
374.54	228.85
374.92	228.82
375.30	228.77
375.68	228.63
376.06	228.55
376.44	228.45
376.82	228.40
377.19	228.33
377.57	228.29
377.95	228.18
378.33	228.09
378.71	227.97
379.09	227.87
379.47	227.82
379.84	227.76
380.22	227.67
380.60	227.58
380.98	227.46
381.36	227.41
381.73	227.33
382.11	227.27
382.49	227.22
382.87	227.10
383.25	227.02
383.62	227.12
384.00	227.07
384.38	227.00
384.76	226.97
385.13	226.95
385.51	226.86
385.89	226.80
386.27	226.77
386.64	226.73
387.02	226.70
387.40	226.63
387.78	226.59
388.15	226.55
388.53	226.49
388.91	226.46
389.29	226.42
389.66	226.41
390.04	226.38
390.42	226.38
390.79	226.40
391.17	226.40
391.55	226.27
391.92	226.25
392.30	226.26
392.68	226.23
393.05	226.23
393.43	226.23
393.81	226.27
394.18	226.25
394.56	226.27
394.94	226.29
395.31	226.27
395.69	226.36
396.06	226.39
396.44	226.48
396.82	226.47
397.19	226.54
397.57	226.57
397.95	226.62
398.32	226.59
398.70	226.64
399.07	226.73
399.45	226.78
399.82	226.84
400.20	226.88
400.58	226.95
400.95	226.99
401.33	227.11
401.70	227.21
402.08	227.33
402.45	227.41
402.83	227.53
403.20	227.71
403.58	227.80
403.95	227.94
404.33	228.07
404.71	228.21
405.08	228.43
405.46	228.55
405.83	228.71
406.21	228.91
406.58	229.09
406.96	229.26
407.33	229.44
407.70	229.64
408.08	229.94
408.45	230.15
408.83	230.39
409.20	230.59
409.58	230.81
409.95	231.09
410.33	231.39
410.70	231.65
411.08	231.92
411.45	232.21
411.82	232.52
412.20	232.85
412.57	233.27
412.95	233.55
413.32	233.98
413.69	234.39
414.07	234.77
414.44	235.22
414.82	235.69
415.19	236.23
415.56	236.77
415.94	237.28
416.31	237.94
416.68	238.54
417.06	239.24
417.43	239.91
417.81	240.65
418.18	241.41
418.55	242.26
418.93	243.14
419.30	244.02
419.67	244.98
420.04	245.98
420.42	246.96
420.79	248.13
421.16	249.30
421.54	250.50
421.91	251.76
422.28	253.04
422.66	254.35
423.03	255.68
423.40	257.03
423.77	258.46
424.15	259.90
424.52	261.42
424.89	263.02
425.26	264.57
425.64	266.04
426.01	267.61
426.38	269.25
426.75	270.90
427.13	272.62
427.50	274.39
427.87	276.20
428.24	278.07
428.61	279.80
428.99	281.76
429.36	283.82
429.73	285.84
430.10	287.84
430.47	289.89
430.85	292.01
431.22	294.25
431.59	296.65
431.96	298.87
432.33	301.36
432.70	303.72
433.08	306.54
433.45	309.16
433.82	311.76
434.19	314.67
434.56	317.48
434.93	320.13
435.30	322.76
435.68	325.67
436.05	328.47
436.42	331.28
436.79	333.78
437.16	336.49
437.53	339.33
437.90	342.10
438.27	344.83
438.64	347.65
439.01	350.21
439.38	352.42
439.75	354.60
440.13	357.05
440.50	359.42
440.87	361.24
441.24	363.20
441.61	365.36
441.98	366.85
442.35	368.61
442.72	370.47
443.09	372.26
443.46	373.22
443.83	373.82
444.20	374.30
444.57	375.08
444.94	375.39
445.31	375.74
445.68	376.12
446.05	376.17
446.42	375.82
446.79	375.43
447.16	374.97
447.53	374.61
447.90	373.44
448.27	372.25
448.64	370.67
449.01	369.51
449.37	367.52
449.74	365.60
450.11	363.38
450.48	360.90
450.85	358.35
451.22	356.24
451.59	354.25
451.96	352.37
452.33	349.79
452.70	347.43
453.07	344.64
453.43	341.75
453.80	339.00
454.17	336.28
454.54	333.70
454.91	331.00
455.28	328.36
455.65	325.86
456.02	323.41
456.38	321.28
456.75	318.66
457.12	316.41
457.49	314.17
457.86	311.99
458.23	310.16
458.59	308.12
458.96	306.02
459.33	304.14
459.70	302.26
460.07	300.78
460.43	299.04
460.80	297.42
461.17	295.95
461.54	294.48
461.91	293.05
462.27	291.62
462.64	290.36
463.01	289.00
463.38	287.73
463.74	286.40
464.11	285.23
464.48	284.17
464.85	283.10
465.21	282.22
465.58	281.33
465.95	280.23
466.32	279.35
466.68	278.48
467.05	277.61
467.42	276.70
467.78	275.77
468.15	274.90
468.52	274.20
468.88	273.37
469.25	272.59
469.62	271.98
469.98	271.30
470.35	270.64
470.72	270.09
471.08	269.45
471.45	268.88
471.82	268.32
472.18	267.74
472.55	267.29
472.92	266.80
473.28	266.35
473.65	265.93
474.02	265.47
474.38	265.09
474.75	264.77
475.11	264.43
475.48	264.18
475.85	263.93
476.21	263.71
476.58	263.54
476.94	263.37
477.31	263.19
477.67	263.05
478.04	262.97
478.41	262.88
478.77	262.93
479.14	262.90
479.50	262.93
479.87	263.01
480.23	263.09
480.60	263.18
480.96	263.28
481.33	263.47
481.69	263.67
482.06	263.86
482.42	264.04
482.79	264.30
483.15	264.56
483.52	264.96
483.88	265.35
484.25	265.73
484.61	266.18
484.98	266.64
485.34	267.17
485.71	267.79
486.07	268.37
486.44	268.93
486.80	269.66
487.17	270.38
487.53	271.18
487.90	272.00
488.26	272.94
488.62	273.93
488.99	274.88
489.35	275.93
489.72	277.10
490.08	278.31
490.44	279.51
490.81	280.85
491.17	282.22
491.54	283.66
491.90	285.21
492.26	286.90
492.63	288.61
492.99	290.45
493.36	292.33
493.72	294.36
494.08	296.45
494.45	298.63
494.81	300.99
495.17	303.44
495.54	306.05
495.90	308.73
496.26	311.53
496.63	314.50
496.99	317.63
497.35	320.85
497.72	324.27
498.08	327.83
498.44	331.51
498.80	335.39
499.17	339.46
499.53	343.63
499.89	347.98
500.26	352.49
500.62	357.17
500.98	362.11
501.34	367.21
501.71	372.52
502.07	377.94
502.43	383.55
502.79	389.40
503.16	395.43
503.52	401.72
503.88	408.14
504.24	414.82
504.60	421.68
504.97	428.80
505.33	436.12
505.69	443.82
506.05	451.65
506.41	459.52
506.78	467.69
507.14	476.12
507.50	484.84
507.86	493.93
508.22	503.05
508.59	512.31
508.95	521.92
509.31	531.84
509.67	542.07
510.03	552.39
510.39	562.94
510.75	573.85
511.12	584.77
511.48	596.04
511.84	607.52
512.20	619.01
512.56	630.93
512.92	643.06
513.28	655.47
513.64	668.04
514.00	680.82
514.37	693.70
514.73	706.74
515.09	719.81
515.45	733.07
515.81	746.71
516.17	760.65
516.53	774.71
516.89	788.87
517.25	802.99
517.61	817.41
517.97	831.88
518.33	846.26
518.69	860.90
519.05	875.87
519.41	890.96
519.77	906.55
520.13	922.04
520.49	937.46
520.85	952.86
521.21	968.52
521.57	984.72
521.93	1000.51
522.29	1016.89
522.65	1033.07
523.01	1049.28
523.37	1065.35
523.73	1081.52
524.09	1097.66
524.45	1113.93
524.81	1130.49
525.17	1147.22
525.53	1164.18
525.89	1181.09
526.25	1197.99
526.61	1214.32
526.97	1231.11
527.33	1247.56
527.68	1264.12
528.04	1280.67
528.40	1297.17
528.76	1314.17
529.12	1330.79
529.48	1347.59
529.84	1363.71
530.20	1380.33
530.56	1397.37
530.91	1414.72
531.27	1431.57
531.63	1448.00
531.99	1464.54
532.35	1480.51
532.71	1496.49
533.07	1512.68
533.42	1528.66
533.78	1544.71
534.14	1561.10
534.50	1576.46
534.86	1592.38
535.21	1607.57
535.57	1623.44
535.93	1639.00
536.29	1653.77
536.65	1668.79
537.00	1683.55
537.36	1698.80
537.72	1713.50
538.08	1727.99
538.44	1741.70
538.79	1755.51
539.15	1769.26
539.51	1782.99
539.87	1797.32
540.22	1811.04
540.58	1824.82
540.94	1838.06
541.29	1851.09
541.65	1863.70
542.01	1876.89
542.37	1889.18
542.72	1901.62
543.08	1913.37
543.44	1925.63
543.79	1936.83
544.15	1947.86
544.51	1959.41
544.87	1970.39
545.22	1980.98
545.58	1991.11
545.94	2000.97
546.29	2010.85
546.65	2020.60
547.01	2029.90
547.36	2038.60
547.72	2047.04
548.07	2054.71
548.43	2062.87
548.79	2070.75
549.14	2078.26
549.50	2085.53
549.86	2093.17
550.21	2100.49
550.57	2107.62
550.92	2114.23
551.28	2121.23
551.64	2128.09
551.99	2134.74
552.35	2140.86
552.70	2147.05
553.06	2153.01
553.41	2159.46
553.77	2165.48
554.13	2171.67
554.48	2177.82
554.84	2183.27
555.19	2188.47
555.55	2193.75
555.90	2198.22
556.26	2203.07
556.61	2207.81
556.97	2212.18
557.32	2216.33
557.68	2220.44
558.03	2224.79
558.39	2228.53
558.74	2233.31
559.10	2237.27
559.45	2240.94
559.81	2245.19
560.16	2249.04
560.52	2252.22
560.87	2255.64
561.23	2258.32
561.58	2261.28
561.94	2263.80
562.29	2266.31
562.64	2269.13
563.00	2271.78
563.35	2275.30
563.71	2278.37
564.06	2281.57
564.42	2284.29
564.77	2286.71
565.12	2289.06
565.48	2290.95
565.83	2292.82
566.19	2293.96
566.54	2294.88
566.89	2295.96
567.25	2296.56
567.60	2297.84
567.96	2299.45
568.31	2300.29
568.66	2301.33
569.02	2301.83
569.37	2302.03
569.72	2302.76
570.08	2302.87
570.43	2302.83
570.78	2302.15
571.14	2300.73
571.49	2299.50
571.84	2299.17
572.20	2298.01
572.55	2296.96
572.90	2295.35
573.26	2294.04
573.61	2292.43
573.96	2290.71
574.31	2287.68
574.67	2284.67
575.02	2281.12
575.37	2277.89
575.72	2273.89
576.08	2270.46
576.43	2267.17
576.78	2263.45
577.13	2260.27
577.49	2257.10
577.84	2253.58
578.19	2249.85
578.54	2246.25
578.90	2241.88
579.25	2236.30
579.60	2231.33
579.95	2226.26
580.30	2221.23
580.66	2215.85
581.01	2210.91
581.36	2205.89
581.71	2201.69
582.06	2197.33
582.42	2192.69
582.77	2187.47
583.12	2182.89
583.47	2178.19
583.82	2173.11
584.17	2167.95
584.53	2162.54
584.88	2157.01
585.23	2151.26
585.58	2145.75
585.93	2140.27
586.28	2135.58
586.63	2130.60
586.98	2125.64
587.34	2120.84
587.69	2116.00
588.04	2110.83
588.39	2105.15
588.74	2098.76
589.09	2092.56
589.44	2085.72
589.79	2079.78
590.14	2073.97
590.49	2067.36
590.84	2061.04
591.19	2054.95
591.54	2048.46
591.89	2040.87
592.25	2033.98
592.60	2026.68
592.95	2019.13
593.30	2011.63
593.65	2003.88
594.00	1996.73
594.35	1989.47
594.70	1981.51
595.05	1974.22
595.40	1966.96
595.75	1959.48
596.10	1953.18
596.45	1946.57
596.80	1940.26
597.15	1933.64
597.50	1926.66
597.85	1920.35
598.19	1913.68
598.54	1906.61
598.89	1899.99
599.24	1894.21
599.59	1887.47
599.94	1881.36
600.29	1875.12
600.64	1868.67
600.99	1861.28
601.34	1854.48
601.69	1847.54
602.04	1840.67
602.39	1833.43
602.74	1826.55
603.08	1819.66
603.43	1812.89
603.78	1805.58
604.13	1798.32
604.48	1790.89
604.83	1784.01
605.18	1776.88
605.53	1768.86
605.87	1760.82
606.22	1753.60
606.57	1745.68
606.92	1738.37
607.27	1731.05
607.62	1724.11
607.96	1716.78
608.31	1710.13
608.66	1702.57
609.01	1694.90
609.36	1687.25
609.70	1679.15
610.05	1671.17
610.40	1663.52
610.75	1655.32
611.10	1647.48
611.44	1639.24
611.79	1631.34
612.14	1622.62
612.49	1613.66
612.83	1605.20
613.18	1597.11
613.53	1589.03
613.88	1580.62
614.22	1572.38
614.57	1563.82
614.92	1555.63
615.27	1548.09
615.61	1539.90
615.96	1531.91
616.31	1524.34
616.65	1516.91
617.00	1509.26
617.35	1501.63
617.70	1493.37
618.04	1484.82
618.39	1476.69
618.74	1469.13
619.08	1460.91
619.43	1453.31
619.78	1446.35
620.12	1439.17
620.47	1431.58
620.82	1423.34
621.16	1415.77
621.51	1408.24
621.85	1400.67
622.20	1392.18
622.55	1383.73
622.89	1375.79
623.24	1368.08
623.59	1360.71
623.93	1353.29
624.28	1346.18
624.62	1338.50
624.97	1331.23
625.32	1324.51
625.66	1317.52
626.01	1310.27
626.35	1302.77
626.70	1295.01
627.04	1287.17
627.39	1279.40
627.73	1272.11
628.08	1265.28
628.43	1257.99
628.77	1250.44
629.12	1242.87
629.46	1235.73
629.81	1228.31
630.15	1221.09
630.50	1213.63
630.84	1205.47
631.19	1197.57
631.53	1190.00
631.88	1182.47
632.22	1174.94
632.57	1167.56
632.91	1160.03
633.26	1152.50
633.60	1145.19
633.95	1138.16
634.29	1131.13
634.64	1124.51
634.98	1117.11
635.32	1109.92
635.67	1103.35
636.01	1096.80
636.36	1089.98
636.70	1083.45
637.05	1076.93
637.39	1070.47
637.73	1064.06
638.08	1058.15
638.42	1052.15
638.77	1045.66
639.11	1038.99
639.45	1032.63
639.80	1025.95
640.14	1019.51
640.49	1013.05
640.83	1006.67
641.17	1000.34
641.52	993.98
641.86	987.54
642.20	981.60
642.55	975.30
642.89	968.76
643.23	962.23
643.58	956.47
643.92	950.29
644.26	944.15
644.61	938.08
644.95	932.01
645.29	925.42
645.64	918.70
645.98	912.36
646.32	906.66
646.66	900.61
647.01	894.90
647.35	889.22
647.69	883.40
648.04	877.95
648.38	872.21
648.72	866.24
649.06	860.14
649.41	854.28
649.75	848.32
650.09	842.41
650.43	836.50
650.78	830.33
651.12	824.38
651.46	818.73
651.80	812.89
652.14	807.49
652.49	802.12
652.83	796.87
653.17	791.28
653.51	785.43
653.85	780.06
654.20	774.38
654.54	768.29
654.88	762.58
655.22	756.62
655.56	750.92
655.90	745.46
656.25	740.25
656.59	734.93
656.93	729.84
657.27	724.65
657.61	719.32
657.95	714.26
658.29	709.14
658.64	703.82
658.98	698.66
659.32	693.25
659.66	688.07
660.00	682.80
660.34	677.86
660.68	673.06
661.02	667.96
661.36	663.23
661.70	658.78
662.05	654.39
662.39	650.01
662.73	645.60
663.07	641.25
663.41	636.80
663.75	632.26
664.09	627.67
664.43	623.29
664.77	619.15
665.11	614.94
665.45	610.90
665.79	606.88
666.13	602.70
666.47	598.64
666.81	594.38
667.15	590.25
667.49	586.28
667.83	582.49
668.17	578.55
668.51	574.48
668.85	570.48
669.19	566.63
669.53	562.75
669.87	558.86
670.21	555.16
670.55	551.50
670.89	548.10
671.23	544.67
671.57	541.17
671.91	537.60
672.25	534.01
672.58	530.43
672.92	526.97
673.26	523.80
673.60	520.56
673.94	517.50
674.28	514.61
674.62	511.63
674.96	508.45
675.30	505.55
675.64	502.63
675.97	499.85
676.31	497.00
676.65	494.16
676.99	491.39
677.33	488.51
677.67	485.69
678.01	482.65
678.34	479.66
678.68	476.80
679.02	473.98
679.36	471.24
679.70	468.56
680.04	465.81
680.37	462.92
680.71	460.17
681.05	457.56
681.39	454.77
681.73	452.17
682.06	449.64
682.40	447.11
682.74	444.58
683.08	442.05
683.42	439.45
683.75	436.89
684.09	434.37
684.43	431.90
684.77	429.43
685.10	427.08
685.44	424.81
685.78	422.51
686.12	420.31
686.45	418.00
686.79	415.71
687.13	413.54
687.46	411.39
687.80	409.22
688.14	407.01
688.48	404.97
688.81	402.68
689.15	400.54
689.49	398.41
689.82	396.30
690.16	394.21
690.50	392.23
690.83	390.34
691.17	388.41
691.51	386.48
691.84	384.66
692.18	382.76
692.52	380.78
692.85	378.87
693.19	376.96
693.52	375.15
693.86	373.34
694.20	371.53
694.53	369.79
694.87	367.95
695.21	366.15
695.54	364.35
695.88	362.68
696.21	361.00
696.55	359.30
696.88	357.63
697.22	355.98
697.56	354.40
697.89	352.71
698.23	351.06
698.56	349.52
698.90	347.91
699.23	346.30
699.57	344.73
699.90	343.16
700.24	341.63
700.58	340.05
700.91	338.53
701.25	337.11
701.58	335.70
701.92	334.37
702.25	332.99
702.59	331.63
702.92	330.29
703.26	328.99
703.59	327.71
703.93	326.55
704.26	325.30
704.60	324.02
704.93	322.79
705.26	321.53
705.60	320.34
705.93	319.16
706.27	318.06
706.60	317.01
706.94	315.97
707.27	314.84
707.61	313.85
707.94	312.89
708.27	311.78
708.61	310.74
708.94	309.69
709.28	308.73
709.61	307.76
709.94	306.84
710.28	305.82
710.61	304.82
710.95	303.72
711.28	302.82
711.61	301.86
711.95	300.94
712.28	300.02
712.61	299.04
712.95	298.12
713.28	297.25
713.61	296.35
713.95	295.43
714.28	294.61
714.61	293.75
714.95	292.83
715.28	292.00
715.61	291.10
715.95	290.23
716.28	289.35
716.61	288.54
716.95	287.71
717.28	286.98
717.61	286.24
717.94	285.52
718.28	284.70
718.61	283.93
718.94	283.22
719.27	282.55
719.61	281.90
719.94	281.26
720.27	280.54
720.60	279.90
720.94	279.28
721.27	278.70
721.60	278.15
721.93	277.59
722.27	277.02
722.60	276.48
722.93	275.87
723.26	275.36
723.59	274.77
723.93	274.24
724.26	273.68
724.59	273.11
724.92	272.59
725.25	272.04
725.59	271.54
725.92	271.03
726.25	270.53
726.58	270.04
726.91	269.53
727.24	269.07
727.57	268.61
727.91	268.08
728.24	267.59
728.57	267.03
728.90	266.54
729.23	266.07
729.56	265.66
729.89	265.24
730.22	264.77
730.55	264.33
730.89	263.88
731.22	263.42
731.55	262.97
731.88	262.55
732.21	262.17
732.54	261.74
732.87	261.32
733.20	260.91
733.53	260.53
733.86	260.17
734.19	259.79
734.52	259.40
734.85	259.12
735.18	258.74
735.51	258.39
735.84	258.07
736.17	257.71
736.50	257.29
736.83	257.08
737.16	256.74
737.49	256.43
737.82	256.10
738.15	255.80
738.48	255.47
738.81	255.13
739.14	254.81
739.47	254.54
739.80	254.23
740.13	253.94
740.46	253.62
740.79	253.29
741.12	252.97
741.45	252.68
741.78	252.32
742.11	252.02
742.44	251.70
742.77	251.40
743.10	251.12
743.43	250.86
743.75	250.45
744.08	250.29
744.41	250.01
744.74	249.70
745.07	249.38
745.40	249.15
745.73	248.92
746.06	248.66
746.39	248.39
746.71	248.13
747.04	247.83
747.37	247.58
747.70	247.36
748.03	247.13
748.36	246.88
748.68	246.65
749.01	246.41
749.34	246.18
749.67	245.95
750.00	245.73
750.33	245.59
750.65	245.41
750.98	245.06
751.31	244.85
751.64	244.65
751.97	244.52
752.29	244.29
752.62	244.06
752.95	243.83
753.28	243.63
753.60	243.41
753.93	243.26
754.26	243.06
754.59	242.82
754.91	242.57
755.24	242.35
755.57	242.16
755.90	241.94
756.22	241.78
756.55	241.55
756.88	241.32
757.20	241.06
757.53	240.81
757.86	240.64
758.19	240.49
758.51	240.33
758.84	240.10
759.17	239.92
759.49	239.75
759.82	239.60
760.15	239.44
760.47	239.28
760.80	239.10
761.13	238.94
761.45	238.78
761.78	238.68
762.11	238.50
762.43	238.35
762.76	238.23
763.08	238.06
763.41	237.94
763.74	237.83
764.06	237.68
764.39	237.56
764.71	237.44
765.04	237.25
765.37	237.11
765.69	236.96
766.02	236.82
766.34	236.69
766.67	236.56
767.00	236.44
767.32	236.37
767.65	236.32
767.97	236.17
768.30	236.08
768.62	235.94
768.95	235.86
769.27	235.72
769.60	235.64
769.92	235.53
770.25	235.41
770.57	235.30
770.90	235.23
771.22	235.14
771.55	235.04
771.87	234.95
772.20	234.80
772.52	234.82
772.85	234.89
773.17	234.77
773.50	234.68
773.82	234.59
774.15	234.44
774.47	234.26
774.80	234.18
775.12	234.09
775.45	234.01
775.77	233.93
776.09	233.84
776.42	233.75
776.74	233.72
777.07	233.65
777.39	233.56
777.72	233.45
778.04	233.38
778.36	233.27
778.69	233.23
779.01	233.21
779.33	233.06
779.66	232.86
779.98	232.81
780.31	232.77
780.63	232.72
780.95	232.68
781.28	232.65
781.60	232.59
781.92	232.52
782.25	232.46
782.57	232.41
782.89	232.36
783.22	232.30
783.54	232.21
783.86	232.14
784.19	232.09
784.51	232.06
784.83	231.99
785.16	231.96
785.48	231.91
785.80	231.88
786.12	231.82
786.45	231.79
786.77	231.77
787.09	231.74
