SpectraSuite Data File
++++++++++++++++++++++++++++++++++++
Date: Fri Feb 01 15:17:36 EST 2013
User: group
Dark Spectrum Present: No
Reference Spectrum Present: No
Number of Sampled Component Spectra: 1
Spectrometers: USB2E7196
Integration Time (usec): 35000 (USB2E7196)
Spectra Averaged: 100 (USB2E7196)
Boxcar Smoothing: 10 (USB2E7196)
Correct for Electrical Dark: No (USB2E7196)
Strobe/Lamp Enabled: No (USB2E7196)
Correct for Detector Non-linearity: No (USB2E7196)
Correct for Stray Light: No (USB2E7196)
Number of Pixels in Processed Spectrum: 2048
>>>>>Begin Processed Spectral Data<<<<<
339.09	0.00
339.48	214.71
339.86	216.08
340.24	217.85
340.63	219.25
341.01	221.85
341.39	221.94
341.78	222.93
342.16	224.37
342.54	225.12
342.93	213.28
343.31	224.07
343.69	224.65
344.07	225.13
344.46	225.57
344.84	225.95
345.22	226.21
345.60	226.45
345.99	226.65
346.37	226.79
346.75	226.89
347.13	226.92
347.52	226.97
347.90	227.03
348.28	227.07
348.66	227.10
349.05	227.08
349.43	227.12
349.81	227.18
350.19	227.21
350.57	227.25
350.96	227.33
351.34	227.39
351.72	227.45
352.10	227.56
352.48	227.61
352.87	227.67
353.25	227.76
353.63	227.83
354.01	227.90
354.39	227.99
354.77	228.05
355.15	228.20
355.54	228.26
355.92	228.30
356.30	228.39
356.68	228.53
357.06	228.63
357.44	228.71
357.82	228.79
358.20	228.87
358.58	228.92
358.97	229.02
359.35	229.11
359.73	229.19
360.11	229.25
360.49	229.27
360.87	229.30
361.25	229.35
361.63	229.41
362.01	229.44
362.39	229.43
362.77	229.46
363.15	229.49
363.53	229.53
363.91	229.55
364.29	229.57
364.67	229.48
365.05	229.48
365.43	229.47
365.81	229.45
366.19	229.50
366.57	229.54
366.95	229.51
367.33	229.47
367.71	229.44
368.09	229.42
368.47	229.42
368.85	229.39
369.23	229.37
369.61	229.32
369.99	229.34
370.37	229.34
370.75	229.37
371.13	229.30
371.51	229.27
371.89	229.21
372.27	229.17
372.65	229.13
373.03	229.06
373.41	229.02
373.78	228.98
374.16	228.85
374.54	228.74
374.92	228.66
375.30	228.60
375.68	228.52
376.06	228.45
376.44	228.41
376.82	228.32
377.19	228.24
377.57	228.17
377.95	228.06
378.33	227.95
378.71	227.81
379.09	227.73
379.47	227.64
379.84	227.59
380.22	227.52
380.60	227.44
380.98	227.39
381.36	227.27
381.73	227.18
382.11	227.13
382.49	227.08
382.87	227.00
383.25	226.95
383.62	227.01
384.00	226.94
384.38	226.87
384.76	226.84
385.13	226.80
385.51	226.74
385.89	226.69
386.27	226.64
386.64	226.58
387.02	226.52
387.40	226.46
387.78	226.39
388.15	226.35
388.53	226.29
388.91	226.27
389.29	226.25
389.66	226.24
390.04	226.20
390.42	226.19
390.79	226.19
391.17	226.19
391.55	226.06
391.92	226.04
392.30	226.05
392.68	226.01
393.05	226.00
393.43	226.01
393.81	226.00
394.18	226.02
394.56	226.08
394.94	226.16
395.31	226.18
395.69	226.25
396.06	226.32
396.44	226.39
396.82	226.40
397.19	226.51
397.57	226.54
397.95	226.63
398.32	226.66
398.70	226.72
399.07	226.75
399.45	226.81
399.82	226.90
400.20	226.96
400.58	227.06
400.95	227.12
401.33	227.24
401.70	227.40
402.08	227.53
402.45	227.61
402.83	227.70
403.20	227.84
403.58	227.95
403.95	228.06
404.33	228.18
404.71	228.30
405.08	228.49
405.46	228.65
405.83	228.79
406.21	228.95
406.58	229.11
406.96	229.30
407.33	229.51
407.70	229.72
408.08	230.01
408.45	230.25
408.83	230.48
409.20	230.71
409.58	230.92
409.95	231.19
410.33	231.47
410.70	231.71
411.08	232.03
411.45	232.35
411.82	232.65
412.20	233.01
412.57	233.49
412.95	233.76
413.32	234.18
413.69	234.60
414.07	235.06
414.44	235.51
414.82	236.00
415.19	236.58
415.56	237.15
415.94	237.69
416.31	238.32
416.68	238.95
417.06	239.66
417.43	240.34
417.81	241.13
418.18	241.91
418.55	242.78
418.93	243.61
419.30	244.49
419.67	245.43
420.04	246.39
420.42	247.34
420.79	248.54
421.16	249.68
421.54	250.88
421.91	252.13
422.28	253.43
422.66	254.77
423.03	256.01
423.40	257.32
423.77	258.72
424.15	260.15
424.52	261.67
424.89	263.31
425.26	264.86
425.64	266.29
426.01	267.89
426.38	269.57
426.75	271.28
427.13	273.01
427.50	274.87
427.87	276.73
428.24	278.62
428.61	280.32
428.99	282.28
429.36	284.37
429.73	286.40
430.10	288.43
430.47	290.51
430.85	292.61
431.22	294.90
431.59	297.29
431.96	299.53
432.33	301.99
432.70	304.36
433.08	307.16
433.45	309.79
433.82	312.41
434.19	315.28
434.56	318.06
434.93	320.75
435.30	323.35
435.68	326.27
436.05	329.09
436.42	331.92
436.79	334.44
437.16	337.14
437.53	339.96
437.90	342.75
438.27	345.46
438.64	348.32
439.01	350.90
439.38	353.15
439.75	355.35
440.13	357.88
440.50	360.19
440.87	362.06
441.24	364.03
441.61	366.20
441.98	367.69
442.35	369.52
442.72	371.36
443.09	373.17
443.46	374.16
443.83	374.74
444.20	375.24
444.57	376.08
444.94	376.34
445.31	376.73
445.68	377.08
446.05	377.16
446.42	376.76
446.79	376.31
447.16	375.83
447.53	375.49
447.90	374.29
448.27	373.13
448.64	371.51
449.01	370.38
449.37	368.38
449.74	366.45
450.11	364.19
450.48	361.69
450.85	359.12
451.22	356.97
451.59	354.96
451.96	353.04
452.33	350.40
452.70	348.08
453.07	345.20
453.43	342.33
453.80	339.56
454.17	336.88
454.54	334.33
454.91	331.61
455.28	328.93
455.65	326.45
456.02	324.02
456.38	321.89
456.75	319.19
457.12	316.90
457.49	314.67
457.86	312.50
458.23	310.66
458.59	308.60
458.96	306.51
459.33	304.64
459.70	302.79
460.07	301.29
460.43	299.55
460.80	297.89
461.17	296.46
461.54	294.97
461.91	293.56
462.27	292.13
462.64	290.89
463.01	289.54
463.38	288.23
463.74	286.86
464.11	285.70
464.48	284.67
464.85	283.60
465.21	282.75
465.58	281.81
465.95	280.72
466.32	279.81
466.68	278.89
467.05	277.97
467.42	277.02
467.78	276.10
468.15	275.24
468.52	274.60
468.88	273.67
469.25	272.90
469.62	272.30
469.98	271.60
470.35	270.96
470.72	270.33
471.08	269.65
471.45	269.09
471.82	268.54
472.18	267.92
472.55	267.47
472.92	266.96
473.28	266.48
473.65	266.03
474.02	265.61
474.38	265.24
474.75	264.94
475.11	264.60
475.48	264.33
475.85	264.10
476.21	263.83
476.58	263.67
476.94	263.46
477.31	263.22
477.67	263.05
478.04	262.96
478.41	262.90
478.77	262.99
479.14	262.92
479.50	262.90
479.87	262.96
480.23	263.04
480.60	263.07
480.96	263.16
481.33	263.37
481.69	263.56
482.06	263.77
482.42	263.96
482.79	264.23
483.15	264.48
483.52	264.83
483.88	265.19
484.25	265.57
484.61	266.02
484.98	266.46
485.34	267.05
485.71	267.57
486.07	268.15
486.44	268.74
486.80	269.43
487.17	270.17
487.53	271.02
487.90	271.84
488.26	272.78
488.62	273.78
488.99	274.69
489.35	275.71
489.72	276.83
490.08	278.03
490.44	279.26
490.81	280.67
491.17	282.00
491.54	283.49
491.90	285.04
492.26	286.69
492.63	288.44
492.99	290.17
493.36	292.07
493.72	294.12
494.08	296.20
494.45	298.46
494.81	300.84
495.17	303.26
495.54	305.83
495.90	308.51
496.26	311.29
496.63	314.25
496.99	317.34
497.35	320.53
497.72	323.91
498.08	327.42
498.44	331.06
498.80	335.01
499.17	339.04
499.53	343.19
499.89	347.54
500.26	352.06
500.62	356.74
500.98	361.72
501.34	366.75
501.71	372.09
502.07	377.51
502.43	383.06
502.79	388.89
503.16	394.99
503.52	401.25
503.88	407.66
504.24	414.35
504.60	421.26
504.97	428.39
505.33	435.72
505.69	443.43
506.05	451.18
506.41	459.06
506.78	467.23
507.14	475.66
507.50	484.42
507.86	493.43
508.22	502.63
508.59	511.84
508.95	521.48
509.31	531.21
509.67	541.32
510.03	551.63
510.39	562.16
510.75	572.94
511.12	583.89
511.48	595.26
511.84	606.64
512.20	618.14
512.56	630.16
512.92	642.33
513.28	654.58
513.64	667.09
514.00	679.84
514.37	692.85
514.73	705.98
515.09	719.07
515.45	732.41
515.81	746.02
516.17	760.05
516.53	774.21
516.89	788.38
517.25	802.63
517.61	817.08
517.97	831.59
518.33	846.09
518.69	860.87
519.05	875.80
519.41	891.07
519.77	906.72
520.13	922.24
520.49	937.63
520.85	953.18
521.21	969.00
521.57	985.28
521.93	1001.05
522.29	1017.48
522.65	1033.72
523.01	1049.96
523.37	1066.08
523.73	1082.35
524.09	1098.45
524.45	1114.95
524.81	1131.59
525.17	1148.60
525.53	1165.54
525.89	1182.54
526.25	1199.41
526.61	1215.83
526.97	1232.64
527.33	1248.99
527.68	1265.61
528.04	1282.13
528.40	1298.84
528.76	1315.89
529.12	1332.53
529.48	1349.36
529.84	1365.36
530.20	1382.14
530.56	1399.18
530.91	1416.58
531.27	1433.39
531.63	1449.92
531.99	1466.59
532.35	1482.65
532.71	1498.49
533.07	1514.81
533.42	1530.58
533.78	1546.64
534.14	1563.01
534.50	1578.43
534.86	1594.51
535.21	1609.71
535.57	1625.74
535.93	1641.35
536.29	1656.16
536.65	1671.27
537.00	1686.24
537.36	1701.70
537.72	1716.25
538.08	1730.67
538.44	1744.52
538.79	1758.49
539.15	1772.32
539.51	1786.06
539.87	1800.43
540.22	1814.25
540.58	1828.12
540.94	1841.62
541.29	1854.77
541.65	1867.59
542.01	1880.86
542.37	1893.32
542.72	1905.81
543.08	1917.63
543.44	1930.05
543.79	1941.45
544.15	1952.44
544.51	1963.97
544.87	1974.98
545.22	1985.84
545.58	1996.22
545.94	2006.06
546.29	2015.85
546.65	2025.59
547.01	2034.79
547.36	2043.49
547.72	2051.93
548.07	2059.74
548.43	2067.92
548.79	2075.92
549.14	2083.48
549.50	2090.80
549.86	2098.48
550.21	2105.84
550.57	2113.10
550.92	2119.68
551.28	2126.76
551.64	2133.88
551.99	2140.54
552.35	2146.60
552.70	2152.74
553.06	2158.69
553.41	2165.09
553.77	2171.23
554.13	2177.35
554.48	2183.60
554.84	2189.09
555.19	2194.49
555.55	2199.65
555.90	2204.15
556.26	2209.05
556.61	2213.86
556.97	2218.11
557.32	2222.24
557.68	2226.41
558.03	2230.74
558.39	2234.48
558.74	2238.95
559.10	2242.87
559.45	2246.47
559.81	2250.91
560.16	2254.54
560.52	2257.77
560.87	2261.20
561.23	2263.78
561.58	2266.79
561.94	2269.19
562.29	2271.61
562.64	2274.25
563.00	2276.91
563.35	2280.35
563.71	2283.35
564.06	2286.37
564.42	2289.19
564.77	2291.72
565.12	2294.03
565.48	2295.69
565.83	2297.47
566.19	2298.82
566.54	2299.70
566.89	2300.93
567.25	2301.41
567.60	2302.89
567.96	2304.51
568.31	2305.25
568.66	2306.31
569.02	2306.84
569.37	2307.21
569.72	2307.88
570.08	2307.99
570.43	2307.83
570.78	2307.03
571.14	2305.44
571.49	2304.07
571.84	2303.62
572.20	2302.06
572.55	2300.80
572.90	2299.27
573.26	2297.80
573.61	2295.98
573.96	2294.03
574.31	2290.83
574.67	2287.67
575.02	2283.93
575.37	2280.46
575.72	2276.64
576.08	2273.26
576.43	2269.78
576.78	2265.90
577.13	2262.70
577.49	2259.48
577.84	2256.15
578.19	2252.42
578.54	2248.66
578.90	2244.24
579.25	2238.73
579.60	2233.72
579.95	2228.74
580.30	2223.70
580.66	2218.44
581.01	2213.48
581.36	2208.47
581.71	2204.07
582.06	2199.63
582.42	2195.01
582.77	2189.73
583.12	2184.93
583.47	2180.01
583.82	2174.91
584.17	2169.70
584.53	2164.11
584.88	2158.22
585.23	2152.10
585.58	2146.62
585.93	2141.11
586.28	2136.37
586.63	2131.09
586.98	2126.20
587.34	2121.41
587.69	2116.47
588.04	2111.23
588.39	2105.41
588.74	2098.79
589.09	2092.58
589.44	2085.78
589.79	2079.72
590.14	2073.88
590.49	2067.15
590.84	2060.80
591.19	2054.78
591.54	2048.21
591.89	2040.64
592.25	2033.88
592.60	2026.57
592.95	2018.92
593.30	2011.56
593.65	2003.95
594.00	1996.92
594.35	1989.54
594.70	1981.32
595.05	1973.90
595.40	1966.48
595.75	1958.95
596.10	1952.71
596.45	1945.87
596.80	1939.55
597.15	1932.88
597.50	1925.64
597.85	1919.28
598.19	1912.52
598.54	1905.11
598.89	1898.41
599.24	1892.60
599.59	1885.89
599.94	1879.80
600.29	1873.41
600.64	1866.78
600.99	1859.09
601.34	1852.12
601.69	1845.13
602.04	1838.16
602.39	1830.81
602.74	1823.90
603.08	1817.21
603.43	1810.39
603.78	1803.08
604.13	1795.81
604.48	1788.38
604.83	1781.61
605.18	1774.51
605.53	1766.42
605.87	1758.49
606.22	1751.25
606.57	1743.28
606.92	1735.92
607.27	1728.70
607.62	1721.64
607.96	1714.23
608.31	1707.73
608.66	1699.99
609.01	1692.37
609.36	1684.83
609.70	1676.86
610.05	1668.75
610.40	1660.96
610.75	1652.74
611.10	1645.11
611.44	1636.79
611.79	1628.91
612.14	1620.28
612.49	1611.22
612.83	1602.91
613.18	1594.88
613.53	1586.84
613.88	1578.25
614.22	1569.92
614.57	1561.24
614.92	1553.33
615.27	1545.76
615.61	1537.45
615.96	1529.58
616.31	1522.02
616.65	1514.72
617.00	1507.15
617.35	1499.52
617.70	1491.17
618.04	1482.54
618.39	1474.27
618.74	1466.60
619.08	1458.28
619.43	1450.76
619.78	1443.77
620.12	1436.54
620.47	1429.00
620.82	1420.78
621.16	1413.43
621.51	1405.85
621.85	1398.20
622.20	1389.65
622.55	1381.39
622.89	1373.49
623.24	1366.00
623.59	1358.61
623.93	1351.02
624.28	1343.74
624.62	1336.12
624.97	1328.95
625.32	1322.38
625.66	1315.42
626.01	1308.27
626.35	1300.74
626.70	1292.92
627.04	1285.23
627.39	1277.56
627.73	1270.17
628.08	1263.15
628.43	1255.77
628.77	1248.37
629.12	1240.90
629.46	1233.75
629.81	1226.28
630.15	1219.11
630.50	1211.62
630.84	1203.46
631.19	1195.61
631.53	1188.11
631.88	1180.67
632.22	1173.07
632.57	1165.67
632.91	1158.09
633.26	1150.74
633.60	1143.44
633.95	1136.41
634.29	1129.41
634.64	1122.77
634.98	1115.33
635.32	1108.26
635.67	1101.78
636.01	1095.11
636.36	1088.30
636.70	1081.85
637.05	1075.30
637.39	1068.81
637.73	1062.37
638.08	1056.48
638.42	1050.45
638.77	1044.06
639.11	1037.37
639.45	1031.09
639.80	1024.53
640.14	1018.12
640.49	1011.48
640.83	1005.22
641.17	998.89
641.52	992.52
641.86	986.17
642.20	980.37
642.55	974.14
642.89	967.58
643.23	961.16
643.58	955.48
643.92	949.19
644.26	943.07
644.61	937.07
644.95	931.01
645.29	924.40
645.64	917.67
645.98	911.30
646.32	905.59
646.66	899.47
647.01	893.64
647.35	888.03
647.69	882.25
648.04	876.70
648.38	870.94
648.72	864.93
649.06	858.72
649.41	852.86
649.75	846.92
650.09	841.02
650.43	835.17
650.78	828.99
651.12	823.07
651.46	817.41
651.80	811.65
652.14	806.26
652.49	800.91
652.83	795.78
653.17	790.10
653.51	784.38
653.85	778.93
654.20	773.27
654.54	767.28
654.88	761.57
655.22	755.65
655.56	749.98
655.90	744.53
656.25	739.27
656.59	733.92
656.93	728.82
657.27	723.64
657.61	718.28
657.95	713.12
658.29	708.06
658.64	702.83
658.98	697.56
659.32	692.03
659.66	686.79
660.00	681.46
660.34	676.47
660.68	671.51
661.02	666.58
661.36	661.90
661.70	657.44
662.05	653.05
662.39	648.81
662.73	644.39
663.07	640.09
663.41	635.74
663.75	631.24
664.09	626.63
664.43	622.26
664.77	618.17
665.11	613.96
665.45	609.91
665.79	605.88
666.13	601.83
666.47	597.80
666.81	593.64
667.15	589.52
667.49	585.76
667.83	582.04
668.17	578.03
668.51	573.95
668.85	569.90
669.19	566.05
669.53	562.21
669.87	558.34
670.21	554.66
670.55	551.00
670.89	547.64
671.23	544.25
671.57	540.75
671.91	537.21
672.25	533.69
672.58	530.11
672.92	526.71
673.26	523.52
673.60	520.39
673.94	517.28
674.28	514.44
674.62	511.44
674.96	508.33
675.30	505.46
675.64	502.56
675.97	499.78
676.31	496.97
676.65	494.03
676.99	491.34
677.33	488.48
677.67	485.64
678.01	482.61
678.34	479.65
678.68	476.78
679.02	473.93
679.36	471.19
679.70	468.49
680.04	465.64
680.37	462.74
680.71	459.95
681.05	457.35
681.39	454.57
681.73	451.94
682.06	449.40
682.40	446.90
682.74	444.33
683.08	441.81
683.42	439.20
683.75	436.75
684.09	434.20
684.43	431.72
684.77	429.25
685.10	426.88
685.44	424.57
685.78	422.32
686.12	420.10
686.45	417.85
686.79	415.51
687.13	413.38
687.46	411.25
687.80	409.08
688.14	406.92
688.48	404.90
688.81	402.69
689.15	400.53
689.49	398.34
689.82	396.28
690.16	394.15
690.50	392.18
690.83	390.22
691.17	388.24
691.51	386.34
691.84	384.51
692.18	382.56
692.52	380.60
692.85	378.69
693.19	376.78
693.52	374.94
693.86	373.16
694.20	371.42
694.53	369.61
694.87	367.80
695.21	365.96
695.54	364.14
695.88	362.37
696.21	360.67
696.55	358.96
696.88	357.31
697.22	355.69
697.56	354.09
697.89	352.47
698.23	350.90
698.56	349.27
698.90	347.66
699.23	346.01
699.57	344.45
699.90	342.91
700.24	341.41
700.58	339.89
700.91	338.39
701.25	336.93
701.58	335.55
701.92	334.19
702.25	332.84
702.59	331.48
702.92	330.16
703.26	328.87
703.59	327.64
703.93	326.44
704.26	325.22
704.60	323.92
704.93	322.61
705.26	321.34
705.60	320.23
705.93	319.08
706.27	318.08
706.60	317.03
706.94	315.92
707.27	314.78
707.61	313.71
707.94	312.73
708.27	311.64
708.61	310.54
708.94	309.51
709.28	308.54
709.61	307.61
709.94	306.65
710.28	305.63
710.61	304.64
710.95	303.58
711.28	302.68
711.61	301.74
711.95	300.85
712.28	299.89
712.61	298.87
712.95	297.97
713.28	297.09
713.61	296.17
713.95	295.31
714.28	294.49
714.61	293.62
714.95	292.73
715.28	291.90
715.61	291.06
715.95	290.24
716.28	289.39
716.61	288.57
716.95	287.76
717.28	287.02
717.61	286.28
717.94	285.51
718.28	284.73
718.61	284.01
718.94	283.34
719.27	282.67
719.61	282.06
719.94	281.36
720.27	280.64
720.60	279.99
720.94	279.36
721.27	278.75
721.60	278.19
721.93	277.58
722.27	277.01
722.60	276.47
722.93	275.92
723.26	275.39
723.59	274.80
723.93	274.26
724.26	273.75
724.59	273.16
724.92	272.67
725.25	272.15
725.59	271.65
725.92	271.12
726.25	270.66
726.58	270.18
726.91	269.70
727.24	269.24
727.57	268.79
727.91	268.31
728.24	267.83
728.57	267.35
728.90	266.92
729.23	266.44
729.56	266.02
729.89	265.55
730.22	265.08
730.55	264.63
730.89	264.17
731.22	263.71
731.55	263.30
731.88	262.87
732.21	262.43
732.54	261.98
732.87	261.55
733.20	261.14
733.53	260.71
733.86	260.35
734.19	259.97
734.52	259.57
734.85	259.24
735.18	258.83
735.51	258.48
735.84	258.09
736.17	257.74
736.50	257.32
736.83	257.05
737.16	256.71
737.49	256.37
737.82	256.04
738.15	255.72
738.48	255.37
738.81	255.04
739.14	254.74
739.47	254.42
739.80	254.12
740.13	253.79
740.46	253.46
740.79	253.10
741.12	252.79
741.45	252.47
741.78	252.15
742.11	251.89
742.44	251.55
742.77	251.26
743.10	250.95
743.43	250.67
743.75	250.29
744.08	250.15
744.41	249.86
744.74	249.59
745.07	249.28
745.40	249.07
745.73	248.82
746.06	248.55
746.39	248.29
746.71	248.02
747.04	247.77
747.37	247.49
747.70	247.24
748.03	247.00
748.36	246.76
748.68	246.50
749.01	246.24
749.34	246.04
749.67	245.83
750.00	245.59
750.33	245.42
750.65	245.21
750.98	244.87
751.31	244.64
751.64	244.42
751.97	244.26
752.29	244.00
752.62	243.74
752.95	243.53
753.28	243.30
753.60	243.07
753.93	242.90
754.26	242.71
754.59	242.55
754.91	242.34
755.24	242.15
755.57	241.95
755.90	241.78
756.22	241.58
756.55	241.40
756.88	241.23
757.20	241.00
757.53	240.80
757.86	240.65
758.19	240.51
758.51	240.38
758.84	240.19
759.17	240.06
759.49	239.89
759.82	239.80
760.15	239.67
760.47	239.52
760.80	239.36
761.13	239.23
761.45	239.02
761.78	238.90
762.11	238.76
762.43	238.61
762.76	238.45
763.08	238.30
763.41	238.15
763.74	237.99
764.06	237.87
764.39	237.72
764.71	237.55
765.04	237.42
765.37	237.26
765.69	237.10
766.02	236.95
766.34	236.85
766.67	236.66
767.00	236.56
767.32	236.51
767.65	236.44
767.97	236.34
768.30	236.25
768.62	236.10
768.95	236.00
769.27	235.87
769.60	235.79
769.92	235.65
770.25	235.51
770.57	235.43
770.90	235.31
771.22	235.20
771.55	235.11
771.87	235.01
772.20	234.94
772.52	234.94
772.85	234.96
773.17	234.86
773.50	234.76
773.82	234.64
774.15	234.50
774.47	234.31
774.80	234.20
775.12	234.14
775.45	234.06
775.77	233.96
776.09	233.88
776.42	233.80
776.74	233.76
777.07	233.69
777.39	233.60
777.72	233.51
778.04	233.47
778.36	233.40
778.69	233.30
779.01	233.21
779.33	233.06
779.66	232.86
779.98	232.77
780.31	232.70
780.63	232.67
780.95	232.60
781.28	232.53
781.60	232.44
781.92	232.38
782.25	232.33
782.57	232.27
782.89	232.22
783.22	232.15
783.54	232.07
783.86	232.01
784.19	231.96
784.51	231.94
784.83	231.83
785.16	231.77
785.48	231.74
785.80	231.69
786.12	231.65
786.45	231.63
786.77	231.61
787.09	231.58
