SpectraSuite Data File
++++++++++++++++++++++++++++++++++++
Date: Fri Feb 01 15:08:29 EST 2013
User: group
Dark Spectrum Present: No
Reference Spectrum Present: No
Number of Sampled Component Spectra: 1
Spectrometers: USB2E7196
Integration Time (usec): 35000 (USB2E7196)
Spectra Averaged: 100 (USB2E7196)
Boxcar Smoothing: 10 (USB2E7196)
Correct for Electrical Dark: No (USB2E7196)
Strobe/Lamp Enabled: No (USB2E7196)
Correct for Detector Non-linearity: No (USB2E7196)
Correct for Stray Light: No (USB2E7196)
Number of Pixels in Processed Spectrum: 2048
>>>>>Begin Processed Spectral Data<<<<<
339.09	0.00
339.48	214.90
339.86	216.56
340.24	217.82
340.63	219.50
341.01	222.30
341.39	222.11
341.78	222.87
342.16	224.43
342.54	224.51
342.93	213.40
343.31	224.18
343.69	224.75
344.07	225.22
344.46	225.64
344.84	225.99
345.22	226.21
345.60	226.46
345.99	226.64
346.37	226.75
346.75	226.87
347.13	226.92
347.52	226.98
347.90	227.08
348.28	227.08
348.66	227.11
349.05	227.12
349.43	227.16
349.81	227.17
350.19	227.20
350.57	227.25
350.96	227.28
351.34	227.38
351.72	227.42
352.10	227.52
352.48	227.60
352.87	227.66
353.25	227.75
353.63	227.82
354.01	227.91
354.39	227.99
354.77	228.07
355.15	228.18
355.54	228.23
355.92	228.27
356.30	228.35
356.68	228.48
357.06	228.55
357.44	228.57
357.82	228.65
358.20	228.74
358.58	228.81
358.97	228.90
359.35	228.96
359.73	229.04
360.11	229.09
360.49	229.12
360.87	229.19
361.25	229.25
361.63	229.32
362.01	229.39
362.39	229.42
362.77	229.45
363.15	229.45
363.53	229.49
363.91	229.52
364.29	229.58
364.67	229.50
365.05	229.54
365.43	229.57
365.81	229.58
366.19	229.62
366.57	229.67
366.95	229.67
367.33	229.65
367.71	229.64
368.09	229.61
368.47	229.63
368.85	229.61
369.23	229.58
369.61	229.50
369.99	229.51
370.37	229.50
370.75	229.48
371.13	229.47
371.51	229.40
371.89	229.33
372.27	229.27
372.65	229.22
373.03	229.16
373.41	229.08
373.78	229.07
374.16	228.96
374.54	228.81
374.92	228.75
375.30	228.64
375.68	228.55
376.06	228.50
376.44	228.43
376.82	228.34
377.19	228.27
377.57	228.20
377.95	228.06
378.33	227.98
378.71	227.87
379.09	227.78
379.47	227.74
379.84	227.65
380.22	227.53
380.60	227.45
380.98	227.35
381.36	227.27
381.73	227.16
382.11	227.10
382.49	227.07
382.87	226.97
383.25	226.94
383.62	226.97
384.00	226.89
384.38	226.81
384.76	226.76
385.13	226.72
385.51	226.65
385.89	226.61
386.27	226.55
386.64	226.52
387.02	226.47
387.40	226.43
387.78	226.39
388.15	226.39
388.53	226.37
388.91	226.31
389.29	226.30
389.66	226.28
390.04	226.26
390.42	226.25
390.79	226.26
391.17	226.24
391.55	226.17
391.92	226.17
392.30	226.16
392.68	226.12
393.05	226.12
393.43	226.12
393.81	226.12
394.18	226.14
394.56	226.18
394.94	226.26
395.31	226.25
395.69	226.32
396.06	226.37
396.44	226.43
396.82	226.53
397.19	226.64
397.57	226.72
397.95	226.78
398.32	226.83
398.70	226.89
399.07	226.99
399.45	227.02
399.82	227.11
400.20	227.21
400.58	227.36
400.95	227.42
401.33	227.57
401.70	227.77
402.08	227.89
402.45	228.00
402.83	228.07
403.20	228.21
403.58	228.35
403.95	228.46
404.33	228.63
404.71	228.71
405.08	228.90
405.46	229.00
405.83	229.17
406.21	229.33
406.58	229.50
406.96	229.66
407.33	229.89
407.70	230.10
408.08	230.38
408.45	230.60
408.83	230.86
409.20	231.09
409.58	231.26
409.95	231.51
410.33	231.77
410.70	232.05
411.08	232.37
411.45	232.65
411.82	232.99
412.20	233.30
412.57	233.77
412.95	234.06
413.32	234.49
413.69	234.89
414.07	235.34
414.44	235.78
414.82	236.25
415.19	236.77
415.56	237.30
415.94	237.84
416.31	238.46
416.68	239.07
417.06	239.76
417.43	240.44
417.81	241.22
418.18	242.02
418.55	242.84
418.93	243.71
419.30	244.59
419.67	245.53
420.04	246.46
420.42	247.43
420.79	248.61
421.16	249.77
421.54	250.97
421.91	252.19
422.28	253.45
422.66	254.80
423.03	256.12
423.40	257.46
423.77	258.85
424.15	260.28
424.52	261.75
424.89	263.38
425.26	264.92
425.64	266.35
426.01	267.90
426.38	269.55
426.75	271.21
427.13	272.95
427.50	274.73
427.87	276.61
428.24	278.46
428.61	280.20
428.99	282.14
429.36	284.23
429.73	286.23
430.10	288.28
430.47	290.32
430.85	292.45
431.22	294.67
431.59	297.04
431.96	299.29
432.33	301.81
432.70	304.16
433.08	306.97
433.45	309.64
433.82	312.29
434.19	315.24
434.56	318.10
434.93	320.77
435.30	323.48
435.68	326.37
436.05	329.20
436.42	332.00
436.79	334.51
437.16	337.23
437.53	340.12
437.90	342.94
438.27	345.69
438.64	348.51
439.01	351.14
439.38	353.43
439.75	355.54
440.13	358.03
440.50	360.37
440.87	362.27
441.24	364.22
441.61	366.34
441.98	367.77
442.35	369.57
442.72	371.41
443.09	373.21
443.46	374.20
443.83	374.80
444.20	375.31
444.57	376.17
444.94	376.47
445.31	376.80
445.68	377.19
446.05	377.30
446.42	376.92
446.79	376.47
447.16	376.02
447.53	375.75
447.90	374.59
448.27	373.43
448.64	371.80
449.01	370.63
449.37	368.69
449.74	366.83
450.11	364.55
450.48	362.06
450.85	359.50
451.22	357.35
451.59	355.37
451.96	353.46
452.33	350.82
452.70	348.44
453.07	345.61
453.43	342.66
453.80	339.86
454.17	337.19
454.54	334.65
454.91	331.88
455.28	329.22
455.65	326.73
456.02	324.28
456.38	322.14
456.75	319.50
457.12	317.25
457.49	314.98
457.86	312.83
458.23	310.99
458.59	308.92
458.96	306.82
459.33	304.93
459.70	303.04
460.07	301.58
460.43	299.83
460.80	298.18
461.17	296.73
461.54	295.25
461.91	293.80
462.27	292.34
462.64	291.15
463.01	289.76
463.38	288.41
463.74	287.03
464.11	285.87
464.48	284.83
464.85	283.68
465.21	282.78
465.58	281.80
465.95	280.67
466.32	279.72
466.68	278.83
467.05	277.92
467.42	276.98
467.78	275.98
468.15	275.10
468.52	274.43
468.88	273.58
469.25	272.75
469.62	272.13
469.98	271.43
470.35	270.71
470.72	270.09
471.08	269.44
471.45	268.94
471.82	268.36
472.18	267.76
472.55	267.34
472.92	266.84
473.28	266.37
473.65	265.91
474.02	265.48
474.38	265.11
474.75	264.79
475.11	264.45
475.48	264.20
475.85	263.95
476.21	263.68
476.58	263.45
476.94	263.29
477.31	263.13
477.67	263.00
478.04	262.89
478.41	262.81
478.77	262.81
479.14	262.71
479.50	262.72
479.87	262.76
480.23	262.82
480.60	262.88
480.96	263.00
481.33	263.20
481.69	263.41
482.06	263.60
482.42	263.79
482.79	264.07
483.15	264.40
483.52	264.83
483.88	265.19
484.25	265.62
484.61	266.08
484.98	266.48
485.34	267.05
485.71	267.64
486.07	268.26
486.44	268.88
486.80	269.60
487.17	270.33
487.53	271.13
487.90	271.96
488.26	272.89
488.62	273.85
488.99	274.86
489.35	275.90
489.72	277.03
490.08	278.24
490.44	279.45
490.81	280.75
491.17	282.08
491.54	283.56
491.90	285.06
492.26	286.75
492.63	288.45
492.99	290.20
493.36	292.07
493.72	294.12
494.08	296.21
494.45	298.43
494.81	300.79
495.17	303.23
495.54	305.83
495.90	308.53
496.26	311.34
496.63	314.27
496.99	317.42
497.35	320.62
497.72	324.01
498.08	327.50
498.44	331.16
498.80	335.09
499.17	339.09
499.53	343.25
499.89	347.53
500.26	352.09
500.62	356.78
500.98	361.73
501.34	366.78
501.71	372.04
502.07	377.48
502.43	383.05
502.79	388.87
503.16	394.91
503.52	401.15
503.88	407.55
504.24	414.15
504.60	420.96
504.97	428.12
505.33	435.38
505.69	443.08
506.05	450.88
506.41	458.70
506.78	466.84
507.14	475.29
507.50	483.99
507.86	493.02
508.22	502.14
508.59	511.32
508.95	520.93
509.31	530.75
509.67	540.83
510.03	551.12
510.39	561.67
510.75	572.43
511.12	583.31
511.48	594.67
511.84	606.09
512.20	617.60
512.56	629.52
512.92	641.72
513.28	654.05
513.64	666.49
514.00	679.17
514.37	692.13
514.73	705.19
515.09	718.31
515.45	731.54
515.81	745.23
516.17	759.29
516.53	773.25
516.89	787.46
517.25	801.74
517.61	816.14
517.97	830.62
518.33	845.05
518.69	859.85
519.05	874.78
519.41	889.99
519.77	905.51
520.13	920.98
520.49	936.37
520.85	951.86
521.21	967.63
521.57	983.97
521.93	999.80
522.29	1016.23
522.65	1032.48
523.01	1048.77
523.37	1064.79
523.73	1081.00
524.09	1097.25
524.45	1113.64
524.81	1130.29
525.17	1147.23
525.53	1164.15
525.89	1181.18
526.25	1198.09
526.61	1214.51
526.97	1231.29
527.33	1247.92
527.68	1264.59
528.04	1281.17
528.40	1297.84
528.76	1314.97
529.12	1331.53
529.48	1348.50
529.84	1364.67
530.20	1381.46
530.56	1398.64
530.91	1416.13
531.27	1432.94
531.63	1449.50
531.99	1466.19
532.35	1482.22
532.71	1498.21
533.07	1514.56
533.42	1530.41
533.78	1546.56
534.14	1563.01
534.50	1578.49
534.86	1594.47
535.21	1609.59
535.57	1625.77
535.93	1641.39
536.29	1656.36
536.65	1671.68
537.00	1686.64
537.36	1701.95
537.72	1716.43
538.08	1730.79
538.44	1744.60
538.79	1758.73
539.15	1772.62
539.51	1786.38
539.87	1800.79
540.22	1814.46
540.58	1828.38
540.94	1842.03
541.29	1855.14
541.65	1867.90
542.01	1881.22
542.37	1893.64
542.72	1906.28
543.08	1918.00
543.44	1930.62
543.79	1941.87
544.15	1952.84
544.51	1964.34
544.87	1975.41
545.22	1986.28
545.58	1996.50
545.94	2006.35
546.29	2016.09
546.65	2025.88
547.01	2035.28
547.36	2044.15
547.72	2052.77
548.07	2060.60
548.43	2068.73
548.79	2076.66
549.14	2084.14
549.50	2091.63
549.86	2099.31
550.21	2106.71
550.57	2113.90
550.92	2120.30
551.28	2127.45
551.64	2134.58
551.99	2141.17
552.35	2147.25
552.70	2153.43
553.06	2159.47
553.41	2165.81
553.77	2171.85
554.13	2178.01
554.48	2184.00
554.84	2189.29
555.19	2194.52
555.55	2199.67
555.90	2204.01
556.26	2208.95
556.61	2213.58
556.97	2217.66
557.32	2221.86
557.68	2225.87
558.03	2230.21
558.39	2233.97
558.74	2238.48
559.10	2242.17
559.45	2245.73
559.81	2250.05
560.16	2253.84
560.52	2257.01
560.87	2260.46
561.23	2263.05
561.58	2265.81
561.94	2268.37
562.29	2270.73
562.64	2273.45
563.00	2275.93
563.35	2279.53
563.71	2282.41
564.06	2285.67
564.42	2288.42
564.77	2290.74
565.12	2292.88
565.48	2294.46
565.83	2296.04
566.19	2297.16
566.54	2298.18
566.89	2299.36
567.25	2299.93
567.60	2301.13
567.96	2302.61
568.31	2303.31
568.66	2304.34
569.02	2304.79
569.37	2304.94
569.72	2305.65
570.08	2305.64
570.43	2305.51
570.78	2304.61
571.14	2303.03
571.49	2301.69
571.84	2301.35
572.20	2300.10
572.55	2299.08
572.90	2297.55
573.26	2296.04
573.61	2294.26
573.96	2292.27
574.31	2289.10
574.67	2285.97
575.02	2282.38
575.37	2279.03
575.72	2275.04
576.08	2271.57
576.43	2268.22
576.78	2264.59
577.13	2261.38
577.49	2258.25
577.84	2254.81
578.19	2251.12
578.54	2247.44
578.90	2243.03
579.25	2237.32
579.60	2232.19
579.95	2227.13
580.30	2222.04
580.66	2216.95
581.01	2211.96
581.36	2206.89
581.71	2202.59
582.06	2198.02
582.42	2193.36
582.77	2187.89
583.12	2183.30
583.47	2178.53
583.82	2173.45
584.17	2167.99
584.53	2162.49
584.88	2156.70
585.23	2150.80
585.58	2145.27
585.93	2139.68
586.28	2134.89
586.63	2129.60
586.98	2124.41
587.34	2119.58
587.69	2114.58
588.04	2109.04
588.39	2103.22
588.74	2096.80
589.09	2090.60
589.44	2083.59
589.79	2077.68
590.14	2072.19
590.49	2065.58
590.84	2059.13
591.19	2052.96
591.54	2046.44
591.89	2038.76
592.25	2031.83
592.60	2024.49
592.95	2016.77
593.30	2009.30
593.65	2001.53
594.00	1994.62
594.35	1987.39
594.70	1979.20
595.05	1971.83
595.40	1964.62
595.75	1957.11
596.10	1950.62
596.45	1943.68
596.80	1937.39
597.15	1930.44
597.50	1923.08
597.85	1916.50
598.19	1909.67
598.54	1902.49
598.89	1895.76
599.24	1889.70
599.59	1882.99
599.94	1876.70
600.29	1870.22
600.64	1863.65
600.99	1856.03
601.34	1849.03
601.69	1841.95
602.04	1835.02
602.39	1827.64
602.74	1820.69
603.08	1813.81
603.43	1807.13
603.78	1799.88
604.13	1792.67
604.48	1785.34
604.83	1778.53
605.18	1771.41
605.53	1763.42
605.87	1755.29
606.22	1748.07
606.57	1740.25
606.92	1732.95
607.27	1725.56
607.62	1718.71
607.96	1711.42
608.31	1704.81
608.66	1697.17
609.01	1689.50
609.36	1681.84
609.70	1673.79
610.05	1665.66
610.40	1658.04
610.75	1649.72
611.10	1642.01
611.44	1633.84
611.79	1625.85
612.14	1617.17
612.49	1608.27
612.83	1599.99
613.18	1592.08
613.53	1584.03
613.88	1575.43
614.22	1567.03
614.57	1558.75
614.92	1550.61
615.27	1542.84
615.61	1534.46
615.96	1526.51
616.31	1519.05
616.65	1511.80
617.00	1504.29
617.35	1496.68
617.70	1488.34
618.04	1479.76
618.39	1471.61
618.74	1463.84
619.08	1455.59
619.43	1448.02
619.78	1441.07
620.12	1433.84
620.47	1426.21
620.82	1417.99
621.16	1410.72
621.51	1403.24
621.85	1395.58
622.20	1387.07
622.55	1378.92
622.89	1371.22
623.24	1363.71
623.59	1356.30
623.93	1348.79
624.28	1341.60
624.62	1334.03
624.97	1326.86
625.32	1320.24
625.66	1313.20
626.01	1306.04
626.35	1298.48
626.70	1290.79
627.04	1283.06
627.39	1275.26
627.73	1267.87
628.08	1260.96
628.43	1253.57
628.77	1246.16
629.12	1238.57
629.46	1231.51
629.81	1224.14
630.15	1216.94
630.50	1209.43
630.84	1201.26
631.19	1193.34
631.53	1185.93
631.88	1178.48
632.22	1170.92
632.57	1163.62
632.91	1156.05
633.26	1148.79
633.60	1141.62
633.95	1134.63
634.29	1127.60
634.64	1121.08
634.98	1113.70
635.32	1106.59
635.67	1100.22
636.01	1093.67
636.36	1086.86
636.70	1080.38
637.05	1073.87
637.39	1067.51
637.73	1061.13
638.08	1055.36
638.42	1049.40
638.77	1042.91
639.11	1036.34
639.45	1030.00
639.80	1023.41
640.14	1017.03
640.49	1010.34
640.83	1003.96
641.17	997.49
641.52	991.22
641.86	984.73
642.20	979.00
642.55	972.71
642.89	966.15
643.23	959.60
643.58	953.88
643.92	947.67
644.26	941.49
644.61	935.42
644.95	929.35
645.29	922.65
645.64	915.90
645.98	909.62
646.32	903.90
646.66	897.85
647.01	892.05
647.35	886.33
647.69	880.63
648.04	875.22
648.38	869.54
648.72	863.40
649.06	857.38
649.41	851.49
649.75	845.48
650.09	839.48
650.43	833.63
650.78	827.51
651.12	821.55
651.46	815.93
651.80	810.20
652.14	804.83
652.49	799.50
652.83	794.36
653.17	788.60
653.51	782.72
653.85	777.36
654.20	771.63
654.54	765.68
654.88	759.96
655.22	754.15
655.56	748.55
655.90	743.18
656.25	737.94
656.59	732.57
656.93	727.51
657.27	722.35
657.61	717.00
657.95	711.87
658.29	706.85
658.64	701.61
658.98	696.32
659.32	690.83
659.66	685.65
660.00	680.40
660.34	675.55
660.68	670.72
661.02	665.68
661.36	661.05
661.70	656.67
662.05	652.34
662.39	647.94
662.73	643.49
663.07	639.17
663.41	634.72
663.75	630.24
664.09	625.72
664.43	621.40
664.77	617.25
665.11	613.06
665.45	608.96
665.79	604.90
666.13	600.83
666.47	596.78
666.81	592.65
667.15	588.58
667.49	584.73
667.83	580.98
668.17	577.10
668.51	573.06
668.85	569.01
669.19	565.16
669.53	561.35
669.87	557.48
670.21	553.84
670.55	550.28
670.89	546.98
671.23	543.60
671.57	540.14
671.91	536.70
672.25	533.22
672.58	529.73
672.92	526.33
673.26	523.15
673.60	520.03
673.94	516.95
674.28	514.08
674.62	511.12
674.96	508.04
675.30	505.12
675.64	502.21
675.97	499.46
676.31	496.62
676.65	493.73
676.99	491.10
677.33	488.20
677.67	485.38
678.01	482.29
678.34	479.33
678.68	476.47
679.02	473.64
679.36	470.92
679.70	468.20
680.04	465.47
680.37	462.63
680.71	459.85
681.05	457.27
681.39	454.53
681.73	451.95
682.06	449.41
682.40	446.84
682.74	444.29
683.08	441.78
683.42	439.17
683.75	436.62
684.09	434.08
684.43	431.61
684.77	429.12
685.10	426.82
685.44	424.54
685.78	422.24
686.12	420.02
686.45	417.70
686.79	415.38
687.13	413.20
687.46	411.06
687.80	408.89
688.14	406.66
688.48	404.60
688.81	402.28
689.15	400.15
689.49	398.07
689.82	396.02
690.16	393.91
690.50	391.94
690.83	390.04
691.17	388.03
691.51	386.17
691.84	384.32
692.18	382.35
692.52	380.34
692.85	378.46
693.19	376.55
693.52	374.77
693.86	373.00
694.20	371.21
694.53	369.38
694.87	367.53
695.21	365.76
695.54	363.93
695.88	362.24
696.21	360.51
696.55	358.87
696.88	357.19
697.22	355.55
697.56	353.95
697.89	352.30
698.23	350.70
698.56	349.08
698.90	347.45
699.23	345.79
699.57	344.30
699.90	342.71
700.24	341.21
700.58	339.66
700.91	338.19
701.25	336.76
701.58	335.42
701.92	334.12
702.25	332.75
702.59	331.40
702.92	330.11
703.26	328.81
703.59	327.45
703.93	326.30
704.26	325.09
704.60	323.85
704.93	322.56
705.26	321.30
705.60	320.13
705.93	319.05
706.27	318.09
706.60	317.03
706.94	316.00
707.27	314.87
707.61	313.81
707.94	312.78
708.27	311.69
708.61	310.63
708.94	309.62
709.28	308.67
709.61	307.73
709.94	306.79
710.28	305.78
710.61	304.85
710.95	303.78
711.28	302.83
711.61	301.84
711.95	300.93
712.28	300.00
712.61	299.02
712.95	298.08
713.28	297.17
713.61	296.29
713.95	295.41
714.28	294.60
714.61	293.79
714.95	292.93
715.28	292.12
715.61	291.24
715.95	290.36
716.28	289.54
716.61	288.72
716.95	287.90
717.28	287.20
717.61	286.43
717.94	285.70
718.28	284.89
718.61	284.20
718.94	283.51
719.27	282.87
719.61	282.27
719.94	281.61
720.27	280.91
720.60	280.20
720.94	279.58
721.27	278.96
721.60	278.38
721.93	277.79
722.27	277.22
722.60	276.66
722.93	276.10
723.26	275.53
723.59	274.94
723.93	274.41
724.26	273.85
724.59	273.34
724.92	272.80
725.25	272.34
725.59	271.81
725.92	271.31
726.25	270.77
726.58	270.27
726.91	269.74
727.24	269.27
727.57	268.86
727.91	268.35
728.24	267.90
728.57	267.36
728.90	266.94
729.23	266.42
729.56	266.00
729.89	265.54
730.22	265.04
730.55	264.58
730.89	264.12
731.22	263.67
731.55	263.18
731.88	262.73
732.21	262.27
732.54	261.82
732.87	261.38
733.20	261.03
733.53	260.62
733.86	260.26
734.19	259.86
734.52	259.46
734.85	259.14
735.18	258.69
735.51	258.33
735.84	257.93
736.17	257.60
736.50	257.19
736.83	256.94
737.16	256.64
737.49	256.30
737.82	255.97
738.15	255.65
738.48	255.31
738.81	254.98
739.14	254.68
739.47	254.43
739.80	254.12
740.13	253.79
740.46	253.44
740.79	253.13
741.12	252.78
741.45	252.44
741.78	252.10
742.11	251.86
742.44	251.55
742.77	251.26
743.10	250.96
743.43	250.66
743.75	250.30
744.08	250.13
744.41	249.89
744.74	249.58
745.07	249.31
745.40	249.11
745.73	248.93
746.06	248.64
746.39	248.37
746.71	248.12
747.04	247.83
747.37	247.57
747.70	247.34
748.03	247.12
748.36	246.91
748.68	246.67
749.01	246.42
749.34	246.20
749.67	245.97
750.00	245.74
750.33	245.59
750.65	245.40
750.98	245.06
751.31	244.78
751.64	244.58
751.97	244.42
752.29	244.19
752.62	243.93
752.95	243.73
753.28	243.52
753.60	243.32
753.93	243.17
754.26	243.03
754.59	242.81
754.91	242.62
755.24	242.45
755.57	242.27
755.90	242.06
756.22	241.85
756.55	241.64
756.88	241.47
757.20	241.24
757.53	241.03
757.86	240.89
758.19	240.80
758.51	240.67
758.84	240.45
759.17	240.29
759.49	240.12
759.82	240.00
760.15	239.88
760.47	239.73
760.80	239.56
761.13	239.42
761.45	239.29
761.78	239.15
762.11	238.98
762.43	238.88
762.76	238.75
763.08	238.65
763.41	238.54
763.74	238.42
764.06	238.28
764.39	238.16
764.71	238.02
765.04	237.87
765.37	237.71
765.69	237.58
766.02	237.41
766.34	237.27
766.67	237.14
767.00	237.01
767.32	236.91
767.65	236.87
767.97	236.74
768.30	236.61
768.62	236.49
768.95	236.34
769.27	236.19
769.60	236.08
769.92	235.97
770.25	235.83
770.57	235.70
770.90	235.62
771.22	235.49
771.55	235.38
771.87	235.27
772.20	235.14
772.52	235.12
772.85	235.17
773.17	235.08
773.50	234.97
773.82	234.83
774.15	234.70
774.47	234.55
774.80	234.43
775.12	234.32
775.45	234.25
775.77	234.21
776.09	234.13
776.42	234.03
776.74	233.95
777.07	233.85
777.39	233.77
777.72	233.68
778.04	233.65
778.36	233.57
778.69	233.50
779.01	233.45
779.33	233.29
779.66	233.13
779.98	233.02
780.31	232.95
780.63	232.95
780.95	232.92
781.28	232.85
781.60	232.79
781.92	232.76
782.25	232.65
782.57	232.55
782.89	232.46
783.22	232.41
783.54	232.35
783.86	232.32
784.19	232.26
784.51	232.20
784.83	232.10
785.16	232.05
785.48	232.00
785.80	231.95
786.12	231.91
786.45	231.89
786.77	231.86
787.09	231.81
