SpectraSuite Data File
++++++++++++++++++++++++++++++++++++
Date: Fri Feb 01 17:12:38 EST 2013
User: group
Dark Spectrum Present: No
Reference Spectrum Present: No
Number of Sampled Component Spectra: 1
Spectrometers: USB2E7196
Integration Time (usec): 35000 (USB2E7196)
Spectra Averaged: 100 (USB2E7196)
Boxcar Smoothing: 10 (USB2E7196)
Correct for Electrical Dark: No (USB2E7196)
Strobe/Lamp Enabled: No (USB2E7196)
Correct for Detector Non-linearity: No (USB2E7196)
Correct for Stray Light: No (USB2E7196)
Number of Pixels in Processed Spectrum: 2048
>>>>>Begin Processed Spectral Data<<<<<
339.09	0.00
339.48	213.60
339.86	214.77
340.24	215.65
340.63	217.35
341.01	220.52
341.39	219.85
341.78	221.66
342.16	222.39
342.54	223.53
342.93	211.76
343.31	222.43
343.69	222.98
344.07	223.44
344.46	223.88
344.84	224.26
345.22	224.48
345.60	224.72
345.99	224.90
346.37	225.03
346.75	225.12
347.13	225.19
347.52	225.22
347.90	225.29
348.28	225.30
348.66	225.31
349.05	225.29
349.43	225.34
349.81	225.36
350.19	225.40
350.57	225.42
350.96	225.45
351.34	225.54
351.72	225.60
352.10	225.70
352.48	225.75
352.87	225.81
353.25	225.89
353.63	225.97
354.01	226.05
354.39	226.14
354.77	226.20
355.15	226.33
355.54	226.41
355.92	226.42
356.30	226.47
356.68	226.62
357.06	226.71
357.44	226.72
357.82	226.77
358.20	226.87
358.58	226.96
358.97	227.02
359.35	227.11
359.73	227.21
360.11	227.25
360.49	227.33
360.87	227.40
361.25	227.44
361.63	227.51
362.01	227.53
362.39	227.55
362.77	227.60
363.15	227.59
363.53	227.63
363.91	227.66
364.29	227.68
364.67	227.63
365.05	227.67
365.43	227.70
365.81	227.72
366.19	227.74
366.57	227.81
366.95	227.81
367.33	227.77
367.71	227.72
368.09	227.73
368.47	227.72
368.85	227.70
369.23	227.73
369.61	227.65
369.99	227.66
370.37	227.65
370.75	227.65
371.13	227.63
371.51	227.58
371.89	227.55
372.27	227.51
372.65	227.47
373.03	227.40
373.41	227.42
373.78	227.37
374.16	227.27
374.54	227.15
374.92	227.10
375.30	227.08
375.68	227.03
376.06	226.96
376.44	226.90
376.82	226.82
377.19	226.74
377.57	226.70
377.95	226.62
378.33	226.55
378.71	226.46
379.09	226.42
379.47	226.36
379.84	226.31
380.22	226.26
380.60	226.18
380.98	226.14
381.36	226.04
381.73	225.97
382.11	225.92
382.49	225.84
382.87	225.78
383.25	225.72
383.62	225.76
384.00	225.67
384.38	225.65
384.76	225.63
385.13	225.59
385.51	225.55
385.89	225.47
386.27	225.42
386.64	225.37
387.02	225.33
387.40	225.28
387.78	225.24
388.15	225.20
388.53	225.15
388.91	225.12
389.29	225.06
389.66	225.05
390.04	225.04
390.42	225.04
390.79	225.00
391.17	224.99
391.55	224.88
391.92	224.92
392.30	224.89
392.68	224.86
393.05	224.85
393.43	224.87
393.81	224.90
394.18	224.88
394.56	224.91
394.94	224.94
395.31	224.93
395.69	224.97
396.06	225.02
396.44	225.05
396.82	225.05
397.19	225.14
397.57	225.17
397.95	225.22
398.32	225.23
398.70	225.31
399.07	225.37
399.45	225.41
399.82	225.41
400.20	225.48
400.58	225.56
400.95	225.59
401.33	225.67
401.70	225.84
402.08	225.95
402.45	226.00
402.83	226.07
403.20	226.19
403.58	226.31
403.95	226.41
404.33	226.53
404.71	226.72
405.08	226.86
405.46	226.98
405.83	227.10
406.21	227.28
406.58	227.40
406.96	227.56
407.33	227.73
407.70	227.95
408.08	228.22
408.45	228.41
408.83	228.62
409.20	228.85
409.58	229.00
409.95	229.25
410.33	229.54
410.70	229.80
411.08	230.12
411.45	230.41
411.82	230.72
412.20	231.08
412.57	231.45
412.95	231.79
413.32	232.23
413.69	232.63
414.07	233.10
414.44	233.60
414.82	234.08
415.19	234.61
415.56	235.17
415.94	235.68
416.31	236.35
416.68	237.01
417.06	237.71
417.43	238.42
417.81	239.21
418.18	240.00
418.55	240.86
418.93	241.72
419.30	242.63
419.67	243.59
420.04	244.58
420.42	245.60
420.79	246.77
421.16	247.90
421.54	249.16
421.91	250.37
422.28	251.64
422.66	252.99
423.03	254.31
423.40	255.66
423.77	257.12
424.15	258.56
424.52	260.06
424.89	261.70
425.26	263.26
425.64	264.73
426.01	266.36
426.38	268.03
426.75	269.74
427.13	271.44
427.50	273.28
427.87	275.18
428.24	277.02
428.61	278.77
428.99	280.77
429.36	282.86
429.73	284.95
430.10	287.01
430.47	289.12
430.85	291.27
431.22	293.52
431.59	295.90
431.96	298.16
432.33	300.64
432.70	303.02
433.08	305.91
433.45	308.54
433.82	311.15
434.19	314.05
434.56	316.88
434.93	319.59
435.30	322.21
435.68	325.13
436.05	328.00
436.42	330.87
436.79	333.40
437.16	336.12
437.53	338.97
437.90	341.77
438.27	344.53
438.64	347.43
439.01	350.06
439.38	352.33
439.75	354.55
440.13	357.07
440.50	359.46
440.87	361.30
441.24	363.27
441.61	365.49
441.98	367.05
442.35	368.89
442.72	370.76
443.09	372.61
443.46	373.58
443.83	374.20
444.20	374.68
444.57	375.55
444.94	375.88
445.31	376.21
445.68	376.61
446.05	376.68
446.42	376.30
446.79	375.90
447.16	375.46
447.53	375.14
447.90	373.99
448.27	372.81
448.64	371.21
449.01	370.11
449.37	368.09
449.74	366.16
450.11	363.89
450.48	361.38
450.85	358.83
451.22	356.69
451.59	354.66
451.96	352.73
452.33	350.11
452.70	347.72
453.07	344.85
453.43	341.91
453.80	339.11
454.17	336.38
454.54	333.80
454.91	331.03
455.28	328.30
455.65	325.77
456.02	323.30
456.38	321.09
456.75	318.37
457.12	316.09
457.49	313.85
457.86	311.65
458.23	309.79
458.59	307.73
458.96	305.60
459.33	303.65
459.70	301.73
460.07	300.13
460.43	298.39
460.80	296.77
461.17	295.29
461.54	293.80
461.91	292.35
462.27	290.88
462.64	289.64
463.01	288.32
463.38	287.04
463.74	285.64
464.11	284.52
464.48	283.49
464.85	282.38
465.21	281.54
465.58	280.60
465.95	279.51
466.32	278.59
466.68	277.71
467.05	276.86
467.42	275.98
467.78	275.04
468.15	274.13
468.52	273.48
468.88	272.62
469.25	271.83
469.62	271.19
469.98	270.52
470.35	269.89
470.72	269.25
471.08	268.54
471.45	268.00
471.82	267.48
472.18	266.85
472.55	266.40
472.92	265.82
473.28	265.36
473.65	264.90
474.02	264.44
474.38	264.09
474.75	263.74
475.11	263.37
475.48	263.13
475.85	262.89
476.21	262.67
476.58	262.53
476.94	262.35
477.31	262.18
477.67	262.02
478.04	261.89
478.41	261.86
478.77	261.92
479.14	261.86
479.50	261.82
479.87	261.86
480.23	261.97
480.60	262.04
480.96	262.11
481.33	262.30
481.69	262.49
482.06	262.66
482.42	262.84
482.79	263.10
483.15	263.43
483.52	263.82
483.88	264.13
484.25	264.47
484.61	264.90
484.98	265.35
485.34	265.92
485.71	266.47
486.07	267.02
486.44	267.60
486.80	268.31
487.17	269.05
487.53	269.88
487.90	270.66
488.26	271.60
488.62	272.62
488.99	273.60
489.35	274.65
489.72	275.79
490.08	277.05
490.44	278.30
490.81	279.65
491.17	281.02
491.54	282.54
491.90	284.10
492.26	285.75
492.63	287.51
492.99	289.30
493.36	291.23
493.72	293.32
494.08	295.42
494.45	297.72
494.81	300.10
495.17	302.55
495.54	305.19
495.90	307.89
496.26	310.69
496.63	313.67
496.99	316.82
497.35	320.09
497.72	323.50
498.08	327.03
498.44	330.65
498.80	334.60
499.17	338.63
499.53	342.81
499.89	347.21
500.26	351.66
500.62	356.27
500.98	361.18
501.34	366.23
501.71	371.56
502.07	376.92
502.43	382.48
502.79	388.23
503.16	394.30
503.52	400.51
503.88	406.81
504.24	413.38
504.60	420.15
504.97	427.23
505.33	434.48
505.69	442.13
506.05	449.93
506.41	457.71
506.78	465.77
507.14	474.11
507.50	482.66
507.86	491.65
508.22	500.75
508.59	509.93
508.95	519.39
509.31	529.09
509.67	539.15
510.03	549.33
510.39	559.81
510.75	570.40
511.12	581.20
511.48	592.38
511.84	603.72
512.20	615.12
512.56	626.81
512.92	638.74
513.28	650.87
513.64	663.07
514.00	675.53
514.37	688.34
514.73	701.18
515.09	714.05
515.45	727.06
515.81	740.48
516.17	754.20
516.53	768.07
516.89	781.98
517.25	795.93
517.61	810.14
517.97	824.44
518.33	838.65
518.69	853.15
519.05	867.86
519.41	882.77
519.77	898.04
520.13	913.30
520.49	928.51
520.85	943.72
521.21	959.19
521.57	975.20
521.93	990.69
522.29	1006.79
522.65	1022.80
523.01	1038.71
523.37	1054.47
523.73	1070.32
524.09	1086.13
524.45	1102.13
524.81	1118.42
525.17	1134.75
525.53	1151.23
525.89	1167.82
526.25	1184.38
526.61	1200.52
526.97	1216.97
527.33	1233.13
527.68	1249.37
528.04	1265.46
528.40	1281.69
528.76	1298.47
529.12	1314.78
529.48	1331.32
529.84	1347.01
530.20	1363.24
530.56	1379.90
530.91	1396.91
531.27	1413.36
531.63	1429.55
531.99	1445.82
532.35	1461.58
532.71	1477.19
533.07	1493.18
533.42	1508.79
533.78	1524.65
534.14	1540.59
534.50	1555.72
534.86	1571.25
535.21	1586.29
535.57	1601.95
535.93	1617.08
536.29	1631.55
536.65	1646.27
537.00	1660.58
537.36	1675.64
537.72	1689.93
538.08	1704.08
538.44	1717.68
538.79	1731.33
539.15	1744.56
539.51	1757.92
539.87	1771.90
540.22	1785.59
540.58	1799.01
540.94	1811.88
541.29	1824.33
541.65	1836.78
542.01	1849.67
542.37	1861.75
542.72	1873.84
543.08	1885.40
543.44	1897.55
543.79	1908.64
544.15	1919.44
544.51	1931.03
544.87	1941.89
545.22	1952.62
545.58	1962.91
545.94	1972.58
546.29	1982.47
546.65	1992.62
547.01	2002.13
547.36	2010.85
547.72	2019.21
548.07	2027.25
548.43	2035.62
548.79	2043.54
549.14	2051.22
549.50	2058.66
549.86	2066.30
550.21	2073.73
550.57	2081.06
550.92	2087.86
551.28	2095.15
551.64	2102.44
551.99	2108.98
552.35	2115.32
552.70	2121.57
553.06	2127.71
553.41	2134.14
553.77	2140.19
554.13	2146.26
554.48	2152.30
554.84	2158.00
555.19	2163.41
555.55	2168.75
555.90	2173.33
556.26	2178.69
556.61	2183.50
556.97	2188.13
557.32	2192.55
557.68	2196.85
558.03	2201.33
558.39	2205.09
558.74	2209.81
559.10	2213.91
559.45	2217.76
559.81	2222.17
560.16	2226.25
560.52	2229.67
560.87	2233.28
561.23	2236.13
561.58	2239.10
561.94	2241.87
562.29	2244.20
562.64	2247.29
563.00	2249.95
563.35	2253.69
563.71	2256.99
564.06	2260.31
564.42	2263.40
564.77	2266.31
565.12	2268.92
565.48	2271.17
565.83	2273.36
566.19	2274.99
566.54	2275.87
566.89	2277.45
567.25	2278.26
567.60	2279.79
567.96	2281.74
568.31	2282.86
568.66	2284.33
569.02	2285.31
569.37	2285.97
569.72	2287.38
570.08	2287.80
570.43	2288.15
570.78	2287.93
571.14	2286.69
571.49	2285.72
571.84	2285.44
572.20	2284.58
572.55	2283.75
572.90	2282.32
573.26	2281.27
573.61	2279.57
573.96	2278.31
574.31	2275.57
574.67	2272.88
575.02	2269.35
575.37	2266.06
575.72	2262.52
576.08	2259.23
576.43	2255.88
576.78	2252.58
577.13	2249.42
577.49	2246.32
577.84	2243.04
578.19	2239.37
578.54	2236.03
578.90	2232.24
579.25	2226.93
579.60	2222.22
579.95	2217.52
580.30	2212.68
580.66	2207.70
581.01	2203.03
581.36	2198.21
581.71	2194.34
582.06	2190.30
582.42	2186.28
582.77	2181.30
583.12	2177.07
583.47	2172.88
583.82	2168.39
584.17	2163.29
584.53	2157.93
584.88	2152.57
585.23	2147.15
585.58	2141.87
585.93	2136.45
586.28	2131.61
586.63	2126.88
586.98	2121.98
587.34	2117.33
587.69	2112.56
588.04	2107.70
588.39	2102.36
588.74	2096.10
589.09	2089.89
589.44	2083.23
589.79	2077.08
590.14	2071.60
590.49	2065.19
590.84	2058.73
591.19	2052.80
591.54	2046.49
591.89	2039.70
592.25	2033.24
592.60	2026.24
592.95	2018.97
593.30	2011.90
593.65	2004.43
594.00	1997.44
594.35	1990.30
594.70	1982.32
595.05	1975.51
595.40	1968.26
595.75	1960.84
596.10	1954.95
596.45	1948.52
596.80	1942.46
597.15	1936.26
597.50	1929.56
597.85	1923.11
598.19	1916.82
598.54	1910.16
598.89	1903.63
599.24	1897.66
599.59	1891.14
599.94	1884.78
600.29	1878.55
600.64	1872.07
600.99	1864.87
601.34	1858.28
601.69	1851.28
602.04	1844.62
602.39	1837.26
602.74	1830.53
603.08	1823.93
603.43	1817.07
603.78	1809.91
604.13	1802.83
604.48	1795.69
604.83	1788.84
605.18	1782.19
605.53	1774.10
605.87	1766.03
606.22	1758.76
606.57	1750.84
606.92	1743.30
607.27	1736.40
607.62	1729.50
607.96	1722.25
608.31	1715.72
608.66	1708.04
609.01	1700.71
609.36	1693.29
609.70	1685.27
610.05	1677.25
610.40	1669.62
610.75	1661.41
611.10	1653.66
611.44	1645.17
611.79	1636.87
612.14	1628.01
612.49	1618.72
612.83	1610.31
613.18	1602.12
613.53	1594.12
613.88	1585.66
614.22	1577.48
614.57	1568.61
614.92	1560.60
615.27	1553.18
615.61	1544.94
615.96	1536.87
616.31	1529.05
616.65	1521.55
617.00	1513.95
617.35	1506.17
617.70	1497.79
618.04	1489.34
618.39	1481.05
618.74	1473.49
619.08	1465.35
619.43	1457.85
619.78	1450.83
620.12	1443.70
620.47	1436.09
620.82	1427.82
621.16	1420.18
621.51	1412.43
621.85	1404.81
622.20	1396.26
622.55	1387.74
622.89	1379.70
623.24	1371.89
623.59	1364.52
623.93	1356.90
624.28	1349.75
624.62	1342.24
624.97	1335.00
625.32	1328.03
625.66	1320.97
626.01	1313.70
626.35	1306.28
626.70	1298.41
627.04	1290.76
627.39	1282.94
627.73	1275.48
628.08	1268.51
628.43	1261.40
628.77	1254.18
629.12	1246.78
629.46	1239.51
629.81	1231.95
630.15	1224.62
630.50	1217.41
630.84	1209.25
631.19	1201.27
631.53	1193.64
631.88	1186.05
632.22	1178.49
632.57	1171.14
632.91	1163.60
633.26	1156.17
633.60	1148.64
633.95	1141.47
634.29	1134.16
634.64	1127.41
634.98	1120.12
635.32	1112.94
635.67	1106.10
636.01	1099.46
636.36	1092.66
636.70	1086.12
637.05	1079.54
637.39	1073.16
637.73	1066.59
638.08	1060.62
638.42	1054.63
638.77	1048.21
639.11	1041.60
639.45	1035.12
639.80	1028.52
640.14	1022.14
640.49	1015.58
640.83	1009.28
641.17	1003.11
641.52	996.98
641.86	990.32
642.20	984.40
642.55	977.98
642.89	971.63
643.23	964.88
643.58	958.98
643.92	952.77
644.26	946.74
644.61	940.58
644.95	934.47
645.29	927.91
645.64	921.16
645.98	914.77
646.32	908.78
646.66	902.74
647.01	896.84
647.35	891.09
647.69	885.21
648.04	879.61
648.38	873.80
648.72	867.84
649.06	861.95
649.41	855.98
649.75	850.10
650.09	844.07
650.43	838.30
650.78	832.17
651.12	826.16
651.46	820.46
651.80	814.80
652.14	809.34
652.49	803.88
652.83	798.74
653.17	793.22
653.51	787.63
653.85	782.21
654.20	776.69
654.54	770.65
654.88	764.87
655.22	758.97
655.56	753.19
655.90	747.67
656.25	742.41
656.59	737.04
656.93	731.99
657.27	726.90
657.61	721.46
657.95	716.33
658.29	711.34
658.64	706.00
658.98	700.59
659.32	695.17
659.66	690.05
660.00	684.84
660.34	679.80
660.68	674.82
661.02	669.78
661.36	665.02
661.70	660.56
662.05	656.24
662.39	651.98
662.73	647.57
663.07	643.17
663.41	638.69
663.75	634.27
664.09	629.64
664.43	625.11
664.77	621.00
665.11	616.80
665.45	612.53
665.79	608.47
666.13	604.42
666.47	600.30
666.81	596.12
667.15	591.86
667.49	587.84
667.83	583.94
668.17	579.94
668.51	575.90
668.85	571.80
669.19	567.89
669.53	564.00
669.87	560.12
670.21	556.37
670.55	552.78
670.89	549.33
671.23	545.91
671.57	542.43
671.91	538.91
672.25	535.28
672.58	531.78
672.92	528.38
673.26	525.16
673.60	521.94
673.94	518.81
674.28	515.88
674.62	512.97
674.96	509.89
675.30	506.97
675.64	504.03
675.97	501.22
676.31	498.34
676.65	495.43
676.99	492.71
677.33	489.81
677.67	486.91
678.01	483.82
678.34	480.81
678.68	477.86
679.02	475.04
679.36	472.24
679.70	469.50
680.04	466.66
680.37	463.81
680.71	461.03
681.05	458.36
681.39	455.56
681.73	452.90
682.06	450.34
682.40	447.76
682.74	445.14
683.08	442.56
683.42	439.91
683.75	437.34
684.09	434.70
684.43	432.24
684.77	429.81
685.10	427.43
685.44	425.17
685.78	422.90
686.12	420.56
686.45	418.30
686.79	416.01
687.13	413.85
687.46	411.64
687.80	409.42
688.14	407.19
688.48	405.17
688.81	402.91
689.15	400.74
689.49	398.60
689.82	396.50
690.16	394.38
690.50	392.43
690.83	390.48
691.17	388.49
691.51	386.54
691.84	384.69
692.18	382.80
692.52	380.82
692.85	378.88
693.19	377.01
693.52	375.14
693.86	373.33
694.20	371.47
694.53	369.67
694.87	367.88
695.21	366.08
695.54	364.24
695.88	362.46
696.21	360.77
696.55	359.08
696.88	357.41
697.22	355.74
697.56	354.10
697.89	352.48
698.23	350.91
698.56	349.32
698.90	347.71
699.23	346.06
699.57	344.46
699.90	342.90
700.24	341.35
700.58	339.89
700.91	338.38
701.25	336.95
701.58	335.59
701.92	334.22
702.25	332.88
702.59	331.53
702.92	330.21
703.26	328.86
703.59	327.55
703.93	326.33
704.26	325.11
704.60	323.82
704.93	322.50
705.26	321.24
705.60	320.01
705.93	318.83
706.27	317.78
706.60	316.73
706.94	315.64
707.27	314.53
707.61	313.40
707.94	312.35
708.27	311.24
708.61	310.14
708.94	309.12
709.28	308.11
709.61	307.15
709.94	306.21
710.28	305.20
710.61	304.20
710.95	303.13
711.28	302.23
711.61	301.35
711.95	300.46
712.28	299.49
712.61	298.56
712.95	297.64
713.28	296.73
713.61	295.85
713.95	294.94
714.28	294.06
714.61	293.26
714.95	292.44
715.28	291.60
715.61	290.71
715.95	289.84
716.28	288.93
716.61	288.06
716.95	287.19
717.28	286.40
717.61	285.60
717.94	284.84
718.28	283.98
718.61	283.16
718.94	282.42
719.27	281.76
719.61	281.06
719.94	280.36
720.27	279.62
720.60	278.89
720.94	278.23
721.27	277.64
721.60	277.00
721.93	276.40
722.27	275.82
722.60	275.26
722.93	274.69
723.26	274.18
723.59	273.62
723.93	273.05
724.26	272.50
724.59	271.97
724.92	271.44
725.25	270.96
725.59	270.44
725.92	269.94
726.25	269.42
726.58	268.94
726.91	268.42
727.24	267.94
727.57	267.50
727.91	267.02
728.24	266.52
728.57	266.00
728.90	265.51
729.23	265.03
729.56	264.59
729.89	264.11
730.22	263.60
730.55	263.12
730.89	262.71
731.22	262.27
731.55	261.84
731.88	261.43
732.21	260.96
732.54	260.56
732.87	260.11
733.20	259.66
733.53	259.28
733.86	258.88
734.19	258.46
734.52	258.07
734.85	257.77
735.18	257.34
735.51	256.96
735.84	256.64
736.17	256.26
736.50	255.86
736.83	255.60
737.16	255.27
737.49	254.95
737.82	254.57
738.15	254.23
738.48	253.87
738.81	253.53
739.14	253.22
739.47	252.89
739.80	252.63
740.13	252.36
740.46	252.04
740.79	251.75
741.12	251.48
741.45	251.16
741.78	250.80
742.11	250.57
742.44	250.30
742.77	249.94
743.10	249.64
743.43	249.34
743.75	248.99
744.08	248.87
744.41	248.58
744.74	248.33
745.07	248.06
745.40	247.81
745.73	247.61
746.06	247.36
746.39	247.07
746.71	246.81
747.04	246.55
747.37	246.27
747.70	246.02
748.03	245.76
748.36	245.55
748.68	245.31
749.01	245.06
749.34	244.82
749.67	244.61
750.00	244.43
750.33	244.30
750.65	244.07
750.98	243.71
751.31	243.50
751.64	243.30
751.97	243.16
752.29	242.93
752.62	242.64
752.95	242.42
753.28	242.23
753.60	241.99
753.93	241.77
754.26	241.59
754.59	241.38
754.91	241.15
755.24	240.93
755.57	240.70
755.90	240.48
756.22	240.29
756.55	240.09
756.88	239.85
757.20	239.55
757.53	239.36
757.86	239.16
758.19	239.00
758.51	238.83
758.84	238.57
759.17	238.40
759.49	238.21
759.82	238.07
760.15	237.90
760.47	237.73
760.80	237.58
761.13	237.42
761.45	237.25
761.78	237.11
762.11	236.97
762.43	236.81
762.76	236.69
763.08	236.54
763.41	236.38
763.74	236.25
764.06	236.13
764.39	235.96
764.71	235.82
765.04	235.67
765.37	235.49
765.69	235.36
766.02	235.20
766.34	235.09
766.67	234.97
767.00	234.86
767.32	234.80
767.65	234.70
767.97	234.60
768.30	234.52
768.62	234.37
768.95	234.26
769.27	234.16
769.60	234.04
769.92	233.90
770.25	233.80
770.57	233.67
770.90	233.59
771.22	233.52
771.55	233.43
771.87	233.37
772.20	233.29
772.52	233.30
772.85	233.36
773.17	233.30
773.50	233.17
773.82	233.06
774.15	232.92
774.47	232.79
774.80	232.70
775.12	232.59
775.45	232.53
775.77	232.46
776.09	232.39
776.42	232.31
776.74	232.27
777.07	232.20
777.39	232.14
777.72	232.06
778.04	231.99
778.36	231.91
778.69	231.82
779.01	231.78
779.33	231.63
779.66	231.48
779.98	231.40
780.31	231.37
780.63	231.38
780.95	231.33
781.28	231.27
781.60	231.24
781.92	231.18
782.25	231.10
782.57	231.04
782.89	230.96
783.22	230.94
783.54	230.87
783.86	230.81
784.19	230.74
784.51	230.74
784.83	230.69
785.16	230.62
785.48	230.55
785.80	230.50
786.12	230.44
786.45	230.42
786.77	230.38
787.09	230.31
