SpectraSuite Data File
++++++++++++++++++++++++++++++++++++
Date: Fri Feb 01 15:03:56 EST 2013
User: group
Dark Spectrum Present: No
Reference Spectrum Present: No
Number of Sampled Component Spectra: 1
Spectrometers: USB2E7196
Integration Time (usec): 35000 (USB2E7196)
Spectra Averaged: 100 (USB2E7196)
Boxcar Smoothing: 10 (USB2E7196)
Correct for Electrical Dark: No (USB2E7196)
Strobe/Lamp Enabled: No (USB2E7196)
Correct for Detector Non-linearity: No (USB2E7196)
Correct for Stray Light: No (USB2E7196)
Number of Pixels in Processed Spectrum: 2048
>>>>>Begin Processed Spectral Data<<<<<
339.09	0.00
339.48	215.05
339.86	216.06
340.24	217.28
340.63	219.04
341.01	221.84
341.39	222.17
341.78	223.45
342.16	224.01
342.54	225.54
342.93	213.38
343.31	224.16
343.69	224.69
344.07	225.16
344.46	225.62
344.84	226.00
345.22	226.26
345.60	226.53
345.99	226.72
346.37	226.86
346.75	226.94
347.13	227.02
347.52	227.06
347.90	227.18
348.28	227.20
348.66	227.25
349.05	227.27
349.43	227.29
349.81	227.37
350.19	227.39
350.57	227.48
350.96	227.55
351.34	227.62
351.72	227.71
352.10	227.83
352.48	227.91
352.87	227.98
353.25	228.04
353.63	228.12
354.01	228.19
354.39	228.30
354.77	228.38
355.15	228.45
355.54	228.54
355.92	228.54
356.30	228.59
356.68	228.74
357.06	228.84
357.44	228.91
357.82	228.95
358.20	229.06
358.58	229.13
358.97	229.19
359.35	229.29
359.73	229.37
360.11	229.40
360.49	229.45
360.87	229.52
361.25	229.55
361.63	229.62
362.01	229.67
362.39	229.69
362.77	229.74
363.15	229.78
363.53	229.79
363.91	229.84
364.29	229.86
364.67	229.74
365.05	229.74
365.43	229.71
365.81	229.73
366.19	229.75
366.57	229.74
366.95	229.70
367.33	229.66
367.71	229.65
368.09	229.66
368.47	229.64
368.85	229.58
369.23	229.57
369.61	229.46
369.99	229.46
370.37	229.41
370.75	229.39
371.13	229.33
371.51	229.24
371.89	229.16
372.27	229.12
372.65	229.09
373.03	229.03
373.41	229.00
373.78	228.94
374.16	228.81
374.54	228.72
374.92	228.66
375.30	228.59
375.68	228.47
376.06	228.37
376.44	228.28
376.82	228.19
377.19	228.12
377.57	228.03
377.95	227.91
378.33	227.84
378.71	227.70
379.09	227.61
379.47	227.58
379.84	227.49
380.22	227.38
380.60	227.28
380.98	227.20
381.36	227.09
381.73	226.98
382.11	226.92
382.49	226.85
382.87	226.75
383.25	226.68
383.62	226.71
384.00	226.66
384.38	226.59
384.76	226.56
385.13	226.51
385.51	226.48
385.89	226.41
386.27	226.35
386.64	226.35
387.02	226.32
387.40	226.25
387.78	226.21
388.15	226.18
388.53	226.14
388.91	226.06
389.29	226.05
389.66	226.06
390.04	226.07
390.42	226.07
390.79	226.05
391.17	226.05
391.55	226.00
391.92	225.98
392.30	225.99
392.68	225.99
393.05	226.00
393.43	226.01
393.81	226.01
394.18	226.05
394.56	226.06
394.94	226.10
395.31	226.15
395.69	226.23
396.06	226.29
396.44	226.39
396.82	226.47
397.19	226.58
397.57	226.64
397.95	226.72
398.32	226.75
398.70	226.84
399.07	226.93
399.45	226.97
399.82	227.09
400.20	227.17
400.58	227.29
400.95	227.34
401.33	227.46
401.70	227.67
402.08	227.78
402.45	227.89
402.83	228.03
403.20	228.17
403.58	228.30
403.95	228.45
404.33	228.56
404.71	228.70
405.08	228.91
405.46	229.05
405.83	229.19
406.21	229.38
406.58	229.55
406.96	229.71
407.33	229.90
407.70	230.08
408.08	230.37
408.45	230.56
408.83	230.79
409.20	231.01
409.58	231.18
409.95	231.46
410.33	231.71
410.70	231.94
411.08	232.23
411.45	232.53
411.82	232.82
412.20	233.18
412.57	233.60
412.95	233.87
413.32	234.30
413.69	234.68
414.07	235.11
414.44	235.60
414.82	236.10
415.19	236.64
415.56	237.19
415.94	237.71
416.31	238.35
416.68	238.99
417.06	239.72
417.43	240.41
417.81	241.14
418.18	241.95
418.55	242.78
418.93	243.66
419.30	244.54
419.67	245.48
420.04	246.43
420.42	247.42
420.79	248.62
421.16	249.75
421.54	250.94
421.91	252.11
422.28	253.31
422.66	254.63
423.03	255.94
423.40	257.25
423.77	258.69
424.15	260.11
424.52	261.59
424.89	263.19
425.26	264.68
425.64	266.13
426.01	267.70
426.38	269.36
426.75	271.02
427.13	272.72
427.50	274.52
427.87	276.40
428.24	278.24
428.61	279.97
428.99	281.89
429.36	284.00
429.73	286.09
430.10	288.17
430.47	290.22
430.85	292.36
431.22	294.58
431.59	296.92
431.96	299.14
432.33	301.66
432.70	304.05
433.08	306.90
433.45	309.51
433.82	312.15
434.19	315.03
434.56	317.84
434.93	320.53
435.30	323.21
435.68	326.07
436.05	328.93
436.42	331.72
436.79	334.22
437.16	336.96
437.53	339.83
437.90	342.66
438.27	345.42
438.64	348.19
439.01	350.80
439.38	353.12
439.75	355.36
440.13	357.83
440.50	360.15
440.87	362.01
441.24	364.06
441.61	366.24
441.98	367.77
442.35	369.55
442.72	371.42
443.09	373.19
443.46	374.20
443.83	374.75
444.20	375.27
444.57	376.16
444.94	376.41
445.31	376.75
445.68	377.10
446.05	377.16
446.42	376.85
446.79	376.48
447.16	376.02
447.53	375.73
447.90	374.58
448.27	373.45
448.64	371.85
449.01	370.68
449.37	368.67
449.74	366.75
450.11	364.51
450.48	362.04
450.85	359.53
451.22	357.41
451.59	355.44
451.96	353.50
452.33	350.89
452.70	348.59
453.07	345.75
453.43	342.80
453.80	340.05
454.17	337.34
454.54	334.77
454.91	332.04
455.28	329.31
455.65	326.83
456.02	324.36
456.38	322.23
456.75	319.52
457.12	317.29
457.49	315.09
457.86	312.92
458.23	311.09
458.59	309.01
458.96	306.94
459.33	305.06
459.70	303.22
460.07	301.70
460.43	299.94
460.80	298.30
461.17	296.88
461.54	295.37
461.91	293.95
462.27	292.50
462.64	291.23
463.01	289.86
463.38	288.56
463.74	287.20
464.11	285.99
464.48	284.95
464.85	283.81
465.21	282.89
465.58	281.98
465.95	280.86
466.32	279.98
466.68	279.02
467.05	278.12
467.42	277.17
467.78	276.19
468.15	275.29
468.52	274.62
468.88	273.75
469.25	272.97
469.62	272.30
469.98	271.60
470.35	270.93
470.72	270.35
471.08	269.64
471.45	269.08
471.82	268.58
472.18	267.98
472.55	267.52
472.92	266.99
473.28	266.51
473.65	266.03
474.02	265.55
474.38	265.19
474.75	264.86
475.11	264.54
475.48	264.30
475.85	264.09
476.21	263.84
476.58	263.63
476.94	263.44
477.31	263.26
477.67	263.12
478.04	262.97
478.41	262.84
478.77	262.85
479.14	262.76
479.50	262.75
479.87	262.81
480.23	262.89
480.60	262.95
480.96	263.02
481.33	263.22
481.69	263.42
482.06	263.56
482.42	263.72
482.79	263.95
483.15	264.21
483.52	264.55
483.88	264.88
484.25	265.28
484.61	265.72
484.98	266.18
485.34	266.72
485.71	267.35
486.07	267.95
486.44	268.56
486.80	269.26
487.17	269.96
487.53	270.80
487.90	271.62
488.26	272.54
488.62	273.53
488.99	274.50
489.35	275.54
489.72	276.67
490.08	277.92
490.44	279.14
490.81	280.50
491.17	281.82
491.54	283.31
491.90	284.79
492.26	286.47
492.63	288.18
492.99	289.96
493.36	291.85
493.72	293.93
494.08	296.00
494.45	298.24
494.81	300.58
495.17	303.00
495.54	305.57
495.90	308.27
496.26	311.06
496.63	313.98
496.99	317.09
497.35	320.36
497.72	323.74
498.08	327.26
498.44	330.88
498.80	334.80
499.17	338.84
499.53	343.03
499.89	347.35
500.26	351.85
500.62	356.46
500.98	361.38
501.34	366.41
501.71	371.72
502.07	377.17
502.43	382.76
502.79	388.52
503.16	394.59
503.52	400.88
503.88	407.25
504.24	413.90
504.60	420.74
504.97	427.82
505.33	435.12
505.69	442.80
506.05	450.58
506.41	458.46
506.78	466.58
507.14	475.03
507.50	483.75
507.86	492.74
508.22	501.95
508.59	511.15
508.95	520.74
509.31	530.53
509.67	540.62
510.03	550.94
510.39	561.50
510.75	572.30
511.12	583.17
511.48	594.43
511.84	605.84
512.20	617.39
512.56	629.30
512.92	641.41
513.28	653.69
513.64	666.20
514.00	678.98
514.37	691.94
514.73	704.97
515.09	718.00
515.45	731.30
515.81	744.91
516.17	758.86
516.53	772.94
516.89	787.10
517.25	801.30
517.61	815.76
517.97	830.18
518.33	844.65
518.69	859.50
519.05	874.56
519.41	889.84
519.77	905.37
520.13	920.93
520.49	936.41
520.85	951.96
521.21	967.74
521.57	983.98
521.93	999.91
522.29	1016.40
522.65	1032.75
523.01	1049.05
523.37	1065.15
523.73	1081.46
524.09	1097.65
524.45	1114.08
524.81	1130.68
525.17	1147.61
525.53	1164.65
525.89	1181.51
526.25	1198.33
526.61	1214.78
526.97	1231.48
527.33	1248.02
527.68	1264.74
528.04	1281.31
528.40	1298.02
528.76	1315.06
529.12	1331.71
529.48	1348.54
529.84	1364.70
530.20	1381.38
530.56	1398.44
530.91	1415.79
531.27	1432.62
531.63	1449.16
531.99	1465.86
532.35	1482.01
532.71	1497.90
533.07	1514.29
533.42	1530.28
533.78	1546.51
534.14	1562.87
534.50	1578.28
534.86	1594.25
535.21	1609.42
535.57	1625.53
535.93	1641.09
536.29	1655.98
536.65	1671.21
537.00	1686.13
537.36	1701.45
537.72	1715.99
538.08	1730.53
538.44	1744.51
538.79	1758.49
539.15	1772.35
539.51	1786.18
539.87	1800.61
540.22	1814.38
540.58	1828.28
540.94	1841.82
541.29	1854.72
541.65	1867.45
542.01	1880.93
542.37	1893.41
542.72	1905.90
543.08	1917.53
543.44	1929.89
543.79	1941.18
544.15	1952.22
544.51	1963.81
544.87	1974.83
545.22	1985.77
545.58	1995.93
545.94	2005.81
546.29	2015.75
546.65	2025.52
547.01	2034.76
547.36	2043.56
547.72	2052.13
548.07	2059.90
548.43	2068.11
548.79	2076.20
549.14	2083.92
549.50	2091.15
549.86	2098.92
550.21	2106.25
550.57	2113.55
550.92	2120.19
551.28	2127.44
551.64	2134.51
551.99	2141.00
552.35	2147.16
552.70	2153.25
553.06	2159.29
553.41	2165.62
553.77	2171.68
554.13	2177.79
554.48	2183.83
554.84	2189.10
555.19	2194.39
555.55	2199.53
555.90	2203.82
556.26	2208.55
556.61	2213.24
556.97	2217.46
557.32	2221.64
557.68	2225.72
558.03	2229.98
558.39	2233.72
558.74	2238.09
559.10	2241.87
559.45	2245.50
559.81	2249.83
560.16	2253.49
560.52	2256.72
560.87	2260.01
561.23	2262.58
561.58	2265.51
561.94	2268.00
562.29	2270.44
562.64	2273.14
563.00	2275.68
563.35	2279.13
563.71	2282.25
564.06	2285.27
564.42	2288.10
564.77	2290.14
565.12	2292.40
565.48	2294.21
565.83	2295.93
566.19	2297.14
566.54	2298.00
566.89	2299.11
567.25	2299.39
567.60	2300.91
567.96	2302.48
568.31	2303.36
568.66	2304.22
569.02	2304.73
569.37	2305.00
569.72	2305.79
570.08	2305.73
570.43	2305.50
570.78	2304.74
571.14	2303.04
571.49	2301.51
571.84	2300.91
572.20	2299.82
572.55	2298.61
572.90	2296.90
573.26	2295.27
573.61	2293.46
573.96	2291.48
574.31	2288.33
574.67	2285.26
575.02	2281.41
575.37	2277.82
575.72	2273.64
576.08	2270.38
576.43	2266.77
576.78	2262.91
577.13	2259.55
577.49	2256.28
577.84	2252.79
578.19	2248.97
578.54	2245.09
578.90	2240.67
579.25	2235.21
579.60	2230.04
579.95	2224.91
580.30	2219.84
580.66	2214.55
581.01	2209.55
581.36	2204.52
581.71	2200.07
582.06	2195.45
582.42	2190.72
582.77	2185.33
583.12	2180.70
583.47	2175.71
583.82	2170.52
584.17	2165.19
584.53	2159.66
584.88	2153.85
585.23	2147.91
585.58	2142.45
585.93	2137.08
586.28	2132.40
586.63	2127.10
586.98	2121.97
587.34	2117.15
587.69	2111.94
588.04	2106.61
588.39	2100.83
588.74	2094.24
589.09	2088.01
589.44	2081.10
589.79	2075.17
590.14	2069.48
590.49	2062.81
590.84	2056.36
591.19	2050.27
591.54	2043.72
591.89	2036.03
592.25	2029.19
592.60	2021.93
592.95	2014.15
593.30	2006.58
593.65	1998.76
594.00	1991.76
594.35	1984.50
594.70	1976.37
595.05	1969.17
595.40	1961.84
595.75	1954.29
596.10	1947.94
596.45	1941.03
596.80	1934.87
597.15	1928.10
597.50	1920.91
597.85	1914.48
598.19	1907.61
598.54	1900.54
598.89	1893.82
599.24	1887.99
599.59	1881.17
599.94	1874.86
600.29	1868.53
600.64	1862.01
600.99	1854.62
601.34	1847.56
601.69	1840.43
602.04	1833.57
602.39	1826.21
602.74	1819.44
603.08	1812.71
603.43	1806.02
603.78	1798.90
604.13	1791.60
604.48	1784.32
604.83	1777.37
605.18	1770.21
605.53	1762.20
605.87	1754.13
606.22	1746.89
606.57	1738.98
606.92	1731.68
607.27	1724.44
607.62	1717.42
607.96	1709.98
608.31	1703.33
608.66	1695.69
609.01	1688.10
609.36	1680.50
609.70	1672.51
610.05	1664.20
610.40	1656.40
610.75	1648.04
611.10	1640.37
611.44	1632.21
611.79	1624.16
612.14	1615.60
612.49	1606.58
612.83	1598.29
613.18	1590.32
613.53	1582.18
613.88	1573.60
614.22	1565.44
614.57	1557.03
614.92	1548.94
615.27	1541.47
615.61	1533.08
615.96	1525.22
616.31	1517.71
616.65	1510.43
617.00	1502.86
617.35	1495.36
617.70	1487.00
618.04	1478.52
618.39	1470.26
618.74	1462.63
619.08	1454.32
619.43	1446.73
619.78	1439.85
620.12	1432.70
620.47	1425.03
620.82	1416.83
621.16	1409.44
621.51	1401.78
621.85	1394.15
622.20	1385.81
622.55	1377.49
622.89	1369.73
623.24	1362.22
623.59	1354.83
623.93	1347.32
624.28	1340.07
624.62	1332.58
624.97	1325.54
625.32	1318.83
625.66	1311.79
626.01	1304.50
626.35	1297.09
626.70	1289.46
627.04	1281.72
627.39	1274.10
627.73	1266.82
628.08	1260.10
628.43	1252.77
628.77	1245.34
629.12	1237.85
629.46	1230.61
629.81	1223.34
630.15	1216.11
630.50	1208.65
630.84	1200.51
631.19	1192.60
631.53	1185.21
631.88	1177.67
632.22	1170.06
632.57	1162.80
632.91	1155.36
633.26	1148.00
633.60	1140.67
633.95	1133.58
634.29	1126.58
634.64	1119.83
634.98	1112.48
635.32	1105.26
635.67	1098.81
636.01	1092.25
636.36	1085.37
636.70	1078.99
637.05	1072.46
637.39	1066.09
637.73	1059.63
638.08	1053.89
638.42	1047.91
638.77	1041.45
639.11	1034.91
639.45	1028.68
639.80	1022.05
640.14	1015.63
640.49	1009.12
640.83	1002.80
641.17	996.51
641.52	990.25
641.86	983.92
642.20	978.19
642.55	972.00
642.89	965.55
643.23	959.07
643.58	953.39
643.92	947.13
644.26	940.99
644.61	934.99
644.95	929.01
645.29	922.31
645.64	915.60
645.98	909.35
646.32	903.59
646.66	897.52
647.01	891.74
647.35	886.18
647.69	880.40
648.04	874.96
648.38	869.34
648.72	863.25
649.06	857.13
649.41	851.20
649.75	845.17
650.09	839.18
650.43	833.35
650.78	827.24
651.12	821.36
651.46	815.64
651.80	809.85
652.14	804.40
652.49	799.07
652.83	793.87
653.17	788.14
653.51	782.42
653.85	777.01
654.20	771.37
654.54	765.34
654.88	759.64
655.22	753.79
655.56	748.06
655.90	742.70
656.25	737.50
656.59	732.21
656.93	727.15
657.27	722.03
657.61	716.68
657.95	711.50
658.29	706.44
658.64	701.26
658.98	696.06
659.32	690.61
659.66	685.46
660.00	680.18
660.34	675.30
660.68	670.38
661.02	665.36
661.36	660.64
661.70	656.07
662.05	651.69
662.39	647.37
662.73	642.90
663.07	638.59
663.41	634.08
663.75	629.55
664.09	625.04
664.43	620.67
664.77	616.55
665.11	612.36
665.45	608.26
665.79	604.19
666.13	600.04
666.47	595.93
666.81	591.74
667.15	587.70
667.49	583.86
667.83	580.01
668.17	576.11
668.51	572.14
668.85	568.20
669.19	564.48
669.53	560.67
669.87	556.87
670.21	553.21
670.55	549.70
670.89	546.31
671.23	542.94
671.57	539.50
671.91	536.02
672.25	532.60
672.58	529.12
672.92	525.74
673.26	522.64
673.60	519.53
673.94	516.45
674.28	513.50
674.62	510.52
674.96	507.47
675.30	504.58
675.64	501.61
675.97	498.89
676.31	495.94
676.65	493.02
676.99	490.31
677.33	487.50
677.67	484.63
678.01	481.59
678.34	478.58
678.68	475.71
679.02	472.89
679.36	470.14
679.70	467.45
680.04	464.71
680.37	461.82
680.71	459.10
681.05	456.50
681.39	453.84
681.73	451.21
682.06	448.68
682.40	446.15
682.74	443.71
683.08	441.19
683.42	438.62
683.75	436.16
684.09	433.66
684.43	431.22
684.77	428.83
685.10	426.52
685.44	424.27
685.78	422.01
686.12	419.82
686.45	417.57
686.79	415.32
687.13	413.17
687.46	411.05
687.80	408.90
688.14	406.74
688.48	404.69
688.81	402.47
689.15	400.40
689.49	398.31
689.82	396.24
690.16	394.13
690.50	392.21
690.83	390.26
691.17	388.29
691.51	386.38
691.84	384.54
692.18	382.64
692.52	380.65
692.85	378.73
693.19	376.83
693.52	375.03
693.86	373.19
694.20	371.43
694.53	369.62
694.87	367.78
695.21	366.04
695.54	364.19
695.88	362.49
696.21	360.73
696.55	359.05
696.88	357.36
697.22	355.76
697.56	354.13
697.89	352.50
698.23	350.87
698.56	349.24
698.90	347.65
699.23	345.98
699.57	344.42
699.90	342.83
700.24	341.31
700.58	339.72
700.91	338.22
701.25	336.77
701.58	335.43
701.92	334.09
702.25	332.66
702.59	331.33
702.92	330.04
703.26	328.80
703.59	327.51
703.93	326.37
704.26	325.13
704.60	323.86
704.93	322.60
705.26	321.34
705.60	320.22
705.93	319.04
706.27	318.02
706.60	316.98
706.94	315.95
707.27	314.83
707.61	313.79
707.94	312.81
708.27	311.73
708.61	310.63
708.94	309.64
709.28	308.69
709.61	307.71
709.94	306.74
710.28	305.71
710.61	304.71
710.95	303.63
711.28	302.77
711.61	301.78
711.95	300.89
712.28	299.96
712.61	298.97
712.95	298.08
713.28	297.23
713.61	296.32
713.95	295.47
714.28	294.62
714.61	293.79
714.95	292.91
715.28	292.05
715.61	291.19
715.95	290.34
716.28	289.48
716.61	288.63
716.95	287.83
717.28	287.09
717.61	286.34
717.94	285.60
718.28	284.71
718.61	284.00
718.94	283.31
719.27	282.65
719.61	281.98
719.94	281.34
720.27	280.59
720.60	279.98
720.94	279.32
721.27	278.76
721.60	278.12
721.93	277.56
722.27	276.98
722.60	276.45
722.93	275.86
723.26	275.35
723.59	274.82
723.93	274.24
724.26	273.68
724.59	273.16
724.92	272.64
725.25	272.19
725.59	271.69
725.92	271.14
726.25	270.64
726.58	270.17
726.91	269.62
727.24	269.19
727.57	268.69
727.91	268.18
728.24	267.69
728.57	267.25
728.90	266.79
729.23	266.33
729.56	265.87
729.89	265.43
730.22	264.94
730.55	264.48
730.89	264.06
731.22	263.65
731.55	263.20
731.88	262.75
732.21	262.30
732.54	261.88
732.87	261.46
733.20	261.05
733.53	260.67
733.86	260.32
734.19	259.92
734.52	259.55
734.85	259.29
735.18	258.91
735.51	258.55
735.84	258.15
736.17	257.84
736.50	257.44
736.83	257.22
737.16	256.88
737.49	256.54
737.82	256.20
738.15	255.85
738.48	255.53
738.81	255.23
739.14	254.88
739.47	254.56
739.80	254.28
740.13	253.96
740.46	253.61
740.79	253.26
741.12	252.95
741.45	252.63
741.78	252.27
742.11	251.97
742.44	251.65
742.77	251.35
743.10	251.03
743.43	250.73
743.75	250.33
744.08	250.19
744.41	249.92
744.74	249.63
745.07	249.35
745.40	249.08
745.73	248.83
746.06	248.57
746.39	248.32
746.71	248.03
747.04	247.77
747.37	247.54
747.70	247.31
748.03	247.05
748.36	246.85
748.68	246.62
749.01	246.37
749.34	246.14
749.67	245.96
750.00	245.72
750.33	245.55
750.65	245.32
750.98	244.97
751.31	244.75
751.64	244.53
751.97	244.36
752.29	244.12
752.62	243.85
752.95	243.64
753.28	243.41
753.60	243.25
753.93	243.04
754.26	242.84
754.59	242.59
754.91	242.43
755.24	242.23
755.57	242.05
755.90	241.85
756.22	241.65
756.55	241.43
756.88	241.28
757.20	241.06
757.53	240.88
757.86	240.70
758.19	240.56
758.51	240.42
758.84	240.20
759.17	240.05
759.49	239.94
759.82	239.84
760.15	239.69
760.47	239.50
760.80	239.34
761.13	239.19
761.45	239.06
761.78	238.88
762.11	238.71
762.43	238.53
762.76	238.42
763.08	238.32
763.41	238.20
763.74	238.05
764.06	237.93
764.39	237.81
764.71	237.66
765.04	237.51
765.37	237.37
765.69	237.24
766.02	237.14
766.34	236.97
766.67	236.84
767.00	236.76
767.32	236.74
767.65	236.69
767.97	236.60
768.30	236.48
768.62	236.36
768.95	236.22
769.27	236.11
769.60	235.99
769.92	235.85
770.25	235.66
770.57	235.55
770.90	235.44
771.22	235.31
771.55	235.21
771.87	235.14
772.20	235.04
772.52	235.02
772.85	235.04
773.17	234.95
773.50	234.81
773.82	234.68
774.15	234.52
774.47	234.35
774.80	234.24
775.12	234.16
775.45	234.10
775.77	234.04
776.09	233.96
776.42	233.86
776.74	233.82
777.07	233.78
777.39	233.70
777.72	233.61
778.04	233.56
778.36	233.48
778.69	233.39
779.01	233.32
779.33	233.15
779.66	232.93
779.98	232.87
780.31	232.86
780.63	232.83
780.95	232.75
781.28	232.68
781.60	232.63
781.92	232.58
782.25	232.49
782.57	232.43
782.89	232.35
783.22	232.28
783.54	232.19
783.86	232.18
784.19	232.12
784.51	232.12
784.83	232.05
785.16	232.00
785.48	231.98
785.80	231.96
786.12	231.95
786.45	231.90
786.77	231.84
787.09	231.77
