SpectraSuite Data File
++++++++++++++++++++++++++++++++++++
Date: Fri Feb 01 15:34:14 EST 2013
User: group
Dark Spectrum Present: No
Reference Spectrum Present: No
Number of Sampled Component Spectra: 1
Spectrometers: USB2E7196
Integration Time (usec): 35000 (USB2E7196)
Spectra Averaged: 100 (USB2E7196)
Boxcar Smoothing: 10 (USB2E7196)
Correct for Electrical Dark: No (USB2E7196)
Strobe/Lamp Enabled: No (USB2E7196)
Correct for Detector Non-linearity: No (USB2E7196)
Correct for Stray Light: No (USB2E7196)
Number of Pixels in Processed Spectrum: 2048
>>>>>Begin Processed Spectral Data<<<<<
339.09	0.00
339.48	214.76
339.86	215.94
340.24	217.75
340.63	219.18
341.01	222.23
341.39	221.59
341.78	223.08
342.16	224.33
342.54	224.91
342.93	213.22
343.31	224.02
343.69	224.58
344.07	225.07
344.46	225.51
344.84	225.89
345.22	226.14
345.60	226.40
345.99	226.60
346.37	226.71
346.75	226.82
347.13	226.92
347.52	227.02
347.90	227.10
348.28	227.15
348.66	227.21
349.05	227.22
349.43	227.29
349.81	227.37
350.19	227.43
350.57	227.52
350.96	227.57
351.34	227.66
351.72	227.78
352.10	227.89
352.48	227.96
352.87	228.04
353.25	228.10
353.63	228.17
354.01	228.21
354.39	228.34
354.77	228.43
355.15	228.48
355.54	228.54
355.92	228.57
356.30	228.66
356.68	228.77
357.06	228.86
357.44	228.86
357.82	228.92
358.20	228.98
358.58	229.01
358.97	229.10
359.35	229.14
359.73	229.18
360.11	229.22
360.49	229.27
360.87	229.29
361.25	229.36
361.63	229.43
362.01	229.49
362.39	229.50
362.77	229.55
363.15	229.56
363.53	229.55
363.91	229.57
364.29	229.57
364.67	229.49
365.05	229.47
365.43	229.51
365.81	229.48
366.19	229.51
366.57	229.54
366.95	229.50
367.33	229.45
367.71	229.44
368.09	229.41
368.47	229.36
368.85	229.32
369.23	229.30
369.61	229.20
369.99	229.16
370.37	229.13
370.75	229.10
371.13	229.08
371.51	229.03
371.89	228.97
372.27	228.92
372.65	228.89
373.03	228.83
373.41	228.76
373.78	228.71
374.16	228.59
374.54	228.52
374.92	228.45
375.30	228.40
375.68	228.30
376.06	228.21
376.44	228.16
376.82	228.09
377.19	228.01
377.57	227.98
377.95	227.90
378.33	227.80
378.71	227.64
379.09	227.55
379.47	227.55
379.84	227.47
380.22	227.41
380.60	227.34
380.98	227.29
381.36	227.22
381.73	227.13
382.11	227.10
382.49	227.01
382.87	226.93
383.25	226.85
383.62	226.87
384.00	226.81
384.38	226.77
384.76	226.73
385.13	226.71
385.51	226.67
385.89	226.60
386.27	226.60
386.64	226.59
387.02	226.54
387.40	226.43
387.78	226.41
388.15	226.36
388.53	226.31
388.91	226.26
389.29	226.19
389.66	226.22
390.04	226.17
390.42	226.17
390.79	226.18
391.17	226.18
391.55	226.10
391.92	226.11
392.30	226.11
392.68	226.09
393.05	226.05
393.43	226.06
393.81	226.10
394.18	226.06
394.56	226.08
394.94	226.13
395.31	226.17
395.69	226.23
396.06	226.30
396.44	226.35
396.82	226.39
397.19	226.53
397.57	226.54
397.95	226.64
398.32	226.66
398.70	226.73
399.07	226.86
399.45	226.91
399.82	227.01
400.20	227.10
400.58	227.22
400.95	227.32
401.33	227.41
401.70	227.60
402.08	227.74
402.45	227.87
402.83	228.00
403.20	228.12
403.58	228.22
403.95	228.37
404.33	228.53
404.71	228.67
405.08	228.85
405.46	229.02
405.83	229.18
406.21	229.34
406.58	229.54
406.96	229.66
407.33	229.88
407.70	230.08
408.08	230.36
408.45	230.60
408.83	230.80
409.20	231.02
409.58	231.18
409.95	231.44
410.33	231.71
410.70	231.97
411.08	232.25
411.45	232.57
411.82	232.86
412.20	233.20
412.57	233.59
412.95	233.90
413.32	234.30
413.69	234.72
414.07	235.16
414.44	235.62
414.82	236.12
415.19	236.65
415.56	237.18
415.94	237.74
416.31	238.35
416.68	239.01
417.06	239.69
417.43	240.36
417.81	241.13
418.18	241.88
418.55	242.70
418.93	243.61
419.30	244.50
419.67	245.41
420.04	246.36
420.42	247.36
420.79	248.53
421.16	249.66
421.54	250.84
421.91	252.05
422.28	253.28
422.66	254.59
423.03	255.88
423.40	257.21
423.77	258.58
424.15	259.95
424.52	261.42
424.89	263.03
425.26	264.56
425.64	265.96
426.01	267.57
426.38	269.22
426.75	270.85
427.13	272.58
427.50	274.41
427.87	276.27
428.24	278.12
428.61	279.85
428.99	281.77
429.36	283.84
429.73	285.89
430.10	287.91
430.47	289.99
430.85	292.11
431.22	294.37
431.59	296.75
431.96	299.01
432.33	301.51
432.70	303.89
433.08	306.68
433.45	309.34
433.82	311.96
434.19	314.88
434.56	317.69
434.93	320.35
435.30	322.95
435.68	325.84
436.05	328.66
436.42	331.49
436.79	334.02
437.16	336.72
437.53	339.59
437.90	342.38
438.27	345.10
438.64	347.96
439.01	350.57
439.38	352.84
439.75	355.03
440.13	357.54
440.50	359.92
440.87	361.78
441.24	363.75
441.61	365.90
441.98	367.40
442.35	369.21
442.72	371.03
443.09	372.83
443.46	373.83
443.83	374.46
444.20	374.91
444.57	375.76
444.94	376.08
445.31	376.42
445.68	376.79
446.05	376.88
446.42	376.46
446.79	375.98
447.16	375.50
447.53	375.18
447.90	373.96
448.27	372.80
448.64	371.22
449.01	370.09
449.37	368.15
449.74	366.24
450.11	364.01
450.48	361.58
450.85	359.08
451.22	356.94
451.59	354.89
451.96	353.00
452.33	350.44
452.70	348.05
453.07	345.20
453.43	342.32
453.80	339.56
454.17	336.92
454.54	334.36
454.91	331.59
455.28	328.93
455.65	326.47
456.02	324.02
456.38	321.91
456.75	319.20
457.12	316.94
457.49	314.69
457.86	312.50
458.23	310.62
458.59	308.55
458.96	306.49
459.33	304.63
459.70	302.74
460.07	301.20
460.43	299.45
460.80	297.86
461.17	296.39
461.54	294.90
461.91	293.49
462.27	292.07
462.64	290.86
463.01	289.48
463.38	288.18
463.74	286.81
464.11	285.60
464.48	284.60
464.85	283.48
465.21	282.60
465.58	281.65
465.95	280.56
466.32	279.69
466.68	278.76
467.05	277.87
467.42	276.97
467.78	276.04
468.15	275.22
468.52	274.55
468.88	273.69
469.25	272.92
469.62	272.25
469.98	271.58
470.35	270.92
470.72	270.31
471.08	269.67
471.45	269.10
471.82	268.54
472.18	267.90
472.55	267.46
472.92	266.89
473.28	266.45
473.65	265.98
474.02	265.51
474.38	265.12
474.75	264.79
475.11	264.41
475.48	264.17
475.85	263.92
476.21	263.68
476.58	263.45
476.94	263.27
477.31	263.09
477.67	262.97
478.04	262.88
478.41	262.81
478.77	262.82
479.14	262.79
479.50	262.80
479.87	262.90
480.23	263.00
480.60	263.11
480.96	263.19
481.33	263.40
481.69	263.59
482.06	263.78
482.42	263.96
482.79	264.23
483.15	264.51
483.52	264.88
483.88	265.20
484.25	265.59
484.61	266.03
484.98	266.51
485.34	267.04
485.71	267.61
486.07	268.22
486.44	268.78
486.80	269.46
487.17	270.18
487.53	271.01
487.90	271.82
488.26	272.74
488.62	273.72
488.99	274.69
489.35	275.75
489.72	276.88
490.08	278.12
490.44	279.36
490.81	280.70
491.17	282.04
491.54	283.54
491.90	285.11
492.26	286.76
492.63	288.47
492.99	290.25
493.36	292.16
493.72	294.23
494.08	296.35
494.45	298.65
494.81	301.07
495.17	303.49
495.54	306.10
495.90	308.80
496.26	311.68
496.63	314.64
496.99	317.77
497.35	321.07
497.72	324.45
498.08	328.01
498.44	331.72
498.80	335.66
499.17	339.71
499.53	343.95
499.89	348.32
500.26	352.85
500.62	357.56
500.98	362.52
501.34	367.60
501.71	372.97
502.07	378.42
502.43	384.00
502.79	389.83
503.16	395.88
503.52	402.19
503.88	408.57
504.24	415.21
504.60	422.06
504.97	429.19
505.33	436.50
505.69	444.22
506.05	451.99
506.41	459.85
506.78	468.04
507.14	476.48
507.50	485.20
507.86	494.26
508.22	503.48
508.59	512.64
508.95	522.22
509.31	532.03
509.67	542.07
510.03	552.40
510.39	562.96
510.75	573.76
511.12	584.72
511.48	596.01
511.84	607.51
512.20	619.07
512.56	631.08
512.92	643.31
513.28	655.54
513.64	667.98
514.00	680.69
514.37	693.61
514.73	706.62
515.09	719.69
515.45	732.93
515.81	746.48
516.17	760.55
516.53	774.62
516.89	788.82
517.25	803.12
517.61	817.54
517.97	832.00
518.33	846.48
518.69	861.24
519.05	876.28
519.41	891.49
519.77	907.07
520.13	922.41
520.49	937.79
520.85	953.42
521.21	969.17
521.57	985.51
521.93	1001.33
522.29	1017.84
522.65	1034.19
523.01	1050.52
523.37	1066.65
523.73	1082.83
524.09	1098.91
524.45	1115.23
524.81	1131.84
525.17	1148.71
525.53	1165.58
525.89	1182.50
526.25	1199.32
526.61	1215.80
526.97	1232.57
527.33	1248.98
527.68	1265.70
528.04	1282.10
528.40	1298.69
528.76	1315.82
529.12	1332.33
529.48	1349.25
529.84	1365.25
530.20	1381.84
530.56	1398.83
530.91	1416.25
531.27	1433.16
531.63	1449.78
531.99	1466.41
532.35	1482.31
532.71	1498.13
533.07	1514.53
533.42	1530.49
533.78	1546.57
534.14	1562.81
534.50	1578.02
534.86	1593.97
535.21	1609.13
535.57	1625.26
535.93	1640.79
536.29	1655.57
536.65	1670.63
537.00	1685.45
537.36	1700.83
537.72	1715.34
538.08	1729.76
538.44	1743.46
538.79	1757.22
539.15	1770.96
539.51	1784.71
539.87	1799.12
540.22	1813.02
540.58	1826.89
540.94	1840.25
541.29	1853.38
541.65	1866.22
542.01	1879.65
542.37	1891.99
542.72	1904.41
543.08	1916.27
543.44	1928.74
543.79	1940.08
544.15	1951.16
544.51	1962.83
544.87	1973.80
545.22	1984.75
545.58	1995.06
545.94	2004.88
546.29	2014.80
546.65	2024.60
547.01	2033.92
547.36	2042.70
547.72	2051.11
548.07	2058.90
548.43	2067.10
548.79	2075.14
549.14	2082.53
549.50	2089.92
549.86	2097.76
550.21	2105.13
550.57	2112.24
550.92	2118.76
551.28	2125.83
551.64	2132.99
551.99	2139.50
552.35	2145.65
552.70	2151.89
553.06	2158.03
553.41	2164.49
553.77	2170.66
554.13	2176.72
554.48	2182.86
554.84	2188.31
555.19	2193.62
555.55	2198.84
555.90	2203.35
556.26	2208.09
556.61	2212.81
556.97	2217.00
557.32	2221.09
557.68	2225.35
558.03	2229.68
558.39	2233.46
558.74	2238.00
559.10	2241.83
559.45	2245.45
559.81	2249.80
560.16	2253.63
560.52	2256.81
560.87	2260.15
561.23	2262.82
561.58	2265.96
561.94	2268.41
562.29	2270.79
562.64	2273.43
563.00	2276.05
563.35	2279.54
563.71	2282.68
564.06	2285.94
564.42	2288.91
564.77	2291.29
565.12	2293.31
565.48	2295.26
565.83	2296.90
566.19	2298.18
566.54	2299.13
566.89	2300.18
567.25	2300.73
567.60	2301.91
567.96	2303.41
568.31	2304.23
568.66	2305.24
569.02	2305.59
569.37	2305.86
569.72	2306.56
570.08	2306.79
570.43	2306.68
570.78	2305.94
571.14	2304.35
571.49	2303.01
571.84	2302.52
572.20	2301.48
572.55	2300.58
572.90	2298.93
573.26	2297.65
573.61	2295.99
573.96	2294.06
574.31	2291.14
574.67	2288.07
575.02	2284.26
575.37	2280.86
575.72	2277.00
576.08	2273.69
576.43	2270.27
576.78	2266.56
577.13	2263.46
577.49	2260.33
577.84	2256.72
578.19	2252.93
578.54	2249.15
578.90	2244.66
579.25	2239.09
579.60	2233.98
579.95	2228.93
580.30	2223.89
580.66	2218.70
581.01	2213.72
581.36	2208.86
581.71	2204.54
582.06	2200.01
582.42	2195.58
582.77	2190.21
583.12	2185.65
583.47	2180.89
583.82	2175.91
584.17	2170.60
584.53	2165.08
584.88	2159.34
585.23	2153.61
585.58	2148.11
585.93	2142.69
586.28	2138.10
586.63	2132.97
586.98	2127.81
587.34	2123.20
587.69	2118.12
588.04	2112.68
588.39	2106.90
588.74	2100.28
589.09	2094.11
589.44	2087.33
589.79	2081.45
590.14	2075.92
590.49	2069.31
590.84	2062.85
591.19	2057.00
591.54	2050.50
591.89	2043.08
592.25	2036.24
592.60	2028.94
592.95	2021.31
593.30	2013.90
593.65	2006.20
594.00	1999.20
594.35	1991.99
594.70	1983.68
595.05	1976.47
595.40	1969.14
595.75	1961.68
596.10	1955.42
596.45	1948.59
596.80	1942.32
597.15	1935.49
597.50	1928.24
597.85	1921.77
598.19	1914.91
598.54	1907.57
598.89	1901.05
599.24	1895.05
599.59	1888.14
599.94	1882.02
600.29	1875.66
600.64	1868.92
600.99	1861.50
601.34	1854.56
601.69	1847.61
602.04	1840.74
602.39	1833.38
602.74	1826.51
603.08	1819.81
603.43	1813.06
603.78	1805.86
604.13	1798.63
604.48	1791.27
604.83	1784.46
605.18	1777.25
605.53	1769.26
605.87	1761.20
606.22	1753.83
606.57	1745.93
606.92	1738.75
607.27	1731.34
607.62	1724.38
607.96	1717.22
608.31	1710.48
608.66	1702.82
609.01	1695.11
609.36	1687.51
609.70	1679.43
610.05	1671.46
610.40	1663.53
610.75	1655.17
611.10	1647.44
611.44	1639.09
611.79	1631.13
612.14	1622.41
612.49	1613.39
612.83	1605.07
613.18	1596.87
613.53	1588.69
613.88	1580.15
614.22	1571.80
614.57	1563.30
614.92	1555.33
615.27	1547.70
615.61	1539.38
615.96	1531.46
616.31	1523.86
616.65	1516.45
617.00	1508.93
617.35	1501.24
617.70	1492.89
618.04	1484.39
618.39	1476.14
618.74	1468.37
619.08	1460.09
619.43	1452.50
619.78	1445.50
620.12	1438.14
620.47	1430.71
620.82	1422.58
621.16	1415.13
621.51	1407.51
621.85	1399.95
622.20	1391.39
622.55	1383.04
622.89	1375.20
623.24	1367.52
623.59	1360.12
623.93	1352.61
624.28	1345.35
624.62	1337.84
624.97	1330.74
625.32	1323.98
625.66	1317.01
626.01	1309.85
626.35	1302.19
626.70	1294.33
627.04	1286.70
627.39	1279.07
627.73	1271.60
628.08	1264.71
628.43	1257.39
628.77	1250.06
629.12	1242.36
629.46	1235.13
629.81	1227.75
630.15	1220.49
630.50	1213.04
630.84	1204.91
631.19	1196.94
631.53	1189.41
631.88	1181.84
632.22	1174.20
632.57	1167.03
632.91	1159.43
633.26	1152.04
633.60	1144.81
633.95	1137.90
634.29	1130.75
634.64	1124.03
634.98	1116.74
635.32	1109.62
635.67	1103.13
636.01	1096.46
636.36	1089.76
636.70	1083.27
637.05	1076.73
637.39	1070.26
637.73	1063.83
638.08	1057.92
638.42	1051.97
638.77	1045.52
639.11	1038.88
639.45	1032.50
639.80	1025.68
640.14	1019.19
640.49	1012.65
640.83	1006.34
641.17	999.98
641.52	993.66
641.86	987.25
642.20	981.41
642.55	975.04
642.89	968.46
643.23	961.94
643.58	956.08
643.92	949.84
644.26	943.67
644.61	937.65
644.95	931.54
645.29	924.87
645.64	918.15
645.98	911.86
646.32	906.01
646.66	900.01
647.01	894.23
647.35	888.55
647.69	882.76
648.04	877.26
648.38	871.47
648.72	865.52
649.06	859.53
649.41	853.59
649.75	847.62
650.09	841.68
650.43	835.84
650.78	829.77
651.12	823.82
651.46	818.10
651.80	812.36
652.14	806.96
652.49	801.60
652.83	796.44
653.17	790.76
653.51	785.03
653.85	779.63
654.20	773.98
654.54	768.02
654.88	762.26
655.22	756.31
655.56	750.71
655.90	745.24
656.25	739.99
656.59	734.64
656.93	729.57
657.27	724.40
657.61	719.01
657.95	713.80
658.29	708.75
658.64	703.51
658.98	698.24
659.32	692.77
659.66	687.62
660.00	682.25
660.34	677.28
660.68	672.44
661.02	667.41
661.36	662.69
661.70	658.17
662.05	653.87
662.39	649.59
662.73	645.14
663.07	640.83
663.41	636.31
663.75	631.81
664.09	627.26
664.43	622.95
664.77	618.82
665.11	614.64
665.45	610.51
665.79	606.45
666.13	602.29
666.47	598.27
666.81	594.12
667.15	589.96
667.49	586.06
667.83	582.28
668.17	578.36
668.51	574.31
668.85	570.30
669.19	566.41
669.53	562.61
669.87	558.69
670.21	554.98
670.55	551.41
670.89	548.01
671.23	544.57
671.57	541.03
671.91	537.56
672.25	534.11
672.58	530.67
672.92	527.33
673.26	524.23
673.60	521.05
673.94	518.00
674.28	515.26
674.62	512.34
674.96	509.13
675.30	506.24
675.64	503.30
675.97	500.59
676.31	497.77
676.65	494.79
676.99	492.07
677.33	489.18
677.67	486.35
678.01	483.30
678.34	480.30
678.68	477.44
679.02	474.57
679.36	471.80
679.70	469.03
680.04	466.20
680.37	463.33
680.71	460.55
681.05	457.89
681.39	455.08
681.73	452.37
682.06	449.91
682.40	447.36
682.74	444.83
683.08	442.25
683.42	439.59
683.75	437.13
684.09	434.59
684.43	432.18
684.77	429.72
685.10	427.41
685.44	425.16
685.78	422.86
686.12	420.60
686.45	418.28
686.79	415.99
687.13	413.83
687.46	411.68
687.80	409.51
688.14	407.31
688.48	405.28
688.81	403.04
689.15	400.90
689.49	398.76
689.82	396.71
690.16	394.64
690.50	392.71
690.83	390.73
691.17	388.77
691.51	386.81
691.84	384.95
692.18	382.98
692.52	380.98
692.85	379.10
693.19	377.23
693.52	375.46
693.86	373.61
694.20	371.83
694.53	370.01
694.87	368.13
695.21	366.35
695.54	364.52
695.88	362.82
696.21	361.06
696.55	359.36
696.88	357.66
697.22	355.99
697.56	354.34
697.89	352.70
698.23	351.04
698.56	349.46
698.90	347.86
699.23	346.21
699.57	344.65
699.90	343.04
700.24	341.51
700.58	339.93
700.91	338.47
701.25	337.00
701.58	335.60
701.92	334.23
702.25	332.82
702.59	331.46
702.92	330.14
703.26	328.84
703.59	327.54
703.93	326.35
704.26	325.11
704.60	323.84
704.93	322.57
705.26	321.34
705.60	320.16
705.93	319.02
706.27	317.96
706.60	316.91
706.94	315.84
707.27	314.72
707.61	313.67
707.94	312.64
708.27	311.52
708.61	310.46
708.94	309.45
709.28	308.49
709.61	307.52
709.94	306.58
710.28	305.52
710.61	304.55
710.95	303.50
711.28	302.58
711.61	301.61
711.95	300.71
712.28	299.76
712.61	298.79
712.95	297.87
713.28	297.03
713.61	296.15
713.95	295.27
714.28	294.43
714.61	293.56
714.95	292.71
715.28	291.89
715.61	290.99
715.95	290.16
716.28	289.32
716.61	288.51
716.95	287.72
717.28	287.04
717.61	286.29
717.94	285.55
718.28	284.77
718.61	284.10
718.94	283.41
719.27	282.76
719.61	282.13
719.94	281.47
720.27	280.76
720.60	280.08
720.94	279.48
721.27	278.88
721.60	278.30
721.93	277.69
722.27	277.14
722.60	276.68
722.93	276.08
723.26	275.55
723.59	274.98
723.93	274.43
724.26	273.85
724.59	273.30
724.92	272.78
725.25	272.28
725.59	271.74
725.92	271.23
726.25	270.72
726.58	270.21
726.91	269.72
727.24	269.24
727.57	268.75
727.91	268.23
728.24	267.75
728.57	267.26
728.90	266.85
729.23	266.36
729.56	265.88
729.89	265.45
730.22	264.97
730.55	264.50
730.89	264.05
731.22	263.60
731.55	263.17
731.88	262.73
732.21	262.28
732.54	261.80
732.87	261.38
733.20	260.98
733.53	260.60
733.86	260.22
734.19	259.85
734.52	259.47
734.85	259.15
735.18	258.75
735.51	258.40
735.84	258.04
736.17	257.68
736.50	257.27
736.83	257.02
737.16	256.67
737.49	256.33
737.82	255.98
738.15	255.66
738.48	255.30
738.81	254.98
739.14	254.66
739.47	254.37
739.80	254.05
740.13	253.73
740.46	253.39
740.79	253.02
741.12	252.68
741.45	252.39
741.78	252.02
742.11	251.73
742.44	251.41
742.77	251.12
743.10	250.82
743.43	250.52
743.75	250.13
744.08	249.99
744.41	249.75
744.74	249.46
745.07	249.17
745.40	248.94
745.73	248.69
746.06	248.42
746.39	248.14
746.71	247.86
747.04	247.58
747.37	247.33
747.70	247.10
748.03	246.87
748.36	246.64
748.68	246.42
749.01	246.20
749.34	245.96
749.67	245.71
750.00	245.48
750.33	245.34
750.65	245.17
750.98	244.85
751.31	244.64
751.64	244.47
751.97	244.31
752.29	244.11
752.62	243.87
752.95	243.65
753.28	243.48
753.60	243.27
753.93	243.12
754.26	242.96
754.59	242.77
754.91	242.55
755.24	242.34
755.57	242.16
755.90	241.98
756.22	241.81
756.55	241.63
756.88	241.45
757.20	241.21
757.53	241.02
757.86	240.84
758.19	240.70
758.51	240.50
758.84	240.29
759.17	240.11
759.49	239.99
759.82	239.89
760.15	239.74
760.47	239.62
760.80	239.43
761.13	239.28
761.45	239.12
761.78	239.01
762.11	238.90
762.43	238.76
762.76	238.62
763.08	238.48
763.41	238.35
763.74	238.22
764.06	238.09
764.39	237.91
764.71	237.77
765.04	237.60
765.37	237.45
765.69	237.32
766.02	237.21
766.34	237.01
766.67	236.87
767.00	236.79
767.32	236.72
767.65	236.67
767.97	236.57
768.30	236.45
768.62	236.34
768.95	236.19
769.27	236.08
769.60	235.96
769.92	235.84
770.25	235.71
770.57	235.59
770.90	235.47
771.22	235.35
771.55	235.25
771.87	235.17
772.20	235.08
772.52	235.08
772.85	235.09
773.17	235.04
773.50	234.92
773.82	234.82
774.15	234.64
774.47	234.50
774.80	234.39
775.12	234.28
775.45	234.18
775.77	234.08
776.09	233.97
776.42	233.89
776.74	233.83
777.07	233.74
777.39	233.69
777.72	233.59
778.04	233.55
778.36	233.46
778.69	233.40
779.01	233.30
779.33	233.13
779.66	232.96
779.98	232.86
780.31	232.78
780.63	232.72
780.95	232.70
781.28	232.61
781.60	232.50
781.92	232.48
782.25	232.42
782.57	232.36
782.89	232.30
783.22	232.20
783.54	232.11
783.86	232.05
784.19	231.96
784.51	231.95
784.83	231.86
785.16	231.80
785.48	231.74
785.80	231.71
786.12	231.68
786.45	231.58
786.77	231.57
787.09	231.49
