SpectraSuite Data File
++++++++++++++++++++++++++++++++++++
Date: Fri Feb 01 16:03:21 EST 2013
User: group
Dark Spectrum Present: No
Reference Spectrum Present: No
Number of Sampled Component Spectra: 1
Spectrometers: USB2E7196
Integration Time (usec): 35000 (USB2E7196)
Spectra Averaged: 100 (USB2E7196)
Boxcar Smoothing: 10 (USB2E7196)
Correct for Electrical Dark: No (USB2E7196)
Strobe/Lamp Enabled: No (USB2E7196)
Correct for Detector Non-linearity: No (USB2E7196)
Correct for Stray Light: No (USB2E7196)
Number of Pixels in Processed Spectrum: 2048
>>>>>Begin Processed Spectral Data<<<<<
339.09	0.00
339.48	214.61
339.86	215.90
340.24	217.52
340.63	219.49
341.01	222.09
341.39	221.71
341.78	223.16
342.16	224.43
342.54	224.41
342.93	213.07
343.31	223.82
343.69	224.36
344.07	224.85
344.46	225.30
344.84	225.65
345.22	225.85
345.60	226.10
345.99	226.28
346.37	226.40
346.75	226.53
347.13	226.60
347.52	226.70
347.90	226.78
348.28	226.82
348.66	226.87
349.05	226.85
349.43	226.90
349.81	226.92
350.19	226.97
350.57	227.04
350.96	227.08
351.34	227.18
351.72	227.28
352.10	227.37
352.48	227.43
352.87	227.46
353.25	227.55
353.63	227.63
354.01	227.71
354.39	227.79
354.77	227.83
355.15	227.92
355.54	227.97
355.92	228.00
356.30	228.10
356.68	228.21
357.06	228.32
357.44	228.38
357.82	228.43
358.20	228.52
358.58	228.57
358.97	228.65
359.35	228.73
359.73	228.80
360.11	228.89
360.49	228.92
360.87	229.00
361.25	229.03
361.63	229.08
362.01	229.11
362.39	229.12
362.77	229.16
363.15	229.18
363.53	229.21
363.91	229.24
364.29	229.29
364.67	229.24
365.05	229.26
365.43	229.25
365.81	229.27
366.19	229.30
366.57	229.35
366.95	229.34
367.33	229.29
367.71	229.27
368.09	229.21
368.47	229.18
368.85	229.16
369.23	229.16
369.61	229.11
369.99	229.11
370.37	229.13
370.75	229.15
371.13	229.10
371.51	229.04
371.89	229.02
372.27	228.95
372.65	228.90
373.03	228.83
373.41	228.79
373.78	228.71
374.16	228.61
374.54	228.53
374.92	228.42
375.30	228.34
375.68	228.28
376.06	228.25
376.44	228.20
376.82	228.14
377.19	228.09
377.57	228.03
377.95	227.96
378.33	227.86
378.71	227.77
379.09	227.71
379.47	227.66
379.84	227.58
380.22	227.49
380.60	227.39
380.98	227.32
381.36	227.23
381.73	227.17
382.11	227.11
382.49	227.05
382.87	227.00
383.25	226.96
383.62	227.01
384.00	226.94
384.38	226.87
384.76	226.84
385.13	226.82
385.51	226.75
385.89	226.67
386.27	226.58
386.64	226.53
387.02	226.51
387.40	226.43
387.78	226.39
388.15	226.40
388.53	226.38
388.91	226.35
389.29	226.38
389.66	226.39
390.04	226.34
390.42	226.32
390.79	226.34
391.17	226.31
391.55	226.18
391.92	226.14
392.30	226.19
392.68	226.18
393.05	226.16
393.43	226.16
393.81	226.17
394.18	226.20
394.56	226.20
394.94	226.23
395.31	226.26
395.69	226.29
396.06	226.30
396.44	226.33
396.82	226.32
397.19	226.40
397.57	226.40
397.95	226.48
398.32	226.49
398.70	226.54
399.07	226.68
399.45	226.74
399.82	226.80
400.20	226.80
400.58	226.88
400.95	226.92
401.33	227.01
401.70	227.14
402.08	227.22
402.45	227.30
402.83	227.40
403.20	227.51
403.58	227.64
403.95	227.77
404.33	227.92
404.71	228.09
405.08	228.25
405.46	228.38
405.83	228.53
406.21	228.71
406.58	228.87
406.96	228.99
407.33	229.17
407.70	229.36
408.08	229.65
408.45	229.80
408.83	230.03
409.20	230.25
409.58	230.43
409.95	230.67
410.33	230.96
410.70	231.24
411.08	231.55
411.45	231.84
411.82	232.13
412.20	232.44
412.57	232.86
412.95	233.13
413.32	233.56
413.69	234.00
414.07	234.40
414.44	234.85
414.82	235.31
415.19	235.87
415.56	236.41
415.94	236.95
416.31	237.64
416.68	238.29
417.06	239.00
417.43	239.70
417.81	240.49
418.18	241.24
418.55	242.05
418.93	242.91
419.30	243.81
419.67	244.78
420.04	245.75
420.42	246.73
420.79	247.94
421.16	249.10
421.54	250.24
421.91	251.51
422.28	252.78
422.66	254.10
423.03	255.41
423.40	256.78
423.77	258.21
424.15	259.64
424.52	261.13
424.89	262.75
425.26	264.32
425.64	265.80
426.01	267.43
426.38	269.09
426.75	270.75
427.13	272.48
427.50	274.26
427.87	276.14
428.24	277.98
428.61	279.73
428.99	281.66
429.36	283.80
429.73	285.83
430.10	287.86
430.47	289.94
430.85	292.07
431.22	294.28
431.59	296.62
431.96	298.89
432.33	301.33
432.70	303.70
433.08	306.55
433.45	309.16
433.82	311.73
434.19	314.61
434.56	317.41
434.93	320.07
435.30	322.71
435.68	325.63
436.05	328.48
436.42	331.26
436.79	333.79
437.16	336.51
437.53	339.38
437.90	342.19
438.27	344.94
438.64	347.75
439.01	350.37
439.38	352.60
439.75	354.75
440.13	357.26
440.50	359.60
440.87	361.39
441.24	363.34
441.61	365.52
441.98	366.98
442.35	368.79
442.72	370.59
443.09	372.38
443.46	373.33
443.83	373.91
444.20	374.37
444.57	375.22
444.94	375.46
445.31	375.77
445.68	376.12
446.05	376.18
446.42	375.78
446.79	375.36
447.16	374.90
447.53	374.55
447.90	373.42
448.27	372.26
448.64	370.67
449.01	369.54
449.37	367.55
449.74	365.69
450.11	363.41
450.48	360.99
450.85	358.42
451.22	356.29
451.59	354.27
451.96	352.35
452.33	349.67
452.70	347.30
453.07	344.44
453.43	341.50
453.80	338.72
454.17	336.04
454.54	333.48
454.91	330.77
455.28	328.08
455.65	325.57
456.02	323.09
456.38	320.98
456.75	318.32
457.12	316.07
457.49	313.85
457.86	311.73
458.23	309.87
458.59	307.85
458.96	305.74
459.33	303.89
459.70	302.02
460.07	300.54
460.43	298.83
460.80	297.21
461.17	295.79
461.54	294.31
461.91	292.90
462.27	291.50
462.64	290.27
463.01	288.94
463.38	287.62
463.74	286.28
464.11	285.14
464.48	284.12
464.85	282.99
465.21	282.14
465.58	281.19
465.95	280.09
466.32	279.16
466.68	278.31
467.05	277.42
467.42	276.57
467.78	275.66
468.15	274.79
468.52	274.14
468.88	273.29
469.25	272.49
469.62	271.84
469.98	271.11
470.35	270.45
470.72	269.87
471.08	269.24
471.45	268.72
471.82	268.13
472.18	267.48
472.55	267.07
472.92	266.56
473.28	266.15
473.65	265.67
474.02	265.23
474.38	264.85
474.75	264.50
475.11	264.15
475.48	263.90
475.85	263.69
476.21	263.45
476.58	263.30
476.94	263.19
477.31	263.04
477.67	262.94
478.04	262.86
478.41	262.78
478.77	262.83
479.14	262.76
479.50	262.79
479.87	262.90
480.23	263.00
480.60	263.03
480.96	263.11
481.33	263.33
481.69	263.56
482.06	263.74
482.42	263.94
482.79	264.18
483.15	264.51
483.52	264.85
483.88	265.21
484.25	265.59
484.61	266.01
484.98	266.48
485.34	267.03
485.71	267.59
486.07	268.21
486.44	268.79
486.80	269.51
487.17	270.25
487.53	271.06
487.90	271.92
488.26	272.89
488.62	273.85
488.99	274.84
489.35	275.90
489.72	277.06
490.08	278.30
490.44	279.55
490.81	280.90
491.17	282.27
491.54	283.76
491.90	285.27
492.26	286.93
492.63	288.64
492.99	290.42
493.36	292.33
493.72	294.41
494.08	296.53
494.45	298.79
494.81	301.19
495.17	303.65
495.54	306.23
495.90	308.90
496.26	311.72
496.63	314.70
496.99	317.80
497.35	321.08
497.72	324.51
498.08	328.06
498.44	331.71
498.80	335.67
499.17	339.71
499.53	343.92
499.89	348.30
500.26	352.84
500.62	357.53
500.98	362.53
501.34	367.56
501.71	372.84
502.07	378.23
502.43	383.78
502.79	389.58
503.16	395.60
503.52	401.85
503.88	408.26
504.24	414.84
504.60	421.77
504.97	428.90
505.33	436.22
505.69	443.85
506.05	451.64
506.41	459.51
506.78	467.69
507.14	476.18
507.50	484.88
507.86	493.87
508.22	503.07
508.59	512.29
508.95	521.94
509.31	531.77
509.67	541.93
510.03	552.27
510.39	562.82
510.75	573.70
511.12	584.70
511.48	596.01
511.84	607.54
512.20	619.06
512.56	631.02
512.92	643.24
513.28	655.61
513.64	668.08
514.00	680.75
514.37	693.76
514.73	706.75
515.09	719.79
515.45	733.10
515.81	746.71
516.17	760.72
516.53	774.87
516.89	789.06
517.25	803.26
517.61	817.69
517.97	832.25
518.33	846.67
518.69	861.41
519.05	876.39
519.41	891.56
519.77	907.13
520.13	922.48
520.49	937.85
520.85	953.21
521.21	968.90
521.57	985.08
521.93	1000.79
522.29	1017.22
522.65	1033.39
523.01	1049.72
523.37	1065.79
523.73	1081.88
524.09	1097.92
524.45	1114.18
524.81	1130.79
525.17	1147.61
525.53	1164.37
525.89	1181.18
526.25	1198.01
526.61	1214.34
526.97	1231.09
527.33	1247.47
527.68	1264.11
528.04	1280.55
528.40	1297.22
528.76	1314.27
529.12	1330.90
529.48	1347.70
529.84	1363.62
530.20	1380.26
530.56	1397.12
530.91	1414.35
531.27	1430.97
531.63	1447.47
531.99	1464.08
532.35	1479.93
532.71	1495.72
533.07	1511.99
533.42	1527.81
533.78	1543.96
534.14	1560.19
534.50	1575.45
534.86	1591.39
535.21	1606.69
535.57	1622.57
535.93	1638.11
536.29	1652.84
536.65	1667.84
537.00	1682.60
537.36	1697.90
537.72	1712.43
538.08	1726.68
538.44	1740.50
538.79	1754.46
539.15	1768.03
539.51	1781.81
539.87	1796.07
540.22	1809.79
540.58	1823.37
540.94	1836.74
541.29	1849.41
541.65	1862.17
542.01	1875.35
542.37	1887.58
542.72	1899.76
543.08	1911.48
543.44	1923.77
543.79	1935.07
544.15	1945.99
544.51	1957.57
544.87	1968.69
545.22	1979.53
545.58	1989.82
545.94	1999.48
546.29	2009.30
546.65	2019.15
547.01	2028.30
547.36	2037.11
547.72	2045.51
548.07	2053.46
548.43	2061.67
548.79	2069.75
549.14	2077.09
549.50	2084.47
549.86	2092.05
550.21	2099.49
550.57	2106.53
550.92	2113.05
551.28	2120.01
551.64	2127.24
551.99	2133.67
552.35	2139.66
552.70	2145.69
553.06	2151.73
553.41	2158.20
553.77	2164.36
554.13	2170.36
554.48	2176.50
554.84	2181.82
555.19	2187.13
555.55	2192.32
555.90	2196.81
556.26	2201.61
556.61	2206.42
556.97	2210.47
557.32	2214.59
557.68	2218.69
558.03	2223.05
558.39	2226.77
558.74	2231.44
559.10	2235.34
559.45	2239.03
559.81	2243.35
560.16	2247.22
560.52	2250.36
560.87	2253.75
561.23	2256.32
561.58	2259.36
561.94	2261.74
562.29	2264.24
562.64	2266.94
563.00	2269.51
563.35	2273.00
563.71	2276.20
564.06	2279.50
564.42	2282.37
564.77	2284.79
565.12	2287.01
565.48	2288.92
565.83	2290.78
566.19	2292.12
566.54	2292.86
566.89	2294.08
567.25	2294.68
567.60	2295.97
567.96	2297.75
568.31	2298.60
568.66	2299.68
569.02	2300.24
569.37	2300.67
569.72	2301.60
570.08	2301.69
570.43	2301.71
570.78	2300.99
571.14	2299.48
571.49	2298.19
571.84	2298.01
572.20	2297.00
572.55	2295.95
572.90	2294.43
573.26	2293.07
573.61	2291.37
573.96	2289.55
574.31	2286.50
574.67	2283.43
575.02	2279.97
575.37	2276.56
575.72	2272.52
576.08	2269.15
576.43	2265.82
576.78	2262.15
577.13	2258.99
577.49	2255.98
577.84	2252.59
578.19	2249.06
578.54	2245.35
578.90	2241.01
579.25	2235.33
579.60	2230.44
579.95	2225.55
580.30	2220.63
580.66	2215.50
581.01	2210.58
581.36	2205.86
581.71	2201.70
582.06	2197.25
582.42	2192.79
582.77	2187.61
583.12	2183.40
583.47	2178.72
583.82	2173.76
584.17	2168.48
584.53	2162.93
584.88	2157.34
585.23	2151.64
585.58	2146.10
585.93	2140.71
586.28	2135.97
586.63	2131.07
586.98	2126.05
587.34	2121.33
587.69	2116.35
588.04	2111.09
588.39	2105.41
588.74	2098.89
589.09	2092.80
589.44	2085.95
589.79	2079.95
590.14	2074.40
590.49	2067.71
590.84	2061.45
591.19	2055.34
591.54	2049.04
591.89	2041.62
592.25	2034.76
592.60	2027.40
592.95	2019.91
593.30	2012.54
593.65	2005.01
594.00	1998.12
594.35	1990.84
594.70	1982.77
595.05	1975.60
595.40	1968.42
595.75	1961.02
596.10	1954.84
596.45	1948.08
596.80	1942.11
597.15	1935.45
597.50	1928.26
597.85	1921.94
598.19	1915.24
598.54	1908.08
598.89	1901.39
599.24	1895.63
599.59	1889.01
599.94	1882.92
600.29	1876.51
600.64	1869.94
600.99	1862.50
601.34	1855.50
601.69	1848.53
602.04	1841.61
602.39	1834.28
602.74	1827.39
603.08	1820.49
603.43	1813.75
603.78	1806.41
604.13	1799.16
604.48	1791.85
604.83	1784.99
605.18	1777.89
605.53	1769.93
605.87	1761.98
606.22	1754.73
606.57	1746.80
606.92	1739.49
607.27	1732.25
607.62	1725.40
607.96	1718.07
608.31	1711.37
608.66	1703.78
609.01	1696.17
609.36	1688.60
609.70	1680.57
610.05	1672.46
610.40	1664.81
610.75	1656.41
611.10	1648.77
611.44	1640.30
611.79	1632.22
612.14	1623.48
612.49	1614.29
612.83	1605.84
613.18	1597.71
613.53	1589.63
613.88	1580.98
614.22	1572.66
614.57	1563.99
614.92	1555.88
615.27	1548.34
615.61	1540.00
615.96	1532.01
616.31	1524.38
616.65	1517.03
617.00	1509.47
617.35	1501.74
617.70	1493.34
618.04	1484.79
618.39	1476.54
618.74	1468.99
619.08	1460.72
619.43	1453.22
619.78	1446.35
620.12	1439.17
620.47	1431.67
620.82	1423.57
621.16	1416.18
621.51	1408.60
621.85	1400.93
622.20	1392.41
622.55	1384.03
622.89	1376.32
623.24	1368.67
623.59	1361.25
623.93	1353.76
624.28	1346.53
624.62	1339.06
624.97	1332.00
625.32	1325.36
625.66	1318.44
626.01	1311.18
626.35	1303.74
626.70	1295.97
627.04	1288.25
627.39	1280.48
627.73	1273.14
628.08	1266.10
628.43	1258.82
628.77	1251.36
629.12	1243.90
629.46	1236.70
629.81	1229.35
630.15	1221.97
630.50	1214.62
630.84	1206.48
631.19	1198.45
631.53	1190.99
631.88	1183.50
632.22	1175.84
632.57	1168.53
632.91	1160.92
633.26	1153.53
633.60	1146.18
633.95	1139.10
634.29	1132.12
634.64	1125.53
634.98	1118.16
635.32	1110.99
635.67	1104.39
636.01	1097.84
636.36	1090.94
636.70	1084.40
637.05	1077.83
637.39	1071.45
637.73	1064.85
638.08	1059.04
638.42	1053.07
638.77	1046.62
639.11	1039.90
639.45	1033.56
639.80	1026.92
640.14	1020.44
640.49	1014.00
640.83	1007.68
641.17	1001.39
641.52	995.00
641.86	988.40
642.20	982.36
642.55	976.15
642.89	969.62
643.23	963.09
643.58	957.35
643.92	951.22
644.26	945.15
644.61	939.12
644.95	933.07
645.29	926.41
645.64	919.65
645.98	913.28
646.32	907.50
646.66	901.41
647.01	895.52
647.35	889.87
647.69	883.93
648.04	878.44
648.38	872.70
648.72	866.65
649.06	860.63
649.41	854.85
649.75	848.86
650.09	842.94
650.43	837.12
650.78	830.88
651.12	824.89
651.46	819.18
651.80	813.39
652.14	808.06
652.49	802.68
652.83	797.56
653.17	791.84
653.51	786.11
653.85	780.75
654.20	775.12
654.54	769.08
654.88	763.37
655.22	757.36
655.56	751.63
655.90	746.26
656.25	741.04
656.59	735.70
656.93	730.58
657.27	725.41
657.61	719.96
657.95	714.95
658.29	709.82
658.64	704.50
658.98	699.18
659.32	693.68
659.66	688.42
660.00	683.07
660.34	678.15
660.68	673.21
661.02	668.17
661.36	663.39
661.70	658.91
662.05	654.56
662.39	650.20
662.73	645.66
663.07	641.27
663.41	636.78
663.75	632.27
664.09	627.76
664.43	623.35
664.77	619.16
665.11	614.86
665.45	610.79
665.79	606.67
666.13	602.49
666.47	598.45
666.81	594.37
667.15	590.25
667.49	586.36
667.83	582.55
668.17	578.56
668.51	574.53
668.85	570.52
669.19	566.63
669.53	562.85
669.87	559.03
670.21	555.30
670.55	551.65
670.89	548.29
671.23	544.81
671.57	541.28
671.91	537.84
672.25	534.32
672.58	530.75
672.92	527.40
673.26	524.26
673.60	521.07
673.94	517.93
674.28	515.06
674.62	512.11
674.96	509.03
675.30	506.15
675.64	503.20
675.97	500.41
676.31	497.54
676.65	494.64
676.99	491.95
677.33	489.10
677.67	486.29
678.01	483.17
678.34	480.17
678.68	477.34
679.02	474.45
679.36	471.78
679.70	469.09
680.04	466.37
680.37	463.50
680.71	460.74
681.05	458.14
681.39	455.41
681.73	452.78
682.06	450.21
682.40	447.64
682.74	445.15
683.08	442.63
683.42	440.07
683.75	437.56
684.09	434.98
684.43	432.47
684.77	430.00
685.10	427.68
685.44	425.38
685.78	423.10
686.12	420.90
686.45	418.61
686.79	416.24
687.13	413.99
687.46	411.84
687.80	409.69
688.14	407.50
688.48	405.43
688.81	403.17
689.15	401.02
689.49	398.90
689.82	396.79
690.16	394.70
690.50	392.72
690.83	390.79
691.17	388.80
691.51	386.92
691.84	385.11
692.18	383.17
692.52	381.17
692.85	379.22
693.19	377.33
693.52	375.51
693.86	373.79
694.20	372.04
694.53	370.23
694.87	368.38
695.21	366.53
695.54	364.72
695.88	362.95
696.21	361.23
696.55	359.52
696.88	357.83
697.22	356.17
697.56	354.53
697.89	352.87
698.23	351.28
698.56	349.67
698.90	348.07
699.23	346.43
699.57	344.89
699.90	343.33
700.24	341.82
700.58	340.25
700.91	338.74
701.25	337.27
701.58	335.92
701.92	334.54
702.25	333.19
702.59	331.83
702.92	330.52
703.26	329.20
703.59	327.93
703.93	326.73
704.26	325.51
704.60	324.22
704.93	322.93
705.26	321.67
705.60	320.49
705.93	319.31
706.27	318.25
706.60	317.23
706.94	316.15
707.27	314.96
707.61	313.90
707.94	312.84
708.27	311.75
708.61	310.62
708.94	309.60
709.28	308.62
709.61	307.60
709.94	306.65
710.28	305.66
710.61	304.62
710.95	303.64
711.28	302.70
711.61	301.76
711.95	300.89
712.28	299.96
712.61	299.00
712.95	298.09
713.28	297.23
713.61	296.34
713.95	295.44
714.28	294.63
714.61	293.77
714.95	292.97
715.28	292.14
715.61	291.30
715.95	290.45
716.28	289.58
716.61	288.81
716.95	288.00
717.28	287.26
717.61	286.56
717.94	285.77
718.28	284.94
718.61	284.22
718.94	283.51
719.27	282.81
719.61	282.13
719.94	281.50
720.27	280.75
720.60	280.08
720.94	279.48
721.27	278.87
721.60	278.30
721.93	277.68
722.27	277.11
722.60	276.53
722.93	275.99
723.26	275.48
723.59	274.86
723.93	274.30
724.26	273.70
724.59	273.13
724.92	272.61
725.25	272.16
725.59	271.60
725.92	271.12
726.25	270.64
726.58	270.19
726.91	269.67
727.24	269.21
727.57	268.70
727.91	268.17
728.24	267.70
728.57	267.21
728.90	266.77
729.23	266.27
729.56	265.86
729.89	265.38
730.22	264.88
730.55	264.43
730.89	264.01
731.22	263.57
731.55	263.14
731.88	262.71
732.21	262.24
732.54	261.81
732.87	261.31
733.20	260.87
733.53	260.45
733.86	260.03
734.19	259.64
734.52	259.32
734.85	259.02
735.18	258.60
735.51	258.24
735.84	257.82
736.17	257.46
736.50	257.09
736.83	256.87
737.16	256.52
737.49	256.19
737.82	255.83
738.15	255.50
738.48	255.14
738.81	254.80
739.14	254.50
739.47	254.19
739.80	253.90
740.13	253.60
740.46	253.26
740.79	252.95
741.12	252.64
741.45	252.26
741.78	251.86
742.11	251.53
742.44	251.19
742.77	250.90
743.10	250.61
743.43	250.29
743.75	249.84
744.08	249.69
744.41	249.42
744.74	249.12
745.07	248.84
745.40	248.59
745.73	248.36
746.06	248.06
746.39	247.81
746.71	247.51
747.04	247.27
747.37	247.03
747.70	246.77
748.03	246.52
748.36	246.32
748.68	246.09
749.01	245.88
749.34	245.64
749.67	245.42
750.00	245.16
750.33	244.97
750.65	244.81
750.98	244.47
751.31	244.23
751.64	244.07
751.97	243.91
752.29	243.72
752.62	243.49
752.95	243.31
753.28	243.10
753.60	242.93
753.93	242.75
754.26	242.56
754.59	242.35
754.91	242.15
755.24	241.94
755.57	241.78
755.90	241.59
756.22	241.42
756.55	241.24
756.88	241.05
757.20	240.84
757.53	240.60
757.86	240.45
758.19	240.33
758.51	240.17
758.84	239.97
759.17	239.81
759.49	239.67
759.82	239.53
760.15	239.39
760.47	239.28
760.80	239.12
761.13	238.99
761.45	238.88
761.78	238.75
762.11	238.63
762.43	238.48
762.76	238.37
763.08	238.27
763.41	238.13
763.74	238.01
764.06	237.87
764.39	237.75
764.71	237.61
765.04	237.46
765.37	237.30
765.69	237.17
766.02	237.01
766.34	236.87
766.67	236.71
767.00	236.54
767.32	236.45
767.65	236.38
767.97	236.22
768.30	236.10
768.62	235.98
768.95	235.85
769.27	235.74
769.60	235.61
769.92	235.45
770.25	235.32
770.57	235.20
770.90	235.12
771.22	234.99
771.55	234.90
771.87	234.82
772.20	234.75
772.52	234.75
772.85	234.79
773.17	234.68
773.50	234.59
773.82	234.51
774.15	234.38
774.47	234.21
774.80	234.13
775.12	234.01
775.45	233.90
775.77	233.78
776.09	233.69
776.42	233.62
776.74	233.57
777.07	233.48
777.39	233.40
777.72	233.33
778.04	233.30
778.36	233.20
778.69	233.13
779.01	233.04
779.33	232.86
779.66	232.69
779.98	232.61
780.31	232.54
780.63	232.51
780.95	232.42
781.28	232.35
781.60	232.27
781.92	232.21
782.25	232.15
782.57	232.09
782.89	232.02
783.22	231.95
783.54	231.87
783.86	231.82
784.19	231.77
784.51	231.69
784.83	231.61
785.16	231.55
785.48	231.46
785.80	231.41
786.12	231.35
786.45	231.28
786.77	231.24
787.09	231.22
