SpectraSuite Data File
++++++++++++++++++++++++++++++++++++
Date: Fri Feb 01 15:23:00 EST 2013
User: group
Dark Spectrum Present: No
Reference Spectrum Present: No
Number of Sampled Component Spectra: 1
Spectrometers: USB2E7196
Integration Time (usec): 35000 (USB2E7196)
Spectra Averaged: 100 (USB2E7196)
Boxcar Smoothing: 10 (USB2E7196)
Correct for Electrical Dark: No (USB2E7196)
Strobe/Lamp Enabled: No (USB2E7196)
Correct for Detector Non-linearity: No (USB2E7196)
Correct for Stray Light: No (USB2E7196)
Number of Pixels in Processed Spectrum: 2048
>>>>>Begin Processed Spectral Data<<<<<
339.09	0.00
339.48	215.12
339.86	216.66
340.24	217.96
340.63	219.65
341.01	222.62
341.39	222.31
341.78	223.43
342.16	224.68
342.54	225.33
342.93	213.62
343.31	224.43
343.69	224.98
344.07	225.44
344.46	225.87
344.84	226.24
345.22	226.48
345.60	226.73
345.99	226.90
346.37	227.05
346.75	227.15
347.13	227.23
347.52	227.29
347.90	227.40
348.28	227.43
348.66	227.47
349.05	227.44
349.43	227.48
349.81	227.55
350.19	227.61
350.57	227.65
350.96	227.73
351.34	227.78
351.72	227.86
352.10	227.94
352.48	228.02
352.87	228.06
353.25	228.08
353.63	228.12
354.01	228.20
354.39	228.25
354.77	228.31
355.15	228.40
355.54	228.46
355.92	228.42
356.30	228.48
356.68	228.59
357.06	228.66
357.44	228.72
357.82	228.73
358.20	228.80
358.58	228.89
358.97	228.94
359.35	229.00
359.73	229.06
360.11	229.11
360.49	229.16
360.87	229.18
361.25	229.25
361.63	229.32
362.01	229.33
362.39	229.36
362.77	229.39
363.15	229.37
363.53	229.37
363.91	229.40
364.29	229.43
364.67	229.36
365.05	229.35
365.43	229.36
365.81	229.38
366.19	229.38
366.57	229.40
366.95	229.38
367.33	229.36
367.71	229.34
368.09	229.35
368.47	229.32
368.85	229.31
369.23	229.29
369.61	229.23
369.99	229.23
370.37	229.18
370.75	229.20
371.13	229.16
371.51	229.10
371.89	229.07
372.27	229.03
372.65	228.95
373.03	228.92
373.41	228.84
373.78	228.79
374.16	228.72
374.54	228.61
374.92	228.55
375.30	228.47
375.68	228.37
376.06	228.31
376.44	228.26
376.82	228.21
377.19	228.13
377.57	228.05
377.95	227.98
378.33	227.93
378.71	227.81
379.09	227.75
379.47	227.68
379.84	227.58
380.22	227.50
380.60	227.41
380.98	227.34
381.36	227.28
381.73	227.20
382.11	227.12
382.49	227.07
382.87	227.02
383.25	226.97
383.62	227.03
384.00	226.91
384.38	226.82
384.76	226.80
385.13	226.78
385.51	226.76
385.89	226.68
386.27	226.65
386.64	226.62
387.02	226.58
387.40	226.55
387.78	226.52
388.15	226.50
388.53	226.49
388.91	226.43
389.29	226.39
389.66	226.37
390.04	226.35
390.42	226.34
390.79	226.34
391.17	226.32
391.55	226.22
391.92	226.25
392.30	226.29
392.68	226.27
393.05	226.27
393.43	226.27
393.81	226.31
394.18	226.32
394.56	226.34
394.94	226.40
395.31	226.42
395.69	226.50
396.06	226.54
396.44	226.62
396.82	226.67
397.19	226.76
397.57	226.81
397.95	226.87
398.32	226.91
398.70	226.97
399.07	227.07
399.45	227.15
399.82	227.20
400.20	227.24
400.58	227.35
400.95	227.41
401.33	227.53
401.70	227.65
402.08	227.72
402.45	227.82
402.83	227.90
403.20	228.04
403.58	228.14
403.95	228.28
404.33	228.38
404.71	228.54
405.08	228.72
405.46	228.85
405.83	229.01
406.21	229.17
406.58	229.33
406.96	229.52
407.33	229.69
407.70	229.90
408.08	230.17
408.45	230.37
408.83	230.59
409.20	230.80
409.58	230.99
409.95	231.28
410.33	231.57
410.70	231.82
411.08	232.14
411.45	232.44
411.82	232.72
412.20	233.10
412.57	233.46
412.95	233.75
413.32	234.17
413.69	234.59
414.07	235.01
414.44	235.49
414.82	235.95
415.19	236.50
415.56	237.06
415.94	237.61
416.31	238.27
416.68	238.89
417.06	239.62
417.43	240.31
417.81	241.04
418.18	241.83
418.55	242.67
418.93	243.51
419.30	244.39
419.67	245.33
420.04	246.26
420.42	247.25
420.79	248.44
421.16	249.61
421.54	250.78
421.91	252.04
422.28	253.30
422.66	254.64
423.03	255.93
423.40	257.24
423.77	258.67
424.15	260.06
424.52	261.57
424.89	263.15
425.26	264.68
425.64	266.16
426.01	267.75
426.38	269.40
426.75	271.08
427.13	272.83
427.50	274.64
427.87	276.53
428.24	278.42
428.61	280.15
428.99	282.07
429.36	284.18
429.73	286.24
430.10	288.26
430.47	290.28
430.85	292.41
431.22	294.66
431.59	297.00
431.96	299.25
432.33	301.77
432.70	304.17
433.08	306.99
433.45	309.65
433.82	312.27
434.19	315.18
434.56	318.02
434.93	320.68
435.30	323.27
435.68	326.19
436.05	329.07
436.42	331.91
436.79	334.44
437.16	337.13
437.53	339.97
437.90	342.81
438.27	345.59
438.64	348.46
439.01	351.12
439.38	353.36
439.75	355.53
440.13	357.98
440.50	360.31
440.87	362.18
441.24	364.13
441.61	366.25
441.98	367.74
442.35	369.54
442.72	371.40
443.09	373.25
443.46	374.26
443.83	374.81
444.20	375.30
444.57	376.16
444.94	376.48
445.31	376.82
445.68	377.13
446.05	377.20
446.42	376.80
446.79	376.34
447.16	375.92
447.53	375.66
447.90	374.45
448.27	373.29
448.64	371.71
449.01	370.53
449.37	368.55
449.74	366.67
450.11	364.42
450.48	361.94
450.85	359.38
451.22	357.21
451.59	355.17
451.96	353.18
452.33	350.57
452.70	348.20
453.07	345.38
453.43	342.47
453.80	339.67
454.17	336.99
454.54	334.42
454.91	331.67
455.28	328.96
455.65	326.52
456.02	324.11
456.38	321.96
456.75	319.30
457.12	317.05
457.49	314.78
457.86	312.60
458.23	310.74
458.59	308.67
458.96	306.56
459.33	304.68
459.70	302.81
460.07	301.30
460.43	299.54
460.80	297.90
461.17	296.45
461.54	294.98
461.91	293.51
462.27	292.08
462.64	290.85
463.01	289.48
463.38	288.18
463.74	286.76
464.11	285.57
464.48	284.54
464.85	283.45
465.21	282.59
465.58	281.63
465.95	280.54
466.32	279.67
466.68	278.77
467.05	277.91
467.42	277.03
467.78	276.10
468.15	275.22
468.52	274.53
468.88	273.70
469.25	272.91
469.62	272.33
469.98	271.66
470.35	270.99
470.72	270.40
471.08	269.76
471.45	269.23
471.82	268.68
472.18	268.08
472.55	267.60
472.92	267.07
473.28	266.67
473.65	266.21
474.02	265.73
474.38	265.33
474.75	265.01
475.11	264.70
475.48	264.44
475.85	264.22
476.21	263.98
476.58	263.78
476.94	263.64
477.31	263.45
477.67	263.27
478.04	263.17
478.41	263.09
478.77	263.13
479.14	263.07
479.50	263.09
479.87	263.15
480.23	263.26
480.60	263.31
480.96	263.37
481.33	263.56
481.69	263.80
482.06	264.04
482.42	264.24
482.79	264.51
483.15	264.81
483.52	265.21
483.88	265.57
484.25	265.98
484.61	266.37
484.98	266.85
485.34	267.41
485.71	268.00
486.07	268.62
486.44	269.18
486.80	269.84
487.17	270.55
487.53	271.37
487.90	272.22
488.26	273.17
488.62	274.16
488.99	275.14
489.35	276.19
489.72	277.30
490.08	278.52
490.44	279.75
490.81	281.07
491.17	282.41
491.54	283.90
491.90	285.44
492.26	287.11
492.63	288.83
492.99	290.61
493.36	292.51
493.72	294.55
494.08	296.64
494.45	298.95
494.81	301.32
495.17	303.72
495.54	306.30
495.90	308.99
496.26	311.80
496.63	314.77
496.99	317.89
497.35	321.11
497.72	324.51
498.08	328.01
498.44	331.66
498.80	335.58
499.17	339.62
499.53	343.75
499.89	348.07
500.26	352.56
500.62	357.23
500.98	362.17
501.34	367.22
501.71	372.50
502.07	377.93
502.43	383.58
502.79	389.44
503.16	395.48
503.52	401.71
503.88	408.10
504.24	414.73
504.60	421.62
504.97	428.80
505.33	436.13
505.69	443.85
506.05	451.63
506.41	459.51
506.78	467.65
507.14	476.10
507.50	484.87
507.86	493.90
508.22	503.09
508.59	512.26
508.95	521.83
509.31	531.67
509.67	541.80
510.03	552.03
510.39	562.56
510.75	573.38
511.12	584.39
511.48	595.75
511.84	607.18
512.20	618.69
512.56	630.59
512.92	642.75
513.28	654.98
513.64	667.51
514.00	680.28
514.37	693.18
514.73	706.30
515.09	719.35
515.45	732.66
515.81	746.27
516.17	760.36
516.53	774.45
516.89	788.68
517.25	802.81
517.61	817.31
517.97	831.86
518.33	846.34
518.69	861.01
519.05	875.93
519.41	891.17
519.77	906.76
520.13	922.21
520.49	937.63
520.85	953.20
521.21	968.95
521.57	985.21
521.93	1001.11
522.29	1017.51
522.65	1033.85
523.01	1050.16
523.37	1066.25
523.73	1082.56
524.09	1098.79
524.45	1115.09
524.81	1131.83
525.17	1148.70
525.53	1165.60
525.89	1182.51
526.25	1199.43
526.61	1215.83
526.97	1232.63
527.33	1249.09
527.68	1265.79
528.04	1282.25
528.40	1298.86
528.76	1316.06
529.12	1332.75
529.48	1349.66
529.84	1365.90
530.20	1382.58
530.56	1399.70
530.91	1417.14
531.27	1433.85
531.63	1450.34
531.99	1466.91
532.35	1482.95
532.71	1498.77
533.07	1515.05
533.42	1530.98
533.78	1547.08
534.14	1563.56
534.50	1578.90
534.86	1594.96
535.21	1610.13
535.57	1626.27
535.93	1641.85
536.29	1656.67
536.65	1671.83
537.00	1686.69
537.36	1701.82
537.72	1716.44
538.08	1730.79
538.44	1744.56
538.79	1758.52
539.15	1772.32
539.51	1786.05
539.87	1800.42
540.22	1814.18
540.58	1828.09
540.94	1841.55
541.29	1854.55
541.65	1867.21
542.01	1880.59
542.37	1892.84
542.72	1905.29
543.08	1917.07
543.44	1929.54
543.79	1940.77
544.15	1951.74
544.51	1963.27
544.87	1974.35
545.22	1985.01
545.58	1995.25
545.94	2005.20
546.29	2014.98
546.65	2024.84
547.01	2034.28
547.36	2043.03
547.72	2051.74
548.07	2059.51
548.43	2067.78
548.79	2075.85
549.14	2083.47
549.50	2090.81
549.86	2098.63
550.21	2106.09
550.57	2113.40
550.92	2119.98
551.28	2127.02
551.64	2134.19
551.99	2140.86
552.35	2147.01
552.70	2153.26
553.06	2159.28
553.41	2165.62
553.77	2171.79
554.13	2177.87
554.48	2183.98
554.84	2189.34
555.19	2194.58
555.55	2199.78
555.90	2204.09
556.26	2208.83
556.61	2213.56
556.97	2217.67
557.32	2221.75
557.68	2225.96
558.03	2230.09
558.39	2233.83
558.74	2238.48
559.10	2242.18
559.45	2245.83
559.81	2250.23
560.16	2254.17
560.52	2257.46
560.87	2260.87
561.23	2263.42
561.58	2266.40
561.94	2268.91
562.29	2271.51
562.64	2274.17
563.00	2276.69
563.35	2280.21
563.71	2283.47
564.06	2286.80
564.42	2289.79
564.77	2292.26
565.12	2294.35
565.48	2296.19
565.83	2297.97
566.19	2299.17
566.54	2300.17
566.89	2301.18
567.25	2301.52
567.60	2302.70
567.96	2304.19
568.31	2304.83
568.66	2305.79
569.02	2306.28
569.37	2306.55
569.72	2307.11
570.08	2307.20
570.43	2307.27
570.78	2306.67
571.14	2305.05
571.49	2303.45
571.84	2303.06
572.20	2301.82
572.55	2300.76
572.90	2299.29
573.26	2297.91
573.61	2296.08
573.96	2294.15
574.31	2291.02
574.67	2288.04
575.02	2284.40
575.37	2281.00
575.72	2277.23
576.08	2273.93
576.43	2270.78
576.78	2267.11
577.13	2263.99
577.49	2260.88
577.84	2257.33
578.19	2253.34
578.54	2249.65
578.90	2245.35
579.25	2239.78
579.60	2234.67
579.95	2229.63
580.30	2224.48
580.66	2219.22
581.01	2214.43
581.36	2209.46
581.71	2205.34
582.06	2200.80
582.42	2196.24
582.77	2190.91
583.12	2186.16
583.47	2181.36
583.82	2176.13
584.17	2170.83
584.53	2165.23
584.88	2159.35
585.23	2153.51
585.58	2148.27
585.93	2142.74
586.28	2137.88
586.63	2132.67
586.98	2127.70
587.34	2122.96
587.69	2118.09
588.04	2112.71
588.39	2106.76
588.74	2100.19
589.09	2093.97
589.44	2087.11
589.79	2080.96
590.14	2075.38
590.49	2068.80
590.84	2062.47
591.19	2056.35
591.54	2049.83
591.89	2042.26
592.25	2035.47
592.60	2028.13
592.95	2020.32
593.30	2012.85
593.65	2005.20
594.00	1998.12
594.35	1990.82
594.70	1982.76
595.05	1975.24
595.40	1967.92
595.75	1960.46
596.10	1954.20
596.45	1947.35
596.80	1941.16
597.15	1934.39
597.50	1927.25
597.85	1920.77
598.19	1913.93
598.54	1906.60
598.89	1899.80
599.24	1894.08
599.59	1887.44
599.94	1881.20
600.29	1874.86
600.64	1868.23
600.99	1860.79
601.34	1853.90
601.69	1846.83
602.04	1839.70
602.39	1832.31
602.74	1825.46
603.08	1818.66
603.43	1811.89
603.78	1804.57
604.13	1797.30
604.48	1790.00
604.83	1783.05
605.18	1776.04
605.53	1768.10
605.87	1760.12
606.22	1752.89
606.57	1744.76
606.92	1737.34
607.27	1730.08
607.62	1723.07
607.96	1715.77
608.31	1708.98
608.66	1701.22
609.01	1693.61
609.36	1686.06
609.70	1678.13
610.05	1669.90
610.40	1662.21
610.75	1653.88
611.10	1646.15
611.44	1637.86
611.79	1629.96
612.14	1621.26
612.49	1612.10
612.83	1603.63
613.18	1595.57
613.53	1587.54
613.88	1579.08
614.22	1570.77
614.57	1562.20
614.92	1554.20
615.27	1546.50
615.61	1538.28
615.96	1530.29
616.31	1522.69
616.65	1515.31
617.00	1507.76
617.35	1500.10
617.70	1491.64
618.04	1483.05
618.39	1474.76
618.74	1467.19
619.08	1458.80
619.43	1451.11
619.78	1444.18
620.12	1437.03
620.47	1429.47
620.82	1421.21
621.16	1413.76
621.51	1406.22
621.85	1398.55
622.20	1390.00
622.55	1381.71
622.89	1373.91
623.24	1366.31
623.59	1358.92
623.93	1351.42
624.28	1344.20
624.62	1336.74
624.97	1329.71
625.32	1323.06
625.66	1316.02
626.01	1308.69
626.35	1301.27
626.70	1293.64
627.04	1285.88
627.39	1278.17
627.73	1270.62
628.08	1263.68
628.43	1256.31
628.77	1248.83
629.12	1241.32
629.46	1234.11
629.81	1226.86
630.15	1219.62
630.50	1212.27
630.84	1204.06
631.19	1196.14
631.53	1188.67
631.88	1181.18
632.22	1173.47
632.57	1166.18
632.91	1158.73
633.26	1151.25
633.60	1143.98
633.95	1136.96
634.29	1130.01
634.64	1123.38
634.98	1116.16
635.32	1109.13
635.67	1102.70
636.01	1096.12
636.36	1089.27
636.70	1082.89
637.05	1076.26
637.39	1069.80
637.73	1063.27
638.08	1057.52
638.42	1051.59
638.77	1045.13
639.11	1038.46
639.45	1032.12
639.80	1025.42
640.14	1018.97
640.49	1012.47
640.83	1006.04
641.17	999.64
641.52	993.31
641.86	986.86
642.20	980.96
642.55	974.57
642.89	967.92
643.23	961.30
643.58	955.59
643.92	949.29
644.26	943.11
644.61	937.02
644.95	930.98
645.29	924.25
645.64	917.50
645.98	911.05
646.32	905.31
646.66	899.31
647.01	893.54
647.35	887.94
647.69	882.12
648.04	876.72
648.38	870.99
648.72	864.92
649.06	858.84
649.41	853.02
649.75	847.11
650.09	841.16
650.43	835.45
650.78	829.24
651.12	823.33
651.46	817.72
651.80	811.99
652.14	806.62
652.49	801.27
652.83	796.07
653.17	790.35
653.51	784.54
653.85	779.12
654.20	773.37
654.54	767.32
654.88	761.62
655.22	755.68
655.56	750.03
655.90	744.60
656.25	739.36
656.59	733.96
656.93	728.85
657.27	723.73
657.61	718.23
657.95	713.16
658.29	708.01
658.64	702.74
658.98	697.40
659.32	691.89
659.66	686.67
660.00	681.31
660.34	676.44
660.68	671.58
661.02	666.59
661.36	661.92
661.70	657.43
662.05	653.08
662.39	648.78
662.73	644.38
663.07	640.00
663.41	635.54
663.75	631.12
664.09	626.55
664.43	622.21
664.77	618.15
665.11	613.92
665.45	609.85
665.79	605.79
666.13	601.66
666.47	597.63
666.81	593.49
667.15	589.49
667.49	585.63
667.83	581.83
668.17	577.89
668.51	573.83
668.85	569.85
669.19	565.98
669.53	562.12
669.87	558.18
670.21	554.54
670.55	550.85
670.89	547.44
671.23	544.04
671.57	540.52
671.91	536.99
672.25	533.57
672.58	530.12
672.92	526.79
673.26	523.70
673.60	520.55
673.94	517.46
674.28	514.55
674.62	511.57
674.96	508.46
675.30	505.58
675.64	502.69
675.97	499.93
676.31	497.09
676.65	494.18
676.99	491.50
677.33	488.65
677.67	485.86
678.01	482.83
678.34	479.83
678.68	476.97
679.02	474.16
679.36	471.40
679.70	468.67
680.04	465.88
680.37	462.98
680.71	460.22
681.05	457.62
681.39	454.90
681.73	452.27
682.06	449.78
682.40	447.25
682.74	444.78
683.08	442.17
683.42	439.63
683.75	437.13
684.09	434.61
684.43	432.15
684.77	429.70
685.10	427.34
685.44	425.05
685.78	422.79
686.12	420.58
686.45	418.26
686.79	415.96
687.13	413.72
687.46	411.60
687.80	409.43
688.14	407.21
688.48	405.14
688.81	402.88
689.15	400.70
689.49	398.53
689.82	396.38
690.16	394.36
690.50	392.35
690.83	390.38
691.17	388.35
691.51	386.45
691.84	384.67
692.18	382.72
692.52	380.77
692.85	378.79
693.19	376.87
693.52	375.03
693.86	373.20
694.20	371.47
694.53	369.64
694.87	367.80
695.21	366.01
695.54	364.18
695.88	362.43
696.21	360.70
696.55	358.99
696.88	357.31
697.22	355.66
697.56	354.02
697.89	352.39
698.23	350.81
698.56	349.20
698.90	347.54
699.23	345.92
699.57	344.35
699.90	342.81
700.24	341.32
700.58	339.80
700.91	338.34
701.25	336.84
701.58	335.49
701.92	334.13
702.25	332.73
702.59	331.36
702.92	330.02
703.26	328.75
703.59	327.50
703.93	326.32
704.26	325.07
704.60	323.83
704.93	322.58
705.26	321.35
705.60	320.16
705.93	319.03
706.27	318.00
706.60	316.96
706.94	315.91
707.27	314.76
707.61	313.75
707.94	312.72
708.27	311.65
708.61	310.54
708.94	309.54
709.28	308.59
709.61	307.65
709.94	306.76
710.28	305.75
710.61	304.78
710.95	303.71
711.28	302.80
711.61	301.81
711.95	300.88
712.28	299.89
712.61	298.91
712.95	297.98
713.28	297.06
713.61	296.20
713.95	295.31
714.28	294.50
714.61	293.64
714.95	292.80
715.28	291.97
715.61	291.16
715.95	290.33
716.28	289.53
716.61	288.73
716.95	287.93
717.28	287.24
717.61	286.47
717.94	285.78
718.28	284.98
718.61	284.27
718.94	283.66
719.27	283.04
719.61	282.41
719.94	281.76
720.27	281.09
720.60	280.42
720.94	279.81
721.27	279.23
721.60	278.66
721.93	278.09
722.27	277.57
722.60	277.01
722.93	276.43
723.26	275.89
723.59	275.29
723.93	274.75
724.26	274.16
724.59	273.57
724.92	273.05
725.25	272.52
725.59	272.02
725.92	271.45
726.25	270.95
726.58	270.47
726.91	269.96
727.24	269.47
727.57	268.97
727.91	268.46
728.24	267.96
728.57	267.45
728.90	267.00
729.23	266.45
729.56	266.02
729.89	265.55
730.22	265.06
730.55	264.59
730.89	264.14
731.22	263.69
731.55	263.27
731.88	262.81
732.21	262.42
732.54	262.00
732.87	261.57
733.20	261.14
733.53	260.73
733.86	260.39
734.19	259.99
734.52	259.61
734.85	259.25
735.18	258.84
735.51	258.46
735.84	258.05
736.17	257.74
736.50	257.33
736.83	257.12
737.16	256.76
737.49	256.44
737.82	256.11
738.15	255.76
738.48	255.45
738.81	255.12
739.14	254.79
739.47	254.43
739.80	254.14
740.13	253.86
740.46	253.55
740.79	253.16
741.12	252.83
741.45	252.52
741.78	252.18
742.11	251.91
742.44	251.60
742.77	251.32
743.10	251.00
743.43	250.70
743.75	250.27
744.08	250.14
744.41	249.82
744.74	249.55
745.07	249.27
745.40	249.01
745.73	248.79
746.06	248.54
746.39	248.29
746.71	247.98
747.04	247.73
747.37	247.44
747.70	247.20
748.03	246.96
748.36	246.74
748.68	246.54
749.01	246.27
749.34	246.07
749.67	245.86
750.00	245.62
750.33	245.49
750.65	245.28
750.98	244.97
751.31	244.78
751.64	244.59
751.97	244.45
752.29	244.25
752.62	243.97
752.95	243.78
753.28	243.56
753.60	243.38
753.93	243.19
754.26	243.02
754.59	242.81
754.91	242.62
755.24	242.42
755.57	242.21
755.90	242.05
756.22	241.86
756.55	241.65
756.88	241.48
757.20	241.25
757.53	241.05
757.86	240.87
758.19	240.76
758.51	240.57
758.84	240.37
759.17	240.18
759.49	240.07
759.82	239.92
760.15	239.83
760.47	239.70
760.80	239.51
761.13	239.39
761.45	239.26
761.78	239.11
762.11	238.99
762.43	238.89
762.76	238.75
763.08	238.60
763.41	238.51
763.74	238.40
764.06	238.23
764.39	238.09
764.71	237.98
765.04	237.82
765.37	237.69
765.69	237.54
766.02	237.42
766.34	237.29
766.67	237.14
767.00	237.02
767.32	236.94
767.65	236.91
767.97	236.78
768.30	236.65
768.62	236.56
768.95	236.46
769.27	236.31
769.60	236.19
769.92	236.09
770.25	235.89
770.57	235.74
770.90	235.64
771.22	235.52
771.55	235.40
771.87	235.28
772.20	235.18
772.52	235.15
772.85	235.16
773.17	235.03
773.50	234.93
773.82	234.81
774.15	234.67
774.47	234.52
774.80	234.41
775.12	234.34
775.45	234.23
775.77	234.14
776.09	234.06
776.42	233.97
776.74	233.89
777.07	233.86
777.39	233.78
777.72	233.71
778.04	233.65
778.36	233.55
778.69	233.48
779.01	233.41
779.33	233.26
779.66	233.06
779.98	232.98
780.31	232.89
780.63	232.83
780.95	232.79
781.28	232.73
781.60	232.66
781.92	232.57
782.25	232.52
782.57	232.46
782.89	232.36
783.22	232.28
783.54	232.22
783.86	232.15
784.19	232.12
784.51	232.11
784.83	232.07
785.16	232.02
785.48	231.97
785.80	231.92
786.12	231.89
786.45	231.87
786.77	231.85
787.09	231.83
