SpectraSuite Data File
++++++++++++++++++++++++++++++++++++
Date: Fri Feb 01 16:19:21 EST 2013
User: group
Dark Spectrum Present: No
Reference Spectrum Present: No
Number of Sampled Component Spectra: 1
Spectrometers: USB2E7196
Integration Time (usec): 35000 (USB2E7196)
Spectra Averaged: 100 (USB2E7196)
Boxcar Smoothing: 10 (USB2E7196)
Correct for Electrical Dark: No (USB2E7196)
Strobe/Lamp Enabled: No (USB2E7196)
Correct for Detector Non-linearity: No (USB2E7196)
Correct for Stray Light: No (USB2E7196)
Number of Pixels in Processed Spectrum: 2048
>>>>>Begin Processed Spectral Data<<<<<
339.09	0.00
339.48	214.03
339.86	215.51
340.24	216.97
340.63	217.61
341.01	221.35
341.39	220.74
341.78	222.72
342.16	223.19
342.54	223.84
342.93	212.43
343.31	223.16
343.69	223.69
344.07	224.17
344.46	224.61
344.84	225.01
345.22	225.23
345.60	225.49
345.99	225.65
346.37	225.81
346.75	225.92
347.13	225.99
347.52	226.05
347.90	226.10
348.28	226.11
348.66	226.15
349.05	226.15
349.43	226.23
349.81	226.27
350.19	226.29
350.57	226.35
350.96	226.45
351.34	226.55
351.72	226.63
352.10	226.72
352.48	226.79
352.87	226.85
353.25	226.92
353.63	226.98
354.01	227.04
354.39	227.12
354.77	227.19
355.15	227.30
355.54	227.34
355.92	227.41
356.30	227.49
356.68	227.62
357.06	227.70
357.44	227.74
357.82	227.78
358.20	227.88
358.58	227.97
358.97	228.02
359.35	228.14
359.73	228.21
360.11	228.27
360.49	228.32
360.87	228.37
361.25	228.44
361.63	228.53
362.01	228.61
362.39	228.59
362.77	228.64
363.15	228.65
363.53	228.69
363.91	228.69
364.29	228.71
364.67	228.67
365.05	228.68
365.43	228.70
365.81	228.73
366.19	228.74
366.57	228.78
366.95	228.78
367.33	228.73
367.71	228.75
368.09	228.76
368.47	228.73
368.85	228.70
369.23	228.70
369.61	228.64
369.99	228.59
370.37	228.59
370.75	228.60
371.13	228.55
371.51	228.50
371.89	228.47
372.27	228.42
372.65	228.35
373.03	228.29
373.41	228.21
373.78	228.12
374.16	228.00
374.54	227.88
374.92	227.78
375.30	227.69
375.68	227.57
376.06	227.49
376.44	227.40
376.82	227.34
377.19	227.26
377.57	227.18
377.95	227.07
378.33	227.01
378.71	226.90
379.09	226.82
379.47	226.79
379.84	226.69
380.22	226.60
380.60	226.51
380.98	226.41
381.36	226.33
381.73	226.26
382.11	226.24
382.49	226.15
382.87	226.11
383.25	226.05
383.62	226.09
384.00	226.01
384.38	225.96
384.76	225.93
385.13	225.90
385.51	225.88
385.89	225.85
386.27	225.82
386.64	225.77
387.02	225.71
387.40	225.65
387.78	225.61
388.15	225.58
388.53	225.57
388.91	225.56
389.29	225.58
389.66	225.54
390.04	225.50
390.42	225.50
390.79	225.48
391.17	225.46
391.55	225.36
391.92	225.35
392.30	225.35
392.68	225.33
393.05	225.30
393.43	225.31
393.81	225.31
394.18	225.31
394.56	225.34
394.94	225.39
395.31	225.41
395.69	225.48
396.06	225.53
396.44	225.55
396.82	225.64
397.19	225.72
397.57	225.78
397.95	225.84
398.32	225.89
398.70	225.96
399.07	226.08
399.45	226.13
399.82	226.18
400.20	226.24
400.58	226.30
400.95	226.37
401.33	226.47
401.70	226.65
402.08	226.71
402.45	226.80
402.83	226.90
403.20	226.98
403.58	227.10
403.95	227.22
404.33	227.37
404.71	227.48
405.08	227.63
405.46	227.74
405.83	227.90
406.21	228.03
406.58	228.22
406.96	228.35
407.33	228.56
407.70	228.77
408.08	228.99
408.45	229.21
408.83	229.39
409.20	229.57
409.58	229.72
409.95	229.95
410.33	230.20
410.70	230.45
411.08	230.73
411.45	231.01
411.82	231.30
412.20	231.62
412.57	232.03
412.95	232.31
413.32	232.74
413.69	233.14
414.07	233.59
414.44	233.98
414.82	234.44
415.19	234.98
415.56	235.50
415.94	236.09
416.31	236.70
416.68	237.36
417.06	238.11
417.43	238.80
417.81	239.56
418.18	240.34
418.55	241.15
418.93	242.00
419.30	242.91
419.67	243.85
420.04	244.80
420.42	245.78
420.79	246.98
421.16	248.10
421.54	249.25
421.91	250.43
422.28	251.69
422.66	253.02
423.03	254.32
423.40	255.65
423.77	257.04
424.15	258.46
424.52	259.91
424.89	261.46
425.26	263.00
425.64	264.44
426.01	266.01
426.38	267.66
426.75	269.39
427.13	271.10
427.50	272.92
427.87	274.79
428.24	276.63
428.61	278.35
428.99	280.28
429.36	282.40
429.73	284.48
430.10	286.49
430.47	288.59
430.85	290.69
431.22	292.95
431.59	295.36
431.96	297.61
432.33	300.12
432.70	302.50
433.08	305.31
433.45	307.98
433.82	310.61
434.19	313.54
434.56	316.32
434.93	318.95
435.30	321.52
435.68	324.41
436.05	327.26
436.42	330.04
436.79	332.55
437.16	335.29
437.53	338.12
437.90	340.94
438.27	343.65
438.64	346.47
439.01	349.10
439.38	351.34
439.75	353.52
440.13	356.05
440.50	358.40
440.87	360.30
441.24	362.28
441.61	364.49
441.98	365.95
442.35	367.73
442.72	369.61
443.09	371.43
443.46	372.45
443.83	373.08
444.20	373.61
444.57	374.46
444.94	374.69
445.31	375.05
445.68	375.43
446.05	375.54
446.42	375.19
446.79	374.74
447.16	374.29
447.53	373.97
447.90	372.78
448.27	371.62
448.64	370.02
449.01	368.86
449.37	366.81
449.74	364.95
450.11	362.72
450.48	360.28
450.85	357.79
451.22	355.63
451.59	353.56
451.96	351.65
452.33	349.07
452.70	346.75
453.07	343.92
453.43	341.01
453.80	338.21
454.17	335.50
454.54	332.97
454.91	330.25
455.28	327.57
455.65	325.09
456.02	322.66
456.38	320.49
456.75	317.80
457.12	315.60
457.49	313.34
457.86	311.15
458.23	309.24
458.59	307.18
458.96	305.09
459.33	303.22
459.70	301.35
460.07	299.83
460.43	298.09
460.80	296.47
461.17	295.02
461.54	293.53
461.91	292.09
462.27	290.63
462.64	289.36
463.01	288.02
463.38	286.72
463.74	285.32
464.11	284.12
464.48	283.13
464.85	281.98
465.21	281.16
465.58	280.24
465.95	279.15
466.32	278.26
466.68	277.40
467.05	276.52
467.42	275.65
467.78	274.74
468.15	273.89
468.52	273.24
468.88	272.40
469.25	271.64
469.62	271.06
469.98	270.36
470.35	269.74
470.72	269.15
471.08	268.49
471.45	267.96
471.82	267.46
472.18	266.86
472.55	266.47
472.92	265.97
473.28	265.56
473.65	265.10
474.02	264.67
474.38	264.26
474.75	263.95
475.11	263.59
475.48	263.31
475.85	263.06
476.21	262.79
476.58	262.60
476.94	262.46
477.31	262.27
477.67	262.18
478.04	262.08
478.41	262.04
478.77	262.08
479.14	262.04
479.50	262.00
479.87	262.07
480.23	262.12
480.60	262.16
480.96	262.23
481.33	262.50
481.69	262.68
482.06	262.91
482.42	263.09
482.79	263.34
483.15	263.64
483.52	264.05
483.88	264.45
484.25	264.84
484.61	265.27
484.98	265.76
485.34	266.28
485.71	266.85
486.07	267.47
486.44	268.04
486.80	268.79
487.17	269.56
487.53	270.38
487.90	271.24
488.26	272.20
488.62	273.19
488.99	274.16
489.35	275.21
489.72	276.34
490.08	277.53
490.44	278.80
490.81	280.18
491.17	281.54
491.54	283.01
491.90	284.56
492.26	286.22
492.63	287.93
492.99	289.73
493.36	291.66
493.72	293.70
494.08	295.83
494.45	298.06
494.81	300.43
495.17	302.85
495.54	305.44
495.90	308.13
496.26	310.96
496.63	313.95
496.99	317.06
497.35	320.33
497.72	323.80
498.08	327.33
498.44	331.03
498.80	334.94
499.17	339.00
499.53	343.17
499.89	347.60
500.26	352.19
500.62	356.90
500.98	361.87
501.34	366.99
501.71	372.34
502.07	377.85
502.43	383.48
502.79	389.28
503.16	395.40
503.52	401.67
503.88	408.09
504.24	414.70
504.60	421.59
504.97	428.74
505.33	436.11
505.69	443.83
506.05	451.63
506.41	459.52
506.78	467.64
507.14	476.11
507.50	484.81
507.86	493.79
508.22	502.96
508.59	512.20
508.95	521.79
509.31	531.65
509.67	541.69
510.03	552.03
510.39	562.66
510.75	573.43
511.12	584.41
511.48	595.73
511.84	607.19
512.20	618.65
512.56	630.61
512.92	642.76
513.28	655.05
513.64	667.48
514.00	680.23
514.37	693.15
514.73	706.21
515.09	719.21
515.45	732.56
515.81	746.10
516.17	760.08
516.53	774.08
516.89	788.17
517.25	802.35
517.61	816.76
517.97	831.16
518.33	845.58
518.69	860.30
519.05	875.21
519.41	890.42
519.77	906.02
520.13	921.51
520.49	936.80
520.85	952.25
521.21	968.01
521.57	984.16
521.93	999.94
522.29	1016.32
522.65	1032.53
523.01	1048.66
523.37	1064.75
523.73	1080.86
524.09	1096.91
524.45	1113.24
524.81	1129.85
525.17	1146.56
525.53	1163.51
525.89	1180.31
526.25	1197.11
526.61	1213.51
526.97	1230.21
527.33	1246.64
527.68	1263.18
528.04	1279.67
528.40	1296.17
528.76	1313.00
529.12	1329.54
529.48	1346.43
529.84	1362.35
530.20	1379.00
530.56	1396.01
530.91	1413.36
531.27	1430.13
531.63	1446.62
531.99	1463.02
532.35	1478.86
532.71	1494.65
533.07	1510.82
533.42	1526.73
533.78	1542.69
534.14	1558.88
534.50	1574.17
534.86	1590.03
535.21	1605.18
535.57	1621.09
535.93	1636.61
536.29	1651.62
536.65	1666.60
537.00	1681.33
537.36	1696.59
537.72	1711.08
538.08	1725.33
538.44	1739.02
538.79	1752.75
539.15	1766.34
539.51	1780.09
539.87	1794.47
540.22	1808.25
540.58	1821.87
540.94	1835.08
541.29	1847.82
541.65	1860.36
542.01	1873.48
542.37	1885.67
542.72	1898.11
543.08	1909.83
543.44	1922.19
543.79	1933.15
544.15	1944.15
544.51	1955.64
544.87	1966.57
545.22	1977.24
545.58	1987.53
545.94	1997.15
546.29	2006.97
546.65	2016.78
547.01	2026.00
547.36	2034.63
547.72	2042.99
548.07	2050.82
548.43	2058.87
548.79	2066.91
549.14	2074.46
549.50	2081.64
549.86	2089.30
550.21	2096.40
550.57	2103.40
550.92	2109.82
551.28	2116.87
551.64	2123.90
551.99	2130.42
552.35	2136.53
552.70	2142.70
553.06	2148.59
553.41	2154.99
553.77	2160.98
554.13	2167.07
554.48	2173.21
554.84	2178.60
555.19	2183.87
555.55	2188.97
555.90	2193.58
556.26	2198.56
556.61	2203.30
556.97	2207.69
557.32	2211.82
557.68	2215.93
558.03	2220.19
558.39	2224.11
558.74	2228.91
559.10	2232.81
559.45	2236.41
559.81	2240.73
560.16	2244.59
560.52	2247.81
560.87	2251.20
561.23	2253.88
561.58	2256.93
561.94	2259.42
562.29	2261.79
562.64	2264.49
563.00	2267.17
563.35	2270.59
563.71	2273.56
564.06	2276.82
564.42	2279.76
564.77	2282.31
565.12	2284.69
565.48	2286.79
565.83	2288.44
566.19	2289.67
566.54	2290.41
566.89	2291.60
567.25	2292.19
567.60	2293.34
567.96	2295.11
568.31	2296.09
568.66	2297.30
569.02	2297.72
569.37	2298.09
569.72	2299.00
570.08	2299.17
570.43	2299.27
570.78	2298.85
571.14	2297.43
571.49	2296.11
571.84	2295.83
572.20	2294.71
572.55	2293.68
572.90	2292.14
573.26	2290.89
573.61	2289.13
573.96	2287.47
574.31	2284.52
574.67	2281.56
575.02	2278.11
575.37	2274.67
575.72	2270.86
576.08	2267.67
576.43	2264.41
576.78	2260.72
577.13	2257.58
577.49	2254.50
577.84	2250.99
578.19	2247.12
578.54	2243.53
578.90	2239.33
579.25	2233.69
579.60	2228.83
579.95	2223.80
580.30	2218.77
580.66	2213.64
581.01	2208.85
581.36	2204.04
581.71	2199.99
582.06	2195.65
582.42	2191.21
582.77	2186.11
583.12	2181.49
583.47	2176.69
583.82	2171.80
584.17	2166.66
584.53	2161.30
584.88	2155.66
585.23	2150.02
585.58	2144.61
585.93	2139.32
586.28	2134.66
586.63	2129.68
586.98	2124.68
587.34	2120.00
587.69	2115.16
588.04	2109.93
588.39	2104.25
588.74	2097.92
589.09	2091.73
589.44	2084.91
589.79	2079.01
590.14	2073.38
590.49	2066.93
590.84	2060.44
591.19	2054.49
591.54	2048.10
591.89	2040.73
592.25	2034.01
592.60	2026.83
592.95	2019.31
593.30	2011.85
593.65	2004.28
594.00	1997.24
594.35	1990.09
594.70	1982.19
595.05	1975.11
595.40	1967.89
595.75	1960.49
596.10	1954.22
596.45	1947.52
596.80	1941.49
597.15	1934.86
597.50	1927.88
597.85	1921.36
598.19	1914.78
598.54	1907.61
598.89	1901.02
599.24	1895.05
599.59	1888.42
599.94	1882.15
600.29	1875.89
600.64	1869.36
600.99	1861.86
601.34	1855.27
601.69	1848.16
602.04	1841.31
602.39	1833.83
602.74	1826.92
603.08	1820.06
603.43	1813.27
603.78	1806.04
604.13	1798.75
604.48	1791.38
604.83	1784.54
605.18	1777.62
605.53	1769.74
605.87	1761.79
606.22	1754.55
606.57	1746.64
606.92	1739.44
607.27	1732.29
607.62	1725.32
607.96	1718.06
608.31	1711.51
608.66	1703.67
609.01	1696.27
609.36	1688.69
609.70	1680.77
610.05	1672.75
610.40	1665.15
610.75	1656.80
611.10	1649.16
611.44	1640.70
611.79	1632.74
612.14	1624.02
612.49	1614.94
612.83	1606.44
613.18	1598.26
613.53	1590.10
613.88	1581.64
614.22	1573.28
614.57	1564.70
614.92	1556.70
615.27	1549.07
615.61	1540.73
615.96	1532.78
616.31	1524.95
616.65	1517.62
617.00	1510.06
617.35	1502.43
617.70	1494.04
618.04	1485.65
618.39	1477.24
618.74	1469.70
619.08	1461.46
619.43	1453.95
619.78	1447.00
620.12	1439.94
620.47	1432.56
620.82	1424.41
621.16	1416.98
621.51	1409.31
621.85	1401.69
622.20	1393.14
622.55	1384.90
622.89	1377.04
623.24	1369.36
623.59	1362.12
623.93	1354.59
624.28	1347.36
624.62	1339.89
624.97	1332.73
625.32	1325.97
625.66	1319.03
626.01	1311.88
626.35	1304.38
626.70	1296.54
627.04	1288.88
627.39	1281.07
627.73	1273.62
628.08	1266.68
628.43	1259.33
628.77	1252.00
629.12	1244.49
629.46	1237.36
629.81	1229.90
630.15	1222.69
630.50	1215.31
630.84	1206.97
631.19	1199.03
631.53	1191.49
631.88	1183.90
632.22	1176.30
632.57	1168.87
632.91	1161.24
633.26	1153.81
633.60	1146.39
633.95	1139.20
634.29	1132.12
634.64	1125.38
634.98	1117.92
635.32	1110.71
635.67	1104.14
636.01	1097.50
636.36	1090.66
636.70	1084.10
637.05	1077.54
637.39	1071.01
637.73	1064.45
638.08	1058.66
638.42	1052.61
638.77	1046.13
639.11	1039.42
639.45	1033.00
639.80	1026.44
640.14	1020.11
640.49	1013.54
640.83	1007.25
641.17	1001.01
641.52	994.68
641.86	988.21
642.20	982.42
642.55	976.13
642.89	969.69
643.23	963.11
643.58	957.24
643.92	951.04
644.26	944.97
644.61	939.00
644.95	932.99
645.29	926.32
645.64	919.56
645.98	913.24
646.32	907.49
646.66	901.47
647.01	895.66
647.35	889.92
647.69	884.13
648.04	878.58
648.38	872.79
648.72	866.73
649.06	860.65
649.41	854.77
649.75	848.84
650.09	842.88
650.43	837.16
650.78	831.03
651.12	825.13
651.46	819.33
651.80	813.49
652.14	808.11
652.49	802.73
652.83	797.60
653.17	791.94
653.51	786.24
653.85	780.87
654.20	775.19
654.54	769.13
654.88	763.35
655.22	757.40
655.56	751.65
655.90	746.24
656.25	741.05
656.59	735.60
656.93	730.52
657.27	725.39
657.61	719.94
657.95	714.85
658.29	709.71
658.64	704.49
658.98	699.16
659.32	693.71
659.66	688.55
660.00	683.21
660.34	678.22
660.68	673.20
661.02	668.12
661.36	663.46
661.70	659.04
662.05	654.70
662.39	650.47
662.73	646.08
663.07	641.65
663.41	637.18
663.75	632.72
664.09	628.15
664.43	623.70
664.77	619.53
665.11	615.25
665.45	611.12
665.79	607.06
666.13	602.95
666.47	598.85
666.81	594.63
667.15	590.46
667.49	586.51
667.83	582.72
668.17	578.79
668.51	574.61
668.85	570.57
669.19	566.72
669.53	562.85
669.87	558.96
670.21	555.28
670.55	551.60
670.89	548.14
671.23	544.70
671.57	541.16
671.91	537.59
672.25	534.09
672.58	530.60
672.92	527.14
673.26	523.97
673.60	520.80
673.94	517.70
674.28	514.79
674.62	511.86
674.96	508.78
675.30	505.87
675.64	502.96
675.97	500.16
676.31	497.24
676.65	494.21
676.99	491.49
677.33	488.61
677.67	485.82
678.01	482.78
678.34	479.76
678.68	476.87
679.02	474.07
679.36	471.27
679.70	468.50
680.04	465.77
680.37	462.90
680.71	460.04
681.05	457.39
681.39	454.68
681.73	452.00
682.06	449.42
682.40	446.89
682.74	444.37
683.08	441.82
683.42	439.26
683.75	436.77
684.09	434.20
684.43	431.72
684.77	429.20
685.10	426.87
685.44	424.53
685.78	422.26
686.12	420.02
686.45	417.74
686.79	415.47
687.13	413.24
687.46	411.05
687.80	408.91
688.14	406.69
688.48	404.61
688.81	402.36
689.15	400.19
689.49	397.97
689.82	395.92
690.16	393.84
690.50	391.86
690.83	389.95
691.17	387.96
691.51	386.05
691.84	384.26
692.18	382.34
692.52	380.42
692.85	378.47
693.19	376.62
693.52	374.78
693.86	372.93
694.20	371.17
694.53	369.39
694.87	367.55
695.21	365.78
695.54	363.95
695.88	362.22
696.21	360.51
696.55	358.91
696.88	357.17
697.22	355.49
697.56	353.85
697.89	352.22
698.23	350.65
698.56	349.03
698.90	347.42
699.23	345.78
699.57	344.20
699.90	342.69
700.24	341.12
700.58	339.59
700.91	338.09
701.25	336.62
701.58	335.23
701.92	333.86
702.25	332.48
702.59	331.10
702.92	329.82
703.26	328.54
703.59	327.24
703.93	326.05
704.26	324.83
704.60	323.50
704.93	322.21
705.26	320.94
705.60	319.75
705.93	318.60
706.27	317.53
706.60	316.48
706.94	315.40
707.27	314.25
707.61	313.21
707.94	312.21
708.27	311.16
708.61	310.10
708.94	309.10
709.28	308.11
709.61	307.17
709.94	306.19
710.28	305.21
710.61	304.19
710.95	303.12
711.28	302.25
711.61	301.30
711.95	300.40
712.28	299.48
712.61	298.52
712.95	297.54
713.28	296.69
713.61	295.75
713.95	294.85
714.28	294.03
714.61	293.16
714.95	292.31
715.28	291.45
715.61	290.54
715.95	289.69
716.28	288.80
716.61	287.99
716.95	287.17
717.28	286.38
717.61	285.61
717.94	284.88
718.28	284.03
718.61	283.32
718.94	282.61
719.27	281.96
719.61	281.30
719.94	280.67
720.27	279.94
720.60	279.33
720.94	278.70
721.27	278.11
721.60	277.51
721.93	276.88
722.27	276.34
722.60	275.83
722.93	275.25
723.26	274.75
723.59	274.19
723.93	273.62
724.26	273.05
724.59	272.52
724.92	272.00
725.25	271.50
725.59	270.98
725.92	270.46
726.25	269.93
726.58	269.46
726.91	268.93
727.24	268.47
727.57	267.98
727.91	267.44
728.24	266.95
728.57	266.48
728.90	266.02
729.23	265.50
729.56	265.07
729.89	264.58
730.22	264.12
730.55	263.63
730.89	263.22
731.22	262.76
731.55	262.30
731.88	261.84
732.21	261.41
732.54	260.98
732.87	260.52
733.20	260.13
733.53	259.72
733.86	259.36
734.19	258.93
734.52	258.54
734.85	258.26
735.18	257.84
735.51	257.49
735.84	257.14
736.17	256.80
736.50	256.38
736.83	256.16
737.16	255.80
737.49	255.45
737.82	255.08
738.15	254.77
738.48	254.43
738.81	254.10
739.14	253.76
739.47	253.43
739.80	253.11
740.13	252.76
740.46	252.42
740.79	252.08
741.12	251.81
741.45	251.50
741.78	251.13
742.11	250.87
742.44	250.52
742.77	250.23
743.10	249.92
743.43	249.64
743.75	249.24
744.08	249.08
744.41	248.84
744.74	248.58
745.07	248.30
745.40	248.09
745.73	247.88
746.06	247.60
746.39	247.32
746.71	247.07
747.04	246.79
747.37	246.55
747.70	246.30
748.03	246.02
748.36	245.82
748.68	245.58
749.01	245.31
749.34	245.06
749.67	244.82
750.00	244.61
750.33	244.45
750.65	244.25
750.98	243.91
751.31	243.64
751.64	243.46
751.97	243.25
752.29	243.00
752.62	242.74
752.95	242.52
753.28	242.36
753.60	242.18
753.93	242.02
754.26	241.85
754.59	241.64
754.91	241.41
755.24	241.19
755.57	241.00
755.90	240.83
756.22	240.66
756.55	240.44
756.88	240.21
757.20	239.93
757.53	239.75
757.86	239.58
758.19	239.42
758.51	239.23
758.84	239.05
759.17	238.89
759.49	238.73
759.82	238.65
760.15	238.47
760.47	238.32
760.80	238.17
761.13	238.01
761.45	237.82
761.78	237.69
762.11	237.53
762.43	237.37
762.76	237.24
763.08	237.13
763.41	237.01
763.74	236.90
764.06	236.78
764.39	236.62
764.71	236.48
765.04	236.36
765.37	236.21
765.69	236.08
766.02	235.95
766.34	235.86
766.67	235.68
767.00	235.58
767.32	235.51
767.65	235.45
767.97	235.35
768.30	235.27
768.62	235.19
768.95	235.07
769.27	234.96
769.60	234.87
769.92	234.77
770.25	234.69
770.57	234.57
770.90	234.47
771.22	234.38
771.55	234.30
771.87	234.23
772.20	234.14
772.52	234.15
772.85	234.17
773.17	234.05
773.50	233.99
773.82	233.90
774.15	233.78
774.47	233.63
774.80	233.50
775.12	233.43
775.45	233.33
775.77	233.30
776.09	233.23
776.42	233.16
776.74	233.08
777.07	232.99
777.39	232.93
777.72	232.87
778.04	232.84
778.36	232.77
778.69	232.68
779.01	232.62
779.33	232.46
779.66	232.27
779.98	232.21
780.31	232.13
780.63	232.11
780.95	232.06
781.28	231.97
781.60	231.96
781.92	231.89
782.25	231.87
782.57	231.76
782.89	231.71
783.22	231.61
783.54	231.55
783.86	231.51
784.19	231.44
784.51	231.39
784.83	231.32
785.16	231.26
785.48	231.24
785.80	231.20
786.12	231.15
786.45	231.12
786.77	231.06
787.09	231.00
