SpectraSuite Data File
++++++++++++++++++++++++++++++++++++
Date: Fri Feb 01 17:16:03 EST 2013
User: group
Dark Spectrum Present: No
Reference Spectrum Present: No
Number of Sampled Component Spectra: 1
Spectrometers: USB2E7196
Integration Time (usec): 35000 (USB2E7196)
Spectra Averaged: 100 (USB2E7196)
Boxcar Smoothing: 10 (USB2E7196)
Correct for Electrical Dark: No (USB2E7196)
Strobe/Lamp Enabled: No (USB2E7196)
Correct for Detector Non-linearity: No (USB2E7196)
Correct for Stray Light: No (USB2E7196)
Number of Pixels in Processed Spectrum: 2048
>>>>>Begin Processed Spectral Data<<<<<
339.09	0.00
339.48	213.27
339.86	214.63
340.24	216.08
340.63	217.18
341.01	219.97
341.39	220.21
341.78	221.59
342.16	222.44
342.54	223.14
342.93	211.54
343.31	222.22
343.69	222.75
344.07	223.21
344.46	223.61
344.84	224.02
345.22	224.28
345.60	224.52
345.99	224.70
346.37	224.82
346.75	224.91
347.13	225.00
347.52	225.01
347.90	225.10
348.28	225.09
348.66	225.15
349.05	225.10
349.43	225.14
349.81	225.20
350.19	225.23
350.57	225.27
350.96	225.35
351.34	225.45
351.72	225.49
352.10	225.60
352.48	225.64
352.87	225.68
353.25	225.73
353.63	225.78
354.01	225.83
354.39	225.94
354.77	226.03
355.15	226.11
355.54	226.18
355.92	226.21
356.30	226.31
356.68	226.42
357.06	226.52
357.44	226.60
357.82	226.67
358.20	226.75
358.58	226.82
358.97	226.87
359.35	226.94
359.73	227.06
360.11	227.08
360.49	227.18
360.87	227.21
361.25	227.27
361.63	227.35
362.01	227.40
362.39	227.42
362.77	227.43
363.15	227.41
363.53	227.43
363.91	227.45
364.29	227.45
364.67	227.36
365.05	227.39
365.43	227.42
365.81	227.43
366.19	227.48
366.57	227.52
366.95	227.51
367.33	227.47
367.71	227.44
368.09	227.48
368.47	227.44
368.85	227.41
369.23	227.39
369.61	227.30
369.99	227.29
370.37	227.28
370.75	227.31
371.13	227.31
371.51	227.27
371.89	227.26
372.27	227.24
372.65	227.19
373.03	227.11
373.41	227.06
373.78	226.96
374.16	226.85
374.54	226.73
374.92	226.69
375.30	226.64
375.68	226.56
376.06	226.46
376.44	226.42
376.82	226.41
377.19	226.35
377.57	226.31
377.95	226.21
378.33	226.15
378.71	226.04
379.09	225.96
379.47	225.91
379.84	225.82
380.22	225.71
380.60	225.64
380.98	225.58
381.36	225.52
381.73	225.51
382.11	225.48
382.49	225.47
382.87	225.40
383.25	225.33
383.62	225.40
384.00	225.37
384.38	225.30
384.76	225.28
385.13	225.29
385.51	225.25
385.89	225.21
386.27	225.11
386.64	225.07
387.02	225.03
387.40	224.99
387.78	224.98
388.15	224.99
388.53	224.95
388.91	224.91
389.29	224.86
389.66	224.85
390.04	224.85
390.42	224.81
390.79	224.82
391.17	224.83
391.55	224.71
391.92	224.69
392.30	224.74
392.68	224.67
393.05	224.65
393.43	224.65
393.81	224.66
394.18	224.70
394.56	224.73
394.94	224.77
395.31	224.77
395.69	224.80
396.06	224.83
396.44	224.87
396.82	224.92
397.19	225.00
397.57	225.02
397.95	225.06
398.32	225.08
398.70	225.10
399.07	225.18
399.45	225.22
399.82	225.29
400.20	225.32
400.58	225.37
400.95	225.43
401.33	225.52
401.70	225.68
402.08	225.74
402.45	225.82
402.83	225.94
403.20	226.06
403.58	226.15
403.95	226.33
404.33	226.47
404.71	226.60
405.08	226.79
405.46	226.93
405.83	227.04
406.21	227.17
406.58	227.38
406.96	227.55
407.33	227.75
407.70	227.94
408.08	228.21
408.45	228.46
408.83	228.69
409.20	228.91
409.58	229.12
409.95	229.40
410.33	229.68
410.70	229.90
411.08	230.24
411.45	230.54
411.82	230.80
412.20	231.15
412.57	231.59
412.95	231.90
413.32	232.35
413.69	232.78
414.07	233.24
414.44	233.71
414.82	234.18
415.19	234.70
415.56	235.28
415.94	235.82
416.31	236.45
416.68	237.06
417.06	237.82
417.43	238.51
417.81	239.31
418.18	240.12
418.55	240.99
418.93	241.86
419.30	242.78
419.67	243.74
420.04	244.74
420.42	245.72
420.79	246.91
421.16	248.06
421.54	249.27
421.91	250.52
422.28	251.78
422.66	253.16
423.03	254.55
423.40	255.92
423.77	257.39
424.15	258.84
424.52	260.37
424.89	262.00
425.26	263.61
425.64	265.03
426.01	266.63
426.38	268.33
426.75	270.05
427.13	271.82
427.50	273.65
427.87	275.56
428.24	277.50
428.61	279.26
428.99	281.29
429.36	283.44
429.73	285.52
430.10	287.63
430.47	289.72
430.85	291.88
431.22	294.15
431.59	296.55
431.96	298.84
432.33	301.38
432.70	303.81
433.08	306.63
433.45	309.35
433.82	312.01
434.19	314.96
434.56	317.85
434.93	320.55
435.30	323.28
435.68	326.23
436.05	329.10
436.42	331.93
436.79	334.47
437.16	337.24
437.53	340.16
437.90	342.96
438.27	345.78
438.64	348.64
439.01	351.34
439.38	353.62
439.75	355.84
440.13	358.42
440.50	360.81
440.87	362.71
441.24	364.71
441.61	366.93
441.98	368.45
442.35	370.24
442.72	372.14
443.09	373.97
443.46	374.99
443.83	375.58
444.20	376.19
444.57	377.07
444.94	377.39
445.31	377.76
445.68	378.19
446.05	378.24
446.42	377.86
446.79	377.41
447.16	376.98
447.53	376.73
447.90	375.55
448.27	374.35
448.64	372.78
449.01	371.64
449.37	369.63
449.74	367.72
450.11	365.46
450.48	362.97
450.85	360.37
451.22	358.17
451.59	356.16
451.96	354.14
452.33	351.45
452.70	349.01
453.07	346.13
453.43	343.14
453.80	340.33
454.17	337.56
454.54	334.94
454.91	332.15
455.28	329.39
455.65	326.82
456.02	324.35
456.38	322.12
456.75	319.38
457.12	317.11
457.49	314.83
457.86	312.62
458.23	310.71
458.59	308.62
458.96	306.50
459.33	304.59
459.70	302.70
460.07	301.18
460.43	299.43
460.80	297.77
461.17	296.31
461.54	294.75
461.91	293.32
462.27	291.87
462.64	290.57
463.01	289.16
463.38	287.82
463.74	286.42
464.11	285.22
464.48	284.17
464.85	283.01
465.21	282.09
465.58	281.14
465.95	280.04
466.32	279.15
466.68	278.23
467.05	277.34
467.42	276.44
467.78	275.51
468.15	274.62
468.52	273.94
468.88	273.08
469.25	272.30
469.62	271.67
469.98	270.97
470.35	270.36
470.72	269.77
471.08	269.15
471.45	268.57
471.82	268.04
472.18	267.45
472.55	267.03
472.92	266.52
473.28	266.06
473.65	265.59
474.02	265.10
474.38	264.73
474.75	264.39
475.11	264.02
475.48	263.74
475.85	263.50
476.21	263.26
476.58	263.10
476.94	262.98
477.31	262.82
477.67	262.68
478.04	262.56
478.41	262.49
478.77	262.50
479.14	262.46
479.50	262.42
479.87	262.45
480.23	262.51
480.60	262.54
480.96	262.66
481.33	262.86
481.69	263.07
482.06	263.24
482.42	263.46
482.79	263.73
483.15	264.06
483.52	264.47
483.88	264.81
484.25	265.17
484.61	265.59
484.98	266.04
485.34	266.60
485.71	267.19
486.07	267.78
486.44	268.36
486.80	269.05
487.17	269.82
487.53	270.67
487.90	271.52
488.26	272.44
488.62	273.43
488.99	274.42
489.35	275.47
489.72	276.59
490.08	277.76
490.44	278.99
490.81	280.29
491.17	281.60
491.54	283.08
491.90	284.59
492.26	286.24
492.63	287.98
492.99	289.74
493.36	291.65
493.72	293.71
494.08	295.80
494.45	298.08
494.81	300.44
495.17	302.91
495.54	305.50
495.90	308.21
496.26	310.98
496.63	313.94
496.99	317.05
497.35	320.30
497.72	323.66
498.08	327.12
498.44	330.79
498.80	334.67
499.17	338.70
499.53	342.89
499.89	347.24
500.26	351.70
500.62	356.29
500.98	361.22
501.34	366.24
501.71	371.53
502.07	376.95
502.43	382.52
502.79	388.31
503.16	394.29
503.52	400.49
503.88	406.84
504.24	413.40
504.60	420.18
504.97	427.26
505.33	434.52
505.69	442.18
506.05	449.87
506.41	457.66
506.78	465.74
507.14	474.06
507.50	482.68
507.86	491.58
508.22	500.75
508.59	509.84
508.95	519.27
509.31	528.94
509.67	538.85
510.03	548.99
510.39	559.36
510.75	570.03
511.12	580.82
511.48	592.00
511.84	603.29
512.20	614.69
512.56	626.46
512.92	638.42
513.28	650.64
513.64	662.91
514.00	675.46
514.37	688.18
514.73	701.08
515.09	713.90
515.45	727.03
515.81	740.32
516.17	754.03
516.53	767.92
516.89	781.91
517.25	795.86
517.61	810.07
517.97	824.22
518.33	838.45
518.69	852.94
519.05	867.59
519.41	882.47
519.77	897.66
520.13	912.87
520.49	928.06
520.85	943.12
521.21	958.52
521.57	974.44
521.93	989.88
522.29	1005.85
522.65	1021.83
523.01	1037.63
523.37	1053.40
523.73	1069.24
524.09	1085.01
524.45	1100.81
524.81	1117.07
525.17	1133.33
525.53	1149.86
525.89	1166.38
526.25	1182.93
526.61	1199.04
526.97	1215.55
527.33	1231.75
527.68	1247.96
528.04	1264.12
528.40	1280.35
528.76	1297.16
529.12	1313.44
529.48	1330.03
529.84	1345.78
530.20	1362.13
530.56	1378.81
530.91	1395.87
531.27	1412.44
531.63	1428.64
531.99	1445.06
532.35	1460.91
532.71	1476.67
533.07	1492.71
533.42	1508.33
533.78	1524.07
534.14	1540.02
534.50	1555.11
534.86	1570.79
535.21	1585.63
535.57	1601.20
535.93	1616.37
536.29	1630.89
536.65	1645.68
537.00	1660.18
537.36	1675.26
537.72	1689.45
538.08	1703.69
538.44	1717.32
538.79	1731.00
539.15	1744.34
539.51	1757.77
539.87	1771.79
540.22	1785.40
540.58	1798.85
540.94	1811.92
541.29	1824.55
541.65	1837.17
542.01	1850.16
542.37	1862.19
542.72	1874.53
543.08	1886.39
543.44	1898.72
543.79	1909.98
544.15	1920.90
544.51	1932.52
544.87	1943.36
545.22	1954.16
545.58	1964.45
545.94	1974.30
546.29	1984.16
546.65	1994.19
547.01	2003.71
547.36	2012.58
547.72	2021.09
548.07	2029.34
548.43	2037.55
548.79	2045.57
549.14	2053.24
549.50	2060.53
549.86	2068.27
550.21	2075.66
550.57	2082.84
550.92	2089.57
551.28	2096.57
551.64	2103.71
551.99	2110.35
552.35	2116.80
552.70	2123.13
553.06	2129.31
553.41	2135.86
553.77	2141.96
554.13	2148.19
554.48	2154.39
554.84	2160.13
555.19	2165.54
555.55	2170.80
555.90	2175.66
556.26	2181.03
556.61	2185.86
556.97	2190.63
557.32	2195.14
557.68	2199.61
558.03	2204.20
558.39	2208.05
558.74	2212.97
559.10	2217.15
559.45	2220.91
559.81	2225.32
560.16	2229.31
560.52	2232.74
560.87	2236.25
561.23	2239.22
561.58	2242.17
561.94	2245.07
562.29	2247.44
562.64	2250.70
563.00	2253.52
563.35	2257.16
563.71	2260.48
564.06	2263.82
564.42	2267.08
564.77	2270.07
565.12	2272.83
565.48	2275.01
565.83	2277.36
566.19	2279.16
566.54	2280.28
566.89	2281.88
567.25	2283.03
567.60	2284.57
567.96	2286.65
568.31	2287.91
568.66	2289.33
569.02	2290.25
569.37	2290.87
569.72	2292.26
570.08	2292.52
570.43	2292.76
570.78	2292.59
571.14	2291.32
571.49	2290.26
571.84	2289.80
572.20	2288.94
572.55	2287.91
572.90	2286.53
573.26	2285.50
573.61	2283.89
573.96	2282.58
574.31	2280.04
574.67	2277.31
575.02	2273.98
575.37	2270.80
575.72	2267.45
576.08	2264.19
576.43	2261.18
576.78	2257.88
577.13	2254.71
577.49	2251.75
577.84	2248.75
578.19	2245.21
578.54	2242.07
578.90	2238.46
579.25	2233.45
579.60	2228.84
579.95	2224.21
580.30	2219.46
580.66	2214.40
581.01	2209.67
581.36	2205.03
581.71	2201.03
582.06	2196.86
582.42	2192.85
582.77	2187.90
583.12	2183.48
583.47	2179.37
583.82	2174.82
584.17	2169.74
584.53	2164.59
584.88	2159.17
585.23	2153.64
585.58	2148.38
585.93	2142.89
586.28	2138.10
586.63	2133.26
586.98	2128.24
587.34	2123.69
587.69	2119.06
588.04	2114.10
588.39	2108.75
588.74	2102.39
589.09	2096.46
589.44	2089.94
589.79	2083.80
590.14	2078.29
590.49	2071.76
590.84	2065.30
591.19	2059.41
591.54	2053.18
591.89	2046.23
592.25	2039.84
592.60	2032.77
592.95	2025.40
593.30	2018.42
593.65	2010.81
594.00	2003.77
594.35	1996.73
594.70	1988.77
595.05	1981.85
595.40	1974.60
595.75	1967.27
596.10	1961.33
596.45	1954.79
596.80	1948.63
597.15	1942.28
597.50	1935.51
597.85	1929.16
598.19	1922.75
598.54	1916.01
598.89	1909.38
599.24	1903.43
599.59	1897.05
599.94	1890.79
600.29	1884.55
600.64	1877.94
600.99	1870.81
601.34	1864.31
601.69	1857.26
602.04	1850.66
602.39	1843.24
602.74	1836.63
603.08	1829.91
603.43	1823.02
603.78	1815.64
604.13	1808.52
604.48	1801.42
604.83	1794.43
605.18	1787.66
605.53	1779.72
605.87	1771.59
606.22	1764.39
606.57	1756.47
606.92	1748.80
607.27	1741.72
607.62	1734.82
607.96	1727.74
608.31	1721.31
608.66	1713.70
609.01	1706.32
609.36	1698.79
609.70	1690.75
610.05	1682.68
610.40	1675.10
610.75	1666.89
611.10	1659.16
611.44	1650.72
611.79	1642.60
612.14	1634.01
612.49	1624.61
612.83	1616.03
613.18	1607.74
613.53	1599.55
613.88	1590.92
614.22	1582.65
614.57	1573.87
614.92	1565.73
615.27	1558.14
615.61	1549.76
615.96	1541.41
616.31	1533.56
616.65	1526.06
617.00	1518.49
617.35	1510.75
617.70	1502.35
618.04	1493.91
618.39	1485.60
618.74	1477.97
619.08	1469.53
619.43	1461.81
619.78	1454.80
620.12	1447.79
620.47	1440.11
620.82	1431.86
621.16	1424.28
621.51	1416.63
621.85	1409.00
622.20	1400.46
622.55	1391.88
622.89	1383.87
623.24	1376.24
623.59	1368.76
623.93	1361.16
624.28	1353.87
624.62	1346.26
624.97	1338.94
625.32	1331.91
625.66	1324.87
626.01	1317.56
626.35	1310.18
626.70	1302.41
627.04	1294.79
627.39	1286.88
627.73	1279.45
628.08	1272.44
628.43	1265.18
628.77	1257.70
629.12	1250.15
629.46	1242.93
629.81	1235.27
630.15	1227.88
630.50	1220.50
630.84	1212.34
631.19	1204.26
631.53	1196.57
631.88	1188.86
632.22	1181.21
632.57	1173.85
632.91	1166.22
633.26	1158.72
633.60	1151.18
633.95	1143.90
634.29	1136.66
634.64	1129.72
634.98	1122.33
635.32	1115.18
635.67	1108.53
636.01	1101.76
636.36	1094.89
636.70	1088.33
637.05	1081.80
637.39	1075.31
637.73	1068.77
638.08	1062.76
638.42	1056.70
638.77	1050.31
639.11	1043.81
639.45	1037.34
639.80	1030.64
640.14	1024.21
640.49	1017.69
640.83	1011.41
641.17	1005.15
641.52	998.88
641.86	992.51
642.20	986.68
642.55	980.23
642.89	973.70
643.23	967.04
643.58	961.25
643.92	955.00
644.26	949.05
644.61	942.88
644.95	936.82
645.29	930.17
645.64	923.44
645.98	917.08
646.32	910.96
646.66	904.96
647.01	899.19
647.35	893.49
647.69	887.57
648.04	882.00
648.38	876.17
648.72	870.22
649.06	864.17
649.41	858.17
649.75	852.25
650.09	846.28
650.43	840.58
650.78	834.38
651.12	828.38
651.46	822.50
651.80	816.88
652.14	811.36
652.49	806.01
652.83	800.84
653.17	795.19
653.51	789.58
653.85	784.08
654.20	778.41
654.54	772.27
654.88	766.43
655.22	760.46
655.56	754.70
655.90	749.07
656.25	743.80
656.59	738.42
656.93	733.26
657.27	728.15
657.61	722.64
657.95	717.47
658.29	712.42
658.64	707.08
658.98	701.64
659.32	696.14
659.66	690.95
660.00	685.62
660.34	680.62
660.68	675.68
661.02	670.60
661.36	665.79
661.70	661.35
662.05	656.98
662.39	652.69
662.73	648.19
663.07	643.84
663.41	639.35
663.75	634.90
664.09	630.32
664.43	625.79
664.77	621.71
665.11	617.52
665.45	613.29
665.79	609.32
666.13	605.20
666.47	601.16
666.81	596.93
667.15	592.77
667.49	588.76
667.83	584.83
668.17	580.83
668.51	576.80
668.85	572.74
669.19	568.83
669.53	564.96
669.87	561.13
670.21	557.35
670.55	553.69
670.89	550.18
671.23	546.77
671.57	543.28
671.91	539.78
672.25	536.17
672.58	532.68
672.92	529.19
673.26	525.98
673.60	522.76
673.94	519.71
674.28	516.76
674.62	513.88
674.96	510.86
675.30	507.97
675.64	505.07
675.97	502.23
676.31	499.39
676.65	496.45
676.99	493.73
677.33	490.91
677.67	488.04
678.01	485.02
678.34	482.04
678.68	479.15
679.02	476.32
679.36	473.57
679.70	470.76
680.04	468.00
680.37	465.15
680.71	462.31
681.05	459.59
681.39	456.83
681.73	454.13
682.06	451.55
682.40	448.97
682.74	446.34
683.08	443.71
683.42	441.08
683.75	438.54
684.09	435.94
684.43	433.43
684.77	430.98
685.10	428.58
685.44	426.22
685.78	423.89
686.12	421.55
686.45	419.24
686.79	416.94
687.13	414.73
687.46	412.51
687.80	410.37
688.14	408.09
688.48	406.05
688.81	403.81
689.15	401.67
689.49	399.49
689.82	397.43
690.16	395.34
690.50	393.33
690.83	391.38
691.17	389.36
691.51	387.41
691.84	385.55
692.18	383.68
692.52	381.75
692.85	379.80
693.19	377.95
693.52	376.07
693.86	374.22
694.20	372.42
694.53	370.63
694.87	368.71
695.21	366.91
695.54	365.00
695.88	363.20
696.21	361.44
696.55	359.72
696.88	358.03
697.22	356.36
697.56	354.69
697.89	353.00
698.23	351.43
698.56	349.81
698.90	348.19
699.23	346.51
699.57	344.89
699.90	343.29
700.24	341.69
700.58	340.16
700.91	338.71
701.25	337.26
701.58	335.88
701.92	334.54
702.25	333.18
702.59	331.78
702.92	330.44
703.26	329.08
703.59	327.78
703.93	326.54
704.26	325.31
704.60	324.04
704.93	322.77
705.26	321.44
705.60	320.25
705.93	319.05
706.27	318.02
706.60	317.01
706.94	315.95
707.27	314.78
707.61	313.67
707.94	312.58
708.27	311.45
708.61	310.39
708.94	309.36
709.28	308.32
709.61	307.39
709.94	306.44
710.28	305.45
710.61	304.46
710.95	303.34
711.28	302.38
711.61	301.37
711.95	300.48
712.28	299.58
712.61	298.57
712.95	297.62
713.28	296.67
713.61	295.74
713.95	294.84
714.28	293.97
714.61	293.12
714.95	292.24
715.28	291.36
715.61	290.43
715.95	289.55
716.28	288.68
716.61	287.81
716.95	286.97
717.28	286.21
717.61	285.44
717.94	284.72
718.28	283.92
718.61	283.21
718.94	282.46
719.27	281.76
719.61	281.13
719.94	280.48
720.27	279.74
720.60	279.05
720.94	278.42
721.27	277.84
721.60	277.25
721.93	276.64
722.27	276.07
722.60	275.52
722.93	274.96
723.26	274.46
723.59	273.88
723.93	273.32
724.26	272.71
724.59	272.11
724.92	271.58
725.25	271.05
725.59	270.55
725.92	270.02
726.25	269.49
726.58	269.01
726.91	268.50
727.24	268.04
727.57	267.51
727.91	266.96
728.24	266.46
728.57	265.97
728.90	265.58
729.23	265.09
729.56	264.66
729.89	264.14
730.22	263.62
730.55	263.18
730.89	262.73
731.22	262.33
731.55	261.94
731.88	261.53
732.21	261.09
732.54	260.66
732.87	260.25
733.20	259.86
733.53	259.46
733.86	259.07
734.19	258.66
734.52	258.30
734.85	258.00
735.18	257.60
735.51	257.24
735.84	256.79
736.17	256.41
736.50	256.00
736.83	255.77
737.16	255.47
737.49	255.13
737.82	254.77
738.15	254.40
738.48	254.05
738.81	253.68
739.14	253.41
739.47	253.08
739.80	252.75
740.13	252.43
740.46	252.10
740.79	251.74
741.12	251.44
741.45	251.10
741.78	250.77
742.11	250.48
742.44	250.14
742.77	249.85
743.10	249.60
743.43	249.28
743.75	248.91
744.08	248.76
744.41	248.50
744.74	248.29
745.07	248.04
745.40	247.78
745.73	247.57
746.06	247.28
746.39	247.03
746.71	246.78
747.04	246.48
747.37	246.21
747.70	246.02
748.03	245.78
748.36	245.57
748.68	245.33
749.01	245.09
749.34	244.83
749.67	244.63
750.00	244.37
750.33	244.21
750.65	243.99
750.98	243.63
751.31	243.39
751.64	243.16
751.97	242.98
752.29	242.73
752.62	242.46
752.95	242.24
753.28	241.99
753.60	241.76
753.93	241.55
754.26	241.34
754.59	241.10
754.91	240.91
755.24	240.70
755.57	240.50
755.90	240.31
756.22	240.12
756.55	239.89
756.88	239.68
757.20	239.45
757.53	239.28
757.86	239.09
758.19	238.93
758.51	238.71
758.84	238.50
759.17	238.36
759.49	238.19
759.82	238.09
760.15	237.93
760.47	237.82
760.80	237.66
761.13	237.55
761.45	237.38
761.78	237.19
762.11	237.07
762.43	236.88
762.76	236.76
763.08	236.65
763.41	236.53
763.74	236.43
764.06	236.30
764.39	236.13
764.71	235.99
765.04	235.86
765.37	235.77
765.69	235.61
766.02	235.46
766.34	235.34
766.67	235.15
767.00	235.07
767.32	234.99
767.65	234.94
767.97	234.82
768.30	234.72
768.62	234.62
768.95	234.47
769.27	234.37
769.60	234.27
769.92	234.13
770.25	234.02
770.57	233.88
770.90	233.75
771.22	233.65
771.55	233.55
771.87	233.47
772.20	233.33
772.52	233.34
772.85	233.38
773.17	233.28
773.50	233.20
773.82	233.07
774.15	232.91
774.47	232.75
774.80	232.62
775.12	232.50
775.45	232.41
775.77	232.36
776.09	232.29
776.42	232.20
776.74	232.16
777.07	232.04
777.39	231.99
777.72	231.95
778.04	231.86
778.36	231.76
778.69	231.66
779.01	231.60
779.33	231.40
779.66	231.19
779.98	231.08
780.31	231.00
780.63	230.97
780.95	230.92
781.28	230.85
781.60	230.81
781.92	230.74
782.25	230.66
782.57	230.58
782.89	230.50
783.22	230.39
783.54	230.29
783.86	230.24
784.19	230.15
784.51	230.07
784.83	230.00
785.16	229.95
785.48	229.88
785.80	229.83
786.12	229.81
786.45	229.75
786.77	229.73
787.09	229.71
