SpectraSuite Data File
++++++++++++++++++++++++++++++++++++
Date: Fri Feb 01 15:04:36 EST 2013
User: group
Dark Spectrum Present: No
Reference Spectrum Present: No
Number of Sampled Component Spectra: 1
Spectrometers: USB2E7196
Integration Time (usec): 35000 (USB2E7196)
Spectra Averaged: 100 (USB2E7196)
Boxcar Smoothing: 10 (USB2E7196)
Correct for Electrical Dark: No (USB2E7196)
Strobe/Lamp Enabled: No (USB2E7196)
Correct for Detector Non-linearity: No (USB2E7196)
Correct for Stray Light: No (USB2E7196)
Number of Pixels in Processed Spectrum: 2048
>>>>>Begin Processed Spectral Data<<<<<
339.09	0.00
339.48	215.87
339.86	216.73
340.24	218.15
340.63	219.29
341.01	222.35
341.39	221.87
341.78	223.63
342.16	224.55
342.54	225.34
342.93	213.46
343.31	224.22
343.69	224.76
344.07	225.22
344.46	225.65
344.84	226.01
345.22	226.24
345.60	226.50
345.99	226.71
346.37	226.85
346.75	226.94
347.13	227.01
347.52	227.06
347.90	227.13
348.28	227.14
348.66	227.18
349.05	227.17
349.43	227.23
349.81	227.26
350.19	227.34
350.57	227.43
350.96	227.52
351.34	227.62
351.72	227.66
352.10	227.74
352.48	227.80
352.87	227.87
353.25	227.91
353.63	227.98
354.01	227.99
354.39	228.08
354.77	228.17
355.15	228.29
355.54	228.34
355.92	228.40
356.30	228.50
356.68	228.60
357.06	228.67
357.44	228.69
357.82	228.77
358.20	228.81
358.58	228.89
358.97	228.95
359.35	229.01
359.73	229.11
360.11	229.16
360.49	229.21
360.87	229.28
361.25	229.37
361.63	229.46
362.01	229.52
362.39	229.51
362.77	229.50
363.15	229.50
363.53	229.53
363.91	229.53
364.29	229.58
364.67	229.51
365.05	229.53
365.43	229.55
365.81	229.56
366.19	229.61
366.57	229.63
366.95	229.61
367.33	229.58
367.71	229.54
368.09	229.54
368.47	229.52
368.85	229.48
369.23	229.46
369.61	229.38
369.99	229.39
370.37	229.39
370.75	229.42
371.13	229.39
371.51	229.33
371.89	229.28
372.27	229.22
372.65	229.19
373.03	229.13
373.41	229.06
373.78	228.96
374.16	228.84
374.54	228.75
374.92	228.65
375.30	228.59
375.68	228.50
376.06	228.43
376.44	228.36
376.82	228.29
377.19	228.24
377.57	228.16
377.95	228.02
378.33	227.92
378.71	227.77
379.09	227.72
379.47	227.67
379.84	227.63
380.22	227.52
380.60	227.43
380.98	227.34
381.36	227.26
381.73	227.22
382.11	227.16
382.49	227.05
382.87	227.01
383.25	226.94
383.62	226.99
384.00	226.91
384.38	226.85
384.76	226.82
385.13	226.78
385.51	226.72
385.89	226.66
386.27	226.63
386.64	226.65
387.02	226.57
387.40	226.51
387.78	226.45
388.15	226.41
388.53	226.39
388.91	226.37
389.29	226.36
389.66	226.33
390.04	226.30
390.42	226.32
390.79	226.30
391.17	226.30
391.55	226.23
391.92	226.22
392.30	226.26
392.68	226.20
393.05	226.15
393.43	226.19
393.81	226.23
394.18	226.21
394.56	226.21
394.94	226.27
395.31	226.29
395.69	226.37
396.06	226.44
396.44	226.49
396.82	226.54
397.19	226.62
397.57	226.68
397.95	226.78
398.32	226.85
398.70	226.93
399.07	227.05
399.45	227.11
399.82	227.21
400.20	227.24
400.58	227.36
400.95	227.44
401.33	227.55
401.70	227.70
402.08	227.83
402.45	227.96
402.83	228.09
403.20	228.22
403.58	228.36
403.95	228.50
404.33	228.61
404.71	228.74
405.08	228.96
405.46	229.10
405.83	229.27
406.21	229.40
406.58	229.60
406.96	229.76
407.33	229.95
407.70	230.15
408.08	230.44
408.45	230.67
408.83	230.94
409.20	231.18
409.58	231.38
409.95	231.66
410.33	231.92
410.70	232.16
411.08	232.48
411.45	232.78
411.82	233.10
412.20	233.49
412.57	233.89
412.95	234.19
413.32	234.57
413.69	234.97
414.07	235.40
414.44	235.85
414.82	236.33
415.19	236.88
415.56	237.43
415.94	237.99
416.31	238.62
416.68	239.26
417.06	239.95
417.43	240.64
417.81	241.42
418.18	242.19
418.55	243.03
418.93	243.91
419.30	244.79
419.67	245.74
420.04	246.67
420.42	247.65
420.79	248.85
421.16	250.03
421.54	251.21
421.91	252.44
422.28	253.69
422.66	255.01
423.03	256.28
423.40	257.62
423.77	259.04
424.15	260.47
424.52	261.96
424.89	263.58
425.26	265.09
425.64	266.52
426.01	268.12
426.38	269.77
426.75	271.43
427.13	273.16
427.50	274.96
427.87	276.82
428.24	278.70
428.61	280.40
428.99	282.31
429.36	284.40
429.73	286.43
430.10	288.44
430.47	290.49
430.85	292.62
431.22	294.83
431.59	297.18
431.96	299.38
432.33	301.86
432.70	304.23
433.08	307.05
433.45	309.69
433.82	312.27
434.19	315.17
434.56	317.98
434.93	320.61
435.30	323.22
435.68	326.11
436.05	328.92
436.42	331.70
436.79	334.27
437.16	336.98
437.53	339.86
437.90	342.67
438.27	345.45
438.64	348.27
439.01	350.89
439.38	353.15
439.75	355.37
440.13	357.87
440.50	360.26
440.87	362.07
441.24	364.04
441.61	366.25
441.98	367.73
442.35	369.53
442.72	371.45
443.09	373.27
443.46	374.29
443.83	374.92
444.20	375.48
444.57	376.31
444.94	376.62
445.31	376.91
445.68	377.23
446.05	377.29
446.42	376.92
446.79	376.52
447.16	376.06
447.53	375.73
447.90	374.56
448.27	373.33
448.64	371.78
449.01	370.60
449.37	368.58
449.74	366.65
450.11	364.39
450.48	361.87
450.85	359.35
451.22	357.21
451.59	355.16
451.96	353.23
452.33	350.59
452.70	348.21
453.07	345.41
453.43	342.56
453.80	339.79
454.17	337.12
454.54	334.53
454.91	331.81
455.28	329.13
455.65	326.63
456.02	324.21
456.38	322.06
456.75	319.42
457.12	317.23
457.49	315.04
457.86	312.90
458.23	311.02
458.59	308.96
458.96	306.86
459.33	304.98
459.70	303.06
460.07	301.57
460.43	299.85
460.80	298.25
461.17	296.78
461.54	295.29
461.91	293.84
462.27	292.42
462.64	291.12
463.01	289.72
463.38	288.40
463.74	287.05
464.11	285.88
464.48	284.87
464.85	283.70
465.21	282.81
465.58	281.87
465.95	280.81
466.32	279.92
466.68	279.03
467.05	278.11
467.42	277.24
467.78	276.33
468.15	275.46
468.52	274.77
468.88	273.88
469.25	273.10
469.62	272.46
469.98	271.74
470.35	271.13
470.72	270.54
471.08	269.89
471.45	269.31
471.82	268.76
472.18	268.13
472.55	267.72
472.92	267.20
473.28	266.74
473.65	266.24
474.02	265.76
474.38	265.34
474.75	265.03
475.11	264.65
475.48	264.34
475.85	264.09
476.21	263.82
476.58	263.69
476.94	263.50
477.31	263.33
477.67	263.20
478.04	263.06
478.41	263.00
478.77	263.01
479.14	262.92
479.50	262.91
479.87	262.94
480.23	262.99
480.60	263.01
480.96	263.08
481.33	263.24
481.69	263.43
482.06	263.61
482.42	263.80
482.79	264.06
483.15	264.35
483.52	264.74
483.88	265.10
484.25	265.44
484.61	265.91
484.98	266.35
485.34	266.88
485.71	267.47
486.07	268.07
486.44	268.64
486.80	269.33
487.17	270.04
487.53	270.91
487.90	271.73
488.26	272.68
488.62	273.62
488.99	274.62
489.35	275.69
489.72	276.86
490.08	278.04
490.44	279.25
490.81	280.61
491.17	281.93
491.54	283.42
491.90	284.94
492.26	286.54
492.63	288.28
492.99	290.08
493.36	292.01
493.72	294.01
494.08	296.11
494.45	298.38
494.81	300.73
495.17	303.13
495.54	305.70
495.90	308.39
496.26	311.20
496.63	314.13
496.99	317.20
497.35	320.42
497.72	323.78
498.08	327.32
498.44	330.99
498.80	334.90
499.17	338.88
499.53	343.04
499.89	347.41
500.26	351.91
500.62	356.54
500.98	361.53
501.34	366.60
501.71	371.88
502.07	377.29
502.43	382.88
502.79	388.70
503.16	394.78
503.52	400.97
503.88	407.38
504.24	413.98
504.60	420.85
504.97	427.95
505.33	435.26
505.69	442.88
506.05	450.60
506.41	458.46
506.78	466.66
507.14	475.11
507.50	483.76
507.86	492.79
508.22	502.00
508.59	511.12
508.95	520.69
509.31	530.50
509.67	540.51
510.03	550.82
510.39	561.34
510.75	572.09
511.12	583.04
511.48	594.35
511.84	605.85
512.20	617.32
512.56	629.31
512.92	641.57
513.28	653.89
513.64	666.35
514.00	679.07
514.37	691.97
514.73	705.07
515.09	718.17
515.45	731.50
515.81	745.08
516.17	759.09
516.53	773.21
516.89	787.45
517.25	801.74
517.61	816.18
517.97	830.67
518.33	845.19
518.69	860.03
519.05	874.92
519.41	890.09
519.77	905.73
520.13	921.11
520.49	936.46
520.85	951.98
521.21	967.77
521.57	984.10
521.93	999.97
522.29	1016.38
522.65	1032.70
523.01	1048.94
523.37	1065.09
523.73	1081.35
524.09	1097.44
524.45	1113.82
524.81	1130.53
525.17	1147.46
525.53	1164.39
525.89	1181.30
526.25	1198.12
526.61	1214.66
526.97	1231.45
527.33	1247.90
527.68	1264.66
528.04	1281.16
528.40	1297.87
528.76	1314.97
529.12	1331.58
529.48	1348.46
529.84	1364.53
530.20	1381.21
530.56	1398.31
530.91	1415.68
531.27	1432.45
531.63	1449.09
531.99	1465.76
532.35	1481.76
532.71	1497.58
533.07	1513.94
533.42	1529.84
533.78	1545.89
534.14	1562.32
534.50	1577.81
534.86	1593.89
535.21	1609.06
535.57	1625.14
535.93	1640.71
536.29	1655.62
536.65	1670.73
537.00	1685.66
537.36	1701.09
537.72	1715.79
538.08	1730.10
538.44	1744.03
538.79	1757.97
539.15	1771.86
539.51	1785.67
539.87	1800.21
540.22	1814.14
540.58	1828.11
540.94	1841.61
541.29	1854.87
541.65	1867.72
542.01	1881.03
542.37	1893.37
542.72	1905.91
543.08	1917.72
543.44	1930.12
543.79	1941.44
544.15	1952.51
544.51	1964.08
544.87	1975.07
545.22	1985.74
545.58	1996.24
545.94	2006.06
546.29	2016.02
546.65	2025.69
547.01	2035.00
547.36	2043.64
547.72	2052.09
548.07	2059.80
548.43	2068.03
548.79	2076.02
549.14	2083.51
549.50	2090.86
549.86	2098.61
550.21	2105.80
550.57	2113.10
550.92	2119.73
551.28	2126.86
551.64	2133.93
551.99	2140.48
552.35	2146.82
552.70	2153.03
553.06	2158.83
553.41	2165.05
553.77	2171.16
554.13	2177.35
554.48	2183.32
554.84	2188.75
555.19	2194.11
555.55	2199.23
555.90	2203.59
556.26	2208.24
556.61	2212.90
556.97	2217.04
557.32	2221.10
557.68	2225.36
558.03	2229.65
558.39	2233.40
558.74	2237.88
559.10	2241.70
559.45	2245.34
559.81	2249.55
560.16	2253.38
560.52	2256.68
560.87	2260.27
561.23	2262.78
561.58	2265.61
561.94	2268.18
562.29	2270.56
562.64	2273.28
563.00	2275.96
563.35	2279.60
563.71	2282.87
564.06	2286.01
564.42	2288.77
564.77	2291.11
565.12	2293.31
565.48	2294.96
565.83	2296.76
566.19	2297.88
566.54	2298.79
566.89	2299.83
567.25	2300.17
567.60	2301.47
567.96	2302.97
568.31	2303.59
568.66	2304.52
569.02	2305.04
569.37	2305.16
569.72	2305.86
570.08	2305.65
570.43	2305.47
570.78	2304.58
571.14	2302.77
571.49	2301.25
571.84	2300.93
572.20	2299.61
572.55	2298.37
572.90	2296.84
573.26	2295.18
573.61	2293.40
573.96	2291.42
574.31	2288.26
574.67	2285.07
575.02	2281.19
575.37	2277.59
575.72	2273.64
576.08	2270.25
576.43	2266.76
576.78	2262.95
577.13	2259.72
577.49	2256.53
577.84	2252.88
578.19	2249.06
578.54	2245.24
578.90	2240.81
579.25	2235.03
579.60	2230.07
579.95	2225.03
580.30	2219.77
580.66	2214.53
581.01	2209.60
581.36	2204.62
581.71	2200.17
582.06	2195.64
582.42	2191.04
582.77	2185.72
583.12	2180.94
583.47	2176.05
583.82	2170.85
584.17	2165.47
584.53	2159.81
584.88	2154.12
585.23	2148.32
585.58	2142.59
585.93	2137.13
586.28	2132.41
586.63	2127.27
586.98	2122.15
587.34	2117.35
587.69	2112.44
588.04	2106.97
588.39	2101.14
588.74	2094.48
589.09	2088.34
589.44	2081.39
589.79	2075.23
590.14	2069.45
590.49	2062.94
590.84	2056.34
591.19	2050.34
591.54	2043.86
591.89	2036.26
592.25	2029.26
592.60	2021.93
592.95	2014.35
593.30	2006.88
593.65	1999.09
594.00	1991.96
594.35	1984.63
594.70	1976.42
595.05	1969.01
595.40	1961.63
595.75	1954.01
596.10	1947.73
596.45	1940.85
596.80	1934.62
597.15	1927.94
597.50	1920.78
597.85	1914.28
598.19	1907.75
598.54	1900.56
598.89	1893.86
599.24	1888.02
599.59	1881.32
599.94	1875.06
600.29	1868.65
600.64	1862.16
600.99	1854.69
601.34	1847.91
601.69	1840.84
602.04	1833.86
602.39	1826.53
602.74	1819.85
603.08	1813.19
603.43	1806.51
603.78	1799.23
604.13	1792.04
604.48	1784.87
604.83	1778.04
605.18	1770.99
605.53	1762.90
605.87	1754.76
606.22	1747.54
606.57	1739.60
606.92	1732.33
607.27	1725.04
607.62	1718.05
607.96	1710.67
608.31	1704.00
608.66	1696.30
609.01	1688.77
609.36	1681.27
609.70	1673.42
610.05	1665.21
610.40	1657.43
610.75	1649.08
611.10	1641.48
611.44	1633.18
611.79	1625.09
612.14	1616.45
612.49	1607.27
612.83	1599.02
613.18	1590.99
613.53	1582.93
613.88	1574.48
614.22	1566.17
614.57	1557.64
614.92	1549.69
615.27	1542.17
615.61	1533.88
615.96	1525.84
616.31	1518.32
616.65	1511.07
617.00	1503.35
617.35	1495.67
617.70	1487.38
618.04	1478.85
618.39	1470.54
618.74	1462.90
619.08	1454.59
619.43	1447.08
619.78	1440.33
620.12	1433.08
620.47	1425.57
620.82	1417.40
621.16	1410.01
621.51	1402.51
621.85	1395.03
622.20	1386.67
622.55	1378.30
622.89	1370.46
623.24	1362.89
623.59	1355.51
623.93	1347.85
624.28	1340.60
624.62	1333.19
624.97	1325.95
625.32	1319.29
625.66	1312.37
626.01	1305.11
626.35	1297.67
626.70	1289.90
627.04	1282.05
627.39	1274.37
627.73	1267.03
628.08	1260.08
628.43	1252.74
628.77	1245.27
629.12	1237.53
629.46	1230.26
629.81	1222.95
630.15	1215.77
630.50	1208.40
630.84	1200.22
631.19	1192.44
631.53	1185.08
631.88	1177.50
632.22	1169.91
632.57	1162.59
632.91	1155.09
633.26	1147.76
633.60	1140.56
633.95	1133.62
634.29	1126.71
634.64	1120.05
634.98	1112.59
635.32	1105.57
635.67	1099.00
636.01	1092.44
636.36	1085.74
636.70	1079.32
637.05	1072.76
637.39	1066.37
637.73	1059.93
638.08	1054.03
638.42	1048.05
638.77	1041.60
639.11	1035.08
639.45	1028.82
639.80	1022.15
640.14	1015.73
640.49	1009.24
640.83	1002.91
641.17	996.60
641.52	990.28
641.86	983.87
642.20	978.20
642.55	971.98
642.89	965.48
643.23	959.07
643.58	953.37
643.92	947.14
644.26	941.07
644.61	935.08
644.95	928.98
645.29	922.40
645.64	915.65
645.98	909.31
646.32	903.53
646.66	897.51
647.01	891.78
647.35	886.10
647.69	880.30
648.04	874.77
648.38	869.03
648.72	863.01
649.06	856.94
649.41	850.99
649.75	844.88
650.09	839.01
650.43	833.20
650.78	827.05
651.12	821.11
651.46	815.39
651.80	809.64
652.14	804.32
652.49	799.07
652.83	793.93
653.17	788.35
653.51	782.63
653.85	777.30
654.20	771.66
654.54	765.70
654.88	759.98
655.22	754.21
655.56	748.53
655.90	743.11
656.25	737.92
656.59	732.69
656.93	727.64
657.27	722.46
657.61	717.04
657.95	712.05
658.29	706.98
658.64	701.83
658.98	696.59
659.32	691.13
659.66	685.89
660.00	680.63
660.34	675.69
660.68	670.82
661.02	665.75
661.36	661.11
661.70	656.65
662.05	652.36
662.39	647.90
662.73	643.48
663.07	639.17
663.41	634.70
663.75	630.17
664.09	625.76
664.43	621.44
664.77	617.30
665.11	612.98
665.45	608.94
665.79	604.85
666.13	600.66
666.47	596.58
666.81	592.41
667.15	588.31
667.49	584.41
667.83	580.59
668.17	576.68
668.51	572.60
668.85	568.63
669.19	564.83
669.53	561.11
669.87	557.22
670.21	553.52
670.55	549.88
670.89	546.46
671.23	542.98
671.57	539.48
671.91	536.00
672.25	532.60
672.58	529.10
672.92	525.72
673.26	522.64
673.60	519.56
673.94	516.52
674.28	513.68
674.62	510.74
674.96	507.67
675.30	504.75
675.64	501.83
675.97	499.06
676.31	496.16
676.65	493.18
676.99	490.52
677.33	487.66
677.67	484.86
678.01	481.83
678.34	478.83
678.68	476.01
679.02	473.19
679.36	470.41
679.70	467.69
680.04	464.88
680.37	461.96
680.71	459.19
681.05	456.58
681.39	453.85
681.73	451.26
682.06	448.71
682.40	446.22
682.74	443.70
683.08	441.18
683.42	438.63
683.75	436.17
684.09	433.65
684.43	431.23
684.77	428.77
685.10	426.45
685.44	424.19
685.78	421.86
686.12	419.67
686.45	417.40
686.79	415.12
687.13	412.96
687.46	410.83
687.80	408.66
688.14	406.43
688.48	404.40
688.81	402.13
689.15	400.00
689.49	397.85
689.82	395.82
690.16	393.71
690.50	391.77
690.83	389.85
691.17	387.88
691.51	385.99
691.84	384.15
692.18	382.27
692.52	380.34
692.85	378.41
693.19	376.50
693.52	374.71
693.86	372.89
694.20	371.13
694.53	369.39
694.87	367.60
695.21	365.82
695.54	363.98
695.88	362.28
696.21	360.59
696.55	358.94
696.88	357.25
697.22	355.60
697.56	353.97
697.89	352.33
698.23	350.74
698.56	349.13
698.90	347.55
699.23	345.90
699.57	344.31
699.90	342.83
700.24	341.31
700.58	339.76
700.91	338.30
701.25	336.86
701.58	335.48
701.92	334.12
702.25	332.76
702.59	331.46
702.92	330.14
703.26	328.81
703.59	327.55
703.93	326.39
704.26	325.22
704.60	323.93
704.93	322.69
705.26	321.46
705.60	320.32
705.93	319.19
706.27	318.18
706.60	317.17
706.94	316.12
707.27	314.98
707.61	313.94
707.94	312.91
708.27	311.87
708.61	310.79
708.94	309.79
709.28	308.81
709.61	307.82
709.94	306.88
710.28	305.87
710.61	304.87
710.95	303.79
711.28	302.85
711.61	301.96
711.95	301.01
712.28	300.07
712.61	299.08
712.95	298.17
713.28	297.26
713.61	296.37
713.95	295.44
714.28	294.65
714.61	293.78
714.95	292.92
715.28	292.06
715.61	291.20
715.95	290.38
716.28	289.55
716.61	288.75
716.95	287.96
717.28	287.24
717.61	286.48
717.94	285.77
718.28	284.94
718.61	284.18
718.94	283.52
719.27	282.86
719.61	282.22
719.94	281.55
720.27	280.84
720.60	280.19
720.94	279.60
721.27	278.99
721.60	278.40
721.93	277.80
722.27	277.22
722.60	276.67
722.93	276.07
723.26	275.53
723.59	274.96
723.93	274.34
724.26	273.80
724.59	273.22
724.92	272.68
725.25	272.20
725.59	271.69
725.92	271.13
726.25	270.64
726.58	270.12
726.91	269.61
727.24	269.14
727.57	268.67
727.91	268.13
728.24	267.63
728.57	267.15
728.90	266.69
729.23	266.19
729.56	265.77
729.89	265.31
730.22	264.81
730.55	264.36
730.89	263.95
731.22	263.46
731.55	263.02
731.88	262.62
732.21	262.16
732.54	261.73
732.87	261.31
733.20	260.89
733.53	260.51
733.86	260.13
734.19	259.74
734.52	259.33
734.85	259.04
735.18	258.66
735.51	258.32
735.84	257.94
736.17	257.64
736.50	257.23
736.83	256.99
737.16	256.67
737.49	256.32
737.82	255.99
738.15	255.69
738.48	255.34
738.81	255.02
739.14	254.72
739.47	254.41
739.80	254.14
740.13	253.83
740.46	253.51
740.79	253.24
741.12	252.92
741.45	252.64
741.78	252.27
742.11	251.99
742.44	251.67
742.77	251.42
743.10	251.11
743.43	250.80
743.75	250.43
744.08	250.29
744.41	250.03
744.74	249.76
745.07	249.47
745.40	249.28
745.73	249.04
746.06	248.79
746.39	248.52
746.71	248.26
747.04	247.98
747.37	247.71
747.70	247.45
748.03	247.23
748.36	247.02
748.68	246.83
749.01	246.56
749.34	246.32
749.67	246.04
750.00	245.84
750.33	245.72
750.65	245.50
750.98	245.12
751.31	244.90
751.64	244.70
751.97	244.55
752.29	244.31
752.62	244.06
752.95	243.82
753.28	243.61
753.60	243.39
753.93	243.25
754.26	243.12
754.59	242.90
754.91	242.72
755.24	242.48
755.57	242.25
755.90	242.05
756.22	241.87
756.55	241.71
756.88	241.46
757.20	241.23
757.53	241.01
757.86	240.89
758.19	240.72
758.51	240.57
758.84	240.30
759.17	240.13
759.49	239.95
759.82	239.82
760.15	239.70
760.47	239.54
760.80	239.33
761.13	239.15
761.45	239.00
761.78	238.83
762.11	238.66
762.43	238.51
762.76	238.37
763.08	238.24
763.41	238.09
763.74	237.97
764.06	237.82
764.39	237.67
764.71	237.52
765.04	237.41
765.37	237.25
765.69	237.16
766.02	237.03
766.34	236.88
766.67	236.73
767.00	236.60
767.32	236.53
767.65	236.50
767.97	236.34
768.30	236.19
768.62	236.06
768.95	235.95
769.27	235.84
769.60	235.73
769.92	235.62
770.25	235.52
770.57	235.41
770.90	235.30
771.22	235.21
771.55	235.11
771.87	235.04
772.20	234.94
772.52	234.93
772.85	234.94
773.17	234.89
773.50	234.82
773.82	234.70
774.15	234.55
774.47	234.41
774.80	234.35
775.12	234.31
775.45	234.25
775.77	234.19
776.09	234.10
776.42	234.06
776.74	234.00
777.07	233.93
777.39	233.86
777.72	233.76
778.04	233.72
778.36	233.62
778.69	233.54
779.01	233.51
779.33	233.37
779.66	233.24
779.98	233.14
780.31	233.05
780.63	233.07
780.95	233.03
781.28	232.99
781.60	232.91
781.92	232.85
782.25	232.79
782.57	232.73
782.89	232.70
783.22	232.62
783.54	232.54
783.86	232.49
784.19	232.45
784.51	232.43
784.83	232.33
785.16	232.32
785.48	232.25
785.80	232.19
786.12	232.16
786.45	232.10
786.77	232.08
787.09	232.04
