SpectraSuite Data File
++++++++++++++++++++++++++++++++++++
Date: Fri Feb 01 15:55:29 EST 2013
User: group
Dark Spectrum Present: No
Reference Spectrum Present: No
Number of Sampled Component Spectra: 1
Spectrometers: USB2E7196
Integration Time (usec): 35000 (USB2E7196)
Spectra Averaged: 100 (USB2E7196)
Boxcar Smoothing: 10 (USB2E7196)
Correct for Electrical Dark: No (USB2E7196)
Strobe/Lamp Enabled: No (USB2E7196)
Correct for Detector Non-linearity: No (USB2E7196)
Correct for Stray Light: No (USB2E7196)
Number of Pixels in Processed Spectrum: 2048
>>>>>Begin Processed Spectral Data<<<<<
339.09	0.00
339.48	215.12
339.86	216.06
340.24	217.97
340.63	219.16
341.01	222.02
341.39	221.41
341.78	223.23
342.16	224.19
342.54	224.76
342.93	213.18
343.31	223.97
343.69	224.50
344.07	224.99
344.46	225.40
344.84	225.79
345.22	226.03
345.60	226.30
345.99	226.48
346.37	226.58
346.75	226.69
347.13	226.77
347.52	226.82
347.90	226.87
348.28	226.93
348.66	227.00
349.05	226.96
349.43	227.00
349.81	227.05
350.19	227.09
350.57	227.17
350.96	227.23
351.34	227.28
351.72	227.36
352.10	227.43
352.48	227.53
352.87	227.57
353.25	227.61
353.63	227.67
354.01	227.71
354.39	227.83
354.77	227.89
355.15	227.97
355.54	228.03
355.92	228.06
356.30	228.13
356.68	228.24
357.06	228.34
357.44	228.36
357.82	228.43
358.20	228.51
358.58	228.60
358.97	228.69
359.35	228.78
359.73	228.86
360.11	228.91
360.49	228.95
360.87	229.03
361.25	229.11
361.63	229.19
362.01	229.25
362.39	229.25
362.77	229.30
363.15	229.31
363.53	229.34
363.91	229.37
364.29	229.37
364.67	229.29
365.05	229.29
365.43	229.36
365.81	229.37
366.19	229.39
366.57	229.41
366.95	229.38
367.33	229.34
367.71	229.32
368.09	229.30
368.47	229.29
368.85	229.25
369.23	229.23
369.61	229.14
369.99	229.16
370.37	229.19
370.75	229.22
371.13	229.20
371.51	229.17
371.89	229.12
372.27	229.09
372.65	229.10
373.03	229.04
373.41	228.96
373.78	228.90
374.16	228.79
374.54	228.68
374.92	228.60
375.30	228.55
375.68	228.45
376.06	228.41
376.44	228.31
376.82	228.22
377.19	228.15
377.57	228.08
377.95	227.97
378.33	227.86
378.71	227.70
379.09	227.65
379.47	227.55
379.84	227.46
380.22	227.38
380.60	227.26
380.98	227.19
381.36	227.13
381.73	227.04
382.11	227.02
382.49	226.99
382.87	226.92
383.25	226.83
383.62	226.89
384.00	226.84
384.38	226.79
384.76	226.79
385.13	226.77
385.51	226.74
385.89	226.68
386.27	226.66
386.64	226.64
387.02	226.57
387.40	226.54
387.78	226.55
388.15	226.47
388.53	226.43
388.91	226.41
389.29	226.39
389.66	226.38
390.04	226.33
390.42	226.32
390.79	226.29
391.17	226.29
391.55	226.16
391.92	226.12
392.30	226.10
392.68	226.07
393.05	226.06
393.43	226.07
393.81	226.08
394.18	226.06
394.56	226.06
394.94	226.10
395.31	226.13
395.69	226.17
396.06	226.24
396.44	226.30
396.82	226.34
397.19	226.44
397.57	226.48
397.95	226.56
398.32	226.53
398.70	226.62
399.07	226.70
399.45	226.76
399.82	226.85
400.20	226.93
400.58	227.01
400.95	227.06
401.33	227.16
401.70	227.32
402.08	227.40
402.45	227.50
402.83	227.64
403.20	227.73
403.58	227.82
403.95	227.94
404.33	228.08
404.71	228.21
405.08	228.38
405.46	228.51
405.83	228.65
406.21	228.85
406.58	229.03
406.96	229.22
407.33	229.41
407.70	229.60
408.08	229.89
408.45	230.12
408.83	230.36
409.20	230.57
409.58	230.75
409.95	231.03
410.33	231.33
410.70	231.54
411.08	231.87
411.45	232.20
411.82	232.51
412.20	232.85
412.57	233.25
412.95	233.53
413.32	233.96
413.69	234.38
414.07	234.85
414.44	235.31
414.82	235.78
415.19	236.33
415.56	236.89
415.94	237.41
416.31	238.03
416.68	238.68
417.06	239.42
417.43	240.12
417.81	240.90
418.18	241.66
418.55	242.53
418.93	243.38
419.30	244.26
419.67	245.17
420.04	246.15
420.42	247.14
420.79	248.33
421.16	249.48
421.54	250.69
421.91	251.86
422.28	253.11
422.66	254.44
423.03	255.74
423.40	257.08
423.77	258.48
424.15	259.88
424.52	261.32
424.89	262.93
425.26	264.45
425.64	265.89
426.01	267.48
426.38	269.15
426.75	270.85
427.13	272.56
427.50	274.37
427.87	276.22
428.24	278.10
428.61	279.83
428.99	281.74
429.36	283.84
429.73	285.90
430.10	287.94
430.47	289.96
430.85	292.05
431.22	294.29
431.59	296.68
431.96	298.93
432.33	301.41
432.70	303.79
433.08	306.64
433.45	309.25
433.82	311.84
434.19	314.73
434.56	317.52
434.93	320.19
435.30	322.77
435.68	325.67
436.05	328.48
436.42	331.30
436.79	333.81
437.16	336.51
437.53	339.35
437.90	342.13
438.27	344.86
438.64	347.69
439.01	350.23
439.38	352.50
439.75	354.65
440.13	357.11
440.50	359.42
440.87	361.26
441.24	363.22
441.61	365.43
441.98	366.83
442.35	368.62
442.72	370.48
443.09	372.30
443.46	373.27
443.83	373.81
444.20	374.27
444.57	375.12
444.94	375.34
445.31	375.68
445.68	376.00
446.05	376.11
446.42	375.71
446.79	375.36
447.16	374.88
447.53	374.53
447.90	373.37
448.27	372.25
448.64	370.65
449.01	369.50
449.37	367.44
449.74	365.61
450.11	363.36
450.48	360.86
450.85	358.36
451.22	356.23
451.59	354.22
451.96	352.28
452.33	349.66
452.70	347.34
453.07	344.51
453.43	341.64
453.80	338.85
454.17	336.20
454.54	333.62
454.91	330.89
455.28	328.26
455.65	325.80
456.02	323.33
456.38	321.19
456.75	318.51
457.12	316.30
457.49	314.06
457.86	311.89
458.23	310.04
458.59	308.02
458.96	305.93
459.33	304.10
459.70	302.26
460.07	300.73
460.43	299.02
460.80	297.39
461.17	295.98
461.54	294.50
461.91	293.05
462.27	291.61
462.64	290.39
463.01	289.03
463.38	287.71
463.74	286.35
464.11	285.16
464.48	284.15
464.85	283.04
465.21	282.18
465.58	281.26
465.95	280.19
466.32	279.28
466.68	278.35
467.05	277.45
467.42	276.57
467.78	275.68
468.15	274.83
468.52	274.18
468.88	273.31
469.25	272.57
469.62	271.99
469.98	271.32
470.35	270.67
470.72	270.10
471.08	269.49
471.45	268.96
471.82	268.38
472.18	267.75
472.55	267.31
472.92	266.80
473.28	266.35
473.65	265.86
474.02	265.40
474.38	265.05
474.75	264.71
475.11	264.35
475.48	264.09
475.85	263.87
476.21	263.65
476.58	263.46
476.94	263.33
477.31	263.12
477.67	262.97
478.04	262.87
478.41	262.79
478.77	262.80
479.14	262.72
479.50	262.80
479.87	262.91
480.23	263.01
480.60	263.05
480.96	263.14
481.33	263.39
481.69	263.62
482.06	263.82
482.42	264.06
482.79	264.31
483.15	264.61
483.52	264.94
483.88	265.25
484.25	265.64
484.61	266.03
484.98	266.50
485.34	267.05
485.71	267.64
486.07	268.25
486.44	268.84
486.80	269.57
487.17	270.25
487.53	271.08
487.90	271.92
488.26	272.88
488.62	273.91
488.99	274.90
489.35	275.91
489.72	277.05
490.08	278.24
490.44	279.49
490.81	280.79
491.17	282.16
491.54	283.67
491.90	285.18
492.26	286.85
492.63	288.57
492.99	290.36
493.36	292.24
493.72	294.28
494.08	296.39
494.45	298.61
494.81	301.01
495.17	303.40
495.54	305.99
495.90	308.69
496.26	311.45
496.63	314.38
496.99	317.50
497.35	320.76
497.72	324.15
498.08	327.69
498.44	331.44
498.80	335.37
499.17	339.44
499.53	343.66
499.89	348.05
500.26	352.59
500.62	357.30
500.98	362.29
501.34	367.36
501.71	372.69
502.07	378.15
502.43	383.76
502.79	389.59
503.16	395.64
503.52	401.95
503.88	408.38
504.24	415.00
504.60	421.88
504.97	429.02
505.33	436.34
505.69	444.11
506.05	451.85
506.41	459.73
506.78	467.91
507.14	476.38
507.50	485.14
507.86	494.15
508.22	503.33
508.59	512.53
508.95	522.15
509.31	531.91
509.67	542.06
510.03	552.37
510.39	562.95
510.75	573.78
511.12	584.68
511.48	596.05
511.84	607.50
512.20	619.02
512.56	631.00
512.92	643.27
513.28	655.54
513.64	668.01
514.00	680.73
514.37	693.61
514.73	706.62
515.09	719.59
515.45	732.86
515.81	746.45
516.17	760.42
516.53	774.55
516.89	788.77
517.25	802.93
517.61	817.39
517.97	831.84
518.33	846.17
518.69	860.92
519.05	875.76
519.41	890.96
519.77	906.39
520.13	921.76
520.49	937.05
520.85	952.49
521.21	968.13
521.57	984.36
521.93	1000.08
522.29	1016.48
522.65	1032.68
523.01	1048.91
523.37	1064.88
523.73	1081.00
524.09	1096.98
524.45	1113.29
524.81	1129.93
525.17	1146.70
525.53	1163.61
525.89	1180.59
526.25	1197.39
526.61	1213.84
526.97	1230.58
527.33	1247.09
527.68	1263.70
528.04	1280.09
528.40	1296.60
528.76	1313.67
529.12	1330.25
529.48	1347.01
529.84	1363.00
530.20	1379.61
530.56	1396.62
530.91	1414.05
531.27	1430.78
531.63	1447.28
531.99	1463.78
532.35	1479.63
532.71	1495.34
533.07	1511.48
533.42	1527.37
533.78	1543.38
534.14	1559.61
534.50	1574.89
534.86	1590.80
535.21	1605.85
535.57	1621.80
535.93	1637.40
536.29	1652.14
536.65	1667.14
537.00	1682.07
537.36	1697.36
537.72	1711.96
538.08	1726.21
538.44	1740.08
538.79	1754.02
539.15	1767.71
539.51	1781.43
539.87	1795.73
540.22	1809.61
540.58	1823.41
540.94	1836.56
541.29	1849.33
541.65	1862.03
542.01	1875.13
542.37	1887.36
542.72	1899.76
543.08	1911.49
543.44	1923.73
543.79	1934.89
544.15	1945.84
544.51	1957.32
544.87	1968.25
545.22	1979.05
545.58	1989.25
545.94	1998.80
546.29	2008.55
546.65	2018.35
547.01	2027.54
547.36	2036.17
547.72	2044.64
548.07	2052.34
548.43	2060.60
548.79	2068.80
549.14	2076.27
549.50	2083.83
549.86	2091.49
550.21	2098.94
550.57	2106.25
550.92	2112.79
551.28	2119.86
551.64	2127.02
551.99	2133.49
552.35	2139.60
552.70	2145.75
553.06	2151.80
553.41	2158.27
553.77	2164.34
554.13	2170.41
554.48	2176.75
554.84	2182.32
555.19	2187.48
555.55	2192.75
555.90	2197.12
556.26	2201.91
556.61	2206.71
556.97	2210.85
557.32	2215.11
557.68	2219.08
558.03	2223.26
558.39	2227.08
558.74	2231.78
559.10	2235.64
559.45	2239.45
559.81	2243.83
560.16	2247.48
560.52	2250.73
560.87	2254.03
561.23	2256.63
561.58	2259.56
561.94	2261.91
562.29	2264.29
562.64	2266.96
563.00	2269.59
563.35	2273.18
563.71	2276.33
564.06	2279.61
564.42	2282.43
564.77	2284.97
565.12	2287.45
565.48	2289.31
565.83	2291.19
566.19	2292.47
566.54	2293.33
566.89	2294.36
567.25	2294.91
567.60	2296.35
567.96	2297.98
568.31	2298.77
568.66	2300.05
569.02	2300.77
569.37	2301.16
569.72	2302.18
570.08	2302.28
570.43	2302.33
570.78	2301.74
571.14	2300.14
571.49	2298.62
571.84	2298.35
572.20	2297.09
572.55	2295.91
572.90	2294.47
573.26	2293.02
573.61	2291.35
573.96	2289.70
574.31	2286.71
574.67	2283.72
575.02	2280.05
575.37	2276.69
575.72	2273.04
576.08	2269.66
576.43	2266.13
576.78	2262.27
577.13	2258.99
577.49	2255.87
577.84	2252.36
578.19	2248.61
578.54	2244.99
578.90	2240.82
579.25	2235.19
579.60	2230.21
579.95	2225.20
580.30	2220.12
580.66	2215.04
581.01	2210.09
581.36	2205.13
581.71	2200.96
582.06	2196.40
582.42	2192.11
582.77	2186.88
583.12	2182.29
583.47	2177.42
583.82	2172.56
584.17	2167.47
584.53	2161.86
584.88	2156.35
585.23	2150.55
585.58	2145.04
585.93	2139.59
586.28	2134.93
586.63	2129.91
586.98	2124.95
587.34	2120.37
587.69	2115.45
588.04	2110.04
588.39	2104.35
588.74	2097.73
589.09	2091.65
589.44	2084.81
589.79	2078.78
590.14	2073.18
590.49	2066.53
590.84	2060.17
591.19	2054.03
591.54	2047.55
591.89	2040.12
592.25	2033.24
592.60	2026.08
592.95	2018.51
593.30	2011.22
593.65	2003.60
594.00	1996.54
594.35	1989.36
594.70	1981.28
595.05	1973.95
595.40	1966.70
595.75	1959.35
596.10	1953.15
596.45	1946.37
596.80	1940.34
597.15	1933.58
597.50	1926.41
597.85	1920.05
598.19	1913.48
598.54	1906.45
598.89	1899.81
599.24	1894.13
599.59	1887.54
599.94	1881.33
600.29	1874.94
600.64	1868.39
600.99	1860.87
601.34	1854.11
601.69	1847.02
602.04	1840.13
602.39	1832.95
602.74	1826.19
603.08	1819.31
603.43	1812.60
603.78	1805.30
604.13	1798.05
604.48	1790.73
604.83	1783.91
605.18	1776.84
605.53	1768.91
605.87	1760.91
606.22	1753.67
606.57	1745.71
606.92	1738.42
607.27	1731.27
607.62	1724.34
607.96	1717.15
608.31	1710.59
608.66	1702.91
609.01	1695.43
609.36	1687.76
609.70	1679.70
610.05	1671.64
610.40	1663.96
610.75	1655.60
611.10	1647.93
611.44	1639.54
611.79	1631.60
612.14	1622.94
612.49	1613.80
612.83	1605.30
613.18	1597.08
613.53	1588.97
613.88	1580.37
614.22	1572.14
614.57	1563.46
614.92	1555.54
615.27	1547.84
615.61	1539.45
615.96	1531.52
616.31	1523.80
616.65	1516.46
617.00	1508.90
617.35	1501.09
617.70	1492.73
618.04	1484.23
618.39	1476.03
618.74	1468.48
619.08	1460.17
619.43	1452.54
619.78	1445.67
620.12	1438.54
620.47	1431.06
620.82	1422.81
621.16	1415.46
621.51	1407.78
621.85	1400.17
622.20	1391.60
622.55	1383.25
622.89	1375.40
623.24	1367.74
623.59	1360.35
623.93	1352.91
624.28	1345.65
624.62	1338.17
624.97	1330.96
625.32	1324.27
625.66	1317.32
626.01	1310.13
626.35	1302.58
626.70	1294.93
627.04	1287.21
627.39	1279.41
627.73	1271.97
628.08	1265.25
628.43	1257.84
628.77	1250.39
629.12	1242.80
629.46	1235.71
629.81	1228.30
630.15	1221.08
630.50	1213.64
630.84	1205.46
631.19	1197.54
631.53	1190.07
631.88	1182.58
632.22	1175.04
632.57	1167.71
632.91	1160.10
633.26	1152.55
633.60	1145.23
633.95	1138.10
634.29	1131.08
634.64	1124.43
634.98	1117.11
635.32	1109.87
635.67	1103.30
636.01	1096.68
636.36	1089.93
636.70	1083.33
637.05	1076.70
637.39	1070.16
637.73	1063.62
638.08	1057.69
638.42	1051.63
638.77	1045.30
639.11	1038.65
639.45	1032.22
639.80	1025.59
640.14	1019.12
640.49	1012.64
640.83	1006.42
641.17	1000.17
641.52	993.82
641.86	987.35
642.20	981.53
642.55	975.30
642.89	968.74
643.23	962.24
643.58	956.46
643.92	950.29
644.26	944.33
644.61	938.42
644.95	932.45
645.29	925.90
645.64	919.16
645.98	912.73
646.32	906.87
646.66	900.82
647.01	895.07
647.35	889.37
647.69	883.55
648.04	878.04
648.38	872.32
648.72	866.25
649.06	860.30
649.41	854.44
649.75	848.38
650.09	842.48
650.43	836.74
650.78	830.52
651.12	824.62
651.46	818.90
651.80	813.12
652.14	807.66
652.49	802.22
652.83	797.04
653.17	791.33
653.51	785.70
653.85	780.33
654.20	774.66
654.54	768.63
654.88	762.86
655.22	756.94
655.56	751.16
655.90	745.75
656.25	740.42
656.59	735.01
656.93	729.94
657.27	724.81
657.61	719.32
657.95	714.25
658.29	709.11
658.64	703.77
658.98	698.47
659.32	693.05
659.66	687.89
660.00	682.56
660.34	677.61
660.68	672.71
661.02	667.68
661.36	662.96
661.70	658.54
662.05	654.21
662.39	649.88
662.73	645.41
663.07	641.06
663.41	636.60
663.75	632.10
664.09	627.45
664.43	623.04
664.77	618.93
665.11	614.70
665.45	610.57
665.79	606.51
666.13	602.36
666.47	598.27
666.81	594.12
667.15	590.00
667.49	586.13
667.83	582.31
668.17	578.36
668.51	574.23
668.85	570.14
669.19	566.30
669.53	562.44
669.87	558.56
670.21	554.83
670.55	551.15
670.89	547.75
671.23	544.41
671.57	540.89
671.91	537.29
672.25	533.78
672.58	530.26
672.92	526.85
673.26	523.70
673.60	520.52
673.94	517.42
674.28	514.54
674.62	511.62
674.96	508.45
675.30	505.57
675.64	502.68
675.97	499.98
676.31	497.12
676.65	494.22
676.99	491.52
677.33	488.69
677.67	485.94
678.01	482.93
678.34	479.91
678.68	477.03
679.02	474.25
679.36	471.52
679.70	468.84
680.04	466.09
680.37	463.24
680.71	460.41
681.05	457.78
681.39	455.04
681.73	452.37
682.06	449.91
682.40	447.34
682.74	444.88
683.08	442.33
683.42	439.74
683.75	437.21
684.09	434.71
684.43	432.29
684.77	429.82
685.10	427.42
685.44	425.18
685.78	422.93
686.12	420.77
686.45	418.46
686.79	416.13
687.13	413.97
687.46	411.80
687.80	409.75
688.14	407.59
688.48	405.58
688.81	403.35
689.15	401.19
689.49	399.08
689.82	396.94
690.16	394.88
690.50	392.95
690.83	391.01
691.17	389.01
691.51	387.09
691.84	385.27
692.18	383.34
692.52	381.36
692.85	379.42
693.19	377.49
693.52	375.69
693.86	373.92
694.20	372.07
694.53	370.28
694.87	368.39
695.21	366.60
695.54	364.75
695.88	363.03
696.21	361.28
696.55	359.58
696.88	357.88
697.22	356.20
697.56	354.57
697.89	352.90
698.23	351.28
698.56	349.62
698.90	348.00
699.23	346.40
699.57	344.78
699.90	343.31
700.24	341.78
700.58	340.23
700.91	338.68
701.25	337.25
701.58	335.87
701.92	334.51
702.25	333.07
702.59	331.69
702.92	330.38
703.26	329.09
703.59	327.80
703.93	326.67
704.26	325.37
704.60	324.03
704.93	322.77
705.26	321.48
705.60	320.32
705.93	319.16
706.27	318.08
706.60	317.03
706.94	315.91
707.27	314.73
707.61	313.68
707.94	312.64
708.27	311.51
708.61	310.41
708.94	309.41
709.28	308.46
709.61	307.47
709.94	306.49
710.28	305.45
710.61	304.42
710.95	303.27
711.28	302.37
711.61	301.43
711.95	300.48
712.28	299.54
712.61	298.53
712.95	297.59
713.28	296.72
713.61	295.85
713.95	294.92
714.28	294.07
714.61	293.17
714.95	292.34
715.28	291.54
715.61	290.65
715.95	289.77
716.28	288.91
716.61	288.10
716.95	287.27
717.28	286.55
717.61	285.82
717.94	285.08
718.28	284.26
718.61	283.53
718.94	282.88
719.27	282.24
719.61	281.63
719.94	280.97
720.27	280.25
720.60	279.57
720.94	278.96
721.27	278.39
721.60	277.85
721.93	277.24
722.27	276.70
722.60	276.18
722.93	275.62
723.26	275.08
723.59	274.54
723.93	274.03
724.26	273.47
724.59	272.96
724.92	272.47
725.25	272.03
725.59	271.52
725.92	271.01
726.25	270.50
726.58	269.96
726.91	269.50
727.24	269.03
727.57	268.58
727.91	268.06
728.24	267.62
728.57	267.15
728.90	266.73
729.23	266.23
729.56	265.82
729.89	265.38
730.22	264.90
730.55	264.45
730.89	264.03
731.22	263.58
731.55	263.16
731.88	262.73
732.21	262.30
732.54	261.89
732.87	261.46
733.20	261.06
733.53	260.72
733.86	260.35
734.19	259.97
734.52	259.61
734.85	259.32
735.18	258.92
735.51	258.59
735.84	258.23
736.17	257.92
736.50	257.51
736.83	257.29
737.16	256.98
737.49	256.64
737.82	256.27
738.15	255.93
738.48	255.59
738.81	255.27
739.14	254.91
739.47	254.63
739.80	254.32
740.13	254.03
740.46	253.70
740.79	253.35
741.12	253.04
741.45	252.65
741.78	252.32
742.11	252.01
742.44	251.63
742.77	251.34
743.10	251.00
743.43	250.70
743.75	250.28
744.08	250.13
744.41	249.85
744.74	249.58
745.07	249.29
745.40	249.05
745.73	248.81
746.06	248.52
746.39	248.23
746.71	247.96
747.04	247.66
747.37	247.39
747.70	247.14
748.03	246.88
748.36	246.71
748.68	246.44
749.01	246.16
749.34	245.94
749.67	245.69
750.00	245.43
750.33	245.25
750.65	245.01
750.98	244.65
751.31	244.41
751.64	244.19
751.97	244.02
752.29	243.78
752.62	243.52
752.95	243.33
753.28	243.09
753.60	242.88
753.93	242.70
754.26	242.51
754.59	242.28
754.91	242.09
755.24	241.86
755.57	241.68
755.90	241.51
756.22	241.30
756.55	241.09
756.88	240.89
757.20	240.66
757.53	240.46
757.86	240.30
758.19	240.14
758.51	240.00
758.84	239.79
759.17	239.63
759.49	239.50
759.82	239.38
760.15	239.24
760.47	239.11
760.80	238.92
761.13	238.80
761.45	238.65
761.78	238.54
762.11	238.43
762.43	238.29
762.76	238.13
763.08	238.01
763.41	237.89
763.74	237.83
764.06	237.72
764.39	237.59
764.71	237.47
765.04	237.31
765.37	237.15
765.69	237.03
766.02	236.89
766.34	236.77
766.67	236.61
767.00	236.52
767.32	236.43
767.65	236.41
767.97	236.28
768.30	236.15
768.62	236.02
768.95	235.88
769.27	235.76
769.60	235.71
769.92	235.58
770.25	235.49
770.57	235.34
770.90	235.24
771.22	235.15
771.55	235.06
771.87	234.99
772.20	234.92
772.52	234.92
772.85	234.95
773.17	234.86
773.50	234.75
773.82	234.61
774.15	234.50
774.47	234.35
774.80	234.26
775.12	234.20
775.45	234.07
775.77	234.00
776.09	233.95
776.42	233.84
776.74	233.80
777.07	233.73
777.39	233.70
777.72	233.62
778.04	233.57
778.36	233.48
778.69	233.44
779.01	233.35
779.33	233.20
779.66	233.02
779.98	232.93
780.31	232.86
780.63	232.88
780.95	232.81
781.28	232.75
781.60	232.69
781.92	232.62
782.25	232.58
782.57	232.51
782.89	232.40
783.22	232.34
783.54	232.25
783.86	232.18
784.19	232.11
784.51	232.07
784.83	231.99
785.16	231.93
785.48	231.86
785.80	231.84
786.12	231.82
786.45	231.71
786.77	231.64
787.09	231.61
