SpectraSuite Data File
++++++++++++++++++++++++++++++++++++
Date: Fri Feb 01 17:15:15 EST 2013
User: group
Dark Spectrum Present: No
Reference Spectrum Present: No
Number of Sampled Component Spectra: 1
Spectrometers: USB2E7196
Integration Time (usec): 35000 (USB2E7196)
Spectra Averaged: 100 (USB2E7196)
Boxcar Smoothing: 10 (USB2E7196)
Correct for Electrical Dark: No (USB2E7196)
Strobe/Lamp Enabled: No (USB2E7196)
Correct for Detector Non-linearity: No (USB2E7196)
Correct for Stray Light: No (USB2E7196)
Number of Pixels in Processed Spectrum: 2048
>>>>>Begin Processed Spectral Data<<<<<
339.09	0.00
339.48	213.63
339.86	214.75
340.24	216.53
340.63	217.92
341.01	220.54
341.39	220.62
341.78	221.88
342.16	222.65
342.54	223.54
342.93	211.96
343.31	222.68
343.69	223.20
344.07	223.68
344.46	224.08
344.84	224.45
345.22	224.68
345.60	224.91
345.99	225.08
346.37	225.24
346.75	225.34
347.13	225.36
347.52	225.43
347.90	225.49
348.28	225.51
348.66	225.51
349.05	225.54
349.43	225.55
349.81	225.61
350.19	225.64
350.57	225.69
350.96	225.77
351.34	225.83
351.72	225.89
352.10	225.99
352.48	226.06
352.87	226.10
353.25	226.18
353.63	226.27
354.01	226.33
354.39	226.37
354.77	226.42
355.15	226.53
355.54	226.55
355.92	226.63
356.30	226.65
356.68	226.82
357.06	226.85
357.44	226.87
357.82	226.92
358.20	226.99
358.58	227.03
358.97	227.07
359.35	227.12
359.73	227.19
360.11	227.23
360.49	227.26
360.87	227.31
361.25	227.34
361.63	227.37
362.01	227.40
362.39	227.45
362.77	227.50
363.15	227.54
363.53	227.56
363.91	227.54
364.29	227.60
364.67	227.48
365.05	227.54
365.43	227.59
365.81	227.60
366.19	227.63
366.57	227.65
366.95	227.64
367.33	227.62
367.71	227.65
368.09	227.66
368.47	227.63
368.85	227.61
369.23	227.61
369.61	227.57
369.99	227.60
370.37	227.57
370.75	227.56
371.13	227.49
371.51	227.43
371.89	227.40
372.27	227.36
372.65	227.32
373.03	227.25
373.41	227.20
373.78	227.13
374.16	227.02
374.54	226.95
374.92	226.90
375.30	226.86
375.68	226.74
376.06	226.69
376.44	226.68
376.82	226.64
377.19	226.57
377.57	226.53
377.95	226.43
378.33	226.35
378.71	226.25
379.09	226.17
379.47	226.14
379.84	226.06
380.22	225.96
380.60	225.89
380.98	225.81
381.36	225.76
381.73	225.68
382.11	225.67
382.49	225.62
382.87	225.54
383.25	225.49
383.62	225.55
384.00	225.47
384.38	225.41
384.76	225.35
385.13	225.33
385.51	225.27
385.89	225.20
386.27	225.18
386.64	225.15
387.02	225.11
387.40	225.05
387.78	225.04
388.15	225.04
388.53	224.98
388.91	224.97
389.29	224.93
389.66	224.94
390.04	224.89
390.42	224.86
390.79	224.86
391.17	224.84
391.55	224.71
391.92	224.70
392.30	224.68
392.68	224.64
393.05	224.62
393.43	224.62
393.81	224.64
394.18	224.58
394.56	224.65
394.94	224.67
395.31	224.72
395.69	224.76
396.06	224.82
396.44	224.90
396.82	224.91
397.19	224.99
397.57	225.00
397.95	225.04
398.32	225.08
398.70	225.14
399.07	225.23
399.45	225.28
399.82	225.35
400.20	225.41
400.58	225.48
400.95	225.52
401.33	225.62
401.70	225.76
402.08	225.88
402.45	225.94
402.83	226.05
403.20	226.09
403.58	226.20
403.95	226.27
404.33	226.37
404.71	226.47
405.08	226.63
405.46	226.76
405.83	226.92
406.21	227.07
406.58	227.24
406.96	227.40
407.33	227.58
407.70	227.75
408.08	228.02
408.45	228.22
408.83	228.46
409.20	228.66
409.58	228.81
409.95	229.07
410.33	229.30
410.70	229.55
411.08	229.88
411.45	230.21
411.82	230.51
412.20	230.87
412.57	231.30
412.95	231.62
413.32	232.03
413.69	232.41
414.07	232.83
414.44	233.30
414.82	233.77
415.19	234.34
415.56	234.90
415.94	235.44
416.31	236.09
416.68	236.73
417.06	237.47
417.43	238.17
417.81	238.92
418.18	239.75
418.55	240.63
418.93	241.53
419.30	242.41
419.67	243.36
420.04	244.34
420.42	245.37
420.79	246.57
421.16	247.74
421.54	249.00
421.91	250.26
422.28	251.54
422.66	252.91
423.03	254.24
423.40	255.60
423.77	257.02
424.15	258.50
424.52	260.01
424.89	261.67
425.26	263.26
425.64	264.74
426.01	266.37
426.38	268.04
426.75	269.76
427.13	271.53
427.50	273.37
427.87	275.29
428.24	277.23
428.61	279.01
428.99	281.00
429.36	283.13
429.73	285.26
430.10	287.33
430.47	289.42
430.85	291.59
431.22	293.87
431.59	296.33
431.96	298.66
432.33	301.17
432.70	303.59
433.08	306.47
433.45	309.18
433.82	311.81
434.19	314.75
434.56	317.59
434.93	320.30
435.30	322.99
435.68	325.96
436.05	328.80
436.42	331.62
436.79	334.17
437.16	336.95
437.53	339.83
437.90	342.73
438.27	345.54
438.64	348.40
439.01	351.07
439.38	353.35
439.75	355.51
440.13	358.10
440.50	360.47
440.87	362.35
441.24	364.36
441.61	366.62
441.98	368.16
442.35	370.00
442.72	371.91
443.09	373.75
443.46	374.75
443.83	375.35
444.20	375.93
444.57	376.85
444.94	377.14
445.31	377.47
445.68	377.83
446.05	377.93
446.42	377.59
446.79	377.15
447.16	376.72
447.53	376.44
447.90	375.23
448.27	374.03
448.64	372.42
449.01	371.28
449.37	369.24
449.74	367.30
450.11	365.05
450.48	362.59
450.85	359.99
451.22	357.80
451.59	355.81
451.96	353.84
452.33	351.21
452.70	348.79
453.07	345.90
453.43	342.93
453.80	340.09
454.17	337.38
454.54	334.78
454.91	332.03
455.28	329.29
455.65	326.80
456.02	324.34
456.38	322.16
456.75	319.45
457.12	317.16
457.49	314.94
457.86	312.72
458.23	310.75
458.59	308.71
458.96	306.60
459.33	304.69
459.70	302.71
460.07	301.14
460.43	299.43
460.80	297.76
461.17	296.27
461.54	294.74
461.91	293.25
462.27	291.83
462.64	290.56
463.01	289.16
463.38	287.81
463.74	286.40
464.11	285.20
464.48	284.11
464.85	282.98
465.21	282.07
465.58	281.10
465.95	280.02
466.32	279.10
466.68	278.18
467.05	277.24
467.42	276.41
467.78	275.46
468.15	274.54
468.52	273.87
468.88	273.03
469.25	272.26
469.62	271.65
469.98	270.95
470.35	270.26
470.72	269.67
471.08	269.03
471.45	268.50
471.82	268.01
472.18	267.42
472.55	266.96
472.92	266.42
473.28	265.95
473.65	265.51
474.02	265.05
474.38	264.68
474.75	264.34
475.11	263.96
475.48	263.70
475.85	263.48
476.21	263.26
476.58	263.07
476.94	262.92
477.31	262.75
477.67	262.56
478.04	262.48
478.41	262.43
478.77	262.47
479.14	262.39
479.50	262.32
479.87	262.39
480.23	262.46
480.60	262.53
480.96	262.64
481.33	262.86
481.69	263.06
482.06	263.27
482.42	263.48
482.79	263.71
483.15	264.02
483.52	264.40
483.88	264.75
484.25	265.16
484.61	265.60
484.98	266.02
485.34	266.63
485.71	267.19
486.07	267.72
486.44	268.28
486.80	269.03
487.17	269.79
487.53	270.62
487.90	271.50
488.26	272.43
488.62	273.45
488.99	274.40
489.35	275.43
489.72	276.58
490.08	277.78
490.44	279.10
490.81	280.47
491.17	281.80
491.54	283.31
491.90	284.82
492.26	286.48
492.63	288.21
492.99	289.99
493.36	291.92
493.72	294.02
494.08	296.13
494.45	298.36
494.81	300.69
495.17	303.10
495.54	305.67
495.90	308.42
496.26	311.20
496.63	314.17
496.99	317.35
497.35	320.56
497.72	323.98
498.08	327.48
498.44	331.11
498.80	335.03
499.17	339.05
499.53	343.21
499.89	347.55
500.26	352.06
500.62	356.71
500.98	361.61
501.34	366.65
501.71	371.93
502.07	377.32
502.43	382.95
502.79	388.75
503.16	394.76
503.52	400.96
503.88	407.31
504.24	413.86
504.60	420.63
504.97	427.77
505.33	435.02
505.69	442.66
506.05	450.38
506.41	458.17
506.78	466.19
507.14	474.52
507.50	483.11
507.86	492.01
508.22	501.09
508.59	510.20
508.95	519.59
509.31	529.30
509.67	539.27
510.03	549.44
510.39	559.92
510.75	570.57
511.12	581.34
511.48	592.44
511.84	603.76
512.20	615.12
512.56	626.82
512.92	638.81
513.28	650.92
513.64	663.20
514.00	675.75
514.37	688.56
514.73	701.45
515.09	714.26
515.45	727.33
515.81	740.73
516.17	754.47
516.53	768.38
516.89	782.29
517.25	796.28
517.61	810.43
517.97	824.54
518.33	838.69
518.69	853.18
519.05	867.88
519.41	882.71
519.77	897.97
520.13	913.21
520.49	928.31
520.85	943.38
521.21	958.69
521.57	974.58
521.93	990.01
522.29	1006.03
522.65	1022.05
523.01	1037.88
523.37	1053.58
523.73	1069.37
524.09	1085.05
524.45	1100.98
524.81	1117.19
525.17	1133.54
525.53	1150.05
525.89	1166.62
526.25	1183.14
526.61	1199.27
526.97	1215.70
527.33	1231.80
527.68	1247.93
528.04	1264.09
528.40	1280.40
528.76	1297.28
529.12	1313.57
529.48	1330.14
529.84	1345.85
530.20	1362.13
530.56	1378.83
530.91	1395.82
531.27	1412.40
531.63	1428.73
531.99	1445.06
532.35	1460.82
532.71	1476.44
533.07	1492.53
533.42	1508.17
533.78	1524.01
534.14	1539.93
534.50	1555.17
534.86	1570.77
535.21	1585.88
535.57	1601.52
535.93	1616.64
536.29	1631.13
536.65	1645.99
537.00	1660.38
537.36	1675.44
537.72	1689.63
538.08	1703.82
538.44	1717.40
538.79	1731.10
539.15	1744.48
539.51	1757.98
539.87	1772.13
540.22	1785.69
540.58	1799.14
540.94	1812.26
541.29	1824.76
541.65	1837.27
542.01	1850.17
542.37	1862.53
542.72	1874.66
543.08	1886.35
543.44	1898.57
543.79	1909.75
544.15	1920.50
544.51	1932.12
544.87	1942.93
545.22	1953.82
545.58	1964.06
545.94	1973.89
546.29	1983.71
546.65	1993.59
547.01	2002.93
547.36	2011.64
547.72	2020.41
548.07	2028.57
548.43	2036.76
548.79	2044.81
549.14	2052.77
549.50	2060.04
549.86	2067.53
550.21	2074.99
550.57	2082.32
550.92	2089.20
551.28	2096.37
551.64	2103.60
551.99	2110.04
552.35	2116.53
552.70	2122.75
553.06	2129.05
553.41	2135.53
553.77	2141.58
554.13	2147.68
554.48	2153.99
554.84	2159.80
555.19	2164.96
555.55	2170.08
555.90	2174.93
556.26	2180.23
556.61	2184.97
556.97	2189.74
557.32	2194.34
557.68	2198.80
558.03	2203.21
558.39	2207.17
558.74	2211.89
559.10	2216.05
559.45	2220.03
559.81	2224.41
560.16	2228.52
560.52	2231.74
560.87	2235.44
561.23	2238.47
561.58	2241.76
561.94	2244.59
562.29	2246.98
562.64	2250.08
563.00	2252.82
563.35	2256.29
563.71	2259.72
564.06	2262.75
564.42	2265.97
564.77	2268.71
565.12	2271.22
565.48	2273.49
565.83	2275.65
566.19	2277.41
566.54	2278.53
566.89	2280.10
567.25	2281.11
567.60	2282.73
567.96	2284.83
568.31	2285.93
568.66	2287.34
569.02	2288.18
569.37	2288.67
569.72	2290.03
570.08	2290.59
570.43	2290.95
570.78	2290.95
571.14	2289.63
571.49	2288.74
571.84	2288.41
572.20	2287.57
572.55	2286.90
572.90	2285.45
573.26	2284.40
573.61	2282.91
573.96	2281.68
574.31	2279.02
574.67	2276.34
575.02	2272.99
575.37	2269.89
575.72	2266.43
576.08	2263.22
576.43	2260.01
576.78	2256.95
577.13	2253.84
577.49	2250.74
577.84	2247.74
578.19	2244.05
578.54	2240.82
578.90	2237.14
579.25	2232.07
579.60	2227.50
579.95	2222.75
580.30	2218.04
580.66	2213.12
581.01	2208.30
581.36	2203.49
581.71	2199.74
582.06	2195.68
582.42	2191.63
582.77	2186.72
583.12	2182.43
583.47	2178.18
583.82	2173.75
584.17	2168.66
584.53	2163.31
584.88	2158.09
585.23	2152.66
585.58	2147.39
585.93	2141.95
586.28	2137.13
586.63	2132.20
586.98	2127.14
587.34	2122.41
587.69	2117.59
588.04	2112.60
588.39	2107.14
588.74	2100.75
589.09	2094.63
589.44	2088.03
589.79	2081.87
590.14	2076.20
590.49	2069.79
590.84	2063.50
591.19	2057.52
591.54	2051.11
591.89	2044.31
592.25	2037.82
592.60	2030.75
592.95	2023.60
593.30	2016.53
593.65	2009.00
594.00	2002.11
594.35	1995.13
594.70	1987.30
595.05	1980.56
595.40	1973.27
595.75	1965.92
596.10	1960.22
596.45	1953.78
596.80	1947.64
597.15	1941.26
597.50	1934.67
597.85	1928.33
598.19	1921.71
598.54	1914.96
598.89	1908.55
599.24	1902.64
599.59	1896.25
599.94	1889.86
600.29	1883.40
600.64	1876.85
600.99	1869.73
601.34	1863.13
601.69	1855.99
602.04	1849.29
602.39	1841.94
602.74	1835.36
603.08	1828.77
603.43	1821.81
603.78	1814.45
604.13	1807.22
604.48	1800.13
604.83	1793.22
605.18	1786.43
605.53	1778.65
605.87	1770.52
606.22	1763.12
606.57	1754.96
606.92	1747.28
607.27	1740.40
607.62	1733.68
607.96	1726.57
608.31	1720.18
608.66	1712.66
609.01	1705.34
609.36	1697.92
609.70	1689.99
610.05	1681.93
610.40	1674.37
610.75	1666.16
611.10	1658.45
611.44	1650.04
611.79	1641.93
612.14	1633.11
612.49	1623.85
612.83	1615.34
613.18	1607.08
613.53	1598.97
613.88	1590.58
614.22	1582.25
614.57	1573.33
614.92	1565.19
615.27	1557.66
615.61	1549.20
615.96	1540.80
616.31	1532.94
616.65	1525.44
617.00	1517.74
617.35	1509.89
617.70	1501.55
618.04	1493.04
618.39	1484.74
618.74	1477.07
619.08	1468.62
619.43	1460.96
619.78	1453.93
620.12	1446.74
620.47	1439.24
620.82	1430.99
621.16	1423.31
621.51	1415.70
621.85	1408.08
622.20	1399.52
622.55	1391.01
622.89	1383.14
623.24	1375.49
623.59	1368.01
623.93	1360.40
624.28	1353.10
624.62	1345.56
624.97	1338.22
625.32	1331.23
625.66	1324.08
626.01	1316.97
626.35	1309.68
626.70	1301.83
627.04	1293.97
627.39	1286.08
627.73	1278.63
628.08	1271.62
628.43	1264.50
628.77	1257.09
629.12	1249.54
629.46	1242.31
629.81	1234.57
630.15	1227.19
630.50	1219.89
630.84	1211.77
631.19	1203.74
631.53	1196.20
631.88	1188.49
632.22	1180.78
632.57	1173.42
632.91	1165.79
633.26	1158.22
633.60	1150.65
633.95	1143.46
634.29	1136.31
634.64	1129.46
634.98	1122.08
635.32	1115.03
635.67	1108.22
636.01	1101.46
636.36	1094.66
636.70	1088.05
637.05	1081.57
637.39	1075.11
637.73	1068.58
638.08	1062.60
638.42	1056.45
638.77	1049.87
639.11	1043.40
639.45	1037.00
639.80	1030.34
640.14	1023.94
640.49	1017.40
640.83	1011.05
641.17	1004.86
641.52	998.68
641.86	992.25
642.20	986.27
642.55	979.82
642.89	973.41
643.23	966.84
643.58	960.97
643.92	954.76
644.26	948.77
644.61	942.62
644.95	936.43
645.29	929.81
645.64	923.20
645.98	916.89
646.32	910.73
646.66	904.62
647.01	898.74
647.35	893.06
647.69	887.10
648.04	881.48
648.38	875.69
648.72	869.68
649.06	863.67
649.41	857.74
649.75	851.77
650.09	845.74
650.43	839.96
650.78	833.74
651.12	827.72
651.46	821.88
651.80	816.24
652.14	810.85
652.49	805.51
652.83	800.26
653.17	794.64
653.51	789.15
653.85	783.72
654.20	778.06
654.54	772.06
654.88	766.28
655.22	760.33
655.56	754.54
655.90	748.96
656.25	743.64
656.59	738.30
656.93	733.16
657.27	728.05
657.61	722.55
657.95	717.52
658.29	712.40
658.64	707.09
658.98	701.59
659.32	696.02
659.66	690.77
660.00	685.44
660.34	680.38
660.68	675.35
661.02	670.23
661.36	665.55
661.70	661.00
662.05	656.61
662.39	652.34
662.73	647.88
663.07	643.44
663.41	639.04
663.75	634.55
664.09	629.99
664.43	625.57
664.77	621.47
665.11	617.14
665.45	613.04
665.79	609.05
666.13	604.95
666.47	600.84
666.81	596.69
667.15	592.54
667.49	588.61
667.83	584.72
668.17	580.82
668.51	576.70
668.85	572.63
669.19	568.77
669.53	564.93
669.87	561.09
670.21	557.40
670.55	553.69
670.89	550.22
671.23	546.76
671.57	543.17
671.91	539.69
672.25	536.18
672.58	532.62
672.92	529.06
673.26	525.88
673.60	522.73
673.94	519.65
674.28	516.75
674.62	513.80
674.96	510.76
675.30	507.81
675.64	504.92
675.97	502.10
676.31	499.26
676.65	496.31
676.99	493.57
677.33	490.67
677.67	487.84
678.01	484.84
678.34	481.91
678.68	479.03
679.02	476.11
679.36	473.31
679.70	470.53
680.04	467.84
680.37	464.98
680.71	462.12
681.05	459.43
681.39	456.63
681.73	453.94
682.06	451.35
682.40	448.83
682.74	446.24
683.08	443.68
683.42	441.02
683.75	438.49
684.09	435.84
684.43	433.38
684.77	430.87
685.10	428.48
685.44	426.07
685.78	423.75
686.12	421.44
686.45	419.11
686.79	416.84
687.13	414.57
687.46	412.35
687.80	410.24
688.14	407.95
688.48	405.88
688.81	403.65
689.15	401.46
689.49	399.25
689.82	397.12
690.16	394.95
690.50	392.97
690.83	391.01
691.17	389.02
691.51	387.08
691.84	385.18
692.18	383.25
692.52	381.33
692.85	379.38
693.19	377.53
693.52	375.66
693.86	373.80
694.20	372.08
694.53	370.24
694.87	368.31
695.21	366.52
695.54	364.65
695.88	362.83
696.21	361.07
696.55	359.36
696.88	357.68
697.22	355.99
697.56	354.35
697.89	352.70
698.23	351.13
698.56	349.51
698.90	347.98
699.23	346.31
699.57	344.71
699.90	343.12
700.24	341.54
700.58	340.06
700.91	338.58
701.25	337.04
701.58	335.72
701.92	334.40
702.25	333.03
702.59	331.68
702.92	330.39
703.26	329.10
703.59	327.80
703.93	326.61
704.26	325.42
704.60	324.11
704.93	322.81
705.26	321.54
705.60	320.31
705.93	319.09
706.27	317.99
706.60	316.90
706.94	315.84
707.27	314.68
707.61	313.56
707.94	312.47
708.27	311.36
708.61	310.22
708.94	309.19
709.28	308.18
709.61	307.19
709.94	306.19
710.28	305.16
710.61	304.14
710.95	303.01
711.28	302.06
711.61	301.07
711.95	300.18
712.28	299.20
712.61	298.21
712.95	297.25
713.28	296.36
713.61	295.44
713.95	294.51
714.28	293.69
714.61	292.86
714.95	292.02
715.28	291.20
715.61	290.31
715.95	289.45
716.28	288.58
716.61	287.73
716.95	286.91
717.28	286.19
717.61	285.44
717.94	284.71
718.28	283.90
718.61	283.22
718.94	282.51
719.27	281.84
719.61	281.16
719.94	280.51
720.27	279.80
720.60	279.13
720.94	278.52
721.27	277.91
721.60	277.34
721.93	276.74
722.27	276.17
722.60	275.63
722.93	275.04
723.26	274.51
723.59	273.95
723.93	273.44
724.26	272.85
724.59	272.26
724.92	271.73
725.25	271.23
725.59	270.70
725.92	270.16
726.25	269.65
726.58	269.19
726.91	268.69
727.24	268.21
727.57	267.76
727.91	267.24
728.24	266.75
728.57	266.22
728.90	265.75
729.23	265.25
729.56	264.80
729.89	264.30
730.22	263.82
730.55	263.36
730.89	262.87
731.22	262.40
731.55	262.01
731.88	261.61
732.21	261.17
732.54	260.74
732.87	260.31
733.20	259.88
733.53	259.50
733.86	259.13
734.19	258.75
734.52	258.35
734.85	258.02
735.18	257.61
735.51	257.26
735.84	256.85
736.17	256.50
736.50	256.09
736.83	255.85
737.16	255.52
737.49	255.18
737.82	254.84
738.15	254.47
738.48	254.12
738.81	253.77
739.14	253.44
739.47	253.12
739.80	252.82
740.13	252.54
740.46	252.18
740.79	251.81
741.12	251.48
741.45	251.16
741.78	250.83
742.11	250.55
742.44	250.19
742.77	249.93
743.10	249.62
743.43	249.32
743.75	248.97
744.08	248.80
744.41	248.52
744.74	248.24
745.07	247.97
745.40	247.70
745.73	247.45
746.06	247.18
746.39	246.88
746.71	246.58
747.04	246.29
747.37	246.02
747.70	245.75
748.03	245.51
748.36	245.26
748.68	244.98
749.01	244.70
749.34	244.50
749.67	244.27
750.00	244.03
750.33	243.87
750.65	243.65
750.98	243.27
751.31	243.04
751.64	242.79
751.97	242.62
752.29	242.43
752.62	242.16
752.95	241.95
753.28	241.77
753.60	241.56
753.93	241.39
754.26	241.19
754.59	240.98
754.91	240.74
755.24	240.58
755.57	240.40
755.90	240.21
756.22	239.97
756.55	239.77
756.88	239.59
757.20	239.32
757.53	239.10
757.86	238.96
758.19	238.79
758.51	238.66
758.84	238.45
759.17	238.25
759.49	238.08
759.82	237.92
760.15	237.75
760.47	237.60
760.80	237.45
761.13	237.32
761.45	237.17
761.78	237.01
762.11	236.84
762.43	236.69
762.76	236.53
763.08	236.45
763.41	236.31
763.74	236.16
764.06	236.04
764.39	235.89
764.71	235.79
765.04	235.68
765.37	235.54
765.69	235.41
766.02	235.29
766.34	235.21
766.67	235.14
767.00	235.05
767.32	235.01
767.65	234.93
767.97	234.83
768.30	234.75
768.62	234.67
768.95	234.56
769.27	234.45
769.60	234.39
769.92	234.23
770.25	234.11
770.57	234.02
770.90	233.92
771.22	233.84
771.55	233.74
771.87	233.62
772.20	233.50
772.52	233.50
772.85	233.55
773.17	233.45
773.50	233.33
773.82	233.21
774.15	233.05
774.47	232.92
774.80	232.80
775.12	232.71
775.45	232.63
775.77	232.60
776.09	232.53
776.42	232.43
776.74	232.39
777.07	232.30
777.39	232.24
777.72	232.14
778.04	232.08
778.36	231.99
778.69	231.94
779.01	231.92
779.33	231.76
779.66	231.58
779.98	231.54
780.31	231.46
780.63	231.44
780.95	231.40
781.28	231.34
781.60	231.32
781.92	231.25
782.25	231.18
782.57	231.10
782.89	231.04
783.22	230.98
783.54	230.90
783.86	230.89
784.19	230.79
784.51	230.77
784.83	230.69
785.16	230.62
785.48	230.56
785.80	230.47
786.12	230.43
786.45	230.37
786.77	230.27
787.09	230.20
