SpectraSuite Data File
++++++++++++++++++++++++++++++++++++
Date: Fri Feb 01 15:15:28 EST 2013
User: group
Dark Spectrum Present: No
Reference Spectrum Present: No
Number of Sampled Component Spectra: 1
Spectrometers: USB2E7196
Integration Time (usec): 35000 (USB2E7196)
Spectra Averaged: 100 (USB2E7196)
Boxcar Smoothing: 10 (USB2E7196)
Correct for Electrical Dark: No (USB2E7196)
Strobe/Lamp Enabled: No (USB2E7196)
Correct for Detector Non-linearity: No (USB2E7196)
Correct for Stray Light: No (USB2E7196)
Number of Pixels in Processed Spectrum: 2048
>>>>>Begin Processed Spectral Data<<<<<
339.09	0.00
339.48	214.90
339.86	216.06
340.24	217.78
340.63	219.11
341.01	221.77
341.39	221.98
341.78	222.73
342.16	224.63
342.54	224.76
342.93	213.26
343.31	224.05
343.69	224.58
344.07	225.06
344.46	225.48
344.84	225.90
345.22	226.15
345.60	226.40
345.99	226.62
346.37	226.73
346.75	226.82
347.13	226.86
347.52	226.94
347.90	227.04
348.28	227.10
348.66	227.13
349.05	227.12
349.43	227.15
349.81	227.19
350.19	227.25
350.57	227.29
350.96	227.36
351.34	227.41
351.72	227.53
352.10	227.62
352.48	227.68
352.87	227.70
353.25	227.76
353.63	227.82
354.01	227.87
354.39	227.96
354.77	228.06
355.15	228.18
355.54	228.23
355.92	228.27
356.30	228.32
356.68	228.47
357.06	228.56
357.44	228.63
357.82	228.67
358.20	228.72
358.58	228.78
358.97	228.80
359.35	228.90
359.73	228.97
360.11	229.04
360.49	229.10
360.87	229.16
361.25	229.20
361.63	229.28
362.01	229.34
362.39	229.33
362.77	229.37
363.15	229.39
363.53	229.42
363.91	229.40
364.29	229.43
364.67	229.35
365.05	229.39
365.43	229.40
365.81	229.44
366.19	229.48
366.57	229.50
366.95	229.51
367.33	229.47
367.71	229.45
368.09	229.45
368.47	229.43
368.85	229.39
369.23	229.41
369.61	229.34
369.99	229.34
370.37	229.34
370.75	229.37
371.13	229.32
371.51	229.24
371.89	229.24
372.27	229.23
372.65	229.17
373.03	229.11
373.41	229.05
373.78	228.99
374.16	228.85
374.54	228.74
374.92	228.67
375.30	228.62
375.68	228.51
376.06	228.45
376.44	228.37
376.82	228.31
377.19	228.24
377.57	228.14
377.95	228.03
378.33	227.94
378.71	227.78
379.09	227.71
379.47	227.66
379.84	227.58
380.22	227.47
380.60	227.38
380.98	227.31
381.36	227.25
381.73	227.18
382.11	227.17
382.49	227.13
382.87	227.01
383.25	226.91
383.62	226.98
384.00	226.88
384.38	226.84
384.76	226.80
385.13	226.73
385.51	226.72
385.89	226.66
386.27	226.63
386.64	226.59
387.02	226.56
387.40	226.48
387.78	226.42
388.15	226.39
388.53	226.38
388.91	226.32
389.29	226.28
389.66	226.26
390.04	226.23
390.42	226.22
390.79	226.26
391.17	226.28
391.55	226.13
391.92	226.10
392.30	226.10
392.68	226.09
393.05	226.11
393.43	226.12
393.81	226.16
394.18	226.15
394.56	226.20
394.94	226.22
395.31	226.31
395.69	226.37
396.06	226.42
396.44	226.44
396.82	226.48
397.19	226.59
397.57	226.63
397.95	226.69
398.32	226.73
398.70	226.79
399.07	226.89
399.45	226.96
399.82	227.08
400.20	227.15
400.58	227.24
400.95	227.31
401.33	227.40
401.70	227.55
402.08	227.67
402.45	227.75
402.83	227.89
403.20	227.97
403.58	228.10
403.95	228.25
404.33	228.40
404.71	228.55
405.08	228.73
405.46	228.90
405.83	229.06
406.21	229.21
406.58	229.40
406.96	229.52
407.33	229.73
407.70	229.90
408.08	230.18
408.45	230.41
408.83	230.63
409.20	230.84
409.58	231.02
409.95	231.29
410.33	231.55
410.70	231.77
411.08	232.07
411.45	232.35
411.82	232.65
412.20	232.99
412.57	233.38
412.95	233.67
413.32	234.05
413.69	234.46
414.07	234.93
414.44	235.38
414.82	235.85
415.19	236.38
415.56	236.96
415.94	237.50
416.31	238.14
416.68	238.79
417.06	239.52
417.43	240.19
417.81	240.93
418.18	241.75
418.55	242.60
418.93	243.48
419.30	244.35
419.67	245.28
420.04	246.26
420.42	247.26
420.79	248.45
421.16	249.58
421.54	250.76
421.91	251.95
422.28	253.20
422.66	254.58
423.03	255.89
423.40	257.23
423.77	258.64
424.15	260.05
424.52	261.52
424.89	263.07
425.26	264.63
425.64	266.10
426.01	267.69
426.38	269.36
426.75	271.06
427.13	272.82
427.50	274.61
427.87	276.49
428.24	278.34
428.61	280.07
428.99	282.03
429.36	284.12
429.73	286.16
430.10	288.16
430.47	290.19
430.85	292.33
431.22	294.55
431.59	296.93
431.96	299.17
432.33	301.66
432.70	304.14
433.08	307.01
433.45	309.64
433.82	312.25
434.19	315.16
434.56	317.94
434.93	320.61
435.30	323.27
435.68	326.17
436.05	329.04
436.42	331.86
436.79	334.40
437.16	337.09
437.53	339.95
437.90	342.81
438.27	345.64
438.64	348.51
439.01	351.13
439.38	353.40
439.75	355.58
440.13	358.10
440.50	360.40
440.87	362.23
441.24	364.21
441.61	366.32
441.98	367.82
442.35	369.62
442.72	371.49
443.09	373.32
443.46	374.31
443.83	374.88
444.20	375.39
444.57	376.21
444.94	376.49
445.31	376.85
445.68	377.19
446.05	377.23
446.42	376.77
446.79	376.34
447.16	375.87
447.53	375.53
447.90	374.35
448.27	373.19
448.64	371.54
449.01	370.38
449.37	368.43
449.74	366.54
450.11	364.28
450.48	361.81
450.85	359.26
451.22	357.10
451.59	355.10
451.96	353.15
452.33	350.56
452.70	348.20
453.07	345.35
453.43	342.40
453.80	339.59
454.17	336.94
454.54	334.39
454.91	331.64
455.28	328.99
455.65	326.47
456.02	324.00
456.38	321.88
456.75	319.21
457.12	316.93
457.49	314.71
457.86	312.57
458.23	310.70
458.59	308.63
458.96	306.53
459.33	304.67
459.70	302.78
460.07	301.26
460.43	299.56
460.80	297.95
461.17	296.55
461.54	295.09
461.91	293.68
462.27	292.22
462.64	290.94
463.01	289.58
463.38	288.30
463.74	286.94
464.11	285.72
464.48	284.70
464.85	283.61
465.21	282.66
465.58	281.74
465.95	280.62
466.32	279.69
466.68	278.79
467.05	277.86
467.42	276.96
467.78	276.06
468.15	275.18
468.52	274.48
468.88	273.62
469.25	272.81
469.62	272.17
469.98	271.52
470.35	270.91
470.72	270.26
471.08	269.61
471.45	269.05
471.82	268.54
472.18	267.92
472.55	267.47
472.92	266.94
473.28	266.45
473.65	266.00
474.02	265.56
474.38	265.18
474.75	264.85
475.11	264.49
475.48	264.21
475.85	263.95
476.21	263.72
476.58	263.52
476.94	263.35
477.31	263.17
477.67	263.01
478.04	262.89
478.41	262.87
478.77	262.91
479.14	262.88
479.50	262.87
479.87	262.93
480.23	263.02
480.60	263.10
480.96	263.19
481.33	263.39
481.69	263.57
482.06	263.81
482.42	264.04
482.79	264.31
483.15	264.64
483.52	265.02
483.88	265.40
484.25	265.80
484.61	266.27
484.98	266.71
485.34	267.25
485.71	267.85
486.07	268.44
486.44	268.98
486.80	269.66
487.17	270.41
487.53	271.23
487.90	272.08
488.26	273.03
488.62	274.02
488.99	274.99
489.35	276.05
489.72	277.15
490.08	278.32
490.44	279.58
490.81	280.87
491.17	282.19
491.54	283.64
491.90	285.18
492.26	286.82
492.63	288.52
492.99	290.32
493.36	292.17
493.72	294.24
494.08	296.34
494.45	298.56
494.81	300.93
495.17	303.38
495.54	305.92
495.90	308.61
496.26	311.35
496.63	314.34
496.99	317.46
497.35	320.72
497.72	324.12
498.08	327.61
498.44	331.26
498.80	335.23
499.17	339.26
499.53	343.38
499.89	347.72
500.26	352.24
500.62	356.90
500.98	361.90
501.34	366.94
501.71	372.29
502.07	377.76
502.43	383.29
502.79	389.13
503.16	395.13
503.52	401.40
503.88	407.83
504.24	414.45
504.60	421.31
504.97	428.43
505.33	435.72
505.69	443.40
506.05	451.20
506.41	459.07
506.78	467.24
507.14	475.71
507.50	484.44
507.86	493.44
508.22	502.64
508.59	511.79
508.95	521.34
509.31	531.13
509.67	541.20
510.03	551.55
510.39	562.06
510.75	572.91
511.12	583.85
511.48	595.16
511.84	606.57
512.20	618.09
512.56	630.02
512.92	642.22
513.28	654.48
513.64	666.94
514.00	679.59
514.37	692.52
514.73	705.59
515.09	718.66
515.45	731.98
515.81	745.59
516.17	759.66
516.53	773.73
516.89	787.90
517.25	802.12
517.61	816.56
517.97	831.05
518.33	845.47
518.69	860.27
519.05	875.30
519.41	890.49
519.77	906.07
520.13	921.61
520.49	937.01
520.85	952.47
521.21	968.29
521.57	984.67
521.93	1000.48
522.29	1016.87
522.65	1033.16
523.01	1049.37
523.37	1065.47
523.73	1081.60
524.09	1097.79
524.45	1114.14
524.81	1130.81
525.17	1147.73
525.53	1164.78
525.89	1181.76
526.25	1198.69
526.61	1215.17
526.97	1231.97
527.33	1248.50
527.68	1265.28
528.04	1281.78
528.40	1298.65
528.76	1315.81
529.12	1332.40
529.48	1349.44
529.84	1365.55
530.20	1382.28
530.56	1399.53
530.91	1417.03
531.27	1433.90
531.63	1450.51
531.99	1467.19
532.35	1483.26
532.71	1499.17
533.07	1515.34
533.42	1531.29
533.78	1547.34
534.14	1563.63
534.50	1578.97
534.86	1594.96
535.21	1609.95
535.57	1626.05
535.93	1641.56
536.29	1656.40
536.65	1671.54
537.00	1686.47
537.36	1701.82
537.72	1716.43
538.08	1730.88
538.44	1744.71
538.79	1758.74
539.15	1772.46
539.51	1786.32
539.87	1800.85
540.22	1814.63
540.58	1828.66
540.94	1842.19
541.29	1855.26
541.65	1868.16
542.01	1881.51
542.37	1893.82
542.72	1906.41
543.08	1918.12
543.44	1930.54
543.79	1941.83
544.15	1952.95
544.51	1964.35
544.87	1975.41
545.22	1986.08
545.58	1996.32
545.94	2006.07
546.29	2015.87
546.65	2025.70
547.01	2034.91
547.36	2043.52
547.72	2052.07
548.07	2059.92
548.43	2067.94
548.79	2075.89
549.14	2083.34
549.50	2090.88
549.86	2098.64
550.21	2106.00
550.57	2113.37
550.92	2119.86
551.28	2126.96
551.64	2134.02
551.99	2140.66
552.35	2146.83
552.70	2153.10
553.06	2158.98
553.41	2165.31
553.77	2171.37
554.13	2177.55
554.48	2183.63
554.84	2188.96
555.19	2194.30
555.55	2199.41
555.90	2203.93
556.26	2208.78
556.61	2213.38
556.97	2217.45
557.32	2221.60
557.68	2225.73
558.03	2230.04
558.39	2233.94
558.74	2238.47
559.10	2242.24
559.45	2245.80
559.81	2250.08
560.16	2253.91
560.52	2257.23
560.87	2260.77
561.23	2263.43
561.58	2266.46
561.94	2268.98
562.29	2271.66
562.64	2274.27
563.00	2276.85
563.35	2280.33
563.71	2283.37
564.06	2286.68
564.42	2289.58
564.77	2291.90
565.12	2294.04
565.48	2295.76
565.83	2297.38
566.19	2298.53
566.54	2299.61
566.89	2300.88
567.25	2301.38
567.60	2302.71
567.96	2304.30
568.31	2305.03
568.66	2306.07
569.02	2306.51
569.37	2306.72
569.72	2307.26
570.08	2307.28
570.43	2307.19
570.78	2306.47
571.14	2304.93
571.49	2303.51
571.84	2303.03
572.20	2301.75
572.55	2300.74
572.90	2299.14
573.26	2297.72
573.61	2296.09
573.96	2293.99
574.31	2290.74
574.67	2287.68
575.02	2283.80
575.37	2280.36
575.72	2276.22
576.08	2272.94
576.43	2269.55
576.78	2265.82
577.13	2262.51
577.49	2259.32
577.84	2255.80
578.19	2252.02
578.54	2248.28
578.90	2243.94
579.25	2238.42
579.60	2233.37
579.95	2228.24
580.30	2223.17
580.66	2217.91
581.01	2212.81
581.36	2207.81
581.71	2203.69
582.06	2199.13
582.42	2194.63
582.77	2189.16
583.12	2184.70
583.47	2179.73
583.82	2174.54
584.17	2169.16
584.53	2163.59
584.88	2157.91
585.23	2151.85
585.58	2146.41
585.93	2140.88
586.28	2136.06
586.63	2130.95
586.98	2125.92
587.34	2121.11
587.69	2116.03
588.04	2110.70
588.39	2104.87
588.74	2098.47
589.09	2092.13
589.44	2085.18
589.79	2079.13
590.14	2073.51
590.49	2066.97
590.84	2060.46
591.19	2054.41
591.54	2047.98
591.89	2040.44
592.25	2033.46
592.60	2026.29
592.95	2018.43
593.30	2011.04
593.65	2003.36
594.00	1996.16
594.35	1988.91
594.70	1980.73
595.05	1973.47
595.40	1966.24
595.75	1958.69
596.10	1952.16
596.45	1945.26
596.80	1939.02
597.15	1932.24
597.50	1925.02
597.85	1918.45
598.19	1911.72
598.54	1904.46
598.89	1897.70
599.24	1891.84
599.59	1885.15
599.94	1878.87
600.29	1872.67
600.64	1865.93
600.99	1858.42
601.34	1851.38
601.69	1844.28
602.04	1837.32
602.39	1829.84
602.74	1822.83
603.08	1816.13
603.43	1809.42
603.78	1802.11
604.13	1794.98
604.48	1787.60
604.83	1780.85
605.18	1773.71
605.53	1765.72
605.87	1757.72
606.22	1750.63
606.57	1742.62
606.92	1735.23
607.27	1728.07
607.62	1721.08
607.96	1713.75
608.31	1707.04
608.66	1699.50
609.01	1691.98
609.36	1684.46
609.70	1676.54
610.05	1668.46
610.40	1660.71
610.75	1652.37
611.10	1644.65
611.44	1636.23
611.79	1628.40
612.14	1619.63
612.49	1610.49
612.83	1602.12
613.18	1594.00
613.53	1585.80
613.88	1577.36
614.22	1569.20
614.57	1560.62
614.92	1552.62
615.27	1545.10
615.61	1536.79
615.96	1528.69
616.31	1521.13
616.65	1513.75
617.00	1506.31
617.35	1498.69
617.70	1490.31
618.04	1481.88
618.39	1473.75
618.74	1466.13
619.08	1457.81
619.43	1450.20
619.78	1443.30
620.12	1436.08
620.47	1428.50
620.82	1420.29
621.16	1412.94
621.51	1405.34
621.85	1397.72
622.20	1389.08
622.55	1380.69
622.89	1372.85
623.24	1365.35
623.59	1357.87
623.93	1350.30
624.28	1342.96
624.62	1335.39
624.97	1328.19
625.32	1321.51
625.66	1314.45
626.01	1307.17
626.35	1299.64
626.70	1291.91
627.04	1284.21
627.39	1276.45
627.73	1269.11
628.08	1262.17
628.43	1254.80
628.77	1247.36
629.12	1239.73
629.46	1232.47
629.81	1225.16
630.15	1217.88
630.50	1210.50
630.84	1202.31
631.19	1194.48
631.53	1187.01
631.88	1179.45
632.22	1171.95
632.57	1164.59
632.91	1157.14
633.26	1149.85
633.60	1142.56
633.95	1135.46
634.29	1128.40
634.64	1121.76
634.98	1114.40
635.32	1107.33
635.67	1100.78
636.01	1094.19
636.36	1087.45
636.70	1081.08
637.05	1074.46
637.39	1068.09
637.73	1061.61
638.08	1055.76
638.42	1049.82
638.77	1043.34
639.11	1036.67
639.45	1030.36
639.80	1023.71
640.14	1017.21
640.49	1010.65
640.83	1004.34
641.17	998.11
641.52	991.86
641.86	985.49
642.20	979.70
642.55	973.36
642.89	966.84
643.23	960.34
643.58	954.54
643.92	948.40
644.26	942.34
644.61	936.41
644.95	930.33
645.29	923.70
645.64	916.88
645.98	910.67
646.32	905.04
646.66	898.87
647.01	893.01
647.35	887.38
647.69	881.53
648.04	876.07
648.38	870.32
648.72	864.26
649.06	858.19
649.41	852.29
649.75	846.37
650.09	840.44
650.43	834.58
650.78	828.48
651.12	822.53
651.46	816.82
651.80	811.00
652.14	805.63
652.49	800.32
652.83	795.25
653.17	789.47
653.51	783.63
653.85	778.36
654.20	772.75
654.54	766.75
654.88	761.10
655.22	755.16
655.56	749.44
655.90	744.03
656.25	738.82
656.59	733.49
656.93	728.40
657.27	723.27
657.61	717.91
657.95	712.75
658.29	707.66
658.64	702.44
658.98	697.18
659.32	691.66
659.66	686.46
660.00	681.10
660.34	676.24
660.68	671.41
661.02	666.36
661.36	661.69
661.70	657.20
662.05	652.80
662.39	648.50
662.73	644.13
663.07	639.85
663.41	635.38
663.75	630.89
664.09	626.33
664.43	621.92
664.77	617.76
665.11	613.61
665.45	609.55
665.79	605.48
666.13	601.37
666.47	597.37
666.81	593.28
667.15	589.16
667.49	585.27
667.83	581.48
668.17	577.55
668.51	573.44
668.85	569.40
669.19	565.59
669.53	561.84
669.87	557.95
670.21	554.19
670.55	550.55
670.89	547.13
671.23	543.70
671.57	540.21
671.91	536.71
672.25	533.21
672.58	529.68
672.92	526.33
673.26	523.14
673.60	519.98
673.94	516.83
674.28	513.93
674.62	511.00
674.96	507.83
675.30	505.02
675.64	502.17
675.97	499.41
676.31	496.56
676.65	493.58
676.99	490.88
677.33	487.99
677.67	485.17
678.01	482.15
678.34	479.17
678.68	476.30
679.02	473.51
679.36	470.76
679.70	468.00
680.04	465.20
680.37	462.34
680.71	459.55
681.05	456.98
681.39	454.27
681.73	451.58
682.06	449.13
682.40	446.51
682.74	443.97
683.08	441.48
683.42	438.88
683.75	436.38
684.09	433.84
684.43	431.41
684.77	428.97
685.10	426.61
685.44	424.38
685.78	422.16
686.12	419.88
686.45	417.59
686.79	415.31
687.13	413.20
687.46	411.06
687.80	408.96
688.14	406.75
688.48	404.71
688.81	402.50
689.15	400.37
689.49	398.25
689.82	396.17
690.16	394.08
690.50	392.14
690.83	390.21
691.17	388.24
691.51	386.37
691.84	384.49
692.18	382.58
692.52	380.57
692.85	378.62
693.19	376.77
693.52	374.97
693.86	373.19
694.20	371.32
694.53	369.55
694.87	367.70
695.21	365.94
695.54	364.16
695.88	362.39
696.21	360.61
696.55	358.92
696.88	357.27
697.22	355.64
697.56	354.00
697.89	352.38
698.23	350.83
698.56	349.24
698.90	347.70
699.23	346.07
699.57	344.55
699.90	343.02
700.24	341.47
700.58	339.98
700.91	338.46
701.25	337.07
701.58	335.66
701.92	334.31
702.25	332.93
702.59	331.58
702.92	330.30
703.26	329.04
703.59	327.80
703.93	326.59
704.26	325.35
704.60	324.06
704.93	322.79
705.26	321.55
705.60	320.38
705.93	319.24
706.27	318.25
706.60	317.19
706.94	316.12
707.27	315.04
707.61	313.93
707.94	312.94
708.27	311.88
708.61	310.83
708.94	309.82
709.28	308.86
709.61	307.86
709.94	306.92
710.28	305.90
710.61	304.93
710.95	303.87
711.28	303.00
711.61	302.05
711.95	301.14
712.28	300.19
712.61	299.19
712.95	298.27
713.28	297.38
713.61	296.48
713.95	295.55
714.28	294.71
714.61	293.91
714.95	293.04
715.28	292.19
715.61	291.27
715.95	290.43
716.28	289.55
716.61	288.73
716.95	287.89
717.28	287.17
717.61	286.38
717.94	285.65
718.28	284.80
718.61	284.08
718.94	283.39
719.27	282.68
719.61	282.05
719.94	281.36
720.27	280.64
720.60	280.01
720.94	279.42
721.27	278.81
721.60	278.21
721.93	277.65
722.27	277.12
722.60	276.62
722.93	276.05
723.26	275.52
723.59	274.95
723.93	274.41
724.26	273.89
724.59	273.31
724.92	272.81
725.25	272.33
725.59	271.80
725.92	271.25
726.25	270.74
726.58	270.23
726.91	269.77
727.24	269.28
727.57	268.80
727.91	268.24
728.24	267.80
728.57	267.30
728.90	266.81
729.23	266.27
729.56	265.81
729.89	265.34
730.22	264.88
730.55	264.46
730.89	264.02
731.22	263.50
731.55	263.07
731.88	262.63
732.21	262.19
732.54	261.74
732.87	261.38
733.20	260.97
733.53	260.61
733.86	260.21
734.19	259.83
734.52	259.42
734.85	259.12
735.18	258.67
735.51	258.31
735.84	257.94
736.17	257.57
736.50	257.20
736.83	256.95
737.16	256.58
737.49	256.21
737.82	255.88
738.15	255.62
738.48	255.29
738.81	254.95
739.14	254.60
739.47	254.34
739.80	254.00
740.13	253.70
740.46	253.36
740.79	253.00
741.12	252.65
741.45	252.34
741.78	252.00
742.11	251.72
742.44	251.38
742.77	251.07
743.10	250.77
743.43	250.47
743.75	250.10
744.08	249.93
744.41	249.61
744.74	249.31
745.07	249.00
745.40	248.76
745.73	248.50
746.06	248.24
746.39	247.97
746.71	247.71
747.04	247.43
747.37	247.15
747.70	246.93
748.03	246.68
748.36	246.46
748.68	246.25
749.01	245.99
749.34	245.79
749.67	245.56
750.00	245.37
750.33	245.23
750.65	245.04
750.98	244.72
751.31	244.55
751.64	244.35
751.97	244.18
752.29	243.95
752.62	243.73
752.95	243.55
753.28	243.33
753.60	243.14
753.93	243.01
754.26	242.83
754.59	242.62
754.91	242.43
755.24	242.24
755.57	242.03
755.90	241.88
756.22	241.68
756.55	241.48
756.88	241.29
757.20	241.05
757.53	240.82
757.86	240.69
758.19	240.53
758.51	240.38
758.84	240.16
759.17	240.00
759.49	239.86
759.82	239.73
760.15	239.60
760.47	239.46
760.80	239.27
761.13	239.18
761.45	239.01
761.78	238.91
762.11	238.78
762.43	238.66
762.76	238.51
763.08	238.40
763.41	238.31
763.74	238.15
764.06	237.99
764.39	237.88
764.71	237.74
765.04	237.61
765.37	237.51
765.69	237.40
766.02	237.30
766.34	237.15
766.67	237.00
767.00	236.87
767.32	236.80
767.65	236.75
767.97	236.60
768.30	236.52
768.62	236.42
768.95	236.29
769.27	236.20
769.60	236.11
769.92	235.97
770.25	235.84
770.57	235.72
770.90	235.67
771.22	235.59
771.55	235.48
771.87	235.42
772.20	235.30
772.52	235.29
772.85	235.34
773.17	235.25
773.50	235.20
773.82	235.07
774.15	234.95
774.47	234.79
774.80	234.66
775.12	234.57
775.45	234.44
775.77	234.36
776.09	234.28
776.42	234.21
776.74	234.18
777.07	234.10
777.39	234.07
777.72	233.95
778.04	233.87
778.36	233.80
778.69	233.69
779.01	233.62
779.33	233.48
779.66	233.28
779.98	233.19
780.31	233.11
780.63	233.08
780.95	233.00
781.28	232.94
781.60	232.90
781.92	232.84
782.25	232.79
782.57	232.72
782.89	232.64
783.22	232.54
783.54	232.45
783.86	232.39
784.19	232.29
784.51	232.25
784.83	232.21
785.16	232.10
785.48	232.06
785.80	231.98
786.12	231.91
786.45	231.85
786.77	231.79
787.09	231.73
