SpectraSuite Data File
++++++++++++++++++++++++++++++++++++
Date: Fri Feb 01 17:46:33 EST 2013
User: group
Dark Spectrum Present: No
Reference Spectrum Present: No
Number of Sampled Component Spectra: 1
Spectrometers: USB2E7196
Integration Time (usec): 35000 (USB2E7196)
Spectra Averaged: 100 (USB2E7196)
Boxcar Smoothing: 10 (USB2E7196)
Correct for Electrical Dark: No (USB2E7196)
Strobe/Lamp Enabled: No (USB2E7196)
Correct for Detector Non-linearity: No (USB2E7196)
Correct for Stray Light: No (USB2E7196)
Number of Pixels in Processed Spectrum: 2048
>>>>>Begin Processed Spectral Data<<<<<
339.09	0.00
339.48	212.54
339.86	214.61
340.24	215.55
340.63	216.51
341.01	219.61
341.39	219.34
341.78	220.95
342.16	222.40
342.54	223.17
342.93	211.14
343.31	221.82
343.69	222.37
344.07	222.82
344.46	223.25
344.84	223.65
345.22	223.89
345.60	224.16
345.99	224.36
346.37	224.49
346.75	224.57
347.13	224.65
347.52	224.71
347.90	224.75
348.28	224.83
348.66	224.88
349.05	224.87
349.43	224.91
349.81	224.93
350.19	225.00
350.57	225.08
350.96	225.18
351.34	225.27
351.72	225.36
352.10	225.44
352.48	225.49
352.87	225.56
353.25	225.62
353.63	225.69
354.01	225.74
354.39	225.84
354.77	225.89
355.15	226.00
355.54	226.04
355.92	226.11
356.30	226.13
356.68	226.28
357.06	226.37
357.44	226.41
357.82	226.50
358.20	226.53
358.58	226.58
358.97	226.63
359.35	226.71
359.73	226.77
360.11	226.80
360.49	226.88
360.87	226.87
361.25	226.93
361.63	226.98
362.01	227.02
362.39	227.02
362.77	227.09
363.15	227.12
363.53	227.15
363.91	227.17
364.29	227.22
364.67	227.12
365.05	227.12
365.43	227.15
365.81	227.14
366.19	227.22
366.57	227.26
366.95	227.24
367.33	227.17
367.71	227.17
368.09	227.21
368.47	227.16
368.85	227.18
369.23	227.18
369.61	227.13
369.99	227.19
370.37	227.17
370.75	227.17
371.13	227.11
371.51	227.07
371.89	227.05
372.27	227.04
372.65	227.00
373.03	226.95
373.41	226.92
373.78	226.87
374.16	226.76
374.54	226.68
374.92	226.61
375.30	226.60
375.68	226.52
376.06	226.44
376.44	226.41
376.82	226.39
377.19	226.38
377.57	226.32
377.95	226.19
378.33	226.12
378.71	226.00
379.09	225.97
379.47	225.91
379.84	225.84
380.22	225.76
380.60	225.69
380.98	225.64
381.36	225.58
381.73	225.52
382.11	225.47
382.49	225.40
382.87	225.33
383.25	225.23
383.62	225.30
384.00	225.23
384.38	225.18
384.76	225.14
385.13	225.08
385.51	225.03
385.89	224.95
386.27	224.91
386.64	224.89
387.02	224.83
387.40	224.79
387.78	224.73
388.15	224.71
388.53	224.68
388.91	224.64
389.29	224.58
389.66	224.57
390.04	224.53
390.42	224.53
390.79	224.51
391.17	224.52
391.55	224.38
391.92	224.39
392.30	224.39
392.68	224.34
393.05	224.31
393.43	224.33
393.81	224.37
394.18	224.37
394.56	224.38
394.94	224.41
395.31	224.40
395.69	224.45
396.06	224.44
396.44	224.47
396.82	224.47
397.19	224.58
397.57	224.57
397.95	224.62
398.32	224.64
398.70	224.69
399.07	224.75
399.45	224.80
399.82	224.84
400.20	224.89
400.58	224.97
400.95	225.01
401.33	225.08
401.70	225.18
402.08	225.28
402.45	225.33
402.83	225.46
403.20	225.58
403.58	225.70
403.95	225.86
404.33	226.01
404.71	226.16
405.08	226.34
405.46	226.53
405.83	226.69
406.21	226.89
406.58	227.09
406.96	227.27
407.33	227.48
407.70	227.72
408.08	227.99
408.45	228.23
408.83	228.49
409.20	228.71
409.58	228.95
409.95	229.25
410.33	229.59
410.70	229.87
411.08	230.23
411.45	230.57
411.82	230.92
412.20	231.36
412.57	231.86
412.95	232.21
413.32	232.70
413.69	233.22
414.07	233.71
414.44	234.28
414.82	234.86
415.19	235.54
415.56	236.23
415.94	236.92
416.31	237.71
416.68	238.54
417.06	239.45
417.43	240.30
417.81	241.26
418.18	242.23
418.55	243.31
418.93	244.40
419.30	245.59
419.67	246.79
420.04	247.97
420.42	249.21
420.79	250.70
421.16	252.13
421.54	253.61
421.91	255.18
422.28	256.80
422.66	258.54
423.03	260.18
423.40	261.92
423.77	263.73
424.15	265.53
424.52	267.40
424.89	269.44
425.26	271.39
425.64	273.25
426.01	275.28
426.38	277.36
426.75	279.45
427.13	281.59
427.50	283.89
427.87	286.27
428.24	288.66
428.61	290.92
428.99	293.39
429.36	296.06
429.73	298.70
430.10	301.25
430.47	303.84
430.85	306.55
431.22	309.32
431.59	312.33
431.96	315.21
432.33	318.37
432.70	321.38
433.08	324.96
433.45	328.34
433.82	331.68
434.19	335.34
434.56	338.92
434.93	342.33
435.30	345.62
435.68	349.28
436.05	352.87
436.42	356.40
436.79	359.59
437.16	363.04
437.53	366.64
437.90	370.26
438.27	373.71
438.64	377.29
439.01	380.60
439.38	383.44
439.75	386.21
440.13	389.42
440.50	392.44
440.87	394.88
441.24	397.30
441.61	400.08
441.98	402.01
442.35	404.40
442.72	406.76
443.09	409.06
443.46	410.35
443.83	411.11
444.20	411.77
444.57	412.85
444.94	413.28
445.31	413.73
445.68	414.12
446.05	414.27
446.42	413.82
446.79	413.34
447.16	412.83
447.53	412.46
447.90	411.02
448.27	409.55
448.64	407.53
449.01	406.16
449.37	403.69
449.74	401.31
450.11	398.44
450.48	395.31
450.85	392.12
451.22	389.42
451.59	386.87
451.96	384.44
452.33	381.19
452.70	378.16
453.07	374.58
453.43	370.94
453.80	367.42
454.17	364.06
454.54	360.80
454.91	357.34
455.28	353.92
455.65	350.68
456.02	347.55
456.38	344.76
456.75	341.32
457.12	338.44
457.49	335.56
457.86	332.71
458.23	330.32
458.59	327.72
458.96	325.07
459.33	322.69
459.70	320.29
460.07	318.36
460.43	316.17
460.80	314.09
461.17	312.20
461.54	310.26
461.91	308.37
462.27	306.53
462.64	304.89
463.01	303.11
463.38	301.41
463.74	299.69
464.11	298.20
464.48	296.89
464.85	295.40
465.21	294.28
465.58	293.15
465.95	291.78
466.32	290.60
466.68	289.40
467.05	288.29
467.42	287.11
467.78	285.85
468.15	284.73
468.52	283.82
468.88	282.77
469.25	281.80
469.62	281.04
469.98	280.16
470.35	279.30
470.72	278.56
471.08	277.79
471.45	277.07
471.82	276.39
472.18	275.59
472.55	275.05
472.92	274.36
473.28	273.74
473.65	273.16
474.02	272.60
474.38	272.11
474.75	271.66
475.11	271.22
475.48	270.89
475.85	270.55
476.21	270.28
476.58	270.01
476.94	269.79
477.31	269.52
477.67	269.33
478.04	269.21
478.41	269.09
478.77	269.05
479.14	268.92
479.50	268.87
479.87	268.96
480.23	269.02
480.60	269.06
480.96	269.14
481.33	269.35
481.69	269.51
482.06	269.66
482.42	269.82
482.79	270.04
483.15	270.33
483.52	270.70
483.88	271.01
484.25	271.37
484.61	271.81
484.98	272.25
485.34	272.81
485.71	273.38
486.07	274.00
486.44	274.56
486.80	275.27
487.17	275.99
487.53	276.76
487.90	277.60
488.26	278.59
488.62	279.59
488.99	280.53
489.35	281.58
489.72	282.74
490.08	283.96
490.44	285.26
490.81	286.65
491.17	288.04
491.54	289.57
491.90	291.14
492.26	292.78
492.63	294.57
492.99	296.33
493.36	298.29
493.72	300.40
494.08	302.60
494.45	304.92
494.81	307.40
495.17	309.92
495.54	312.60
495.90	315.38
496.26	318.26
496.63	321.39
496.99	324.65
497.35	328.01
497.72	331.60
498.08	335.31
498.44	339.13
498.80	343.17
499.17	347.33
499.53	351.70
499.89	356.28
500.26	360.99
500.62	365.91
500.98	371.12
501.34	376.45
501.71	381.98
502.07	387.66
502.43	393.49
502.79	399.52
503.16	405.78
503.52	412.26
503.88	419.00
504.24	425.91
504.60	433.08
504.97	440.59
505.33	448.20
505.69	456.22
506.05	464.37
506.41	472.65
506.78	481.23
507.14	490.03
507.50	499.15
507.86	508.64
508.22	518.31
508.59	527.87
508.95	537.85
509.31	548.13
509.67	558.65
510.03	569.37
510.39	580.54
510.75	591.88
511.12	603.30
511.48	615.10
511.84	627.06
512.20	639.15
512.56	651.63
512.92	664.35
513.28	677.27
513.64	690.33
514.00	703.69
514.37	717.34
514.73	731.16
515.09	744.90
515.45	758.83
515.81	773.05
516.17	787.75
516.53	802.66
516.89	817.71
517.25	832.72
517.61	848.00
517.97	863.23
518.33	878.50
518.69	894.16
519.05	910.12
519.41	926.25
519.77	942.68
520.13	959.17
520.49	975.69
520.85	992.04
521.21	1008.73
521.57	1026.03
521.93	1042.89
522.29	1060.31
522.65	1077.67
523.01	1095.02
523.37	1112.27
523.73	1129.59
524.09	1146.75
524.45	1164.13
524.81	1182.01
525.17	1200.05
525.53	1218.14
525.89	1236.40
526.25	1254.55
526.61	1272.13
526.97	1290.17
527.33	1307.94
527.68	1325.81
528.04	1343.51
528.40	1361.48
528.76	1379.90
529.12	1397.78
529.48	1416.02
529.84	1433.30
530.20	1451.27
530.56	1469.60
530.91	1488.35
531.27	1506.71
531.63	1524.71
531.99	1542.70
532.35	1560.21
532.71	1577.61
533.07	1595.42
533.42	1612.79
533.78	1630.43
534.14	1648.22
534.50	1665.15
534.86	1682.70
535.21	1699.49
535.57	1717.00
535.93	1734.08
536.29	1750.35
536.65	1767.04
537.00	1783.29
537.36	1800.41
537.72	1816.52
538.08	1832.83
538.44	1848.35
538.79	1863.84
539.15	1878.99
539.51	1894.52
539.87	1910.50
540.22	1925.82
540.58	1941.22
540.94	1956.18
541.29	1970.63
541.65	1984.93
542.01	1999.71
542.37	2013.67
542.72	2027.75
543.08	2041.26
543.44	2055.37
543.79	2068.43
544.15	2081.00
544.51	2094.28
544.87	2106.80
545.22	2119.37
545.58	2131.03
545.94	2142.32
546.29	2153.96
546.65	2165.65
547.01	2176.57
547.36	2186.98
547.72	2197.11
548.07	2206.75
548.43	2216.43
548.79	2225.83
549.14	2235.16
549.50	2244.07
549.86	2253.26
550.21	2262.10
550.57	2270.85
550.92	2279.06
551.28	2287.70
551.64	2296.50
551.99	2304.61
552.35	2312.24
552.70	2319.92
553.06	2327.38
553.41	2335.44
553.77	2342.70
554.13	2350.13
554.48	2357.69
554.84	2364.83
555.19	2371.50
555.55	2377.95
555.90	2383.98
556.26	2390.63
556.61	2396.61
556.97	2402.47
557.32	2408.11
557.68	2413.59
558.03	2419.22
558.39	2424.11
558.74	2430.15
559.10	2435.22
559.45	2440.17
559.81	2445.71
560.16	2450.73
560.52	2455.45
560.87	2459.95
561.23	2463.78
561.58	2467.69
561.94	2471.43
562.29	2474.56
562.64	2478.56
563.00	2482.12
563.35	2486.69
563.71	2490.84
564.06	2495.10
564.42	2499.03
564.77	2502.58
565.12	2505.94
565.48	2508.81
565.83	2511.82
566.19	2514.12
566.54	2515.79
566.89	2517.84
567.25	2519.50
567.60	2521.74
567.96	2524.20
568.31	2525.93
568.66	2528.05
569.02	2529.61
569.37	2530.59
569.72	2532.41
570.08	2533.36
570.43	2534.05
570.78	2534.25
571.14	2533.25
571.49	2532.43
571.84	2532.56
572.20	2531.95
572.55	2531.53
572.90	2530.37
573.26	2529.35
573.61	2527.79
573.96	2526.71
574.31	2524.11
574.67	2521.36
575.02	2517.88
575.37	2514.53
575.72	2510.93
576.08	2507.53
576.43	2504.31
576.78	2500.96
577.13	2497.77
577.49	2494.46
577.84	2491.37
578.19	2487.50
578.54	2484.11
578.90	2480.09
579.25	2474.46
579.60	2469.41
579.95	2464.28
580.30	2458.95
580.66	2453.64
581.01	2448.62
581.36	2443.37
581.71	2439.10
582.06	2434.65
582.42	2430.17
582.77	2424.89
583.12	2420.11
583.47	2415.37
583.82	2410.24
584.17	2404.63
584.53	2398.80
584.88	2392.92
585.23	2386.80
585.58	2380.94
585.93	2374.98
586.28	2369.69
586.63	2364.23
586.98	2358.84
587.34	2353.64
587.69	2348.53
588.04	2343.11
588.39	2337.05
588.74	2330.01
589.09	2323.26
589.44	2315.84
589.79	2309.00
590.14	2302.91
590.49	2295.72
590.84	2288.74
591.19	2282.24
591.54	2275.24
591.89	2267.45
592.25	2260.24
592.60	2252.30
592.95	2244.14
593.30	2236.14
593.65	2227.90
594.00	2220.26
594.35	2212.24
594.70	2203.44
595.05	2195.73
595.40	2187.51
595.75	2179.26
596.10	2172.47
596.45	2165.04
596.80	2158.20
597.15	2151.05
597.50	2143.40
597.85	2136.18
598.19	2128.81
598.54	2121.13
598.89	2113.74
599.24	2107.00
599.59	2099.66
599.94	2092.66
600.29	2085.69
600.64	2078.25
600.99	2069.98
601.34	2062.34
601.69	2054.46
602.04	2046.86
602.39	2038.61
602.74	2031.02
603.08	2023.40
603.43	2015.92
603.78	2007.77
604.13	1999.66
604.48	1991.71
604.83	1983.89
605.18	1976.42
605.53	1967.52
605.87	1958.41
606.22	1950.17
606.57	1941.29
606.92	1932.69
607.27	1924.78
607.62	1916.90
607.96	1908.83
608.31	1901.41
608.66	1892.83
609.01	1884.34
609.36	1875.79
609.70	1866.70
610.05	1857.63
610.40	1848.89
610.75	1839.49
611.10	1830.83
611.44	1821.23
611.79	1811.92
612.14	1801.90
612.49	1791.33
612.83	1781.81
613.18	1772.54
613.53	1763.36
613.88	1753.80
614.22	1744.63
614.57	1734.65
614.92	1725.50
615.27	1716.80
615.61	1707.39
615.96	1698.17
616.31	1689.42
616.65	1680.99
617.00	1672.45
617.35	1663.67
617.70	1654.46
618.04	1644.90
618.39	1635.49
618.74	1626.97
619.08	1617.63
619.43	1609.08
619.78	1601.15
620.12	1592.93
620.47	1584.37
620.82	1574.98
621.16	1566.23
621.51	1557.38
621.85	1548.76
622.20	1539.14
622.55	1529.65
622.89	1520.64
623.24	1511.94
623.59	1503.40
623.93	1494.87
624.28	1486.52
624.62	1477.87
624.97	1469.52
625.32	1461.57
625.66	1453.46
626.01	1445.19
626.35	1436.91
626.70	1428.11
627.04	1419.23
627.39	1410.38
627.73	1401.88
628.08	1394.03
628.43	1385.98
628.77	1377.67
629.12	1369.10
629.46	1360.87
629.81	1352.34
630.15	1344.14
630.50	1335.75
630.84	1326.63
631.19	1317.59
631.53	1309.08
631.88	1300.60
632.22	1292.07
632.57	1283.84
632.91	1275.30
633.26	1266.93
633.60	1258.29
633.95	1250.18
634.29	1242.23
634.64	1234.64
634.98	1226.40
635.32	1218.32
635.67	1210.68
636.01	1203.12
636.36	1195.48
636.70	1188.06
637.05	1180.73
637.39	1173.42
637.73	1166.16
638.08	1159.48
638.42	1152.61
638.77	1145.33
639.11	1137.92
639.45	1130.65
639.80	1123.21
640.14	1116.10
640.49	1108.81
640.83	1101.72
641.17	1094.78
641.52	1087.74
641.86	1080.42
642.20	1073.77
642.55	1066.57
642.89	1059.30
643.23	1051.81
643.58	1045.29
643.92	1038.38
644.26	1031.62
644.61	1024.69
644.95	1017.87
645.29	1010.61
645.64	1003.09
645.98	995.89
646.32	989.14
646.66	982.25
647.01	975.65
647.35	969.25
647.69	962.63
648.04	956.42
648.38	949.85
648.72	943.12
649.06	936.44
649.41	929.80
649.75	923.21
650.09	916.58
650.43	910.24
650.78	903.32
651.12	896.60
651.46	890.08
651.80	883.75
652.14	877.66
652.49	871.54
652.83	865.73
653.17	859.54
653.51	853.15
653.85	847.17
654.20	840.90
654.54	834.11
654.88	827.63
655.22	820.97
655.56	814.53
655.90	808.28
656.25	802.31
656.59	796.27
656.93	790.58
657.27	784.79
657.61	778.64
657.95	772.85
658.29	767.17
658.64	761.26
658.98	755.21
659.32	749.07
659.66	743.22
660.00	737.30
660.34	731.60
660.68	726.14
661.02	720.44
661.36	715.13
661.70	710.09
662.05	705.19
662.39	700.37
662.73	695.36
663.07	690.50
663.41	685.53
663.75	680.55
664.09	675.39
664.43	670.45
664.77	665.78
665.11	661.02
665.45	656.35
665.79	651.80
666.13	647.27
666.47	642.77
666.81	638.13
667.15	633.46
667.49	629.08
667.83	624.73
668.17	620.39
668.51	615.82
668.85	611.25
669.19	606.90
669.53	602.67
669.87	598.41
670.21	594.24
670.55	590.18
670.89	586.30
671.23	582.50
671.57	578.52
671.91	574.64
672.25	570.69
672.58	566.75
672.92	562.87
673.26	559.27
673.60	555.67
673.94	552.19
674.28	548.91
674.62	545.61
674.96	542.17
675.30	538.86
675.64	535.70
675.97	532.61
676.31	529.38
676.65	526.05
676.99	523.02
677.33	519.78
677.67	516.59
678.01	513.25
678.34	509.93
678.68	506.73
679.02	503.63
679.36	500.58
679.70	497.50
680.04	494.46
680.37	491.28
680.71	488.13
681.05	485.19
681.39	482.20
681.73	479.24
682.06	476.46
682.40	473.65
682.74	470.73
683.08	467.86
683.42	464.95
683.75	462.15
684.09	459.21
684.43	456.53
684.77	453.80
685.10	451.05
685.44	448.41
685.78	445.87
686.12	443.29
686.45	440.72
686.79	438.14
687.13	435.72
687.46	433.28
687.80	430.87
688.14	428.34
688.48	425.97
688.81	423.50
689.15	421.07
689.49	418.66
689.82	416.30
690.16	413.97
690.50	411.83
690.83	409.62
691.17	407.41
691.51	405.28
691.84	403.15
692.18	401.06
692.52	398.87
692.85	396.65
693.19	394.50
693.52	392.42
693.86	390.41
694.20	388.34
694.53	386.31
694.87	384.24
695.21	382.21
695.54	380.18
695.88	378.21
696.21	376.25
696.55	374.36
696.88	372.47
697.22	370.56
697.56	368.71
697.89	366.87
698.23	365.06
698.56	363.24
698.90	361.53
699.23	359.69
699.57	357.99
699.90	356.23
700.24	354.49
700.58	352.82
700.91	351.17
701.25	349.52
701.58	348.00
701.92	346.47
702.25	344.94
702.59	343.41
702.92	341.92
703.26	340.40
703.59	338.94
703.93	337.61
704.26	336.24
704.60	334.80
704.93	333.36
705.26	331.95
705.60	330.54
705.93	329.18
706.27	327.95
706.60	326.72
706.94	325.52
707.27	324.24
707.61	323.00
707.94	321.81
708.27	320.56
708.61	319.34
708.94	318.15
709.28	317.04
709.61	315.93
709.94	314.86
710.28	313.73
710.61	312.57
710.95	311.32
711.28	310.24
711.61	309.14
711.95	308.10
712.28	307.05
712.61	305.96
712.95	304.89
713.28	303.89
713.61	302.89
713.95	301.85
714.28	300.92
714.61	299.91
714.95	298.93
715.28	297.96
715.61	297.00
715.95	296.02
716.28	295.04
716.61	294.05
716.95	293.08
717.28	292.22
717.61	291.39
717.94	290.58
718.28	289.65
718.61	288.78
718.94	288.01
719.27	287.26
719.61	286.55
719.94	285.79
720.27	284.99
720.60	284.21
720.94	283.52
721.27	282.83
721.60	282.20
721.93	281.55
722.27	280.98
722.60	280.33
722.93	279.70
723.26	279.12
723.59	278.50
723.93	277.89
724.26	277.26
724.59	276.62
724.92	275.97
725.25	275.43
725.59	274.87
725.92	274.29
726.25	273.67
726.58	273.11
726.91	272.58
727.24	272.04
727.57	271.53
727.91	270.95
728.24	270.39
728.57	269.84
728.90	269.29
729.23	268.68
729.56	268.21
729.89	267.68
730.22	267.12
730.55	266.62
730.89	266.11
731.22	265.64
731.55	265.13
731.88	264.68
732.21	264.21
732.54	263.74
732.87	263.24
733.20	262.83
733.53	262.38
733.86	261.93
734.19	261.51
734.52	261.05
734.85	260.72
735.18	260.24
735.51	259.85
735.84	259.46
736.17	259.08
736.50	258.62
736.83	258.37
737.16	258.01
737.49	257.65
737.82	257.28
738.15	256.91
738.48	256.56
738.81	256.22
739.14	255.86
739.47	255.53
739.80	255.21
740.13	254.88
740.46	254.53
740.79	254.20
741.12	253.83
741.45	253.53
741.78	253.14
742.11	252.90
742.44	252.53
742.77	252.20
743.10	251.90
743.43	251.53
743.75	251.07
744.08	250.90
744.41	250.58
744.74	250.27
745.07	249.94
745.40	249.69
745.73	249.42
746.06	249.12
746.39	248.81
746.71	248.46
747.04	248.12
747.37	247.83
747.70	247.56
748.03	247.27
748.36	246.98
748.68	246.69
749.01	246.37
749.34	246.12
749.67	245.85
750.00	245.56
750.33	245.40
750.65	245.16
750.98	244.76
751.31	244.50
751.64	244.27
751.97	244.07
752.29	243.79
752.62	243.49
752.95	243.24
753.28	242.99
753.60	242.78
753.93	242.60
754.26	242.37
754.59	242.08
754.91	241.86
755.24	241.64
755.57	241.43
755.90	241.20
756.22	241.00
756.55	240.77
756.88	240.56
757.20	240.29
757.53	240.08
757.86	239.89
758.19	239.70
758.51	239.50
758.84	239.26
759.17	239.06
759.49	238.90
759.82	238.75
760.15	238.56
760.47	238.38
760.80	238.17
761.13	238.00
761.45	237.79
761.78	237.64
762.11	237.46
762.43	237.30
762.76	237.14
763.08	236.99
763.41	236.84
763.74	236.72
764.06	236.55
764.39	236.38
764.71	236.22
765.04	236.07
765.37	235.94
765.69	235.80
766.02	235.67
766.34	235.50
766.67	235.31
767.00	235.24
767.32	235.18
767.65	235.14
767.97	235.02
768.30	234.93
768.62	234.80
768.95	234.67
769.27	234.52
769.60	234.41
769.92	234.29
770.25	234.16
770.57	234.04
770.90	233.97
771.22	233.84
771.55	233.73
771.87	233.64
772.20	233.50
772.52	233.49
772.85	233.52
773.17	233.44
773.50	233.34
773.82	233.24
774.15	233.10
774.47	232.91
774.80	232.80
775.12	232.73
775.45	232.62
775.77	232.55
776.09	232.50
776.42	232.43
776.74	232.36
777.07	232.27
777.39	232.16
777.72	232.04
778.04	231.99
778.36	231.93
778.69	231.85
779.01	231.81
779.33	231.65
779.66	231.46
779.98	231.37
780.31	231.34
780.63	231.27
780.95	231.23
781.28	231.20
781.60	231.14
781.92	231.06
782.25	230.99
782.57	230.92
782.89	230.86
783.22	230.79
783.54	230.72
783.86	230.65
784.19	230.58
784.51	230.54
784.83	230.45
785.16	230.38
785.48	230.33
785.80	230.24
786.12	230.19
786.45	230.12
786.77	230.08
