SpectraSuite Data File
++++++++++++++++++++++++++++++++++++
Date: Fri Feb 01 14:50:29 EST 2013
User: group
Dark Spectrum Present: No
Reference Spectrum Present: No
Number of Sampled Component Spectra: 1
Spectrometers: USB2E7196
Integration Time (usec): 35000 (USB2E7196)
Spectra Averaged: 100 (USB2E7196)
Boxcar Smoothing: 10 (USB2E7196)
Correct for Electrical Dark: No (USB2E7196)
Strobe/Lamp Enabled: No (USB2E7196)
Correct for Detector Non-linearity: No (USB2E7196)
Correct for Stray Light: No (USB2E7196)
Number of Pixels in Processed Spectrum: 2048
>>>>>Begin Processed Spectral Data<<<<<
339.09	0.00
339.48	216.25
339.86	216.92
340.24	218.90
340.63	219.90
341.01	222.96
341.39	223.16
341.78	224.65
342.16	225.75
342.54	225.88
342.93	214.20
343.31	225.02
343.69	225.56
344.07	226.05
344.46	226.46
344.84	226.84
345.22	227.04
345.60	227.27
345.99	227.41
346.37	227.53
346.75	227.63
347.13	227.69
347.52	227.78
347.90	227.86
348.28	227.87
348.66	227.90
349.05	227.88
349.43	227.89
349.81	227.95
350.19	228.00
350.57	228.05
350.96	228.06
351.34	228.11
351.72	228.19
352.10	228.26
352.48	228.32
352.87	228.39
353.25	228.50
353.63	228.57
354.01	228.63
354.39	228.68
354.77	228.74
355.15	228.85
355.54	228.88
355.92	228.85
356.30	228.94
356.68	229.08
357.06	229.14
357.44	229.20
357.82	229.26
358.20	229.30
358.58	229.36
358.97	229.46
359.35	229.54
359.73	229.59
360.11	229.66
360.49	229.69
360.87	229.71
361.25	229.75
361.63	229.80
362.01	229.87
362.39	229.92
362.77	229.93
363.15	229.96
363.53	229.99
363.91	230.02
364.29	230.01
364.67	229.95
365.05	229.96
365.43	230.00
365.81	230.01
366.19	230.06
366.57	230.08
366.95	230.05
367.33	230.01
367.71	230.01
368.09	230.00
368.47	229.99
368.85	229.95
369.23	229.95
369.61	229.87
369.99	229.84
370.37	229.80
370.75	229.86
371.13	229.79
371.51	229.73
371.89	229.70
372.27	229.65
372.65	229.56
373.03	229.51
373.41	229.40
373.78	229.30
374.16	229.22
374.54	229.13
374.92	229.08
375.30	229.02
375.68	228.89
376.06	228.83
376.44	228.72
376.82	228.68
377.19	228.61
377.57	228.56
377.95	228.46
378.33	228.37
378.71	228.16
379.09	228.10
379.47	228.05
379.84	227.96
380.22	227.90
380.60	227.81
380.98	227.76
381.36	227.71
381.73	227.66
382.11	227.56
382.49	227.49
382.87	227.40
383.25	227.36
383.62	227.42
384.00	227.34
384.38	227.29
384.76	227.25
385.13	227.22
385.51	227.20
385.89	227.13
386.27	227.07
386.64	227.08
387.02	227.06
387.40	227.02
387.78	227.00
388.15	226.99
388.53	226.97
388.91	226.92
389.29	226.88
389.66	226.86
390.04	226.87
390.42	226.86
390.79	226.85
391.17	226.83
391.55	226.70
391.92	226.69
392.30	226.70
392.68	226.68
393.05	226.65
393.43	226.62
393.81	226.65
394.18	226.65
394.56	226.66
394.94	226.67
395.31	226.68
395.69	226.74
396.06	226.76
396.44	226.82
396.82	226.86
397.19	226.97
397.57	226.99
397.95	227.06
398.32	227.12
398.70	227.22
399.07	227.29
399.45	227.37
399.82	227.44
400.20	227.51
400.58	227.59
400.95	227.68
401.33	227.78
401.70	227.88
402.08	228.01
402.45	228.12
402.83	228.26
403.20	228.37
403.58	228.52
403.95	228.65
404.33	228.82
404.71	228.94
405.08	229.12
405.46	229.28
405.83	229.43
406.21	229.58
406.58	229.71
406.96	229.92
407.33	230.14
407.70	230.35
408.08	230.68
408.45	230.90
408.83	231.12
409.20	231.35
409.58	231.58
409.95	231.86
410.33	232.13
410.70	232.40
411.08	232.74
411.45	233.00
411.82	233.36
412.20	233.70
412.57	234.14
412.95	234.43
413.32	234.82
413.69	235.24
414.07	235.67
414.44	236.14
414.82	236.60
415.19	237.11
415.56	237.69
415.94	238.24
416.31	238.87
416.68	239.51
417.06	240.21
417.43	240.88
417.81	241.66
418.18	242.44
418.55	243.26
418.93	244.09
419.30	245.01
419.67	245.92
420.04	246.87
420.42	247.87
420.79	249.06
421.16	250.23
421.54	251.41
421.91	252.61
422.28	253.87
422.66	255.22
423.03	256.55
423.40	257.85
423.77	259.21
424.15	260.61
424.52	262.07
424.89	263.73
425.26	265.30
425.64	266.73
426.01	268.33
426.38	269.99
426.75	271.63
427.13	273.29
427.50	275.10
427.87	277.01
428.24	278.83
428.61	280.55
428.99	282.50
429.36	284.59
429.73	286.68
430.10	288.69
430.47	290.73
430.85	292.84
431.22	295.09
431.59	297.48
431.96	299.75
432.33	302.22
432.70	304.58
433.08	307.38
433.45	309.98
433.82	312.55
434.19	315.40
434.56	318.26
434.93	320.94
435.30	323.54
435.68	326.37
436.05	329.19
436.42	332.00
436.79	334.49
437.16	337.18
437.53	340.00
437.90	342.79
438.27	345.51
438.64	348.28
439.01	350.86
439.38	353.09
439.75	355.21
440.13	357.71
440.50	360.00
440.87	361.81
441.24	363.79
441.61	365.94
441.98	367.44
442.35	369.23
442.72	371.13
443.09	372.90
443.46	373.89
443.83	374.50
444.20	374.98
444.57	375.85
444.94	376.12
445.31	376.45
445.68	376.81
446.05	376.87
446.42	376.51
446.79	376.10
447.16	375.66
447.53	375.38
447.90	374.22
448.27	373.09
448.64	371.52
449.01	370.36
449.37	368.44
449.74	366.58
450.11	364.30
450.48	361.81
450.85	359.30
451.22	357.18
451.59	355.16
451.96	353.25
452.33	350.66
452.70	348.31
453.07	345.49
453.43	342.66
453.80	339.96
454.17	337.30
454.54	334.75
454.91	332.06
455.28	329.38
455.65	326.90
456.02	324.45
456.38	322.36
456.75	319.74
457.12	317.46
457.49	315.28
457.86	313.13
458.23	311.28
458.59	309.31
458.96	307.25
459.33	305.41
459.70	303.57
460.07	302.05
460.43	300.38
460.80	298.78
461.17	297.31
461.54	295.83
461.91	294.41
462.27	292.96
462.64	291.69
463.01	290.34
463.38	289.09
463.74	287.73
464.11	286.55
464.48	285.51
464.85	284.44
465.21	283.52
465.58	282.59
465.95	281.51
466.32	280.57
466.68	279.68
467.05	278.77
467.42	277.83
467.78	276.89
468.15	275.95
468.52	275.27
468.88	274.39
469.25	273.58
469.62	272.94
469.98	272.25
470.35	271.62
470.72	271.02
471.08	270.31
471.45	269.72
471.82	269.13
472.18	268.49
472.55	268.03
472.92	267.51
473.28	267.01
473.65	266.53
474.02	266.04
474.38	265.62
474.75	265.24
475.11	264.87
475.48	264.58
475.85	264.36
476.21	264.07
476.58	263.86
476.94	263.72
477.31	263.52
477.67	263.37
478.04	263.23
478.41	263.13
478.77	263.17
479.14	263.09
479.50	263.08
479.87	263.14
480.23	263.18
480.60	263.21
480.96	263.32
481.33	263.50
481.69	263.70
482.06	263.90
482.42	264.09
482.79	264.33
483.15	264.66
483.52	265.01
483.88	265.36
484.25	265.73
484.61	266.14
484.98	266.62
485.34	267.13
485.71	267.71
486.07	268.32
486.44	268.87
486.80	269.60
487.17	270.32
487.53	271.15
487.90	272.01
488.26	272.95
488.62	273.91
488.99	274.89
489.35	275.90
489.72	277.00
490.08	278.20
490.44	279.42
490.81	280.75
491.17	282.11
491.54	283.59
491.90	285.13
492.26	286.73
492.63	288.42
492.99	290.21
493.36	292.09
493.72	294.12
494.08	296.20
494.45	298.41
494.81	300.76
495.17	303.16
495.54	305.69
495.90	308.34
496.26	311.14
496.63	314.04
496.99	317.14
497.35	320.37
497.72	323.74
498.08	327.27
498.44	330.90
498.80	334.79
499.17	338.81
499.53	342.93
499.89	347.27
500.26	351.73
500.62	356.34
500.98	361.26
501.34	366.27
501.71	371.60
502.07	376.96
502.43	382.50
502.79	388.25
503.16	394.26
503.52	400.51
503.88	406.89
504.24	413.48
504.60	420.39
504.97	427.49
505.33	434.79
505.69	442.41
506.05	450.14
506.41	457.99
506.78	466.08
507.14	474.50
507.50	483.19
507.86	492.19
508.22	501.38
508.59	510.49
508.95	520.01
509.31	529.68
509.67	539.73
510.03	549.94
510.39	560.48
510.75	571.29
511.12	582.16
511.48	593.31
511.84	604.70
512.20	616.14
512.56	628.09
512.92	640.18
513.28	652.44
513.64	664.92
514.00	677.53
514.37	690.46
514.73	703.48
515.09	716.54
515.45	729.78
515.81	743.28
516.17	757.33
516.53	771.43
516.89	785.63
517.25	799.86
517.61	814.34
517.97	828.77
518.33	843.18
518.69	857.93
519.05	873.01
519.41	888.21
519.77	903.71
520.13	919.24
520.49	934.67
520.85	950.18
521.21	965.83
521.57	982.13
521.93	997.95
522.29	1014.38
522.65	1030.54
523.01	1046.70
523.37	1062.81
523.73	1078.98
524.09	1095.25
524.45	1111.70
524.81	1128.36
525.17	1145.26
525.53	1162.18
525.89	1179.08
526.25	1195.99
526.61	1212.41
526.97	1229.20
527.33	1245.85
527.68	1262.48
528.04	1279.01
528.40	1295.68
528.76	1312.81
529.12	1329.49
529.48	1346.36
529.84	1362.49
530.20	1379.26
530.56	1396.39
530.91	1413.81
531.27	1430.57
531.63	1447.01
531.99	1463.58
532.35	1479.62
532.71	1495.51
533.07	1511.99
533.42	1527.98
533.78	1544.11
534.14	1560.37
534.50	1575.65
534.86	1591.48
535.21	1606.61
535.57	1622.75
535.93	1638.25
536.29	1653.13
536.65	1668.34
537.00	1683.20
537.36	1698.51
537.72	1712.99
538.08	1727.44
538.44	1741.41
538.79	1755.39
539.15	1769.23
539.51	1783.19
539.87	1797.55
540.22	1811.37
540.58	1825.13
540.94	1838.53
541.29	1851.52
541.65	1864.38
542.01	1877.72
542.37	1890.08
542.72	1902.64
543.08	1914.24
543.44	1926.74
543.79	1938.05
544.15	1948.96
544.51	1960.43
544.87	1971.38
545.22	1982.25
545.58	1992.46
545.94	2002.16
546.29	2012.09
546.65	2021.76
547.01	2030.83
547.36	2039.62
547.72	2048.07
548.07	2055.86
548.43	2063.98
548.79	2071.83
549.14	2079.24
549.50	2086.68
549.86	2094.36
550.21	2101.61
550.57	2108.83
550.92	2115.33
551.28	2122.46
551.64	2129.41
551.99	2136.04
552.35	2142.25
552.70	2148.33
553.06	2154.21
553.41	2160.44
553.77	2166.30
554.13	2172.24
554.48	2178.22
554.84	2183.47
555.19	2188.84
555.55	2193.84
555.90	2198.21
556.26	2203.11
556.61	2207.80
556.97	2211.97
557.32	2216.08
557.68	2219.93
558.03	2223.98
558.39	2227.59
558.74	2231.93
559.10	2235.58
559.45	2238.95
559.81	2243.10
560.16	2246.84
560.52	2249.97
560.87	2253.26
561.23	2255.80
561.58	2258.65
561.94	2261.08
562.29	2263.39
562.64	2265.78
563.00	2268.28
563.35	2271.67
563.71	2274.66
564.06	2277.70
564.42	2280.38
564.77	2282.56
565.12	2284.86
565.48	2286.70
565.83	2288.36
566.19	2289.38
566.54	2290.25
566.89	2291.36
567.25	2291.67
567.60	2292.82
567.96	2294.18
568.31	2294.75
568.66	2295.51
569.02	2295.83
569.37	2295.94
569.72	2296.59
570.08	2296.50
570.43	2296.32
570.78	2295.35
571.14	2293.46
571.49	2291.89
571.84	2291.23
572.20	2289.89
572.55	2288.52
572.90	2286.53
573.26	2284.67
573.61	2282.91
573.96	2280.82
574.31	2277.46
574.67	2274.07
575.02	2270.17
575.37	2266.49
575.72	2262.43
576.08	2258.99
576.43	2255.70
576.78	2251.88
577.13	2248.33
577.49	2244.96
577.84	2241.16
578.19	2237.23
578.54	2233.32
578.90	2228.73
579.25	2223.02
579.60	2217.95
579.95	2212.65
580.30	2207.57
580.66	2202.29
581.01	2197.09
581.36	2192.12
581.71	2187.74
582.06	2183.34
582.42	2178.64
582.77	2173.42
583.12	2168.66
583.47	2163.72
583.82	2158.31
584.17	2152.81
584.53	2147.12
584.88	2141.36
585.23	2135.49
585.58	2129.93
585.93	2124.25
586.28	2119.45
586.63	2114.20
586.98	2108.76
587.34	2104.01
587.69	2098.93
588.04	2093.64
588.39	2087.86
588.74	2081.06
589.09	2074.91
589.44	2067.83
589.79	2061.67
590.14	2055.83
590.49	2049.13
590.84	2042.64
591.19	2036.55
591.54	2029.95
591.89	2022.55
592.25	2015.58
592.60	2008.27
592.95	2000.51
593.30	1993.19
593.65	1985.39
594.00	1978.24
594.35	1971.04
594.70	1962.83
595.05	1955.54
595.40	1948.04
595.75	1940.38
596.10	1934.13
596.45	1927.25
596.80	1921.09
597.15	1914.42
597.50	1907.42
597.85	1901.01
598.19	1894.39
598.54	1887.25
598.89	1880.62
599.24	1874.68
599.59	1867.88
599.94	1861.60
600.29	1855.25
600.64	1848.60
600.99	1841.04
601.34	1834.19
601.69	1827.08
602.04	1820.30
602.39	1812.93
602.74	1806.24
603.08	1799.52
603.43	1792.81
603.78	1785.58
604.13	1778.29
604.48	1771.06
604.83	1764.06
605.18	1757.11
605.53	1748.98
605.87	1741.00
606.22	1733.73
606.57	1725.85
606.92	1718.65
607.27	1711.41
607.62	1704.52
607.96	1697.39
608.31	1690.95
608.66	1683.42
609.01	1675.98
609.36	1668.49
609.70	1660.65
610.05	1652.76
610.40	1645.22
610.75	1636.93
611.10	1629.26
611.44	1620.97
611.79	1612.95
612.14	1604.49
612.49	1595.44
612.83	1587.19
613.18	1579.13
613.53	1571.26
613.88	1562.77
614.22	1554.63
614.57	1546.19
614.92	1538.40
615.27	1530.92
615.61	1522.73
615.96	1514.81
616.31	1507.30
616.65	1499.93
617.00	1492.42
617.35	1484.79
617.70	1476.42
618.04	1467.95
618.39	1459.84
618.74	1452.34
619.08	1444.17
619.43	1436.64
619.78	1429.84
620.12	1422.89
620.47	1415.48
620.82	1407.43
621.16	1400.10
621.51	1392.65
621.85	1385.27
622.20	1376.89
622.55	1368.63
622.89	1360.96
623.24	1353.33
623.59	1346.00
623.93	1338.58
624.28	1331.47
624.62	1324.05
624.97	1317.04
625.32	1310.50
625.66	1303.60
626.01	1296.51
626.35	1289.21
626.70	1281.63
627.04	1274.04
627.39	1266.27
627.73	1258.95
628.08	1252.06
628.43	1244.93
628.77	1237.58
629.12	1230.08
629.46	1222.83
629.81	1215.50
630.15	1208.43
630.50	1201.22
630.84	1193.16
631.19	1185.38
631.53	1177.96
631.88	1170.44
632.22	1162.89
632.57	1155.73
632.91	1148.37
633.26	1140.99
633.60	1133.72
633.95	1126.66
634.29	1119.76
634.64	1113.17
634.98	1106.01
635.32	1098.96
635.67	1092.55
636.01	1086.07
636.36	1079.33
636.70	1072.98
637.05	1066.54
637.39	1060.12
637.73	1053.78
638.08	1048.06
638.42	1042.18
638.77	1035.81
639.11	1029.37
639.45	1023.13
639.80	1016.54
640.14	1010.17
640.49	1003.86
640.83	997.63
641.17	991.52
641.52	985.25
641.86	979.00
642.20	973.22
642.55	967.05
642.89	960.62
643.23	954.05
643.58	948.42
643.92	942.33
644.26	936.34
644.61	930.35
644.95	924.37
645.29	917.79
645.64	911.14
645.98	904.90
646.32	899.14
646.66	893.19
647.01	887.49
647.35	881.85
647.69	875.96
648.04	870.53
648.38	864.83
648.72	858.94
649.06	852.88
649.41	847.04
649.75	841.05
650.09	835.10
650.43	829.40
650.78	823.23
651.12	817.30
651.46	811.61
651.80	805.85
652.14	800.56
652.49	795.24
652.83	790.12
653.17	784.51
653.51	778.86
653.85	773.49
654.20	767.85
654.54	761.92
654.88	756.28
655.22	750.45
655.56	744.76
655.90	739.23
656.25	734.07
656.59	728.75
656.93	723.74
657.27	718.68
657.61	713.26
657.95	708.23
658.29	703.27
658.64	698.06
658.98	692.83
659.32	687.39
659.66	682.29
660.00	677.08
660.34	672.21
660.68	667.31
661.02	662.36
661.36	657.72
661.70	653.30
662.05	649.02
662.39	644.81
662.73	640.47
663.07	636.22
663.41	631.83
663.75	627.43
664.09	622.94
664.43	618.57
664.77	614.61
665.11	610.37
665.45	606.25
665.79	602.24
666.13	598.21
666.47	594.11
666.81	589.99
667.15	585.80
667.49	581.96
667.83	578.14
668.17	574.23
668.51	570.18
668.85	566.20
669.19	562.46
669.53	558.61
669.87	554.81
670.21	551.20
670.55	547.63
670.89	544.22
671.23	540.81
671.57	537.44
671.91	533.95
672.25	530.59
672.58	527.15
672.92	523.82
673.26	520.68
673.60	517.69
673.94	514.61
674.28	511.84
674.62	508.93
674.96	506.00
675.30	503.18
675.64	500.36
675.97	497.63
676.31	494.76
676.65	491.90
676.99	489.22
677.33	486.42
677.67	483.64
678.01	480.68
678.34	477.75
678.68	474.89
679.02	472.13
679.36	469.38
679.70	466.72
680.04	463.98
680.37	461.14
680.71	458.37
681.05	455.86
681.39	453.22
681.73	450.59
682.06	448.07
682.40	445.57
682.74	443.13
683.08	440.64
683.42	438.14
683.75	435.71
684.09	433.18
684.43	430.70
684.77	428.26
685.10	425.95
685.44	423.67
685.78	421.39
686.12	419.13
686.45	416.92
686.79	414.63
687.13	412.50
687.46	410.42
687.80	408.25
688.14	406.03
688.48	403.95
688.81	401.79
689.15	399.62
689.49	397.45
689.82	395.34
690.16	393.22
690.50	391.28
690.83	389.31
691.17	387.34
691.51	385.45
691.84	383.63
692.18	381.70
692.52	379.74
692.85	377.86
693.19	376.02
693.52	374.16
693.86	372.39
694.20	370.63
694.53	368.85
694.87	367.04
695.21	365.30
695.54	363.48
695.88	361.73
696.21	360.06
696.55	358.41
696.88	356.75
697.22	355.14
697.56	353.53
697.89	351.88
698.23	350.31
698.56	348.69
698.90	347.08
699.23	345.43
699.57	343.89
699.90	342.37
700.24	340.83
700.58	339.32
700.91	337.78
701.25	336.33
701.58	334.97
701.92	333.62
702.25	332.28
702.59	330.95
702.92	329.60
703.26	328.28
703.59	327.01
703.93	325.86
704.26	324.66
704.60	323.36
704.93	322.14
705.26	320.91
705.60	319.79
705.93	318.72
706.27	317.75
706.60	316.73
706.94	315.64
707.27	314.52
707.61	313.52
707.94	312.53
708.27	311.47
708.61	310.42
708.94	309.45
709.28	308.48
709.61	307.53
709.94	306.62
710.28	305.62
710.61	304.67
710.95	303.61
711.28	302.72
711.61	301.76
711.95	300.85
712.28	299.93
712.61	298.98
712.95	298.00
713.28	297.15
713.61	296.28
713.95	295.47
714.28	294.68
714.61	293.84
714.95	293.03
715.28	292.21
715.61	291.34
715.95	290.50
716.28	289.63
716.61	288.83
716.95	288.01
717.28	287.30
717.61	286.55
717.94	285.85
718.28	285.05
718.61	284.43
718.94	283.73
719.27	283.14
719.61	282.49
719.94	281.88
720.27	281.16
720.60	280.54
720.94	279.90
721.27	279.31
721.60	278.73
721.93	278.13
722.27	277.60
722.60	277.06
722.93	276.48
723.26	275.98
723.59	275.44
723.93	274.95
724.26	274.40
724.59	273.87
724.92	273.34
725.25	272.84
725.59	272.30
725.92	271.85
726.25	271.29
726.58	270.81
726.91	270.31
727.24	269.86
727.57	269.35
727.91	268.83
728.24	268.37
728.57	267.90
728.90	267.46
729.23	266.95
729.56	266.52
729.89	266.05
730.22	265.55
730.55	265.10
730.89	264.63
731.22	264.21
731.55	263.75
731.88	263.32
732.21	262.89
732.54	262.44
732.87	261.99
733.20	261.59
733.53	261.19
733.86	260.82
734.19	260.38
734.52	259.97
734.85	259.64
735.18	259.22
735.51	258.85
735.84	258.47
736.17	258.12
736.50	257.71
736.83	257.45
737.16	257.14
737.49	256.77
737.82	256.43
738.15	256.11
738.48	255.75
738.81	255.42
739.14	255.12
739.47	254.82
739.80	254.49
740.13	254.21
740.46	253.86
740.79	253.53
741.12	253.26
741.45	252.96
741.78	252.65
742.11	252.38
742.44	252.05
742.77	251.72
743.10	251.42
743.43	251.12
743.75	250.77
744.08	250.61
744.41	250.37
744.74	250.08
745.07	249.76
745.40	249.55
745.73	249.30
746.06	249.03
746.39	248.76
746.71	248.48
747.04	248.20
747.37	247.96
747.70	247.72
748.03	247.46
748.36	247.21
748.68	246.95
749.01	246.69
749.34	246.45
749.67	246.28
750.00	246.07
750.33	245.93
750.65	245.70
750.98	245.38
751.31	245.14
751.64	244.95
751.97	244.81
752.29	244.58
752.62	244.35
752.95	244.11
753.28	243.90
753.60	243.72
753.93	243.52
754.26	243.34
754.59	243.13
754.91	242.92
755.24	242.75
755.57	242.55
755.90	242.40
756.22	242.20
756.55	242.00
756.88	241.81
757.20	241.58
757.53	241.42
757.86	241.26
758.19	241.13
758.51	240.97
758.84	240.75
759.17	240.56
759.49	240.43
759.82	240.36
760.15	240.22
760.47	240.08
760.80	239.93
761.13	239.83
761.45	239.71
761.78	239.61
762.11	239.49
762.43	239.34
762.76	239.19
763.08	239.08
763.41	238.95
763.74	238.82
764.06	238.66
764.39	238.54
764.71	238.41
765.04	238.24
765.37	238.13
765.69	238.02
766.02	237.93
766.34	237.81
766.67	237.65
767.00	237.51
767.32	237.46
767.65	237.42
767.97	237.29
768.30	237.17
768.62	237.03
768.95	236.90
769.27	236.80
769.60	236.70
769.92	236.58
770.25	236.47
770.57	236.37
770.90	236.29
771.22	236.16
771.55	236.03
771.87	235.95
772.20	235.79
772.52	235.79
772.85	235.79
773.17	235.69
773.50	235.55
773.82	235.45
774.15	235.30
774.47	235.14
774.80	235.02
775.12	234.91
775.45	234.84
775.77	234.79
776.09	234.71
776.42	234.60
776.74	234.53
777.07	234.42
777.39	234.34
777.72	234.24
778.04	234.17
778.36	234.10
778.69	234.00
779.01	233.98
779.33	233.78
779.66	233.62
779.98	233.53
780.31	233.47
780.63	233.46
780.95	233.40
781.28	233.34
781.60	233.24
781.92	233.17
782.25	233.12
782.57	233.04
782.89	232.98
783.22	232.97
783.54	232.90
783.86	232.86
784.19	232.82
784.51	232.78
784.83	232.73
785.16	232.68
785.48	232.65
785.80	232.57
786.12	232.57
786.45	232.53
786.77	232.48
787.09	232.46
