SpectraSuite Data File
++++++++++++++++++++++++++++++++++++
Date: Fri Feb 01 15:43:44 EST 2013
User: group
Dark Spectrum Present: No
Reference Spectrum Present: No
Number of Sampled Component Spectra: 1
Spectrometers: USB2E7196
Integration Time (usec): 35000 (USB2E7196)
Spectra Averaged: 100 (USB2E7196)
Boxcar Smoothing: 10 (USB2E7196)
Correct for Electrical Dark: No (USB2E7196)
Strobe/Lamp Enabled: No (USB2E7196)
Correct for Detector Non-linearity: No (USB2E7196)
Correct for Stray Light: No (USB2E7196)
Number of Pixels in Processed Spectrum: 2048
>>>>>Begin Processed Spectral Data<<<<<
339.09	0.00
339.48	214.79
339.86	216.17
340.24	217.46
340.63	218.86
341.01	221.85
341.39	221.75
341.78	222.95
342.16	224.31
342.54	224.99
342.93	213.06
343.31	223.84
343.69	224.37
344.07	224.88
344.46	225.32
344.84	225.73
345.22	225.99
345.60	226.25
345.99	226.44
346.37	226.59
346.75	226.69
347.13	226.82
347.52	226.87
347.90	226.93
348.28	226.99
348.66	227.03
349.05	227.03
349.43	227.11
349.81	227.18
350.19	227.21
350.57	227.24
350.96	227.41
351.34	227.50
351.72	227.61
352.10	227.69
352.48	227.77
352.87	227.81
353.25	227.86
353.63	227.96
354.01	228.03
354.39	228.12
354.77	228.19
355.15	228.27
355.54	228.35
355.92	228.42
356.30	228.48
356.68	228.64
357.06	228.73
357.44	228.79
357.82	228.87
358.20	228.99
358.58	229.05
358.97	229.07
359.35	229.15
359.73	229.19
360.11	229.23
360.49	229.27
360.87	229.31
361.25	229.38
361.63	229.43
362.01	229.50
362.39	229.52
362.77	229.57
363.15	229.60
363.53	229.62
363.91	229.65
364.29	229.65
364.67	229.55
365.05	229.56
365.43	229.59
365.81	229.58
366.19	229.61
366.57	229.66
366.95	229.67
367.33	229.62
367.71	229.63
368.09	229.65
368.47	229.64
368.85	229.64
369.23	229.62
369.61	229.54
369.99	229.50
370.37	229.46
370.75	229.47
371.13	229.40
371.51	229.35
371.89	229.28
372.27	229.23
372.65	229.20
373.03	229.16
373.41	229.09
373.78	229.04
374.16	228.93
374.54	228.80
374.92	228.72
375.30	228.69
375.68	228.60
376.06	228.50
376.44	228.40
376.82	228.32
377.19	228.24
377.57	228.19
377.95	228.10
378.33	228.03
378.71	227.87
379.09	227.80
379.47	227.73
379.84	227.67
380.22	227.63
380.60	227.53
380.98	227.46
381.36	227.35
381.73	227.26
382.11	227.25
382.49	227.22
382.87	227.13
383.25	227.04
383.62	227.08
384.00	226.98
384.38	226.94
384.76	226.92
385.13	226.87
385.51	226.78
385.89	226.73
386.27	226.66
386.64	226.66
387.02	226.62
387.40	226.56
387.78	226.49
388.15	226.43
388.53	226.38
388.91	226.35
389.29	226.34
389.66	226.30
390.04	226.22
390.42	226.19
390.79	226.20
391.17	226.19
391.55	226.06
391.92	226.07
392.30	226.08
392.68	226.04
393.05	226.04
393.43	226.04
393.81	226.03
394.18	226.04
394.56	226.03
394.94	226.07
395.31	226.11
395.69	226.19
396.06	226.20
396.44	226.25
396.82	226.27
397.19	226.37
397.57	226.44
397.95	226.51
398.32	226.51
398.70	226.59
399.07	226.65
399.45	226.73
399.82	226.82
400.20	226.89
400.58	226.98
400.95	227.04
401.33	227.18
401.70	227.35
402.08	227.47
402.45	227.56
402.83	227.69
403.20	227.81
403.58	227.90
403.95	228.05
404.33	228.19
404.71	228.31
405.08	228.49
405.46	228.61
405.83	228.75
406.21	228.94
406.58	229.06
406.96	229.22
407.33	229.38
407.70	229.59
408.08	229.86
408.45	230.09
408.83	230.31
409.20	230.54
409.58	230.73
409.95	231.01
410.33	231.31
410.70	231.56
411.08	231.88
411.45	232.22
411.82	232.52
412.20	232.90
412.57	233.30
412.95	233.58
413.32	234.01
413.69	234.40
414.07	234.80
414.44	235.31
414.82	235.83
415.19	236.42
415.56	236.94
415.94	237.45
416.31	238.09
416.68	238.73
417.06	239.45
417.43	240.12
417.81	240.88
418.18	241.63
418.55	242.49
418.93	243.35
419.30	244.24
419.67	245.21
420.04	246.11
420.42	247.11
420.79	248.32
421.16	249.45
421.54	250.65
421.91	251.88
422.28	253.11
422.66	254.42
423.03	255.75
423.40	257.10
423.77	258.55
424.15	259.94
424.52	261.40
424.89	262.97
425.26	264.52
425.64	265.95
426.01	267.55
426.38	269.15
426.75	270.80
427.13	272.52
427.50	274.30
427.87	276.22
428.24	278.09
428.61	279.80
428.99	281.75
429.36	283.86
429.73	285.93
430.10	287.95
430.47	290.03
430.85	292.12
431.22	294.32
431.59	296.71
431.96	298.98
432.33	301.46
432.70	303.85
433.08	306.67
433.45	309.32
433.82	311.89
434.19	314.83
434.56	317.67
434.93	320.35
435.30	322.95
435.68	325.83
436.05	328.66
436.42	331.48
436.79	334.02
437.16	336.73
437.53	339.56
437.90	342.39
438.27	345.12
438.64	347.94
439.01	350.56
439.38	352.81
439.75	354.94
440.13	357.47
440.50	359.80
440.87	361.60
441.24	363.53
441.61	365.70
441.98	367.15
442.35	368.94
442.72	370.80
443.09	372.61
443.46	373.61
443.83	374.19
444.20	374.70
444.57	375.53
444.94	375.78
445.31	376.10
445.68	376.46
446.05	376.52
446.42	376.18
446.79	375.74
447.16	375.28
447.53	374.98
447.90	373.81
448.27	372.65
448.64	371.11
449.01	369.94
449.37	368.00
449.74	366.12
450.11	363.84
450.48	361.32
450.85	358.81
451.22	356.68
451.59	354.65
451.96	352.68
452.33	350.04
452.70	347.72
453.07	344.86
453.43	341.92
453.80	339.19
454.17	336.45
454.54	333.92
454.91	331.18
455.28	328.50
455.65	326.01
456.02	323.53
456.38	321.36
456.75	318.74
457.12	316.47
457.49	314.32
457.86	312.19
458.23	310.35
458.59	308.30
458.96	306.16
459.33	304.32
459.70	302.47
460.07	301.00
460.43	299.28
460.80	297.71
461.17	296.32
461.54	294.81
461.91	293.40
462.27	291.98
462.64	290.76
463.01	289.43
463.38	288.15
463.74	286.80
464.11	285.67
464.48	284.63
464.85	283.53
465.21	282.61
465.58	281.66
465.95	280.57
466.32	279.65
466.68	278.79
467.05	277.90
467.42	276.99
467.78	276.03
468.15	275.16
468.52	274.49
468.88	273.61
469.25	272.85
469.62	272.23
469.98	271.53
470.35	270.87
470.72	270.25
471.08	269.57
471.45	269.01
471.82	268.45
472.18	267.88
472.55	267.45
472.92	266.92
473.28	266.48
473.65	266.03
474.02	265.60
474.38	265.23
474.75	264.89
475.11	264.56
475.48	264.31
475.85	264.08
476.21	263.83
476.58	263.67
476.94	263.53
477.31	263.36
477.67	263.21
478.04	263.11
478.41	263.07
478.77	263.14
479.14	263.12
479.50	263.13
479.87	263.19
480.23	263.22
480.60	263.30
480.96	263.39
481.33	263.60
481.69	263.82
482.06	264.00
482.42	264.19
482.79	264.46
483.15	264.76
483.52	265.10
483.88	265.49
484.25	265.88
484.61	266.26
484.98	266.69
485.34	267.22
485.71	267.80
486.07	268.37
486.44	268.92
486.80	269.58
487.17	270.29
487.53	271.10
487.90	271.97
488.26	272.89
488.62	273.85
488.99	274.80
489.35	275.85
489.72	276.96
490.08	278.13
490.44	279.33
490.81	280.69
491.17	282.06
491.54	283.48
491.90	284.98
492.26	286.67
492.63	288.42
492.99	290.22
493.36	292.05
493.72	294.12
494.08	296.20
494.45	298.48
494.81	300.83
495.17	303.25
495.54	305.81
495.90	308.47
496.26	311.27
496.63	314.22
496.99	317.30
497.35	320.61
497.72	324.06
498.08	327.60
498.44	331.28
498.80	335.20
499.17	339.28
499.53	343.43
499.89	347.83
500.26	352.36
500.62	357.05
500.98	362.07
501.34	367.10
501.71	372.48
502.07	377.92
502.43	383.54
502.79	389.38
503.16	395.51
503.52	401.80
503.88	408.21
504.24	414.86
504.60	421.77
504.97	428.84
505.33	436.16
505.69	443.86
506.05	451.61
506.41	459.52
506.78	467.67
507.14	476.21
507.50	484.96
507.86	494.00
508.22	503.17
508.59	512.41
508.95	522.06
509.31	531.83
509.67	541.93
510.03	552.25
510.39	562.78
510.75	573.58
511.12	584.55
511.48	595.88
511.84	607.37
512.20	618.90
512.56	630.83
512.92	643.02
513.28	655.42
513.64	667.94
514.00	680.61
514.37	693.56
514.73	706.57
515.09	719.48
515.45	732.80
515.81	746.43
516.17	760.42
516.53	774.55
516.89	788.78
517.25	802.95
517.61	817.35
517.97	831.80
518.33	846.23
518.69	861.07
519.05	876.10
519.41	891.19
519.77	906.71
520.13	922.17
520.49	937.61
520.85	952.94
521.21	968.77
521.57	985.01
521.93	1000.80
522.29	1017.24
522.65	1033.59
523.01	1049.80
523.37	1065.83
523.73	1082.09
524.09	1098.22
524.45	1114.53
524.81	1131.21
525.17	1148.11
525.53	1165.05
525.89	1181.92
526.25	1198.70
526.61	1215.10
526.97	1231.90
527.33	1248.37
527.68	1265.04
528.04	1281.47
528.40	1298.13
528.76	1315.07
529.12	1331.59
529.48	1348.48
529.84	1364.46
530.20	1381.09
530.56	1398.07
530.91	1415.47
531.27	1432.18
531.63	1448.57
531.99	1465.11
532.35	1481.05
532.71	1496.86
533.07	1513.15
533.42	1529.02
533.78	1545.07
534.14	1561.45
534.50	1576.85
534.86	1592.73
535.21	1607.81
535.57	1623.85
535.93	1639.38
536.29	1654.21
536.65	1669.25
537.00	1684.07
537.36	1699.42
537.72	1713.96
538.08	1728.43
538.44	1742.31
538.79	1756.14
539.15	1769.76
539.51	1783.62
539.87	1797.92
540.22	1811.84
540.58	1825.51
540.94	1838.95
541.29	1851.91
541.65	1864.43
542.01	1877.59
542.37	1889.83
542.72	1902.26
543.08	1913.92
543.44	1926.32
543.79	1937.51
544.15	1948.58
544.51	1960.07
544.87	1971.01
545.22	1981.91
545.58	1992.08
545.94	2001.76
546.29	2011.65
546.65	2021.58
547.01	2030.74
547.36	2039.53
547.72	2047.82
548.07	2055.65
548.43	2063.70
548.79	2071.64
549.14	2079.12
549.50	2086.43
549.86	2094.29
550.21	2101.62
550.57	2108.89
550.92	2115.39
551.28	2122.39
551.64	2129.41
551.99	2135.91
552.35	2142.01
552.70	2148.20
553.06	2154.17
553.41	2160.62
553.77	2166.71
554.13	2172.82
554.48	2179.01
554.84	2184.48
555.19	2189.90
555.55	2195.15
555.90	2199.74
556.26	2204.64
556.61	2209.35
556.97	2213.69
557.32	2217.74
557.68	2221.95
558.03	2226.25
558.39	2229.93
558.74	2234.65
559.10	2238.53
559.45	2242.25
559.81	2246.62
560.16	2250.38
560.52	2253.66
560.87	2256.96
561.23	2259.59
561.58	2262.65
561.94	2265.11
562.29	2267.48
562.64	2270.04
563.00	2272.59
563.35	2276.08
563.71	2279.31
564.06	2282.70
564.42	2285.48
564.77	2287.99
565.12	2290.24
565.48	2292.10
565.83	2294.07
566.19	2295.31
566.54	2296.37
566.89	2297.42
567.25	2297.94
567.60	2299.14
567.96	2300.83
568.31	2301.60
568.66	2302.72
569.02	2303.14
569.37	2303.38
569.72	2304.14
570.08	2304.31
570.43	2304.33
570.78	2303.58
571.14	2301.83
571.49	2300.46
571.84	2300.31
572.20	2299.20
572.55	2298.08
572.90	2296.60
573.26	2295.07
573.61	2293.44
573.96	2291.47
574.31	2288.51
574.67	2285.50
575.02	2281.81
575.37	2278.42
575.72	2274.65
576.08	2271.20
576.43	2267.84
576.78	2264.34
577.13	2261.32
577.49	2258.07
577.84	2254.57
578.19	2251.00
578.54	2247.46
578.90	2243.21
579.25	2237.54
579.60	2232.48
579.95	2227.52
580.30	2222.36
580.66	2217.22
581.01	2212.13
581.36	2207.22
581.71	2202.94
582.06	2198.42
582.42	2194.05
582.77	2188.71
583.12	2184.04
583.47	2179.34
583.82	2174.26
584.17	2168.78
584.53	2163.07
584.88	2157.59
585.23	2151.74
585.58	2146.27
585.93	2140.73
586.28	2135.88
586.63	2130.69
586.98	2125.57
587.34	2120.69
587.69	2115.82
588.04	2110.54
588.39	2104.90
588.74	2098.51
589.09	2092.38
589.44	2085.67
589.79	2079.64
590.14	2074.07
590.49	2067.59
590.84	2061.11
591.19	2055.03
591.54	2048.67
591.89	2041.34
592.25	2034.45
592.60	2027.31
592.95	2019.66
593.30	2012.37
593.65	2004.87
594.00	1997.96
594.35	1990.79
594.70	1982.92
595.05	1975.61
595.40	1968.37
595.75	1960.94
596.10	1954.62
596.45	1947.89
596.80	1941.77
597.15	1934.99
597.50	1927.84
597.85	1921.34
598.19	1914.67
598.54	1907.57
598.89	1900.93
599.24	1895.04
599.59	1888.33
599.94	1881.94
600.29	1875.56
600.64	1868.97
600.99	1861.36
601.34	1854.37
601.69	1847.40
602.04	1840.30
602.39	1832.95
602.74	1826.08
603.08	1819.26
603.43	1812.51
603.78	1805.24
604.13	1797.89
604.48	1790.57
604.83	1783.69
605.18	1776.56
605.53	1768.48
605.87	1760.56
606.22	1753.32
606.57	1745.25
606.92	1738.07
607.27	1730.99
607.62	1724.18
607.96	1716.72
608.31	1710.13
608.66	1702.55
609.01	1694.93
609.36	1687.52
609.70	1679.53
610.05	1671.39
610.40	1663.74
610.75	1655.44
611.10	1647.61
611.44	1639.15
611.79	1631.22
612.14	1622.45
612.49	1613.43
612.83	1605.21
613.18	1597.06
613.53	1588.95
613.88	1580.58
614.22	1572.21
614.57	1563.69
614.92	1555.48
615.27	1547.93
615.61	1539.58
615.96	1531.55
616.31	1523.86
616.65	1516.42
617.00	1508.78
617.35	1501.21
617.70	1492.76
618.04	1484.27
618.39	1476.16
618.74	1468.59
619.08	1460.25
619.43	1452.72
619.78	1445.89
620.12	1438.64
620.47	1431.12
620.82	1422.96
621.16	1415.49
621.51	1407.90
621.85	1400.22
622.20	1391.74
622.55	1383.46
622.89	1375.63
623.24	1367.99
623.59	1360.69
623.93	1353.16
624.28	1345.90
624.62	1338.36
624.97	1331.28
625.32	1324.60
625.66	1317.67
626.01	1310.44
626.35	1302.96
626.70	1295.17
627.04	1287.41
627.39	1279.61
627.73	1272.20
628.08	1265.30
628.43	1257.93
628.77	1250.47
629.12	1242.87
629.46	1235.71
629.81	1228.33
630.15	1221.03
630.50	1213.66
630.84	1205.42
631.19	1197.53
631.53	1190.11
631.88	1182.51
632.22	1174.83
632.57	1167.49
632.91	1159.88
633.26	1152.59
633.60	1145.33
633.95	1138.22
634.29	1131.15
634.64	1124.57
634.98	1117.10
635.32	1109.89
635.67	1103.37
636.01	1096.67
636.36	1089.85
636.70	1083.30
637.05	1076.73
637.39	1070.19
637.73	1063.61
638.08	1057.82
638.42	1051.83
638.77	1045.35
639.11	1038.73
639.45	1032.38
639.80	1025.65
640.14	1019.20
640.49	1012.58
640.83	1006.24
641.17	999.99
641.52	993.64
641.86	987.13
642.20	981.35
642.55	975.11
642.89	968.56
643.23	962.06
643.58	956.30
643.92	950.14
644.26	944.04
644.61	938.18
644.95	932.23
645.29	925.51
645.64	918.79
645.98	912.51
646.32	906.77
646.66	900.70
647.01	894.99
647.35	889.27
647.69	883.47
648.04	878.00
648.38	872.25
648.72	866.23
649.06	860.17
649.41	854.36
649.75	848.35
650.09	842.42
650.43	836.74
650.78	830.64
651.12	824.68
651.46	819.02
651.80	813.14
652.14	807.71
652.49	802.36
652.83	797.16
653.17	791.45
653.51	785.63
653.85	780.30
654.20	774.61
654.54	768.62
654.88	762.94
655.22	757.00
655.56	751.31
655.90	745.91
656.25	740.70
656.59	735.31
656.93	730.16
657.27	725.06
657.61	719.57
657.95	714.41
658.29	709.30
658.64	704.00
658.98	698.74
659.32	693.25
659.66	688.03
660.00	682.70
660.34	677.78
660.68	672.94
661.02	667.83
661.36	663.09
661.70	658.59
662.05	654.14
662.39	649.80
662.73	645.34
663.07	640.92
663.41	636.47
663.75	631.94
664.09	627.42
664.43	623.02
664.77	618.92
665.11	614.67
665.45	610.56
665.79	606.43
666.13	602.35
666.47	598.29
666.81	594.16
667.15	590.00
667.49	586.10
667.83	582.25
668.17	578.38
668.51	574.31
668.85	570.32
669.19	566.50
669.53	562.67
669.87	558.81
670.21	555.12
670.55	551.46
670.89	548.07
671.23	544.63
671.57	541.04
671.91	537.46
672.25	534.00
672.58	530.46
672.92	527.11
673.26	523.92
673.60	520.77
673.94	517.64
674.28	514.78
674.62	511.81
674.96	508.71
675.30	505.72
675.64	502.77
675.97	499.94
676.31	497.12
676.65	494.15
676.99	491.46
677.33	488.57
677.67	485.77
678.01	482.70
678.34	479.70
678.68	476.95
679.02	474.13
679.36	471.32
679.70	468.63
680.04	465.89
680.37	462.98
680.71	460.14
681.05	457.54
681.39	454.82
681.73	452.17
682.06	449.61
682.40	447.11
682.74	444.65
683.08	442.12
683.42	439.53
683.75	437.07
684.09	434.49
684.43	432.05
684.77	429.57
685.10	427.25
685.44	424.95
685.78	422.56
686.12	420.37
686.45	418.10
686.79	415.71
687.13	413.53
687.46	411.44
687.80	409.32
688.14	407.10
688.48	405.07
688.81	402.78
689.15	400.64
689.49	398.48
689.82	396.35
690.16	394.25
690.50	392.26
690.83	390.31
691.17	388.33
691.51	386.39
691.84	384.58
692.18	382.64
692.52	380.65
692.85	378.73
693.19	376.78
693.52	374.96
693.86	373.25
694.20	371.46
694.53	369.65
694.87	367.79
695.21	366.09
695.54	364.28
695.88	362.62
696.21	360.97
696.55	359.33
696.88	357.67
697.22	356.02
697.56	354.40
697.89	352.72
698.23	351.14
698.56	349.55
698.90	347.95
699.23	346.27
699.57	344.73
699.90	343.24
700.24	341.74
700.58	340.18
700.91	338.65
701.25	337.19
701.58	335.78
701.92	334.44
702.25	333.06
702.59	331.66
702.92	330.38
703.26	329.02
703.59	327.70
703.93	326.55
704.26	325.34
704.60	324.02
704.93	322.76
705.26	321.49
705.60	320.34
705.93	319.15
706.27	318.17
706.60	317.13
706.94	316.07
707.27	314.93
707.61	313.89
707.94	312.89
708.27	311.78
708.61	310.79
708.94	309.77
709.28	308.73
709.61	307.77
709.94	306.80
710.28	305.81
710.61	304.88
710.95	303.77
711.28	302.81
711.61	301.91
711.95	301.03
712.28	300.12
712.61	299.11
712.95	298.21
713.28	297.34
713.61	296.46
713.95	295.57
714.28	294.72
714.61	293.86
714.95	293.01
715.28	292.16
715.61	291.23
715.95	290.38
716.28	289.58
716.61	288.76
716.95	287.94
717.28	287.20
717.61	286.42
717.94	285.68
718.28	284.90
718.61	284.16
718.94	283.45
719.27	282.77
719.61	282.18
719.94	281.50
720.27	280.77
720.60	280.11
720.94	279.46
721.27	278.89
721.60	278.33
721.93	277.69
722.27	277.17
722.60	276.62
722.93	276.04
723.26	275.48
723.59	274.91
723.93	274.35
724.26	273.75
724.59	273.19
724.92	272.65
725.25	272.17
725.59	271.65
725.92	271.13
726.25	270.65
726.58	270.15
726.91	269.66
727.24	269.15
727.57	268.66
727.91	268.14
728.24	267.64
728.57	267.13
728.90	266.68
729.23	266.19
729.56	265.76
729.89	265.27
730.22	264.79
730.55	264.33
730.89	263.88
731.22	263.49
731.55	263.09
731.88	262.67
732.21	262.20
732.54	261.74
732.87	261.34
733.20	260.92
733.53	260.53
733.86	260.16
734.19	259.77
734.52	259.42
734.85	259.16
735.18	258.75
735.51	258.41
735.84	258.04
736.17	257.70
736.50	257.29
736.83	257.10
737.16	256.74
737.49	256.43
737.82	256.06
738.15	255.68
738.48	255.31
738.81	254.99
739.14	254.70
739.47	254.43
739.80	254.11
740.13	253.81
740.46	253.43
740.79	253.09
741.12	252.82
741.45	252.49
741.78	252.12
742.11	251.88
742.44	251.54
742.77	251.27
743.10	250.94
743.43	250.71
743.75	250.30
744.08	250.18
744.41	249.89
744.74	249.64
745.07	249.37
745.40	249.15
745.73	248.88
746.06	248.63
746.39	248.33
746.71	248.08
747.04	247.81
747.37	247.58
747.70	247.35
748.03	247.07
748.36	246.84
748.68	246.60
749.01	246.29
749.34	246.09
749.67	245.86
750.00	245.64
750.33	245.46
750.65	245.25
750.98	244.91
751.31	244.72
751.64	244.52
751.97	244.38
752.29	244.14
752.62	243.92
752.95	243.70
753.28	243.52
753.60	243.28
753.93	243.11
754.26	242.94
754.59	242.71
754.91	242.49
755.24	242.29
755.57	242.10
755.90	241.92
756.22	241.72
756.55	241.53
756.88	241.31
757.20	241.07
757.53	240.87
757.86	240.66
758.19	240.51
758.51	240.31
758.84	240.10
759.17	239.91
759.49	239.78
759.82	239.66
760.15	239.52
760.47	239.42
760.80	239.25
761.13	239.13
761.45	239.01
761.78	238.89
762.11	238.75
762.43	238.61
762.76	238.49
763.08	238.37
763.41	238.23
763.74	238.14
764.06	238.03
764.39	237.90
764.71	237.77
765.04	237.62
765.37	237.53
765.69	237.38
766.02	237.27
766.34	237.13
766.67	237.00
767.00	236.87
767.32	236.79
767.65	236.72
767.97	236.56
768.30	236.45
768.62	236.32
768.95	236.21
769.27	236.10
769.60	235.98
769.92	235.88
770.25	235.78
770.57	235.64
770.90	235.52
771.22	235.42
771.55	235.36
771.87	235.27
772.20	235.16
772.52	235.14
772.85	235.18
773.17	235.06
773.50	234.92
773.82	234.79
774.15	234.64
774.47	234.52
774.80	234.41
775.12	234.29
775.45	234.21
775.77	234.14
776.09	234.07
776.42	234.02
776.74	233.95
777.07	233.88
777.39	233.82
777.72	233.74
778.04	233.68
778.36	233.60
778.69	233.53
779.01	233.47
779.33	233.30
779.66	233.10
779.98	233.04
780.31	233.00
780.63	232.98
780.95	232.93
781.28	232.85
781.60	232.80
781.92	232.74
782.25	232.71
782.57	232.62
782.89	232.53
783.22	232.44
783.54	232.36
783.86	232.31
784.19	232.24
784.51	232.19
784.83	232.13
785.16	232.06
785.48	231.98
785.80	231.89
786.12	231.88
786.45	231.84
786.77	231.81
787.09	231.77
