SpectraSuite Data File
++++++++++++++++++++++++++++++++++++
Date: Fri Feb 01 16:44:49 EST 2013
User: group
Dark Spectrum Present: No
Reference Spectrum Present: No
Number of Sampled Component Spectra: 1
Spectrometers: USB2E7196
Integration Time (usec): 35000 (USB2E7196)
Spectra Averaged: 100 (USB2E7196)
Boxcar Smoothing: 10 (USB2E7196)
Correct for Electrical Dark: No (USB2E7196)
Strobe/Lamp Enabled: No (USB2E7196)
Correct for Detector Non-linearity: No (USB2E7196)
Correct for Stray Light: No (USB2E7196)
Number of Pixels in Processed Spectrum: 2048
>>>>>Begin Processed Spectral Data<<<<<
339.09	0.00
339.48	213.25
339.86	214.87
340.24	215.26
340.63	217.64
341.01	220.80
341.39	219.82
341.78	221.05
342.16	223.08
342.54	223.65
342.93	211.54
343.31	222.23
343.69	222.78
344.07	223.24
344.46	223.71
344.84	224.07
345.22	224.28
345.60	224.54
345.99	224.76
346.37	224.88
346.75	224.94
347.13	225.02
347.52	225.09
347.90	225.14
348.28	225.16
348.66	225.23
349.05	225.23
349.43	225.28
349.81	225.34
350.19	225.43
350.57	225.52
350.96	225.59
351.34	225.66
351.72	225.76
352.10	225.85
352.48	225.93
352.87	226.00
353.25	226.07
353.63	226.15
354.01	226.24
354.39	226.31
354.77	226.41
355.15	226.52
355.54	226.59
355.92	226.67
356.30	226.78
356.68	226.93
357.06	227.00
357.44	227.06
357.82	227.14
358.20	227.21
358.58	227.30
358.97	227.38
359.35	227.49
359.73	227.61
360.11	227.69
360.49	227.75
360.87	227.85
361.25	227.93
361.63	228.03
362.01	228.07
362.39	228.10
362.77	228.17
363.15	228.21
363.53	228.25
363.91	228.27
364.29	228.32
364.67	228.24
365.05	228.29
365.43	228.32
365.81	228.35
366.19	228.40
366.57	228.42
366.95	228.43
367.33	228.42
367.71	228.35
368.09	228.35
368.47	228.37
368.85	228.33
369.23	228.34
369.61	228.28
369.99	228.28
370.37	228.28
370.75	228.29
371.13	228.25
371.51	228.20
371.89	228.20
372.27	228.13
372.65	228.10
373.03	228.04
373.41	227.99
373.78	227.92
374.16	227.83
374.54	227.75
374.92	227.66
375.30	227.58
375.68	227.53
376.06	227.47
376.44	227.36
376.82	227.29
377.19	227.23
377.57	227.14
377.95	227.01
378.33	226.96
378.71	226.83
379.09	226.78
379.47	226.76
379.84	226.65
380.22	226.58
380.60	226.49
380.98	226.45
381.36	226.37
381.73	226.29
382.11	226.22
382.49	226.17
382.87	226.09
383.25	226.03
383.62	226.09
384.00	226.02
384.38	225.96
384.76	225.93
385.13	225.86
385.51	225.81
385.89	225.77
386.27	225.70
386.64	225.68
387.02	225.58
387.40	225.50
387.78	225.48
388.15	225.45
388.53	225.37
388.91	225.31
389.29	225.27
389.66	225.24
390.04	225.21
390.42	225.19
390.79	225.16
391.17	225.13
391.55	224.98
391.92	224.97
392.30	224.97
392.68	224.95
393.05	224.94
393.43	224.95
393.81	224.96
394.18	224.98
394.56	224.99
394.94	225.02
395.31	225.04
395.69	225.07
396.06	225.10
396.44	225.14
396.82	225.14
397.19	225.23
397.57	225.28
397.95	225.30
398.32	225.32
398.70	225.40
399.07	225.46
399.45	225.49
399.82	225.54
400.20	225.60
400.58	225.66
400.95	225.70
401.33	225.78
401.70	225.91
402.08	225.94
402.45	226.01
402.83	226.11
403.20	226.25
403.58	226.36
403.95	226.50
404.33	226.65
404.71	226.80
405.08	226.95
405.46	227.09
405.83	227.27
406.21	227.42
406.58	227.58
406.96	227.74
407.33	227.94
407.70	228.11
408.08	228.38
408.45	228.57
408.83	228.82
409.20	229.07
409.58	229.25
409.95	229.53
410.33	229.78
410.70	230.04
411.08	230.32
411.45	230.61
411.82	230.88
412.20	231.24
412.57	231.65
412.95	231.95
413.32	232.36
413.69	232.77
414.07	233.20
414.44	233.66
414.82	234.14
415.19	234.69
415.56	235.23
415.94	235.76
416.31	236.42
416.68	237.01
417.06	237.68
417.43	238.35
417.81	239.12
418.18	239.91
418.55	240.72
418.93	241.57
419.30	242.44
419.67	243.38
420.04	244.28
420.42	245.26
420.79	246.45
421.16	247.59
421.54	248.75
421.91	249.94
422.28	251.23
422.66	252.54
423.03	253.86
423.40	255.18
423.77	256.56
424.15	258.00
424.52	259.49
424.89	261.09
425.26	262.67
425.64	264.10
426.01	265.71
426.38	267.37
426.75	269.03
427.13	270.75
427.50	272.54
427.87	274.45
428.24	276.30
428.61	278.02
428.99	279.92
429.36	281.99
429.73	284.06
430.10	286.05
430.47	288.08
430.85	290.18
431.22	292.40
431.59	294.76
431.96	296.94
432.33	299.39
432.70	301.75
433.08	304.52
433.45	307.12
433.82	309.69
434.19	312.56
434.56	315.31
434.93	317.94
435.30	320.53
435.68	323.35
436.05	326.14
436.42	328.87
436.79	331.34
437.16	334.02
437.53	336.78
437.90	339.50
438.27	342.20
438.64	344.97
439.01	347.54
439.38	349.80
439.75	351.96
440.13	354.43
440.50	356.74
440.87	358.53
441.24	360.43
441.61	362.52
441.98	363.97
442.35	365.78
442.72	367.59
443.09	369.34
443.46	370.32
443.83	370.88
444.20	371.41
444.57	372.25
444.94	372.53
445.31	372.90
445.68	373.31
446.05	373.41
446.42	373.05
446.79	372.60
447.16	372.11
447.53	371.83
447.90	370.67
448.27	369.50
448.64	367.94
449.01	366.88
449.37	364.99
449.74	363.13
450.11	360.88
450.48	358.44
450.85	355.95
451.22	353.82
451.59	351.84
451.96	349.92
452.33	347.34
452.70	345.03
453.07	342.18
453.43	339.28
453.80	336.52
454.17	333.85
454.54	331.38
454.91	328.67
455.28	325.98
455.65	323.53
456.02	321.13
456.38	319.01
456.75	316.33
457.12	314.08
457.49	311.88
457.86	309.77
458.23	307.93
458.59	305.92
458.96	303.89
459.33	302.08
459.70	300.20
460.07	298.72
460.43	297.02
460.80	295.43
461.17	294.02
461.54	292.56
461.91	291.16
462.27	289.75
462.64	288.54
463.01	287.18
463.38	285.89
463.74	284.57
464.11	283.43
464.48	282.43
464.85	281.34
465.21	280.45
465.58	279.53
465.95	278.49
466.32	277.62
466.68	276.74
467.05	275.86
467.42	275.04
467.78	274.14
468.15	273.28
468.52	272.66
468.88	271.81
469.25	271.06
469.62	270.47
469.98	269.78
470.35	269.15
470.72	268.61
471.08	268.01
471.45	267.47
471.82	266.95
472.18	266.34
472.55	265.90
472.92	265.41
473.28	265.00
473.65	264.60
474.02	264.18
474.38	263.82
474.75	263.52
475.11	263.15
475.48	262.91
475.85	262.69
476.21	262.47
476.58	262.32
476.94	262.19
477.31	262.08
477.67	261.96
478.04	261.92
478.41	261.88
478.77	261.94
479.14	261.85
479.50	261.91
479.87	262.04
480.23	262.16
480.60	262.25
480.96	262.33
481.33	262.53
481.69	262.74
482.06	262.95
482.42	263.18
482.79	263.44
483.15	263.75
483.52	264.10
483.88	264.47
484.25	264.88
484.61	265.30
484.98	265.73
485.34	266.27
485.71	266.84
486.07	267.45
486.44	268.00
486.80	268.74
487.17	269.45
487.53	270.23
487.90	271.11
488.26	272.05
488.62	273.03
488.99	273.98
489.35	275.05
489.72	276.19
490.08	277.35
490.44	278.61
490.81	279.92
491.17	281.33
491.54	282.79
491.90	284.32
492.26	286.00
492.63	287.75
492.99	289.56
493.36	291.41
493.72	293.45
494.08	295.53
494.45	297.79
494.81	300.17
495.17	302.59
495.54	305.13
495.90	307.81
496.26	310.62
496.63	313.60
496.99	316.71
497.35	319.95
497.72	323.36
498.08	326.89
498.44	330.59
498.80	334.47
499.17	338.55
499.53	342.70
499.89	347.02
500.26	351.47
500.62	356.12
500.98	361.12
501.34	366.16
501.71	371.47
502.07	376.86
502.43	382.44
502.79	388.27
503.16	394.32
503.52	400.62
503.88	407.05
504.24	413.68
504.60	420.57
504.97	427.71
505.33	435.03
505.69	442.67
506.05	450.40
506.41	458.22
506.78	466.31
507.14	474.70
507.50	483.37
507.86	492.37
508.22	501.57
508.59	510.76
508.95	520.35
509.31	530.16
509.67	540.20
510.03	550.43
510.39	560.97
510.75	571.68
511.12	582.52
511.48	593.74
511.84	605.17
512.20	616.58
512.56	628.49
512.92	640.57
513.28	652.91
513.64	665.28
514.00	677.99
514.37	690.91
514.73	703.93
515.09	716.96
515.45	730.16
515.81	743.63
516.17	757.50
516.53	771.53
516.89	785.61
517.25	799.72
517.61	814.06
517.97	828.40
518.33	842.70
518.69	857.41
519.05	872.30
519.41	887.31
519.77	902.71
520.13	917.91
520.49	933.17
520.85	948.41
521.21	964.09
521.57	980.17
521.93	995.82
522.29	1012.13
522.65	1028.24
523.01	1044.28
523.37	1060.19
523.73	1076.17
524.09	1092.13
524.45	1108.23
524.81	1124.62
525.17	1141.24
525.53	1158.05
525.89	1174.80
526.25	1191.48
526.61	1207.71
526.97	1224.36
527.33	1240.80
527.68	1257.27
528.04	1273.68
528.40	1290.03
528.76	1306.95
529.12	1323.42
529.48	1340.06
529.84	1355.82
530.20	1372.27
530.56	1389.17
530.91	1406.43
531.27	1423.07
531.63	1439.48
531.99	1455.93
532.35	1471.95
532.71	1487.76
533.07	1503.81
533.42	1519.64
533.78	1535.55
534.14	1551.69
534.50	1566.75
534.86	1582.34
535.21	1597.48
535.57	1613.15
535.93	1628.57
536.29	1643.31
536.65	1658.08
537.00	1672.63
537.36	1687.79
537.72	1702.12
538.08	1716.45
538.44	1730.10
538.79	1743.88
539.15	1757.22
539.51	1770.79
539.87	1784.89
540.22	1798.49
540.58	1812.11
540.94	1825.08
541.29	1837.74
541.65	1850.17
542.01	1863.33
542.37	1875.57
542.72	1887.94
543.08	1899.70
543.44	1911.89
543.79	1922.88
544.15	1933.68
544.51	1945.18
544.87	1956.07
545.22	1966.82
545.58	1976.86
545.94	1986.54
546.29	1996.20
546.65	2006.04
547.01	2015.27
547.36	2023.75
547.72	2032.02
548.07	2039.68
548.43	2047.90
548.79	2055.74
549.14	2063.42
549.50	2070.56
549.86	2078.08
550.21	2085.23
550.57	2092.23
550.92	2098.83
551.28	2105.76
551.64	2112.91
551.99	2119.37
552.35	2125.37
552.70	2131.45
553.06	2137.45
553.41	2143.77
553.77	2149.79
554.13	2155.71
554.48	2161.77
554.84	2167.45
555.19	2172.61
555.55	2177.88
555.90	2182.33
556.26	2187.41
556.61	2191.93
556.97	2196.33
557.32	2200.44
557.68	2204.46
558.03	2208.70
558.39	2212.22
558.74	2216.87
559.10	2220.69
559.45	2224.38
559.81	2228.64
560.16	2232.59
560.52	2235.65
560.87	2238.89
561.23	2241.49
561.58	2244.45
561.94	2246.85
562.29	2249.25
562.64	2252.07
563.00	2254.53
563.35	2258.07
563.71	2261.09
564.06	2264.21
564.42	2267.17
564.77	2269.91
565.12	2272.26
565.48	2274.18
565.83	2276.35
566.19	2277.79
566.54	2278.71
566.89	2279.95
567.25	2280.60
567.60	2281.81
567.96	2283.69
568.31	2284.74
568.66	2286.11
569.02	2286.73
569.37	2287.19
569.72	2288.05
570.08	2288.38
570.43	2288.59
570.78	2288.09
571.14	2286.68
571.49	2285.59
571.84	2285.15
572.20	2283.97
572.55	2283.02
572.90	2281.59
573.26	2280.26
573.61	2278.44
573.96	2276.95
574.31	2274.08
574.67	2271.22
575.02	2267.57
575.37	2264.16
575.72	2260.47
576.08	2256.89
576.43	2253.79
576.78	2250.37
577.13	2247.22
577.49	2243.99
577.84	2240.53
578.19	2236.95
578.54	2233.56
578.90	2229.39
579.25	2224.00
579.60	2219.23
579.95	2214.27
580.30	2209.39
580.66	2204.33
581.01	2199.52
581.36	2194.69
581.71	2190.67
582.06	2186.48
582.42	2182.17
582.77	2177.20
583.12	2172.71
583.47	2168.39
583.82	2163.42
584.17	2158.30
584.53	2153.02
584.88	2147.57
585.23	2142.03
585.58	2136.52
585.93	2130.98
586.28	2126.30
586.63	2121.33
586.98	2116.36
587.34	2111.79
587.69	2106.84
588.04	2101.76
588.39	2096.17
588.74	2089.72
589.09	2083.64
589.44	2076.87
589.79	2070.91
590.14	2065.30
590.49	2058.76
590.84	2052.47
591.19	2046.44
591.54	2039.90
591.89	2032.71
592.25	2026.18
592.60	2019.01
592.95	2011.60
593.30	2004.42
593.65	1996.94
594.00	1989.91
594.35	1982.63
594.70	1974.58
595.05	1967.68
595.40	1960.36
595.75	1953.05
596.10	1947.00
596.45	1940.32
596.80	1934.27
597.15	1927.86
597.50	1921.06
597.85	1914.74
598.19	1908.11
598.54	1901.26
598.89	1894.71
599.24	1888.59
599.59	1881.97
599.94	1875.80
600.29	1869.61
600.64	1863.08
600.99	1855.75
601.34	1849.11
601.69	1842.24
602.04	1835.60
602.39	1828.27
602.74	1821.56
603.08	1815.01
603.43	1808.26
603.78	1800.94
604.13	1793.74
604.48	1786.58
604.83	1779.68
605.18	1772.84
605.53	1765.07
605.87	1757.09
606.22	1749.99
606.57	1742.23
606.92	1734.74
607.27	1727.67
607.62	1720.88
607.96	1713.76
608.31	1707.24
608.66	1699.66
609.01	1692.22
609.36	1684.66
609.70	1676.68
610.05	1668.69
610.40	1660.96
610.75	1652.70
611.10	1645.20
611.44	1636.92
611.79	1628.80
612.14	1620.16
612.49	1610.93
612.83	1602.46
613.18	1594.32
613.53	1586.26
613.88	1577.84
614.22	1569.79
614.57	1561.18
614.92	1553.08
615.27	1545.53
615.61	1537.21
615.96	1529.28
616.31	1521.69
616.65	1514.40
617.00	1506.77
617.35	1499.12
617.70	1490.83
618.04	1482.34
618.39	1474.06
618.74	1466.40
619.08	1458.15
619.43	1450.49
619.78	1443.68
620.12	1436.52
620.47	1429.11
620.82	1420.91
621.16	1413.38
621.51	1405.78
621.85	1398.18
622.20	1389.67
622.55	1381.25
622.89	1373.42
623.24	1365.67
623.59	1358.16
623.93	1350.64
624.28	1343.50
624.62	1335.97
624.97	1328.76
625.32	1322.04
625.66	1315.00
626.01	1307.88
626.35	1300.59
626.70	1292.94
627.04	1285.22
627.39	1277.33
627.73	1269.90
628.08	1263.04
628.43	1255.91
628.77	1248.57
629.12	1241.08
629.46	1233.89
629.81	1226.39
630.15	1219.11
630.50	1211.90
630.84	1203.87
631.19	1195.89
631.53	1188.37
631.88	1180.77
632.22	1173.23
632.57	1165.95
632.91	1158.45
633.26	1151.09
633.60	1143.56
633.95	1136.44
634.29	1129.33
634.64	1122.74
634.98	1115.40
635.32	1108.24
635.67	1101.52
636.01	1094.84
636.36	1088.01
636.70	1081.50
637.05	1074.96
637.39	1068.53
637.73	1061.93
638.08	1056.02
638.42	1050.03
638.77	1043.73
639.11	1037.26
639.45	1030.80
639.80	1024.11
640.14	1017.80
640.49	1011.21
640.83	1005.03
641.17	998.77
641.52	992.53
641.86	986.01
642.20	980.17
642.55	973.81
642.89	967.35
643.23	960.78
643.58	955.09
643.92	948.98
644.26	943.06
644.61	937.01
644.95	931.05
645.29	924.49
645.64	917.81
645.98	911.40
646.32	905.45
646.66	899.40
647.01	893.55
647.35	887.78
647.69	881.98
648.04	876.43
648.38	870.65
648.72	864.67
649.06	858.70
649.41	852.80
649.75	846.95
650.09	841.08
650.43	835.28
650.78	829.14
651.12	823.16
651.46	817.39
651.80	811.68
652.14	806.27
652.49	800.93
652.83	795.72
653.17	790.09
653.51	784.43
653.85	779.04
654.20	773.46
654.54	767.46
654.88	761.71
655.22	755.80
655.56	750.12
655.90	744.70
656.25	739.49
656.59	734.14
656.93	728.98
657.27	723.83
657.61	718.41
657.95	713.25
658.29	708.23
658.64	702.94
658.98	697.58
659.32	692.14
659.66	686.87
660.00	681.64
660.34	676.65
660.68	671.75
661.02	666.78
661.36	662.11
661.70	657.62
662.05	653.27
662.39	648.99
662.73	644.51
663.07	640.08
663.41	635.63
663.75	631.13
664.09	626.63
664.43	622.26
664.77	618.21
665.11	613.94
665.45	609.71
665.79	605.72
666.13	601.58
666.47	597.41
666.81	593.25
667.15	589.09
667.49	585.25
667.83	581.39
668.17	577.46
668.51	573.39
668.85	569.39
669.19	565.51
669.53	561.65
669.87	557.81
670.21	554.14
670.55	550.45
670.89	547.04
671.23	543.55
671.57	539.96
671.91	536.35
672.25	532.81
672.58	529.32
672.92	525.87
673.26	522.75
673.60	519.72
673.94	516.66
674.28	513.77
674.62	510.81
674.96	507.70
675.30	504.75
675.64	501.81
675.97	499.01
676.31	496.17
676.65	493.25
676.99	490.52
677.33	487.62
677.67	484.86
678.01	481.84
678.34	478.95
678.68	476.07
679.02	473.28
679.36	470.53
679.70	467.80
680.04	464.96
680.37	462.06
680.71	459.15
681.05	456.49
681.39	453.80
681.73	451.12
682.06	448.58
682.40	446.09
682.74	443.57
683.08	441.00
683.42	438.35
683.75	435.83
684.09	433.26
684.43	430.85
684.77	428.39
685.10	426.02
685.44	423.69
685.78	421.41
686.12	419.15
686.45	416.89
686.79	414.63
687.13	412.51
687.46	410.37
687.80	408.26
688.14	406.04
688.48	403.92
688.81	401.73
689.15	399.60
689.49	397.43
689.82	395.34
690.16	393.25
690.50	391.35
690.83	389.42
691.17	387.50
691.51	385.60
691.84	383.67
692.18	381.72
692.52	379.75
692.85	377.84
693.19	375.98
693.52	374.12
693.86	372.30
694.20	370.51
694.53	368.77
694.87	366.92
695.21	365.16
695.54	363.34
695.88	361.60
696.21	359.88
696.55	358.17
696.88	356.46
697.22	354.84
697.56	353.19
697.89	351.58
698.23	349.92
698.56	348.32
698.90	346.79
699.23	345.18
699.57	343.62
699.90	342.07
700.24	340.52
700.58	339.04
700.91	337.56
701.25	336.11
701.58	334.71
701.92	333.36
702.25	331.98
702.59	330.59
702.92	329.27
703.26	327.91
703.59	326.67
703.93	325.54
704.26	324.27
704.60	322.96
704.93	321.66
705.26	320.44
705.60	319.23
705.93	318.05
706.27	316.99
706.60	315.94
706.94	314.83
707.27	313.72
707.61	312.63
707.94	311.59
708.27	310.47
708.61	309.35
708.94	308.33
709.28	307.33
709.61	306.38
709.94	305.39
710.28	304.38
710.61	303.41
710.95	302.28
711.28	301.34
711.61	300.38
711.95	299.45
712.28	298.48
712.61	297.51
712.95	296.56
713.28	295.64
713.61	294.73
713.95	293.87
714.28	293.05
714.61	292.14
714.95	291.26
715.28	290.42
715.61	289.56
715.95	288.67
716.28	287.78
716.61	286.96
716.95	286.10
717.28	285.38
717.61	284.59
717.94	283.87
718.28	283.05
718.61	282.31
718.94	281.63
719.27	280.95
719.61	280.28
719.94	279.63
720.27	278.95
720.60	278.27
720.94	277.61
721.27	276.98
721.60	276.47
721.93	275.90
722.27	275.36
722.60	274.81
722.93	274.24
723.26	273.75
723.59	273.18
723.93	272.66
724.26	272.10
724.59	271.56
724.92	271.06
725.25	270.59
725.59	270.10
725.92	269.55
726.25	269.07
726.58	268.58
726.91	268.11
727.24	267.63
727.57	267.15
727.91	266.67
728.24	266.22
728.57	265.69
728.90	265.26
729.23	264.76
729.56	264.34
729.89	263.91
730.22	263.41
730.55	262.98
730.89	262.55
731.22	262.10
731.55	261.65
731.88	261.22
732.21	260.82
732.54	260.41
732.87	260.06
733.20	259.67
733.53	259.29
733.86	258.90
734.19	258.52
734.52	258.17
734.85	257.87
735.18	257.42
735.51	257.09
735.84	256.69
736.17	256.35
736.50	255.92
736.83	255.68
737.16	255.36
737.49	254.99
737.82	254.66
738.15	254.35
738.48	254.04
738.81	253.69
739.14	253.35
739.47	253.03
739.80	252.69
740.13	252.39
740.46	252.08
740.79	251.76
741.12	251.45
741.45	251.13
741.78	250.79
742.11	250.53
742.44	250.20
742.77	249.93
743.10	249.64
743.43	249.36
743.75	248.96
744.08	248.81
744.41	248.58
744.74	248.29
745.07	247.99
745.40	247.73
745.73	247.53
746.06	247.26
746.39	247.00
746.71	246.72
747.04	246.44
747.37	246.16
747.70	245.90
748.03	245.69
748.36	245.47
748.68	245.20
749.01	244.97
749.34	244.78
749.67	244.56
750.00	244.34
750.33	244.20
750.65	243.97
750.98	243.65
751.31	243.41
751.64	243.23
751.97	243.06
752.29	242.85
752.62	242.55
752.95	242.32
753.28	242.12
753.60	241.93
753.93	241.74
754.26	241.54
754.59	241.31
754.91	241.06
755.24	240.86
755.57	240.69
755.90	240.49
756.22	240.30
756.55	240.10
756.88	239.87
757.20	239.62
757.53	239.43
757.86	239.27
758.19	239.08
758.51	238.90
758.84	238.67
759.17	238.49
759.49	238.37
759.82	238.24
760.15	238.11
760.47	237.96
760.80	237.79
761.13	237.67
761.45	237.53
761.78	237.36
762.11	237.19
762.43	237.00
762.76	236.83
763.08	236.71
763.41	236.56
763.74	236.44
764.06	236.29
764.39	236.15
764.71	235.98
765.04	235.87
765.37	235.72
765.69	235.62
766.02	235.50
766.34	235.37
766.67	235.22
767.00	235.07
767.32	235.00
767.65	234.95
767.97	234.80
768.30	234.72
768.62	234.64
768.95	234.53
769.27	234.44
769.60	234.34
769.92	234.21
770.25	234.09
770.57	233.96
770.90	233.86
771.22	233.75
771.55	233.64
771.87	233.53
772.20	233.48
772.52	233.45
772.85	233.49
773.17	233.42
773.50	233.36
773.82	233.26
774.15	233.13
774.47	232.97
774.80	232.87
775.12	232.74
775.45	232.65
775.77	232.58
776.09	232.52
776.42	232.45
776.74	232.39
777.07	232.32
777.39	232.28
777.72	232.18
778.04	232.13
778.36	232.08
778.69	232.05
779.01	231.96
779.33	231.80
779.66	231.61
779.98	231.50
780.31	231.39
780.63	231.35
780.95	231.29
781.28	231.25
781.60	231.19
781.92	231.13
782.25	231.05
782.57	231.00
782.89	230.91
783.22	230.82
783.54	230.76
783.86	230.69
784.19	230.61
784.51	230.60
784.83	230.55
785.16	230.50
785.48	230.40
785.80	230.36
786.12	230.32
786.45	230.25
786.77	230.23
787.09	230.22
