SpectraSuite Data File
++++++++++++++++++++++++++++++++++++
Date: Fri Feb 01 16:24:38 EST 2013
User: group
Dark Spectrum Present: No
Reference Spectrum Present: No
Number of Sampled Component Spectra: 1
Spectrometers: USB2E7196
Integration Time (usec): 35000 (USB2E7196)
Spectra Averaged: 100 (USB2E7196)
Boxcar Smoothing: 10 (USB2E7196)
Correct for Electrical Dark: No (USB2E7196)
Strobe/Lamp Enabled: No (USB2E7196)
Correct for Detector Non-linearity: No (USB2E7196)
Correct for Stray Light: No (USB2E7196)
Number of Pixels in Processed Spectrum: 2048
>>>>>Begin Processed Spectral Data<<<<<
339.09	0.00
339.48	213.76
339.86	215.39
340.24	216.72
340.63	217.93
341.01	220.59
341.39	221.15
341.78	221.89
342.16	223.94
342.54	223.65
342.93	212.34
343.31	223.07
343.69	223.65
344.07	224.13
344.46	224.56
344.84	224.97
345.22	225.23
345.60	225.48
345.99	225.70
346.37	225.84
346.75	225.97
347.13	226.07
347.52	226.14
347.90	226.20
348.28	226.27
348.66	226.32
349.05	226.30
349.43	226.38
349.81	226.41
350.19	226.46
350.57	226.52
350.96	226.61
351.34	226.72
351.72	226.81
352.10	226.90
352.48	226.99
352.87	227.03
353.25	227.13
353.63	227.18
354.01	227.24
354.39	227.28
354.77	227.36
355.15	227.44
355.54	227.47
355.92	227.52
356.30	227.57
356.68	227.67
357.06	227.74
357.44	227.80
357.82	227.85
358.20	227.94
358.58	227.99
358.97	228.09
359.35	228.14
359.73	228.20
360.11	228.23
360.49	228.29
360.87	228.34
361.25	228.38
361.63	228.45
362.01	228.52
362.39	228.56
362.77	228.58
363.15	228.63
363.53	228.66
363.91	228.73
364.29	228.72
364.67	228.68
365.05	228.71
365.43	228.72
365.81	228.77
366.19	228.78
366.57	228.82
366.95	228.81
367.33	228.78
367.71	228.79
368.09	228.82
368.47	228.79
368.85	228.78
369.23	228.78
369.61	228.74
369.99	228.75
370.37	228.74
370.75	228.73
371.13	228.62
371.51	228.58
371.89	228.51
372.27	228.49
372.65	228.44
373.03	228.37
373.41	228.31
373.78	228.25
374.16	228.15
374.54	228.05
374.92	227.96
375.30	227.89
375.68	227.76
376.06	227.69
376.44	227.63
376.82	227.56
377.19	227.48
377.57	227.41
377.95	227.28
378.33	227.19
378.71	227.08
379.09	227.04
379.47	226.98
379.84	226.92
380.22	226.88
380.60	226.78
380.98	226.72
381.36	226.62
381.73	226.56
382.11	226.51
382.49	226.48
382.87	226.40
383.25	226.38
383.62	226.46
384.00	226.35
384.38	226.27
384.76	226.23
385.13	226.20
385.51	226.16
385.89	226.10
386.27	226.06
386.64	226.03
387.02	225.99
387.40	225.92
387.78	225.88
388.15	225.82
388.53	225.80
388.91	225.74
389.29	225.72
389.66	225.67
390.04	225.65
390.42	225.62
390.79	225.60
391.17	225.54
391.55	225.40
391.92	225.42
392.30	225.42
392.68	225.42
393.05	225.42
393.43	225.40
393.81	225.40
394.18	225.38
394.56	225.40
394.94	225.42
395.31	225.45
395.69	225.51
396.06	225.53
396.44	225.56
396.82	225.60
397.19	225.71
397.57	225.76
397.95	225.83
398.32	225.84
398.70	225.91
399.07	226.02
399.45	226.09
399.82	226.15
400.20	226.20
400.58	226.26
400.95	226.30
401.33	226.42
401.70	226.60
402.08	226.68
402.45	226.78
402.83	226.87
403.20	227.00
403.58	227.08
403.95	227.20
404.33	227.33
404.71	227.46
405.08	227.62
405.46	227.73
405.83	227.85
406.21	228.02
406.58	228.17
406.96	228.31
407.33	228.49
407.70	228.72
408.08	229.03
408.45	229.23
408.83	229.47
409.20	229.65
409.58	229.81
409.95	230.07
410.33	230.37
410.70	230.62
411.08	230.89
411.45	231.17
411.82	231.48
412.20	231.83
412.57	232.23
412.95	232.54
413.32	232.95
413.69	233.36
414.07	233.80
414.44	234.28
414.82	234.75
415.19	235.29
415.56	235.80
415.94	236.26
416.31	236.89
416.68	237.48
417.06	238.19
417.43	238.87
417.81	239.61
418.18	240.39
418.55	241.27
418.93	242.15
419.30	243.03
419.67	243.97
420.04	244.90
420.42	245.89
420.79	247.03
421.16	248.16
421.54	249.37
421.91	250.55
422.28	251.76
422.66	253.09
423.03	254.36
423.40	255.68
423.77	257.12
424.15	258.58
424.52	260.06
424.89	261.67
425.26	263.21
425.64	264.68
426.01	266.19
426.38	267.81
426.75	269.45
427.13	271.20
427.50	272.99
427.87	274.88
428.24	276.74
428.61	278.50
428.99	280.49
429.36	282.55
429.73	284.61
430.10	286.63
430.47	288.68
430.85	290.78
431.22	293.04
431.59	295.41
431.96	297.64
432.33	300.12
432.70	302.48
433.08	305.28
433.45	307.90
433.82	310.51
434.19	313.39
434.56	316.21
434.93	318.83
435.30	321.46
435.68	324.35
436.05	327.17
436.42	329.93
436.79	332.41
437.16	335.07
437.53	337.91
437.90	340.74
438.27	343.45
438.64	346.30
439.01	348.80
439.38	351.03
439.75	353.18
440.13	355.64
440.50	357.95
440.87	359.76
441.24	361.68
441.61	363.81
441.98	365.28
442.35	367.00
442.72	368.84
443.09	370.64
443.46	371.61
443.83	372.19
444.20	372.75
444.57	373.61
444.94	373.93
445.31	374.25
445.68	374.65
446.05	374.77
446.42	374.39
446.79	374.05
447.16	373.62
447.53	373.26
447.90	372.13
448.27	371.00
448.64	369.46
449.01	368.37
449.37	366.41
449.74	364.54
450.11	362.43
450.48	360.02
450.85	357.50
451.22	355.40
451.59	353.41
451.96	351.45
452.33	348.84
452.70	346.48
453.07	343.69
453.43	340.77
453.80	337.99
454.17	335.34
454.54	332.81
454.91	330.11
455.28	327.49
455.65	325.02
456.02	322.56
456.38	320.44
456.75	317.78
457.12	315.57
457.49	313.38
457.86	311.16
458.23	309.33
458.59	307.30
458.96	305.18
459.33	303.28
459.70	301.39
460.07	299.90
460.43	298.21
460.80	296.61
461.17	295.17
461.54	293.68
461.91	292.24
462.27	290.77
462.64	289.51
463.01	288.15
463.38	286.87
463.74	285.56
464.11	284.36
464.48	283.34
464.85	282.24
465.21	281.39
465.58	280.47
465.95	279.36
466.32	278.49
466.68	277.62
467.05	276.76
467.42	275.97
467.78	275.05
468.15	274.16
468.52	273.51
468.88	272.66
469.25	271.92
469.62	271.32
469.98	270.66
470.35	270.05
470.72	269.47
471.08	268.85
471.45	268.30
471.82	267.79
472.18	267.19
472.55	266.72
472.92	266.19
473.28	265.71
473.65	265.26
474.02	264.81
474.38	264.44
474.75	264.14
475.11	263.74
475.48	263.50
475.85	263.28
476.21	263.00
476.58	262.83
476.94	262.68
477.31	262.49
477.67	262.33
478.04	262.19
478.41	262.14
478.77	262.17
479.14	262.10
479.50	262.09
479.87	262.21
480.23	262.34
480.60	262.42
480.96	262.50
481.33	262.71
481.69	262.90
482.06	263.10
482.42	263.28
482.79	263.55
483.15	263.85
483.52	264.23
483.88	264.61
484.25	264.99
484.61	265.41
484.98	265.89
485.34	266.47
485.71	267.11
486.07	267.71
486.44	268.29
486.80	268.98
487.17	269.73
487.53	270.53
487.90	271.37
488.26	272.29
488.62	273.32
488.99	274.31
489.35	275.35
489.72	276.48
490.08	277.71
490.44	278.92
490.81	280.24
491.17	281.59
491.54	283.10
491.90	284.64
492.26	286.33
492.63	288.04
492.99	289.84
493.36	291.74
493.72	293.75
494.08	295.83
494.45	298.08
494.81	300.45
495.17	302.91
495.54	305.49
495.90	308.23
496.26	311.03
496.63	314.00
496.99	317.10
497.35	320.38
497.72	323.83
498.08	327.39
498.44	331.09
498.80	335.01
499.17	339.02
499.53	343.24
499.89	347.66
500.26	352.18
500.62	356.86
500.98	361.85
501.34	366.98
501.71	372.34
502.07	377.86
502.43	383.50
502.79	389.29
503.16	395.35
503.52	401.58
503.88	408.00
504.24	414.65
504.60	421.59
504.97	428.73
505.33	436.00
505.69	443.71
506.05	451.52
506.41	459.41
506.78	467.59
507.14	476.03
507.50	484.72
507.86	493.75
508.22	502.89
508.59	512.06
508.95	521.65
509.31	531.44
509.67	541.43
510.03	551.72
510.39	562.30
510.75	573.11
511.12	584.04
511.48	595.42
511.84	606.92
512.20	618.40
512.56	630.35
512.92	642.59
513.28	654.84
513.64	667.30
514.00	680.09
514.37	692.98
514.73	706.02
515.09	719.00
515.45	732.29
515.81	745.97
516.17	759.94
516.53	774.07
516.89	788.31
517.25	802.48
517.61	816.90
517.97	831.32
518.33	845.71
518.69	860.44
519.05	875.25
519.41	890.37
519.77	905.89
520.13	921.27
520.49	936.53
520.85	951.95
521.21	967.55
521.57	983.65
521.93	999.35
522.29	1015.68
522.65	1031.81
523.01	1047.97
523.37	1063.85
523.73	1079.95
524.09	1095.92
524.45	1112.06
524.81	1128.58
525.17	1145.36
525.53	1162.20
525.89	1178.91
526.25	1195.72
526.61	1212.08
526.97	1228.79
527.33	1245.19
527.68	1261.68
528.04	1278.14
528.40	1294.64
528.76	1311.56
529.12	1328.16
529.48	1344.96
529.84	1360.95
530.20	1377.59
530.56	1394.59
530.91	1412.00
531.27	1428.61
531.63	1445.12
531.99	1461.56
532.35	1477.56
532.71	1493.23
533.07	1509.40
533.42	1525.35
533.78	1541.20
534.14	1557.43
534.50	1572.66
534.86	1588.42
535.21	1603.70
535.57	1619.49
535.93	1634.98
536.29	1649.84
536.65	1664.64
537.00	1679.31
537.36	1694.52
537.72	1708.90
538.08	1723.16
538.44	1736.87
538.79	1750.80
539.15	1764.19
539.51	1777.88
539.87	1791.99
540.22	1805.70
540.58	1819.37
540.94	1832.58
541.29	1845.43
541.65	1858.07
542.01	1871.12
542.37	1883.38
542.72	1895.64
543.08	1907.42
543.44	1919.61
543.79	1930.71
544.15	1941.72
544.51	1953.19
544.87	1964.05
545.22	1974.84
545.58	1984.97
545.94	1994.67
546.29	2004.43
546.65	2014.46
547.01	2023.71
547.36	2032.52
547.72	2040.92
548.07	2048.66
548.43	2056.77
548.79	2064.83
549.14	2072.25
549.50	2079.58
549.86	2087.19
550.21	2094.44
550.57	2101.50
550.92	2108.14
551.28	2115.14
551.64	2122.20
551.99	2128.76
552.35	2134.94
552.70	2141.01
553.06	2147.08
553.41	2153.35
553.77	2159.27
554.13	2165.09
554.48	2171.23
554.84	2176.71
555.19	2181.99
555.55	2187.14
555.90	2191.55
556.26	2196.26
556.61	2200.96
556.97	2205.25
557.32	2209.42
557.68	2213.53
558.03	2217.93
558.39	2221.56
558.74	2226.21
559.10	2230.04
559.45	2233.77
559.81	2237.98
560.16	2241.88
560.52	2244.93
560.87	2248.29
561.23	2251.14
561.58	2254.20
561.94	2256.81
562.29	2258.97
562.64	2261.62
563.00	2264.20
563.35	2267.77
563.71	2271.07
564.06	2274.37
564.42	2277.24
564.77	2279.78
565.12	2282.08
565.48	2283.97
565.83	2285.95
566.19	2287.19
566.54	2288.14
566.89	2289.34
567.25	2289.96
567.60	2291.28
567.96	2293.08
568.31	2294.05
568.66	2295.10
569.02	2295.72
569.37	2295.95
569.72	2297.03
570.08	2297.25
570.43	2297.24
570.78	2296.78
571.14	2295.23
571.49	2293.91
571.84	2293.61
572.20	2292.57
572.55	2291.53
572.90	2289.87
573.26	2288.55
573.61	2286.99
573.96	2285.28
574.31	2282.31
574.67	2279.45
575.02	2275.85
575.37	2272.50
575.72	2268.84
576.08	2265.50
576.43	2262.26
576.78	2258.72
577.13	2255.60
577.49	2252.66
577.84	2249.35
578.19	2245.64
578.54	2242.21
578.90	2237.97
579.25	2232.53
579.60	2227.61
579.95	2222.81
580.30	2218.02
580.66	2212.89
581.01	2208.07
581.36	2203.32
581.71	2199.20
582.06	2194.79
582.42	2190.49
582.77	2185.49
583.12	2180.83
583.47	2176.25
583.82	2171.26
584.17	2166.08
584.53	2160.61
584.88	2154.92
585.23	2149.39
585.58	2143.95
585.93	2138.44
586.28	2133.79
586.63	2128.77
586.98	2123.74
587.34	2118.96
587.69	2114.04
588.04	2108.71
588.39	2103.01
588.74	2096.47
589.09	2090.48
589.44	2083.71
589.79	2077.68
590.14	2071.98
590.49	2065.60
590.84	2059.23
591.19	2053.33
591.54	2046.90
591.89	2039.63
592.25	2032.94
592.60	2025.57
592.95	2017.94
593.30	2010.66
593.65	2003.15
594.00	1996.11
594.35	1988.94
594.70	1980.98
595.05	1973.86
595.40	1966.71
595.75	1959.22
596.10	1953.00
596.45	1946.25
596.80	1940.12
597.15	1933.55
597.50	1926.33
597.85	1919.85
598.19	1913.24
598.54	1906.06
598.89	1899.45
599.24	1893.59
599.59	1887.03
599.94	1880.97
600.29	1874.70
600.64	1868.06
600.99	1860.55
601.34	1853.86
601.69	1846.96
602.04	1839.98
602.39	1832.55
602.74	1825.81
603.08	1819.14
603.43	1812.43
603.78	1805.01
604.13	1797.70
604.48	1790.42
604.83	1783.70
605.18	1776.78
605.53	1768.87
605.87	1760.87
606.22	1753.80
606.57	1745.75
606.92	1738.40
607.27	1731.18
607.62	1724.43
607.96	1717.29
608.31	1710.81
608.66	1703.22
609.01	1695.58
609.36	1688.03
609.70	1680.05
610.05	1671.98
610.40	1664.37
610.75	1656.12
611.10	1648.46
611.44	1640.08
611.79	1632.00
612.14	1623.32
612.49	1614.18
612.83	1605.75
613.18	1597.65
613.53	1589.46
613.88	1580.96
614.22	1572.59
614.57	1564.03
614.92	1555.96
615.27	1548.41
615.61	1539.99
615.96	1531.85
616.31	1524.30
616.65	1516.98
617.00	1509.53
617.35	1501.86
617.70	1493.44
618.04	1484.96
618.39	1476.86
618.74	1469.35
619.08	1461.19
619.43	1453.64
619.78	1446.72
620.12	1439.46
620.47	1431.95
620.82	1423.82
621.16	1416.47
621.51	1408.88
621.85	1401.23
622.20	1392.61
622.55	1384.24
622.89	1376.44
623.24	1368.76
623.59	1361.37
623.93	1353.82
624.28	1346.60
624.62	1339.12
624.97	1331.97
625.32	1325.20
625.66	1318.26
626.01	1311.11
626.35	1303.57
626.70	1295.83
627.04	1288.18
627.39	1280.53
627.73	1273.12
628.08	1266.13
628.43	1258.72
628.77	1251.40
629.12	1243.74
629.46	1236.68
629.81	1229.18
630.15	1221.94
630.50	1214.58
630.84	1206.34
631.19	1198.51
631.53	1190.95
631.88	1183.40
632.22	1175.80
632.57	1168.40
632.91	1160.76
633.26	1153.35
633.60	1145.98
633.95	1138.85
634.29	1131.70
634.64	1124.94
634.98	1117.65
635.32	1110.53
635.67	1103.94
636.01	1097.26
636.36	1090.54
636.70	1083.90
637.05	1077.30
637.39	1070.82
637.73	1064.29
638.08	1058.42
638.42	1052.37
638.77	1045.91
639.11	1039.28
639.45	1032.95
639.80	1026.31
640.14	1019.88
640.49	1013.33
640.83	1007.02
641.17	1000.73
641.52	994.36
641.86	987.94
642.20	982.08
642.55	975.70
642.89	969.26
643.23	962.70
643.58	956.90
643.92	950.73
644.26	944.81
644.61	938.76
644.95	932.73
645.29	926.05
645.64	919.31
645.98	912.97
646.32	907.09
646.66	900.96
647.01	895.18
647.35	889.49
647.69	883.61
648.04	878.08
648.38	872.26
648.72	866.22
649.06	860.04
649.41	854.09
649.75	848.13
650.09	842.17
650.43	836.41
650.78	830.24
651.12	824.27
651.46	818.46
651.80	812.70
652.14	807.31
652.49	801.93
652.83	796.79
653.17	791.06
653.51	785.31
653.85	779.95
654.20	774.36
654.54	768.27
654.88	762.52
655.22	756.62
655.56	750.99
655.90	745.60
656.25	740.49
656.59	735.19
656.93	730.08
657.27	724.88
657.61	719.47
657.95	714.40
658.29	709.32
658.64	704.09
658.98	698.82
659.32	693.41
659.66	688.27
660.00	682.91
660.34	677.96
660.68	673.03
661.02	668.00
661.36	663.25
661.70	658.80
662.05	654.52
662.39	650.28
662.73	645.75
663.07	641.42
663.41	636.89
663.75	632.28
664.09	627.71
664.43	623.40
664.77	619.23
665.11	614.98
665.45	610.93
665.79	606.82
666.13	602.66
666.47	598.54
666.81	594.34
667.15	590.20
667.49	586.33
667.83	582.50
668.17	578.52
668.51	574.47
668.85	570.45
669.19	566.55
669.53	562.70
669.87	558.87
670.21	555.10
670.55	551.43
670.89	548.03
671.23	544.58
671.57	540.97
671.91	537.46
672.25	533.94
672.58	530.35
672.92	526.91
673.26	523.72
673.60	520.58
673.94	517.51
674.28	514.64
674.62	511.67
674.96	508.57
675.30	505.63
675.64	502.64
675.97	499.82
676.31	496.97
676.65	494.02
676.99	491.34
677.33	488.48
677.67	485.70
678.01	482.62
678.34	479.64
678.68	476.83
679.02	474.02
679.36	471.24
679.70	468.52
680.04	465.78
680.37	462.90
680.71	460.06
681.05	457.40
681.39	454.67
681.73	452.03
682.06	449.48
682.40	446.95
682.74	444.49
683.08	441.94
683.42	439.29
683.75	436.74
684.09	434.11
684.43	431.64
684.77	429.17
685.10	426.88
685.44	424.58
685.78	422.27
686.12	419.97
686.45	417.71
686.79	415.37
687.13	413.14
687.46	410.99
687.80	408.85
688.14	406.61
688.48	404.53
688.81	402.29
689.15	400.16
689.49	397.99
689.82	395.88
690.16	393.79
690.50	391.84
690.83	389.91
691.17	387.97
691.51	386.01
691.84	384.16
692.18	382.20
692.52	380.22
692.85	378.30
693.19	376.50
693.52	374.64
693.86	372.82
694.20	371.05
694.53	369.23
694.87	367.40
695.21	365.62
695.54	363.82
695.88	362.06
696.21	360.32
696.55	358.64
696.88	356.98
697.22	355.37
697.56	353.75
697.89	352.05
698.23	350.46
698.56	348.89
698.90	347.30
699.23	345.69
699.57	344.18
699.90	342.61
700.24	341.07
700.58	339.55
700.91	338.11
701.25	336.68
701.58	335.34
701.92	333.97
702.25	332.59
702.59	331.23
702.92	329.93
703.26	328.68
703.59	327.42
703.93	326.19
704.26	324.93
704.60	323.66
704.93	322.42
705.26	321.18
705.60	320.02
705.93	318.87
706.27	317.84
706.60	316.78
706.94	315.72
707.27	314.56
707.61	313.51
707.94	312.49
708.27	311.39
708.61	310.28
708.94	309.31
709.28	308.34
709.61	307.36
709.94	306.42
710.28	305.38
710.61	304.40
710.95	303.36
711.28	302.42
711.61	301.45
711.95	300.54
712.28	299.58
712.61	298.64
712.95	297.64
713.28	296.74
713.61	295.84
713.95	294.94
714.28	294.09
714.61	293.23
714.95	292.36
715.28	291.51
715.61	290.63
715.95	289.76
716.28	288.89
716.61	288.05
716.95	287.23
717.28	286.48
717.61	285.69
717.94	284.92
718.28	284.11
718.61	283.38
718.94	282.67
719.27	282.04
719.61	281.34
719.94	280.70
720.27	279.97
720.60	279.31
720.94	278.66
721.27	278.03
721.60	277.41
721.93	276.79
722.27	276.24
722.60	275.71
722.93	275.08
723.26	274.54
723.59	273.95
723.93	273.41
724.26	272.84
724.59	272.26
724.92	271.74
725.25	271.23
725.59	270.71
725.92	270.16
726.25	269.60
726.58	269.13
726.91	268.65
727.24	268.19
727.57	267.70
727.91	267.22
728.24	266.74
728.57	266.26
728.90	265.80
729.23	265.29
729.56	264.86
729.89	264.39
730.22	263.91
730.55	263.47
730.89	263.01
731.22	262.58
731.55	262.14
731.88	261.71
732.21	261.27
732.54	260.84
732.87	260.45
733.20	260.05
733.53	259.66
733.86	259.25
734.19	258.85
734.52	258.45
734.85	258.13
735.18	257.75
735.51	257.39
735.84	256.99
736.17	256.64
736.50	256.24
736.83	256.00
737.16	255.69
737.49	255.39
737.82	255.02
738.15	254.67
738.48	254.33
738.81	254.02
739.14	253.71
739.47	253.42
739.80	253.14
740.13	252.83
740.46	252.49
740.79	252.18
741.12	251.84
741.45	251.55
741.78	251.20
742.11	250.93
742.44	250.63
742.77	250.36
743.10	250.06
743.43	249.77
743.75	249.40
744.08	249.23
744.41	248.88
744.74	248.63
745.07	248.36
745.40	248.17
745.73	247.95
746.06	247.64
746.39	247.37
746.71	247.07
747.04	246.79
747.37	246.56
747.70	246.35
748.03	246.15
748.36	245.94
748.68	245.70
749.01	245.42
749.34	245.22
749.67	244.96
750.00	244.74
750.33	244.60
750.65	244.40
750.98	244.04
751.31	243.87
751.64	243.65
751.97	243.50
752.29	243.30
752.62	243.02
752.95	242.83
753.28	242.61
753.60	242.39
753.93	242.19
754.26	241.98
754.59	241.73
754.91	241.50
755.24	241.29
755.57	241.13
755.90	240.95
756.22	240.70
756.55	240.54
756.88	240.35
757.20	240.09
757.53	239.89
757.86	239.76
758.19	239.58
758.51	239.41
758.84	239.18
759.17	238.97
759.49	238.83
759.82	238.72
760.15	238.58
760.47	238.44
760.80	238.28
761.13	238.17
761.45	238.01
761.78	237.86
762.11	237.69
762.43	237.51
762.76	237.35
763.08	237.26
763.41	237.16
763.74	237.03
764.06	236.88
764.39	236.74
764.71	236.60
765.04	236.46
765.37	236.34
765.69	236.24
766.02	236.12
766.34	236.00
766.67	235.84
767.00	235.72
767.32	235.66
767.65	235.61
767.97	235.46
768.30	235.33
768.62	235.23
768.95	235.14
769.27	235.04
769.60	234.96
769.92	234.84
770.25	234.69
770.57	234.57
770.90	234.46
771.22	234.35
771.55	234.25
771.87	234.14
772.20	234.03
772.52	234.00
772.85	234.04
773.17	233.97
773.50	233.88
773.82	233.77
774.15	233.64
774.47	233.50
774.80	233.41
775.12	233.32
775.45	233.24
775.77	233.16
776.09	233.06
776.42	232.98
776.74	232.91
777.07	232.84
777.39	232.75
777.72	232.69
778.04	232.65
778.36	232.59
778.69	232.54
779.01	232.49
779.33	232.31
779.66	232.13
779.98	232.03
780.31	231.96
780.63	231.94
780.95	231.87
781.28	231.80
781.60	231.73
781.92	231.72
782.25	231.66
782.57	231.58
782.89	231.55
783.22	231.49
783.54	231.42
783.86	231.35
784.19	231.29
784.51	231.24
784.83	231.17
785.16	231.10
785.48	231.04
785.80	230.98
786.12	230.98
786.45	230.92
786.77	230.86
787.09	230.81
