SpectraSuite Data File
++++++++++++++++++++++++++++++++++++
Date: Fri Feb 01 15:29:45 EST 2013
User: group
Dark Spectrum Present: No
Reference Spectrum Present: No
Number of Sampled Component Spectra: 1
Spectrometers: USB2E7196
Integration Time (usec): 35000 (USB2E7196)
Spectra Averaged: 100 (USB2E7196)
Boxcar Smoothing: 10 (USB2E7196)
Correct for Electrical Dark: No (USB2E7196)
Strobe/Lamp Enabled: No (USB2E7196)
Correct for Detector Non-linearity: No (USB2E7196)
Correct for Stray Light: No (USB2E7196)
Number of Pixels in Processed Spectrum: 2048
>>>>>Begin Processed Spectral Data<<<<<
339.09	0.00
339.48	214.80
339.86	216.63
340.24	217.61
340.63	219.13
341.01	222.27
341.39	221.31
341.78	223.27
342.16	224.38
342.54	224.73
342.93	213.38
343.31	224.14
343.69	224.70
344.07	225.18
344.46	225.59
344.84	225.98
345.22	226.22
345.60	226.50
345.99	226.70
346.37	226.84
346.75	226.93
347.13	226.98
347.52	227.01
347.90	227.10
348.28	227.11
348.66	227.15
349.05	227.17
349.43	227.19
349.81	227.24
350.19	227.28
350.57	227.33
350.96	227.39
351.34	227.50
351.72	227.55
352.10	227.63
352.48	227.72
352.87	227.75
353.25	227.80
353.63	227.88
354.01	227.94
354.39	228.00
354.77	228.11
355.15	228.25
355.54	228.33
355.92	228.36
356.30	228.44
356.68	228.58
357.06	228.63
357.44	228.67
357.82	228.73
358.20	228.79
358.58	228.86
358.97	228.91
359.35	229.03
359.73	229.15
360.11	229.19
360.49	229.24
360.87	229.33
361.25	229.40
361.63	229.47
362.01	229.51
362.39	229.57
362.77	229.58
363.15	229.58
363.53	229.61
363.91	229.61
364.29	229.60
364.67	229.51
365.05	229.51
365.43	229.57
365.81	229.60
366.19	229.64
366.57	229.64
366.95	229.63
367.33	229.53
367.71	229.52
368.09	229.52
368.47	229.51
368.85	229.47
369.23	229.44
369.61	229.34
369.99	229.34
370.37	229.30
370.75	229.31
371.13	229.25
371.51	229.19
371.89	229.16
372.27	229.13
372.65	229.08
373.03	229.02
373.41	228.94
373.78	228.86
374.16	228.77
374.54	228.69
374.92	228.64
375.30	228.58
375.68	228.50
376.06	228.43
376.44	228.38
376.82	228.31
377.19	228.27
377.57	228.25
377.95	228.13
378.33	228.05
378.71	227.93
379.09	227.88
379.47	227.81
379.84	227.75
380.22	227.65
380.60	227.60
380.98	227.54
381.36	227.45
381.73	227.38
382.11	227.30
382.49	227.25
382.87	227.19
383.25	227.14
383.62	227.15
384.00	227.07
384.38	227.02
384.76	226.96
385.13	226.93
385.51	226.88
385.89	226.85
386.27	226.81
386.64	226.78
387.02	226.71
387.40	226.65
387.78	226.59
388.15	226.59
388.53	226.56
388.91	226.49
389.29	226.48
389.66	226.45
390.04	226.42
390.42	226.41
390.79	226.36
391.17	226.34
391.55	226.26
391.92	226.26
392.30	226.22
392.68	226.26
393.05	226.26
393.43	226.24
393.81	226.27
394.18	226.27
394.56	226.31
394.94	226.37
395.31	226.39
395.69	226.46
396.06	226.49
396.44	226.53
396.82	226.59
397.19	226.66
397.57	226.73
397.95	226.81
398.32	226.86
398.70	226.93
399.07	227.04
399.45	227.08
399.82	227.13
400.20	227.20
400.58	227.22
400.95	227.24
401.33	227.34
401.70	227.47
402.08	227.55
402.45	227.62
402.83	227.75
403.20	227.87
403.58	227.98
403.95	228.10
404.33	228.25
404.71	228.40
405.08	228.59
405.46	228.73
405.83	228.89
406.21	229.02
406.58	229.21
406.96	229.35
407.33	229.55
407.70	229.74
408.08	230.04
408.45	230.29
408.83	230.54
409.20	230.74
409.58	230.90
409.95	231.18
410.33	231.45
410.70	231.68
411.08	232.01
411.45	232.33
411.82	232.66
412.20	233.00
412.57	233.39
412.95	233.72
413.32	234.15
413.69	234.55
414.07	235.04
414.44	235.50
414.82	236.00
415.19	236.54
415.56	237.12
415.94	237.67
416.31	238.33
416.68	238.96
417.06	239.72
417.43	240.43
417.81	241.20
418.18	241.99
418.55	242.83
418.93	243.68
419.30	244.55
419.67	245.49
420.04	246.40
420.42	247.41
420.79	248.56
421.16	249.68
421.54	250.85
421.91	252.05
422.28	253.31
422.66	254.62
423.03	255.93
423.40	257.27
423.77	258.64
424.15	260.06
424.52	261.55
424.89	263.12
425.26	264.67
425.64	266.12
426.01	267.70
426.38	269.35
426.75	271.02
427.13	272.77
427.50	274.60
427.87	276.50
428.24	278.37
428.61	280.08
428.99	282.00
429.36	284.09
429.73	286.16
430.10	288.18
430.47	290.23
430.85	292.37
431.22	294.62
431.59	297.04
431.96	299.27
432.33	301.79
432.70	304.22
433.08	307.04
433.45	309.71
433.82	312.31
434.19	315.26
434.56	318.10
434.93	320.74
435.30	323.33
435.68	326.23
436.05	329.06
436.42	331.86
436.79	334.41
437.16	337.15
437.53	339.99
437.90	342.79
438.27	345.58
438.64	348.41
439.01	351.01
439.38	353.27
439.75	355.48
440.13	357.96
440.50	360.23
440.87	362.04
441.24	363.95
441.61	366.15
441.98	367.60
442.35	369.37
442.72	371.21
443.09	373.03
443.46	374.02
443.83	374.63
444.20	375.17
444.57	375.97
444.94	376.26
445.31	376.59
445.68	376.98
446.05	377.00
446.42	376.56
446.79	376.12
447.16	375.68
447.53	375.32
447.90	374.11
448.27	372.97
448.64	371.42
449.01	370.30
449.37	368.31
449.74	366.43
450.11	364.21
450.48	361.76
450.85	359.21
451.22	357.07
451.59	355.03
451.96	353.08
452.33	350.50
452.70	348.14
453.07	345.28
453.43	342.36
453.80	339.59
454.17	336.91
454.54	334.33
454.91	331.56
455.28	328.88
455.65	326.40
456.02	323.95
456.38	321.74
456.75	319.06
457.12	316.81
457.49	314.60
457.86	312.40
458.23	310.54
458.59	308.54
458.96	306.46
459.33	304.59
459.70	302.71
460.07	301.21
460.43	299.45
460.80	297.86
461.17	296.43
461.54	294.93
461.91	293.54
462.27	292.14
462.64	290.87
463.01	289.49
463.38	288.19
463.74	286.80
464.11	285.67
464.48	284.67
464.85	283.52
465.21	282.61
465.58	281.69
465.95	280.57
466.32	279.63
466.68	278.72
467.05	277.80
467.42	276.90
467.78	275.96
468.15	275.09
468.52	274.42
468.88	273.53
469.25	272.80
469.62	272.16
469.98	271.47
470.35	270.84
470.72	270.27
471.08	269.59
471.45	269.05
471.82	268.49
472.18	267.87
472.55	267.43
472.92	266.92
473.28	266.45
473.65	265.97
474.02	265.50
474.38	265.10
474.75	264.76
475.11	264.40
475.48	264.12
475.85	263.89
476.21	263.64
476.58	263.44
476.94	263.29
477.31	263.10
477.67	262.94
478.04	262.82
478.41	262.79
478.77	262.85
479.14	262.78
479.50	262.81
479.87	262.89
480.23	262.97
480.60	263.06
480.96	263.16
481.33	263.34
481.69	263.54
482.06	263.75
482.42	263.98
482.79	264.27
483.15	264.60
483.52	265.00
483.88	265.34
484.25	265.77
484.61	266.20
484.98	266.66
485.34	267.24
485.71	267.82
486.07	268.38
486.44	268.93
486.80	269.64
487.17	270.37
487.53	271.18
487.90	272.05
488.26	272.95
488.62	273.92
488.99	274.98
489.35	276.04
489.72	277.15
490.08	278.35
490.44	279.59
490.81	280.90
491.17	282.21
491.54	283.70
491.90	285.25
492.26	286.88
492.63	288.62
492.99	290.42
493.36	292.28
493.72	294.36
494.08	296.48
494.45	298.75
494.81	301.12
495.17	303.54
495.54	306.09
495.90	308.78
496.26	311.59
496.63	314.54
496.99	317.66
497.35	320.94
497.72	324.35
498.08	327.85
498.44	331.53
498.80	335.46
499.17	339.45
499.53	343.60
499.89	347.96
500.26	352.44
500.62	357.08
500.98	362.11
501.34	367.20
501.71	372.57
502.07	378.06
502.43	383.65
502.79	389.49
503.16	395.57
503.52	401.84
503.88	408.24
504.24	414.87
504.60	421.78
504.97	428.89
505.33	436.21
505.69	443.99
506.05	451.81
506.41	459.66
506.78	467.89
507.14	476.37
507.50	485.05
507.86	494.10
508.22	503.32
508.59	512.47
508.95	521.99
509.31	531.74
509.67	541.86
510.03	552.18
510.39	562.78
510.75	573.57
511.12	584.49
511.48	595.80
511.84	607.30
512.20	618.84
512.56	630.82
512.92	643.02
513.28	655.36
513.64	667.83
514.00	680.63
514.37	693.60
514.73	706.62
515.09	719.72
515.45	733.00
515.81	746.63
516.17	760.66
516.53	774.89
516.89	789.13
517.25	803.25
517.61	817.74
517.97	832.25
518.33	846.70
518.69	861.60
519.05	876.64
519.41	891.83
519.77	907.36
520.13	922.83
520.49	938.29
520.85	953.76
521.21	969.55
521.57	985.81
521.93	1001.65
522.29	1018.15
522.65	1034.43
523.01	1050.72
523.37	1066.83
523.73	1083.11
524.09	1099.13
524.45	1115.52
524.81	1132.24
525.17	1149.03
525.53	1166.02
525.89	1183.03
526.25	1199.80
526.61	1216.32
526.97	1233.19
527.33	1249.72
527.68	1266.46
528.04	1282.94
528.40	1299.58
528.76	1316.68
529.12	1333.40
529.48	1350.22
529.84	1366.20
530.20	1382.91
530.56	1399.98
530.91	1417.33
531.27	1434.16
531.63	1450.80
531.99	1467.53
532.35	1483.57
532.71	1499.49
533.07	1515.79
533.42	1531.69
533.78	1547.90
534.14	1564.17
534.50	1579.46
534.86	1595.35
535.21	1610.53
535.57	1626.59
535.93	1642.18
536.29	1657.04
536.65	1672.12
537.00	1687.07
537.36	1702.70
537.72	1717.35
538.08	1731.79
538.44	1745.70
538.79	1759.59
539.15	1773.37
539.51	1787.08
539.87	1801.55
540.22	1815.36
540.58	1829.14
540.94	1842.66
541.29	1855.59
541.65	1868.36
542.01	1881.66
542.37	1894.11
542.72	1906.54
543.08	1918.38
543.44	1930.77
543.79	1942.00
544.15	1953.00
544.51	1964.51
544.87	1975.30
545.22	1986.12
545.58	1996.38
545.94	2006.22
546.29	2016.13
546.65	2025.89
547.01	2035.01
547.36	2043.63
547.72	2052.19
548.07	2060.16
548.43	2068.16
548.79	2076.20
549.14	2083.70
549.50	2091.17
549.86	2098.96
550.21	2106.43
550.57	2113.58
550.92	2120.19
551.28	2127.31
551.64	2134.38
551.99	2141.02
552.35	2147.29
552.70	2153.38
553.06	2159.36
553.41	2165.68
553.77	2171.74
554.13	2177.82
554.48	2184.06
554.84	2189.56
555.19	2194.91
555.55	2199.87
555.90	2204.46
556.26	2209.34
556.61	2214.19
556.97	2218.28
557.32	2222.32
557.68	2226.42
558.03	2230.66
558.39	2234.40
558.74	2239.04
559.10	2242.94
559.45	2246.54
559.81	2250.84
560.16	2254.67
560.52	2257.91
560.87	2261.44
561.23	2264.01
561.58	2267.07
561.94	2269.70
562.29	2272.12
562.64	2274.81
563.00	2277.63
563.35	2281.17
563.71	2284.28
564.06	2287.45
564.42	2290.35
564.77	2292.87
565.12	2295.17
565.48	2296.95
565.83	2298.67
566.19	2299.95
566.54	2300.87
566.89	2301.98
567.25	2302.55
567.60	2303.89
567.96	2305.54
568.31	2306.24
568.66	2307.24
569.02	2307.72
569.37	2307.98
569.72	2308.71
570.08	2308.72
570.43	2308.46
570.78	2307.82
571.14	2306.23
571.49	2304.80
571.84	2304.54
572.20	2303.15
572.55	2302.01
572.90	2300.58
573.26	2299.19
573.61	2297.44
573.96	2295.66
574.31	2292.52
574.67	2289.19
575.02	2285.63
575.37	2282.29
575.72	2278.43
576.08	2275.21
576.43	2271.95
576.78	2268.07
577.13	2264.96
577.49	2261.88
577.84	2258.44
578.19	2254.56
578.54	2250.78
578.90	2246.44
579.25	2240.72
579.60	2235.86
579.95	2230.76
580.30	2225.65
580.66	2220.43
581.01	2215.34
581.36	2210.23
581.71	2206.21
582.06	2201.90
582.42	2197.17
582.77	2191.71
583.12	2187.05
583.47	2182.16
583.82	2177.00
584.17	2171.76
584.53	2166.03
584.88	2160.28
585.23	2154.37
585.58	2148.81
585.93	2143.39
586.28	2138.66
586.63	2133.61
586.98	2128.48
587.34	2123.57
587.69	2118.70
588.04	2113.37
588.39	2107.64
588.74	2101.03
589.09	2094.72
589.44	2087.74
589.79	2081.71
590.14	2076.15
590.49	2069.46
590.84	2063.08
591.19	2056.99
591.54	2050.46
591.89	2043.14
592.25	2036.22
592.60	2029.01
592.95	2021.36
593.30	2013.97
593.65	2006.15
594.00	1999.12
594.35	1991.82
594.70	1983.87
595.05	1976.57
595.40	1969.33
595.75	1961.73
596.10	1955.52
596.45	1948.67
596.80	1942.52
597.15	1935.79
597.50	1928.53
597.85	1922.15
598.19	1915.40
598.54	1908.28
598.89	1901.66
599.24	1895.75
599.59	1889.01
599.94	1882.82
600.29	1876.46
600.64	1869.86
600.99	1862.42
601.34	1855.26
601.69	1848.16
602.04	1841.09
602.39	1833.68
602.74	1826.75
603.08	1820.05
603.43	1813.30
603.78	1805.98
604.13	1798.75
604.48	1791.43
604.83	1784.57
605.18	1777.42
605.53	1769.34
605.87	1761.31
606.22	1754.03
606.57	1746.00
606.92	1738.73
607.27	1731.45
607.62	1724.49
607.96	1717.08
608.31	1710.45
608.66	1702.89
609.01	1695.33
609.36	1687.81
609.70	1679.72
610.05	1671.59
610.40	1663.83
610.75	1655.49
611.10	1647.83
611.44	1639.32
611.79	1631.34
612.14	1622.65
612.49	1613.58
612.83	1605.10
613.18	1596.94
613.53	1588.76
613.88	1580.21
614.22	1571.88
614.57	1563.19
614.92	1555.20
615.27	1547.73
615.61	1539.32
615.96	1531.38
616.31	1523.82
616.65	1516.48
617.00	1508.89
617.35	1501.27
617.70	1492.95
618.04	1484.38
618.39	1476.23
618.74	1468.80
619.08	1460.48
619.43	1452.96
619.78	1446.11
620.12	1439.08
620.47	1431.52
620.82	1423.35
621.16	1416.00
621.51	1408.35
621.85	1400.79
622.20	1392.22
622.55	1383.76
622.89	1376.00
623.24	1368.39
623.59	1360.98
623.93	1353.42
624.28	1346.23
624.62	1338.58
624.97	1331.39
625.32	1324.77
625.66	1317.59
626.01	1310.28
626.35	1302.87
626.70	1295.06
627.04	1287.18
627.39	1279.37
627.73	1271.96
628.08	1264.99
628.43	1257.60
628.77	1250.27
629.12	1242.63
629.46	1235.43
629.81	1228.09
630.15	1220.80
630.50	1213.36
630.84	1205.12
631.19	1197.24
631.53	1189.78
631.88	1182.37
632.22	1174.78
632.57	1167.44
632.91	1160.00
633.26	1152.65
633.60	1145.22
633.95	1138.15
634.29	1131.20
634.64	1124.49
634.98	1117.12
635.32	1110.01
635.67	1103.47
636.01	1096.80
636.36	1090.09
636.70	1083.63
637.05	1076.99
637.39	1070.50
637.73	1063.99
638.08	1058.16
638.42	1052.07
638.77	1045.57
639.11	1038.89
639.45	1032.51
639.80	1025.70
640.14	1019.22
640.49	1012.65
640.83	1006.36
641.17	1000.08
641.52	993.78
641.86	987.42
642.20	981.58
642.55	975.30
642.89	968.69
643.23	962.17
643.58	956.41
643.92	950.16
644.26	944.12
644.61	938.08
644.95	931.98
645.29	925.31
645.64	918.61
645.98	912.28
646.32	906.45
646.66	900.37
647.01	894.69
647.35	889.00
647.69	883.15
648.04	877.61
648.38	871.87
648.72	865.81
649.06	859.73
649.41	853.85
649.75	847.86
650.09	842.05
650.43	836.30
650.78	830.06
651.12	824.12
651.46	818.33
651.80	812.62
652.14	807.30
652.49	802.05
652.83	796.91
653.17	791.15
653.51	785.47
653.85	780.12
654.20	774.47
654.54	768.43
654.88	762.70
655.22	756.82
655.56	751.09
655.90	745.64
656.25	740.38
656.59	734.97
656.93	729.93
657.27	724.71
657.61	719.18
657.95	714.18
658.29	709.09
658.64	703.94
658.98	698.67
659.32	693.19
659.66	687.90
660.00	682.52
660.34	677.61
660.68	672.63
661.02	667.65
661.36	662.90
661.70	658.44
662.05	654.09
662.39	649.80
662.73	645.32
663.07	641.02
663.41	636.53
663.75	632.09
664.09	627.53
664.43	623.11
664.77	619.07
665.11	614.76
665.45	610.65
665.79	606.51
666.13	602.39
666.47	598.31
666.81	594.17
667.15	590.09
667.49	586.18
667.83	582.44
668.17	578.48
668.51	574.45
668.85	570.41
669.19	566.60
669.53	562.71
669.87	558.88
670.21	555.11
670.55	551.47
670.89	548.06
671.23	544.62
671.57	541.16
671.91	537.61
672.25	534.19
672.58	530.67
672.92	527.34
673.26	524.19
673.60	521.03
673.94	517.92
674.28	515.02
674.62	512.13
674.96	509.03
675.30	506.08
675.64	503.13
675.97	500.39
676.31	497.49
676.65	494.53
676.99	491.81
677.33	488.96
677.67	486.16
678.01	483.08
678.34	480.09
678.68	477.21
679.02	474.38
679.36	471.58
679.70	468.88
680.04	466.09
680.37	463.25
680.71	460.47
681.05	457.84
681.39	455.10
681.73	452.45
682.06	449.91
682.40	447.41
682.74	444.95
683.08	442.37
683.42	439.81
683.75	437.37
684.09	434.83
684.43	432.39
684.77	429.96
685.10	427.62
685.44	425.32
685.78	423.02
686.12	420.76
686.45	418.45
686.79	416.13
687.13	413.94
687.46	411.74
687.80	409.61
688.14	407.37
688.48	405.34
688.81	403.08
689.15	400.93
689.49	398.78
689.82	396.66
690.16	394.57
690.50	392.57
690.83	390.64
691.17	388.67
691.51	386.80
691.84	384.91
692.18	383.02
692.52	381.04
692.85	379.13
693.19	377.26
693.52	375.41
693.86	373.64
694.20	371.84
694.53	370.04
694.87	368.19
695.21	366.47
695.54	364.61
695.88	362.90
696.21	361.19
696.55	359.44
696.88	357.75
697.22	356.12
697.56	354.55
697.89	352.85
698.23	351.23
698.56	349.55
698.90	348.01
699.23	346.36
699.57	344.78
699.90	343.22
700.24	341.72
700.58	340.21
700.91	338.70
701.25	337.26
701.58	335.91
701.92	334.55
702.25	333.09
702.59	331.78
702.92	330.45
703.26	329.10
703.59	327.85
703.93	326.68
704.26	325.46
704.60	324.11
704.93	322.86
705.26	321.62
705.60	320.49
705.93	319.30
706.27	318.30
706.60	317.31
706.94	316.25
707.27	315.09
707.61	314.08
707.94	313.09
708.27	311.99
708.61	310.89
708.94	309.86
709.28	308.90
709.61	307.94
709.94	306.97
710.28	305.99
710.61	305.05
710.95	303.97
711.28	303.05
711.61	302.13
711.95	301.25
712.28	300.30
712.61	299.33
712.95	298.40
713.28	297.49
713.61	296.55
713.95	295.65
714.28	294.82
714.61	293.93
714.95	293.03
715.28	292.19
715.61	291.29
715.95	290.47
716.28	289.65
716.61	288.80
716.95	288.01
717.28	287.25
717.61	286.48
717.94	285.73
718.28	284.94
718.61	284.19
718.94	283.47
719.27	282.83
719.61	282.18
719.94	281.52
720.27	280.77
720.60	280.10
720.94	279.48
721.27	278.87
721.60	278.28
721.93	277.73
722.27	277.17
722.60	276.63
722.93	276.10
723.26	275.54
723.59	274.98
723.93	274.42
724.26	273.83
724.59	273.25
724.92	272.73
725.25	272.19
725.59	271.68
725.92	271.17
726.25	270.62
726.58	270.13
726.91	269.64
727.24	269.15
727.57	268.68
727.91	268.15
728.24	267.67
728.57	267.16
728.90	266.70
729.23	266.23
729.56	265.82
729.89	265.29
730.22	264.82
730.55	264.36
730.89	263.92
731.22	263.50
731.55	263.06
731.88	262.64
732.21	262.24
732.54	261.81
732.87	261.41
733.20	261.01
733.53	260.65
733.86	260.28
734.19	259.93
734.52	259.57
734.85	259.27
735.18	258.88
735.51	258.56
735.84	258.16
736.17	257.82
736.50	257.44
736.83	257.22
737.16	256.90
737.49	256.57
737.82	256.23
738.15	255.91
738.48	255.60
738.81	255.28
739.14	254.98
739.47	254.66
739.80	254.37
740.13	254.10
740.46	253.73
740.79	253.38
741.12	253.07
741.45	252.77
741.78	252.44
742.11	252.18
742.44	251.79
742.77	251.51
743.10	251.19
743.43	250.88
743.75	250.49
744.08	250.33
744.41	250.07
744.74	249.81
745.07	249.55
745.40	249.30
745.73	249.06
746.06	248.75
746.39	248.48
746.71	248.20
747.04	247.92
747.37	247.69
747.70	247.45
748.03	247.17
748.36	246.94
748.68	246.72
749.01	246.45
749.34	246.28
749.67	246.03
750.00	245.82
750.33	245.68
750.65	245.43
750.98	245.10
751.31	244.89
751.64	244.70
751.97	244.52
752.29	244.31
752.62	244.07
752.95	243.90
753.28	243.70
753.60	243.47
753.93	243.24
754.26	243.03
754.59	242.81
754.91	242.61
755.24	242.39
755.57	242.19
755.90	242.00
756.22	241.82
756.55	241.63
756.88	241.44
757.20	241.18
757.53	241.02
757.86	240.86
758.19	240.68
758.51	240.50
758.84	240.31
759.17	240.14
759.49	239.99
759.82	239.86
760.15	239.72
760.47	239.57
760.80	239.40
761.13	239.25
761.45	239.12
761.78	238.98
762.11	238.85
762.43	238.71
762.76	238.57
763.08	238.43
763.41	238.31
763.74	238.17
764.06	238.03
764.39	237.89
764.71	237.71
765.04	237.54
765.37	237.41
765.69	237.25
766.02	237.11
766.34	236.98
766.67	236.82
767.00	236.72
767.32	236.66
767.65	236.58
767.97	236.49
768.30	236.40
768.62	236.30
768.95	236.15
769.27	236.04
769.60	235.94
769.92	235.86
770.25	235.74
770.57	235.64
770.90	235.56
771.22	235.42
771.55	235.37
771.87	235.30
772.20	235.19
772.52	235.16
772.85	235.20
773.17	235.09
773.50	234.96
773.82	234.84
774.15	234.70
774.47	234.59
774.80	234.49
775.12	234.36
775.45	234.28
775.77	234.22
776.09	234.12
776.42	234.05
776.74	233.97
777.07	233.88
777.39	233.80
777.72	233.72
778.04	233.70
778.36	233.63
778.69	233.56
779.01	233.50
779.33	233.38
779.66	233.18
779.98	233.11
780.31	233.11
780.63	233.10
780.95	233.06
781.28	233.00
781.60	232.94
781.92	232.85
782.25	232.77
782.57	232.73
782.89	232.64
783.22	232.59
783.54	232.51
783.86	232.46
784.19	232.40
784.51	232.39
784.83	232.31
785.16	232.23
785.48	232.18
785.80	232.16
786.12	232.13
786.45	232.08
786.77	232.07
787.09	231.99
