SpectraSuite Data File
++++++++++++++++++++++++++++++++++++
Date: Fri Feb 01 16:15:08 EST 2013
User: group
Dark Spectrum Present: No
Reference Spectrum Present: No
Number of Sampled Component Spectra: 1
Spectrometers: USB2E7196
Integration Time (usec): 35000 (USB2E7196)
Spectra Averaged: 100 (USB2E7196)
Boxcar Smoothing: 10 (USB2E7196)
Correct for Electrical Dark: No (USB2E7196)
Strobe/Lamp Enabled: No (USB2E7196)
Correct for Detector Non-linearity: No (USB2E7196)
Correct for Stray Light: No (USB2E7196)
Number of Pixels in Processed Spectrum: 2048
>>>>>Begin Processed Spectral Data<<<<<
339.09	0.00
339.48	213.75
339.86	215.53
340.24	217.10
340.63	218.36
341.01	221.56
341.39	220.78
341.78	222.30
342.16	223.42
342.54	224.55
342.93	212.43
343.31	223.18
343.69	223.73
344.07	224.19
344.46	224.63
344.84	225.03
345.22	225.25
345.60	225.47
345.99	225.67
346.37	225.79
346.75	225.84
347.13	225.91
347.52	225.96
347.90	226.04
348.28	226.06
348.66	226.11
349.05	226.13
349.43	226.21
349.81	226.27
350.19	226.30
350.57	226.37
350.96	226.41
351.34	226.48
351.72	226.57
352.10	226.64
352.48	226.70
352.87	226.74
353.25	226.80
353.63	226.91
354.01	226.95
354.39	227.03
354.77	227.17
355.15	227.28
355.54	227.33
355.92	227.35
356.30	227.48
356.68	227.62
357.06	227.64
357.44	227.69
357.82	227.74
358.20	227.82
358.58	227.88
358.97	227.98
359.35	228.06
359.73	228.14
360.11	228.20
360.49	228.25
360.87	228.27
361.25	228.33
361.63	228.39
362.01	228.44
362.39	228.50
362.77	228.50
363.15	228.55
363.53	228.62
363.91	228.66
364.29	228.66
364.67	228.59
365.05	228.64
365.43	228.67
365.81	228.69
366.19	228.74
366.57	228.79
366.95	228.77
367.33	228.75
367.71	228.74
368.09	228.76
368.47	228.74
368.85	228.76
369.23	228.74
369.61	228.69
369.99	228.71
370.37	228.66
370.75	228.65
371.13	228.55
371.51	228.46
371.89	228.44
372.27	228.39
372.65	228.33
373.03	228.27
373.41	228.20
373.78	228.17
374.16	228.05
374.54	227.96
374.92	227.86
375.30	227.82
375.68	227.74
376.06	227.69
376.44	227.63
376.82	227.55
377.19	227.48
377.57	227.45
377.95	227.33
378.33	227.25
378.71	227.14
379.09	227.11
379.47	227.07
379.84	226.96
380.22	226.90
380.60	226.85
380.98	226.79
381.36	226.69
381.73	226.60
382.11	226.55
382.49	226.52
382.87	226.46
383.25	226.39
383.62	226.42
384.00	226.32
384.38	226.23
384.76	226.20
385.13	226.18
385.51	226.10
385.89	226.06
386.27	226.02
386.64	226.03
387.02	225.99
387.40	225.93
387.78	225.94
388.15	225.91
388.53	225.88
388.91	225.86
389.29	225.85
389.66	225.82
390.04	225.79
390.42	225.75
390.79	225.73
391.17	225.71
391.55	225.59
391.92	225.59
392.30	225.61
392.68	225.61
393.05	225.59
393.43	225.58
393.81	225.59
394.18	225.59
394.56	225.57
394.94	225.61
395.31	225.63
395.69	225.66
396.06	225.71
396.44	225.72
396.82	225.74
397.19	225.84
397.57	225.86
397.95	225.94
398.32	225.95
398.70	226.01
399.07	226.08
399.45	226.12
399.82	226.18
400.20	226.24
400.58	226.30
400.95	226.37
401.33	226.49
401.70	226.62
402.08	226.71
402.45	226.80
402.83	226.89
403.20	226.98
403.58	227.06
403.95	227.15
404.33	227.28
404.71	227.43
405.08	227.60
405.46	227.75
405.83	227.91
406.21	228.07
406.58	228.21
406.96	228.37
407.33	228.57
407.70	228.76
408.08	229.04
408.45	229.26
408.83	229.48
409.20	229.67
409.58	229.89
409.95	230.16
410.33	230.43
410.70	230.67
411.08	230.98
411.45	231.29
411.82	231.61
412.20	231.96
412.57	232.35
412.95	232.65
413.32	233.02
413.69	233.41
414.07	233.85
414.44	234.33
414.82	234.79
415.19	235.32
415.56	235.88
415.94	236.47
416.31	237.07
416.68	237.69
417.06	238.41
417.43	239.06
417.81	239.83
418.18	240.62
418.55	241.46
418.93	242.30
419.30	243.19
419.67	244.13
420.04	245.10
420.42	246.05
420.79	247.19
421.16	248.35
421.54	249.56
421.91	250.78
422.28	252.03
422.66	253.39
423.03	254.72
423.40	256.04
423.77	257.42
424.15	258.84
424.52	260.34
424.89	261.93
425.26	263.47
425.64	264.95
426.01	266.52
426.38	268.18
426.75	269.89
427.13	271.62
427.50	273.40
427.87	275.27
428.24	277.14
428.61	278.88
428.99	280.82
429.36	282.88
429.73	284.94
430.10	286.96
430.47	288.99
430.85	291.08
431.22	293.30
431.59	295.69
431.96	297.95
432.33	300.41
432.70	302.80
433.08	305.64
433.45	308.27
433.82	310.90
434.19	313.75
434.56	316.54
434.93	319.17
435.30	321.79
435.68	324.66
436.05	327.49
436.42	330.29
436.79	332.83
437.16	335.54
437.53	338.36
437.90	341.17
438.27	343.91
438.64	346.75
439.01	349.32
439.38	351.51
439.75	353.69
440.13	356.17
440.50	358.51
440.87	360.35
441.24	362.27
441.61	364.41
441.98	365.91
442.35	367.73
442.72	369.58
443.09	371.40
443.46	372.38
443.83	372.96
444.20	373.51
444.57	374.34
444.94	374.59
445.31	374.91
445.68	375.23
446.05	375.35
446.42	374.92
446.79	374.52
447.16	374.09
447.53	373.76
447.90	372.63
448.27	371.49
448.64	369.90
449.01	368.76
449.37	366.74
449.74	364.83
450.11	362.58
450.48	360.13
450.85	357.60
451.22	355.47
451.59	353.47
451.96	351.48
452.33	348.86
452.70	346.49
453.07	343.64
453.43	340.76
453.80	337.98
454.17	335.34
454.54	332.82
454.91	330.09
455.28	327.40
455.65	324.90
456.02	322.44
456.38	320.25
456.75	317.60
457.12	315.39
457.49	313.21
457.86	311.05
458.23	309.20
458.59	307.17
458.96	305.09
459.33	303.21
459.70	301.38
460.07	299.89
460.43	298.23
460.80	296.70
461.17	295.30
461.54	293.82
461.91	292.41
462.27	290.95
462.64	289.69
463.01	288.36
463.38	287.03
463.74	285.63
464.11	284.50
464.48	283.46
464.85	282.35
465.21	281.47
465.58	280.53
465.95	279.46
466.32	278.55
466.68	277.66
467.05	276.80
467.42	275.91
467.78	274.98
468.15	274.09
468.52	273.43
468.88	272.56
469.25	271.77
469.62	271.15
469.98	270.51
470.35	269.91
470.72	269.32
471.08	268.71
471.45	268.20
471.82	267.68
472.18	267.08
472.55	266.65
472.92	266.12
473.28	265.68
473.65	265.23
474.02	264.81
474.38	264.46
474.75	264.15
475.11	263.79
475.48	263.58
475.85	263.38
476.21	263.12
476.58	262.96
476.94	262.84
477.31	262.65
477.67	262.49
478.04	262.38
478.41	262.31
478.77	262.38
479.14	262.31
479.50	262.32
479.87	262.43
480.23	262.52
480.60	262.64
480.96	262.73
481.33	262.90
481.69	263.12
482.06	263.31
482.42	263.53
482.79	263.79
483.15	264.07
483.52	264.47
483.88	264.84
484.25	265.21
484.61	265.62
484.98	266.12
485.34	266.67
485.71	267.28
486.07	267.91
486.44	268.47
486.80	269.18
487.17	269.92
487.53	270.71
487.90	271.56
488.26	272.49
488.62	273.50
488.99	274.49
489.35	275.51
489.72	276.64
490.08	277.81
490.44	279.07
490.81	280.42
491.17	281.78
491.54	283.26
491.90	284.81
492.26	286.47
492.63	288.20
492.99	290.01
493.36	291.90
493.72	293.98
494.08	296.06
494.45	298.30
494.81	300.68
495.17	303.14
495.54	305.70
495.90	308.40
496.26	311.19
496.63	314.15
496.99	317.26
497.35	320.54
497.72	323.93
498.08	327.44
498.44	331.09
498.80	334.99
499.17	338.97
499.53	343.16
499.89	347.51
500.26	351.98
500.62	356.63
500.98	361.56
501.34	366.59
501.71	371.93
502.07	377.41
502.43	382.99
502.79	388.82
503.16	394.91
503.52	401.27
503.88	407.69
504.24	414.39
504.60	421.32
504.97	428.44
505.33	435.77
505.69	443.49
506.05	451.30
506.41	459.19
506.78	467.48
507.14	475.97
507.50	484.71
507.86	493.76
508.22	502.97
508.59	512.22
508.95	521.87
509.31	531.70
509.67	541.81
510.03	552.12
510.39	562.65
510.75	573.51
511.12	584.29
511.48	595.62
511.84	607.03
512.20	618.55
512.56	630.47
512.92	642.73
513.28	655.14
513.64	667.61
514.00	680.29
514.37	693.15
514.73	706.20
515.09	719.22
515.45	732.54
515.81	746.17
516.17	760.16
516.53	774.29
516.89	788.45
517.25	802.57
517.61	817.02
517.97	831.48
518.33	845.77
518.69	860.60
519.05	875.48
519.41	890.64
519.77	906.10
520.13	921.61
520.49	936.84
520.85	952.20
521.21	967.86
521.57	983.99
521.93	999.64
522.29	1015.97
522.65	1032.12
523.01	1048.28
523.37	1064.32
523.73	1080.40
524.09	1096.41
524.45	1112.60
524.81	1129.18
525.17	1145.82
525.53	1162.67
525.89	1179.58
526.25	1196.36
526.61	1212.62
526.97	1229.37
527.33	1245.81
527.68	1262.36
528.04	1278.85
528.40	1295.36
528.76	1312.36
529.12	1328.96
529.48	1345.91
529.84	1361.88
530.20	1378.53
530.56	1395.40
530.91	1412.67
531.27	1429.39
531.63	1445.84
531.99	1462.44
532.35	1478.33
532.71	1494.23
533.07	1510.45
533.42	1526.18
533.78	1542.13
534.14	1558.54
534.50	1573.64
534.86	1589.38
535.21	1604.29
535.57	1620.20
535.93	1635.57
536.29	1650.26
536.65	1665.29
537.00	1679.92
537.36	1695.13
537.72	1709.49
538.08	1723.86
538.44	1737.53
538.79	1751.37
539.15	1764.96
539.51	1778.63
539.87	1793.02
540.22	1806.73
540.58	1820.31
540.94	1833.59
541.29	1846.47
541.65	1858.95
542.01	1872.19
542.37	1884.47
542.72	1896.92
543.08	1908.58
543.44	1920.91
543.79	1932.06
544.15	1942.85
544.51	1954.38
544.87	1965.27
545.22	1976.09
545.58	1986.25
545.94	1995.98
546.29	2005.79
546.65	2015.72
547.01	2024.95
547.36	2033.53
547.72	2041.96
548.07	2049.86
548.43	2057.96
548.79	2065.88
549.14	2073.43
549.50	2080.67
549.86	2088.44
550.21	2095.80
550.57	2102.95
550.92	2109.53
551.28	2116.66
551.64	2123.81
551.99	2130.24
552.35	2136.42
552.70	2142.46
553.06	2148.39
553.41	2154.71
553.77	2160.65
554.13	2166.53
554.48	2172.48
554.84	2178.02
555.19	2183.25
555.55	2188.42
555.90	2193.03
556.26	2197.86
556.61	2202.64
556.97	2207.13
557.32	2211.22
557.68	2215.18
558.03	2219.47
558.39	2223.21
558.74	2227.65
559.10	2231.61
559.45	2235.34
559.81	2239.57
560.16	2243.34
560.52	2246.61
560.87	2249.97
561.23	2252.50
561.58	2255.42
561.94	2258.03
562.29	2260.27
562.64	2262.93
563.00	2265.66
563.35	2269.12
563.71	2272.31
564.06	2275.55
564.42	2278.43
564.77	2280.93
565.12	2283.39
565.48	2285.39
565.83	2287.21
566.19	2288.65
566.54	2289.58
566.89	2290.70
567.25	2291.39
567.60	2292.82
567.96	2294.54
568.31	2295.43
568.66	2296.84
569.02	2297.25
569.37	2297.55
569.72	2298.50
570.08	2298.69
570.43	2298.61
570.78	2298.11
571.14	2296.49
571.49	2294.97
571.84	2294.49
572.20	2293.42
572.55	2292.39
572.90	2290.66
573.26	2289.34
573.61	2287.62
573.96	2285.82
574.31	2282.92
574.67	2279.85
575.02	2276.38
575.37	2273.01
575.72	2269.33
576.08	2265.86
576.43	2262.70
576.78	2259.21
577.13	2255.97
577.49	2252.72
577.84	2249.30
578.19	2245.38
578.54	2241.95
578.90	2237.87
579.25	2232.38
579.60	2227.51
579.95	2222.48
580.30	2217.54
580.66	2212.42
581.01	2207.56
581.36	2202.65
581.71	2198.44
582.06	2194.11
582.42	2189.56
582.77	2184.39
583.12	2179.89
583.47	2175.28
583.82	2170.45
584.17	2165.29
584.53	2159.93
584.88	2154.47
585.23	2148.56
585.58	2143.25
585.93	2137.69
586.28	2133.00
586.63	2127.94
586.98	2123.03
587.34	2118.37
587.69	2113.61
588.04	2108.34
588.39	2102.84
588.74	2096.41
589.09	2090.45
589.44	2083.73
589.79	2077.84
590.14	2072.28
590.49	2065.69
590.84	2059.28
591.19	2053.25
591.54	2046.70
591.89	2039.41
592.25	2032.71
592.60	2025.76
592.95	2018.34
593.30	2011.05
593.65	2003.27
594.00	1996.30
594.35	1988.81
594.70	1980.75
595.05	1973.62
595.40	1966.42
595.75	1958.79
596.10	1952.52
596.45	1945.78
596.80	1939.60
597.15	1932.98
597.50	1926.05
597.85	1919.60
598.19	1912.94
598.54	1905.84
598.89	1899.22
599.24	1893.32
599.59	1886.69
599.94	1880.38
600.29	1873.98
600.64	1867.40
600.99	1860.26
601.34	1853.42
601.69	1846.56
602.04	1839.75
602.39	1832.32
602.74	1825.53
603.08	1818.78
603.43	1812.15
603.78	1804.81
604.13	1797.58
604.48	1790.28
604.83	1783.28
605.18	1776.40
605.53	1768.54
605.87	1760.52
606.22	1753.31
606.57	1745.23
606.92	1737.86
607.27	1730.68
607.62	1723.82
607.96	1716.59
608.31	1709.95
608.66	1702.38
609.01	1694.81
609.36	1687.29
609.70	1679.30
610.05	1671.27
610.40	1663.70
610.75	1655.31
611.10	1647.67
611.44	1639.21
611.79	1631.20
612.14	1622.63
612.49	1613.43
612.83	1605.07
613.18	1597.03
613.53	1588.91
613.88	1580.50
614.22	1572.27
614.57	1563.65
614.92	1555.57
615.27	1548.07
615.61	1539.63
615.96	1531.62
616.31	1523.94
616.65	1516.55
617.00	1509.01
617.35	1501.30
617.70	1493.03
618.04	1484.52
618.39	1476.36
618.74	1468.86
619.08	1460.63
619.43	1452.97
619.78	1446.01
620.12	1438.82
620.47	1431.22
620.82	1423.05
621.16	1415.57
621.51	1407.97
621.85	1400.38
622.20	1391.91
622.55	1383.51
622.89	1375.71
623.24	1368.07
623.59	1360.78
623.93	1353.20
624.28	1345.98
624.62	1338.44
624.97	1331.19
625.32	1324.49
625.66	1317.48
626.01	1310.29
626.35	1302.74
626.70	1294.96
627.04	1287.24
627.39	1279.41
627.73	1272.07
628.08	1265.12
628.43	1257.88
628.77	1250.51
629.12	1242.92
629.46	1235.73
629.81	1228.24
630.15	1221.03
630.50	1213.57
630.84	1205.34
631.19	1197.34
631.53	1189.84
631.88	1182.30
632.22	1174.76
632.57	1167.46
632.91	1159.87
633.26	1152.45
633.60	1145.12
633.95	1138.04
634.29	1131.06
634.64	1124.34
634.98	1117.04
635.32	1109.95
635.67	1103.31
636.01	1096.72
636.36	1089.93
636.70	1083.36
637.05	1076.89
637.39	1070.45
637.73	1064.03
638.08	1058.10
638.42	1052.17
638.77	1045.72
639.11	1039.16
639.45	1032.76
639.80	1026.02
640.14	1019.63
640.49	1013.11
640.83	1006.74
641.17	1000.53
641.52	994.17
641.86	987.72
642.20	981.82
642.55	975.51
642.89	969.08
643.23	962.45
643.58	956.70
643.92	950.49
644.26	944.41
644.61	938.33
644.95	932.30
645.29	925.80
645.64	919.14
645.98	912.80
646.32	906.99
646.66	900.83
647.01	895.14
647.35	889.43
647.69	883.55
648.04	878.05
648.38	872.35
648.72	866.36
649.06	860.33
649.41	854.44
649.75	848.48
650.09	842.56
650.43	836.81
650.78	830.64
651.12	824.75
651.46	819.05
651.80	813.32
652.14	807.95
652.49	802.54
652.83	797.27
653.17	791.57
653.51	785.78
653.85	780.42
654.20	774.66
654.54	768.64
654.88	762.85
655.22	756.90
655.56	751.11
655.90	745.69
656.25	740.47
656.59	735.02
656.93	729.92
657.27	724.68
657.61	719.19
657.95	714.14
658.29	708.99
658.64	703.70
658.98	698.42
659.32	692.89
659.66	687.70
660.00	682.45
660.34	677.49
660.68	672.57
661.02	667.53
661.36	662.86
661.70	658.32
662.05	654.02
662.39	649.75
662.73	645.27
663.07	640.91
663.41	636.40
663.75	631.96
664.09	627.41
664.43	623.00
664.77	618.91
665.11	614.62
665.45	610.53
665.79	606.45
666.13	602.25
666.47	598.19
666.81	593.95
667.15	589.78
667.49	585.86
667.83	582.12
668.17	578.22
668.51	574.14
668.85	570.14
669.19	566.30
669.53	562.54
669.87	558.70
670.21	554.93
670.55	551.25
670.89	547.82
671.23	544.36
671.57	540.90
671.91	537.41
672.25	533.94
672.58	530.40
672.92	527.02
673.26	523.90
673.60	520.76
673.94	517.76
674.28	514.89
674.62	511.91
674.96	508.73
675.30	505.83
675.64	502.91
675.97	500.13
676.31	497.24
676.65	494.22
676.99	491.52
677.33	488.66
677.67	485.93
678.01	482.87
678.34	479.93
678.68	477.06
679.02	474.21
679.36	471.45
679.70	468.70
680.04	465.94
680.37	463.07
680.71	460.18
681.05	457.55
681.39	454.85
681.73	452.24
682.06	449.72
682.40	447.17
682.74	444.62
683.08	442.02
683.42	439.41
683.75	436.92
684.09	434.34
684.43	431.89
684.77	429.41
685.10	427.05
685.44	424.71
685.78	422.38
686.12	420.16
686.45	417.86
686.79	415.59
687.13	413.43
687.46	411.28
687.80	409.16
688.14	406.93
688.48	404.83
688.81	402.56
689.15	400.43
689.49	398.27
689.82	396.24
690.16	394.20
690.50	392.28
690.83	390.37
691.17	388.39
691.51	386.46
691.84	384.58
692.18	382.67
692.52	380.67
692.85	378.74
693.19	376.78
693.52	374.93
693.86	373.09
694.20	371.26
694.53	369.42
694.87	367.59
695.21	365.77
695.54	363.96
695.88	362.28
696.21	360.57
696.55	358.86
696.88	357.15
697.22	355.53
697.56	353.88
697.89	352.18
698.23	350.58
698.56	348.97
698.90	347.39
699.23	345.72
699.57	344.22
699.90	342.67
700.24	341.17
700.58	339.65
700.91	338.16
701.25	336.70
701.58	335.38
701.92	334.00
702.25	332.63
702.59	331.25
702.92	329.94
703.26	328.59
703.59	327.30
703.93	326.09
704.26	324.84
704.60	323.53
704.93	322.29
705.26	321.03
705.60	319.84
705.93	318.70
706.27	317.70
706.60	316.61
706.94	315.56
707.27	314.45
707.61	313.35
707.94	312.33
708.27	311.25
708.61	310.11
708.94	309.10
709.28	308.13
709.61	307.17
709.94	306.17
710.28	305.17
710.61	304.24
710.95	303.19
711.28	302.30
711.61	301.35
711.95	300.42
712.28	299.47
712.61	298.50
712.95	297.58
713.28	296.69
713.61	295.83
713.95	294.93
714.28	294.10
714.61	293.28
714.95	292.41
715.28	291.57
715.61	290.74
715.95	289.86
716.28	288.98
716.61	288.16
716.95	287.34
717.28	286.60
717.61	285.82
717.94	285.04
718.28	284.16
718.61	283.46
718.94	282.79
719.27	282.14
719.61	281.54
719.94	280.87
720.27	280.15
720.60	279.46
720.94	278.85
721.27	278.22
721.60	277.63
721.93	277.03
722.27	276.46
722.60	275.92
722.93	275.41
723.26	274.91
723.59	274.34
723.93	273.82
724.26	273.26
724.59	272.69
724.92	272.18
725.25	271.76
725.59	271.21
725.92	270.66
726.25	270.13
726.58	269.59
726.91	269.06
727.24	268.59
727.57	268.15
727.91	267.61
728.24	267.15
728.57	266.66
728.90	266.22
729.23	265.73
729.56	265.31
729.89	264.79
730.22	264.30
730.55	263.83
730.89	263.40
731.22	262.94
731.55	262.51
731.88	262.09
732.21	261.61
732.54	261.23
732.87	260.80
733.20	260.41
733.53	260.02
733.86	259.66
734.19	259.26
734.52	258.82
734.85	258.54
735.18	258.12
735.51	257.79
735.84	257.43
736.17	257.07
736.50	256.61
736.83	256.38
737.16	256.06
737.49	255.71
737.82	255.32
738.15	254.99
738.48	254.71
738.81	254.37
739.14	254.06
739.47	253.74
739.80	253.43
740.13	253.12
740.46	252.80
740.79	252.46
741.12	252.15
741.45	251.83
741.78	251.48
742.11	251.19
742.44	250.83
742.77	250.50
743.10	250.21
743.43	249.93
743.75	249.52
744.08	249.34
744.41	249.06
744.74	248.80
745.07	248.50
745.40	248.20
745.73	247.98
746.06	247.72
746.39	247.44
746.71	247.17
747.04	246.94
747.37	246.68
747.70	246.42
748.03	246.19
748.36	245.99
748.68	245.77
749.01	245.53
749.34	245.31
749.67	245.11
750.00	244.89
750.33	244.75
750.65	244.54
750.98	244.20
751.31	243.96
751.64	243.76
751.97	243.60
752.29	243.38
752.62	243.14
752.95	242.92
753.28	242.70
753.60	242.51
753.93	242.31
754.26	242.11
754.59	241.91
754.91	241.67
755.24	241.48
755.57	241.25
755.90	241.08
756.22	240.86
756.55	240.68
756.88	240.47
757.20	240.25
757.53	240.08
757.86	239.93
758.19	239.78
758.51	239.58
758.84	239.38
759.17	239.20
759.49	239.03
759.82	238.91
760.15	238.75
760.47	238.61
760.80	238.42
761.13	238.30
761.45	238.12
761.78	238.01
762.11	237.82
762.43	237.68
762.76	237.53
763.08	237.46
763.41	237.33
763.74	237.20
764.06	237.05
764.39	236.90
764.71	236.79
765.04	236.64
765.37	236.51
765.69	236.40
766.02	236.25
766.34	236.14
766.67	235.98
767.00	235.90
767.32	235.82
767.65	235.75
767.97	235.63
768.30	235.54
768.62	235.40
768.95	235.32
769.27	235.18
769.60	235.10
769.92	234.93
770.25	234.78
770.57	234.65
770.90	234.56
771.22	234.46
771.55	234.34
771.87	234.28
772.20	234.20
772.52	234.19
772.85	234.24
773.17	234.13
773.50	234.04
773.82	233.92
774.15	233.77
774.47	233.62
774.80	233.55
775.12	233.45
775.45	233.38
775.77	233.28
776.09	233.22
776.42	233.08
776.74	233.09
777.07	233.02
777.39	232.97
777.72	232.89
778.04	232.85
778.36	232.74
778.69	232.66
779.01	232.59
779.33	232.44
779.66	232.28
779.98	232.23
780.31	232.16
780.63	232.13
780.95	232.09
781.28	232.02
781.60	231.91
781.92	231.86
782.25	231.80
782.57	231.75
782.89	231.67
783.22	231.59
783.54	231.45
783.86	231.40
784.19	231.32
784.51	231.27
784.83	231.19
785.16	231.15
785.48	231.10
785.80	231.07
786.12	230.99
786.45	230.92
786.77	230.82
787.09	230.75
