SpectraSuite Data File
++++++++++++++++++++++++++++++++++++
Date: Fri Feb 01 15:01:34 EST 2013
User: group
Dark Spectrum Present: No
Reference Spectrum Present: No
Number of Sampled Component Spectra: 1
Spectrometers: USB2E7196
Integration Time (usec): 35000 (USB2E7196)
Spectra Averaged: 100 (USB2E7196)
Boxcar Smoothing: 10 (USB2E7196)
Correct for Electrical Dark: No (USB2E7196)
Strobe/Lamp Enabled: No (USB2E7196)
Correct for Detector Non-linearity: No (USB2E7196)
Correct for Stray Light: No (USB2E7196)
Number of Pixels in Processed Spectrum: 2048
>>>>>Begin Processed Spectral Data<<<<<
339.09	0.00
339.48	215.11
339.86	217.08
340.24	217.61
340.63	219.51
341.01	221.77
341.39	221.79
341.78	223.61
342.16	224.09
342.54	225.57
342.93	213.44
343.31	224.23
343.69	224.81
344.07	225.26
344.46	225.73
344.84	226.10
345.22	226.37
345.60	226.63
345.99	226.82
346.37	226.99
346.75	227.06
347.13	227.13
347.52	227.19
347.90	227.28
348.28	227.31
348.66	227.38
349.05	227.40
349.43	227.47
349.81	227.52
350.19	227.55
350.57	227.59
350.96	227.66
351.34	227.73
351.72	227.78
352.10	227.87
352.48	227.94
352.87	228.01
353.25	228.06
353.63	228.13
354.01	228.17
354.39	228.23
354.77	228.34
355.15	228.48
355.54	228.54
355.92	228.59
356.30	228.67
356.68	228.81
357.06	228.85
357.44	228.90
357.82	228.92
358.20	229.00
358.58	229.06
358.97	229.13
359.35	229.21
359.73	229.29
360.11	229.36
360.49	229.39
360.87	229.41
361.25	229.45
361.63	229.53
362.01	229.58
362.39	229.59
362.77	229.61
363.15	229.62
363.53	229.63
363.91	229.62
364.29	229.64
364.67	229.54
365.05	229.57
365.43	229.58
365.81	229.62
366.19	229.66
366.57	229.67
366.95	229.67
367.33	229.62
367.71	229.57
368.09	229.54
368.47	229.53
368.85	229.52
369.23	229.52
369.61	229.47
369.99	229.45
370.37	229.44
370.75	229.42
371.13	229.33
371.51	229.27
371.89	229.27
372.27	229.20
372.65	229.14
373.03	229.06
373.41	228.99
373.78	228.90
374.16	228.76
374.54	228.65
374.92	228.56
375.30	228.48
375.68	228.40
376.06	228.32
376.44	228.23
376.82	228.12
377.19	228.04
377.57	227.91
377.95	227.80
378.33	227.69
378.71	227.59
379.09	227.52
379.47	227.44
379.84	227.31
380.22	227.23
380.60	227.15
380.98	227.06
381.36	227.01
381.73	226.89
382.11	226.84
382.49	226.80
382.87	226.72
383.25	226.68
383.62	226.73
384.00	226.66
384.38	226.61
384.76	226.60
385.13	226.55
385.51	226.53
385.89	226.49
386.27	226.45
386.64	226.42
387.02	226.39
387.40	226.36
387.78	226.34
388.15	226.30
388.53	226.27
388.91	226.28
389.29	226.21
389.66	226.24
390.04	226.19
390.42	226.18
390.79	226.19
391.17	226.17
391.55	226.08
391.92	226.09
392.30	226.09
392.68	226.09
393.05	226.11
393.43	226.14
393.81	226.14
394.18	226.15
394.56	226.19
394.94	226.24
395.31	226.24
395.69	226.33
396.06	226.42
396.44	226.46
396.82	226.48
397.19	226.61
397.57	226.65
397.95	226.75
398.32	226.78
398.70	226.84
399.07	226.92
399.45	227.01
399.82	227.10
400.20	227.18
400.58	227.25
400.95	227.33
401.33	227.43
401.70	227.60
402.08	227.72
402.45	227.79
402.83	227.91
403.20	228.07
403.58	228.20
403.95	228.31
404.33	228.46
404.71	228.63
405.08	228.82
405.46	228.98
405.83	229.15
406.21	229.31
406.58	229.50
406.96	229.69
407.33	229.89
407.70	230.10
408.08	230.37
408.45	230.59
408.83	230.82
409.20	231.05
409.58	231.22
409.95	231.53
410.33	231.83
410.70	232.07
411.08	232.34
411.45	232.60
411.82	232.93
412.20	233.29
412.57	233.67
412.95	233.96
413.32	234.35
413.69	234.74
414.07	235.19
414.44	235.68
414.82	236.17
415.19	236.70
415.56	237.23
415.94	237.77
416.31	238.40
416.68	239.01
417.06	239.71
417.43	240.41
417.81	241.13
418.18	241.90
418.55	242.72
418.93	243.60
419.30	244.48
419.67	245.41
420.04	246.34
420.42	247.35
420.79	248.53
421.16	249.72
421.54	250.89
421.91	252.08
422.28	253.28
422.66	254.58
423.03	255.87
423.40	257.20
423.77	258.61
424.15	260.03
424.52	261.50
424.89	263.09
425.26	264.62
425.64	266.07
426.01	267.64
426.38	269.31
426.75	271.00
427.13	272.71
427.50	274.50
427.87	276.35
428.24	278.21
428.61	279.96
428.99	281.89
429.36	284.00
429.73	286.10
430.10	288.18
430.47	290.25
430.85	292.34
431.22	294.57
431.59	296.99
431.96	299.27
432.33	301.80
432.70	304.19
433.08	307.05
433.45	309.72
433.82	312.31
434.19	315.20
434.56	318.02
434.93	320.73
435.30	323.38
435.68	326.33
436.05	329.18
436.42	332.00
436.79	334.51
437.16	337.21
437.53	340.04
437.90	342.83
438.27	345.58
438.64	348.47
439.01	351.09
439.38	353.25
439.75	355.42
440.13	357.93
440.50	360.28
440.87	362.14
441.24	364.10
441.61	366.30
441.98	367.86
442.35	369.66
442.72	371.54
443.09	373.34
443.46	374.32
443.83	374.88
444.20	375.34
444.57	376.21
444.94	376.54
445.31	376.88
445.68	377.19
446.05	377.27
446.42	376.91
446.79	376.46
447.16	376.09
447.53	375.73
447.90	374.54
448.27	373.39
448.64	371.79
449.01	370.63
449.37	368.64
449.74	366.71
450.11	364.44
450.48	362.00
450.85	359.50
451.22	357.36
451.59	355.39
451.96	353.44
452.33	350.79
452.70	348.41
453.07	345.58
453.43	342.72
453.80	339.98
454.17	337.27
454.54	334.76
454.91	332.03
455.28	329.42
455.65	326.94
456.02	324.51
456.38	322.35
456.75	319.69
457.12	317.46
457.49	315.28
457.86	313.08
458.23	311.17
458.59	309.08
458.96	307.01
459.33	305.10
459.70	303.27
460.07	301.78
460.43	300.04
460.80	298.43
461.17	297.05
461.54	295.54
461.91	294.11
462.27	292.66
462.64	291.41
463.01	289.98
463.38	288.66
463.74	287.26
464.11	286.09
464.48	285.09
464.85	283.97
465.21	283.02
465.58	282.13
465.95	281.04
466.32	280.14
466.68	279.23
467.05	278.32
467.42	277.43
467.78	276.50
468.15	275.64
468.52	274.94
468.88	273.99
469.25	273.18
469.62	272.51
469.98	271.78
470.35	271.13
470.72	270.56
471.08	269.90
471.45	269.36
471.82	268.80
472.18	268.18
472.55	267.73
472.92	267.19
473.28	266.70
473.65	266.23
474.02	265.79
474.38	265.41
474.75	265.05
475.11	264.67
475.48	264.39
475.85	264.16
476.21	263.91
476.58	263.73
476.94	263.56
477.31	263.40
477.67	263.25
478.04	263.12
478.41	263.05
478.77	263.06
479.14	262.97
479.50	262.97
479.87	263.02
480.23	263.05
480.60	263.13
480.96	263.21
481.33	263.44
481.69	263.60
482.06	263.74
482.42	264.01
482.79	264.24
483.15	264.54
483.52	264.86
483.88	265.18
484.25	265.59
484.61	266.01
484.98	266.46
485.34	267.02
485.71	267.62
486.07	268.20
486.44	268.75
486.80	269.44
487.17	270.15
487.53	270.97
487.90	271.82
488.26	272.75
488.62	273.70
488.99	274.60
489.35	275.60
489.72	276.78
490.08	277.92
490.44	279.18
490.81	280.51
491.17	281.87
491.54	283.32
491.90	284.85
492.26	286.49
492.63	288.19
492.99	289.92
493.36	291.75
493.72	293.81
494.08	295.91
494.45	298.14
494.81	300.48
495.17	302.84
495.54	305.40
495.90	308.04
496.26	310.85
496.63	313.86
496.99	316.97
497.35	320.21
497.72	323.62
498.08	327.10
498.44	330.75
498.80	334.65
499.17	338.70
499.53	342.83
499.89	347.19
500.26	351.67
500.62	356.33
500.98	361.29
501.34	366.32
501.71	371.64
502.07	377.06
502.43	382.68
502.79	388.51
503.16	394.58
503.52	400.84
503.88	407.23
504.24	413.82
504.60	420.69
504.97	427.79
505.33	435.07
505.69	442.77
506.05	450.50
506.41	458.35
506.78	466.49
507.14	474.91
507.50	483.60
507.86	492.63
508.22	501.80
508.59	511.00
508.95	520.60
509.31	530.38
509.67	540.45
510.03	550.72
510.39	561.30
510.75	572.07
511.12	583.07
511.48	594.32
511.84	605.79
512.20	617.33
512.56	629.22
512.92	641.36
513.28	653.67
513.64	666.22
514.00	678.89
514.37	691.82
514.73	704.90
515.09	717.98
515.45	731.35
515.81	744.97
516.17	758.98
516.53	773.10
516.89	787.37
517.25	801.56
517.61	816.02
517.97	830.53
518.33	844.95
518.69	859.73
519.05	874.81
519.41	889.93
519.77	905.57
520.13	921.09
520.49	936.54
520.85	952.02
521.21	967.72
521.57	984.04
521.93	999.95
522.29	1016.46
522.65	1032.79
523.01	1048.97
523.37	1065.04
523.73	1081.28
524.09	1097.38
524.45	1113.70
524.81	1130.43
525.17	1147.28
525.53	1164.19
525.89	1181.11
526.25	1198.02
526.61	1214.46
526.97	1231.29
527.33	1247.79
527.68	1264.53
528.04	1281.12
528.40	1297.85
528.76	1315.02
529.12	1331.68
529.48	1348.50
529.84	1364.51
530.20	1381.25
530.56	1398.46
530.91	1415.98
531.27	1432.77
531.63	1449.38
531.99	1466.07
532.35	1482.12
532.71	1498.14
533.07	1514.47
533.42	1530.56
533.78	1546.60
534.14	1562.87
534.50	1578.23
534.86	1594.26
535.21	1609.48
535.57	1625.47
535.93	1640.98
536.29	1655.83
536.65	1671.05
537.00	1685.99
537.36	1701.56
537.72	1716.04
538.08	1730.43
538.44	1744.29
538.79	1758.30
539.15	1772.18
539.51	1785.89
539.87	1800.43
540.22	1814.12
540.58	1828.01
540.94	1841.34
541.29	1854.36
541.65	1867.20
542.01	1880.64
542.37	1892.86
542.72	1905.41
543.08	1917.31
543.44	1929.92
543.79	1941.22
544.15	1952.28
544.51	1963.89
544.87	1974.76
545.22	1985.61
545.58	1995.92
545.94	2005.80
546.29	2015.60
546.65	2025.28
547.01	2034.58
547.36	2043.32
547.72	2051.97
548.07	2059.78
548.43	2068.00
548.79	2076.04
549.14	2083.59
549.50	2091.06
549.86	2098.96
550.21	2106.19
550.57	2113.34
550.92	2119.84
551.28	2126.97
551.64	2134.02
551.99	2140.56
552.35	2146.69
552.70	2152.95
553.06	2158.77
553.41	2165.10
553.77	2171.26
554.13	2177.44
554.48	2183.64
554.84	2188.96
555.19	2194.35
555.55	2199.58
555.90	2204.07
556.26	2208.83
556.61	2213.57
556.97	2217.48
557.32	2221.52
557.68	2225.71
558.03	2230.00
558.39	2233.64
558.74	2238.16
559.10	2241.97
559.45	2245.50
559.81	2249.84
560.16	2253.50
560.52	2256.77
560.87	2260.11
561.23	2262.75
561.58	2265.58
561.94	2268.08
562.29	2270.41
562.64	2272.91
563.00	2275.50
563.35	2279.01
563.71	2282.21
564.06	2285.36
564.42	2288.26
564.77	2290.65
565.12	2292.88
565.48	2294.57
565.83	2296.36
566.19	2297.49
566.54	2298.42
566.89	2299.51
567.25	2299.93
567.60	2301.33
567.96	2302.99
568.31	2303.69
568.66	2304.62
569.02	2305.18
569.37	2305.33
569.72	2305.98
570.08	2305.79
570.43	2305.48
570.78	2304.63
571.14	2302.90
571.49	2301.48
571.84	2301.03
572.20	2299.55
572.55	2298.18
572.90	2296.51
573.26	2294.83
573.61	2293.02
573.96	2290.88
574.31	2287.72
574.67	2284.57
575.02	2280.73
575.37	2277.14
575.72	2273.15
576.08	2269.73
576.43	2266.07
576.78	2262.32
577.13	2259.09
577.49	2256.10
577.84	2252.57
578.19	2248.75
578.54	2244.86
578.90	2240.41
579.25	2234.66
579.60	2229.63
579.95	2224.49
580.30	2219.43
580.66	2214.33
581.01	2209.25
581.36	2204.23
581.71	2199.93
582.06	2195.36
582.42	2190.70
582.77	2185.27
583.12	2180.55
583.47	2175.57
583.82	2170.56
584.17	2165.01
584.53	2159.41
584.88	2153.55
585.23	2147.63
585.58	2142.11
585.93	2136.57
586.28	2131.76
586.63	2126.66
586.98	2121.59
587.34	2116.92
587.69	2111.81
588.04	2106.16
588.39	2100.34
588.74	2093.93
589.09	2087.68
589.44	2080.71
589.79	2074.62
590.14	2068.91
590.49	2062.26
590.84	2055.80
591.19	2049.53
591.54	2043.03
591.89	2035.42
592.25	2028.52
592.60	2021.22
592.95	2013.44
593.30	2006.04
593.65	1998.30
594.00	1991.08
594.35	1983.77
594.70	1975.50
595.05	1968.12
595.40	1960.92
595.75	1953.43
596.10	1946.87
596.45	1939.94
596.80	1933.73
597.15	1926.92
597.50	1919.76
597.85	1913.34
598.19	1906.51
598.54	1899.54
598.89	1892.82
599.24	1886.90
599.59	1880.12
599.94	1873.93
600.29	1867.47
600.64	1860.88
600.99	1853.38
601.34	1846.57
601.69	1839.42
602.04	1832.54
602.39	1825.23
602.74	1818.39
603.08	1811.64
603.43	1805.02
603.78	1797.89
604.13	1790.61
604.48	1783.20
604.83	1776.29
605.18	1769.16
605.53	1761.20
605.87	1753.10
606.22	1745.96
606.57	1738.05
606.92	1730.73
607.27	1723.36
607.62	1716.58
607.96	1709.19
608.31	1702.50
608.66	1694.79
609.01	1687.35
609.36	1679.90
609.70	1671.96
610.05	1663.92
610.40	1656.18
610.75	1647.89
611.10	1640.08
611.44	1631.80
611.79	1624.02
612.14	1615.34
612.49	1606.34
612.83	1598.13
613.18	1590.04
613.53	1581.92
613.88	1573.34
614.22	1565.12
614.57	1556.64
614.92	1548.60
615.27	1541.11
615.61	1532.79
615.96	1524.90
616.31	1517.20
616.65	1509.74
617.00	1502.11
617.35	1494.38
617.70	1486.02
618.04	1477.42
618.39	1469.24
618.74	1461.61
619.08	1453.29
619.43	1445.79
619.78	1438.89
620.12	1431.66
620.47	1424.05
620.82	1415.95
621.16	1408.62
621.51	1401.03
621.85	1393.46
622.20	1384.92
622.55	1376.64
622.89	1368.92
623.24	1361.34
623.59	1354.08
623.93	1346.51
624.28	1339.35
624.62	1331.85
624.97	1324.80
625.32	1318.31
625.66	1311.35
626.01	1304.20
626.35	1296.73
626.70	1289.04
627.04	1281.25
627.39	1273.58
627.73	1266.25
628.08	1259.24
628.43	1251.93
628.77	1244.55
629.12	1236.99
629.46	1229.91
629.81	1222.48
630.15	1215.24
630.50	1207.81
630.84	1199.63
631.19	1191.81
631.53	1184.43
631.88	1176.94
632.22	1169.34
632.57	1161.96
632.91	1154.45
633.26	1147.07
633.60	1139.81
633.95	1132.82
634.29	1125.81
634.64	1119.11
634.98	1111.82
635.32	1104.83
635.67	1098.36
636.01	1091.75
636.36	1084.98
636.70	1078.51
637.05	1072.05
637.39	1065.66
637.73	1059.25
638.08	1053.55
638.42	1047.64
638.77	1041.13
639.11	1034.58
639.45	1028.28
639.80	1021.59
640.14	1015.19
640.49	1008.60
640.83	1002.31
641.17	996.02
641.52	989.79
641.86	983.41
642.20	977.65
642.55	971.35
642.89	964.88
643.23	958.49
643.58	952.77
643.92	946.52
644.26	940.48
644.61	934.48
644.95	928.46
645.29	921.78
645.64	915.08
645.98	908.78
646.32	903.04
646.66	896.96
647.01	891.17
647.35	885.55
647.69	879.92
648.04	874.46
648.38	868.73
648.72	862.66
649.06	856.62
649.41	850.74
649.75	844.79
650.09	838.86
650.43	833.06
650.78	826.89
651.12	820.95
651.46	815.20
651.80	809.47
652.14	804.05
652.49	798.72
652.83	793.57
653.17	787.92
653.51	782.28
653.85	776.99
654.20	771.42
654.54	765.44
654.88	759.68
655.22	753.82
655.56	748.13
655.90	742.81
656.25	737.50
656.59	732.15
656.93	727.08
657.27	721.91
657.61	716.47
657.95	711.42
658.29	706.37
658.64	701.21
658.98	695.94
659.32	690.52
659.66	685.32
660.00	680.00
660.34	675.16
660.68	670.23
661.02	665.19
661.36	660.57
661.70	656.09
662.05	651.73
662.39	647.41
662.73	642.99
663.07	638.61
663.41	634.26
663.75	629.78
664.09	625.24
664.43	620.97
664.77	616.85
665.11	612.66
665.45	608.56
665.79	604.45
666.13	600.30
666.47	596.25
666.81	592.07
667.15	588.02
667.49	584.11
667.83	580.28
668.17	576.33
668.51	572.24
668.85	568.23
669.19	564.43
669.53	560.65
669.87	556.76
670.21	553.10
670.55	549.48
670.89	546.09
671.23	542.62
671.57	539.12
671.91	535.64
672.25	532.16
672.58	528.73
672.92	525.37
673.26	522.28
673.60	519.11
673.94	516.06
674.28	513.18
674.62	510.22
674.96	507.16
675.30	504.31
675.64	501.40
675.97	498.69
676.31	495.84
676.65	492.87
676.99	490.22
677.33	487.37
677.67	484.61
678.01	481.61
678.34	478.71
678.68	475.85
679.02	473.01
679.36	470.30
679.70	467.57
680.04	464.81
680.37	461.89
680.71	459.20
681.05	456.56
681.39	453.85
681.73	451.20
682.06	448.63
682.40	446.07
682.74	443.54
683.08	440.99
683.42	438.39
683.75	435.93
684.09	433.42
684.43	430.97
684.77	428.50
685.10	426.18
685.44	423.89
685.78	421.63
686.12	419.45
686.45	417.15
686.79	414.90
687.13	412.73
687.46	410.63
687.80	408.47
688.14	406.33
688.48	404.30
688.81	402.11
689.15	400.00
689.49	397.91
689.82	395.89
690.16	393.82
690.50	391.93
690.83	390.02
691.17	388.08
691.51	386.19
691.84	384.39
692.18	382.49
692.52	380.54
692.85	378.59
693.19	376.72
693.52	374.94
693.86	373.12
694.20	371.37
694.53	369.65
694.87	367.80
695.21	366.05
695.54	364.25
695.88	362.57
696.21	360.91
696.55	359.25
696.88	357.54
697.22	355.90
697.56	354.25
697.89	352.58
698.23	350.97
698.56	349.38
698.90	347.76
699.23	346.08
699.57	344.50
699.90	342.98
700.24	341.44
700.58	339.89
700.91	338.40
701.25	336.93
701.58	335.47
701.92	334.16
702.25	332.74
702.59	331.34
702.92	329.97
703.26	328.64
703.59	327.36
703.93	326.18
704.26	325.00
704.60	323.71
704.93	322.48
705.26	321.21
705.60	320.04
705.93	318.86
706.27	317.83
706.60	316.82
706.94	315.74
707.27	314.58
707.61	313.53
707.94	312.53
708.27	311.45
708.61	310.41
708.94	309.37
709.28	308.45
709.61	307.52
709.94	306.59
710.28	305.59
710.61	304.61
710.95	303.55
711.28	302.57
711.61	301.65
711.95	300.72
712.28	299.79
712.61	298.82
712.95	297.86
713.28	297.01
713.61	296.04
713.95	295.15
714.28	294.33
714.61	293.46
714.95	292.60
715.28	291.75
715.61	290.86
715.95	289.97
716.28	289.10
716.61	288.27
716.95	287.48
717.28	286.72
717.61	285.96
717.94	285.20
718.28	284.41
718.61	283.69
718.94	282.98
719.27	282.29
719.61	281.63
719.94	281.00
720.27	280.28
720.60	279.68
720.94	279.06
721.27	278.51
721.60	277.95
721.93	277.37
722.27	276.82
722.60	276.31
722.93	275.77
723.26	275.23
723.59	274.69
723.93	274.13
724.26	273.61
724.59	273.04
724.92	272.54
725.25	272.05
725.59	271.53
725.92	271.04
726.25	270.56
726.58	270.09
726.91	269.60
727.24	269.12
727.57	268.66
727.91	268.19
728.24	267.73
728.57	267.26
728.90	266.79
729.23	266.32
729.56	265.89
729.89	265.42
730.22	264.97
730.55	264.52
730.89	264.06
731.22	263.59
731.55	263.19
731.88	262.81
732.21	262.39
732.54	261.97
732.87	261.56
733.20	261.15
733.53	260.81
733.86	260.47
734.19	260.10
734.52	259.74
734.85	259.43
735.18	259.01
735.51	258.68
735.84	258.35
736.17	258.01
736.50	257.60
736.83	257.39
737.16	257.09
737.49	256.75
737.82	256.45
738.15	256.12
738.48	255.75
738.81	255.41
739.14	255.09
739.47	254.78
739.80	254.46
740.13	254.16
740.46	253.82
740.79	253.48
741.12	253.20
741.45	252.87
741.78	252.52
742.11	252.24
742.44	251.85
742.77	251.55
743.10	251.24
743.43	250.93
743.75	250.55
744.08	250.38
744.41	250.10
744.74	249.81
745.07	249.52
745.40	249.30
745.73	249.05
746.06	248.75
746.39	248.46
746.71	248.16
747.04	247.90
747.37	247.60
747.70	247.31
748.03	247.03
748.36	246.81
748.68	246.51
749.01	246.25
749.34	246.03
749.67	245.75
750.00	245.53
750.33	245.36
750.65	245.13
750.98	244.79
751.31	244.57
751.64	244.35
751.97	244.21
752.29	243.97
752.62	243.72
752.95	243.52
753.28	243.29
753.60	243.10
753.93	242.90
754.26	242.72
754.59	242.52
754.91	242.31
755.24	242.07
755.57	241.88
755.90	241.70
756.22	241.53
756.55	241.33
756.88	241.13
757.20	240.90
757.53	240.71
757.86	240.52
758.19	240.34
758.51	240.17
758.84	239.93
759.17	239.80
759.49	239.62
759.82	239.53
760.15	239.38
760.47	239.25
760.80	239.07
761.13	238.95
761.45	238.77
761.78	238.66
762.11	238.51
762.43	238.39
762.76	238.24
763.08	238.11
763.41	238.02
763.74	237.89
764.06	237.76
764.39	237.67
764.71	237.54
765.04	237.38
765.37	237.24
765.69	237.13
766.02	237.00
766.34	236.90
766.67	236.74
767.00	236.67
767.32	236.63
767.65	236.59
767.97	236.45
768.30	236.39
768.62	236.29
768.95	236.21
769.27	236.12
769.60	236.05
769.92	235.96
770.25	235.82
770.57	235.72
770.90	235.61
771.22	235.48
771.55	235.37
771.87	235.34
772.20	235.28
772.52	235.29
772.85	235.30
773.17	235.21
773.50	235.14
773.82	235.04
774.15	234.89
774.47	234.75
774.80	234.68
775.12	234.59
775.45	234.51
775.77	234.42
776.09	234.36
776.42	234.29
776.74	234.25
777.07	234.18
777.39	234.11
777.72	234.04
778.04	234.00
778.36	233.95
778.69	233.84
779.01	233.79
779.33	233.62
779.66	233.46
779.98	233.36
780.31	233.28
780.63	233.26
780.95	233.21
781.28	233.15
781.60	233.06
781.92	233.00
782.25	232.94
782.57	232.87
782.89	232.78
783.22	232.70
783.54	232.58
783.86	232.58
784.19	232.52
784.51	232.51
784.83	232.42
785.16	232.34
785.48	232.31
785.80	232.23
786.12	232.20
786.45	232.14
786.77	232.12
787.09	232.06
