SpectraSuite Data File
++++++++++++++++++++++++++++++++++++
Date: Fri Feb 01 15:32:22 EST 2013
User: group
Dark Spectrum Present: No
Reference Spectrum Present: No
Number of Sampled Component Spectra: 1
Spectrometers: USB2E7196
Integration Time (usec): 35000 (USB2E7196)
Spectra Averaged: 100 (USB2E7196)
Boxcar Smoothing: 10 (USB2E7196)
Correct for Electrical Dark: No (USB2E7196)
Strobe/Lamp Enabled: No (USB2E7196)
Correct for Detector Non-linearity: No (USB2E7196)
Correct for Stray Light: No (USB2E7196)
Number of Pixels in Processed Spectrum: 2048
>>>>>Begin Processed Spectral Data<<<<<
339.09	0.00
339.48	214.95
339.86	216.42
340.24	217.55
340.63	219.40
341.01	221.67
341.39	222.02
341.78	222.34
342.16	224.79
342.54	224.91
342.93	213.25
343.31	224.04
343.69	224.58
344.07	225.04
344.46	225.48
344.84	225.85
345.22	226.11
345.60	226.34
345.99	226.61
346.37	226.73
346.75	226.83
347.13	226.88
347.52	226.92
347.90	227.00
348.28	227.01
348.66	227.11
349.05	227.09
349.43	227.15
349.81	227.24
350.19	227.28
350.57	227.32
350.96	227.42
351.34	227.50
351.72	227.59
352.10	227.69
352.48	227.77
352.87	227.82
353.25	227.87
353.63	227.91
354.01	227.94
354.39	228.02
354.77	228.08
355.15	228.21
355.54	228.30
355.92	228.34
356.30	228.46
356.68	228.53
357.06	228.60
357.44	228.62
357.82	228.64
358.20	228.72
358.58	228.78
358.97	228.83
359.35	228.89
359.73	228.95
360.11	229.01
360.49	229.04
360.87	229.10
361.25	229.14
361.63	229.23
362.01	229.27
362.39	229.28
362.77	229.31
363.15	229.32
363.53	229.29
363.91	229.32
364.29	229.31
364.67	229.25
365.05	229.24
365.43	229.26
365.81	229.29
366.19	229.31
366.57	229.34
366.95	229.31
367.33	229.28
367.71	229.27
368.09	229.25
368.47	229.23
368.85	229.21
369.23	229.22
369.61	229.14
369.99	229.16
370.37	229.14
370.75	229.17
371.13	229.11
371.51	229.08
371.89	229.03
372.27	228.97
372.65	228.91
373.03	228.84
373.41	228.78
373.78	228.72
374.16	228.66
374.54	228.53
374.92	228.50
375.30	228.45
375.68	228.37
376.06	228.29
376.44	228.19
376.82	228.13
377.19	228.07
377.57	228.02
377.95	227.89
378.33	227.80
378.71	227.66
379.09	227.60
379.47	227.55
379.84	227.50
380.22	227.43
380.60	227.34
380.98	227.30
381.36	227.24
381.73	227.16
382.11	227.08
382.49	227.05
382.87	226.96
383.25	226.88
383.62	226.92
384.00	226.86
384.38	226.84
384.76	226.79
385.13	226.78
385.51	226.72
385.89	226.66
386.27	226.63
386.64	226.60
387.02	226.53
387.40	226.47
387.78	226.41
388.15	226.39
388.53	226.37
388.91	226.33
389.29	226.33
389.66	226.32
390.04	226.26
390.42	226.24
390.79	226.23
391.17	226.25
391.55	226.12
391.92	226.12
392.30	226.11
392.68	226.11
393.05	226.09
393.43	226.09
393.81	226.10
394.18	226.07
394.56	226.08
394.94	226.13
395.31	226.15
395.69	226.19
396.06	226.21
396.44	226.26
396.82	226.31
397.19	226.36
397.57	226.37
397.95	226.47
398.32	226.51
398.70	226.54
399.07	226.61
399.45	226.68
399.82	226.76
400.20	226.81
400.58	226.89
400.95	226.92
401.33	227.00
401.70	227.17
402.08	227.31
402.45	227.38
402.83	227.52
403.20	227.63
403.58	227.75
403.95	227.90
404.33	228.02
404.71	228.17
405.08	228.39
405.46	228.54
405.83	228.68
406.21	228.82
406.58	229.02
406.96	229.19
407.33	229.37
407.70	229.55
408.08	229.81
408.45	230.03
408.83	230.26
409.20	230.51
409.58	230.69
409.95	230.93
410.33	231.22
410.70	231.46
411.08	231.75
411.45	232.06
411.82	232.35
412.20	232.72
412.57	233.11
412.95	233.37
413.32	233.77
413.69	234.25
414.07	234.66
414.44	235.10
414.82	235.57
415.19	236.08
415.56	236.65
415.94	237.22
416.31	237.86
416.68	238.48
417.06	239.18
417.43	239.89
417.81	240.66
418.18	241.47
418.55	242.33
418.93	243.20
419.30	244.09
419.67	245.00
420.04	245.96
420.42	246.98
420.79	248.17
421.16	249.33
421.54	250.50
421.91	251.74
422.28	252.99
422.66	254.31
423.03	255.64
423.40	256.96
423.77	258.36
424.15	259.78
424.52	261.29
424.89	262.89
425.26	264.44
425.64	265.90
426.01	267.50
426.38	269.14
426.75	270.81
427.13	272.54
427.50	274.34
427.87	276.19
428.24	278.02
428.61	279.76
428.99	281.74
429.36	283.86
429.73	285.93
430.10	287.98
430.47	290.04
430.85	292.16
431.22	294.41
431.59	296.80
431.96	299.07
432.33	301.56
432.70	303.94
433.08	306.74
433.45	309.41
433.82	312.02
434.19	314.92
434.56	317.75
434.93	320.43
435.30	323.11
435.68	326.02
436.05	328.89
436.42	331.72
436.79	334.17
437.16	336.83
437.53	339.71
437.90	342.51
438.27	345.31
438.64	348.13
439.01	350.71
439.38	352.95
439.75	355.13
440.13	357.64
440.50	360.00
440.87	361.88
441.24	363.79
441.61	365.92
441.98	367.40
442.35	369.20
442.72	371.04
443.09	372.81
443.46	373.83
443.83	374.39
444.20	374.92
444.57	375.83
444.94	376.19
445.31	376.51
445.68	376.85
446.05	376.93
446.42	376.57
446.79	376.18
447.16	375.73
447.53	375.37
447.90	374.20
448.27	372.99
448.64	371.39
449.01	370.25
449.37	368.28
449.74	366.36
450.11	364.13
450.48	361.67
450.85	359.19
451.22	357.01
451.59	354.99
451.96	353.00
452.33	350.37
452.70	347.92
453.07	345.09
453.43	342.25
453.80	339.47
454.17	336.77
454.54	334.21
454.91	331.48
455.28	328.79
455.65	326.28
456.02	323.88
456.38	321.72
456.75	319.08
457.12	316.85
457.49	314.64
457.86	312.43
458.23	310.56
458.59	308.47
458.96	306.40
459.33	304.56
459.70	302.72
460.07	301.21
460.43	299.50
460.80	297.88
461.17	296.40
461.54	294.88
461.91	293.45
462.27	291.97
462.64	290.75
463.01	289.41
463.38	288.13
463.74	286.74
464.11	285.55
464.48	284.49
464.85	283.35
465.21	282.49
465.58	281.57
465.95	280.48
466.32	279.56
466.68	278.65
467.05	277.71
467.42	276.79
467.78	275.84
468.15	274.99
468.52	274.31
468.88	273.45
469.25	272.69
469.62	272.07
469.98	271.43
470.35	270.79
470.72	270.17
471.08	269.49
471.45	268.97
471.82	268.43
472.18	267.80
472.55	267.37
472.92	266.84
473.28	266.39
473.65	265.92
474.02	265.47
474.38	265.10
474.75	264.81
475.11	264.44
475.48	264.21
475.85	263.96
476.21	263.72
476.58	263.53
476.94	263.35
477.31	263.16
477.67	263.00
478.04	262.88
478.41	262.84
478.77	262.89
479.14	262.79
479.50	262.82
479.87	262.91
480.23	262.99
480.60	263.03
480.96	263.12
481.33	263.33
481.69	263.51
482.06	263.72
482.42	263.87
482.79	264.12
483.15	264.47
483.52	264.85
483.88	265.21
484.25	265.62
484.61	266.03
484.98	266.50
485.34	267.04
485.71	267.62
486.07	268.21
486.44	268.79
486.80	269.50
487.17	270.23
487.53	271.04
487.90	271.87
488.26	272.81
488.62	273.81
488.99	274.79
489.35	275.87
489.72	276.99
490.08	278.22
490.44	279.50
490.81	280.76
491.17	282.11
491.54	283.53
491.90	285.05
492.26	286.73
492.63	288.44
492.99	290.21
493.36	292.15
493.72	294.19
494.08	296.27
494.45	298.52
494.81	300.86
495.17	303.30
495.54	305.89
495.90	308.58
496.26	311.37
496.63	314.31
496.99	317.41
497.35	320.65
497.72	324.04
498.08	327.54
498.44	331.24
498.80	335.16
499.17	339.22
499.53	343.39
499.89	347.77
500.26	352.31
500.62	356.96
500.98	361.87
501.34	366.91
501.71	372.23
502.07	377.67
502.43	383.30
502.79	389.11
503.16	395.21
503.52	401.50
503.88	407.92
504.24	414.56
504.60	421.47
504.97	428.63
505.33	435.96
505.69	443.65
506.05	451.40
506.41	459.23
506.78	467.33
507.14	475.81
507.50	484.55
507.86	493.60
508.22	502.80
508.59	511.94
508.95	521.57
509.31	531.37
509.67	541.44
510.03	551.74
510.39	562.35
510.75	573.10
511.12	583.99
511.48	595.21
511.84	606.67
512.20	618.17
512.56	630.14
512.92	642.36
513.28	654.66
513.64	667.17
514.00	679.99
514.37	692.98
514.73	706.02
515.09	719.08
515.45	732.38
515.81	746.05
516.17	760.15
516.53	774.37
516.89	788.59
517.25	802.82
517.61	817.21
517.97	831.61
518.33	846.18
518.69	861.07
519.05	876.16
519.41	891.37
519.77	906.99
520.13	922.45
520.49	937.81
520.85	953.27
521.21	969.01
521.57	985.22
521.93	1001.03
522.29	1017.48
522.65	1033.74
523.01	1049.91
523.37	1065.93
523.73	1082.18
524.09	1098.25
524.45	1114.68
524.81	1131.31
525.17	1148.25
525.53	1165.23
525.89	1182.02
526.25	1198.73
526.61	1215.18
526.97	1231.93
527.33	1248.34
527.68	1264.99
528.04	1281.54
528.40	1298.34
528.76	1315.45
529.12	1332.09
529.48	1349.01
529.84	1365.16
530.20	1381.79
530.56	1398.89
530.91	1416.26
531.27	1433.02
531.63	1449.47
531.99	1466.09
532.35	1482.10
532.71	1498.02
533.07	1514.24
533.42	1530.18
533.78	1546.40
534.14	1562.69
534.50	1577.97
534.86	1593.90
535.21	1609.12
535.57	1625.04
535.93	1640.50
536.29	1655.40
536.65	1670.44
537.00	1685.28
537.36	1700.62
537.72	1715.21
538.08	1729.69
538.44	1743.69
538.79	1757.63
539.15	1771.38
539.51	1785.05
539.87	1799.53
540.22	1813.31
540.58	1827.31
540.94	1840.80
541.29	1853.85
541.65	1866.63
542.01	1880.04
542.37	1892.40
542.72	1904.86
543.08	1916.66
543.44	1929.06
543.79	1940.31
544.15	1951.45
544.51	1963.13
544.87	1974.02
545.22	1984.80
545.58	1995.01
545.94	2004.81
546.29	2014.64
546.65	2024.45
547.01	2033.73
547.36	2042.45
547.72	2050.93
548.07	2058.67
548.43	2066.66
548.79	2074.62
549.14	2082.11
549.50	2089.51
549.86	2097.32
550.21	2104.70
550.57	2111.88
550.92	2118.55
551.28	2125.59
551.64	2132.71
551.99	2139.16
552.35	2145.31
552.70	2151.54
553.06	2157.51
553.41	2163.81
553.77	2169.85
554.13	2176.07
554.48	2182.13
554.84	2187.55
555.19	2192.89
555.55	2198.11
555.90	2202.75
556.26	2207.66
556.61	2212.47
556.97	2216.66
557.32	2220.79
557.68	2224.90
558.03	2229.25
558.39	2233.08
558.74	2237.75
559.10	2241.43
559.45	2245.24
559.81	2249.63
560.16	2253.39
560.52	2256.61
560.87	2260.09
561.23	2262.83
561.58	2265.75
561.94	2268.42
562.29	2270.88
562.64	2273.61
563.00	2276.19
563.35	2279.61
563.71	2282.67
564.06	2285.96
564.42	2288.72
564.77	2291.28
565.12	2293.52
565.48	2295.31
565.83	2296.89
566.19	2298.15
566.54	2299.21
566.89	2300.20
567.25	2300.71
567.60	2302.17
567.96	2303.95
568.31	2304.69
568.66	2305.63
569.02	2306.17
569.37	2306.45
569.72	2307.20
570.08	2307.11
570.43	2307.05
570.78	2306.42
571.14	2304.93
571.49	2303.50
571.84	2303.19
572.20	2301.92
572.55	2300.94
572.90	2299.48
573.26	2298.13
573.61	2296.36
573.96	2294.46
574.31	2291.45
574.67	2288.47
575.02	2284.72
575.37	2281.31
575.72	2277.47
576.08	2274.41
576.43	2271.02
576.78	2267.43
577.13	2264.17
577.49	2261.13
577.84	2257.50
578.19	2253.74
578.54	2250.00
578.90	2245.59
579.25	2240.06
579.60	2235.05
579.95	2229.90
580.30	2224.71
580.66	2219.60
581.01	2214.65
581.36	2209.68
581.71	2205.52
582.06	2201.00
582.42	2196.43
582.77	2191.14
583.12	2186.54
583.47	2181.48
583.82	2176.25
584.17	2170.79
584.53	2165.27
584.88	2159.61
585.23	2153.84
585.58	2148.32
585.93	2142.76
586.28	2137.97
586.63	2132.76
586.98	2127.61
587.34	2122.82
587.69	2118.02
588.04	2112.49
588.39	2106.76
588.74	2100.27
589.09	2093.96
589.44	2086.98
589.79	2080.99
590.14	2075.22
590.49	2068.64
590.84	2062.23
591.19	2056.29
591.54	2049.75
591.89	2042.26
592.25	2035.40
592.60	2028.19
592.95	2020.46
593.30	2013.03
593.65	2005.34
594.00	1998.33
594.35	1991.06
594.70	1982.94
595.05	1975.56
595.40	1968.26
595.75	1960.68
596.10	1954.32
596.45	1947.50
596.80	1941.36
597.15	1934.62
597.50	1927.37
597.85	1920.95
598.19	1914.21
598.54	1907.19
598.89	1900.50
599.24	1894.55
599.59	1887.71
599.94	1881.53
600.29	1875.33
600.64	1868.79
600.99	1861.23
601.34	1854.32
601.69	1847.30
602.04	1840.23
602.39	1832.91
602.74	1826.09
603.08	1819.32
603.43	1812.71
603.78	1805.44
604.13	1798.23
604.48	1790.75
604.83	1783.97
605.18	1776.84
605.53	1768.80
605.87	1760.66
606.22	1753.52
606.57	1745.63
606.92	1738.44
607.27	1731.18
607.62	1724.22
607.96	1716.85
608.31	1710.32
608.66	1702.67
609.01	1695.04
609.36	1687.58
609.70	1679.54
610.05	1671.37
610.40	1663.60
610.75	1655.15
611.10	1647.48
611.44	1639.06
611.79	1631.12
612.14	1622.29
612.49	1613.18
612.83	1604.85
613.18	1596.66
613.53	1588.59
613.88	1580.01
614.22	1571.65
614.57	1563.04
614.92	1554.87
615.27	1547.25
615.61	1538.89
615.96	1530.89
616.31	1523.26
616.65	1515.93
617.00	1508.36
617.35	1500.73
617.70	1492.32
618.04	1483.79
618.39	1475.53
618.74	1467.85
619.08	1459.62
619.43	1452.16
619.78	1445.15
620.12	1437.96
620.47	1430.45
620.82	1422.17
621.16	1414.79
621.51	1407.09
621.85	1399.41
622.20	1390.94
622.55	1382.64
622.89	1374.83
623.24	1367.16
623.59	1359.79
623.93	1352.18
624.28	1344.98
624.62	1337.56
624.97	1330.47
625.32	1323.79
625.66	1316.71
626.01	1309.55
626.35	1302.00
626.70	1294.18
627.04	1286.47
627.39	1278.73
627.73	1271.34
628.08	1264.37
628.43	1257.00
628.77	1249.67
629.12	1242.01
629.46	1234.71
629.81	1227.31
630.15	1220.02
630.50	1212.63
630.84	1204.49
631.19	1196.66
631.53	1189.03
631.88	1181.39
632.22	1173.84
632.57	1166.50
632.91	1159.01
633.26	1151.52
633.60	1144.26
633.95	1137.28
634.29	1130.28
634.64	1123.55
634.98	1116.16
635.32	1109.08
635.67	1102.55
636.01	1095.96
636.36	1089.34
636.70	1082.89
637.05	1076.31
637.39	1069.85
637.73	1063.31
638.08	1057.45
638.42	1051.47
638.77	1045.12
639.11	1038.55
639.45	1032.18
639.80	1025.49
640.14	1018.95
640.49	1012.50
640.83	1006.15
641.17	999.90
641.52	993.56
641.86	987.15
642.20	981.30
642.55	975.00
642.89	968.47
643.23	961.94
643.58	956.12
643.92	950.04
644.26	943.98
644.61	937.95
644.95	931.99
645.29	925.34
645.64	918.57
645.98	912.20
646.32	906.36
646.66	900.27
647.01	894.44
647.35	888.80
647.69	882.95
648.04	877.48
648.38	871.68
648.72	865.67
649.06	859.64
649.41	853.73
649.75	847.70
650.09	841.77
650.43	835.95
650.78	829.78
651.12	823.80
651.46	818.10
651.80	812.37
652.14	806.98
652.49	801.63
652.83	796.52
653.17	790.83
653.51	785.10
653.85	779.71
654.20	774.12
654.54	768.11
654.88	762.42
655.22	756.54
655.56	750.80
655.90	745.36
656.25	740.05
656.59	734.75
656.93	729.67
657.27	724.56
657.61	719.10
657.95	714.06
658.29	708.95
658.64	703.65
658.98	698.39
659.32	692.89
659.66	687.69
660.00	682.33
660.34	677.41
660.68	672.54
661.02	667.53
661.36	662.80
661.70	658.36
662.05	653.98
662.39	649.65
662.73	645.22
663.07	640.82
663.41	636.40
663.75	631.85
664.09	627.41
664.43	622.98
664.77	618.90
665.11	614.65
665.45	610.56
665.79	606.50
666.13	602.31
666.47	598.21
666.81	594.04
667.15	589.88
667.49	585.96
667.83	582.17
668.17	578.18
668.51	574.10
668.85	570.10
669.19	566.24
669.53	562.33
669.87	558.40
670.21	554.69
670.55	551.03
670.89	547.66
671.23	544.13
671.57	540.62
671.91	537.02
672.25	533.48
672.58	529.93
672.92	526.55
673.26	523.43
673.60	520.29
673.94	517.16
674.28	514.32
674.62	511.37
674.96	508.18
675.30	505.28
675.64	502.42
675.97	499.66
676.31	496.79
676.65	493.87
676.99	491.16
677.33	488.31
677.67	485.44
678.01	482.37
678.34	479.40
678.68	476.56
679.02	473.77
679.36	471.07
679.70	468.38
680.04	465.57
680.37	462.67
680.71	459.89
681.05	457.27
681.39	454.50
681.73	451.88
682.06	449.42
682.40	446.86
682.74	444.33
683.08	441.73
683.42	439.14
683.75	436.73
684.09	434.23
684.43	431.77
684.77	429.36
685.10	427.05
685.44	424.81
685.78	422.50
686.12	420.29
686.45	417.96
686.79	415.67
687.13	413.52
687.46	411.40
687.80	409.24
688.14	407.01
688.48	404.98
688.81	402.69
689.15	400.57
689.49	398.40
689.82	396.29
690.16	394.23
690.50	392.32
690.83	390.32
691.17	388.35
691.51	386.40
691.84	384.61
692.18	382.69
692.52	380.67
692.85	378.79
693.19	376.90
693.52	375.17
693.86	373.38
694.20	371.61
694.53	369.81
694.87	367.99
695.21	366.24
695.54	364.41
695.88	362.71
696.21	360.98
696.55	359.36
696.88	357.67
697.22	355.99
697.56	354.39
697.89	352.77
698.23	351.13
698.56	349.58
698.90	347.96
699.23	346.32
699.57	344.79
699.90	343.24
700.24	341.69
700.58	340.10
700.91	338.62
701.25	337.16
701.58	335.77
701.92	334.43
702.25	333.09
702.59	331.73
702.92	330.39
703.26	329.07
703.59	327.76
703.93	326.58
704.26	325.38
704.60	324.03
704.93	322.75
705.26	321.54
705.60	320.36
705.93	319.20
706.27	318.13
706.60	317.08
706.94	315.98
707.27	314.85
707.61	313.77
707.94	312.72
708.27	311.63
708.61	310.53
708.94	309.52
709.28	308.52
709.61	307.58
709.94	306.63
710.28	305.60
710.61	304.62
710.95	303.54
711.28	302.63
711.61	301.68
711.95	300.78
712.28	299.84
712.61	298.86
712.95	297.91
713.28	297.01
713.61	296.10
713.95	295.17
714.28	294.32
714.61	293.42
714.95	292.57
715.28	291.73
715.61	290.86
715.95	289.99
716.28	289.14
716.61	288.28
716.95	287.46
717.28	286.71
717.61	285.97
717.94	285.25
718.28	284.41
718.61	283.67
718.94	282.95
719.27	282.27
719.61	281.61
719.94	280.93
720.27	280.25
720.60	279.57
720.94	278.97
721.27	278.37
721.60	277.82
721.93	277.26
722.27	276.72
722.60	276.19
722.93	275.65
723.26	275.08
723.59	274.52
723.93	274.00
724.26	273.46
724.59	272.89
724.92	272.37
725.25	271.90
725.59	271.41
725.92	270.92
726.25	270.42
726.58	269.94
726.91	269.50
727.24	269.06
727.57	268.58
727.91	268.11
728.24	267.64
728.57	267.14
728.90	266.66
729.23	266.10
729.56	265.70
729.89	265.28
730.22	264.81
730.55	264.38
730.89	263.95
731.22	263.51
731.55	263.10
731.88	262.68
732.21	262.27
732.54	261.84
732.87	261.43
733.20	261.04
733.53	260.64
733.86	260.24
734.19	259.83
734.52	259.48
734.85	259.17
735.18	258.75
735.51	258.44
735.84	258.09
736.17	257.79
736.50	257.36
736.83	257.10
737.16	256.75
737.49	256.44
737.82	256.11
738.15	255.77
738.48	255.44
738.81	255.11
739.14	254.81
739.47	254.50
739.80	254.18
740.13	253.87
740.46	253.55
740.79	253.23
741.12	252.92
741.45	252.60
741.78	252.27
742.11	252.02
742.44	251.66
742.77	251.40
743.10	251.12
743.43	250.81
743.75	250.42
744.08	250.30
744.41	249.97
744.74	249.67
745.07	249.42
745.40	249.17
745.73	248.93
746.06	248.61
746.39	248.31
746.71	248.02
747.04	247.76
747.37	247.48
747.70	247.26
748.03	247.04
748.36	246.81
748.68	246.57
749.01	246.32
749.34	246.08
749.67	245.81
750.00	245.54
750.33	245.42
750.65	245.21
750.98	244.83
751.31	244.65
751.64	244.43
751.97	244.26
752.29	244.01
752.62	243.77
752.95	243.54
753.28	243.35
753.60	243.15
753.93	242.95
754.26	242.74
754.59	242.49
754.91	242.28
755.24	242.07
755.57	241.85
755.90	241.68
756.22	241.50
756.55	241.31
756.88	241.15
757.20	240.87
757.53	240.66
757.86	240.51
758.19	240.34
758.51	240.19
758.84	239.97
759.17	239.82
759.49	239.63
759.82	239.49
760.15	239.37
760.47	239.21
760.80	239.05
761.13	238.96
761.45	238.81
761.78	238.64
762.11	238.50
762.43	238.34
762.76	238.18
763.08	238.04
763.41	237.88
763.74	237.75
764.06	237.63
764.39	237.49
764.71	237.34
765.04	237.18
765.37	237.02
765.69	236.90
766.02	236.79
766.34	236.66
766.67	236.54
767.00	236.39
767.32	236.34
767.65	236.29
767.97	236.12
768.30	235.99
768.62	235.89
768.95	235.79
769.27	235.69
769.60	235.60
769.92	235.52
770.25	235.42
770.57	235.30
770.90	235.20
771.22	235.09
771.55	235.04
771.87	234.99
772.20	234.90
772.52	234.91
772.85	234.89
773.17	234.81
773.50	234.71
773.82	234.65
774.15	234.51
774.47	234.37
774.80	234.28
775.12	234.22
775.45	234.11
775.77	234.00
776.09	233.94
776.42	233.85
776.74	233.78
777.07	233.67
777.39	233.59
777.72	233.51
778.04	233.48
778.36	233.40
778.69	233.32
779.01	233.27
779.33	233.13
779.66	232.97
779.98	232.92
780.31	232.87
780.63	232.82
780.95	232.80
781.28	232.75
781.60	232.71
781.92	232.64
782.25	232.60
782.57	232.56
782.89	232.49
783.22	232.45
783.54	232.34
783.86	232.31
784.19	232.27
784.51	232.25
784.83	232.19
785.16	232.10
785.48	232.05
785.80	232.01
786.12	231.97
786.45	231.95
786.77	231.89
787.09	231.83
