SpectraSuite Data File
++++++++++++++++++++++++++++++++++++
Date: Fri Feb 01 15:48:31 EST 2013
User: group
Dark Spectrum Present: No
Reference Spectrum Present: No
Number of Sampled Component Spectra: 1
Spectrometers: USB2E7196
Integration Time (usec): 35000 (USB2E7196)
Spectra Averaged: 100 (USB2E7196)
Boxcar Smoothing: 10 (USB2E7196)
Correct for Electrical Dark: No (USB2E7196)
Strobe/Lamp Enabled: No (USB2E7196)
Correct for Detector Non-linearity: No (USB2E7196)
Correct for Stray Light: No (USB2E7196)
Number of Pixels in Processed Spectrum: 2048
>>>>>Begin Processed Spectral Data<<<<<
339.09	0.00
339.48	215.27
339.86	215.75
340.24	217.07
340.63	219.36
341.01	221.57
341.39	222.12
341.78	223.13
342.16	223.84
342.54	225.03
342.93	213.08
343.31	223.85
343.69	224.36
344.07	224.83
344.46	225.26
344.84	225.62
345.22	225.87
345.60	226.09
345.99	226.27
346.37	226.39
346.75	226.47
347.13	226.53
347.52	226.59
347.90	226.67
348.28	226.71
348.66	226.76
349.05	226.74
349.43	226.75
349.81	226.79
350.19	226.83
350.57	226.84
350.96	226.89
351.34	226.96
351.72	227.03
352.10	227.10
352.48	227.19
352.87	227.25
353.25	227.31
353.63	227.38
354.01	227.41
354.39	227.51
354.77	227.59
355.15	227.72
355.54	227.77
355.92	227.79
356.30	227.85
356.68	227.95
357.06	228.06
357.44	228.13
357.82	228.19
358.20	228.28
358.58	228.35
358.97	228.44
359.35	228.52
359.73	228.62
360.11	228.71
360.49	228.76
360.87	228.77
361.25	228.81
361.63	228.87
362.01	228.93
362.39	228.98
362.77	229.04
363.15	229.02
363.53	229.07
363.91	229.12
364.29	229.12
364.67	229.07
365.05	229.08
365.43	229.12
365.81	229.15
366.19	229.19
366.57	229.27
366.95	229.27
367.33	229.24
367.71	229.22
368.09	229.24
368.47	229.23
368.85	229.25
369.23	229.26
369.61	229.25
369.99	229.26
370.37	229.22
370.75	229.22
371.13	229.20
371.51	229.18
371.89	229.16
372.27	229.16
372.65	229.11
373.03	229.07
373.41	228.99
373.78	228.93
374.16	228.85
374.54	228.75
374.92	228.68
375.30	228.65
375.68	228.61
376.06	228.56
376.44	228.53
376.82	228.48
377.19	228.38
377.57	228.29
377.95	228.20
378.33	228.15
378.71	228.03
379.09	227.97
379.47	227.92
379.84	227.79
380.22	227.70
380.60	227.60
380.98	227.53
381.36	227.49
381.73	227.39
382.11	227.34
382.49	227.29
382.87	227.23
383.25	227.18
383.62	227.22
384.00	227.13
384.38	227.06
384.76	227.04
385.13	227.07
385.51	227.06
385.89	227.00
386.27	226.94
386.64	226.90
387.02	226.84
387.40	226.75
387.78	226.73
388.15	226.70
388.53	226.67
388.91	226.63
389.29	226.59
389.66	226.57
390.04	226.53
390.42	226.54
390.79	226.51
391.17	226.45
391.55	226.31
391.92	226.32
392.30	226.28
392.68	226.23
393.05	226.18
393.43	226.18
393.81	226.20
394.18	226.20
394.56	226.23
394.94	226.24
395.31	226.28
395.69	226.34
396.06	226.38
396.44	226.42
396.82	226.44
397.19	226.53
397.57	226.58
397.95	226.66
398.32	226.65
398.70	226.70
399.07	226.81
399.45	226.88
399.82	226.93
400.20	227.00
400.58	227.11
400.95	227.14
401.33	227.22
401.70	227.36
402.08	227.42
402.45	227.52
402.83	227.64
403.20	227.75
403.58	227.86
403.95	228.00
404.33	228.12
404.71	228.26
405.08	228.46
405.46	228.59
405.83	228.74
406.21	228.90
406.58	229.07
406.96	229.24
407.33	229.40
407.70	229.58
408.08	229.85
408.45	230.04
408.83	230.30
409.20	230.50
409.58	230.69
409.95	231.00
410.33	231.28
410.70	231.54
411.08	231.86
411.45	232.16
411.82	232.48
412.20	232.87
412.57	233.28
412.95	233.57
413.32	233.96
413.69	234.37
414.07	234.83
414.44	235.32
414.82	235.76
415.19	236.32
415.56	236.91
415.94	237.48
416.31	238.13
416.68	238.77
417.06	239.52
417.43	240.19
417.81	240.93
418.18	241.70
418.55	242.53
418.93	243.43
419.30	244.30
419.67	245.22
420.04	246.13
420.42	247.11
420.79	248.29
421.16	249.46
421.54	250.64
421.91	251.81
422.28	253.07
422.66	254.43
423.03	255.75
423.40	257.07
423.77	258.43
424.15	259.85
424.52	261.33
424.89	262.93
425.26	264.51
425.64	265.95
426.01	267.55
426.38	269.20
426.75	270.84
427.13	272.54
427.50	274.39
427.87	276.29
428.24	278.18
428.61	279.92
428.99	281.85
429.36	283.95
429.73	286.04
430.10	288.06
430.47	290.08
430.85	292.20
431.22	294.40
431.59	296.82
431.96	299.07
432.33	301.57
432.70	303.94
433.08	306.74
433.45	309.43
433.82	312.05
434.19	314.96
434.56	317.80
434.93	320.50
435.30	323.11
435.68	326.00
436.05	328.77
436.42	331.54
436.79	334.09
437.16	336.79
437.53	339.60
437.90	342.42
438.27	345.19
438.64	348.00
439.01	350.65
439.38	352.86
439.75	355.03
440.13	357.48
440.50	359.86
440.87	361.72
441.24	363.65
441.61	365.80
441.98	367.24
442.35	369.04
442.72	370.92
443.09	372.70
443.46	373.70
443.83	374.31
444.20	374.85
444.57	375.64
444.94	375.90
445.31	376.25
445.68	376.56
446.05	376.60
446.42	376.20
446.79	375.76
447.16	375.32
447.53	375.01
447.90	373.89
448.27	372.66
448.64	371.12
449.01	369.96
449.37	367.99
449.74	366.10
450.11	363.80
450.48	361.31
450.85	358.78
451.22	356.60
451.59	354.58
451.96	352.62
452.33	350.02
452.70	347.68
453.07	344.83
453.43	341.95
453.80	339.19
454.17	336.53
454.54	333.92
454.91	331.18
455.28	328.45
455.65	325.92
456.02	323.47
456.38	321.23
456.75	318.55
457.12	316.25
457.49	313.99
457.86	311.86
458.23	310.02
458.59	307.99
458.96	305.90
459.33	304.04
459.70	302.14
460.07	300.65
460.43	298.94
460.80	297.30
461.17	295.85
461.54	294.38
461.91	292.94
462.27	291.53
462.64	290.26
463.01	288.94
463.38	287.68
463.74	286.32
464.11	285.17
464.48	284.14
464.85	283.04
465.21	282.22
465.58	281.29
465.95	280.14
466.32	279.21
466.68	278.35
467.05	277.49
467.42	276.65
467.78	275.69
468.15	274.79
468.52	274.16
468.88	273.36
469.25	272.60
469.62	271.95
469.98	271.31
470.35	270.69
470.72	270.12
471.08	269.43
471.45	268.87
471.82	268.34
472.18	267.79
472.55	267.36
472.92	266.83
473.28	266.37
473.65	265.95
474.02	265.54
474.38	265.17
474.75	264.86
475.11	264.51
475.48	264.31
475.85	264.11
476.21	263.88
476.58	263.64
476.94	263.52
477.31	263.38
477.67	263.22
478.04	263.10
478.41	263.06
478.77	263.16
479.14	263.15
479.50	263.17
479.87	263.22
480.23	263.37
480.60	263.45
480.96	263.58
481.33	263.78
481.69	264.00
482.06	264.19
482.42	264.38
482.79	264.64
483.15	264.94
483.52	265.32
483.88	265.70
484.25	266.12
484.61	266.53
484.98	267.00
485.34	267.55
485.71	268.15
486.07	268.70
486.44	269.25
486.80	269.95
487.17	270.65
487.53	271.49
487.90	272.31
488.26	273.22
488.62	274.17
488.99	275.15
489.35	276.17
489.72	277.31
490.08	278.47
490.44	279.70
490.81	281.04
491.17	282.38
491.54	283.84
491.90	285.38
492.26	287.02
492.63	288.75
492.99	290.51
493.36	292.41
493.72	294.45
494.08	296.53
494.45	298.80
494.81	301.16
495.17	303.56
495.54	306.11
495.90	308.82
496.26	311.60
496.63	314.54
496.99	317.64
497.35	320.90
497.72	324.33
498.08	327.85
498.44	331.47
498.80	335.39
499.17	339.42
499.53	343.61
499.89	348.01
500.26	352.48
500.62	357.16
500.98	362.11
501.34	367.15
501.71	372.41
502.07	377.81
502.43	383.46
502.79	389.28
503.16	395.33
503.52	401.63
503.88	408.07
504.24	414.69
504.60	421.60
504.97	428.68
505.33	435.96
505.69	443.64
506.05	451.46
506.41	459.32
506.78	467.44
507.14	475.78
507.50	484.38
507.86	493.47
508.22	502.63
508.59	511.88
508.95	521.46
509.31	531.35
509.67	541.52
510.03	551.82
510.39	562.34
510.75	573.20
511.12	584.05
511.48	595.37
511.84	606.83
512.20	618.35
512.56	630.37
512.92	642.58
513.28	654.93
513.64	667.32
514.00	680.06
514.37	692.96
514.73	706.11
515.09	719.27
515.45	732.49
515.81	746.17
516.17	760.15
516.53	774.28
516.89	788.45
517.25	802.57
517.61	817.01
517.97	831.57
518.33	845.97
518.69	860.75
519.05	875.71
519.41	890.96
519.77	906.45
520.13	921.93
520.49	937.34
520.85	952.83
521.21	968.68
521.57	984.93
521.93	1000.78
522.29	1017.17
522.65	1033.36
523.01	1049.60
523.37	1065.55
523.73	1081.77
524.09	1097.91
524.45	1114.26
524.81	1130.94
525.17	1147.65
525.53	1164.47
525.89	1181.41
526.25	1198.22
526.61	1214.53
526.97	1231.27
527.33	1247.72
527.68	1264.21
528.04	1280.62
528.40	1297.21
528.76	1314.26
529.12	1330.84
529.48	1347.70
529.84	1363.70
530.20	1380.37
530.56	1397.43
530.91	1414.86
531.27	1431.53
531.63	1447.95
531.99	1464.48
532.35	1480.36
532.71	1496.17
533.07	1512.44
533.42	1528.23
533.78	1544.18
534.14	1560.51
534.50	1575.80
534.86	1591.75
535.21	1606.86
535.57	1622.78
535.93	1638.30
536.29	1652.93
536.65	1668.00
537.00	1682.73
537.36	1698.00
537.72	1712.50
538.08	1726.83
538.44	1740.58
538.79	1754.48
539.15	1768.25
539.51	1781.91
539.87	1796.31
540.22	1810.07
540.58	1823.85
540.94	1837.23
541.29	1850.29
541.65	1863.01
542.01	1876.24
542.37	1888.50
542.72	1901.04
543.08	1912.85
543.44	1925.23
543.79	1936.48
544.15	1947.47
544.51	1959.02
544.87	1969.97
545.22	1980.82
545.58	1990.97
545.94	2000.71
546.29	2010.64
546.65	2020.49
547.01	2029.77
547.36	2038.45
547.72	2046.88
548.07	2054.66
548.43	2062.94
548.79	2071.02
549.14	2078.53
549.50	2085.81
549.86	2093.50
550.21	2100.81
550.57	2108.01
550.92	2114.48
551.28	2121.62
551.64	2128.64
551.99	2135.19
552.35	2141.41
552.70	2147.55
553.06	2153.69
553.41	2160.01
553.77	2166.00
554.13	2171.95
554.48	2178.11
554.84	2183.66
555.19	2189.13
555.55	2194.33
555.90	2198.70
556.26	2203.53
556.61	2208.28
556.97	2212.56
557.32	2216.79
557.68	2220.93
558.03	2225.16
558.39	2228.97
558.74	2233.51
559.10	2237.43
559.45	2241.02
559.81	2245.33
560.16	2249.13
560.52	2252.28
560.87	2255.67
561.23	2258.43
561.58	2261.56
561.94	2264.18
562.29	2266.47
562.64	2269.02
563.00	2271.57
563.35	2275.18
563.71	2278.18
564.06	2281.34
564.42	2284.11
564.77	2286.49
565.12	2288.61
565.48	2290.51
565.83	2292.28
566.19	2293.56
566.54	2294.44
566.89	2295.57
567.25	2295.97
567.60	2297.26
567.96	2298.89
568.31	2299.88
568.66	2300.80
569.02	2301.36
569.37	2301.62
569.72	2302.44
570.08	2302.60
570.43	2302.79
570.78	2302.11
571.14	2300.77
571.49	2299.35
571.84	2299.09
572.20	2297.93
572.55	2296.98
572.90	2295.44
573.26	2294.02
573.61	2292.51
573.96	2290.58
574.31	2287.74
574.67	2284.94
575.02	2281.37
575.37	2278.00
575.72	2274.00
576.08	2270.58
576.43	2267.19
576.78	2263.58
577.13	2260.53
577.49	2257.62
577.84	2254.02
578.19	2250.33
578.54	2246.59
578.90	2242.37
579.25	2236.82
579.60	2231.80
579.95	2226.80
580.30	2221.75
580.66	2216.65
581.01	2211.62
581.36	2206.79
581.71	2202.64
582.06	2198.06
582.42	2193.51
582.77	2188.27
583.12	2183.85
583.47	2179.28
583.82	2174.16
584.17	2168.75
584.53	2163.08
584.88	2157.20
585.23	2151.30
585.58	2145.76
585.93	2140.41
586.28	2135.72
586.63	2130.70
586.98	2125.67
587.34	2120.98
587.69	2116.06
588.04	2110.67
588.39	2104.86
588.74	2098.48
589.09	2092.20
589.44	2085.46
589.79	2079.53
590.14	2074.00
590.49	2067.45
590.84	2060.91
591.19	2054.86
591.54	2048.40
591.89	2040.99
592.25	2034.15
592.60	2026.94
592.95	2019.28
593.30	2011.66
593.65	2003.87
594.00	1996.88
594.35	1989.66
594.70	1981.64
595.05	1974.45
595.40	1967.23
595.75	1959.91
596.10	1953.62
596.45	1946.95
596.80	1940.77
597.15	1933.97
597.50	1926.64
597.85	1920.23
598.19	1913.54
598.54	1906.47
598.89	1899.85
599.24	1894.05
599.59	1887.45
599.94	1881.30
600.29	1874.94
600.64	1868.49
600.99	1861.19
601.34	1854.27
601.69	1847.33
602.04	1840.41
602.39	1833.01
602.74	1826.12
603.08	1819.27
603.43	1812.52
603.78	1805.15
604.13	1798.04
604.48	1790.82
604.83	1784.16
605.18	1777.07
605.53	1769.19
605.87	1761.16
606.22	1754.02
606.57	1745.97
606.92	1738.60
607.27	1731.42
607.62	1724.60
607.96	1717.29
608.31	1710.67
608.66	1703.05
609.01	1695.43
609.36	1687.84
609.70	1679.91
610.05	1671.86
610.40	1664.06
610.75	1655.74
611.10	1648.03
611.44	1639.56
611.79	1631.51
612.14	1622.74
612.49	1613.59
612.83	1605.21
613.18	1597.11
613.53	1588.87
613.88	1580.40
614.22	1572.12
614.57	1563.49
614.92	1555.40
615.27	1547.79
615.61	1539.41
615.96	1531.46
616.31	1523.89
616.65	1516.55
617.00	1508.93
617.35	1501.36
617.70	1493.12
618.04	1484.59
618.39	1476.53
618.74	1468.88
619.08	1460.51
619.43	1453.00
619.78	1446.10
620.12	1438.83
620.47	1431.31
620.82	1423.31
621.16	1415.93
621.51	1408.35
621.85	1400.87
622.20	1392.42
622.55	1384.12
622.89	1376.36
623.24	1368.66
623.59	1361.35
623.93	1353.86
624.28	1346.56
624.62	1338.91
624.97	1331.75
625.32	1324.97
625.66	1317.87
626.01	1310.69
626.35	1303.38
626.70	1295.52
627.04	1287.79
627.39	1280.18
627.73	1272.81
628.08	1265.70
628.43	1258.32
628.77	1250.99
629.12	1243.38
629.46	1236.16
629.81	1228.83
630.15	1221.49
630.50	1214.09
630.84	1205.76
631.19	1197.70
631.53	1190.32
631.88	1182.86
632.22	1175.23
632.57	1168.03
632.91	1160.46
633.26	1153.08
633.60	1145.71
633.95	1138.71
634.29	1131.70
634.64	1124.97
634.98	1117.52
635.32	1110.42
635.67	1103.81
636.01	1097.17
636.36	1090.31
636.70	1083.83
637.05	1077.14
637.39	1070.77
637.73	1064.28
638.08	1058.51
638.42	1052.60
638.77	1046.11
639.11	1039.48
639.45	1033.10
639.80	1026.37
640.14	1019.89
640.49	1013.30
640.83	1006.98
641.17	1000.67
641.52	994.25
641.86	987.79
642.20	981.93
642.55	975.65
642.89	969.17
643.23	962.66
643.58	956.86
643.92	950.57
644.26	944.46
644.61	938.43
644.95	932.39
645.29	925.69
645.64	918.89
645.98	912.54
646.32	906.71
646.66	900.68
647.01	894.76
647.35	889.06
647.69	883.19
648.04	877.72
648.38	871.86
648.72	865.86
649.06	859.84
649.41	853.99
649.75	848.02
650.09	842.16
650.43	836.23
650.78	830.09
651.12	824.16
651.46	818.45
651.80	812.60
652.14	807.16
652.49	801.84
652.83	796.71
653.17	791.00
653.51	785.29
653.85	779.91
654.20	774.39
654.54	768.46
654.88	762.81
655.22	756.82
655.56	751.27
655.90	745.82
656.25	740.52
656.59	735.16
656.93	730.12
657.27	724.90
657.61	719.58
657.95	714.49
658.29	709.38
658.64	704.16
658.98	698.86
659.32	693.43
659.66	688.25
660.00	682.94
660.34	678.00
660.68	673.01
661.02	667.91
661.36	663.21
661.70	658.69
662.05	654.27
662.39	649.97
662.73	645.47
663.07	641.13
663.41	636.67
663.75	632.17
664.09	627.63
664.43	623.24
664.77	619.12
665.11	614.80
665.45	610.75
665.79	606.63
666.13	602.52
666.47	598.37
666.81	594.20
667.15	590.11
667.49	586.26
667.83	582.51
668.17	578.62
668.51	574.55
668.85	570.53
669.19	566.70
669.53	562.84
669.87	558.94
670.21	555.26
670.55	551.64
670.89	548.24
671.23	544.74
671.57	541.20
671.91	537.61
672.25	534.15
672.58	530.60
672.92	527.20
673.26	524.10
673.60	520.96
673.94	517.77
674.28	514.90
674.62	511.93
674.96	508.84
675.30	505.89
675.64	502.92
675.97	500.10
676.31	497.19
676.65	494.25
676.99	491.51
677.33	488.59
677.67	485.78
678.01	482.69
678.34	479.70
678.68	476.85
679.02	474.07
679.36	471.35
679.70	468.65
680.04	465.94
680.37	463.07
680.71	460.25
681.05	457.69
681.39	454.88
681.73	452.27
682.06	449.75
682.40	447.21
682.74	444.73
683.08	442.18
683.42	439.66
683.75	437.17
684.09	434.69
684.43	432.24
684.77	429.80
685.10	427.46
685.44	425.22
685.78	422.95
686.12	420.70
686.45	418.38
686.79	416.05
687.13	413.89
687.46	411.71
687.80	409.57
688.14	407.37
688.48	405.36
688.81	403.07
689.15	400.89
689.49	398.74
689.82	396.65
690.16	394.58
690.50	392.62
690.83	390.70
691.17	388.70
691.51	386.82
691.84	384.99
692.18	383.10
692.52	381.10
692.85	379.14
693.19	377.24
693.52	375.46
693.86	373.65
694.20	371.84
694.53	370.07
694.87	368.29
695.21	366.51
695.54	364.64
695.88	362.92
696.21	361.20
696.55	359.56
696.88	357.87
697.22	356.25
697.56	354.63
697.89	352.99
698.23	351.38
698.56	349.75
698.90	348.12
699.23	346.45
699.57	344.92
699.90	343.39
700.24	341.81
700.58	340.25
700.91	338.75
701.25	337.30
701.58	335.91
701.92	334.54
702.25	333.18
702.59	331.85
702.92	330.52
703.26	329.20
703.59	327.86
703.93	326.68
704.26	325.42
704.60	324.09
704.93	322.78
705.26	321.52
705.60	320.39
705.93	319.21
706.27	318.16
706.60	317.07
706.94	315.99
707.27	314.91
707.61	313.83
707.94	312.79
708.27	311.70
708.61	310.63
708.94	309.62
709.28	308.57
709.61	307.61
709.94	306.60
710.28	305.60
710.61	304.67
710.95	303.59
711.28	302.69
711.61	301.74
711.95	300.84
712.28	299.90
712.61	298.89
712.95	297.98
713.28	297.13
713.61	296.26
713.95	295.36
714.28	294.55
714.61	293.70
714.95	292.88
715.28	292.05
715.61	291.13
715.95	290.27
716.28	289.42
716.61	288.59
716.95	287.84
717.28	287.11
717.61	286.33
717.94	285.60
718.28	284.78
718.61	284.07
718.94	283.35
719.27	282.71
719.61	282.08
719.94	281.41
720.27	280.62
720.60	279.96
720.94	279.36
721.27	278.73
721.60	278.14
721.93	277.53
722.27	276.95
722.60	276.42
722.93	275.86
723.26	275.33
723.59	274.77
723.93	274.23
724.26	273.64
724.59	273.10
724.92	272.60
725.25	272.12
725.59	271.58
725.92	271.11
726.25	270.60
726.58	270.06
726.91	269.57
727.24	269.14
727.57	268.66
727.91	268.14
728.24	267.68
728.57	267.20
728.90	266.77
729.23	266.31
729.56	265.88
729.89	265.44
730.22	264.96
730.55	264.48
730.89	264.03
731.22	263.61
731.55	263.14
731.88	262.69
732.21	262.26
732.54	261.83
732.87	261.40
733.20	260.97
733.53	260.62
733.86	260.26
734.19	259.88
734.52	259.51
734.85	259.19
735.18	258.77
735.51	258.42
735.84	258.04
736.17	257.67
736.50	257.29
736.83	257.05
737.16	256.73
737.49	256.45
737.82	256.11
738.15	255.80
738.48	255.48
738.81	255.16
739.14	254.83
739.47	254.52
739.80	254.21
740.13	253.92
740.46	253.58
740.79	253.25
741.12	252.95
741.45	252.63
741.78	252.30
742.11	252.06
742.44	251.73
742.77	251.46
743.10	251.15
743.43	250.87
743.75	250.48
744.08	250.31
744.41	250.02
744.74	249.73
745.07	249.41
745.40	249.15
745.73	248.94
746.06	248.69
746.39	248.43
746.71	248.14
747.04	247.85
747.37	247.62
747.70	247.38
748.03	247.12
748.36	246.93
748.68	246.68
749.01	246.39
749.34	246.14
749.67	245.87
750.00	245.62
750.33	245.46
750.65	245.24
750.98	244.91
751.31	244.68
751.64	244.46
751.97	244.31
752.29	244.08
752.62	243.83
752.95	243.60
753.28	243.39
753.60	243.19
753.93	243.01
754.26	242.80
754.59	242.56
754.91	242.37
755.24	242.13
755.57	241.92
755.90	241.76
756.22	241.57
756.55	241.40
756.88	241.20
757.20	240.97
757.53	240.75
757.86	240.55
758.19	240.38
758.51	240.21
758.84	239.99
759.17	239.83
759.49	239.66
759.82	239.55
760.15	239.38
760.47	239.23
760.80	239.07
761.13	238.94
761.45	238.79
761.78	238.61
762.11	238.46
762.43	238.32
762.76	238.20
763.08	238.09
763.41	237.94
763.74	237.83
764.06	237.67
764.39	237.55
764.71	237.43
765.04	237.30
765.37	237.18
765.69	237.03
766.02	236.90
766.34	236.78
766.67	236.62
767.00	236.54
767.32	236.47
767.65	236.40
767.97	236.28
768.30	236.17
768.62	236.08
768.95	235.93
769.27	235.82
769.60	235.71
769.92	235.58
770.25	235.46
770.57	235.33
770.90	235.23
771.22	235.09
771.55	235.00
771.87	234.91
772.20	234.80
772.52	234.80
772.85	234.83
773.17	234.72
773.50	234.60
773.82	234.48
774.15	234.35
774.47	234.16
774.80	234.03
775.12	233.97
775.45	233.87
775.77	233.81
776.09	233.71
776.42	233.62
776.74	233.57
777.07	233.47
777.39	233.40
777.72	233.31
778.04	233.27
778.36	233.18
778.69	233.14
779.01	233.08
779.33	232.95
779.66	232.79
779.98	232.70
780.31	232.68
780.63	232.68
780.95	232.63
781.28	232.62
781.60	232.59
781.92	232.53
782.25	232.48
782.57	232.43
782.89	232.41
783.22	232.33
783.54	232.26
783.86	232.24
784.19	232.17
784.51	232.15
784.83	232.10
785.16	232.07
785.48	231.99
785.80	231.95
786.12	231.87
786.45	231.81
786.77	231.81
787.09	231.76
