SpectraSuite Data File
++++++++++++++++++++++++++++++++++++
Date: Fri Feb 01 16:02:29 EST 2013
User: group
Dark Spectrum Present: No
Reference Spectrum Present: No
Number of Sampled Component Spectra: 1
Spectrometers: USB2E7196
Integration Time (usec): 35000 (USB2E7196)
Spectra Averaged: 100 (USB2E7196)
Boxcar Smoothing: 10 (USB2E7196)
Correct for Electrical Dark: No (USB2E7196)
Strobe/Lamp Enabled: No (USB2E7196)
Correct for Detector Non-linearity: No (USB2E7196)
Correct for Stray Light: No (USB2E7196)
Number of Pixels in Processed Spectrum: 2048
>>>>>Begin Processed Spectral Data<<<<<
339.09	0.00
339.48	214.98
339.86	216.07
340.24	217.70
340.63	218.90
341.01	222.15
341.39	221.24
341.78	223.70
342.16	223.56
342.54	224.67
342.93	213.04
343.31	223.79
343.69	224.30
344.07	224.78
344.46	225.19
344.84	225.58
345.22	225.78
345.60	226.05
345.99	226.22
346.37	226.37
346.75	226.48
347.13	226.59
347.52	226.66
347.90	226.74
348.28	226.79
348.66	226.83
349.05	226.80
349.43	226.81
349.81	226.86
350.19	226.94
350.57	226.98
350.96	227.07
351.34	227.16
351.72	227.22
352.10	227.29
352.48	227.35
352.87	227.35
353.25	227.43
353.63	227.49
354.01	227.52
354.39	227.61
354.77	227.65
355.15	227.70
355.54	227.72
355.92	227.72
356.30	227.79
356.68	227.87
357.06	227.94
357.44	228.01
357.82	228.04
358.20	228.05
358.58	228.09
358.97	228.11
359.35	228.18
359.73	228.27
360.11	228.31
360.49	228.35
360.87	228.40
361.25	228.44
361.63	228.48
362.01	228.52
362.39	228.52
362.77	228.56
363.15	228.61
363.53	228.63
363.91	228.66
364.29	228.70
364.67	228.67
365.05	228.70
365.43	228.71
365.81	228.73
366.19	228.77
366.57	228.85
366.95	228.85
367.33	228.80
367.71	228.79
368.09	228.83
368.47	228.84
368.85	228.79
369.23	228.80
369.61	228.74
369.99	228.77
370.37	228.76
370.75	228.81
371.13	228.72
371.51	228.69
371.89	228.66
372.27	228.60
372.65	228.57
373.03	228.53
373.41	228.48
373.78	228.42
374.16	228.31
374.54	228.22
374.92	228.16
375.30	228.12
375.68	228.04
376.06	227.97
376.44	227.91
376.82	227.90
377.19	227.82
377.57	227.77
377.95	227.66
378.33	227.58
378.71	227.46
379.09	227.43
379.47	227.39
379.84	227.35
380.22	227.29
380.60	227.20
380.98	227.15
381.36	227.07
381.73	227.02
382.11	227.00
382.49	226.96
382.87	226.90
383.25	226.85
383.62	226.90
384.00	226.81
384.38	226.75
384.76	226.72
385.13	226.69
385.51	226.65
385.89	226.60
386.27	226.58
386.64	226.53
387.02	226.48
387.40	226.42
387.78	226.38
388.15	226.34
388.53	226.31
388.91	226.25
389.29	226.24
389.66	226.23
390.04	226.22
390.42	226.19
390.79	226.17
391.17	226.16
391.55	226.06
391.92	226.07
392.30	226.08
392.68	226.07
393.05	226.08
393.43	226.10
393.81	226.15
394.18	226.16
394.56	226.18
394.94	226.23
395.31	226.26
395.69	226.34
396.06	226.38
396.44	226.43
396.82	226.50
397.19	226.59
397.57	226.63
397.95	226.63
398.32	226.67
398.70	226.75
399.07	226.86
399.45	226.93
399.82	226.98
400.20	227.07
400.58	227.15
400.95	227.18
401.33	227.25
401.70	227.36
402.08	227.46
402.45	227.55
402.83	227.65
403.20	227.72
403.58	227.78
403.95	227.89
404.33	227.99
404.71	228.09
405.08	228.24
405.46	228.38
405.83	228.57
406.21	228.69
406.58	228.84
406.96	228.95
407.33	229.14
407.70	229.36
408.08	229.62
408.45	229.83
408.83	230.06
409.20	230.29
409.58	230.47
409.95	230.71
410.33	230.98
410.70	231.27
411.08	231.58
411.45	231.88
411.82	232.19
412.20	232.56
412.57	232.98
412.95	233.29
413.32	233.70
413.69	234.11
414.07	234.55
414.44	235.00
414.82	235.49
415.19	236.01
415.56	236.56
415.94	237.08
416.31	237.74
416.68	238.36
417.06	239.06
417.43	239.77
417.81	240.51
418.18	241.25
418.55	242.08
418.93	242.95
419.30	243.86
419.67	244.81
420.04	245.76
420.42	246.75
420.79	247.93
421.16	249.09
421.54	250.24
421.91	251.44
422.28	252.69
422.66	254.01
423.03	255.34
423.40	256.64
423.77	258.06
424.15	259.48
424.52	260.97
424.89	262.62
425.26	264.15
425.64	265.62
426.01	267.26
426.38	268.93
426.75	270.62
427.13	272.31
427.50	274.13
427.87	276.03
428.24	277.90
428.61	279.63
428.99	281.56
429.36	283.68
429.73	285.78
430.10	287.82
430.47	289.87
430.85	291.98
431.22	294.26
431.59	296.64
431.96	298.86
432.33	301.34
432.70	303.69
433.08	306.53
433.45	309.16
433.82	311.71
434.19	314.56
434.56	317.34
434.93	320.04
435.30	322.63
435.68	325.50
436.05	328.31
436.42	331.13
436.79	333.65
437.16	336.35
437.53	339.15
437.90	342.01
438.27	344.76
438.64	347.54
439.01	350.12
439.38	352.33
439.75	354.53
440.13	357.02
440.50	359.35
440.87	361.13
441.24	363.00
441.61	365.19
441.98	366.69
442.35	368.46
442.72	370.26
443.09	372.08
443.46	373.05
443.83	373.64
444.20	374.11
444.57	374.92
444.94	375.18
445.31	375.50
445.68	375.72
446.05	375.81
446.42	375.43
446.79	374.92
447.16	374.43
447.53	374.09
447.90	372.92
448.27	371.74
448.64	370.18
449.01	369.11
449.37	367.14
449.74	365.21
450.11	363.01
450.48	360.57
450.85	358.03
451.22	355.88
451.59	353.85
451.96	351.91
452.33	349.27
452.70	346.94
453.07	344.12
453.43	341.26
453.80	338.48
454.17	335.87
454.54	333.37
454.91	330.70
455.28	328.00
455.65	325.53
456.02	323.04
456.38	320.90
456.75	318.26
457.12	315.97
457.49	313.75
457.86	311.54
458.23	309.68
458.59	307.64
458.96	305.60
459.33	303.75
459.70	301.88
460.07	300.41
460.43	298.66
460.80	297.06
461.17	295.63
461.54	294.11
461.91	292.65
462.27	291.22
462.64	289.98
463.01	288.65
463.38	287.34
463.74	286.04
464.11	284.87
464.48	283.83
464.85	282.76
465.21	281.88
465.58	281.00
465.95	279.94
466.32	279.04
466.68	278.11
467.05	277.22
467.42	276.35
467.78	275.41
468.15	274.57
468.52	273.94
468.88	273.09
469.25	272.36
469.62	271.71
469.98	271.05
470.35	270.39
470.72	269.82
471.08	269.19
471.45	268.67
471.82	268.14
472.18	267.55
472.55	267.15
472.92	266.66
473.28	266.23
473.65	265.74
474.02	265.34
474.38	265.02
474.75	264.73
475.11	264.39
475.48	264.17
475.85	263.96
476.21	263.70
476.58	263.53
476.94	263.39
477.31	263.22
477.67	263.09
478.04	263.03
478.41	262.98
478.77	263.02
479.14	262.93
479.50	262.96
479.87	263.05
480.23	263.12
480.60	263.22
480.96	263.27
481.33	263.50
481.69	263.68
482.06	263.83
482.42	264.04
482.79	264.34
483.15	264.65
483.52	264.99
483.88	265.38
484.25	265.79
484.61	266.21
484.98	266.68
485.34	267.22
485.71	267.82
486.07	268.44
486.44	268.99
486.80	269.71
487.17	270.40
487.53	271.19
487.90	272.04
488.26	272.96
488.62	274.00
488.99	274.97
489.35	275.97
489.72	277.08
490.08	278.23
490.44	279.45
490.81	280.76
491.17	282.12
491.54	283.59
491.90	285.10
492.26	286.73
492.63	288.45
492.99	290.21
493.36	292.07
493.72	294.07
494.08	296.17
494.45	298.40
494.81	300.75
495.17	303.19
495.54	305.72
495.90	308.37
496.26	311.10
496.63	314.04
496.99	317.17
497.35	320.44
497.72	323.83
498.08	327.34
498.44	331.00
498.80	334.91
499.17	338.96
499.53	343.20
499.89	347.58
500.26	352.15
500.62	356.82
500.98	361.77
501.34	366.88
501.71	372.20
502.07	377.63
502.43	383.30
502.79	389.14
503.16	395.22
503.52	401.55
503.88	408.01
504.24	414.65
504.60	421.55
504.97	428.69
505.33	436.05
505.69	443.75
506.05	451.53
506.41	459.44
506.78	467.63
507.14	476.01
507.50	484.74
507.86	493.79
508.22	503.05
508.59	512.29
508.95	521.93
509.31	531.83
509.67	541.97
510.03	552.29
510.39	562.86
510.75	573.63
511.12	584.55
511.48	595.84
511.84	607.32
512.20	618.85
512.56	630.82
512.92	643.05
513.28	655.39
513.64	667.94
514.00	680.66
514.37	693.57
514.73	706.70
515.09	719.74
515.45	733.03
515.81	746.58
516.17	760.55
516.53	774.60
516.89	788.66
517.25	802.85
517.61	817.30
517.97	831.75
518.33	846.17
518.69	861.00
519.05	876.02
519.41	891.16
519.77	906.68
520.13	922.08
520.49	937.36
520.85	952.82
521.21	968.52
521.57	984.76
521.93	1000.48
522.29	1016.88
522.65	1033.08
523.01	1049.33
523.37	1065.41
523.73	1081.67
524.09	1097.78
524.45	1114.14
524.81	1130.72
525.17	1147.51
525.53	1164.40
525.89	1181.32
526.25	1198.07
526.61	1214.48
526.97	1231.14
527.33	1247.57
527.68	1264.19
528.04	1280.59
528.40	1297.17
528.76	1314.18
529.12	1330.73
529.48	1347.68
529.84	1363.56
530.20	1380.23
530.56	1397.16
530.91	1414.49
531.27	1431.13
531.63	1447.54
531.99	1464.13
532.35	1480.05
532.71	1495.82
533.07	1512.02
533.42	1527.81
533.78	1543.87
534.14	1560.00
534.50	1575.37
534.86	1591.24
535.21	1606.33
535.57	1622.28
535.93	1637.71
536.29	1652.35
536.65	1667.33
537.00	1681.89
537.36	1697.15
537.72	1711.59
538.08	1725.92
538.44	1739.61
538.79	1753.45
539.15	1767.06
539.51	1780.66
539.87	1794.89
540.22	1808.70
540.58	1822.39
540.94	1835.72
541.29	1848.54
541.65	1861.20
542.01	1874.29
542.37	1886.65
542.72	1899.07
543.08	1910.76
543.44	1923.12
543.79	1934.37
544.15	1945.29
544.51	1956.89
544.87	1967.86
545.22	1978.78
545.58	1988.88
545.94	1998.52
546.29	2008.32
546.65	2018.22
547.01	2027.50
547.36	2036.29
547.72	2044.64
548.07	2052.46
548.43	2060.73
548.79	2068.72
549.14	2076.18
549.50	2083.64
549.86	2091.15
550.21	2098.36
550.57	2105.65
550.92	2112.16
551.28	2119.23
551.64	2126.36
551.99	2132.86
552.35	2138.94
552.70	2144.97
553.06	2151.06
553.41	2157.49
553.77	2163.53
554.13	2169.55
554.48	2175.71
554.84	2181.09
555.19	2186.50
555.55	2191.66
555.90	2196.08
556.26	2201.02
556.61	2205.88
556.97	2210.21
557.32	2214.26
557.68	2218.53
558.03	2222.78
558.39	2226.66
558.74	2231.26
559.10	2235.23
559.45	2239.02
559.81	2243.38
560.16	2247.26
560.52	2250.50
560.87	2254.04
561.23	2256.81
561.58	2259.88
561.94	2262.27
562.29	2264.72
562.64	2267.36
563.00	2270.06
563.35	2273.48
563.71	2276.58
564.06	2279.77
564.42	2282.57
564.77	2285.22
565.12	2287.57
565.48	2289.61
565.83	2291.32
566.19	2292.60
566.54	2293.46
566.89	2294.55
567.25	2295.08
567.60	2296.35
567.96	2298.06
568.31	2298.90
568.66	2299.96
569.02	2300.45
569.37	2300.78
569.72	2301.83
570.08	2301.88
570.43	2301.93
570.78	2301.44
571.14	2299.91
571.49	2298.73
571.84	2298.45
572.20	2297.42
572.55	2296.29
572.90	2294.68
573.26	2293.51
573.61	2292.02
573.96	2290.23
574.31	2287.29
574.67	2284.35
575.02	2280.81
575.37	2277.31
575.72	2273.42
576.08	2270.09
576.43	2266.74
576.78	2263.03
577.13	2259.84
577.49	2256.78
577.84	2253.25
578.19	2249.39
578.54	2245.75
578.90	2241.37
579.25	2235.67
579.60	2230.51
579.95	2225.43
580.30	2220.29
580.66	2215.03
581.01	2210.07
581.36	2205.15
581.71	2200.92
582.06	2196.41
582.42	2191.82
582.77	2186.76
583.12	2182.27
583.47	2177.46
583.82	2172.48
584.17	2167.31
584.53	2161.71
584.88	2156.09
585.23	2150.25
585.58	2144.84
585.93	2139.42
586.28	2134.72
586.63	2129.80
586.98	2124.93
587.34	2120.33
587.69	2115.49
588.04	2110.07
588.39	2104.32
588.74	2097.83
589.09	2091.77
589.44	2085.22
589.79	2079.28
590.14	2073.65
590.49	2067.04
590.84	2060.78
591.19	2054.76
591.54	2048.41
591.89	2041.12
592.25	2034.39
592.60	2027.23
592.95	2019.67
593.30	2012.25
593.65	2004.63
594.00	1997.64
594.35	1990.30
594.70	1982.22
595.05	1975.08
595.40	1968.02
595.75	1960.53
596.10	1954.30
596.45	1947.42
596.80	1941.07
597.15	1934.51
597.50	1927.31
597.85	1920.90
598.19	1914.22
598.54	1907.07
598.89	1900.34
599.24	1894.38
599.59	1887.68
599.94	1881.45
600.29	1875.11
600.64	1868.63
600.99	1861.28
601.34	1854.47
601.69	1847.60
602.04	1840.77
602.39	1833.39
602.74	1826.46
603.08	1819.69
603.43	1813.06
603.78	1805.79
604.13	1798.66
604.48	1791.24
604.83	1784.49
605.18	1777.51
605.53	1769.41
605.87	1761.50
606.22	1754.38
606.57	1746.45
606.92	1739.07
607.27	1731.96
607.62	1725.04
607.96	1717.66
608.31	1710.84
608.66	1703.13
609.01	1695.49
609.36	1687.91
609.70	1679.89
610.05	1671.77
610.40	1664.12
610.75	1655.77
611.10	1648.13
611.44	1639.67
611.79	1631.83
612.14	1622.99
612.49	1613.78
612.83	1605.62
613.18	1597.48
613.53	1589.26
613.88	1580.61
614.22	1572.35
614.57	1563.80
614.92	1555.68
615.27	1548.20
615.61	1539.91
615.96	1531.84
616.31	1524.27
616.65	1516.97
617.00	1509.45
617.35	1501.92
617.70	1493.52
618.04	1485.08
618.39	1476.84
618.74	1469.27
619.08	1460.92
619.43	1453.34
619.78	1446.59
620.12	1439.31
620.47	1431.71
620.82	1423.60
621.16	1416.29
621.51	1408.70
621.85	1401.08
622.20	1392.66
622.55	1384.29
622.89	1376.53
623.24	1368.97
623.59	1361.49
623.93	1353.90
624.28	1346.66
624.62	1339.07
624.97	1331.94
625.32	1325.11
625.66	1318.17
626.01	1310.98
626.35	1303.40
626.70	1295.68
627.04	1287.84
627.39	1280.09
627.73	1272.72
628.08	1265.84
628.43	1258.42
628.77	1251.04
629.12	1243.36
629.46	1236.30
629.81	1228.83
630.15	1221.53
630.50	1214.08
630.84	1205.91
631.19	1198.02
631.53	1190.51
631.88	1182.98
632.22	1175.42
632.57	1168.02
632.91	1160.48
633.26	1153.02
633.60	1145.71
633.95	1138.66
634.29	1131.63
634.64	1124.90
634.98	1117.59
635.32	1110.29
635.67	1103.75
636.01	1097.05
636.36	1090.25
636.70	1083.62
637.05	1077.14
637.39	1070.69
637.73	1064.16
638.08	1058.31
638.42	1052.25
638.77	1045.72
639.11	1039.03
639.45	1032.55
639.80	1025.91
640.14	1019.45
640.49	1012.93
640.83	1006.63
641.17	1000.36
641.52	994.01
641.86	987.51
642.20	981.60
642.55	975.41
642.89	968.88
643.23	962.40
643.58	956.65
643.92	950.44
644.26	944.26
644.61	938.25
644.95	932.26
645.29	925.71
645.64	918.87
645.98	912.54
646.32	906.82
646.66	900.74
647.01	894.99
647.35	889.27
647.69	883.50
648.04	877.97
648.38	872.18
648.72	866.12
649.06	860.11
649.41	854.24
649.75	848.26
650.09	842.46
650.43	836.71
650.78	830.56
651.12	824.61
651.46	818.91
651.80	813.19
652.14	807.75
652.49	802.32
652.83	797.30
653.17	791.60
653.51	785.85
653.85	780.52
654.20	774.82
654.54	768.78
654.88	763.04
655.22	757.22
655.56	751.55
655.90	746.21
656.25	741.02
656.59	735.71
656.93	730.64
657.27	725.40
657.61	719.91
657.95	714.72
658.29	709.67
658.64	704.48
658.98	699.18
659.32	693.75
659.66	688.59
660.00	683.15
660.34	678.26
660.68	673.32
661.02	668.33
661.36	663.67
661.70	659.23
662.05	654.85
662.39	650.45
662.73	645.98
663.07	641.52
663.41	637.00
663.75	632.43
664.09	627.84
664.43	623.45
664.77	619.33
665.11	615.17
665.45	611.04
665.79	606.91
666.13	602.71
666.47	598.64
666.81	594.47
667.15	590.40
667.49	586.50
667.83	582.70
668.17	578.66
668.51	574.55
668.85	570.50
669.19	566.67
669.53	562.84
669.87	558.97
670.21	555.28
670.55	551.67
670.89	548.27
671.23	544.79
671.57	541.24
671.91	537.66
672.25	534.13
672.58	530.58
672.92	527.18
673.26	524.05
673.60	520.87
673.94	517.74
674.28	514.84
674.62	511.82
674.96	508.70
675.30	505.84
675.64	502.88
675.97	500.07
676.31	497.16
676.65	494.23
676.99	491.53
677.33	488.67
677.67	485.80
678.01	482.80
678.34	479.89
678.68	477.04
679.02	474.24
679.36	471.51
679.70	468.82
680.04	466.06
680.37	463.22
680.71	460.41
681.05	457.78
681.39	455.04
681.73	452.45
682.06	449.94
682.40	447.41
682.74	444.88
683.08	442.29
683.42	439.66
683.75	437.13
684.09	434.56
684.43	432.09
684.77	429.64
685.10	427.24
685.44	424.90
685.78	422.62
686.12	420.36
686.45	418.05
686.79	415.71
687.13	413.50
687.46	411.28
687.80	409.20
688.14	407.04
688.48	404.99
688.81	402.65
689.15	400.52
689.49	398.38
689.82	396.30
690.16	394.28
690.50	392.36
690.83	390.43
691.17	388.41
691.51	386.50
691.84	384.71
692.18	382.77
692.52	380.81
692.85	378.93
693.19	377.06
693.52	375.22
693.86	373.45
694.20	371.65
694.53	369.88
694.87	367.99
695.21	366.17
695.54	364.34
695.88	362.71
696.21	360.96
696.55	359.28
696.88	357.61
697.22	355.98
697.56	354.35
697.89	352.67
698.23	351.11
698.56	349.52
698.90	347.88
699.23	346.28
699.57	344.70
699.90	343.10
700.24	341.58
700.58	340.05
700.91	338.58
701.25	337.18
701.58	335.78
701.92	334.44
702.25	333.05
702.59	331.69
702.92	330.33
703.26	329.04
703.59	327.78
703.93	326.58
704.26	325.31
704.60	324.06
704.93	322.83
705.26	321.59
705.60	320.41
705.93	319.26
706.27	318.19
706.60	317.16
706.94	316.12
707.27	314.98
707.61	313.97
707.94	312.94
708.27	311.84
708.61	310.79
708.94	309.72
709.28	308.77
709.61	307.82
709.94	306.92
710.28	305.88
710.61	304.89
710.95	303.82
711.28	302.92
711.61	301.96
711.95	301.02
712.28	300.06
712.61	299.06
712.95	298.11
713.28	297.18
713.61	296.29
713.95	295.37
714.28	294.52
714.61	293.61
714.95	292.70
715.28	291.83
715.61	290.94
715.95	290.09
716.28	289.20
716.61	288.34
716.95	287.51
717.28	286.77
717.61	285.99
717.94	285.26
718.28	284.44
718.61	283.70
718.94	283.02
719.27	282.32
719.61	281.67
719.94	280.99
720.27	280.32
720.60	279.64
720.94	279.00
721.27	278.42
721.60	277.80
721.93	277.22
722.27	276.68
722.60	276.10
722.93	275.54
723.26	274.96
723.59	274.40
723.93	273.83
724.26	273.27
724.59	272.70
724.92	272.15
725.25	271.63
725.59	271.07
725.92	270.55
726.25	270.06
726.58	269.57
726.91	269.08
727.24	268.64
727.57	268.17
727.91	267.66
728.24	267.18
728.57	266.69
728.90	266.24
729.23	265.74
729.56	265.35
729.89	264.88
730.22	264.42
730.55	263.96
730.89	263.50
731.22	263.05
731.55	262.61
731.88	262.19
732.21	261.75
732.54	261.36
732.87	260.91
733.20	260.53
733.53	260.16
733.86	259.81
734.19	259.41
734.52	259.05
734.85	258.76
735.18	258.35
735.51	258.02
735.84	257.65
736.17	257.30
736.50	256.87
736.83	256.64
737.16	256.33
737.49	256.00
737.82	255.64
738.15	255.31
738.48	254.99
738.81	254.70
739.14	254.39
739.47	254.10
739.80	253.82
740.13	253.51
740.46	253.18
740.79	252.84
741.12	252.50
741.45	252.17
741.78	251.84
742.11	251.58
742.44	251.26
742.77	250.95
743.10	250.66
743.43	250.37
743.75	249.97
744.08	249.84
744.41	249.55
744.74	249.30
745.07	249.01
745.40	248.74
745.73	248.49
746.06	248.24
746.39	247.94
746.71	247.66
747.04	247.41
747.37	247.19
747.70	246.92
748.03	246.69
748.36	246.47
748.68	246.25
749.01	245.97
749.34	245.78
749.67	245.55
750.00	245.33
750.33	245.21
750.65	245.00
750.98	244.63
751.31	244.47
751.64	244.25
751.97	244.10
752.29	243.91
752.62	243.68
752.95	243.45
753.28	243.29
753.60	243.11
753.93	242.91
754.26	242.68
754.59	242.46
754.91	242.27
755.24	242.04
755.57	241.86
755.90	241.68
756.22	241.46
756.55	241.27
756.88	241.05
757.20	240.81
757.53	240.61
757.86	240.49
758.19	240.30
758.51	240.16
758.84	239.96
759.17	239.78
759.49	239.60
759.82	239.50
760.15	239.34
760.47	239.18
760.80	239.01
761.13	238.89
761.45	238.75
761.78	238.58
762.11	238.44
762.43	238.26
762.76	238.11
763.08	237.98
763.41	237.87
763.74	237.76
764.06	237.62
764.39	237.47
764.71	237.33
765.04	237.16
765.37	237.01
765.69	236.86
766.02	236.73
766.34	236.58
766.67	236.42
767.00	236.31
767.32	236.21
767.65	236.15
767.97	236.02
768.30	235.88
768.62	235.76
768.95	235.65
769.27	235.55
769.60	235.44
769.92	235.29
770.25	235.15
770.57	234.99
770.90	234.86
771.22	234.75
771.55	234.63
771.87	234.55
772.20	234.42
772.52	234.42
772.85	234.43
773.17	234.34
773.50	234.26
773.82	234.13
774.15	234.01
774.47	233.88
774.80	233.77
775.12	233.74
775.45	233.68
775.77	233.59
776.09	233.52
776.42	233.46
776.74	233.40
777.07	233.33
777.39	233.26
777.72	233.20
778.04	233.13
778.36	233.06
778.69	233.00
779.01	232.97
779.33	232.84
779.66	232.71
779.98	232.62
780.31	232.53
780.63	232.52
780.95	232.47
781.28	232.38
781.60	232.30
781.92	232.21
782.25	232.13
782.57	232.11
782.89	232.01
783.22	231.91
783.54	231.86
783.86	231.82
784.19	231.79
784.51	231.77
784.83	231.73
785.16	231.67
785.48	231.63
785.80	231.60
786.12	231.55
786.45	231.49
786.77	231.48
787.09	231.43
