SpectraSuite Data File
++++++++++++++++++++++++++++++++++++
Date: Fri Feb 01 14:56:18 EST 2013
User: group
Dark Spectrum Present: No
Reference Spectrum Present: No
Number of Sampled Component Spectra: 1
Spectrometers: USB2E7196
Integration Time (usec): 35000 (USB2E7196)
Spectra Averaged: 100 (USB2E7196)
Boxcar Smoothing: 10 (USB2E7196)
Correct for Electrical Dark: No (USB2E7196)
Strobe/Lamp Enabled: No (USB2E7196)
Correct for Detector Non-linearity: No (USB2E7196)
Correct for Stray Light: No (USB2E7196)
Number of Pixels in Processed Spectrum: 2048
>>>>>Begin Processed Spectral Data<<<<<
339.09	0.00
339.48	215.00
339.86	216.77
340.24	218.32
340.63	218.98
341.01	221.53
341.39	221.70
341.78	223.11
342.16	224.84
342.54	225.13
342.93	213.45
343.31	224.23
343.69	224.78
344.07	225.26
344.46	225.66
344.84	226.03
345.22	226.31
345.60	226.60
345.99	226.81
346.37	226.90
346.75	226.98
347.13	227.06
347.52	227.13
347.90	227.19
348.28	227.21
348.66	227.22
349.05	227.22
349.43	227.27
349.81	227.32
350.19	227.36
350.57	227.43
350.96	227.50
351.34	227.60
351.72	227.71
352.10	227.81
352.48	227.91
352.87	227.97
353.25	228.02
353.63	228.09
354.01	228.16
354.39	228.26
354.77	228.40
355.15	228.50
355.54	228.55
355.92	228.59
356.30	228.66
356.68	228.83
357.06	228.91
357.44	228.99
357.82	229.06
358.20	229.14
358.58	229.21
358.97	229.23
359.35	229.33
359.73	229.39
360.11	229.40
360.49	229.43
360.87	229.50
361.25	229.59
361.63	229.64
362.01	229.68
362.39	229.67
362.77	229.67
363.15	229.72
363.53	229.73
363.91	229.78
364.29	229.78
364.67	229.70
365.05	229.71
365.43	229.73
365.81	229.72
366.19	229.74
366.57	229.74
366.95	229.74
367.33	229.68
367.71	229.64
368.09	229.66
368.47	229.63
368.85	229.59
369.23	229.54
369.61	229.49
369.99	229.48
370.37	229.49
370.75	229.49
371.13	229.39
371.51	229.35
371.89	229.27
372.27	229.24
372.65	229.19
373.03	229.12
373.41	229.06
373.78	229.00
374.16	228.90
374.54	228.82
374.92	228.74
375.30	228.67
375.68	228.59
376.06	228.51
376.44	228.43
376.82	228.38
377.19	228.29
377.57	228.18
377.95	228.05
378.33	227.96
378.71	227.82
379.09	227.80
379.47	227.73
379.84	227.65
380.22	227.56
380.60	227.48
380.98	227.40
381.36	227.27
381.73	227.19
382.11	227.14
382.49	227.06
382.87	226.98
383.25	226.91
383.62	226.98
384.00	226.87
384.38	226.84
384.76	226.74
385.13	226.75
385.51	226.72
385.89	226.64
386.27	226.58
386.64	226.53
387.02	226.46
387.40	226.41
387.78	226.38
388.15	226.38
388.53	226.32
388.91	226.30
389.29	226.31
389.66	226.29
390.04	226.24
390.42	226.25
390.79	226.26
391.17	226.24
391.55	226.08
391.92	226.11
392.30	226.10
392.68	226.11
393.05	226.10
393.43	226.12
393.81	226.18
394.18	226.22
394.56	226.25
394.94	226.26
395.31	226.28
395.69	226.32
396.06	226.33
396.44	226.42
396.82	226.43
397.19	226.53
397.57	226.61
397.95	226.71
398.32	226.71
398.70	226.78
399.07	226.87
399.45	226.97
399.82	227.07
400.20	227.14
400.58	227.23
400.95	227.28
401.33	227.38
401.70	227.54
402.08	227.63
402.45	227.71
402.83	227.84
403.20	227.99
403.58	228.10
403.95	228.23
404.33	228.36
404.71	228.52
405.08	228.73
405.46	228.85
405.83	229.04
406.21	229.27
406.58	229.45
406.96	229.66
407.33	229.85
407.70	230.04
408.08	230.35
408.45	230.60
408.83	230.85
409.20	231.08
409.58	231.28
409.95	231.52
410.33	231.85
410.70	232.12
411.08	232.42
411.45	232.73
411.82	233.06
412.20	233.40
412.57	233.80
412.95	234.08
413.32	234.51
413.69	234.88
414.07	235.31
414.44	235.77
414.82	236.22
415.19	236.83
415.56	237.37
415.94	237.92
416.31	238.55
416.68	239.16
417.06	239.85
417.43	240.56
417.81	241.37
418.18	242.13
418.55	242.98
418.93	243.85
419.30	244.78
419.67	245.73
420.04	246.69
420.42	247.68
420.79	248.84
421.16	249.98
421.54	251.19
421.91	252.39
422.28	253.61
422.66	254.94
423.03	256.21
423.40	257.55
423.77	258.95
424.15	260.37
424.52	261.84
424.89	263.48
425.26	265.01
425.64	266.45
426.01	268.06
426.38	269.70
426.75	271.34
427.13	273.01
427.50	274.80
427.87	276.68
428.24	278.56
428.61	280.29
428.99	282.22
429.36	284.32
429.73	286.37
430.10	288.42
430.47	290.50
430.85	292.59
431.22	294.79
431.59	297.16
431.96	299.41
432.33	301.89
432.70	304.29
433.08	307.12
433.45	309.75
433.82	312.35
434.19	315.29
434.56	318.15
434.93	320.82
435.30	323.44
435.68	326.37
436.05	329.15
436.42	332.00
436.79	334.56
437.16	337.24
437.53	340.13
437.90	342.95
438.27	345.71
438.64	348.55
439.01	351.19
439.38	353.44
439.75	355.60
440.13	358.10
440.50	360.45
440.87	362.28
441.24	364.22
441.61	366.33
441.98	367.78
442.35	369.56
442.72	371.47
443.09	373.28
443.46	374.28
443.83	374.96
444.20	375.45
444.57	376.31
444.94	376.59
445.31	376.88
445.68	377.20
446.05	377.27
446.42	376.89
446.79	376.50
447.16	376.03
447.53	375.67
447.90	374.56
448.27	373.31
448.64	371.73
449.01	370.60
449.37	368.68
449.74	366.81
450.11	364.58
450.48	362.08
450.85	359.56
451.22	357.42
451.59	355.36
451.96	353.41
452.33	350.76
452.70	348.40
453.07	345.60
453.43	342.72
453.80	339.91
454.17	337.26
454.54	334.69
454.91	331.98
455.28	329.33
455.65	326.81
456.02	324.40
456.38	322.26
456.75	319.58
457.12	317.32
457.49	315.09
457.86	312.93
458.23	311.11
458.59	309.03
458.96	306.92
459.33	305.05
459.70	303.19
460.07	301.76
460.43	300.04
460.80	298.39
461.17	296.96
461.54	295.48
461.91	294.00
462.27	292.55
462.64	291.32
463.01	289.96
463.38	288.64
463.74	287.29
464.11	286.11
464.48	285.06
464.85	283.92
465.21	283.05
465.58	282.10
465.95	280.96
466.32	280.06
466.68	279.15
467.05	278.20
467.42	277.30
467.78	276.29
468.15	275.44
468.52	274.77
468.88	273.88
469.25	273.12
469.62	272.47
469.98	271.76
470.35	271.08
470.72	270.48
471.08	269.84
471.45	269.30
471.82	268.75
472.18	268.15
472.55	267.69
472.92	267.14
473.28	266.63
473.65	266.16
474.02	265.68
474.38	265.27
474.75	264.96
475.11	264.55
475.48	264.30
475.85	264.03
476.21	263.76
476.58	263.54
476.94	263.41
477.31	263.26
477.67	263.11
478.04	262.98
478.41	262.93
478.77	262.91
479.14	262.80
479.50	262.80
479.87	262.87
480.23	262.95
480.60	263.03
480.96	263.12
481.33	263.32
481.69	263.55
482.06	263.76
482.42	263.96
482.79	264.22
483.15	264.53
483.52	264.89
483.88	265.27
484.25	265.69
484.61	266.06
484.98	266.50
485.34	267.05
485.71	267.64
486.07	268.22
486.44	268.79
486.80	269.49
487.17	270.21
487.53	271.01
487.90	271.85
488.26	272.75
488.62	273.74
488.99	274.73
489.35	275.74
489.72	276.87
490.08	278.03
490.44	279.28
490.81	280.60
491.17	281.94
491.54	283.39
491.90	284.93
492.26	286.56
492.63	288.26
492.99	290.02
493.36	291.92
493.72	293.95
494.08	296.08
494.45	298.35
494.81	300.68
495.17	303.07
495.54	305.60
495.90	308.28
496.26	311.07
496.63	313.98
496.99	317.04
497.35	320.25
497.72	323.64
498.08	327.14
498.44	330.76
498.80	334.67
499.17	338.69
499.53	342.85
499.89	347.20
500.26	351.70
500.62	356.38
500.98	361.28
501.34	366.31
501.71	371.58
502.07	377.00
502.43	382.58
502.79	388.40
503.16	394.50
503.52	400.75
503.88	407.15
504.24	413.79
504.60	420.71
504.97	427.79
505.33	435.10
505.69	442.83
506.05	450.55
506.41	458.38
506.78	466.52
507.14	474.86
507.50	483.49
507.86	492.47
508.22	501.65
508.59	510.85
508.95	520.44
509.31	530.19
509.67	540.23
510.03	550.49
510.39	561.01
510.75	571.80
511.12	582.72
511.48	594.05
511.84	605.50
512.20	617.00
512.56	629.03
512.92	641.18
513.28	653.45
513.64	666.02
514.00	678.75
514.37	691.71
514.73	704.76
515.09	717.87
515.45	731.19
515.81	744.73
516.17	758.66
516.53	772.76
516.89	786.98
517.25	801.17
517.61	815.65
517.97	830.17
518.33	844.53
518.69	859.27
519.05	874.28
519.41	889.40
519.77	904.97
520.13	920.44
520.49	935.86
520.85	951.24
521.21	966.99
521.57	983.24
521.93	999.07
522.29	1015.60
522.65	1031.89
523.01	1048.24
523.37	1064.43
523.73	1080.77
524.09	1096.83
524.45	1113.24
524.81	1129.96
525.17	1146.87
525.53	1163.90
525.89	1180.89
526.25	1197.76
526.61	1214.17
526.97	1230.97
527.33	1247.51
527.68	1264.07
528.04	1280.64
528.40	1297.46
528.76	1314.57
529.12	1331.23
529.48	1348.11
529.84	1364.30
530.20	1380.99
530.56	1398.10
530.91	1415.55
531.27	1432.36
531.63	1448.99
531.99	1465.65
532.35	1481.71
532.71	1497.58
533.07	1513.77
533.42	1529.78
533.78	1545.92
534.14	1562.13
534.50	1577.61
534.86	1593.63
535.21	1608.91
535.57	1624.94
535.93	1640.46
536.29	1655.33
536.65	1670.50
537.00	1685.37
537.36	1700.79
537.72	1715.50
538.08	1729.97
538.44	1743.72
538.79	1757.69
539.15	1771.55
539.51	1785.43
539.87	1799.88
540.22	1813.75
540.58	1827.68
540.94	1841.12
541.29	1854.24
541.65	1867.26
542.01	1880.68
542.37	1893.01
542.72	1905.59
543.08	1917.46
543.44	1929.88
543.79	1941.19
544.15	1952.21
544.51	1963.91
544.87	1974.83
545.22	1985.58
545.58	1995.86
545.94	2005.83
546.29	2015.73
546.65	2025.53
547.01	2034.70
547.36	2043.59
547.72	2052.04
548.07	2059.91
548.43	2068.14
548.79	2076.15
549.14	2083.70
549.50	2091.05
549.86	2098.71
550.21	2106.08
550.57	2113.24
550.92	2119.83
551.28	2126.88
551.64	2134.00
551.99	2140.41
552.35	2146.49
552.70	2152.56
553.06	2158.39
553.41	2164.69
553.77	2170.66
554.13	2176.79
554.48	2182.87
554.84	2187.94
555.19	2193.33
555.55	2198.35
555.90	2202.69
556.26	2207.54
556.61	2211.94
556.97	2215.89
557.32	2219.99
557.68	2224.15
558.03	2228.34
558.39	2232.15
558.74	2236.71
559.10	2240.46
559.45	2244.04
559.81	2248.32
560.16	2252.01
560.52	2255.23
560.87	2258.53
561.23	2261.12
561.58	2263.93
561.94	2266.44
562.29	2268.93
562.64	2271.41
563.00	2274.03
563.35	2277.50
563.71	2280.41
564.06	2283.59
564.42	2286.47
564.77	2288.96
565.12	2291.00
565.48	2292.67
565.83	2294.24
566.19	2295.30
566.54	2296.32
566.89	2297.33
567.25	2297.76
567.60	2298.93
567.96	2300.37
568.31	2301.13
568.66	2302.12
569.02	2302.52
569.37	2302.70
569.72	2303.34
570.08	2303.35
570.43	2303.17
570.78	2302.23
571.14	2300.48
571.49	2299.10
571.84	2298.70
572.20	2297.22
572.55	2295.95
572.90	2294.38
573.26	2292.74
573.61	2290.87
573.96	2288.58
574.31	2285.50
574.67	2282.19
575.02	2278.60
575.37	2275.05
575.72	2270.91
576.08	2267.35
576.43	2263.91
576.78	2259.98
577.13	2256.70
577.49	2253.54
577.84	2249.97
578.19	2246.26
578.54	2242.54
578.90	2237.97
579.25	2232.27
579.60	2227.27
579.95	2222.03
580.30	2216.83
580.66	2211.64
581.01	2206.64
581.36	2201.70
581.71	2197.26
582.06	2192.86
582.42	2188.18
582.77	2182.90
583.12	2178.29
583.47	2173.38
583.82	2168.16
584.17	2162.85
584.53	2157.16
584.88	2151.28
585.23	2145.40
585.58	2139.77
585.93	2134.25
586.28	2129.50
586.63	2124.23
586.98	2119.02
587.34	2114.33
587.69	2109.29
588.04	2103.85
588.39	2098.14
588.74	2091.68
589.09	2085.67
589.44	2078.56
589.79	2072.55
590.14	2066.82
590.49	2060.17
590.84	2053.76
591.19	2047.67
591.54	2041.07
591.89	2033.52
592.25	2026.57
592.60	2019.10
592.95	2011.28
593.30	2003.73
593.65	1995.92
594.00	1988.78
594.35	1981.34
594.70	1973.26
595.05	1965.84
595.40	1958.65
595.75	1950.96
596.10	1944.54
596.45	1937.51
596.80	1931.33
597.15	1924.49
597.50	1917.21
597.85	1910.65
598.19	1903.92
598.54	1896.75
598.89	1890.13
599.24	1884.16
599.59	1877.38
599.94	1871.17
600.29	1864.95
600.64	1858.44
600.99	1850.99
601.34	1844.11
601.69	1837.12
602.04	1830.02
602.39	1822.68
602.74	1815.63
603.08	1808.90
603.43	1802.13
603.78	1794.93
604.13	1787.66
604.48	1780.30
604.83	1773.52
605.18	1766.50
605.53	1758.37
605.87	1750.35
606.22	1743.06
606.57	1735.26
606.92	1728.03
607.27	1720.80
607.62	1713.79
607.96	1706.48
608.31	1699.91
608.66	1692.32
609.01	1684.71
609.36	1677.23
609.70	1669.29
610.05	1661.17
610.40	1653.55
610.75	1645.19
611.10	1637.51
611.44	1629.19
611.79	1621.23
612.14	1612.49
612.49	1603.40
612.83	1595.19
613.18	1587.09
613.53	1579.04
613.88	1570.36
614.22	1562.08
614.57	1553.64
614.92	1545.65
615.27	1538.08
615.61	1529.68
615.96	1521.83
616.31	1514.29
616.65	1507.02
617.00	1499.50
617.35	1492.08
617.70	1483.72
618.04	1475.31
618.39	1467.08
618.74	1459.58
619.08	1451.42
619.43	1443.90
619.78	1437.06
620.12	1429.94
620.47	1422.43
620.82	1414.37
621.16	1407.18
621.51	1399.69
621.85	1392.05
622.20	1383.58
622.55	1375.37
622.89	1367.71
623.24	1360.04
623.59	1352.81
623.93	1345.31
624.28	1338.17
624.62	1330.65
624.97	1323.56
625.32	1316.84
625.66	1309.84
626.01	1302.65
626.35	1295.15
626.70	1287.45
627.04	1279.80
627.39	1272.12
627.73	1264.79
628.08	1257.84
628.43	1250.52
628.77	1243.17
629.12	1235.64
629.46	1228.52
629.81	1221.10
630.15	1213.85
630.50	1206.53
630.84	1198.33
631.19	1190.50
631.53	1183.04
631.88	1175.50
632.22	1167.92
632.57	1160.70
632.91	1153.24
633.26	1145.92
633.60	1138.76
633.95	1131.81
634.29	1124.74
634.64	1118.03
634.98	1110.76
635.32	1103.65
635.67	1097.16
636.01	1090.51
636.36	1083.72
636.70	1077.35
637.05	1070.84
637.39	1064.42
637.73	1057.95
638.08	1052.15
638.42	1046.14
638.77	1039.75
639.11	1033.15
639.45	1026.80
639.80	1020.12
640.14	1013.76
640.49	1007.30
640.83	1000.95
641.17	994.63
641.52	988.42
641.86	982.00
642.20	976.28
642.55	970.17
642.89	963.63
643.23	957.23
643.58	951.52
643.92	945.28
644.26	939.23
644.61	933.30
644.95	927.24
645.29	920.62
645.64	913.90
645.98	907.60
646.32	901.90
646.66	895.87
647.01	890.17
647.35	884.44
647.69	878.61
648.04	873.17
648.38	867.52
648.72	861.48
649.06	855.49
649.41	849.57
649.75	843.49
650.09	837.58
650.43	831.79
650.78	825.73
651.12	819.82
651.46	814.04
651.80	808.32
652.14	802.97
652.49	797.68
652.83	792.56
653.17	786.84
653.51	781.07
653.85	775.81
654.20	770.18
654.54	764.27
654.88	758.59
655.22	752.70
655.56	747.05
655.90	741.60
656.25	736.42
656.59	731.07
656.93	726.00
657.27	720.88
657.61	715.50
657.95	710.41
658.29	705.32
658.64	700.24
658.98	694.94
659.32	689.46
659.66	684.26
660.00	679.00
660.34	674.15
660.68	669.25
661.02	664.19
661.36	659.46
661.70	655.01
662.05	650.61
662.39	646.30
662.73	641.84
663.07	637.50
663.41	633.03
663.75	628.56
664.09	624.07
664.43	619.73
664.77	615.59
665.11	611.41
665.45	607.38
665.79	603.31
666.13	599.26
666.47	595.25
666.81	591.17
667.15	587.05
667.49	583.20
667.83	579.43
668.17	575.56
668.51	571.58
668.85	567.57
669.19	563.84
669.53	560.07
669.87	556.23
670.21	552.63
670.55	549.07
670.89	545.65
671.23	542.22
671.57	538.77
671.91	535.28
672.25	531.79
672.58	528.32
672.92	524.96
673.26	521.85
673.60	518.74
673.94	515.69
674.28	512.86
674.62	509.97
674.96	506.92
675.30	504.04
675.64	501.09
675.97	498.36
676.31	495.56
676.65	492.64
676.99	489.99
677.33	487.15
677.67	484.31
678.01	481.35
678.34	478.43
678.68	475.64
679.02	472.88
679.36	470.13
679.70	467.43
680.04	464.65
680.37	461.74
680.71	458.92
681.05	456.32
681.39	453.61
681.73	450.95
682.06	448.49
682.40	446.00
682.74	443.60
683.08	441.07
683.42	438.45
683.75	436.00
684.09	433.49
684.43	431.06
684.77	428.68
685.10	426.38
685.44	424.08
685.78	421.82
686.12	419.64
686.45	417.39
686.79	415.09
687.13	412.96
687.46	410.84
687.80	408.80
688.14	406.61
688.48	404.58
688.81	402.36
689.15	400.20
689.49	398.00
689.82	395.91
690.16	393.84
690.50	391.87
690.83	389.93
691.17	387.98
691.51	386.09
691.84	384.24
692.18	382.31
692.52	380.31
692.85	378.36
693.19	376.45
693.52	374.64
693.86	372.85
694.20	371.07
694.53	369.30
694.87	367.46
695.21	365.67
695.54	363.87
695.88	362.15
696.21	360.45
696.55	358.79
696.88	357.12
697.22	355.50
697.56	353.91
697.89	352.25
698.23	350.67
698.56	349.06
698.90	347.43
699.23	345.78
699.57	344.29
699.90	342.78
700.24	341.25
700.58	339.72
700.91	338.22
701.25	336.78
701.58	335.40
701.92	334.02
702.25	332.60
702.59	331.22
702.92	329.91
703.26	328.62
703.59	327.38
703.93	326.18
704.26	324.95
704.60	323.65
704.93	322.34
705.26	321.05
705.60	319.87
705.93	318.77
706.27	317.75
706.60	316.73
706.94	315.63
707.27	314.53
707.61	313.46
707.94	312.48
708.27	311.42
708.61	310.36
708.94	309.39
709.28	308.47
709.61	307.53
709.94	306.59
710.28	305.59
710.61	304.59
710.95	303.54
711.28	302.65
711.61	301.76
711.95	300.90
712.28	299.98
712.61	299.04
712.95	298.10
713.28	297.25
713.61	296.35
713.95	295.49
714.28	294.61
714.61	293.79
714.95	292.93
715.28	292.08
715.61	291.22
715.95	290.35
716.28	289.50
716.61	288.67
716.95	287.88
717.28	287.13
717.61	286.42
717.94	285.70
718.28	284.87
718.61	284.12
718.94	283.44
719.27	282.79
719.61	282.15
719.94	281.49
720.27	280.77
720.60	280.08
720.94	279.45
721.27	278.90
721.60	278.31
721.93	277.76
722.27	277.23
722.60	276.67
722.93	276.16
723.26	275.62
723.59	275.10
723.93	274.55
724.26	274.00
724.59	273.41
724.92	272.91
725.25	272.43
725.59	271.93
725.92	271.42
726.25	270.95
726.58	270.48
726.91	270.04
727.24	269.58
727.57	269.15
727.91	268.64
728.24	268.16
728.57	267.69
728.90	267.24
729.23	266.73
729.56	266.33
729.89	265.83
730.22	265.35
730.55	264.89
730.89	264.46
731.22	264.00
731.55	263.59
731.88	263.15
732.21	262.73
732.54	262.25
732.87	261.83
733.20	261.42
733.53	260.98
733.86	260.58
734.19	260.17
734.52	259.78
734.85	259.48
735.18	259.07
735.51	258.70
735.84	258.28
736.17	257.93
736.50	257.51
736.83	257.27
737.16	256.92
737.49	256.61
737.82	256.20
738.15	255.89
738.48	255.50
738.81	255.13
739.14	254.79
739.47	254.51
739.80	254.20
740.13	253.85
740.46	253.52
740.79	253.18
741.12	252.85
741.45	252.51
741.78	252.13
742.11	251.83
742.44	251.47
742.77	251.19
743.10	250.89
743.43	250.55
743.75	250.16
744.08	250.00
744.41	249.70
744.74	249.46
745.07	249.17
745.40	248.94
745.73	248.73
746.06	248.43
746.39	248.18
746.71	247.89
747.04	247.65
747.37	247.38
747.70	247.11
748.03	246.87
748.36	246.68
748.68	246.47
749.01	246.21
749.34	246.03
749.67	245.81
750.00	245.58
750.33	245.45
750.65	245.23
750.98	244.89
751.31	244.65
751.64	244.46
751.97	244.31
752.29	244.08
752.62	243.85
752.95	243.67
753.28	243.44
753.60	243.26
753.93	243.08
754.26	242.88
754.59	242.67
754.91	242.48
755.24	242.23
755.57	242.07
755.90	241.90
756.22	241.73
756.55	241.52
756.88	241.32
757.20	241.07
757.53	240.90
757.86	240.77
758.19	240.65
758.51	240.48
758.84	240.27
759.17	240.12
759.49	240.01
759.82	239.88
760.15	239.76
760.47	239.59
760.80	239.42
761.13	239.35
761.45	239.27
761.78	239.13
762.11	239.05
762.43	238.92
762.76	238.80
763.08	238.69
763.41	238.57
763.74	238.46
764.06	238.34
764.39	238.22
764.71	238.09
765.04	237.98
765.37	237.85
765.69	237.72
766.02	237.61
766.34	237.45
766.67	237.31
767.00	237.19
767.32	237.19
767.65	237.16
767.97	237.02
768.30	236.89
768.62	236.79
768.95	236.66
769.27	236.52
769.60	236.41
769.92	236.29
770.25	236.15
770.57	236.08
770.90	235.95
771.22	235.84
771.55	235.71
771.87	235.59
772.20	235.52
772.52	235.49
772.85	235.49
773.17	235.40
773.50	235.32
773.82	235.17
774.15	235.02
774.47	234.83
774.80	234.74
775.12	234.62
775.45	234.55
775.77	234.48
776.09	234.38
776.42	234.32
776.74	234.26
777.07	234.19
777.39	234.06
777.72	234.01
778.04	233.94
778.36	233.88
778.69	233.80
779.01	233.74
779.33	233.59
779.66	233.45
779.98	233.38
780.31	233.27
780.63	233.27
780.95	233.19
781.28	233.13
781.60	233.04
781.92	232.96
782.25	232.87
782.57	232.76
782.89	232.69
783.22	232.61
783.54	232.54
783.86	232.52
784.19	232.44
784.51	232.40
784.83	232.31
785.16	232.25
785.48	232.16
785.80	232.09
786.12	232.04
786.45	231.96
786.77	231.88
787.09	231.86
