SpectraSuite Data File
++++++++++++++++++++++++++++++++++++
Date: Fri Feb 01 14:55:05 EST 2013
User: group
Dark Spectrum Present: No
Reference Spectrum Present: No
Number of Sampled Component Spectra: 1
Spectrometers: USB2E7196
Integration Time (usec): 35000 (USB2E7196)
Spectra Averaged: 100 (USB2E7196)
Boxcar Smoothing: 10 (USB2E7196)
Correct for Electrical Dark: No (USB2E7196)
Strobe/Lamp Enabled: No (USB2E7196)
Correct for Detector Non-linearity: No (USB2E7196)
Correct for Stray Light: No (USB2E7196)
Number of Pixels in Processed Spectrum: 2048
>>>>>Begin Processed Spectral Data<<<<<
339.09	0.00
339.48	215.35
339.86	216.48
340.24	217.58
340.63	219.37
341.01	222.67
341.39	222.05
341.78	223.87
342.16	224.98
342.54	224.89
342.93	213.54
343.31	224.33
343.69	224.87
344.07	225.35
344.46	225.81
344.84	226.18
345.22	226.41
345.60	226.65
345.99	226.80
346.37	226.92
346.75	227.03
347.13	227.11
347.52	227.12
347.90	227.23
348.28	227.27
348.66	227.30
349.05	227.30
349.43	227.34
349.81	227.40
350.19	227.41
350.57	227.48
350.96	227.56
351.34	227.66
351.72	227.73
352.10	227.81
352.48	227.85
352.87	227.91
353.25	227.98
353.63	228.05
354.01	228.14
354.39	228.22
354.77	228.30
355.15	228.40
355.54	228.48
355.92	228.49
356.30	228.55
356.68	228.72
357.06	228.78
357.44	228.82
357.82	228.89
358.20	228.97
358.58	229.01
358.97	229.06
359.35	229.11
359.73	229.18
360.11	229.24
360.49	229.32
360.87	229.37
361.25	229.40
361.63	229.46
362.01	229.51
362.39	229.54
362.77	229.59
363.15	229.58
363.53	229.61
363.91	229.66
364.29	229.72
364.67	229.58
365.05	229.60
365.43	229.64
365.81	229.66
366.19	229.70
366.57	229.77
366.95	229.74
367.33	229.69
367.71	229.70
368.09	229.70
368.47	229.68
368.85	229.63
369.23	229.63
369.61	229.57
369.99	229.55
370.37	229.50
370.75	229.48
371.13	229.42
371.51	229.36
371.89	229.32
372.27	229.27
372.65	229.24
373.03	229.17
373.41	229.11
373.78	229.02
374.16	228.94
374.54	228.78
374.92	228.75
375.30	228.71
375.68	228.59
376.06	228.53
376.44	228.44
376.82	228.40
377.19	228.31
377.57	228.22
377.95	228.14
378.33	228.07
378.71	227.92
379.09	227.87
379.47	227.80
379.84	227.70
380.22	227.57
380.60	227.48
380.98	227.40
381.36	227.31
381.73	227.27
382.11	227.22
382.49	227.15
382.87	227.03
383.25	226.95
383.62	227.03
384.00	226.95
384.38	226.88
384.76	226.80
385.13	226.73
385.51	226.68
385.89	226.60
386.27	226.59
386.64	226.56
387.02	226.48
387.40	226.43
387.78	226.41
388.15	226.38
388.53	226.35
388.91	226.31
389.29	226.28
389.66	226.28
390.04	226.21
390.42	226.24
390.79	226.24
391.17	226.23
391.55	226.11
391.92	226.11
392.30	226.15
392.68	226.17
393.05	226.20
393.43	226.24
393.81	226.28
394.18	226.26
394.56	226.33
394.94	226.38
395.31	226.41
395.69	226.49
396.06	226.55
396.44	226.57
396.82	226.62
397.19	226.75
397.57	226.75
397.95	226.83
398.32	226.85
398.70	226.91
399.07	227.02
399.45	227.08
399.82	227.14
400.20	227.19
400.58	227.30
400.95	227.36
401.33	227.48
401.70	227.66
402.08	227.79
402.45	227.91
402.83	228.05
403.20	228.18
403.58	228.29
403.95	228.43
404.33	228.62
404.71	228.79
405.08	228.95
405.46	229.11
405.83	229.30
406.21	229.47
406.58	229.67
406.96	229.85
407.33	230.02
407.70	230.23
408.08	230.50
408.45	230.70
408.83	230.94
409.20	231.14
409.58	231.32
409.95	231.58
410.33	231.85
410.70	232.09
411.08	232.41
411.45	232.74
411.82	233.04
412.20	233.40
412.57	233.83
412.95	234.11
413.32	234.52
413.69	234.91
414.07	235.36
414.44	235.83
414.82	236.30
415.19	236.91
415.56	237.47
415.94	238.04
416.31	238.66
416.68	239.28
417.06	239.98
417.43	240.66
417.81	241.42
418.18	242.17
418.55	243.02
418.93	243.88
419.30	244.77
419.67	245.72
420.04	246.65
420.42	247.62
420.79	248.82
421.16	249.98
421.54	251.16
421.91	252.35
422.28	253.57
422.66	254.86
423.03	256.15
423.40	257.48
423.77	258.85
424.15	260.29
424.52	261.74
424.89	263.34
425.26	264.85
425.64	266.25
426.01	267.83
426.38	269.48
426.75	271.17
427.13	272.84
427.50	274.65
427.87	276.57
428.24	278.46
428.61	280.19
428.99	282.10
429.36	284.19
429.73	286.25
430.10	288.28
430.47	290.34
430.85	292.40
431.22	294.64
431.59	297.03
431.96	299.32
432.33	301.86
432.70	304.26
433.08	307.10
433.45	309.76
433.82	312.37
434.19	315.24
434.56	318.00
434.93	320.68
435.30	323.30
435.68	326.17
436.05	328.97
436.42	331.73
436.79	334.26
437.16	336.97
437.53	339.81
437.90	342.69
438.27	345.44
438.64	348.33
439.01	350.93
439.38	353.18
439.75	355.34
440.13	357.80
440.50	360.14
440.87	361.97
441.24	363.92
441.61	366.09
441.98	367.59
442.35	369.41
442.72	371.23
443.09	373.06
443.46	374.04
443.83	374.66
444.20	375.18
444.57	376.04
444.94	376.32
445.31	376.71
445.68	377.01
446.05	377.07
446.42	376.67
446.79	376.28
447.16	375.86
447.53	375.53
447.90	374.38
448.27	373.19
448.64	371.62
449.01	370.47
449.37	368.49
449.74	366.59
450.11	364.41
450.48	361.93
450.85	359.35
451.22	357.21
451.59	355.19
451.96	353.29
452.33	350.73
452.70	348.41
453.07	345.56
453.43	342.71
453.80	340.00
454.17	337.31
454.54	334.76
454.91	332.02
455.28	329.38
455.65	326.93
456.02	324.51
456.38	322.42
456.75	319.79
457.12	317.54
457.49	315.40
457.86	313.16
458.23	311.37
458.59	309.35
458.96	307.26
459.33	305.40
459.70	303.51
460.07	301.94
460.43	300.18
460.80	298.53
461.17	297.05
461.54	295.54
461.91	294.12
462.27	292.65
462.64	291.38
463.01	290.04
463.38	288.70
463.74	287.35
464.11	286.15
464.48	285.15
464.85	284.06
465.21	283.12
465.58	282.21
465.95	281.08
466.32	280.15
466.68	279.28
467.05	278.32
467.42	277.43
467.78	276.51
468.15	275.63
468.52	274.98
468.88	274.11
469.25	273.32
469.62	272.66
469.98	271.98
470.35	271.33
470.72	270.69
471.08	270.00
471.45	269.44
471.82	268.84
472.18	268.16
472.55	267.67
472.92	267.13
473.28	266.65
473.65	266.19
474.02	265.70
474.38	265.30
474.75	264.97
475.11	264.60
475.48	264.32
475.85	264.08
476.21	263.83
476.58	263.61
476.94	263.43
477.31	263.26
477.67	263.06
478.04	262.96
478.41	262.85
478.77	262.87
479.14	262.80
479.50	262.78
479.87	262.83
480.23	262.87
480.60	262.92
480.96	263.00
481.33	263.18
481.69	263.40
482.06	263.55
482.42	263.76
482.79	264.04
483.15	264.32
483.52	264.68
483.88	265.01
484.25	265.37
484.61	265.82
484.98	266.29
485.34	266.87
485.71	267.43
486.07	268.01
486.44	268.56
486.80	269.25
487.17	270.00
487.53	270.84
487.90	271.69
488.26	272.62
488.62	273.58
488.99	274.54
489.35	275.56
489.72	276.65
490.08	277.80
490.44	279.00
490.81	280.31
491.17	281.61
491.54	283.03
491.90	284.58
492.26	286.17
492.63	287.85
492.99	289.57
493.36	291.49
493.72	293.54
494.08	295.63
494.45	297.88
494.81	300.24
495.17	302.62
495.54	305.17
495.90	307.84
496.26	310.63
496.63	313.57
496.99	316.67
497.35	319.93
497.72	323.32
498.08	326.80
498.44	330.44
498.80	334.39
499.17	338.46
499.53	342.58
499.89	346.95
500.26	351.47
500.62	356.12
500.98	361.03
501.34	366.11
501.71	371.44
502.07	376.81
502.43	382.35
502.79	388.17
503.16	394.23
503.52	400.47
503.88	406.86
504.24	413.47
504.60	420.34
504.97	427.47
505.33	434.79
505.69	442.46
506.05	450.22
506.41	458.05
506.78	466.23
507.14	474.70
507.50	483.39
507.86	492.35
508.22	501.58
508.59	510.75
508.95	520.30
509.31	530.07
509.67	540.17
510.03	550.43
510.39	560.97
510.75	571.76
511.12	582.67
511.48	593.91
511.84	605.31
512.20	616.76
512.56	628.65
512.92	640.86
513.28	653.13
513.64	665.65
514.00	678.36
514.37	691.28
514.73	704.35
515.09	717.35
515.45	730.61
515.81	744.22
516.17	758.23
516.53	772.31
516.89	786.46
517.25	800.65
517.61	815.17
517.97	829.57
518.33	843.98
518.69	858.80
519.05	873.91
519.41	889.10
519.77	904.71
520.13	920.27
520.49	935.67
520.85	951.12
521.21	966.92
521.57	983.17
521.93	998.94
522.29	1015.25
522.65	1031.71
523.01	1048.00
523.37	1064.02
523.73	1080.24
524.09	1096.38
524.45	1112.78
524.81	1129.46
525.17	1146.29
525.53	1163.29
525.89	1180.26
526.25	1197.14
526.61	1213.45
526.97	1230.31
527.33	1246.83
527.68	1263.43
528.04	1279.90
528.40	1296.71
528.76	1313.78
529.12	1330.40
529.48	1347.32
529.84	1363.63
530.20	1380.25
530.56	1397.36
530.91	1414.92
531.27	1431.78
531.63	1448.29
531.99	1464.93
532.35	1480.97
532.71	1496.92
533.07	1513.20
533.42	1529.15
533.78	1545.28
534.14	1561.71
534.50	1577.11
534.86	1593.11
535.21	1608.27
535.57	1624.50
535.93	1640.13
536.29	1655.02
536.65	1670.25
537.00	1685.14
537.36	1700.48
537.72	1715.09
538.08	1729.56
538.44	1743.41
538.79	1757.36
539.15	1771.26
539.51	1785.19
539.87	1799.66
540.22	1813.58
540.58	1827.54
540.94	1841.12
541.29	1854.15
541.65	1866.97
542.01	1880.30
542.37	1892.62
542.72	1905.27
543.08	1916.92
543.44	1929.27
543.79	1940.48
544.15	1951.42
544.51	1963.05
544.87	1974.01
545.22	1984.69
545.58	1994.91
545.94	2004.68
546.29	2014.61
546.65	2024.36
547.01	2033.50
547.36	2042.24
547.72	2050.71
548.07	2058.52
548.43	2066.66
548.79	2074.58
549.14	2082.08
549.50	2089.54
549.86	2097.31
550.21	2104.72
550.57	2111.90
550.92	2118.39
551.28	2125.52
551.64	2132.68
551.99	2139.37
552.35	2145.57
552.70	2151.83
553.06	2157.86
553.41	2164.22
553.77	2170.22
554.13	2176.31
554.48	2182.46
554.84	2187.80
555.19	2193.05
555.55	2198.13
555.90	2202.48
556.26	2207.32
556.61	2212.01
556.97	2216.01
557.32	2220.01
557.68	2223.88
558.03	2228.13
558.39	2231.92
558.74	2236.56
559.10	2240.18
559.45	2243.61
559.81	2247.85
560.16	2251.56
560.52	2254.76
560.87	2258.07
561.23	2260.66
561.58	2263.55
561.94	2265.95
562.29	2268.28
562.64	2270.90
563.00	2273.46
563.35	2276.87
563.71	2279.88
564.06	2282.93
564.42	2285.83
564.77	2288.26
565.12	2290.50
565.48	2292.29
565.83	2293.86
566.19	2294.92
566.54	2295.87
566.89	2296.76
567.25	2297.03
567.60	2298.26
567.96	2299.72
568.31	2300.40
568.66	2301.23
569.02	2301.69
569.37	2301.79
569.72	2302.43
570.08	2302.34
570.43	2302.16
570.78	2301.23
571.14	2299.62
571.49	2298.20
571.84	2297.71
572.20	2296.28
572.55	2294.90
572.90	2293.18
573.26	2291.57
573.61	2289.65
573.96	2287.63
574.31	2284.54
574.67	2281.43
575.02	2277.70
575.37	2274.06
575.72	2270.03
576.08	2266.60
576.43	2263.05
576.78	2259.19
577.13	2255.85
577.49	2252.68
577.84	2249.00
578.19	2245.32
578.54	2241.40
578.90	2236.88
579.25	2231.03
579.60	2226.06
579.95	2220.96
580.30	2215.71
580.66	2210.45
581.01	2205.48
581.36	2200.34
581.71	2195.94
582.06	2191.35
582.42	2186.50
582.77	2181.11
583.12	2176.42
583.47	2171.38
583.82	2166.28
584.17	2160.98
584.53	2155.30
584.88	2149.38
585.23	2143.42
585.58	2137.72
585.93	2132.15
586.28	2127.24
586.63	2122.08
586.98	2116.77
587.34	2111.95
587.69	2106.89
588.04	2101.62
588.39	2095.60
588.74	2089.15
589.09	2082.76
589.44	2075.84
589.79	2069.91
590.14	2064.24
590.49	2057.42
590.84	2051.01
591.19	2044.78
591.54	2038.27
591.89	2030.74
592.25	2023.80
592.60	2016.59
592.95	2008.77
593.30	2001.34
593.65	1993.65
594.00	1986.54
594.35	1979.21
594.70	1971.07
595.05	1963.88
595.40	1956.40
595.75	1948.96
596.10	1942.48
596.45	1935.81
596.80	1929.45
597.15	1922.62
597.50	1915.29
597.85	1908.81
598.19	1902.06
598.54	1894.99
598.89	1888.25
599.24	1882.29
599.59	1875.51
599.94	1869.16
600.29	1862.90
600.64	1856.32
600.99	1848.81
601.34	1841.82
601.69	1834.85
602.04	1827.90
602.39	1820.45
602.74	1813.60
603.08	1806.80
603.43	1800.11
603.78	1792.73
604.13	1785.56
604.48	1778.32
604.83	1771.66
605.18	1764.69
605.53	1756.66
605.87	1748.57
606.22	1741.26
606.57	1733.52
606.92	1726.23
607.27	1719.08
607.62	1712.11
607.96	1704.79
608.31	1698.33
608.66	1690.73
609.01	1683.15
609.36	1675.61
609.70	1667.73
610.05	1659.78
610.40	1652.16
610.75	1644.05
611.10	1636.45
611.44	1628.14
611.79	1620.13
612.14	1611.40
612.49	1602.47
612.83	1594.26
613.18	1586.16
613.53	1578.14
613.88	1569.44
614.22	1561.24
614.57	1552.65
614.92	1544.80
615.27	1537.11
615.61	1528.74
615.96	1520.79
616.31	1513.17
616.65	1505.91
617.00	1498.33
617.35	1490.70
617.70	1482.42
618.04	1473.91
618.39	1465.72
618.74	1458.17
619.08	1449.97
619.43	1442.43
619.78	1435.53
620.12	1428.36
620.47	1420.89
620.82	1412.81
621.16	1405.63
621.51	1398.08
621.85	1390.60
622.20	1382.06
622.55	1373.90
622.89	1366.00
623.24	1358.61
623.59	1351.40
623.93	1343.93
624.28	1336.66
624.62	1329.11
624.97	1321.90
625.32	1315.14
625.66	1308.22
626.01	1301.07
626.35	1293.54
626.70	1285.88
627.04	1278.13
627.39	1270.42
627.73	1262.98
628.08	1256.11
628.43	1248.73
628.77	1241.45
629.12	1233.90
629.46	1226.79
629.81	1219.51
630.15	1212.44
630.50	1205.02
630.84	1196.87
631.19	1188.96
631.53	1181.54
631.88	1174.09
632.22	1166.59
632.57	1159.35
632.91	1151.81
633.26	1144.47
633.60	1137.31
633.95	1130.30
634.29	1123.30
634.64	1116.68
634.98	1109.54
635.32	1102.59
635.67	1096.11
636.01	1089.53
636.36	1082.84
636.70	1076.39
637.05	1069.84
637.39	1063.55
637.73	1057.13
638.08	1051.35
638.42	1045.40
638.77	1038.99
639.11	1032.40
639.45	1026.13
639.80	1019.51
640.14	1013.18
640.49	1006.63
640.83	1000.40
641.17	994.20
641.52	987.96
641.86	981.63
642.20	975.77
642.55	969.51
642.89	963.08
643.23	956.52
643.58	950.76
643.92	944.61
644.26	938.52
644.61	932.48
644.95	926.39
645.29	919.78
645.64	913.08
645.98	906.96
646.32	901.23
646.66	895.26
647.01	889.55
647.35	883.91
647.69	878.16
648.04	872.66
648.38	866.94
648.72	860.93
649.06	854.89
649.41	849.08
649.75	843.03
650.09	837.14
650.43	831.42
650.78	825.27
651.12	819.38
651.46	813.74
651.80	807.98
652.14	802.64
652.49	797.32
652.83	792.27
653.17	786.48
653.51	780.76
653.85	775.35
654.20	769.78
654.54	763.81
654.88	758.18
655.22	752.39
655.56	746.79
655.90	741.46
656.25	736.29
656.59	730.97
656.93	725.94
657.27	720.82
657.61	715.47
657.95	710.44
658.29	705.39
658.64	700.18
658.98	694.93
659.32	689.60
659.66	684.41
660.00	679.13
660.34	674.33
660.68	669.54
661.02	664.52
661.36	659.81
661.70	655.36
662.05	651.03
662.39	646.61
662.73	642.14
663.07	637.76
663.41	633.24
663.75	628.74
664.09	624.24
664.43	619.85
664.77	615.77
665.11	611.51
665.45	607.44
665.79	603.41
666.13	599.32
666.47	595.17
666.81	591.07
667.15	586.98
667.49	583.12
667.83	579.35
668.17	575.48
668.51	571.45
668.85	567.45
669.19	563.63
669.53	559.87
669.87	556.06
670.21	552.38
670.55	548.86
670.89	545.46
671.23	542.05
671.57	538.57
671.91	535.03
672.25	531.65
672.58	528.10
672.92	524.77
673.26	521.67
673.60	518.63
673.94	515.48
674.28	512.58
674.62	509.61
674.96	506.44
675.30	503.53
675.64	500.66
675.97	497.97
676.31	495.12
676.65	492.21
676.99	489.50
677.33	486.67
677.67	483.82
678.01	480.83
678.34	477.85
678.68	475.02
679.02	472.32
679.36	469.59
679.70	466.93
680.04	464.15
680.37	461.24
680.71	458.48
681.05	455.95
681.39	453.28
681.73	450.70
682.06	448.27
682.40	445.76
682.74	443.22
683.08	440.67
683.42	438.08
683.75	435.62
684.09	433.09
684.43	430.68
684.77	428.29
685.10	425.98
685.44	423.74
685.78	421.50
686.12	419.22
686.45	416.91
686.79	414.68
687.13	412.54
687.46	410.42
687.80	408.30
688.14	406.13
688.48	404.07
688.81	401.84
689.15	399.72
689.49	397.61
689.82	395.60
690.16	393.56
690.50	391.65
690.83	389.76
691.17	387.80
691.51	385.92
691.84	384.11
692.18	382.18
692.52	380.22
692.85	378.31
693.19	376.49
693.52	374.73
693.86	372.92
694.20	371.18
694.53	369.46
694.87	367.64
695.21	365.87
695.54	364.07
695.88	362.37
696.21	360.63
696.55	358.97
696.88	357.27
697.22	355.56
697.56	353.97
697.89	352.27
698.23	350.68
698.56	349.07
698.90	347.47
699.23	345.84
699.57	344.28
699.90	342.75
700.24	341.18
700.58	339.62
700.91	338.13
701.25	336.67
701.58	335.28
701.92	333.90
702.25	332.50
702.59	331.14
702.92	329.82
703.26	328.51
703.59	327.23
703.93	326.06
704.26	324.83
704.60	323.53
704.93	322.26
705.26	321.01
705.60	319.86
705.93	318.69
706.27	317.64
706.60	316.57
706.94	315.53
707.27	314.41
707.61	313.37
707.94	312.34
708.27	311.27
708.61	310.21
708.94	309.23
709.28	308.26
709.61	307.33
709.94	306.36
710.28	305.30
710.61	304.31
710.95	303.21
711.28	302.34
711.61	301.41
711.95	300.54
712.28	299.58
712.61	298.61
712.95	297.67
713.28	296.82
713.61	295.95
713.95	295.05
714.28	294.19
714.61	293.35
714.95	292.51
715.28	291.66
715.61	290.76
715.95	289.88
716.28	289.03
716.61	288.18
716.95	287.38
717.28	286.69
717.61	285.95
717.94	285.21
718.28	284.40
718.61	283.69
718.94	283.00
719.27	282.40
719.61	281.72
719.94	281.09
720.27	280.36
720.60	279.72
720.94	279.08
721.27	278.52
721.60	277.90
721.93	277.30
722.27	276.77
722.60	276.24
722.93	275.68
723.26	275.17
723.59	274.62
723.93	274.07
724.26	273.53
724.59	273.01
724.92	272.50
725.25	272.01
725.59	271.50
725.92	270.96
726.25	270.45
726.58	269.97
726.91	269.49
727.24	269.07
727.57	268.61
727.91	268.11
728.24	267.67
728.57	267.21
728.90	266.80
729.23	266.31
729.56	265.89
729.89	265.44
730.22	264.98
730.55	264.55
730.89	264.09
731.22	263.66
731.55	263.20
731.88	262.83
732.21	262.43
732.54	262.01
732.87	261.64
733.20	261.22
733.53	260.83
733.86	260.42
734.19	260.02
734.52	259.62
734.85	259.32
735.18	258.90
735.51	258.57
735.84	258.19
736.17	257.87
736.50	257.47
736.83	257.29
737.16	256.94
737.49	256.61
737.82	256.27
738.15	255.94
738.48	255.61
738.81	255.23
739.14	254.89
739.47	254.57
739.80	254.23
740.13	253.90
740.46	253.58
740.79	253.27
741.12	252.95
741.45	252.64
741.78	252.29
742.11	252.02
742.44	251.69
742.77	251.39
743.10	251.01
743.43	250.71
743.75	250.28
744.08	250.13
744.41	249.84
744.74	249.59
745.07	249.28
745.40	249.03
745.73	248.81
746.06	248.52
746.39	248.24
746.71	247.99
747.04	247.72
747.37	247.45
747.70	247.21
748.03	246.99
748.36	246.75
748.68	246.53
749.01	246.25
749.34	246.00
749.67	245.77
750.00	245.56
750.33	245.40
750.65	245.19
750.98	244.83
751.31	244.63
751.64	244.41
751.97	244.24
752.29	244.00
752.62	243.76
752.95	243.56
753.28	243.32
753.60	243.10
753.93	242.94
754.26	242.76
754.59	242.55
754.91	242.32
755.24	242.11
755.57	241.92
755.90	241.74
756.22	241.56
756.55	241.37
756.88	241.18
757.20	240.94
757.53	240.72
757.86	240.60
758.19	240.41
758.51	240.27
758.84	240.07
759.17	239.90
759.49	239.74
759.82	239.60
760.15	239.46
760.47	239.34
760.80	239.19
761.13	239.04
761.45	238.88
761.78	238.76
762.11	238.69
762.43	238.52
762.76	238.39
763.08	238.28
763.41	238.15
763.74	238.06
764.06	237.95
764.39	237.86
764.71	237.74
765.04	237.60
765.37	237.44
765.69	237.31
766.02	237.21
766.34	237.10
766.67	237.00
767.00	236.91
767.32	236.83
767.65	236.78
767.97	236.70
768.30	236.60
768.62	236.46
768.95	236.32
769.27	236.25
769.60	236.14
769.92	236.03
770.25	235.93
770.57	235.80
770.90	235.70
771.22	235.58
771.55	235.43
771.87	235.38
772.20	235.31
772.52	235.30
772.85	235.35
773.17	235.24
773.50	235.13
773.82	235.03
774.15	234.91
774.47	234.78
774.80	234.67
775.12	234.60
775.45	234.55
775.77	234.50
776.09	234.41
776.42	234.31
776.74	234.25
777.07	234.16
777.39	234.10
777.72	234.00
778.04	233.93
778.36	233.90
778.69	233.82
779.01	233.78
779.33	233.66
779.66	233.48
779.98	233.42
780.31	233.34
780.63	233.33
780.95	233.30
781.28	233.22
781.60	233.13
781.92	233.08
782.25	233.02
782.57	232.93
782.89	232.88
783.22	232.85
783.54	232.80
783.86	232.76
784.19	232.68
784.51	232.64
784.83	232.60
785.16	232.52
785.48	232.45
785.80	232.37
786.12	232.33
786.45	232.24
786.77	232.21
787.09	232.16
