SpectraSuite Data File
++++++++++++++++++++++++++++++++++++
Date: Fri Feb 01 15:37:31 EST 2013
User: group
Dark Spectrum Present: No
Reference Spectrum Present: No
Number of Sampled Component Spectra: 1
Spectrometers: USB2E7196
Integration Time (usec): 35000 (USB2E7196)
Spectra Averaged: 100 (USB2E7196)
Boxcar Smoothing: 10 (USB2E7196)
Correct for Electrical Dark: No (USB2E7196)
Strobe/Lamp Enabled: No (USB2E7196)
Correct for Detector Non-linearity: No (USB2E7196)
Correct for Stray Light: No (USB2E7196)
Number of Pixels in Processed Spectrum: 2048
>>>>>Begin Processed Spectral Data<<<<<
339.09	0.00
339.48	214.52
339.86	216.48
340.24	217.65
340.63	219.17
341.01	221.75
341.39	221.14
341.78	223.51
342.16	224.20
342.54	224.68
342.93	213.15
343.31	223.91
343.69	224.47
344.07	224.92
344.46	225.36
344.84	225.73
345.22	225.98
345.60	226.26
345.99	226.41
346.37	226.55
346.75	226.67
347.13	226.74
347.52	226.82
347.90	226.90
348.28	226.94
348.66	226.98
349.05	226.97
349.43	227.02
349.81	227.10
350.19	227.16
350.57	227.20
350.96	227.23
351.34	227.33
351.72	227.43
352.10	227.54
352.48	227.60
352.87	227.67
353.25	227.74
353.63	227.80
354.01	227.91
354.39	228.00
354.77	228.07
355.15	228.15
355.54	228.18
355.92	228.20
356.30	228.27
356.68	228.42
357.06	228.50
357.44	228.55
357.82	228.60
358.20	228.65
358.58	228.72
358.97	228.78
359.35	228.84
359.73	228.92
360.11	228.95
360.49	229.03
360.87	229.08
361.25	229.11
361.63	229.20
362.01	229.21
362.39	229.23
362.77	229.26
363.15	229.30
363.53	229.37
363.91	229.42
364.29	229.46
364.67	229.35
365.05	229.36
365.43	229.38
365.81	229.39
366.19	229.42
366.57	229.43
366.95	229.46
367.33	229.46
367.71	229.41
368.09	229.42
368.47	229.35
368.85	229.32
369.23	229.34
369.61	229.26
369.99	229.28
370.37	229.26
370.75	229.27
371.13	229.22
371.51	229.13
371.89	229.07
372.27	229.00
372.65	228.99
373.03	228.96
373.41	228.88
373.78	228.83
374.16	228.73
374.54	228.64
374.92	228.52
375.30	228.44
375.68	228.35
376.06	228.26
376.44	228.20
376.82	228.10
377.19	227.98
377.57	227.89
377.95	227.77
378.33	227.67
378.71	227.54
379.09	227.47
379.47	227.41
379.84	227.31
380.22	227.22
380.60	227.11
380.98	226.99
381.36	226.92
381.73	226.86
382.11	226.80
382.49	226.73
382.87	226.67
383.25	226.60
383.62	226.66
384.00	226.61
384.38	226.56
384.76	226.53
385.13	226.52
385.51	226.49
385.89	226.43
386.27	226.39
386.64	226.34
387.02	226.30
387.40	226.24
387.78	226.20
388.15	226.18
388.53	226.14
388.91	226.14
389.29	226.11
389.66	226.10
390.04	226.07
390.42	226.09
390.79	226.08
391.17	226.07
391.55	225.96
391.92	225.95
392.30	225.96
392.68	225.95
393.05	225.95
393.43	225.93
393.81	225.95
394.18	225.96
394.56	226.01
394.94	226.04
395.31	226.09
395.69	226.18
396.06	226.22
396.44	226.27
396.82	226.31
397.19	226.41
397.57	226.46
397.95	226.57
398.32	226.58
398.70	226.63
399.07	226.74
399.45	226.83
399.82	226.86
400.20	226.91
400.58	226.98
400.95	227.05
401.33	227.18
401.70	227.34
402.08	227.41
402.45	227.48
402.83	227.59
403.20	227.73
403.58	227.80
403.95	227.94
404.33	228.05
404.71	228.17
405.08	228.32
405.46	228.44
405.83	228.55
406.21	228.71
406.58	228.91
406.96	229.04
407.33	229.22
407.70	229.42
408.08	229.67
408.45	229.91
408.83	230.13
409.20	230.36
409.58	230.53
409.95	230.80
410.33	231.05
410.70	231.30
411.08	231.59
411.45	231.88
411.82	232.18
412.20	232.56
412.57	232.99
412.95	233.27
413.32	233.67
413.69	234.07
414.07	234.51
414.44	234.96
414.82	235.45
415.19	236.00
415.56	236.57
415.94	237.12
416.31	237.74
416.68	238.33
417.06	239.04
417.43	239.71
417.81	240.47
418.18	241.29
418.55	242.10
418.93	242.93
419.30	243.83
419.67	244.80
420.04	245.73
420.42	246.74
420.79	247.94
421.16	249.11
421.54	250.29
421.91	251.52
422.28	252.79
422.66	254.13
423.03	255.45
423.40	256.79
423.77	258.22
424.15	259.67
424.52	261.15
424.89	262.74
425.26	264.29
425.64	265.76
426.01	267.35
426.38	269.06
426.75	270.74
427.13	272.49
427.50	274.29
427.87	276.17
428.24	278.02
428.61	279.72
428.99	281.65
429.36	283.73
429.73	285.80
430.10	287.83
430.47	289.90
430.85	292.02
431.22	294.23
431.59	296.65
431.96	298.90
432.33	301.45
432.70	303.88
433.08	306.72
433.45	309.40
433.82	312.05
434.19	314.93
434.56	317.78
434.93	320.45
435.30	323.08
435.68	326.00
436.05	328.87
436.42	331.66
436.79	334.20
437.16	336.92
437.53	339.76
437.90	342.54
438.27	345.26
438.64	348.10
439.01	350.73
439.38	352.92
439.75	355.06
440.13	357.54
440.50	359.87
440.87	361.73
441.24	363.62
441.61	365.73
441.98	367.20
442.35	368.98
442.72	370.81
443.09	372.62
443.46	373.60
443.83	374.15
444.20	374.70
444.57	375.54
444.94	375.84
445.31	376.17
445.68	376.56
446.05	376.63
446.42	376.26
446.79	375.81
447.16	375.36
447.53	375.07
447.90	373.90
448.27	372.69
448.64	371.07
449.01	369.96
449.37	368.00
449.74	366.11
450.11	363.83
450.48	361.36
450.85	358.86
451.22	356.71
451.59	354.69
451.96	352.75
452.33	350.12
452.70	347.73
453.07	344.90
453.43	341.97
453.80	339.22
454.17	336.48
454.54	333.92
454.91	331.23
455.28	328.55
455.65	326.09
456.02	323.64
456.38	321.50
456.75	318.79
457.12	316.51
457.49	314.30
457.86	312.16
458.23	310.30
458.59	308.21
458.96	306.16
459.33	304.29
459.70	302.41
460.07	300.90
460.43	299.20
460.80	297.60
461.17	296.18
461.54	294.65
461.91	293.27
462.27	291.81
462.64	290.53
463.01	289.18
463.38	287.86
463.74	286.51
464.11	285.32
464.48	284.32
464.85	283.22
465.21	282.35
465.58	281.45
465.95	280.37
466.32	279.49
466.68	278.55
467.05	277.64
467.42	276.74
467.78	275.85
468.15	274.96
468.52	274.31
468.88	273.40
469.25	272.63
469.62	272.03
469.98	271.40
470.35	270.79
470.72	270.19
471.08	269.55
471.45	269.04
471.82	268.53
472.18	267.93
472.55	267.50
472.92	266.96
473.28	266.46
473.65	266.02
474.02	265.57
474.38	265.21
474.75	264.91
475.11	264.59
475.48	264.34
475.85	264.12
476.21	263.89
476.58	263.74
476.94	263.61
477.31	263.41
477.67	263.24
478.04	263.12
478.41	263.05
478.77	263.06
479.14	262.96
479.50	262.93
479.87	263.00
480.23	263.08
480.60	263.15
480.96	263.23
481.33	263.41
481.69	263.57
482.06	263.77
482.42	263.96
482.79	264.24
483.15	264.52
483.52	264.89
483.88	265.23
484.25	265.61
484.61	266.05
484.98	266.47
485.34	267.00
485.71	267.57
486.07	268.15
486.44	268.71
486.80	269.39
487.17	270.13
487.53	270.94
487.90	271.77
488.26	272.71
488.62	273.74
488.99	274.70
489.35	275.75
489.72	276.86
490.08	278.06
490.44	279.29
490.81	280.62
491.17	281.96
491.54	283.42
491.90	284.95
492.26	286.58
492.63	288.33
492.99	290.12
493.36	292.02
493.72	294.08
494.08	296.17
494.45	298.42
494.81	300.83
495.17	303.26
495.54	305.85
495.90	308.51
496.26	311.26
496.63	314.24
496.99	317.38
497.35	320.63
497.72	324.05
498.08	327.57
498.44	331.21
498.80	335.12
499.17	339.18
499.53	343.34
499.89	347.65
500.26	352.18
500.62	356.89
500.98	361.88
501.34	366.92
501.71	372.30
502.07	377.78
502.43	383.36
502.79	389.17
503.16	395.25
503.52	401.52
503.88	407.92
504.24	414.53
504.60	421.42
504.97	428.49
505.33	435.73
505.69	443.39
506.05	451.22
506.41	459.18
506.78	467.27
507.14	475.74
507.50	484.51
507.86	493.50
508.22	502.63
508.59	511.79
508.95	521.37
509.31	531.17
509.67	541.21
510.03	551.48
510.39	562.05
510.75	572.85
511.12	583.85
511.48	595.16
511.84	606.66
512.20	618.09
512.56	630.12
512.92	642.36
513.28	654.76
513.64	667.17
514.00	679.85
514.37	692.88
514.73	705.93
515.09	718.97
515.45	732.27
515.81	745.99
516.17	760.06
516.53	774.18
516.89	788.40
517.25	802.57
517.61	817.02
517.97	831.49
518.33	845.95
518.69	860.69
519.05	875.63
519.41	890.82
519.77	906.48
520.13	921.98
520.49	937.29
520.85	952.74
521.21	968.50
521.57	984.73
521.93	1000.56
522.29	1017.04
522.65	1033.31
523.01	1049.64
523.37	1065.50
523.73	1081.68
524.09	1097.79
524.45	1114.11
524.81	1130.80
525.17	1147.62
525.53	1164.59
525.89	1181.38
526.25	1198.26
526.61	1214.71
526.97	1231.44
527.33	1247.94
527.68	1264.55
528.04	1281.01
528.40	1297.64
528.76	1314.62
529.12	1331.24
529.48	1348.07
529.84	1364.00
530.20	1380.60
530.56	1397.52
530.91	1415.07
531.27	1431.84
531.63	1448.37
531.99	1465.02
532.35	1480.92
532.71	1496.82
533.07	1512.95
533.42	1528.91
533.78	1544.87
534.14	1561.08
534.50	1576.45
534.86	1592.30
535.21	1607.47
535.57	1623.54
535.93	1639.11
536.29	1654.05
536.65	1669.22
537.00	1683.97
537.36	1699.43
537.72	1713.99
538.08	1728.52
538.44	1742.27
538.79	1756.11
539.15	1769.76
539.51	1783.37
539.87	1797.84
540.22	1811.69
540.58	1825.57
540.94	1838.88
541.29	1852.00
541.65	1864.77
542.01	1878.14
542.37	1890.47
542.72	1902.89
543.08	1914.70
543.44	1926.99
543.79	1938.29
544.15	1949.22
544.51	1960.82
544.87	1971.75
545.22	1982.64
545.58	1992.78
545.94	2002.57
546.29	2012.53
546.65	2022.44
547.01	2031.80
547.36	2040.51
547.72	2048.92
548.07	2056.81
548.43	2065.04
548.79	2073.03
549.14	2080.59
549.50	2087.84
549.86	2095.52
550.21	2102.72
550.57	2109.91
550.92	2116.59
551.28	2123.60
551.64	2130.70
551.99	2137.20
552.35	2143.37
552.70	2149.51
553.06	2155.48
553.41	2161.89
553.77	2167.84
554.13	2173.81
554.48	2179.96
554.84	2185.35
555.19	2190.76
555.55	2195.95
555.90	2200.43
556.26	2205.00
556.61	2209.78
556.97	2213.83
557.32	2217.90
557.68	2222.09
558.03	2226.34
558.39	2229.94
558.74	2234.63
559.10	2238.50
559.45	2242.15
559.81	2246.40
560.16	2250.11
560.52	2253.25
560.87	2256.61
561.23	2259.29
561.58	2262.26
561.94	2264.72
562.29	2267.19
562.64	2269.64
563.00	2272.19
563.35	2275.69
563.71	2279.00
564.06	2282.18
564.42	2285.02
564.77	2287.59
565.12	2289.86
565.48	2291.79
565.83	2293.71
566.19	2294.94
566.54	2295.84
566.89	2296.99
567.25	2297.57
567.60	2299.11
567.96	2300.83
568.31	2301.58
568.66	2302.71
569.02	2303.36
569.37	2303.79
569.72	2304.61
570.08	2304.81
570.43	2304.84
570.78	2304.20
571.14	2302.74
571.49	2301.37
571.84	2301.31
572.20	2300.10
572.55	2298.99
572.90	2297.43
573.26	2295.89
573.61	2294.15
573.96	2292.20
574.31	2289.21
574.67	2286.16
575.02	2282.45
575.37	2279.14
575.72	2275.36
576.08	2271.87
576.43	2268.57
576.78	2264.64
577.13	2261.53
577.49	2258.51
577.84	2254.94
578.19	2251.18
578.54	2247.42
578.90	2243.06
579.25	2237.36
579.60	2232.42
579.95	2227.36
580.30	2222.23
580.66	2217.15
581.01	2212.13
581.36	2207.26
581.71	2202.88
582.06	2198.49
582.42	2193.77
582.77	2188.36
583.12	2183.70
583.47	2178.93
583.82	2173.73
584.17	2168.59
584.53	2162.86
584.88	2157.01
585.23	2151.21
585.58	2145.78
585.93	2140.24
586.28	2135.59
586.63	2130.46
586.98	2125.28
587.34	2120.60
587.69	2115.59
588.04	2110.27
588.39	2104.62
588.74	2098.13
589.09	2092.15
589.44	2085.24
589.79	2079.42
590.14	2073.80
590.49	2067.34
590.84	2061.04
591.19	2055.01
591.54	2048.55
591.89	2041.15
592.25	2034.36
592.60	2027.09
592.95	2019.46
593.30	2012.00
593.65	2004.25
594.00	1997.31
594.35	1990.27
594.70	1982.25
595.05	1974.98
595.40	1967.60
595.75	1959.93
596.10	1953.62
596.45	1946.63
596.80	1940.42
597.15	1933.62
597.50	1926.41
597.85	1919.87
598.19	1913.11
598.54	1906.03
598.89	1899.28
599.24	1893.55
599.59	1886.75
599.94	1880.57
600.29	1874.18
600.64	1867.65
600.99	1860.21
601.34	1853.31
601.69	1846.16
602.04	1839.27
602.39	1832.04
602.74	1825.16
603.08	1818.54
603.43	1811.89
603.78	1804.76
604.13	1797.58
604.48	1790.34
604.83	1783.69
605.18	1776.60
605.53	1768.50
605.87	1760.41
606.22	1753.24
606.57	1745.09
606.92	1737.82
607.27	1730.62
607.62	1723.67
607.96	1716.48
608.31	1709.81
608.66	1702.06
609.01	1694.43
609.36	1686.81
609.70	1678.71
610.05	1670.69
610.40	1662.91
610.75	1654.50
611.10	1646.70
611.44	1638.27
611.79	1630.18
612.14	1621.45
612.49	1612.32
612.83	1604.12
613.18	1596.03
613.53	1587.82
613.88	1579.33
614.22	1571.08
614.57	1562.36
614.92	1554.30
615.27	1546.63
615.61	1538.33
615.96	1530.40
616.31	1522.87
616.65	1515.52
617.00	1507.99
617.35	1500.33
617.70	1491.90
618.04	1483.42
618.39	1475.27
618.74	1467.71
619.08	1459.43
619.43	1451.78
619.78	1444.91
620.12	1437.71
620.47	1430.15
620.82	1422.07
621.16	1414.67
621.51	1407.09
621.85	1399.53
622.20	1391.00
622.55	1382.62
622.89	1374.80
623.24	1367.18
623.59	1359.75
623.93	1352.24
624.28	1345.09
624.62	1337.63
624.97	1330.56
625.32	1323.78
625.66	1316.77
626.01	1309.45
626.35	1301.98
626.70	1294.26
627.04	1286.59
627.39	1278.83
627.73	1271.46
628.08	1264.47
628.43	1257.13
628.77	1249.68
629.12	1242.13
629.46	1234.97
629.81	1227.59
630.15	1220.30
630.50	1212.86
630.84	1204.70
631.19	1196.81
631.53	1189.17
631.88	1181.66
632.22	1173.98
632.57	1166.68
632.91	1159.17
633.26	1151.77
633.60	1144.46
633.95	1137.46
634.29	1130.34
634.64	1123.62
634.98	1116.24
635.32	1109.15
635.67	1102.61
636.01	1096.00
636.36	1089.22
636.70	1082.71
637.05	1076.17
637.39	1069.76
637.73	1063.21
638.08	1057.25
638.42	1051.14
638.77	1044.73
639.11	1037.98
639.45	1031.68
639.80	1025.07
640.14	1018.61
640.49	1012.09
640.83	1005.78
641.17	999.40
641.52	993.05
641.86	986.66
642.20	980.82
642.55	974.49
642.89	968.03
643.23	961.52
643.58	955.76
643.92	949.49
644.26	943.40
644.61	937.45
644.95	931.45
645.29	924.86
645.64	918.19
645.98	911.96
646.32	906.26
646.66	900.22
647.01	894.41
647.35	888.69
647.69	882.89
648.04	877.34
648.38	871.53
648.72	865.61
649.06	859.43
649.41	853.51
649.75	847.54
650.09	841.52
650.43	835.76
650.78	829.64
651.12	823.76
651.46	818.08
651.80	812.28
652.14	806.90
652.49	801.55
652.83	796.38
653.17	790.63
653.51	784.81
653.85	779.41
654.20	773.78
654.54	767.74
654.88	762.06
655.22	756.25
655.56	750.64
655.90	745.21
656.25	740.04
656.59	734.74
656.93	729.68
657.27	724.58
657.61	719.13
657.95	714.05
658.29	708.95
658.64	703.76
658.98	698.44
659.32	693.02
659.66	687.85
660.00	682.50
660.34	677.56
660.68	672.65
661.02	667.67
661.36	662.98
661.70	658.54
662.05	654.13
662.39	649.74
662.73	645.27
663.07	640.83
663.41	636.35
663.75	631.88
664.09	627.29
664.43	622.87
664.77	618.71
665.11	614.43
665.45	610.33
665.79	606.17
666.13	602.11
666.47	597.99
666.81	593.80
667.15	589.76
667.49	585.84
667.83	582.04
668.17	578.04
668.51	573.94
668.85	569.92
669.19	566.07
669.53	562.26
669.87	558.36
670.21	554.70
670.55	551.05
670.89	547.61
671.23	544.23
671.57	540.74
671.91	537.17
672.25	533.67
672.58	530.12
672.92	526.78
673.26	523.55
673.60	520.40
673.94	517.32
674.28	514.45
674.62	511.55
674.96	508.53
675.30	505.65
675.64	502.72
675.97	499.95
676.31	497.11
676.65	494.12
676.99	491.43
677.33	488.54
677.67	485.73
678.01	482.61
678.34	479.58
678.68	476.72
679.02	473.98
679.36	471.26
679.70	468.55
680.04	465.73
680.37	462.90
680.71	460.09
681.05	457.46
681.39	454.68
681.73	451.99
682.06	449.40
682.40	446.87
682.74	444.34
683.08	441.81
683.42	439.28
683.75	436.83
684.09	434.30
684.43	431.90
684.77	429.44
685.10	427.17
685.44	424.91
685.78	422.64
686.12	420.39
686.45	418.11
686.79	415.83
687.13	413.69
687.46	411.53
687.80	409.48
688.14	407.24
688.48	405.19
688.81	402.93
689.15	400.85
689.49	398.71
689.82	396.67
690.16	394.58
690.50	392.61
690.83	390.71
691.17	388.75
691.51	386.82
691.84	385.03
692.18	383.10
692.52	381.10
692.85	379.21
693.19	377.38
693.52	375.52
693.86	373.74
694.20	371.95
694.53	370.15
694.87	368.30
695.21	366.56
695.54	364.78
695.88	363.10
696.21	361.38
696.55	359.63
696.88	357.89
697.22	356.30
697.56	354.69
697.89	352.94
698.23	351.31
698.56	349.70
698.90	348.10
699.23	346.43
699.57	344.90
699.90	343.31
700.24	341.69
700.58	340.18
700.91	338.63
701.25	337.18
701.58	335.82
701.92	334.41
702.25	333.01
702.59	331.60
702.92	330.21
703.26	328.84
703.59	327.53
703.93	326.37
704.26	325.08
704.60	323.74
704.93	322.46
705.26	321.26
705.60	320.09
705.93	318.92
706.27	317.89
706.60	316.85
706.94	315.79
707.27	314.67
707.61	313.57
707.94	312.57
708.27	311.46
708.61	310.36
708.94	309.38
709.28	308.42
709.61	307.45
709.94	306.53
710.28	305.50
710.61	304.57
710.95	303.51
711.28	302.56
711.61	301.61
711.95	300.73
712.28	299.75
712.61	298.76
712.95	297.80
713.28	296.92
713.61	295.98
713.95	295.08
714.28	294.25
714.61	293.40
714.95	292.53
715.28	291.67
715.61	290.75
715.95	289.87
716.28	288.99
716.61	288.17
716.95	287.36
717.28	286.62
717.61	285.87
717.94	285.08
718.28	284.28
718.61	283.58
718.94	282.91
719.27	282.25
719.61	281.58
719.94	280.92
720.27	280.20
720.60	279.58
720.94	278.93
721.27	278.34
721.60	277.78
721.93	277.20
722.27	276.67
722.60	276.14
722.93	275.59
723.26	275.08
723.59	274.54
723.93	274.00
724.26	273.45
724.59	272.92
724.92	272.43
725.25	271.96
725.59	271.42
725.92	270.90
726.25	270.41
726.58	269.92
726.91	269.45
727.24	269.02
727.57	268.56
727.91	268.07
728.24	267.64
728.57	267.16
728.90	266.76
729.23	266.27
729.56	265.91
729.89	265.46
730.22	264.96
730.55	264.51
730.89	264.05
731.22	263.64
731.55	263.22
731.88	262.81
732.21	262.38
732.54	261.98
732.87	261.53
733.20	261.13
733.53	260.81
733.86	260.41
734.19	259.99
734.52	259.61
734.85	259.33
735.18	258.90
735.51	258.54
735.84	258.16
736.17	257.81
736.50	257.39
736.83	257.14
737.16	256.86
737.49	256.52
737.82	256.20
738.15	255.86
738.48	255.52
738.81	255.18
739.14	254.89
739.47	254.57
739.80	254.27
740.13	253.93
740.46	253.57
740.79	253.24
741.12	252.96
741.45	252.61
741.78	252.24
742.11	251.94
742.44	251.62
742.77	251.34
743.10	251.04
743.43	250.71
743.75	250.35
744.08	250.15
744.41	249.84
744.74	249.55
745.07	249.26
745.40	249.00
745.73	248.76
746.06	248.44
746.39	248.19
746.71	247.93
747.04	247.67
747.37	247.38
747.70	247.13
748.03	246.87
748.36	246.65
748.68	246.38
749.01	246.14
749.34	245.86
749.67	245.62
750.00	245.36
750.33	245.20
750.65	244.96
750.98	244.61
751.31	244.41
751.64	244.18
751.97	243.98
752.29	243.75
752.62	243.46
752.95	243.24
753.28	243.01
753.60	242.79
753.93	242.64
754.26	242.48
754.59	242.26
754.91	242.04
755.24	241.84
755.57	241.66
755.90	241.45
756.22	241.28
756.55	241.05
756.88	240.86
757.20	240.62
757.53	240.43
757.86	240.28
758.19	240.13
758.51	239.98
758.84	239.82
759.17	239.65
759.49	239.51
759.82	239.40
760.15	239.21
760.47	239.06
760.80	238.86
761.13	238.68
761.45	238.54
761.78	238.40
762.11	238.26
762.43	238.13
762.76	238.03
763.08	237.91
763.41	237.82
763.74	237.71
764.06	237.62
764.39	237.49
764.71	237.33
765.04	237.19
765.37	237.06
765.69	236.92
766.02	236.79
766.34	236.67
766.67	236.55
767.00	236.49
767.32	236.43
767.65	236.40
767.97	236.28
768.30	236.17
768.62	236.07
768.95	235.94
769.27	235.81
769.60	235.69
769.92	235.58
770.25	235.44
770.57	235.33
770.90	235.18
771.22	235.03
771.55	234.98
771.87	234.87
772.20	234.79
772.52	234.78
772.85	234.84
773.17	234.76
773.50	234.66
773.82	234.56
774.15	234.42
774.47	234.25
774.80	234.17
775.12	234.10
775.45	234.03
775.77	233.94
776.09	233.87
776.42	233.79
776.74	233.71
777.07	233.61
777.39	233.53
777.72	233.46
778.04	233.44
778.36	233.35
778.69	233.25
779.01	233.18
779.33	233.01
779.66	232.81
779.98	232.72
780.31	232.63
780.63	232.58
780.95	232.51
781.28	232.43
781.60	232.39
781.92	232.34
782.25	232.29
782.57	232.24
782.89	232.16
783.22	232.09
783.54	232.00
783.86	231.95
784.19	231.89
784.51	231.89
784.83	231.79
785.16	231.71
785.48	231.67
785.80	231.59
786.12	231.56
786.45	231.51
786.77	231.48
787.09	231.41
