SpectraSuite Data File
++++++++++++++++++++++++++++++++++++
Date: Fri Feb 01 15:48:17 EST 2013
User: group
Dark Spectrum Present: No
Reference Spectrum Present: No
Number of Sampled Component Spectra: 1
Spectrometers: USB2E7196
Integration Time (usec): 35000 (USB2E7196)
Spectra Averaged: 100 (USB2E7196)
Boxcar Smoothing: 10 (USB2E7196)
Correct for Electrical Dark: No (USB2E7196)
Strobe/Lamp Enabled: No (USB2E7196)
Correct for Detector Non-linearity: No (USB2E7196)
Correct for Stray Light: No (USB2E7196)
Number of Pixels in Processed Spectrum: 2048
>>>>>Begin Processed Spectral Data<<<<<
339.09	0.00
339.48	214.90
339.86	216.23
340.24	218.54
340.63	219.35
341.01	221.85
341.39	221.99
341.78	222.69
342.16	224.15
342.54	224.86
342.93	213.21
343.31	223.97
343.69	224.51
344.07	224.98
344.46	225.37
344.84	225.74
345.22	225.98
345.60	226.21
345.99	226.41
346.37	226.52
346.75	226.59
347.13	226.63
347.52	226.68
347.90	226.76
348.28	226.80
348.66	226.82
349.05	226.82
349.43	226.87
349.81	226.89
350.19	226.95
350.57	227.01
350.96	227.09
351.34	227.20
351.72	227.28
352.10	227.39
352.48	227.44
352.87	227.47
353.25	227.55
353.63	227.65
354.01	227.74
354.39	227.82
354.77	227.93
355.15	228.06
355.54	228.11
355.92	228.14
356.30	228.22
356.68	228.33
357.06	228.44
357.44	228.47
357.82	228.53
358.20	228.60
358.58	228.68
358.97	228.74
359.35	228.81
359.73	228.91
360.11	228.95
360.49	229.05
360.87	229.11
361.25	229.15
361.63	229.17
362.01	229.21
362.39	229.25
362.77	229.33
363.15	229.32
363.53	229.35
363.91	229.42
364.29	229.44
364.67	229.41
365.05	229.40
365.43	229.44
365.81	229.48
366.19	229.54
366.57	229.53
366.95	229.53
367.33	229.50
367.71	229.46
368.09	229.43
368.47	229.40
368.85	229.37
369.23	229.37
369.61	229.34
369.99	229.32
370.37	229.29
370.75	229.27
371.13	229.24
371.51	229.19
371.89	229.11
372.27	229.08
372.65	229.03
373.03	228.99
373.41	228.91
373.78	228.81
374.16	228.70
374.54	228.63
374.92	228.54
375.30	228.47
375.68	228.36
376.06	228.34
376.44	228.23
376.82	228.16
377.19	228.09
377.57	227.99
377.95	227.90
378.33	227.85
378.71	227.72
379.09	227.66
379.47	227.62
379.84	227.55
380.22	227.44
380.60	227.37
380.98	227.29
381.36	227.22
381.73	227.17
382.11	227.11
382.49	227.06
382.87	226.99
383.25	226.93
383.62	227.05
384.00	226.94
384.38	226.87
384.76	226.84
385.13	226.81
385.51	226.78
385.89	226.70
386.27	226.67
386.64	226.61
387.02	226.54
387.40	226.45
387.78	226.41
388.15	226.37
388.53	226.34
388.91	226.29
389.29	226.29
389.66	226.28
390.04	226.21
390.42	226.21
390.79	226.22
391.17	226.18
391.55	226.05
391.92	226.03
392.30	226.07
392.68	226.04
393.05	226.06
393.43	226.04
393.81	226.05
394.18	226.04
394.56	226.08
394.94	226.12
395.31	226.17
395.69	226.30
396.06	226.34
396.44	226.39
396.82	226.43
397.19	226.52
397.57	226.55
397.95	226.67
398.32	226.68
398.70	226.75
399.07	226.86
399.45	226.91
399.82	227.02
400.20	227.10
400.58	227.20
400.95	227.23
401.33	227.36
401.70	227.54
402.08	227.62
402.45	227.71
402.83	227.84
403.20	227.95
403.58	228.03
403.95	228.18
404.33	228.30
404.71	228.45
405.08	228.61
405.46	228.76
405.83	228.90
406.21	229.05
406.58	229.23
406.96	229.38
407.33	229.57
407.70	229.77
408.08	230.01
408.45	230.23
408.83	230.45
409.20	230.67
409.58	230.86
409.95	231.13
410.33	231.42
410.70	231.66
411.08	231.94
411.45	232.22
411.82	232.47
412.20	232.83
412.57	233.20
412.95	233.46
413.32	233.84
413.69	234.23
414.07	234.68
414.44	235.09
414.82	235.55
415.19	236.10
415.56	236.63
415.94	237.15
416.31	237.77
416.68	238.40
417.06	239.11
417.43	239.79
417.81	240.57
418.18	241.34
418.55	242.18
418.93	243.06
419.30	243.98
419.67	244.95
420.04	245.87
420.42	246.92
420.79	248.10
421.16	249.22
421.54	250.37
421.91	251.60
422.28	252.89
422.66	254.23
423.03	255.49
423.40	256.83
423.77	258.23
424.15	259.65
424.52	261.13
424.89	262.71
425.26	264.24
425.64	265.74
426.01	267.33
426.38	268.97
426.75	270.61
427.13	272.33
427.50	274.14
427.87	276.04
428.24	277.91
428.61	279.64
428.99	281.62
429.36	283.76
429.73	285.80
430.10	287.83
430.47	289.85
430.85	291.99
431.22	294.20
431.59	296.63
431.96	298.85
432.33	301.33
432.70	303.70
433.08	306.53
433.45	309.12
433.82	311.67
434.19	314.55
434.56	317.38
434.93	320.02
435.30	322.62
435.68	325.48
436.05	328.24
436.42	331.09
436.79	333.61
437.16	336.29
437.53	339.17
437.90	341.96
438.27	344.76
438.64	347.58
439.01	350.18
439.38	352.43
439.75	354.62
440.13	357.09
440.50	359.47
440.87	361.29
441.24	363.26
441.61	365.46
441.98	366.97
442.35	368.76
442.72	370.62
443.09	372.43
443.46	373.42
443.83	374.04
444.20	374.56
444.57	375.38
444.94	375.67
445.31	375.93
445.68	376.28
446.05	376.35
446.42	375.95
446.79	375.57
447.16	375.06
447.53	374.76
447.90	373.64
448.27	372.49
448.64	370.90
449.01	369.76
449.37	367.75
449.74	365.83
450.11	363.62
450.48	361.14
450.85	358.63
451.22	356.53
451.59	354.49
451.96	352.52
452.33	349.93
452.70	347.55
453.07	344.75
453.43	341.86
453.80	339.08
454.17	336.42
454.54	333.88
454.91	331.18
455.28	328.51
455.65	326.04
456.02	323.58
456.38	321.45
456.75	318.84
457.12	316.61
457.49	314.38
457.86	312.23
458.23	310.37
458.59	308.33
458.96	306.27
459.33	304.47
459.70	302.63
460.07	301.15
460.43	299.48
460.80	297.89
461.17	296.49
461.54	295.02
461.91	293.62
462.27	292.18
462.64	290.95
463.01	289.59
463.38	288.29
463.74	286.91
464.11	285.75
464.48	284.69
464.85	283.60
465.21	282.75
465.58	281.78
465.95	280.70
466.32	279.79
466.68	278.86
467.05	277.94
467.42	277.07
467.78	276.14
468.15	275.24
468.52	274.56
468.88	273.70
469.25	272.94
469.62	272.27
469.98	271.56
470.35	270.89
470.72	270.28
471.08	269.59
471.45	269.03
471.82	268.50
472.18	267.88
472.55	267.45
472.92	266.94
473.28	266.51
473.65	266.05
474.02	265.60
474.38	265.24
474.75	264.91
475.11	264.50
475.48	264.20
475.85	263.97
476.21	263.74
476.58	263.51
476.94	263.34
477.31	263.19
477.67	263.07
478.04	262.98
478.41	262.93
478.77	262.97
479.14	262.93
479.50	262.89
479.87	262.96
480.23	263.02
480.60	263.07
480.96	263.14
481.33	263.30
481.69	263.47
482.06	263.64
482.42	263.81
482.79	264.08
483.15	264.41
483.52	264.77
483.88	265.09
484.25	265.48
484.61	265.90
484.98	266.34
485.34	266.90
485.71	267.45
486.07	268.02
486.44	268.60
486.80	269.30
487.17	270.06
487.53	270.89
487.90	271.73
488.26	272.66
488.62	273.68
488.99	274.67
489.35	275.76
489.72	276.88
490.08	278.11
490.44	279.33
490.81	280.68
491.17	282.04
491.54	283.55
491.90	285.08
492.26	286.71
492.63	288.44
492.99	290.22
493.36	292.14
493.72	294.23
494.08	296.34
494.45	298.58
494.81	300.92
495.17	303.32
495.54	305.87
495.90	308.56
496.26	311.34
496.63	314.34
496.99	317.45
497.35	320.72
497.72	324.12
498.08	327.66
498.44	331.31
498.80	335.28
499.17	339.29
499.53	343.49
499.89	347.87
500.26	352.41
500.62	357.12
500.98	362.08
501.34	367.19
501.71	372.54
502.07	377.96
502.43	383.63
502.79	389.48
503.16	395.56
503.52	401.88
503.88	408.28
504.24	414.95
504.60	421.89
504.97	429.06
505.33	436.38
505.69	444.12
506.05	451.92
506.41	459.81
506.78	468.03
507.14	476.49
507.50	485.26
507.86	494.28
508.22	503.47
508.59	512.77
508.95	522.30
509.31	532.09
509.67	542.22
510.03	552.50
510.39	563.07
510.75	573.85
511.12	584.77
511.48	596.10
511.84	607.52
512.20	619.00
512.56	630.93
512.92	643.11
513.28	655.48
513.64	667.95
514.00	680.62
514.37	693.56
514.73	706.68
515.09	719.73
515.45	732.99
515.81	746.59
516.17	760.46
516.53	774.53
516.89	788.77
517.25	802.95
517.61	817.37
517.97	831.80
518.33	846.24
518.69	861.02
519.05	876.04
519.41	891.24
519.77	906.84
520.13	922.26
520.49	937.68
520.85	953.08
521.21	968.90
521.57	985.29
521.93	1001.11
522.29	1017.44
522.65	1033.70
523.01	1049.95
523.37	1065.96
523.73	1082.14
524.09	1098.27
524.45	1114.54
524.81	1131.18
525.17	1147.91
525.53	1164.88
525.89	1181.73
526.25	1198.61
526.61	1215.02
526.97	1231.64
527.33	1247.99
527.68	1264.60
528.04	1281.07
528.40	1297.61
528.76	1314.47
529.12	1330.86
529.48	1347.56
529.84	1363.54
530.20	1380.12
530.56	1397.06
530.91	1414.58
531.27	1431.33
531.63	1447.79
531.99	1464.29
532.35	1480.15
532.71	1496.06
533.07	1512.21
533.42	1528.14
533.78	1544.15
534.14	1560.37
534.50	1575.76
534.86	1591.69
535.21	1606.91
535.57	1622.82
535.93	1638.35
536.29	1653.20
536.65	1668.30
537.00	1683.28
537.36	1698.53
537.72	1713.07
538.08	1727.49
538.44	1741.15
538.79	1754.96
539.15	1768.72
539.51	1782.55
539.87	1796.95
540.22	1810.75
540.58	1824.64
540.94	1838.03
541.29	1850.94
541.65	1863.68
542.01	1876.93
542.37	1889.16
542.72	1901.59
543.08	1913.37
543.44	1925.77
543.79	1936.99
544.15	1948.05
544.51	1959.44
544.87	1970.52
545.22	1981.30
545.58	1991.56
545.94	2001.23
546.29	2011.14
546.65	2020.85
547.01	2029.99
547.36	2038.79
547.72	2047.22
548.07	2054.93
548.43	2063.10
548.79	2071.25
549.14	2078.68
549.50	2086.00
549.86	2093.78
550.21	2101.10
550.57	2108.31
550.92	2114.81
551.28	2121.80
551.64	2128.85
551.99	2135.44
552.35	2141.59
552.70	2147.76
553.06	2153.79
553.41	2160.28
553.77	2166.35
554.13	2172.55
554.48	2178.77
554.84	2184.11
555.19	2189.30
555.55	2194.46
555.90	2198.89
556.26	2203.55
556.61	2208.36
556.97	2212.68
557.32	2216.69
557.68	2220.75
558.03	2225.01
558.39	2228.72
558.74	2233.54
559.10	2237.46
559.45	2241.17
559.81	2245.48
560.16	2249.24
560.52	2252.46
560.87	2255.81
561.23	2258.50
561.58	2261.43
561.94	2263.99
562.29	2266.47
562.64	2269.19
563.00	2271.88
563.35	2275.47
563.71	2278.60
564.06	2281.74
564.42	2284.55
564.77	2287.08
565.12	2289.33
565.48	2291.09
565.83	2293.04
566.19	2294.22
566.54	2295.11
566.89	2296.36
567.25	2296.79
567.60	2298.16
567.96	2299.78
568.31	2300.74
568.66	2301.66
569.02	2302.13
569.37	2302.34
569.72	2303.13
570.08	2303.26
570.43	2303.19
570.78	2302.39
571.14	2300.95
571.49	2299.63
571.84	2299.18
572.20	2298.04
572.55	2297.04
572.90	2295.71
573.26	2294.33
573.61	2292.61
573.96	2290.79
574.31	2287.63
574.67	2284.80
575.02	2281.27
575.37	2277.94
575.72	2273.94
576.08	2270.72
576.43	2267.41
576.78	2263.77
577.13	2260.70
577.49	2257.70
577.84	2254.26
578.19	2250.67
578.54	2246.92
578.90	2242.68
579.25	2237.23
579.60	2232.29
579.95	2227.21
580.30	2222.15
580.66	2216.90
581.01	2212.01
581.36	2207.08
581.71	2202.83
582.06	2198.37
582.42	2193.80
582.77	2188.60
583.12	2184.03
583.47	2179.24
583.82	2174.10
584.17	2168.93
584.53	2163.30
584.88	2157.70
585.23	2151.94
585.58	2146.39
585.93	2141.07
586.28	2136.37
586.63	2131.29
586.98	2126.26
587.34	2121.58
587.69	2116.66
588.04	2111.26
588.39	2105.52
588.74	2098.98
589.09	2092.85
589.44	2085.87
589.79	2079.83
590.14	2074.07
590.49	2067.57
590.84	2061.37
591.19	2055.49
591.54	2048.85
591.89	2041.44
592.25	2034.59
592.60	2027.22
592.95	2019.65
593.30	2012.08
593.65	2004.41
594.00	1997.34
594.35	1990.08
594.70	1981.99
595.05	1974.60
595.40	1967.39
595.75	1959.86
596.10	1953.66
596.45	1946.92
596.80	1940.95
597.15	1934.37
597.50	1927.26
597.85	1920.86
598.19	1914.01
598.54	1906.70
598.89	1900.18
599.24	1894.42
599.59	1887.53
599.94	1881.50
600.29	1875.10
600.64	1868.63
600.99	1861.09
601.34	1854.33
601.69	1847.41
602.04	1840.58
602.39	1833.32
602.74	1826.49
603.08	1819.80
603.43	1813.07
603.78	1805.67
604.13	1798.27
604.48	1790.73
604.83	1783.85
605.18	1776.70
605.53	1768.75
605.87	1760.93
606.22	1753.68
606.57	1745.71
606.92	1738.60
607.27	1731.29
607.62	1724.38
607.96	1717.07
608.31	1710.51
608.66	1702.89
609.01	1695.16
609.36	1687.70
609.70	1679.55
610.05	1671.54
610.40	1663.77
610.75	1655.44
611.10	1647.85
611.44	1639.53
611.79	1631.74
612.14	1623.05
612.49	1614.11
612.83	1605.72
613.18	1597.53
613.53	1589.40
613.88	1580.75
614.22	1572.30
614.57	1563.75
614.92	1555.70
615.27	1548.07
615.61	1539.72
615.96	1531.69
616.31	1524.08
616.65	1516.60
617.00	1509.09
617.35	1501.41
617.70	1493.10
618.04	1484.63
618.39	1476.43
618.74	1468.90
619.08	1460.48
619.43	1452.92
619.78	1445.90
620.12	1438.76
620.47	1431.26
620.82	1423.09
621.16	1415.71
621.51	1408.16
621.85	1400.57
622.20	1391.99
622.55	1383.69
622.89	1375.84
623.24	1368.23
623.59	1360.87
623.93	1353.33
624.28	1346.17
624.62	1338.71
624.97	1331.56
625.32	1324.84
625.66	1317.80
626.01	1310.51
626.35	1303.07
626.70	1295.33
627.04	1287.56
627.39	1279.72
627.73	1272.35
628.08	1265.38
628.43	1258.08
628.77	1250.61
629.12	1243.00
629.46	1235.87
629.81	1228.52
630.15	1221.21
630.50	1213.79
630.84	1205.63
631.19	1197.81
631.53	1190.27
631.88	1182.66
632.22	1175.07
632.57	1167.67
632.91	1160.09
633.26	1152.68
633.60	1145.42
633.95	1138.40
634.29	1131.45
634.64	1124.89
634.98	1117.52
635.32	1110.39
635.67	1103.87
636.01	1097.38
636.36	1090.58
636.70	1084.06
637.05	1077.37
637.39	1070.96
637.73	1064.42
638.08	1058.55
638.42	1052.44
638.77	1045.97
639.11	1039.32
639.45	1032.88
639.80	1026.28
640.14	1019.82
640.49	1013.26
640.83	1006.83
641.17	1000.40
641.52	994.00
641.86	987.50
642.20	981.62
642.55	975.34
642.89	968.77
643.23	962.26
643.58	956.46
643.92	950.26
644.26	944.19
644.61	938.16
644.95	932.02
645.29	925.39
645.64	918.64
645.98	912.29
646.32	906.49
646.66	900.44
647.01	894.55
647.35	888.89
647.69	883.07
648.04	877.56
648.38	871.91
648.72	865.86
649.06	859.88
649.41	853.98
649.75	848.01
650.09	842.05
650.43	836.23
650.78	830.10
651.12	824.16
651.46	818.51
651.80	812.84
652.14	807.56
652.49	802.19
652.83	796.97
653.17	791.26
653.51	785.54
653.85	780.17
654.20	774.53
654.54	768.51
654.88	762.73
655.22	756.89
655.56	751.13
655.90	745.75
656.25	740.33
656.59	734.99
656.93	729.93
657.27	724.84
657.61	719.33
657.95	714.25
658.29	709.21
658.64	703.98
658.98	698.60
659.32	693.14
659.66	687.94
660.00	682.64
660.34	677.82
660.68	672.87
661.02	667.89
661.36	663.15
661.70	658.63
662.05	654.33
662.39	649.99
662.73	645.57
663.07	641.23
663.41	636.86
663.75	632.35
664.09	627.81
664.43	623.40
664.77	619.32
665.11	615.03
665.45	610.81
665.79	606.69
666.13	602.56
666.47	598.42
666.81	594.23
667.15	590.19
667.49	586.24
667.83	582.51
668.17	578.54
668.51	574.52
668.85	570.54
669.19	566.72
669.53	562.85
669.87	558.95
670.21	555.23
670.55	551.59
670.89	548.21
671.23	544.76
671.57	541.26
671.91	537.72
672.25	534.24
672.58	530.72
672.92	527.35
673.26	524.16
673.60	521.05
673.94	517.92
674.28	515.01
674.62	512.01
674.96	508.88
675.30	505.93
675.64	502.99
675.97	500.28
676.31	497.41
676.65	494.47
676.99	491.83
677.33	488.97
677.67	486.17
678.01	483.09
678.34	480.09
678.68	477.15
679.02	474.36
679.36	471.65
679.70	468.97
680.04	466.16
680.37	463.33
680.71	460.58
681.05	458.01
681.39	455.25
681.73	452.64
682.06	450.05
682.40	447.51
682.74	445.02
683.08	442.39
683.42	439.80
683.75	437.35
684.09	434.79
684.43	432.29
684.77	429.80
685.10	427.48
685.44	425.19
685.78	422.96
686.12	420.66
686.45	418.33
686.79	416.01
687.13	413.86
687.46	411.68
687.80	409.49
688.14	407.27
688.48	405.26
688.81	402.99
689.15	400.86
689.49	398.69
689.82	396.61
690.16	394.53
690.50	392.54
690.83	390.54
691.17	388.59
691.51	386.69
691.84	384.85
692.18	382.92
692.52	380.90
692.85	378.94
693.19	377.09
693.52	375.28
693.86	373.46
694.20	371.71
694.53	369.91
694.87	368.07
695.21	366.28
695.54	364.42
695.88	362.75
696.21	361.02
696.55	359.40
696.88	357.69
697.22	356.03
697.56	354.41
697.89	352.71
698.23	351.06
698.56	349.45
698.90	347.84
699.23	346.20
699.57	344.72
699.90	343.24
700.24	341.71
700.58	340.19
700.91	338.75
701.25	337.28
701.58	335.91
701.92	334.57
702.25	333.18
702.59	331.82
702.92	330.50
703.26	329.24
703.59	327.96
703.93	326.81
704.26	325.63
704.60	324.40
704.93	323.18
705.26	321.98
705.60	320.82
705.93	319.66
706.27	318.62
706.60	317.52
706.94	316.38
707.27	315.27
707.61	314.22
707.94	313.21
708.27	312.08
708.61	311.06
708.94	310.07
709.28	309.13
709.61	308.20
709.94	307.23
710.28	306.23
710.61	305.26
710.95	304.14
711.28	303.21
711.61	302.25
711.95	301.36
712.28	300.39
712.61	299.35
712.95	298.42
713.28	297.53
713.61	296.66
713.95	295.81
714.28	294.94
714.61	294.04
714.95	293.19
715.28	292.35
715.61	291.42
715.95	290.51
716.28	289.64
716.61	288.85
716.95	288.08
717.28	287.29
717.61	286.50
717.94	285.79
718.28	284.96
718.61	284.24
718.94	283.49
719.27	282.82
719.61	282.21
719.94	281.55
720.27	280.78
720.60	280.09
720.94	279.43
721.27	278.82
721.60	278.22
721.93	277.59
722.27	277.05
722.60	276.49
722.93	275.92
723.26	275.39
723.59	274.78
723.93	274.19
724.26	273.62
724.59	273.02
724.92	272.51
725.25	272.02
725.59	271.47
725.92	270.97
726.25	270.45
726.58	269.95
726.91	269.45
727.24	269.01
727.57	268.55
727.91	268.05
728.24	267.54
728.57	267.09
728.90	266.64
729.23	266.17
729.56	265.68
729.89	265.18
730.22	264.70
730.55	264.22
730.89	263.74
731.22	263.31
731.55	262.91
731.88	262.43
732.21	261.98
732.54	261.54
732.87	261.12
733.20	260.75
733.53	260.34
733.86	259.97
734.19	259.55
734.52	259.15
734.85	258.85
735.18	258.46
735.51	258.09
735.84	257.70
736.17	257.31
736.50	256.96
736.83	256.77
737.16	256.41
737.49	256.08
737.82	255.77
738.15	255.46
738.48	255.16
738.81	254.88
739.14	254.54
739.47	254.24
739.80	253.95
740.13	253.65
740.46	253.31
740.79	252.99
741.12	252.72
741.45	252.39
741.78	252.01
742.11	251.75
742.44	251.45
742.77	251.15
743.10	250.86
743.43	250.53
743.75	250.14
744.08	250.06
744.41	249.77
744.74	249.50
745.07	249.22
745.40	248.97
745.73	248.72
746.06	248.48
746.39	248.20
746.71	247.91
747.04	247.64
747.37	247.44
747.70	247.20
748.03	246.95
748.36	246.77
748.68	246.56
749.01	246.30
749.34	246.07
749.67	245.87
750.00	245.66
750.33	245.57
750.65	245.36
750.98	244.95
751.31	244.73
751.64	244.49
751.97	244.29
752.29	244.06
752.62	243.78
752.95	243.59
753.28	243.43
753.60	243.23
753.93	243.04
754.26	242.83
754.59	242.64
754.91	242.43
755.24	242.21
755.57	242.03
755.90	241.85
756.22	241.67
756.55	241.46
756.88	241.27
757.20	241.02
757.53	240.81
757.86	240.68
758.19	240.54
758.51	240.39
758.84	240.21
759.17	240.02
759.49	239.89
759.82	239.76
760.15	239.61
760.47	239.49
760.80	239.29
761.13	239.16
761.45	238.96
761.78	238.80
762.11	238.64
762.43	238.49
762.76	238.34
763.08	238.22
763.41	238.10
763.74	237.94
764.06	237.78
764.39	237.63
764.71	237.48
765.04	237.36
765.37	237.21
765.69	237.09
766.02	236.97
766.34	236.81
766.67	236.63
767.00	236.51
767.32	236.42
767.65	236.39
767.97	236.25
768.30	236.15
768.62	236.05
768.95	235.94
769.27	235.82
769.60	235.72
769.92	235.57
770.25	235.42
770.57	235.32
770.90	235.20
771.22	235.11
771.55	234.97
771.87	234.86
772.20	234.77
772.52	234.78
772.85	234.78
773.17	234.69
773.50	234.58
773.82	234.54
774.15	234.37
774.47	234.20
774.80	234.11
775.12	234.01
775.45	233.94
775.77	233.83
776.09	233.74
776.42	233.66
776.74	233.59
777.07	233.53
777.39	233.48
777.72	233.38
778.04	233.31
778.36	233.26
778.69	233.19
779.01	233.14
779.33	232.96
779.66	232.78
779.98	232.70
780.31	232.64
780.63	232.55
780.95	232.51
781.28	232.46
781.60	232.39
781.92	232.32
782.25	232.26
782.57	232.19
782.89	232.09
783.22	232.01
783.54	231.94
783.86	231.88
784.19	231.77
784.51	231.76
784.83	231.71
785.16	231.65
785.48	231.59
785.80	231.54
786.12	231.50
786.45	231.46
786.77	231.46
787.09	231.41
