SpectraSuite Data File
++++++++++++++++++++++++++++++++++++
Date: Fri Feb 01 16:26:42 EST 2013
User: group
Dark Spectrum Present: No
Reference Spectrum Present: No
Number of Sampled Component Spectra: 1
Spectrometers: USB2E7196
Integration Time (usec): 35000 (USB2E7196)
Spectra Averaged: 100 (USB2E7196)
Boxcar Smoothing: 10 (USB2E7196)
Correct for Electrical Dark: No (USB2E7196)
Strobe/Lamp Enabled: No (USB2E7196)
Correct for Detector Non-linearity: No (USB2E7196)
Correct for Stray Light: No (USB2E7196)
Number of Pixels in Processed Spectrum: 2048
>>>>>Begin Processed Spectral Data<<<<<
339.09	0.00
339.48	213.85
339.86	214.98
340.24	216.65
340.63	218.30
341.01	220.78
341.39	221.12
341.78	222.09
342.16	223.82
342.54	223.94
342.93	212.24
343.31	222.97
343.69	223.50
344.07	223.94
344.46	224.38
344.84	224.73
345.22	224.97
345.60	225.17
345.99	225.34
346.37	225.43
346.75	225.51
347.13	225.60
347.52	225.67
347.90	225.71
348.28	225.77
348.66	225.76
349.05	225.73
349.43	225.79
349.81	225.82
350.19	225.88
350.57	225.92
350.96	225.96
351.34	226.00
351.72	226.11
352.10	226.21
352.48	226.25
352.87	226.31
353.25	226.36
353.63	226.45
354.01	226.52
354.39	226.59
354.77	226.65
355.15	226.76
355.54	226.83
355.92	226.86
356.30	226.91
356.68	227.04
357.06	227.12
357.44	227.16
357.82	227.23
358.20	227.27
358.58	227.36
358.97	227.45
359.35	227.54
359.73	227.61
360.11	227.67
360.49	227.74
360.87	227.79
361.25	227.86
361.63	227.96
362.01	228.04
362.39	228.10
362.77	228.17
363.15	228.18
363.53	228.22
363.91	228.26
364.29	228.30
364.67	228.26
365.05	228.29
365.43	228.35
365.81	228.36
366.19	228.42
366.57	228.45
366.95	228.50
367.33	228.48
367.71	228.48
368.09	228.50
368.47	228.49
368.85	228.49
369.23	228.49
369.61	228.44
369.99	228.42
370.37	228.41
370.75	228.46
371.13	228.44
371.51	228.37
371.89	228.36
372.27	228.36
372.65	228.32
373.03	228.30
373.41	228.25
373.78	228.23
374.16	228.15
374.54	228.05
374.92	227.94
375.30	227.93
375.68	227.87
376.06	227.82
376.44	227.78
376.82	227.74
377.19	227.69
377.57	227.65
377.95	227.56
378.33	227.51
378.71	227.34
379.09	227.29
379.47	227.24
379.84	227.17
380.22	227.08
380.60	227.00
380.98	226.92
381.36	226.83
381.73	226.73
382.11	226.70
382.49	226.67
382.87	226.64
383.25	226.56
383.62	226.61
384.00	226.55
384.38	226.46
384.76	226.42
385.13	226.40
385.51	226.34
385.89	226.29
386.27	226.23
386.64	226.22
387.02	226.15
387.40	226.12
387.78	226.07
388.15	226.03
388.53	225.99
388.91	225.94
389.29	225.88
389.66	225.86
390.04	225.80
390.42	225.79
390.79	225.73
391.17	225.71
391.55	225.57
391.92	225.55
392.30	225.55
392.68	225.54
393.05	225.50
393.43	225.51
393.81	225.48
394.18	225.46
394.56	225.45
394.94	225.50
395.31	225.51
395.69	225.56
396.06	225.59
396.44	225.64
396.82	225.68
397.19	225.79
397.57	225.82
397.95	225.82
398.32	225.83
398.70	225.92
399.07	226.01
399.45	226.06
399.82	226.11
400.20	226.18
400.58	226.25
400.95	226.29
401.33	226.35
401.70	226.50
402.08	226.59
402.45	226.68
402.83	226.77
403.20	226.88
403.58	226.98
403.95	227.09
404.33	227.21
404.71	227.36
405.08	227.50
405.46	227.63
405.83	227.83
406.21	228.02
406.58	228.15
406.96	228.24
407.33	228.45
407.70	228.63
408.08	228.93
408.45	229.12
408.83	229.37
409.20	229.57
409.58	229.76
409.95	230.03
410.33	230.29
410.70	230.53
411.08	230.81
411.45	231.11
411.82	231.40
412.20	231.77
412.57	232.17
412.95	232.50
413.32	232.94
413.69	233.35
414.07	233.74
414.44	234.22
414.82	234.73
415.19	235.25
415.56	235.82
415.94	236.29
416.31	236.95
416.68	237.59
417.06	238.35
417.43	239.04
417.81	239.85
418.18	240.64
418.55	241.51
418.93	242.38
419.30	243.27
419.67	244.26
420.04	245.21
420.42	246.22
420.79	247.40
421.16	248.53
421.54	249.75
421.91	250.97
422.28	252.24
422.66	253.55
423.03	254.85
423.40	256.20
423.77	257.62
424.15	259.03
424.52	260.48
424.89	262.07
425.26	263.65
425.64	265.05
426.01	266.65
426.38	268.30
426.75	269.95
427.13	271.67
427.50	273.46
427.87	275.32
428.24	277.13
428.61	278.84
428.99	280.80
429.36	282.85
429.73	284.91
430.10	286.91
430.47	289.00
430.85	291.11
431.22	293.32
431.59	295.69
431.96	297.92
432.33	300.45
432.70	302.80
433.08	305.59
433.45	308.21
433.82	310.75
434.19	313.59
434.56	316.41
434.93	319.04
435.30	321.64
435.68	324.54
436.05	327.34
436.42	330.15
436.79	332.65
437.16	335.34
437.53	338.19
437.90	340.95
438.27	343.66
438.64	346.45
439.01	349.02
439.38	351.24
439.75	353.40
440.13	355.79
440.50	358.13
440.87	359.94
441.24	361.85
441.61	364.02
441.98	365.50
442.35	367.25
442.72	369.05
443.09	370.81
443.46	371.77
443.83	372.33
444.20	372.75
444.57	373.54
444.94	373.85
445.31	374.16
445.68	374.55
446.05	374.62
446.42	374.29
446.79	373.85
447.16	373.41
447.53	373.05
447.90	372.00
448.27	370.80
448.64	369.24
449.01	368.16
449.37	366.23
449.74	364.35
450.11	362.14
450.48	359.71
450.85	357.22
451.22	355.10
451.59	353.15
451.96	351.27
452.33	348.70
452.70	346.33
453.07	343.50
453.43	340.60
453.80	337.87
454.17	335.20
454.54	332.69
454.91	329.96
455.28	327.29
455.65	324.70
456.02	322.30
456.38	320.11
456.75	317.40
457.12	315.16
457.49	312.92
457.86	310.77
458.23	308.96
458.59	306.94
458.96	304.84
459.33	302.99
459.70	301.18
460.07	299.65
460.43	297.94
460.80	296.34
461.17	294.93
461.54	293.39
461.91	291.94
462.27	290.50
462.64	289.30
463.01	287.99
463.38	286.76
463.74	285.39
464.11	284.26
464.48	283.27
464.85	282.16
465.21	281.32
465.58	280.39
465.95	279.27
466.32	278.32
466.68	277.44
467.05	276.53
467.42	275.62
467.78	274.73
468.15	273.86
468.52	273.20
468.88	272.33
469.25	271.62
469.62	271.01
469.98	270.33
470.35	269.67
470.72	269.10
471.08	268.46
471.45	267.96
471.82	267.40
472.18	266.82
472.55	266.37
472.92	265.88
473.28	265.42
473.65	264.98
474.02	264.58
474.38	264.25
474.75	263.95
475.11	263.60
475.48	263.37
475.85	263.14
476.21	262.93
476.58	262.74
476.94	262.54
477.31	262.40
477.67	262.25
478.04	262.17
478.41	262.09
478.77	262.12
479.14	262.01
479.50	262.05
479.87	262.13
480.23	262.25
480.60	262.31
480.96	262.43
481.33	262.67
481.69	262.87
482.06	263.01
482.42	263.19
482.79	263.44
483.15	263.73
483.52	264.13
483.88	264.46
484.25	264.88
484.61	265.37
484.98	265.82
485.34	266.41
485.71	267.00
486.07	267.63
486.44	268.19
486.80	268.95
487.17	269.70
487.53	270.51
487.90	271.35
488.26	272.35
488.62	273.37
488.99	274.33
489.35	275.40
489.72	276.55
490.08	277.78
490.44	279.03
490.81	280.38
491.17	281.73
491.54	283.21
491.90	284.71
492.26	286.36
492.63	288.14
492.99	289.96
493.36	291.86
493.72	293.91
494.08	296.03
494.45	298.28
494.81	300.61
495.17	303.08
495.54	305.65
495.90	308.29
496.26	311.06
496.63	314.04
496.99	317.16
497.35	320.39
497.72	323.78
498.08	327.30
498.44	331.01
498.80	334.95
499.17	339.03
499.53	343.23
499.89	347.60
500.26	352.07
500.62	356.74
500.98	361.75
501.34	366.81
501.71	372.11
502.07	377.49
502.43	383.16
502.79	388.96
503.16	395.06
503.52	401.38
503.88	407.81
504.24	414.43
504.60	421.32
504.97	428.48
505.33	435.76
505.69	443.56
506.05	451.34
506.41	459.23
506.78	467.38
507.14	475.84
507.50	484.62
507.86	493.63
508.22	502.78
508.59	511.96
508.95	521.59
509.31	531.48
509.67	541.58
510.03	551.87
510.39	562.39
510.75	573.22
511.12	584.11
511.48	595.38
511.84	606.84
512.20	618.34
512.56	630.32
512.92	642.47
513.28	654.76
513.64	667.26
514.00	679.97
514.37	692.91
514.73	705.96
515.09	718.87
515.45	732.15
515.81	745.74
516.17	759.75
516.53	773.84
516.89	788.08
517.25	802.18
517.61	816.59
517.97	830.99
518.33	845.33
518.69	860.09
519.05	875.01
519.41	890.23
519.77	905.67
520.13	921.05
520.49	936.52
520.85	951.80
521.21	967.43
521.57	983.57
521.93	999.28
522.29	1015.52
522.65	1031.63
523.01	1047.75
523.37	1063.77
523.73	1079.80
524.09	1095.76
524.45	1111.88
524.81	1128.58
525.17	1145.29
525.53	1162.11
525.89	1178.98
526.25	1195.74
526.61	1212.06
526.97	1228.64
527.33	1245.13
527.68	1261.60
528.04	1277.99
528.40	1294.53
528.76	1311.39
529.12	1327.87
529.48	1344.61
529.84	1360.60
530.20	1377.29
530.56	1394.28
530.91	1411.61
531.27	1428.31
531.63	1444.75
531.99	1461.16
532.35	1477.05
532.71	1492.82
533.07	1508.90
533.42	1524.57
533.78	1540.50
534.14	1556.79
534.50	1571.95
534.86	1587.72
535.21	1602.86
535.57	1618.68
535.93	1634.14
536.29	1648.84
536.65	1663.76
537.00	1678.55
537.36	1693.76
537.72	1708.22
538.08	1722.57
538.44	1736.24
538.79	1750.04
539.15	1763.62
539.51	1777.25
539.87	1791.51
540.22	1805.14
540.58	1818.91
540.94	1832.17
541.29	1844.96
541.65	1857.52
542.01	1870.76
542.37	1882.93
542.72	1895.29
543.08	1906.94
543.44	1919.29
543.79	1930.57
544.15	1941.61
544.51	1953.05
544.87	1964.03
545.22	1974.65
545.58	1984.70
545.94	1994.33
546.29	2004.12
546.65	2013.80
547.01	2023.24
547.36	2031.92
547.72	2040.30
548.07	2048.09
548.43	2056.25
548.79	2064.30
549.14	2071.75
549.50	2078.94
549.86	2086.56
550.21	2093.89
550.57	2100.94
550.92	2107.44
551.28	2114.38
551.64	2121.41
551.99	2127.83
552.35	2133.94
552.70	2140.05
553.06	2145.92
553.41	2152.28
553.77	2158.18
554.13	2164.28
554.48	2170.26
554.84	2175.57
555.19	2180.89
555.55	2186.05
555.90	2190.53
556.26	2195.35
556.61	2200.07
556.97	2204.36
557.32	2208.46
557.68	2212.37
558.03	2216.74
558.39	2220.49
558.74	2225.27
559.10	2228.96
559.45	2232.71
559.81	2236.96
560.16	2241.00
560.52	2244.40
560.87	2247.83
561.23	2250.62
561.58	2253.57
561.94	2256.10
562.29	2258.50
562.64	2261.21
563.00	2263.76
563.35	2267.15
563.71	2270.19
564.06	2273.38
564.42	2276.36
564.77	2278.92
565.12	2281.33
565.48	2283.34
565.83	2285.14
566.19	2286.25
566.54	2287.24
566.89	2288.24
567.25	2288.83
567.60	2290.03
567.96	2291.62
568.31	2292.41
568.66	2293.62
569.02	2294.30
569.37	2294.68
569.72	2295.58
570.08	2295.90
570.43	2296.10
570.78	2295.63
571.14	2294.14
571.49	2292.88
571.84	2292.58
572.20	2291.59
572.55	2290.67
572.90	2289.04
573.26	2287.72
573.61	2286.24
573.96	2284.62
574.31	2281.85
574.67	2278.95
575.02	2275.39
575.37	2272.14
575.72	2268.42
576.08	2265.11
576.43	2261.73
576.78	2258.11
577.13	2255.00
577.49	2251.88
577.84	2248.31
578.19	2244.83
578.54	2241.27
578.90	2237.15
579.25	2231.66
579.60	2226.77
579.95	2221.82
580.30	2217.04
580.66	2212.00
581.01	2207.02
581.36	2202.19
581.71	2198.10
582.06	2193.77
582.42	2189.30
582.77	2184.21
583.12	2179.77
583.47	2175.01
583.82	2170.16
584.17	2165.01
584.53	2159.61
584.88	2153.96
585.23	2148.36
585.58	2142.86
585.93	2137.59
586.28	2132.85
586.63	2127.91
586.98	2122.86
587.34	2118.29
587.69	2113.35
588.04	2107.98
588.39	2102.36
588.74	2095.93
589.09	2089.81
589.44	2083.05
589.79	2077.25
590.14	2071.67
590.49	2065.17
590.84	2058.87
591.19	2052.90
591.54	2046.45
591.89	2039.25
592.25	2032.54
592.60	2025.38
592.95	2017.89
593.30	2010.60
593.65	2003.10
594.00	1995.97
594.35	1988.72
594.70	1980.53
595.05	1973.40
595.40	1966.25
595.75	1958.78
596.10	1952.57
596.45	1945.86
596.80	1939.75
597.15	1933.05
597.50	1925.95
597.85	1919.60
598.19	1913.05
598.54	1905.92
598.89	1899.31
599.24	1893.37
599.59	1886.67
599.94	1880.50
600.29	1874.04
600.64	1867.49
600.99	1860.10
601.34	1853.39
601.69	1846.52
602.04	1839.85
602.39	1832.59
602.74	1825.81
603.08	1819.19
603.43	1812.44
603.78	1805.15
604.13	1797.86
604.48	1790.61
604.83	1783.83
605.18	1776.84
605.53	1768.79
605.87	1760.92
606.22	1753.68
606.57	1745.64
606.92	1738.51
607.27	1731.28
607.62	1724.53
607.96	1717.18
608.31	1710.61
608.66	1703.04
609.01	1695.49
609.36	1687.87
609.70	1679.75
610.05	1671.74
610.40	1664.03
610.75	1655.79
611.10	1648.19
611.44	1639.83
611.79	1631.85
612.14	1623.05
612.49	1613.89
612.83	1605.59
613.18	1597.55
613.53	1589.42
613.88	1580.96
614.22	1572.54
614.57	1564.13
614.92	1556.09
615.27	1548.55
615.61	1540.14
615.96	1532.12
616.31	1524.54
616.65	1517.13
617.00	1509.61
617.35	1501.84
617.70	1493.57
618.04	1485.06
618.39	1476.77
618.74	1469.16
619.08	1460.75
619.43	1453.16
619.78	1446.36
620.12	1439.10
620.47	1431.48
620.82	1423.40
621.16	1415.94
621.51	1408.36
621.85	1400.62
622.20	1392.05
622.55	1383.69
622.89	1375.89
623.24	1368.15
623.59	1360.70
623.93	1353.25
624.28	1345.93
624.62	1338.49
624.97	1331.30
625.32	1324.60
625.66	1317.53
626.01	1310.46
626.35	1303.07
626.70	1295.41
627.04	1287.54
627.39	1279.78
627.73	1272.41
628.08	1265.50
628.43	1258.26
628.77	1250.88
629.12	1243.38
629.46	1236.22
629.81	1228.72
630.15	1221.48
630.50	1214.02
630.84	1205.80
631.19	1197.81
631.53	1190.48
631.88	1182.94
632.22	1175.26
632.57	1167.82
632.91	1160.21
633.26	1152.62
633.60	1145.33
633.95	1138.22
634.29	1131.20
634.64	1124.63
634.98	1117.22
635.32	1109.97
635.67	1103.30
636.01	1096.69
636.36	1089.84
636.70	1083.21
637.05	1076.75
637.39	1070.23
637.73	1063.87
638.08	1058.00
638.42	1051.97
638.77	1045.38
639.11	1038.80
639.45	1032.48
639.80	1025.91
640.14	1019.63
640.49	1013.30
640.83	1006.91
641.17	1000.63
641.52	994.26
641.86	987.67
642.20	981.82
642.55	975.60
642.89	969.22
643.23	962.69
643.58	956.89
643.92	950.86
644.26	944.77
644.61	938.79
644.95	932.64
645.29	926.05
645.64	919.26
645.98	913.04
646.32	907.16
646.66	901.00
647.01	895.20
647.35	889.47
647.69	883.55
648.04	878.03
648.38	872.26
648.72	866.25
649.06	860.20
649.41	854.40
649.75	848.38
650.09	842.38
650.43	836.58
650.78	830.45
651.12	824.44
651.46	818.77
651.80	812.98
652.14	807.69
652.49	802.31
652.83	797.18
653.17	791.33
653.51	785.64
653.85	780.29
654.20	774.64
654.54	768.68
654.88	762.94
655.22	757.12
655.56	751.43
655.90	746.02
656.25	740.75
656.59	735.26
656.93	730.21
657.27	725.06
657.61	719.60
657.95	714.53
658.29	709.45
658.64	704.16
658.98	698.89
659.32	693.35
659.66	688.16
660.00	682.85
660.34	677.98
660.68	672.98
661.02	667.97
661.36	663.21
661.70	658.64
662.05	654.21
662.39	649.78
662.73	645.31
663.07	640.99
663.41	636.62
663.75	632.12
664.09	627.51
664.43	623.07
664.77	618.90
665.11	614.61
665.45	610.43
665.79	606.28
666.13	602.07
666.47	598.00
666.81	593.82
667.15	589.72
667.49	585.85
667.83	582.06
668.17	578.16
668.51	574.12
668.85	570.09
669.19	566.30
669.53	562.48
669.87	558.61
670.21	554.85
670.55	551.22
670.89	547.79
671.23	544.40
671.57	540.88
671.91	537.36
672.25	533.84
672.58	530.33
672.92	527.00
673.26	523.86
673.60	520.73
673.94	517.65
674.28	514.76
674.62	511.77
674.96	508.67
675.30	505.69
675.64	502.78
675.97	500.00
676.31	497.14
676.65	494.23
676.99	491.54
677.33	488.66
677.67	485.81
678.01	482.86
678.34	479.85
678.68	476.99
679.02	474.21
679.36	471.45
679.70	468.74
680.04	465.99
680.37	463.10
680.71	460.30
681.05	457.67
681.39	454.92
681.73	452.25
682.06	449.73
682.40	447.19
682.74	444.65
683.08	442.08
683.42	439.48
683.75	436.96
684.09	434.36
684.43	431.91
684.77	429.47
685.10	427.06
685.44	424.76
685.78	422.47
686.12	420.16
686.45	417.84
686.79	415.49
687.13	413.26
687.46	411.10
687.80	408.96
688.14	406.72
688.48	404.66
688.81	402.49
689.15	400.36
689.49	398.22
689.82	396.16
690.16	394.14
690.50	392.19
690.83	390.21
691.17	388.23
691.51	386.32
691.84	384.41
692.18	382.50
692.52	380.52
692.85	378.58
693.19	376.69
693.52	374.91
693.86	373.14
694.20	371.33
694.53	369.56
694.87	367.73
695.21	365.95
695.54	364.12
695.88	362.31
696.21	360.58
696.55	358.91
696.88	357.24
697.22	355.55
697.56	353.91
697.89	352.31
698.23	350.71
698.56	349.13
698.90	347.58
699.23	345.89
699.57	344.36
699.90	342.88
700.24	341.34
700.58	339.81
700.91	338.26
701.25	336.82
701.58	335.45
701.92	334.06
702.25	332.69
702.59	331.31
702.92	330.02
703.26	328.69
703.59	327.39
703.93	326.18
704.26	324.94
704.60	323.66
704.93	322.36
705.26	321.13
705.60	319.91
705.93	318.70
706.27	317.70
706.60	316.64
706.94	315.52
707.27	314.40
707.61	313.35
707.94	312.31
708.27	311.21
708.61	310.10
708.94	309.09
709.28	308.10
709.61	307.13
709.94	306.15
710.28	305.15
710.61	304.16
710.95	303.03
711.28	302.11
711.61	301.14
711.95	300.24
712.28	299.28
712.61	298.27
712.95	297.36
713.28	296.45
713.61	295.52
713.95	294.64
714.28	293.79
714.61	292.90
714.95	292.09
715.28	291.26
715.61	290.35
715.95	289.46
716.28	288.58
716.61	287.75
716.95	286.92
717.28	286.17
717.61	285.43
717.94	284.68
718.28	283.85
718.61	283.11
718.94	282.41
719.27	281.72
719.61	281.07
719.94	280.38
720.27	279.66
720.60	279.00
720.94	278.33
721.27	277.73
721.60	277.15
721.93	276.54
722.27	275.96
722.60	275.44
722.93	274.89
723.26	274.35
723.59	273.76
723.93	273.18
724.26	272.58
724.59	271.98
724.92	271.44
725.25	270.96
725.59	270.44
725.92	269.87
726.25	269.36
726.58	268.86
726.91	268.38
727.24	267.92
727.57	267.45
727.91	266.94
728.24	266.46
728.57	265.93
728.90	265.49
729.23	265.01
729.56	264.57
729.89	264.08
730.22	263.60
730.55	263.17
730.89	262.77
731.22	262.30
731.55	261.91
731.88	261.49
732.21	261.04
732.54	260.59
732.87	260.22
733.20	259.81
733.53	259.40
733.86	259.01
734.19	258.62
734.52	258.21
734.85	257.94
735.18	257.50
735.51	257.15
735.84	256.77
736.17	256.42
736.50	255.99
736.83	255.77
737.16	255.42
737.49	255.08
737.82	254.73
738.15	254.44
738.48	254.13
738.81	253.81
739.14	253.48
739.47	253.15
739.80	252.85
740.13	252.56
740.46	252.28
740.79	251.92
741.12	251.65
741.45	251.36
741.78	251.00
742.11	250.74
742.44	250.45
742.77	250.16
743.10	249.89
743.43	249.60
743.75	249.24
744.08	249.13
744.41	248.87
744.74	248.58
745.07	248.31
745.40	248.03
745.73	247.79
746.06	247.54
746.39	247.35
746.71	247.09
747.04	246.83
747.37	246.60
747.70	246.39
748.03	246.12
748.36	245.90
748.68	245.68
749.01	245.44
749.34	245.23
749.67	244.99
750.00	244.73
750.33	244.63
750.65	244.40
750.98	244.05
751.31	243.83
751.64	243.64
751.97	243.48
752.29	243.26
752.62	243.02
752.95	242.82
753.28	242.57
753.60	242.37
753.93	242.20
754.26	242.02
754.59	241.80
754.91	241.59
755.24	241.38
755.57	241.19
755.90	240.99
756.22	240.76
756.55	240.58
756.88	240.41
757.20	240.15
757.53	239.97
757.86	239.80
758.19	239.66
758.51	239.46
758.84	239.22
759.17	239.04
759.49	238.91
759.82	238.81
760.15	238.69
760.47	238.52
760.80	238.35
761.13	238.19
761.45	238.01
761.78	237.85
762.11	237.70
762.43	237.54
762.76	237.40
763.08	237.28
763.41	237.16
763.74	236.97
764.06	236.80
764.39	236.63
764.71	236.46
765.04	236.31
765.37	236.18
765.69	236.04
766.02	235.87
766.34	235.71
766.67	235.54
767.00	235.39
767.32	235.31
767.65	235.23
767.97	235.11
768.30	235.00
768.62	234.87
768.95	234.77
769.27	234.65
769.60	234.55
769.92	234.46
770.25	234.31
770.57	234.21
770.90	234.11
771.22	234.01
771.55	233.94
771.87	233.87
772.20	233.76
772.52	233.79
772.85	233.81
773.17	233.73
773.50	233.62
773.82	233.52
774.15	233.39
774.47	233.26
774.80	233.17
775.12	233.10
775.45	233.04
775.77	232.95
776.09	232.87
776.42	232.77
776.74	232.70
777.07	232.62
777.39	232.56
777.72	232.49
778.04	232.43
778.36	232.40
778.69	232.33
779.01	232.32
779.33	232.17
779.66	232.05
779.98	231.98
780.31	231.98
780.63	231.99
780.95	231.92
781.28	231.88
781.60	231.84
781.92	231.77
782.25	231.75
782.57	231.69
782.89	231.65
783.22	231.61
783.54	231.54
783.86	231.55
784.19	231.53
784.51	231.50
784.83	231.45
785.16	231.35
785.48	231.30
785.80	231.22
786.12	231.15
786.45	231.12
786.77	231.10
787.09	231.02
