SpectraSuite Data File
++++++++++++++++++++++++++++++++++++
Date: Fri Feb 01 15:21:03 EST 2013
User: group
Dark Spectrum Present: No
Reference Spectrum Present: No
Number of Sampled Component Spectra: 1
Spectrometers: USB2E7196
Integration Time (usec): 35000 (USB2E7196)
Spectra Averaged: 100 (USB2E7196)
Boxcar Smoothing: 10 (USB2E7196)
Correct for Electrical Dark: No (USB2E7196)
Strobe/Lamp Enabled: No (USB2E7196)
Correct for Detector Non-linearity: No (USB2E7196)
Correct for Stray Light: No (USB2E7196)
Number of Pixels in Processed Spectrum: 2048
>>>>>Begin Processed Spectral Data<<<<<
339.09	0.00
339.48	215.50
339.86	216.75
340.24	217.88
340.63	219.13
341.01	222.08
341.39	222.06
341.78	223.59
342.16	224.67
342.54	225.53
342.93	213.55
343.31	224.34
343.69	224.88
344.07	225.33
344.46	225.77
344.84	226.13
345.22	226.36
345.60	226.59
345.99	226.77
346.37	226.89
346.75	226.97
347.13	227.06
347.52	227.11
347.90	227.21
348.28	227.22
348.66	227.30
349.05	227.25
349.43	227.26
349.81	227.28
350.19	227.32
350.57	227.38
350.96	227.45
351.34	227.54
351.72	227.62
352.10	227.73
352.48	227.81
352.87	227.89
353.25	227.98
353.63	228.05
354.01	228.12
354.39	228.19
354.77	228.29
355.15	228.38
355.54	228.47
355.92	228.50
356.30	228.56
356.68	228.66
357.06	228.78
357.44	228.83
357.82	228.91
358.20	228.96
358.58	229.02
358.97	229.06
359.35	229.12
359.73	229.17
360.11	229.20
360.49	229.23
360.87	229.29
361.25	229.36
361.63	229.45
362.01	229.49
362.39	229.55
362.77	229.55
363.15	229.58
363.53	229.58
363.91	229.61
364.29	229.60
364.67	229.51
365.05	229.52
365.43	229.53
365.81	229.55
366.19	229.59
366.57	229.62
366.95	229.62
367.33	229.57
367.71	229.54
368.09	229.56
368.47	229.55
368.85	229.52
369.23	229.47
369.61	229.39
369.99	229.38
370.37	229.31
370.75	229.35
371.13	229.25
371.51	229.18
371.89	229.11
372.27	229.10
372.65	229.07
373.03	229.00
373.41	228.96
373.78	228.91
374.16	228.81
374.54	228.70
374.92	228.63
375.30	228.59
375.68	228.51
376.06	228.43
376.44	228.36
376.82	228.26
377.19	228.14
377.57	228.04
377.95	227.94
378.33	227.86
378.71	227.72
379.09	227.71
379.47	227.66
379.84	227.56
380.22	227.46
380.60	227.39
380.98	227.29
381.36	227.21
381.73	227.13
382.11	227.07
382.49	227.04
382.87	226.95
383.25	226.87
383.62	226.94
384.00	226.85
384.38	226.78
384.76	226.77
385.13	226.79
385.51	226.79
385.89	226.73
386.27	226.67
386.64	226.63
387.02	226.55
387.40	226.53
387.78	226.50
388.15	226.49
388.53	226.45
388.91	226.44
389.29	226.42
389.66	226.41
390.04	226.36
390.42	226.37
390.79	226.40
391.17	226.38
391.55	226.25
391.92	226.29
392.30	226.33
392.68	226.34
393.05	226.35
393.43	226.35
393.81	226.36
394.18	226.38
394.56	226.42
394.94	226.48
395.31	226.50
395.69	226.62
396.06	226.66
396.44	226.73
396.82	226.80
397.19	226.89
397.57	226.93
397.95	226.99
398.32	227.00
398.70	227.06
399.07	227.17
399.45	227.25
399.82	227.27
400.20	227.31
400.58	227.39
400.95	227.45
401.33	227.56
401.70	227.73
402.08	227.85
402.45	227.95
402.83	228.09
403.20	228.20
403.58	228.27
403.95	228.43
404.33	228.54
404.71	228.68
405.08	228.86
405.46	229.02
405.83	229.18
406.21	229.35
406.58	229.53
406.96	229.68
407.33	229.88
407.70	230.08
408.08	230.37
408.45	230.59
408.83	230.80
409.20	231.00
409.58	231.20
409.95	231.45
410.33	231.71
410.70	231.93
411.08	232.20
411.45	232.51
411.82	232.79
412.20	233.14
412.57	233.56
412.95	233.85
413.32	234.23
413.69	234.61
414.07	235.05
414.44	235.49
414.82	235.97
415.19	236.51
415.56	237.07
415.94	237.61
416.31	238.23
416.68	238.88
417.06	239.60
417.43	240.30
417.81	241.08
418.18	241.89
418.55	242.75
418.93	243.65
419.30	244.54
419.67	245.45
420.04	246.37
420.42	247.34
420.79	248.52
421.16	249.68
421.54	250.91
421.91	252.12
422.28	253.42
422.66	254.77
423.03	256.08
423.40	257.40
423.77	258.79
424.15	260.21
424.52	261.68
424.89	263.29
425.26	264.80
425.64	266.23
426.01	267.81
426.38	269.46
426.75	271.13
427.13	272.86
427.50	274.68
427.87	276.58
428.24	278.45
428.61	280.18
428.99	282.12
429.36	284.21
429.73	286.31
430.10	288.34
430.47	290.38
430.85	292.53
431.22	294.75
431.59	297.12
431.96	299.38
432.33	301.89
432.70	304.26
433.08	307.09
433.45	309.72
433.82	312.34
434.19	315.23
434.56	318.02
434.93	320.71
435.30	323.35
435.68	326.26
436.05	329.09
436.42	331.89
436.79	334.39
437.16	337.07
437.53	339.87
437.90	342.67
438.27	345.42
438.64	348.23
439.01	350.87
439.38	353.13
439.75	355.34
440.13	357.85
440.50	360.23
440.87	362.10
441.24	364.03
441.61	366.17
441.98	367.67
442.35	369.48
442.72	371.32
443.09	373.14
443.46	374.10
443.83	374.71
444.20	375.24
444.57	376.17
444.94	376.50
445.31	376.80
445.68	377.18
446.05	377.20
446.42	376.76
446.79	376.33
447.16	375.84
447.53	375.48
447.90	374.27
448.27	373.06
448.64	371.43
449.01	370.35
449.37	368.40
449.74	366.51
450.11	364.28
450.48	361.77
450.85	359.25
451.22	357.11
451.59	355.08
451.96	353.12
452.33	350.44
452.70	348.07
453.07	345.26
453.43	342.29
453.80	339.59
454.17	336.94
454.54	334.40
454.91	331.74
455.28	329.02
455.65	326.58
456.02	324.14
456.38	322.00
456.75	319.30
457.12	317.01
457.49	314.79
457.86	312.61
458.23	310.77
458.59	308.71
458.96	306.67
459.33	304.81
459.70	302.94
460.07	301.44
460.43	299.73
460.80	298.09
461.17	296.66
461.54	295.15
461.91	293.72
462.27	292.24
462.64	290.95
463.01	289.65
463.38	288.30
463.74	286.98
464.11	285.83
464.48	284.81
464.85	283.67
465.21	282.77
465.58	281.85
465.95	280.77
466.32	279.83
466.68	278.89
467.05	278.00
467.42	277.15
467.78	276.21
468.15	275.29
468.52	274.66
468.88	273.83
469.25	273.05
469.62	272.40
469.98	271.75
470.35	271.09
470.72	270.48
471.08	269.83
471.45	269.23
471.82	268.64
472.18	268.02
472.55	267.61
472.92	267.07
473.28	266.61
473.65	266.12
474.02	265.70
474.38	265.30
474.75	264.92
475.11	264.52
475.48	264.23
475.85	264.00
476.21	263.73
476.58	263.51
476.94	263.35
477.31	263.18
477.67	263.01
478.04	262.88
478.41	262.82
478.77	262.82
479.14	262.71
479.50	262.71
479.87	262.78
480.23	262.86
480.60	262.94
480.96	262.98
481.33	263.18
481.69	263.36
482.06	263.57
482.42	263.78
482.79	264.04
483.15	264.37
483.52	264.74
483.88	265.09
484.25	265.49
484.61	265.93
484.98	266.38
485.34	266.95
485.71	267.54
486.07	268.12
486.44	268.71
486.80	269.44
487.17	270.21
487.53	271.03
487.90	271.89
488.26	272.81
488.62	273.80
488.99	274.83
489.35	275.87
489.72	277.02
490.08	278.24
490.44	279.50
490.81	280.82
491.17	282.15
491.54	283.64
491.90	285.21
492.26	286.80
492.63	288.54
492.99	290.30
493.36	292.19
493.72	294.18
494.08	296.29
494.45	298.55
494.81	300.84
495.17	303.27
495.54	305.81
495.90	308.47
496.26	311.26
496.63	314.18
496.99	317.28
497.35	320.53
497.72	323.92
498.08	327.42
498.44	331.09
498.80	335.06
499.17	339.06
499.53	343.24
499.89	347.68
500.26	352.21
500.62	356.92
500.98	361.91
501.34	367.04
501.71	372.34
502.07	377.78
502.43	383.42
502.79	389.23
503.16	395.31
503.52	401.58
503.88	407.98
504.24	414.64
504.60	421.51
504.97	428.68
505.33	435.99
505.69	443.65
506.05	451.42
506.41	459.32
506.78	467.51
507.14	475.94
507.50	484.64
507.86	493.65
508.22	502.85
508.59	512.06
508.95	521.66
509.31	531.49
509.67	541.64
510.03	551.98
510.39	562.54
510.75	573.33
511.12	584.31
511.48	595.70
511.84	607.15
512.20	618.74
512.56	630.72
512.92	642.96
513.28	655.36
513.64	667.88
514.00	680.51
514.37	693.49
514.73	706.61
515.09	719.69
515.45	733.00
515.81	746.56
516.17	760.58
516.53	774.62
516.89	788.78
517.25	802.99
517.61	817.47
517.97	832.00
518.33	846.43
518.69	861.31
519.05	876.34
519.41	891.53
519.77	907.03
520.13	922.38
520.49	937.78
520.85	953.19
521.21	968.96
521.57	985.26
521.93	1001.05
522.29	1017.49
522.65	1033.72
523.01	1049.95
523.37	1066.07
523.73	1082.18
524.09	1098.39
524.45	1114.84
524.81	1131.49
525.17	1148.33
525.53	1165.22
525.89	1182.20
526.25	1199.05
526.61	1215.46
526.97	1232.28
527.33	1248.84
527.68	1265.51
528.04	1282.03
528.40	1298.68
528.76	1315.76
529.12	1332.37
529.48	1349.25
529.84	1365.20
530.20	1381.94
530.56	1399.08
530.91	1416.49
531.27	1433.44
531.63	1449.90
531.99	1466.56
532.35	1482.62
532.71	1498.55
533.07	1514.82
533.42	1530.72
533.78	1546.83
534.14	1563.16
534.50	1578.49
534.86	1594.41
535.21	1609.65
535.57	1625.72
535.93	1641.35
536.29	1656.22
536.65	1671.42
537.00	1686.38
537.36	1701.76
537.72	1716.39
538.08	1730.79
538.44	1744.72
538.79	1758.66
539.15	1772.57
539.51	1786.28
539.87	1800.64
540.22	1814.45
540.58	1828.35
540.94	1841.89
541.29	1854.75
541.65	1867.58
542.01	1880.96
542.37	1893.37
542.72	1905.92
543.08	1917.63
543.44	1930.08
543.79	1941.48
544.15	1952.55
544.51	1964.10
544.87	1975.17
545.22	1985.88
545.58	1996.14
545.94	2005.91
546.29	2015.70
546.65	2025.54
547.01	2034.89
547.36	2043.60
547.72	2052.04
548.07	2059.82
548.43	2067.98
548.79	2076.12
549.14	2083.56
549.50	2091.02
549.86	2098.82
550.21	2106.05
550.57	2113.27
550.92	2120.01
551.28	2126.96
551.64	2133.93
551.99	2140.63
552.35	2146.75
552.70	2153.02
553.06	2158.99
553.41	2165.40
553.77	2171.41
554.13	2177.61
554.48	2183.64
554.84	2189.15
555.19	2194.63
555.55	2199.85
555.90	2204.23
556.26	2209.05
556.61	2213.86
556.97	2217.91
557.32	2222.01
557.68	2226.25
558.03	2230.56
558.39	2234.14
558.74	2238.82
559.10	2242.79
559.45	2246.28
559.81	2250.67
560.16	2254.51
560.52	2257.84
560.87	2261.24
561.23	2263.99
561.58	2266.79
561.94	2269.33
562.29	2271.80
562.64	2274.47
563.00	2277.16
563.35	2280.69
563.71	2283.88
564.06	2286.90
564.42	2289.79
564.77	2292.16
565.12	2294.32
565.48	2296.07
565.83	2297.78
566.19	2298.97
566.54	2300.02
566.89	2301.22
567.25	2301.79
567.60	2303.04
567.96	2304.56
568.31	2305.33
568.66	2306.30
569.02	2306.84
569.37	2307.21
569.72	2307.86
570.08	2307.75
570.43	2307.59
570.78	2306.80
571.14	2305.14
571.49	2303.97
571.84	2303.65
572.20	2302.40
572.55	2301.32
572.90	2299.77
573.26	2298.36
573.61	2296.58
573.96	2294.47
574.31	2291.24
574.67	2288.12
575.02	2284.45
575.37	2281.02
575.72	2277.16
576.08	2273.80
576.43	2270.40
576.78	2266.52
577.13	2263.41
577.49	2260.19
577.84	2256.63
578.19	2252.93
578.54	2249.01
578.90	2244.47
579.25	2238.80
579.60	2233.83
579.95	2228.78
580.30	2223.71
580.66	2218.45
581.01	2213.56
581.36	2208.58
581.71	2204.44
582.06	2199.83
582.42	2195.17
582.77	2189.84
583.12	2185.05
583.47	2180.07
583.82	2174.92
584.17	2169.52
584.53	2163.78
584.88	2158.14
585.23	2152.28
585.58	2146.82
585.93	2141.51
586.28	2136.78
586.63	2131.59
586.98	2126.45
587.34	2121.67
587.69	2116.62
588.04	2111.32
588.39	2105.52
588.74	2098.98
589.09	2092.67
589.44	2085.86
589.79	2079.85
590.14	2074.22
590.49	2067.65
590.84	2061.32
591.19	2055.36
591.54	2048.97
591.89	2041.36
592.25	2034.45
592.60	2027.22
592.95	2019.46
593.30	2011.97
593.65	2004.14
594.00	1997.15
594.35	1989.92
594.70	1981.73
595.05	1974.42
595.40	1967.00
595.75	1959.35
596.10	1953.01
596.45	1946.13
596.80	1939.84
597.15	1933.11
597.50	1925.80
597.85	1919.37
598.19	1912.63
598.54	1905.43
598.89	1898.79
599.24	1893.04
599.59	1886.29
599.94	1880.11
600.29	1873.73
600.64	1867.21
600.99	1859.86
601.34	1852.83
601.69	1845.68
602.04	1838.75
602.39	1831.44
602.74	1824.68
603.08	1817.96
603.43	1811.33
603.78	1804.11
604.13	1796.84
604.48	1789.45
604.83	1782.63
605.18	1775.59
605.53	1767.58
605.87	1759.42
606.22	1752.12
606.57	1744.22
606.92	1737.03
607.27	1729.67
607.62	1722.74
607.96	1715.31
608.31	1708.68
608.66	1700.98
609.01	1693.52
609.36	1685.93
609.70	1677.92
610.05	1669.81
610.40	1662.14
610.75	1653.74
611.10	1646.16
611.44	1637.80
611.79	1629.91
612.14	1621.16
612.49	1612.09
612.83	1603.71
613.18	1595.68
613.53	1587.65
613.88	1579.01
614.22	1570.68
614.57	1562.17
614.92	1554.11
615.27	1546.54
615.61	1538.24
615.96	1530.24
616.31	1522.56
616.65	1515.28
617.00	1507.67
617.35	1500.05
617.70	1491.61
618.04	1483.05
618.39	1474.68
618.74	1467.16
619.08	1458.76
619.43	1451.30
619.78	1444.26
620.12	1437.07
620.47	1429.53
620.82	1421.22
621.16	1413.93
621.51	1406.25
621.85	1398.62
622.20	1390.14
622.55	1381.79
622.89	1373.85
623.24	1366.39
623.59	1359.04
623.93	1351.47
624.28	1344.28
624.62	1336.70
624.97	1329.60
625.32	1322.92
625.66	1315.91
626.01	1308.54
626.35	1301.06
626.70	1293.18
627.04	1285.49
627.39	1277.79
627.73	1270.35
628.08	1263.46
628.43	1255.99
628.77	1248.57
629.12	1240.96
629.46	1233.78
629.81	1226.43
630.15	1219.21
630.50	1211.86
630.84	1203.63
631.19	1195.69
631.53	1188.15
631.88	1180.58
632.22	1172.89
632.57	1165.57
632.91	1158.05
633.26	1150.69
633.60	1143.36
633.95	1136.42
634.29	1129.43
634.64	1122.73
634.98	1115.41
635.32	1108.30
635.67	1101.86
636.01	1095.26
636.36	1088.51
636.70	1082.02
637.05	1075.47
637.39	1069.09
637.73	1062.51
638.08	1056.58
638.42	1050.63
638.77	1044.17
639.11	1037.57
639.45	1031.29
639.80	1024.57
640.14	1018.05
640.49	1011.57
640.83	1005.29
641.17	999.02
641.52	992.64
641.86	986.26
642.20	980.41
642.55	974.17
642.89	967.66
643.23	961.15
643.58	955.41
643.92	949.08
644.26	943.01
644.61	937.05
644.95	930.94
645.29	924.38
645.64	917.70
645.98	911.36
646.32	905.59
646.66	899.53
647.01	893.85
647.35	888.26
647.69	882.43
648.04	876.98
648.38	871.17
648.72	865.20
649.06	859.14
649.41	853.34
649.75	847.31
650.09	841.35
650.43	835.56
650.78	829.39
651.12	823.59
651.46	817.80
651.80	811.93
652.14	806.50
652.49	801.23
652.83	796.06
653.17	790.47
653.51	784.73
653.85	779.28
654.20	773.53
654.54	767.53
654.88	761.85
655.22	755.93
655.56	750.32
655.90	744.88
656.25	739.65
656.59	734.19
656.93	729.12
657.27	723.90
657.61	718.48
657.95	713.36
658.29	708.34
658.64	703.15
658.98	697.87
659.32	692.52
659.66	687.28
660.00	681.92
660.34	677.01
660.68	672.10
661.02	667.15
661.36	662.46
661.70	657.99
662.05	653.53
662.39	649.18
662.73	644.67
663.07	640.30
663.41	635.83
663.75	631.36
664.09	626.82
664.43	622.49
664.77	618.36
665.11	614.08
665.45	609.88
665.79	605.77
666.13	601.62
666.47	597.52
666.81	593.36
667.15	589.25
667.49	585.27
667.83	581.42
668.17	577.42
668.51	573.40
668.85	569.40
669.19	565.63
669.53	561.79
669.87	557.88
670.21	554.18
670.55	550.51
670.89	547.12
671.23	543.67
671.57	540.17
671.91	536.63
672.25	533.18
672.58	529.71
672.92	526.29
673.26	523.18
673.60	520.05
673.94	516.88
674.28	513.92
674.62	511.02
674.96	507.93
675.30	505.06
675.64	502.17
675.97	499.39
676.31	496.49
676.65	493.56
676.99	490.88
677.33	488.02
677.67	485.15
678.01	482.06
678.34	479.09
678.68	476.21
679.02	473.41
679.36	470.67
679.70	467.95
680.04	465.27
680.37	462.38
680.71	459.59
681.05	457.03
681.39	454.40
681.73	451.79
682.06	449.29
682.40	446.75
682.74	444.21
683.08	441.65
683.42	439.11
683.75	436.69
684.09	434.22
684.43	431.81
684.77	429.43
685.10	427.17
685.44	424.88
685.78	422.59
686.12	420.38
686.45	418.12
686.79	415.82
687.13	413.60
687.46	411.49
687.80	409.35
688.14	407.14
688.48	405.00
688.81	402.69
689.15	400.55
689.49	398.39
689.82	396.35
690.16	394.21
690.50	392.25
690.83	390.32
691.17	388.31
691.51	386.34
691.84	384.52
692.18	382.55
692.52	380.64
692.85	378.70
693.19	376.85
693.52	375.01
693.86	373.21
694.20	371.45
694.53	369.63
694.87	367.79
695.21	366.07
695.54	364.29
695.88	362.60
696.21	360.91
696.55	359.24
696.88	357.57
697.22	355.98
697.56	354.37
697.89	352.70
698.23	351.11
698.56	349.50
698.90	347.87
699.23	346.22
699.57	344.64
699.90	343.16
700.24	341.64
700.58	340.12
700.91	338.64
701.25	337.22
701.58	335.88
701.92	334.54
702.25	333.12
702.59	331.79
702.92	330.50
703.26	329.20
703.59	327.92
703.93	326.77
704.26	325.52
704.60	324.23
704.93	322.97
705.26	321.71
705.60	320.58
705.93	319.43
706.27	318.43
706.60	317.37
706.94	316.25
707.27	315.08
707.61	314.02
707.94	313.01
708.27	311.93
708.61	310.84
708.94	309.79
709.28	308.79
709.61	307.80
709.94	306.84
710.28	305.78
710.61	304.82
710.95	303.69
711.28	302.82
711.61	301.88
711.95	300.93
712.28	300.00
712.61	298.99
712.95	298.07
713.28	297.18
713.61	296.28
713.95	295.45
714.28	294.61
714.61	293.77
714.95	292.92
715.28	292.03
715.61	291.18
715.95	290.39
716.28	289.55
716.61	288.74
716.95	287.93
717.28	287.23
717.61	286.48
717.94	285.74
718.28	284.88
718.61	284.17
718.94	283.48
719.27	282.81
719.61	282.16
719.94	281.52
720.27	280.80
720.60	280.19
720.94	279.55
721.27	278.97
721.60	278.36
721.93	277.76
722.27	277.24
722.60	276.66
722.93	276.07
723.26	275.52
723.59	274.99
723.93	274.44
724.26	273.87
724.59	273.32
724.92	272.84
725.25	272.36
725.59	271.86
725.92	271.33
726.25	270.80
726.58	270.32
726.91	269.82
727.24	269.36
727.57	268.83
727.91	268.30
728.24	267.82
728.57	267.32
728.90	266.84
729.23	266.32
729.56	265.90
729.89	265.41
730.22	264.93
730.55	264.46
730.89	264.01
731.22	263.59
731.55	263.14
731.88	262.69
732.21	262.22
732.54	261.74
732.87	261.35
733.20	260.98
733.53	260.59
733.86	260.21
734.19	259.82
734.52	259.46
734.85	259.13
735.18	258.73
735.51	258.37
735.84	258.01
736.17	257.68
736.50	257.29
736.83	257.09
737.16	256.79
737.49	256.46
737.82	256.13
738.15	255.77
738.48	255.43
738.81	255.13
739.14	254.86
739.47	254.55
739.80	254.25
740.13	253.96
740.46	253.65
740.79	253.32
741.12	253.05
741.45	252.71
741.78	252.40
742.11	252.16
742.44	251.83
742.77	251.56
743.10	251.27
743.43	250.96
743.75	250.59
744.08	250.45
744.41	250.18
744.74	249.88
745.07	249.61
745.40	249.38
745.73	249.15
746.06	248.88
746.39	248.65
746.71	248.37
747.04	248.13
747.37	247.84
747.70	247.56
748.03	247.27
748.36	247.07
748.68	246.83
749.01	246.56
749.34	246.35
749.67	246.09
750.00	245.86
750.33	245.72
750.65	245.47
750.98	245.10
751.31	244.83
751.64	244.64
751.97	244.49
752.29	244.25
752.62	243.98
752.95	243.80
753.28	243.54
753.60	243.31
753.93	243.11
754.26	242.90
754.59	242.69
754.91	242.47
755.24	242.26
755.57	242.07
755.90	241.82
756.22	241.62
756.55	241.42
756.88	241.21
757.20	240.96
757.53	240.77
757.86	240.59
758.19	240.48
758.51	240.33
758.84	240.08
759.17	239.91
759.49	239.77
759.82	239.62
760.15	239.51
760.47	239.34
760.80	239.18
761.13	239.08
761.45	238.95
761.78	238.79
762.11	238.65
762.43	238.50
762.76	238.40
763.08	238.25
763.41	238.12
763.74	238.02
764.06	237.89
764.39	237.75
764.71	237.63
765.04	237.45
765.37	237.32
765.69	237.20
766.02	237.07
766.34	236.90
766.67	236.76
767.00	236.65
767.32	236.61
767.65	236.53
767.97	236.40
768.30	236.28
768.62	236.21
768.95	236.08
769.27	235.97
769.60	235.88
769.92	235.79
770.25	235.72
770.57	235.60
770.90	235.51
771.22	235.44
771.55	235.35
771.87	235.26
772.20	235.14
772.52	235.17
772.85	235.22
773.17	235.16
773.50	235.06
773.82	234.96
774.15	234.85
774.47	234.73
774.80	234.62
775.12	234.53
775.45	234.43
775.77	234.37
776.09	234.30
776.42	234.23
776.74	234.18
777.07	234.09
777.39	234.02
777.72	233.96
778.04	233.88
778.36	233.84
778.69	233.76
779.01	233.71
779.33	233.56
779.66	233.36
779.98	233.29
780.31	233.21
780.63	233.18
780.95	233.11
781.28	233.01
781.60	232.94
781.92	232.90
782.25	232.85
782.57	232.76
782.89	232.71
783.22	232.64
783.54	232.52
783.86	232.46
784.19	232.37
784.51	232.31
784.83	232.23
785.16	232.14
785.48	232.10
785.80	232.05
786.12	231.98
786.45	231.95
786.77	231.87
787.09	231.81
