SpectraSuite Data File
++++++++++++++++++++++++++++++++++++
Date: Fri Feb 01 16:05:43 EST 2013
User: group
Dark Spectrum Present: No
Reference Spectrum Present: No
Number of Sampled Component Spectra: 1
Spectrometers: USB2E7196
Integration Time (usec): 35000 (USB2E7196)
Spectra Averaged: 100 (USB2E7196)
Boxcar Smoothing: 10 (USB2E7196)
Correct for Electrical Dark: No (USB2E7196)
Strobe/Lamp Enabled: No (USB2E7196)
Correct for Detector Non-linearity: No (USB2E7196)
Correct for Stray Light: No (USB2E7196)
Number of Pixels in Processed Spectrum: 2048
>>>>>Begin Processed Spectral Data<<<<<
339.09	0.00
339.48	213.99
339.86	215.51
340.24	217.70
340.63	218.70
341.01	221.48
341.39	221.11
341.78	222.55
342.16	223.81
342.54	224.01
342.93	212.64
343.31	223.39
343.69	223.92
344.07	224.39
344.46	224.78
344.84	225.13
345.22	225.34
345.60	225.58
345.99	225.73
346.37	225.88
346.75	226.00
347.13	226.09
347.52	226.13
347.90	226.20
348.28	226.18
348.66	226.23
349.05	226.21
349.43	226.26
349.81	226.32
350.19	226.36
350.57	226.41
350.96	226.45
351.34	226.54
351.72	226.62
352.10	226.72
352.48	226.82
352.87	226.91
353.25	227.01
353.63	227.08
354.01	227.18
354.39	227.24
354.77	227.32
355.15	227.41
355.54	227.51
355.92	227.55
356.30	227.67
356.68	227.77
357.06	227.86
357.44	227.92
357.82	227.97
358.20	228.05
358.58	228.11
358.97	228.21
359.35	228.30
359.73	228.40
360.11	228.46
360.49	228.51
360.87	228.54
361.25	228.60
361.63	228.71
362.01	228.76
362.39	228.82
362.77	228.87
363.15	228.91
363.53	228.97
363.91	229.02
364.29	229.05
364.67	229.03
365.05	229.08
365.43	229.14
365.81	229.23
366.19	229.28
366.57	229.32
366.95	229.33
367.33	229.30
367.71	229.28
368.09	229.28
368.47	229.29
368.85	229.28
369.23	229.30
369.61	229.22
369.99	229.24
370.37	229.22
370.75	229.26
371.13	229.20
371.51	229.14
371.89	229.13
372.27	229.08
372.65	229.04
373.03	228.99
373.41	228.94
373.78	228.84
374.16	228.77
374.54	228.70
374.92	228.62
375.30	228.57
375.68	228.49
376.06	228.45
376.44	228.39
376.82	228.35
377.19	228.28
377.57	228.22
377.95	228.13
378.33	228.05
378.71	227.91
379.09	227.87
379.47	227.82
379.84	227.73
380.22	227.65
380.60	227.55
380.98	227.48
381.36	227.38
381.73	227.33
382.11	227.28
382.49	227.20
382.87	227.15
383.25	227.07
383.62	227.14
384.00	227.06
384.38	227.00
384.76	226.94
385.13	226.90
385.51	226.84
385.89	226.78
386.27	226.72
386.64	226.70
387.02	226.64
387.40	226.57
387.78	226.53
388.15	226.48
388.53	226.45
388.91	226.41
389.29	226.40
389.66	226.37
390.04	226.34
390.42	226.33
390.79	226.33
391.17	226.30
391.55	226.17
391.92	226.15
392.30	226.11
392.68	226.09
393.05	226.12
393.43	226.11
393.81	226.10
394.18	226.10
394.56	226.09
394.94	226.09
395.31	226.11
395.69	226.14
396.06	226.19
396.44	226.24
396.82	226.24
397.19	226.29
397.57	226.32
397.95	226.35
398.32	226.40
398.70	226.45
399.07	226.55
399.45	226.62
399.82	226.68
400.20	226.74
400.58	226.80
400.95	226.80
401.33	226.93
401.70	227.07
402.08	227.15
402.45	227.20
402.83	227.35
403.20	227.45
403.58	227.54
403.95	227.66
404.33	227.76
404.71	227.92
405.08	228.11
405.46	228.25
405.83	228.38
406.21	228.53
406.58	228.66
406.96	228.81
407.33	228.99
407.70	229.17
408.08	229.45
408.45	229.68
408.83	229.93
409.20	230.12
409.58	230.34
409.95	230.62
410.33	230.92
410.70	231.15
411.08	231.46
411.45	231.75
411.82	232.03
412.20	232.38
412.57	232.79
412.95	233.07
413.32	233.45
413.69	233.88
414.07	234.31
414.44	234.78
414.82	235.25
415.19	235.79
415.56	236.38
415.94	236.93
416.31	237.57
416.68	238.20
417.06	238.91
417.43	239.56
417.81	240.31
418.18	241.07
418.55	241.93
418.93	242.81
419.30	243.74
419.67	244.68
420.04	245.67
420.42	246.66
420.79	247.89
421.16	249.08
421.54	250.23
421.91	251.48
422.28	252.76
422.66	254.08
423.03	255.38
423.40	256.68
423.77	258.11
424.15	259.55
424.52	261.05
424.89	262.65
425.26	264.20
425.64	265.64
426.01	267.25
426.38	268.91
426.75	270.60
427.13	272.32
427.50	274.12
427.87	275.99
428.24	277.83
428.61	279.56
428.99	281.49
429.36	283.61
429.73	285.64
430.10	287.68
430.47	289.76
430.85	291.87
431.22	294.14
431.59	296.50
431.96	298.73
432.33	301.23
432.70	303.60
433.08	306.40
433.45	309.06
433.82	311.66
434.19	314.51
434.56	317.28
434.93	319.94
435.30	322.57
435.68	325.45
436.05	328.31
436.42	331.10
436.79	333.60
437.16	336.31
437.53	339.12
437.90	341.89
438.27	344.66
438.64	347.49
439.01	350.07
439.38	352.31
439.75	354.49
440.13	356.89
440.50	359.22
440.87	361.04
441.24	363.00
441.61	365.18
441.98	366.67
442.35	368.47
442.72	370.30
443.09	372.11
443.46	373.12
443.83	373.62
444.20	374.09
444.57	374.94
444.94	375.25
445.31	375.61
445.68	375.97
446.05	375.98
446.42	375.58
446.79	375.11
447.16	374.62
447.53	374.31
447.90	373.20
448.27	372.00
448.64	370.42
449.01	369.24
449.37	367.27
449.74	365.36
450.11	363.08
450.48	360.59
450.85	358.07
451.22	355.91
451.59	353.93
451.96	352.01
452.33	349.41
452.70	347.02
453.07	344.19
453.43	341.27
453.80	338.50
454.17	335.85
454.54	333.34
454.91	330.64
455.28	327.91
455.65	325.39
456.02	322.98
456.38	320.87
456.75	318.22
457.12	315.95
457.49	313.74
457.86	311.60
458.23	309.74
458.59	307.65
458.96	305.56
459.33	303.69
459.70	301.81
460.07	300.24
460.43	298.54
460.80	296.92
461.17	295.52
461.54	294.04
461.91	292.60
462.27	291.14
462.64	289.87
463.01	288.55
463.38	287.27
463.74	285.91
464.11	284.74
464.48	283.73
464.85	282.66
465.21	281.80
465.58	280.88
465.95	279.79
466.32	278.89
466.68	277.98
467.05	277.11
467.42	276.24
467.78	275.34
468.15	274.47
468.52	273.85
468.88	272.97
469.25	272.23
469.62	271.60
469.98	270.92
470.35	270.28
470.72	269.68
471.08	269.06
471.45	268.51
471.82	267.97
472.18	267.37
472.55	266.89
472.92	266.37
473.28	265.91
473.65	265.47
474.02	265.08
474.38	264.76
474.75	264.41
475.11	264.09
475.48	263.84
475.85	263.59
476.21	263.32
476.58	263.16
476.94	262.99
477.31	262.82
477.67	262.69
478.04	262.59
478.41	262.53
478.77	262.54
479.14	262.50
479.50	262.52
479.87	262.62
480.23	262.71
480.60	262.80
480.96	262.90
481.33	263.11
481.69	263.28
482.06	263.45
482.42	263.68
482.79	263.96
483.15	264.28
483.52	264.68
483.88	265.06
484.25	265.42
484.61	265.88
484.98	266.36
485.34	266.95
485.71	267.59
486.07	268.20
486.44	268.83
486.80	269.56
487.17	270.29
487.53	271.10
487.90	271.96
488.26	272.91
488.62	273.93
488.99	274.92
489.35	275.97
489.72	277.10
490.08	278.28
490.44	279.48
490.81	280.86
491.17	282.22
491.54	283.70
491.90	285.26
492.26	286.90
492.63	288.63
492.99	290.38
493.36	292.25
493.72	294.33
494.08	296.41
494.45	298.66
494.81	300.99
495.17	303.45
495.54	305.99
495.90	308.64
496.26	311.44
496.63	314.40
496.99	317.55
497.35	320.79
497.72	324.25
498.08	327.77
498.44	331.43
498.80	335.37
499.17	339.44
499.53	343.64
499.89	348.06
500.26	352.54
500.62	357.22
500.98	362.15
501.34	367.19
501.71	372.51
502.07	377.98
502.43	383.63
502.79	389.43
503.16	395.50
503.52	401.82
503.88	408.21
504.24	414.87
504.60	421.78
504.97	428.96
505.33	436.24
505.69	443.97
506.05	451.76
506.41	459.62
506.78	467.79
507.14	476.24
507.50	484.97
507.86	494.06
508.22	503.34
508.59	512.63
508.95	522.25
509.31	532.04
509.67	542.12
510.03	552.42
510.39	562.98
510.75	573.81
511.12	584.72
511.48	596.11
511.84	607.56
512.20	618.98
512.56	630.92
512.92	643.05
513.28	655.39
513.64	667.75
514.00	680.43
514.37	693.37
514.73	706.33
515.09	719.34
515.45	732.65
515.81	746.17
516.17	760.13
516.53	774.28
516.89	788.47
517.25	802.66
517.61	817.07
517.97	831.50
518.33	845.96
518.69	860.72
519.05	875.62
519.41	890.76
519.77	906.35
520.13	921.90
520.49	937.25
520.85	952.65
521.21	968.40
521.57	984.69
521.93	1000.40
522.29	1016.85
522.65	1033.10
523.01	1049.21
523.37	1065.17
523.73	1081.32
524.09	1097.36
524.45	1113.60
524.81	1130.30
525.17	1147.10
525.53	1163.93
525.89	1180.80
526.25	1197.74
526.61	1214.09
526.97	1230.91
527.33	1247.32
527.68	1263.77
528.04	1280.36
528.40	1296.91
528.76	1314.06
529.12	1330.61
529.48	1347.47
529.84	1363.32
530.20	1379.83
530.56	1396.80
530.91	1414.27
531.27	1430.97
531.63	1447.30
531.99	1463.88
532.35	1479.71
532.71	1495.60
533.07	1511.88
533.42	1527.69
533.78	1543.56
534.14	1559.70
534.50	1574.92
534.86	1590.81
535.21	1605.96
535.57	1621.74
535.93	1637.23
536.29	1651.82
536.65	1666.66
537.00	1681.36
537.36	1696.81
537.72	1711.32
538.08	1725.78
538.44	1739.40
538.79	1753.24
539.15	1766.91
539.51	1780.60
539.87	1794.91
540.22	1808.55
540.58	1822.30
540.94	1835.47
541.29	1848.26
541.65	1860.99
542.01	1874.23
542.37	1886.53
542.72	1898.86
543.08	1910.62
543.44	1922.90
543.79	1934.23
544.15	1945.22
544.51	1956.80
544.87	1967.65
545.22	1978.55
545.58	1988.72
545.94	1998.59
546.29	2008.41
546.65	2018.41
547.01	2027.71
547.36	2036.38
547.72	2044.79
548.07	2052.57
548.43	2060.73
548.79	2068.71
549.14	2076.26
549.50	2083.44
549.86	2090.88
550.21	2098.18
550.57	2105.36
550.92	2112.06
551.28	2119.00
551.64	2126.12
551.99	2132.54
552.35	2138.62
552.70	2144.80
553.06	2150.79
553.41	2157.09
553.77	2163.19
554.13	2169.04
554.48	2175.07
554.84	2180.50
555.19	2185.87
555.55	2190.94
555.90	2195.61
556.26	2200.61
556.61	2205.39
556.97	2209.82
557.32	2214.12
557.68	2218.31
558.03	2222.67
558.39	2226.22
558.74	2231.03
559.10	2234.97
559.45	2238.71
559.81	2243.09
560.16	2246.85
560.52	2250.00
560.87	2253.40
561.23	2256.08
561.58	2259.10
561.94	2261.68
562.29	2264.07
562.64	2266.70
563.00	2269.45
563.35	2272.93
563.71	2276.09
564.06	2279.19
564.42	2282.01
564.77	2284.64
565.12	2286.92
565.48	2288.61
565.83	2290.59
566.19	2291.83
566.54	2292.79
566.89	2294.12
567.25	2294.74
567.60	2296.07
567.96	2297.86
568.31	2298.70
568.66	2299.78
569.02	2300.32
569.37	2300.70
569.72	2301.59
570.08	2301.69
570.43	2301.72
570.78	2301.12
571.14	2299.52
571.49	2298.38
571.84	2298.07
572.20	2296.93
572.55	2295.91
572.90	2294.34
573.26	2292.95
573.61	2291.17
573.96	2289.40
574.31	2286.23
574.67	2283.16
575.02	2279.54
575.37	2276.11
575.72	2272.32
576.08	2268.97
576.43	2265.70
576.78	2262.05
577.13	2258.88
577.49	2255.78
577.84	2252.18
578.19	2248.40
578.54	2244.73
578.90	2240.37
579.25	2234.75
579.60	2229.76
579.95	2224.84
580.30	2219.96
580.66	2214.74
581.01	2209.77
581.36	2204.87
581.71	2200.83
582.06	2196.53
582.42	2192.10
582.77	2186.93
583.12	2182.38
583.47	2177.68
583.82	2172.74
584.17	2167.56
584.53	2162.11
584.88	2156.50
585.23	2150.82
585.58	2145.37
585.93	2139.92
586.28	2135.12
586.63	2130.11
586.98	2125.13
587.34	2120.26
587.69	2115.40
588.04	2110.13
588.39	2104.54
588.74	2097.94
589.09	2091.67
589.44	2084.84
589.79	2078.69
590.14	2073.00
590.49	2066.42
590.84	2060.07
591.19	2054.15
591.54	2047.75
591.89	2040.40
592.25	2033.65
592.60	2026.47
592.95	2018.98
593.30	2011.69
593.65	2004.00
594.00	1996.84
594.35	1989.44
594.70	1981.62
595.05	1974.52
595.40	1967.38
595.75	1960.01
596.10	1953.97
596.45	1947.47
596.80	1941.37
597.15	1934.80
597.50	1927.90
597.85	1921.38
598.19	1914.76
598.54	1907.58
598.89	1900.76
599.24	1894.79
599.59	1888.16
599.94	1881.92
600.29	1875.57
600.64	1869.00
600.99	1861.66
601.34	1855.15
601.69	1848.22
602.04	1841.25
602.39	1833.91
602.74	1826.96
603.08	1820.15
603.43	1813.34
603.78	1805.87
604.13	1798.63
604.48	1791.43
604.83	1784.50
605.18	1777.67
605.53	1769.62
605.87	1761.51
606.22	1754.31
606.57	1746.44
606.92	1739.10
607.27	1732.00
607.62	1725.09
607.96	1717.94
608.31	1711.52
608.66	1703.79
609.01	1696.37
609.36	1688.94
609.70	1680.91
610.05	1672.93
610.40	1665.20
610.75	1656.82
611.10	1649.16
611.44	1640.73
611.79	1632.65
612.14	1623.97
612.49	1614.74
612.83	1606.29
613.18	1598.27
613.53	1590.13
613.88	1581.51
614.22	1573.26
614.57	1564.60
614.92	1556.52
615.27	1548.84
615.61	1540.39
615.96	1532.35
616.31	1524.55
616.65	1517.08
617.00	1509.45
617.35	1501.75
617.70	1493.43
618.04	1485.06
618.39	1476.80
618.74	1469.17
619.08	1460.89
619.43	1453.28
619.78	1446.46
620.12	1439.40
620.47	1431.85
620.82	1423.71
621.16	1416.33
621.51	1408.69
621.85	1401.07
622.20	1392.65
622.55	1384.30
622.89	1376.49
623.24	1368.81
623.59	1361.50
623.93	1353.95
624.28	1346.74
624.62	1339.13
624.97	1331.95
625.32	1325.10
625.66	1318.04
626.01	1310.94
626.35	1303.49
626.70	1295.72
627.04	1288.00
627.39	1280.14
627.73	1272.78
628.08	1265.88
628.43	1258.64
628.77	1251.23
629.12	1243.67
629.46	1236.44
629.81	1228.93
630.15	1221.71
630.50	1214.25
630.84	1205.96
631.19	1197.90
631.53	1190.42
631.88	1182.91
632.22	1175.33
632.57	1167.98
632.91	1160.45
633.26	1152.96
633.60	1145.53
633.95	1138.47
634.29	1131.36
634.64	1124.66
634.98	1117.26
635.32	1110.16
635.67	1103.50
636.01	1096.89
636.36	1090.09
636.70	1083.51
637.05	1077.05
637.39	1070.56
637.73	1064.12
638.08	1058.28
638.42	1052.44
638.77	1046.00
639.11	1039.45
639.45	1033.08
639.80	1026.43
640.14	1020.06
640.49	1013.48
640.83	1007.21
641.17	1000.97
641.52	994.55
641.86	988.03
642.20	982.18
642.55	975.83
642.89	969.37
643.23	962.76
643.58	957.09
643.92	950.91
644.26	944.90
644.61	938.79
644.95	932.80
645.29	926.28
645.64	919.52
645.98	913.12
646.32	907.26
646.66	901.17
647.01	895.44
647.35	889.75
647.69	883.93
648.04	878.37
648.38	872.53
648.72	866.61
649.06	860.68
649.41	854.79
649.75	848.82
650.09	842.90
650.43	837.18
650.78	830.95
651.12	825.02
651.46	819.20
651.80	813.54
652.14	808.11
652.49	802.66
652.83	797.41
653.17	791.77
653.51	786.08
653.85	780.69
654.20	775.04
654.54	769.01
654.88	763.35
655.22	757.44
655.56	751.71
655.90	746.23
656.25	740.93
656.59	735.55
656.93	730.49
657.27	725.38
657.61	719.97
657.95	714.94
658.29	709.86
658.64	704.63
658.98	699.26
659.32	693.81
659.66	688.66
660.00	683.35
660.34	678.43
660.68	673.51
661.02	668.48
661.36	663.71
661.70	659.20
662.05	654.80
662.39	650.46
662.73	646.04
663.07	641.69
663.41	637.25
663.75	632.79
664.09	628.22
664.43	623.74
664.77	619.60
665.11	615.26
665.45	611.10
665.79	607.02
666.13	602.91
666.47	598.78
666.81	594.58
667.15	590.48
667.49	586.54
667.83	582.70
668.17	578.70
668.51	574.60
668.85	570.56
669.19	566.63
669.53	562.80
669.87	558.90
670.21	555.23
670.55	551.56
670.89	548.08
671.23	544.60
671.57	541.07
671.91	537.52
672.25	533.99
672.58	530.41
672.92	526.93
673.26	523.69
673.60	520.55
673.94	517.43
674.28	514.51
674.62	511.55
674.96	508.37
675.30	505.52
675.64	502.65
675.97	499.85
676.31	497.05
676.65	494.19
676.99	491.45
677.33	488.57
677.67	485.80
678.01	482.85
678.34	479.87
678.68	476.98
679.02	474.14
679.36	471.40
679.70	468.68
680.04	465.99
680.37	463.19
680.71	460.37
681.05	457.79
681.39	455.12
681.73	452.43
682.06	449.96
682.40	447.38
682.74	444.85
683.08	442.30
683.42	439.62
683.75	437.13
684.09	434.59
684.43	432.08
684.77	429.62
685.10	427.18
685.44	424.91
685.78	422.64
686.12	420.41
686.45	418.14
686.79	415.86
687.13	413.67
687.46	411.47
687.80	409.30
688.14	407.07
688.48	404.99
688.81	402.79
689.15	400.64
689.49	398.51
689.82	396.43
690.16	394.36
690.50	392.48
690.83	390.49
691.17	388.56
691.51	386.68
691.84	384.82
692.18	382.88
692.52	380.91
692.85	378.99
693.19	377.09
693.52	375.21
693.86	373.39
694.20	371.64
694.53	369.81
694.87	367.99
695.21	366.18
695.54	364.36
695.88	362.57
696.21	360.84
696.55	359.14
696.88	357.49
697.22	355.84
697.56	354.15
697.89	352.55
698.23	350.90
698.56	349.30
698.90	347.66
699.23	346.07
699.57	344.48
699.90	342.93
700.24	341.40
700.58	339.91
700.91	338.43
701.25	336.97
701.58	335.66
701.92	334.28
702.25	332.91
702.59	331.58
702.92	330.31
703.26	329.01
703.59	327.76
703.93	326.52
704.26	325.27
704.60	324.03
704.93	322.73
705.26	321.51
705.60	320.34
705.93	319.26
706.27	318.24
706.60	317.22
706.94	316.19
707.27	315.06
707.61	313.99
707.94	312.93
708.27	311.82
708.61	310.75
708.94	309.76
709.28	308.77
709.61	307.77
709.94	306.85
710.28	305.85
710.61	304.83
710.95	303.77
711.28	302.85
711.61	301.88
711.95	300.97
712.28	300.01
712.61	299.03
712.95	298.07
713.28	297.16
713.61	296.24
713.95	295.31
714.28	294.49
714.61	293.63
714.95	292.80
715.28	291.97
715.61	291.06
715.95	290.20
716.28	289.33
716.61	288.52
716.95	287.66
717.28	286.87
717.61	286.10
717.94	285.34
718.28	284.52
718.61	283.77
718.94	283.04
719.27	282.37
719.61	281.70
719.94	281.00
720.27	280.25
720.60	279.59
720.94	278.94
721.27	278.36
721.60	277.78
721.93	277.20
722.27	276.62
722.60	276.07
722.93	275.51
723.26	274.99
723.59	274.45
723.93	273.89
724.26	273.35
724.59	272.80
724.92	272.32
725.25	271.83
725.59	271.32
725.92	270.80
726.25	270.29
726.58	269.82
726.91	269.35
727.24	268.89
727.57	268.42
727.91	267.94
728.24	267.41
728.57	266.90
728.90	266.41
729.23	265.93
729.56	265.51
729.89	265.01
730.22	264.53
730.55	264.06
730.89	263.62
731.22	263.18
731.55	262.75
731.88	262.31
732.21	261.89
732.54	261.45
732.87	261.05
733.20	260.66
733.53	260.23
733.86	259.81
734.19	259.43
734.52	259.08
734.85	258.77
735.18	258.39
735.51	258.04
735.84	257.70
736.17	257.35
736.50	256.95
736.83	256.73
737.16	256.38
737.49	256.05
737.82	255.70
738.15	255.35
738.48	255.03
738.81	254.71
739.14	254.39
739.47	254.07
739.80	253.79
740.13	253.50
740.46	253.17
740.79	252.87
741.12	252.58
741.45	252.24
741.78	251.86
742.11	251.59
742.44	251.27
742.77	250.98
743.10	250.69
743.43	250.40
743.75	250.03
744.08	249.92
744.41	249.65
744.74	249.40
745.07	249.14
745.40	248.89
745.73	248.65
746.06	248.38
746.39	248.16
746.71	247.91
747.04	247.62
747.37	247.40
747.70	247.16
748.03	246.92
748.36	246.69
748.68	246.43
749.01	246.19
749.34	245.99
749.67	245.78
750.00	245.53
750.33	245.37
750.65	245.15
750.98	244.79
751.31	244.55
751.64	244.32
751.97	244.16
752.29	243.94
752.62	243.71
752.95	243.54
753.28	243.35
753.60	243.09
753.93	242.93
754.26	242.71
754.59	242.50
754.91	242.28
755.24	242.06
755.57	241.93
755.90	241.78
756.22	241.57
756.55	241.36
756.88	241.18
757.20	240.94
757.53	240.77
757.86	240.60
758.19	240.45
758.51	240.30
758.84	240.07
759.17	239.90
759.49	239.74
759.82	239.60
760.15	239.41
760.47	239.28
760.80	239.08
761.13	238.97
761.45	238.82
761.78	238.68
762.11	238.57
762.43	238.38
762.76	238.23
763.08	238.11
763.41	237.96
763.74	237.85
764.06	237.71
764.39	237.56
764.71	237.43
765.04	237.28
765.37	237.16
765.69	237.06
766.02	236.93
766.34	236.80
766.67	236.67
767.00	236.60
767.32	236.54
767.65	236.46
767.97	236.35
768.30	236.22
768.62	236.11
768.95	235.97
769.27	235.90
769.60	235.76
769.92	235.65
770.25	235.56
770.57	235.42
770.90	235.34
771.22	235.22
771.55	235.10
771.87	235.00
772.20	234.90
772.52	234.84
772.85	234.85
773.17	234.77
773.50	234.63
773.82	234.50
774.15	234.36
774.47	234.24
774.80	234.12
775.12	234.05
775.45	233.96
775.77	233.90
776.09	233.80
776.42	233.71
776.74	233.65
777.07	233.52
777.39	233.47
777.72	233.38
778.04	233.37
778.36	233.30
778.69	233.27
779.01	233.21
779.33	233.10
779.66	232.91
779.98	232.82
780.31	232.78
780.63	232.74
780.95	232.68
781.28	232.61
781.60	232.56
781.92	232.48
782.25	232.45
782.57	232.36
782.89	232.29
783.22	232.24
783.54	232.17
783.86	232.16
784.19	232.09
784.51	232.07
784.83	231.96
785.16	231.89
785.48	231.82
785.80	231.75
786.12	231.68
786.45	231.65
786.77	231.62
787.09	231.56
