SpectraSuite Data File
++++++++++++++++++++++++++++++++++++
Date: Fri Feb 01 15:15:02 EST 2013
User: group
Dark Spectrum Present: No
Reference Spectrum Present: No
Number of Sampled Component Spectra: 1
Spectrometers: USB2E7196
Integration Time (usec): 35000 (USB2E7196)
Spectra Averaged: 100 (USB2E7196)
Boxcar Smoothing: 10 (USB2E7196)
Correct for Electrical Dark: No (USB2E7196)
Strobe/Lamp Enabled: No (USB2E7196)
Correct for Detector Non-linearity: No (USB2E7196)
Correct for Stray Light: No (USB2E7196)
Number of Pixels in Processed Spectrum: 2048
>>>>>Begin Processed Spectral Data<<<<<
339.09	0.00
339.48	214.90
339.86	217.04
340.24	217.81
340.63	219.46
341.01	221.86
341.39	221.44
341.78	223.63
342.16	224.52
342.54	224.75
342.93	213.46
343.31	224.28
343.69	224.79
344.07	225.26
344.46	225.72
344.84	226.11
345.22	226.37
345.60	226.65
345.99	226.83
346.37	226.95
346.75	227.06
347.13	227.13
347.52	227.21
347.90	227.31
348.28	227.34
348.66	227.34
349.05	227.34
349.43	227.39
349.81	227.43
350.19	227.46
350.57	227.56
350.96	227.66
351.34	227.72
351.72	227.85
352.10	227.92
352.48	227.97
352.87	228.00
353.25	228.04
353.63	228.10
354.01	228.18
354.39	228.27
354.77	228.35
355.15	228.42
355.54	228.48
355.92	228.53
356.30	228.61
356.68	228.76
357.06	228.84
357.44	228.90
357.82	228.96
358.20	229.03
358.58	229.05
358.97	229.10
359.35	229.13
359.73	229.19
360.11	229.22
360.49	229.26
360.87	229.32
361.25	229.36
361.63	229.44
362.01	229.47
362.39	229.48
362.77	229.47
363.15	229.47
363.53	229.46
363.91	229.46
364.29	229.46
364.67	229.37
365.05	229.38
365.43	229.35
365.81	229.38
366.19	229.41
366.57	229.45
366.95	229.41
367.33	229.41
367.71	229.37
368.09	229.39
368.47	229.38
368.85	229.34
369.23	229.36
369.61	229.28
369.99	229.28
370.37	229.21
370.75	229.29
371.13	229.24
371.51	229.19
371.89	229.15
372.27	229.08
372.65	229.04
373.03	228.98
373.41	228.93
373.78	228.84
374.16	228.70
374.54	228.62
374.92	228.56
375.30	228.48
375.68	228.43
376.06	228.37
376.44	228.28
376.82	228.22
377.19	228.14
377.57	228.05
377.95	227.96
378.33	227.92
378.71	227.76
379.09	227.70
379.47	227.68
379.84	227.62
380.22	227.55
380.60	227.48
380.98	227.41
381.36	227.35
381.73	227.27
382.11	227.23
382.49	227.15
382.87	227.08
383.25	227.01
383.62	227.08
384.00	226.97
384.38	226.91
384.76	226.86
385.13	226.84
385.51	226.81
385.89	226.73
386.27	226.68
386.64	226.66
387.02	226.64
387.40	226.56
387.78	226.51
388.15	226.47
388.53	226.43
388.91	226.38
389.29	226.37
389.66	226.40
390.04	226.38
390.42	226.38
390.79	226.37
391.17	226.38
391.55	226.21
391.92	226.22
392.30	226.24
392.68	226.24
393.05	226.23
393.43	226.22
393.81	226.22
394.18	226.25
394.56	226.27
394.94	226.27
395.31	226.31
395.69	226.37
396.06	226.44
396.44	226.50
396.82	226.52
397.19	226.61
397.57	226.65
397.95	226.71
398.32	226.77
398.70	226.81
399.07	226.90
399.45	226.99
399.82	227.05
400.20	227.12
400.58	227.19
400.95	227.25
401.33	227.37
401.70	227.56
402.08	227.67
402.45	227.73
402.83	227.87
403.20	227.99
403.58	228.08
403.95	228.22
404.33	228.37
404.71	228.53
405.08	228.68
405.46	228.82
405.83	228.98
406.21	229.14
406.58	229.35
406.96	229.48
407.33	229.67
407.70	229.88
408.08	230.17
408.45	230.40
408.83	230.65
409.20	230.87
409.58	231.06
409.95	231.30
410.33	231.59
410.70	231.85
411.08	232.14
411.45	232.47
411.82	232.77
412.20	233.12
412.57	233.53
412.95	233.86
413.32	234.28
413.69	234.68
414.07	235.13
414.44	235.60
414.82	236.09
415.19	236.64
415.56	237.22
415.94	237.75
416.31	238.40
416.68	239.01
417.06	239.75
417.43	240.43
417.81	241.20
418.18	241.99
418.55	242.81
418.93	243.70
419.30	244.59
419.67	245.51
420.04	246.50
420.42	247.47
420.79	248.63
421.16	249.78
421.54	250.97
421.91	252.17
422.28	253.45
422.66	254.78
423.03	256.06
423.40	257.37
423.77	258.78
424.15	260.22
424.52	261.68
424.89	263.22
425.26	264.77
425.64	266.25
426.01	267.87
426.38	269.52
426.75	271.17
427.13	272.91
427.50	274.74
427.87	276.59
428.24	278.46
428.61	280.20
428.99	282.14
429.36	284.26
429.73	286.31
430.10	288.32
430.47	290.38
430.85	292.52
431.22	294.79
431.59	297.18
431.96	299.41
432.33	301.96
432.70	304.38
433.08	307.27
433.45	309.92
433.82	312.51
434.19	315.43
434.56	318.25
434.93	320.92
435.30	323.56
435.68	326.47
436.05	329.30
436.42	332.14
436.79	334.68
437.16	337.34
437.53	340.18
437.90	342.98
438.27	345.76
438.64	348.58
439.01	351.17
439.38	353.41
439.75	355.55
440.13	358.04
440.50	360.39
440.87	362.15
441.24	364.10
441.61	366.21
441.98	367.70
442.35	369.52
442.72	371.37
443.09	373.13
443.46	374.17
443.83	374.82
444.20	375.28
444.57	376.07
444.94	376.41
445.31	376.72
445.68	377.11
446.05	377.14
446.42	376.77
446.79	376.34
447.16	375.84
447.53	375.56
447.90	374.35
448.27	373.17
448.64	371.60
449.01	370.43
449.37	368.46
449.74	366.50
450.11	364.22
450.48	361.76
450.85	359.27
451.22	357.09
451.59	354.99
451.96	353.03
452.33	350.46
452.70	348.05
453.07	345.23
453.43	342.26
453.80	339.50
454.17	336.84
454.54	334.28
454.91	331.59
455.28	328.90
455.65	326.44
456.02	323.99
456.38	321.84
456.75	319.20
457.12	316.97
457.49	314.81
457.86	312.63
458.23	310.76
458.59	308.70
458.96	306.58
459.33	304.76
459.70	302.92
460.07	301.41
460.43	299.70
460.80	298.08
461.17	296.67
461.54	295.16
461.91	293.74
462.27	292.32
462.64	291.06
463.01	289.72
463.38	288.41
463.74	287.01
464.11	285.83
464.48	284.79
464.85	283.67
465.21	282.76
465.58	281.85
465.95	280.74
466.32	279.80
466.68	278.87
467.05	277.96
467.42	277.11
467.78	276.20
468.15	275.33
468.52	274.67
468.88	273.79
469.25	273.01
469.62	272.34
469.98	271.63
470.35	270.99
470.72	270.35
471.08	269.67
471.45	269.16
471.82	268.61
472.18	268.00
472.55	267.58
472.92	267.06
473.28	266.56
473.65	266.09
474.02	265.66
474.38	265.30
474.75	264.98
475.11	264.56
475.48	264.28
475.85	264.04
476.21	263.78
476.58	263.61
476.94	263.47
477.31	263.30
477.67	263.15
478.04	263.00
478.41	262.95
478.77	263.01
479.14	262.93
479.50	262.95
479.87	263.03
480.23	263.09
480.60	263.14
480.96	263.26
481.33	263.52
481.69	263.71
482.06	263.93
482.42	264.11
482.79	264.40
483.15	264.71
483.52	265.10
483.88	265.44
484.25	265.79
484.61	266.23
484.98	266.68
485.34	267.26
485.71	267.87
486.07	268.48
486.44	269.05
486.80	269.77
487.17	270.49
487.53	271.32
487.90	272.18
488.26	273.15
488.62	274.12
488.99	275.06
489.35	276.08
489.72	277.20
490.08	278.41
490.44	279.64
490.81	280.98
491.17	282.31
491.54	283.81
491.90	285.37
492.26	286.95
492.63	288.68
492.99	290.43
493.36	292.33
493.72	294.38
494.08	296.50
494.45	298.73
494.81	301.06
495.17	303.45
495.54	306.01
495.90	308.65
496.26	311.42
496.63	314.37
496.99	317.48
497.35	320.73
497.72	324.12
498.08	327.56
498.44	331.23
498.80	335.12
499.17	339.13
499.53	343.28
499.89	347.70
500.26	352.23
500.62	356.93
500.98	361.90
501.34	366.93
501.71	372.24
502.07	377.68
502.43	383.29
502.79	389.08
503.16	395.10
503.52	401.40
503.88	407.81
504.24	414.44
504.60	421.26
504.97	428.32
505.33	435.65
505.69	443.44
506.05	451.17
506.41	459.05
506.78	467.19
507.14	475.65
507.50	484.34
507.86	493.32
508.22	502.46
508.59	511.63
508.95	521.21
509.31	530.99
509.67	541.09
510.03	551.40
510.39	562.00
510.75	572.83
511.12	583.71
511.48	595.04
511.84	606.47
512.20	618.10
512.56	629.99
512.92	642.16
513.28	654.40
513.64	666.90
514.00	679.56
514.37	692.52
514.73	705.51
515.09	718.54
515.45	731.83
515.81	745.40
516.17	759.40
516.53	773.52
516.89	787.64
517.25	801.85
517.61	816.27
517.97	830.68
518.33	845.10
518.69	859.94
519.05	874.89
519.41	890.13
519.77	905.69
520.13	921.35
520.49	936.68
520.85	952.11
521.21	967.83
521.57	984.17
521.93	1000.02
522.29	1016.52
522.65	1032.81
523.01	1049.14
523.37	1065.27
523.73	1081.51
524.09	1097.64
524.45	1114.20
524.81	1130.93
525.17	1147.81
525.53	1164.81
525.89	1181.74
526.25	1198.58
526.61	1215.00
526.97	1231.73
527.33	1248.20
527.68	1264.78
528.04	1281.47
528.40	1298.24
528.76	1315.32
529.12	1331.90
529.48	1348.86
529.84	1364.97
530.20	1381.74
530.56	1398.76
530.91	1416.23
531.27	1433.08
531.63	1449.63
531.99	1466.20
532.35	1482.19
532.71	1498.07
533.07	1514.45
533.42	1530.50
533.78	1546.72
534.14	1563.15
534.50	1578.66
534.86	1594.69
535.21	1609.95
535.57	1625.87
535.93	1641.54
536.29	1656.48
536.65	1671.59
537.00	1686.61
537.36	1701.95
537.72	1716.56
538.08	1730.98
538.44	1744.93
538.79	1758.88
539.15	1772.66
539.51	1786.43
539.87	1800.93
540.22	1814.80
540.58	1828.68
540.94	1842.10
541.29	1855.02
541.65	1867.71
542.01	1880.91
542.37	1893.19
542.72	1905.60
543.08	1917.49
543.44	1929.99
543.79	1941.29
544.15	1952.43
544.51	1963.86
544.87	1974.96
545.22	1985.84
545.58	1996.20
545.94	2005.94
546.29	2015.84
546.65	2025.71
547.01	2035.10
547.36	2043.65
547.72	2052.20
548.07	2060.17
548.43	2068.32
548.79	2076.40
549.14	2084.05
549.50	2091.41
549.86	2099.25
550.21	2106.67
550.57	2113.85
550.92	2120.46
551.28	2127.47
551.64	2134.58
551.99	2141.22
552.35	2147.26
552.70	2153.26
553.06	2159.27
553.41	2165.63
553.77	2171.56
554.13	2177.57
554.48	2183.48
554.84	2188.93
555.19	2194.25
555.55	2199.20
555.90	2203.68
556.26	2208.55
556.61	2213.32
556.97	2217.61
557.32	2221.65
557.68	2225.75
558.03	2230.02
558.39	2233.59
558.74	2238.22
559.10	2242.10
559.45	2245.64
559.81	2250.12
560.16	2254.07
560.52	2257.14
560.87	2260.45
561.23	2263.17
561.58	2266.19
561.94	2268.76
562.29	2271.29
562.64	2273.87
563.00	2276.49
563.35	2280.06
563.71	2283.07
564.06	2286.20
564.42	2289.02
564.77	2291.54
565.12	2293.76
565.48	2295.57
565.83	2297.23
566.19	2298.51
566.54	2299.46
566.89	2300.49
567.25	2300.85
567.60	2302.07
567.96	2303.67
568.31	2304.53
568.66	2305.60
569.02	2306.05
569.37	2306.30
569.72	2306.98
570.08	2307.07
570.43	2307.05
570.78	2306.19
571.14	2304.60
571.49	2303.20
571.84	2302.85
572.20	2301.57
572.55	2300.41
572.90	2298.82
573.26	2297.41
573.61	2295.75
573.96	2293.66
574.31	2290.57
574.67	2287.49
575.02	2283.87
575.37	2280.43
575.72	2276.41
576.08	2273.09
576.43	2269.75
576.78	2266.11
577.13	2262.94
577.49	2259.69
577.84	2256.04
578.19	2252.43
578.54	2248.65
578.90	2244.30
579.25	2238.58
579.60	2233.33
579.95	2228.17
580.30	2223.21
580.66	2218.01
581.01	2212.95
581.36	2208.07
581.71	2203.83
582.06	2199.28
582.42	2194.59
582.77	2189.34
583.12	2184.82
583.47	2179.82
583.82	2174.65
584.17	2169.29
584.53	2163.59
584.88	2157.91
585.23	2152.01
585.58	2146.29
585.93	2140.84
586.28	2136.00
586.63	2130.83
586.98	2125.85
587.34	2121.17
587.69	2116.06
588.04	2110.69
588.39	2104.83
588.74	2098.30
589.09	2092.09
589.44	2085.08
589.79	2079.12
590.14	2073.35
590.49	2066.75
590.84	2060.26
591.19	2054.09
591.54	2047.53
591.89	2040.06
592.25	2033.14
592.60	2025.99
592.95	2018.27
593.30	2010.81
593.65	2003.06
594.00	1995.99
594.35	1988.67
594.70	1980.46
595.05	1973.15
595.40	1965.84
595.75	1958.13
596.10	1951.74
596.45	1944.85
596.80	1938.63
597.15	1931.76
597.50	1924.60
597.85	1918.13
598.19	1911.48
598.54	1904.34
598.89	1897.63
599.24	1891.69
599.59	1884.91
599.94	1878.57
600.29	1872.28
600.64	1865.66
600.99	1858.24
601.34	1851.29
601.69	1844.31
602.04	1837.33
602.39	1829.95
602.74	1823.01
603.08	1816.46
603.43	1809.67
603.78	1802.37
604.13	1795.24
604.48	1787.82
604.83	1781.01
605.18	1773.89
605.53	1765.80
605.87	1757.78
606.22	1750.49
606.57	1742.59
606.92	1735.30
607.27	1728.00
607.62	1720.94
607.96	1713.58
608.31	1706.96
608.66	1699.40
609.01	1691.79
609.36	1684.26
609.70	1676.17
610.05	1668.09
610.40	1660.36
610.75	1652.14
611.10	1644.46
611.44	1636.15
611.79	1628.24
612.14	1619.47
612.49	1610.36
612.83	1602.05
613.18	1593.89
613.53	1585.79
613.88	1577.34
614.22	1569.09
614.57	1560.67
614.92	1552.72
615.27	1545.12
615.61	1536.72
615.96	1528.71
616.31	1521.13
616.65	1513.80
617.00	1506.40
617.35	1498.75
617.70	1490.39
618.04	1481.83
618.39	1473.56
618.74	1465.93
619.08	1457.65
619.43	1450.05
619.78	1443.17
620.12	1435.98
620.47	1428.54
620.82	1420.40
621.16	1412.92
621.51	1405.28
621.85	1397.62
622.20	1389.11
622.55	1380.74
622.89	1372.83
623.24	1365.27
623.59	1357.90
623.93	1350.38
624.28	1343.03
624.62	1335.47
624.97	1328.28
625.32	1321.59
625.66	1314.60
626.01	1307.27
626.35	1299.78
626.70	1292.15
627.04	1284.24
627.39	1276.62
627.73	1269.17
628.08	1262.30
628.43	1254.88
628.77	1247.47
629.12	1239.91
629.46	1232.75
629.81	1225.54
630.15	1218.39
630.50	1210.93
630.84	1202.78
631.19	1194.89
631.53	1187.42
631.88	1179.92
632.22	1172.38
632.57	1165.05
632.91	1157.55
633.26	1150.21
633.60	1142.93
633.95	1135.85
634.29	1129.00
634.64	1122.19
634.98	1114.89
635.32	1107.75
635.67	1101.32
636.01	1094.78
636.36	1088.01
636.70	1081.54
637.05	1074.88
637.39	1068.44
637.73	1061.95
638.08	1056.13
638.42	1050.15
638.77	1043.73
639.11	1037.04
639.45	1030.69
639.80	1024.04
640.14	1017.56
640.49	1011.08
640.83	1004.77
641.17	998.53
641.52	992.25
641.86	985.90
642.20	980.06
642.55	973.72
642.89	967.20
643.23	960.68
643.58	954.85
643.92	948.58
644.26	942.44
644.61	936.45
644.95	930.34
645.29	923.70
645.64	916.95
645.98	910.61
646.32	904.86
646.66	898.78
647.01	892.99
647.35	887.36
647.69	881.60
648.04	876.09
648.38	870.30
648.72	864.23
649.06	858.06
649.41	852.18
649.75	846.14
650.09	840.17
650.43	834.44
650.78	828.37
651.12	822.43
651.46	816.77
651.80	810.98
652.14	805.66
652.49	800.26
652.83	795.10
653.17	789.43
653.51	783.73
653.85	778.37
654.20	772.72
654.54	766.71
654.88	760.94
655.22	755.13
655.56	749.47
655.90	744.01
656.25	738.87
656.59	733.55
656.93	728.56
657.27	723.40
657.61	717.89
657.95	712.78
658.29	707.70
658.64	702.46
658.98	697.23
659.32	691.80
659.66	686.58
660.00	681.29
660.34	676.36
660.68	671.48
661.02	666.36
661.36	661.63
661.70	657.16
662.05	652.80
662.39	648.39
662.73	643.93
663.07	639.60
663.41	635.15
663.75	630.63
664.09	626.08
664.43	621.72
664.77	617.68
665.11	613.44
665.45	609.36
665.79	605.35
666.13	601.19
666.47	597.11
666.81	592.98
667.15	588.86
667.49	584.96
667.83	581.14
668.17	577.30
668.51	573.26
668.85	569.26
669.19	565.49
669.53	561.74
669.87	557.85
670.21	554.17
670.55	550.55
670.89	547.15
671.23	543.77
671.57	540.29
671.91	536.75
672.25	533.22
672.58	529.75
672.92	526.38
673.26	523.26
673.60	520.11
673.94	517.02
674.28	514.22
674.62	511.30
674.96	508.23
675.30	505.31
675.64	502.38
675.97	499.61
676.31	496.70
676.65	493.73
676.99	491.05
677.33	488.20
677.67	485.35
678.01	482.31
678.34	479.29
678.68	476.39
679.02	473.56
679.36	470.88
679.70	468.15
680.04	465.30
680.37	462.45
680.71	459.70
681.05	457.10
681.39	454.34
681.73	451.70
682.06	449.17
682.40	446.70
682.74	444.20
683.08	441.67
683.42	439.11
683.75	436.68
684.09	434.15
684.43	431.67
684.77	429.25
685.10	426.98
685.44	424.71
685.78	422.47
686.12	420.26
686.45	417.98
686.79	415.72
687.13	413.61
687.46	411.44
687.80	409.32
688.14	407.12
688.48	405.08
688.81	402.81
689.15	400.66
689.49	398.45
689.82	396.39
690.16	394.34
690.50	392.39
690.83	390.40
691.17	388.44
691.51	386.56
691.84	384.73
692.18	382.77
692.52	380.82
692.85	378.92
693.19	377.03
693.52	375.23
693.86	373.45
694.20	371.67
694.53	369.90
694.87	368.08
695.21	366.29
695.54	364.48
695.88	362.78
696.21	361.10
696.55	359.47
696.88	357.80
697.22	356.13
697.56	354.54
697.89	352.90
698.23	351.29
698.56	349.66
698.90	348.07
699.23	346.43
699.57	344.90
699.90	343.36
700.24	341.82
700.58	340.26
700.91	338.73
701.25	337.25
701.58	335.87
701.92	334.48
702.25	333.08
702.59	331.70
702.92	330.42
703.26	329.08
703.59	327.76
703.93	326.58
704.26	325.34
704.60	324.05
704.93	322.83
705.26	321.58
705.60	320.44
705.93	319.30
706.27	318.25
706.60	317.21
706.94	316.13
707.27	315.02
707.61	313.96
707.94	312.94
708.27	311.91
708.61	310.84
708.94	309.84
709.28	308.90
709.61	307.95
709.94	306.97
710.28	305.93
710.61	304.96
710.95	303.90
711.28	303.02
711.61	302.05
711.95	301.09
712.28	300.11
712.61	299.17
712.95	298.20
713.28	297.33
713.61	296.38
713.95	295.49
714.28	294.64
714.61	293.76
714.95	292.92
715.28	292.03
715.61	291.14
715.95	290.28
716.28	289.42
716.61	288.60
716.95	287.84
717.28	287.15
717.61	286.43
717.94	285.67
718.28	284.84
718.61	284.13
718.94	283.44
719.27	282.83
719.61	282.18
719.94	281.52
720.27	280.81
720.60	280.16
720.94	279.51
721.27	278.97
721.60	278.43
721.93	277.81
722.27	277.30
722.60	276.76
722.93	276.19
723.26	275.66
723.59	275.11
723.93	274.55
724.26	273.99
724.59	273.43
724.92	272.92
725.25	272.45
725.59	271.92
725.92	271.45
726.25	270.92
726.58	270.43
726.91	269.93
727.24	269.48
727.57	269.05
727.91	268.58
728.24	268.08
728.57	267.58
728.90	267.17
729.23	266.66
729.56	266.25
729.89	265.79
730.22	265.31
730.55	264.87
730.89	264.43
731.22	264.00
731.55	263.54
731.88	263.12
732.21	262.67
732.54	262.25
732.87	261.84
733.20	261.46
733.53	261.04
733.86	260.68
734.19	260.26
734.52	259.86
734.85	259.54
735.18	259.14
735.51	258.78
735.84	258.36
736.17	258.02
736.50	257.60
736.83	257.36
737.16	257.01
737.49	256.65
737.82	256.27
738.15	255.93
738.48	255.59
738.81	255.25
739.14	254.97
739.47	254.63
739.80	254.31
740.13	254.01
740.46	253.68
740.79	253.34
741.12	253.04
741.45	252.73
741.78	252.38
742.11	252.08
742.44	251.76
742.77	251.48
743.10	251.16
743.43	250.86
743.75	250.51
744.08	250.35
744.41	250.07
744.74	249.81
745.07	249.54
745.40	249.26
745.73	249.05
746.06	248.72
746.39	248.47
746.71	248.18
747.04	247.88
747.37	247.60
747.70	247.34
748.03	247.08
748.36	246.84
748.68	246.57
749.01	246.31
749.34	246.11
749.67	245.90
750.00	245.68
750.33	245.52
750.65	245.27
750.98	244.94
751.31	244.71
751.64	244.50
751.97	244.31
752.29	244.14
752.62	243.85
752.95	243.61
753.28	243.42
753.60	243.25
753.93	243.09
754.26	242.88
754.59	242.71
754.91	242.51
755.24	242.30
755.57	242.13
755.90	241.96
756.22	241.71
756.55	241.47
756.88	241.25
757.20	241.01
757.53	240.82
757.86	240.63
758.19	240.46
758.51	240.30
758.84	240.10
759.17	239.94
759.49	239.79
759.82	239.70
760.15	239.53
760.47	239.32
760.80	239.10
761.13	238.97
761.45	238.80
761.78	238.66
762.11	238.52
762.43	238.38
762.76	238.25
763.08	238.15
763.41	238.05
763.74	237.94
764.06	237.83
764.39	237.72
764.71	237.63
765.04	237.50
765.37	237.33
765.69	237.17
766.02	237.03
766.34	236.95
766.67	236.80
767.00	236.70
767.32	236.64
767.65	236.62
767.97	236.55
768.30	236.45
768.62	236.35
768.95	236.23
769.27	236.15
769.60	236.05
769.92	235.96
770.25	235.85
770.57	235.78
770.90	235.67
771.22	235.56
771.55	235.45
771.87	235.39
772.20	235.35
772.52	235.37
772.85	235.38
773.17	235.30
773.50	235.22
773.82	235.14
774.15	235.02
774.47	234.87
774.80	234.80
775.12	234.71
775.45	234.65
775.77	234.59
776.09	234.49
776.42	234.43
776.74	234.36
777.07	234.26
777.39	234.19
777.72	234.11
778.04	234.06
778.36	233.99
778.69	233.89
779.01	233.83
779.33	233.70
779.66	233.55
779.98	233.47
780.31	233.42
780.63	233.36
780.95	233.34
781.28	233.28
781.60	233.18
781.92	233.11
782.25	233.00
782.57	232.94
782.89	232.90
783.22	232.82
783.54	232.75
783.86	232.75
784.19	232.67
784.51	232.63
784.83	232.54
785.16	232.47
785.48	232.45
785.80	232.39
786.12	232.32
786.45	232.26
786.77	232.24
787.09	232.17
