SpectraSuite Data File
++++++++++++++++++++++++++++++++++++
Date: Fri Feb 01 15:39:56 EST 2013
User: group
Dark Spectrum Present: No
Reference Spectrum Present: No
Number of Sampled Component Spectra: 1
Spectrometers: USB2E7196
Integration Time (usec): 35000 (USB2E7196)
Spectra Averaged: 100 (USB2E7196)
Boxcar Smoothing: 10 (USB2E7196)
Correct for Electrical Dark: No (USB2E7196)
Strobe/Lamp Enabled: No (USB2E7196)
Correct for Detector Non-linearity: No (USB2E7196)
Correct for Stray Light: No (USB2E7196)
Number of Pixels in Processed Spectrum: 2048
>>>>>Begin Processed Spectral Data<<<<<
339.09	0.00
339.48	215.02
339.86	216.76
340.24	218.25
340.63	219.30
341.01	221.85
341.39	222.31
341.78	223.29
342.16	224.68
342.54	224.33
342.93	213.46
343.31	224.25
343.69	224.80
344.07	225.25
344.46	225.68
344.84	226.08
345.22	226.36
345.60	226.61
345.99	226.81
346.37	226.92
346.75	227.05
347.13	227.05
347.52	227.11
347.90	227.19
348.28	227.19
348.66	227.22
349.05	227.21
349.43	227.25
349.81	227.32
350.19	227.32
350.57	227.39
350.96	227.46
351.34	227.55
351.72	227.62
352.10	227.72
352.48	227.79
352.87	227.80
353.25	227.85
353.63	227.89
354.01	227.94
354.39	228.04
354.77	228.13
355.15	228.23
355.54	228.28
355.92	228.31
356.30	228.40
356.68	228.55
357.06	228.63
357.44	228.69
357.82	228.72
358.20	228.81
358.58	228.83
358.97	228.89
359.35	228.94
359.73	229.03
360.11	229.06
360.49	229.08
360.87	229.15
361.25	229.19
361.63	229.29
362.01	229.33
362.39	229.34
362.77	229.36
363.15	229.37
363.53	229.37
363.91	229.42
364.29	229.45
364.67	229.38
365.05	229.42
365.43	229.45
365.81	229.48
366.19	229.50
366.57	229.52
366.95	229.52
367.33	229.48
367.71	229.42
368.09	229.43
368.47	229.43
368.85	229.42
369.23	229.39
369.61	229.28
369.99	229.28
370.37	229.26
370.75	229.26
371.13	229.20
371.51	229.14
371.89	229.07
372.27	228.97
372.65	228.90
373.03	228.84
373.41	228.74
373.78	228.70
374.16	228.61
374.54	228.53
374.92	228.44
375.30	228.37
375.68	228.25
376.06	228.18
376.44	228.10
376.82	228.00
377.19	227.95
377.57	227.88
377.95	227.77
378.33	227.70
378.71	227.56
379.09	227.53
379.47	227.49
379.84	227.42
380.22	227.35
380.60	227.27
380.98	227.18
381.36	227.11
381.73	226.99
382.11	226.96
382.49	226.89
382.87	226.84
383.25	226.78
383.62	226.86
384.00	226.81
384.38	226.76
384.76	226.74
385.13	226.69
385.51	226.66
385.89	226.61
386.27	226.57
386.64	226.55
387.02	226.48
387.40	226.41
387.78	226.40
388.15	226.37
388.53	226.35
388.91	226.35
389.29	226.30
389.66	226.30
390.04	226.23
390.42	226.23
390.79	226.23
391.17	226.24
391.55	226.11
391.92	226.10
392.30	226.10
392.68	226.05
393.05	226.06
393.43	226.07
393.81	226.09
394.18	226.07
394.56	226.06
394.94	226.11
395.31	226.15
395.69	226.17
396.06	226.26
396.44	226.29
396.82	226.29
397.19	226.40
397.57	226.45
397.95	226.55
398.32	226.61
398.70	226.67
399.07	226.79
399.45	226.87
399.82	226.97
400.20	227.02
400.58	227.16
400.95	227.24
401.33	227.34
401.70	227.47
402.08	227.63
402.45	227.75
402.83	227.91
403.20	228.00
403.58	228.11
403.95	228.22
404.33	228.36
404.71	228.52
405.08	228.70
405.46	228.86
405.83	229.01
406.21	229.13
406.58	229.29
406.96	229.43
407.33	229.60
407.70	229.81
408.08	230.09
408.45	230.29
408.83	230.50
409.20	230.75
409.58	230.95
409.95	231.21
410.33	231.47
410.70	231.71
411.08	232.04
411.45	232.36
411.82	232.67
412.20	233.02
412.57	233.42
412.95	233.73
413.32	234.12
413.69	234.55
414.07	235.00
414.44	235.45
414.82	235.92
415.19	236.49
415.56	237.04
415.94	237.58
416.31	238.21
416.68	238.87
417.06	239.55
417.43	240.22
417.81	240.96
418.18	241.76
418.55	242.58
418.93	243.45
419.30	244.29
419.67	245.24
420.04	246.18
420.42	247.15
420.79	248.32
421.16	249.47
421.54	250.65
421.91	251.88
422.28	253.15
422.66	254.50
423.03	255.76
423.40	257.05
423.77	258.49
424.15	259.89
424.52	261.34
424.89	262.94
425.26	264.51
425.64	265.93
426.01	267.51
426.38	269.16
426.75	270.82
427.13	272.57
427.50	274.35
427.87	276.23
428.24	278.09
428.61	279.81
428.99	281.74
429.36	283.83
429.73	285.87
430.10	287.89
430.47	289.95
430.85	292.11
431.22	294.35
431.59	296.67
431.96	298.91
432.33	301.37
432.70	303.75
433.08	306.60
433.45	309.26
433.82	311.86
434.19	314.79
434.56	317.61
434.93	320.30
435.30	322.96
435.68	325.85
436.05	328.69
436.42	331.53
436.79	334.06
437.16	336.74
437.53	339.57
437.90	342.37
438.27	345.07
438.64	347.90
439.01	350.50
439.38	352.79
439.75	354.95
440.13	357.46
440.50	359.79
440.87	361.59
441.24	363.52
441.61	365.65
441.98	367.09
442.35	368.88
442.72	370.75
443.09	372.54
443.46	373.58
443.83	374.20
444.20	374.70
444.57	375.58
444.94	375.89
445.31	376.22
445.68	376.62
446.05	376.73
446.42	376.30
446.79	375.87
447.16	375.43
447.53	375.16
447.90	373.99
448.27	372.85
448.64	371.25
449.01	370.13
449.37	368.20
449.74	366.34
450.11	364.14
450.48	361.64
450.85	359.06
451.22	356.90
451.59	354.84
451.96	352.86
452.33	350.26
452.70	347.89
453.07	345.09
453.43	342.16
453.80	339.40
454.17	336.78
454.54	334.27
454.91	331.56
455.28	328.87
455.65	326.44
456.02	324.00
456.38	321.87
456.75	319.19
457.12	316.92
457.49	314.70
457.86	312.53
458.23	310.69
458.59	308.67
458.96	306.59
459.33	304.79
459.70	302.95
460.07	301.41
460.43	299.72
460.80	298.11
461.17	296.67
461.54	295.18
461.91	293.81
462.27	292.33
462.64	291.06
463.01	289.67
463.38	288.33
463.74	286.96
464.11	285.78
464.48	284.77
464.85	283.66
465.21	282.78
465.58	281.81
465.95	280.69
466.32	279.79
466.68	278.84
467.05	277.89
467.42	276.97
467.78	276.04
468.15	275.15
468.52	274.46
468.88	273.57
469.25	272.79
469.62	272.07
469.98	271.38
470.35	270.72
470.72	270.15
471.08	269.54
471.45	268.97
471.82	268.43
472.18	267.86
472.55	267.41
472.92	266.88
473.28	266.47
473.65	266.00
474.02	265.54
474.38	265.20
474.75	264.86
475.11	264.53
475.48	264.22
475.85	263.96
476.21	263.72
476.58	263.57
476.94	263.44
477.31	263.30
477.67	263.13
478.04	263.02
478.41	262.91
478.77	262.91
479.14	262.85
479.50	262.85
479.87	262.90
480.23	262.97
480.60	263.03
480.96	263.11
481.33	263.33
481.69	263.56
482.06	263.74
482.42	263.95
482.79	264.19
483.15	264.54
483.52	264.95
483.88	265.29
484.25	265.67
484.61	266.02
484.98	266.47
485.34	267.00
485.71	267.63
486.07	268.26
486.44	268.85
486.80	269.56
487.17	270.27
487.53	271.07
487.90	271.91
488.26	272.83
488.62	273.80
488.99	274.78
489.35	275.77
489.72	276.89
490.08	278.09
490.44	279.35
490.81	280.71
491.17	282.04
491.54	283.51
491.90	285.04
492.26	286.71
492.63	288.46
492.99	290.31
493.36	292.15
493.72	294.19
494.08	296.25
494.45	298.52
494.81	300.90
495.17	303.34
495.54	305.96
495.90	308.64
496.26	311.52
496.63	314.51
496.99	317.67
497.35	320.98
497.72	324.44
498.08	327.94
498.44	331.56
498.80	335.47
499.17	339.54
499.53	343.74
499.89	348.16
500.26	352.68
500.62	357.34
500.98	362.32
501.34	367.39
501.71	372.73
502.07	378.16
502.43	383.75
502.79	389.59
503.16	395.60
503.52	401.90
503.88	408.24
504.24	414.87
504.60	421.80
504.97	428.88
505.33	436.16
505.69	443.92
506.05	451.64
506.41	459.52
506.78	467.70
507.14	476.15
507.50	484.85
507.86	493.85
508.22	503.08
508.59	512.31
508.95	521.90
509.31	531.78
509.67	541.88
510.03	552.26
510.39	562.80
510.75	573.62
511.12	584.58
511.48	595.92
511.84	607.32
512.20	618.81
512.56	630.80
512.92	643.01
513.28	655.29
513.64	667.93
514.00	680.69
514.37	693.61
514.73	706.64
515.09	719.66
515.45	733.00
515.81	746.60
516.17	760.63
516.53	774.73
516.89	788.83
517.25	803.04
517.61	817.44
517.97	831.99
518.33	846.50
518.69	861.29
519.05	876.27
519.41	891.45
519.77	906.97
520.13	922.33
520.49	937.74
520.85	953.21
521.21	968.89
521.57	985.09
521.93	1000.89
522.29	1017.36
522.65	1033.71
523.01	1049.94
523.37	1065.96
523.73	1082.14
524.09	1098.23
524.45	1114.58
524.81	1131.11
525.17	1148.00
525.53	1164.87
525.89	1181.73
526.25	1198.63
526.61	1214.93
526.97	1231.67
527.33	1248.09
527.68	1264.72
528.04	1281.26
528.40	1297.89
528.76	1314.88
529.12	1331.52
529.48	1348.48
529.84	1364.52
530.20	1381.06
530.56	1398.04
530.91	1415.43
531.27	1432.22
531.63	1448.80
531.99	1465.51
532.35	1481.62
532.71	1497.51
533.07	1513.77
533.42	1529.75
533.78	1545.66
534.14	1562.10
534.50	1577.47
534.86	1593.46
535.21	1608.65
535.57	1624.57
535.93	1640.10
536.29	1654.97
536.65	1670.04
537.00	1684.71
537.36	1699.92
537.72	1714.53
538.08	1728.98
538.44	1742.86
538.79	1756.63
539.15	1770.20
539.51	1783.76
539.87	1798.13
540.22	1811.82
540.58	1825.60
540.94	1838.97
541.29	1851.97
541.65	1864.65
542.01	1877.98
542.37	1890.24
542.72	1902.78
543.08	1914.54
543.44	1927.04
543.79	1938.35
544.15	1949.28
544.51	1960.89
544.87	1971.97
545.22	1982.80
545.58	1993.00
545.94	2002.71
546.29	2012.71
546.65	2022.54
547.01	2031.87
547.36	2040.55
547.72	2049.11
548.07	2056.98
548.43	2065.11
548.79	2073.21
549.14	2080.71
549.50	2088.01
549.86	2095.82
550.21	2103.06
550.57	2110.25
550.92	2116.61
551.28	2123.63
551.64	2130.78
551.99	2137.27
552.35	2143.27
552.70	2149.48
553.06	2155.46
553.41	2161.78
553.77	2167.86
554.13	2174.09
554.48	2180.30
554.84	2185.75
555.19	2191.04
555.55	2196.10
555.90	2200.52
556.26	2205.31
556.61	2210.12
556.97	2214.26
557.32	2218.38
557.68	2222.47
558.03	2226.75
558.39	2230.48
558.74	2235.09
559.10	2238.86
559.45	2242.61
559.81	2247.04
560.16	2250.82
560.52	2254.06
560.87	2257.55
561.23	2260.15
561.58	2263.18
561.94	2265.60
562.29	2268.10
562.64	2270.60
563.00	2273.25
563.35	2276.79
563.71	2279.97
564.06	2283.15
564.42	2286.15
564.77	2288.57
565.12	2290.86
565.48	2292.74
565.83	2294.62
566.19	2295.88
566.54	2296.79
566.89	2297.79
567.25	2298.26
567.60	2299.54
567.96	2301.18
568.31	2301.84
568.66	2302.94
569.02	2303.32
569.37	2303.62
569.72	2304.30
570.08	2304.60
570.43	2304.68
570.78	2303.95
571.14	2302.31
571.49	2300.95
571.84	2300.53
572.20	2299.36
572.55	2298.40
572.90	2296.83
573.26	2295.45
573.61	2293.70
573.96	2292.04
574.31	2288.97
574.67	2286.08
575.02	2282.40
575.37	2279.02
575.72	2275.23
576.08	2271.74
576.43	2268.54
576.78	2264.90
577.13	2261.69
577.49	2258.53
577.84	2254.91
578.19	2251.17
578.54	2247.58
578.90	2243.32
579.25	2237.83
579.60	2232.77
579.95	2227.71
580.30	2222.72
580.66	2217.59
581.01	2212.63
581.36	2207.65
581.71	2203.57
582.06	2199.02
582.42	2194.34
582.77	2188.99
583.12	2184.54
583.47	2179.96
583.82	2174.68
584.17	2169.29
584.53	2163.83
584.88	2158.19
585.23	2152.36
585.58	2146.86
585.93	2141.22
586.28	2136.38
586.63	2131.21
586.98	2126.13
587.34	2121.29
587.69	2116.23
588.04	2110.90
588.39	2105.34
588.74	2098.88
589.09	2092.73
589.44	2085.90
589.79	2080.08
590.14	2074.61
590.49	2067.96
590.84	2061.53
591.19	2055.66
591.54	2049.27
591.89	2041.71
592.25	2034.91
592.60	2027.66
592.95	2020.11
593.30	2012.82
593.65	2005.19
594.00	1998.10
594.35	1990.90
594.70	1982.88
595.05	1975.57
595.40	1968.16
595.75	1960.44
596.10	1954.00
596.45	1947.18
596.80	1941.03
597.15	1934.32
597.50	1927.12
597.85	1920.71
598.19	1913.91
598.54	1906.58
598.89	1899.98
599.24	1894.20
599.59	1887.30
599.94	1881.16
600.29	1874.84
600.64	1868.19
600.99	1860.75
601.34	1853.88
601.69	1846.97
602.04	1840.11
602.39	1832.88
602.74	1826.08
603.08	1819.31
603.43	1812.67
603.78	1805.41
604.13	1798.11
604.48	1790.63
604.83	1783.70
605.18	1776.58
605.53	1768.50
605.87	1760.59
606.22	1753.32
606.57	1745.25
606.92	1737.99
607.27	1730.74
607.62	1723.77
607.96	1716.52
608.31	1709.82
608.66	1702.13
609.01	1694.47
609.36	1686.85
609.70	1678.79
610.05	1670.70
610.40	1663.07
610.75	1654.64
611.10	1646.84
611.44	1638.44
611.79	1630.60
612.14	1621.91
612.49	1612.83
612.83	1604.56
613.18	1596.45
613.53	1588.26
613.88	1579.78
614.22	1571.55
614.57	1562.90
614.92	1554.80
615.27	1547.19
615.61	1538.83
615.96	1530.85
616.31	1523.26
616.65	1515.85
617.00	1508.21
617.35	1500.59
617.70	1492.18
618.04	1483.77
618.39	1475.64
618.74	1468.00
619.08	1459.67
619.43	1452.13
619.78	1445.15
620.12	1437.89
620.47	1430.34
620.82	1422.14
621.16	1414.75
621.51	1407.07
621.85	1399.54
622.20	1391.00
622.55	1382.66
622.89	1374.79
623.24	1367.19
623.59	1359.83
623.93	1352.32
624.28	1345.10
624.62	1337.53
624.97	1330.50
625.32	1323.79
625.66	1316.74
626.01	1309.65
626.35	1302.20
626.70	1294.43
627.04	1286.72
627.39	1279.07
627.73	1271.82
628.08	1264.96
628.43	1257.57
628.77	1250.17
629.12	1242.62
629.46	1235.56
629.81	1228.18
630.15	1221.03
630.50	1213.61
630.84	1205.41
631.19	1197.57
631.53	1190.21
631.88	1182.69
632.22	1175.03
632.57	1167.73
632.91	1160.15
633.26	1152.70
633.60	1145.41
633.95	1138.34
634.29	1131.33
634.64	1124.60
634.98	1117.10
635.32	1109.90
635.67	1103.45
636.01	1096.93
636.36	1090.09
636.70	1083.53
637.05	1076.91
637.39	1070.46
637.73	1063.96
638.08	1058.15
638.42	1052.12
638.77	1045.58
639.11	1038.97
639.45	1032.57
639.80	1025.89
640.14	1019.47
640.49	1012.90
640.83	1006.62
641.17	1000.36
641.52	994.03
641.86	987.56
642.20	981.73
642.55	975.55
642.89	969.00
643.23	962.48
643.58	956.67
643.92	950.51
644.26	944.51
644.61	938.56
644.95	932.51
645.29	925.78
645.64	919.02
645.98	912.68
646.32	906.85
646.66	900.78
647.01	894.94
647.35	889.30
647.69	883.53
648.04	877.90
648.38	872.11
648.72	866.07
649.06	859.94
649.41	854.04
649.75	848.02
650.09	842.06
650.43	836.20
650.78	830.05
651.12	824.06
651.46	818.30
651.80	812.43
652.14	807.06
652.49	801.74
652.83	796.58
653.17	790.85
653.51	785.09
653.85	779.72
654.20	774.06
654.54	768.00
654.88	762.22
655.22	756.37
655.56	750.65
655.90	745.27
656.25	740.03
656.59	734.68
656.93	729.65
657.27	724.44
657.61	719.00
657.95	713.90
658.29	708.78
658.64	703.51
658.98	698.20
659.32	692.69
659.66	687.45
660.00	682.12
660.34	677.22
660.68	672.34
661.02	667.26
661.36	662.56
661.70	658.05
662.05	653.70
662.39	649.34
662.73	644.90
663.07	640.49
663.41	636.06
663.75	631.58
664.09	626.95
664.43	622.57
664.77	618.43
665.11	614.25
665.45	610.17
665.79	606.08
666.13	601.99
666.47	597.96
666.81	593.82
667.15	589.75
667.49	585.82
667.83	582.03
668.17	578.15
668.51	574.11
668.85	570.09
669.19	566.29
669.53	562.49
669.87	558.66
670.21	554.98
670.55	551.36
670.89	547.90
671.23	544.50
671.57	541.03
671.91	537.52
672.25	534.02
672.58	530.53
672.92	527.17
673.26	524.00
673.60	520.86
673.94	517.78
674.28	514.91
674.62	511.97
674.96	508.90
675.30	506.00
675.64	503.07
675.97	500.37
676.31	497.44
676.65	494.47
676.99	491.74
677.33	488.92
677.67	486.13
678.01	483.13
678.34	480.16
678.68	477.31
679.02	474.51
679.36	471.77
679.70	469.08
680.04	466.35
680.37	463.46
680.71	460.66
681.05	458.06
681.39	455.33
681.73	452.76
682.06	450.18
682.40	447.60
682.74	445.07
683.08	442.49
683.42	439.97
683.75	437.54
684.09	434.98
684.43	432.49
684.77	430.05
685.10	427.70
685.44	425.34
685.78	423.08
686.12	420.86
686.45	418.56
686.79	416.24
687.13	413.99
687.46	411.85
687.80	409.72
688.14	407.50
688.48	405.43
688.81	403.14
689.15	401.02
689.49	398.94
689.82	396.88
690.16	394.76
690.50	392.82
690.83	390.89
691.17	388.92
691.51	387.01
691.84	385.17
692.18	383.22
692.52	381.27
692.85	379.33
693.19	377.40
693.52	375.57
693.86	373.73
694.20	371.97
694.53	370.15
694.87	368.26
695.21	366.47
695.54	364.64
695.88	362.95
696.21	361.22
696.55	359.48
696.88	357.75
697.22	356.14
697.56	354.45
697.89	352.73
698.23	351.12
698.56	349.47
698.90	347.82
699.23	346.19
699.57	344.61
699.90	343.00
700.24	341.47
700.58	339.87
700.91	338.39
701.25	336.91
701.58	335.58
701.92	334.26
702.25	332.85
702.59	331.46
702.92	330.06
703.26	328.76
703.59	327.48
703.93	326.28
704.26	325.03
704.60	323.72
704.93	322.47
705.26	321.27
705.60	320.12
705.93	318.97
706.27	317.91
706.60	316.86
706.94	315.79
707.27	314.68
707.61	313.67
707.94	312.65
708.27	311.55
708.61	310.41
708.94	309.38
709.28	308.44
709.61	307.51
709.94	306.54
710.28	305.53
710.61	304.60
710.95	303.53
711.28	302.63
711.61	301.76
711.95	300.87
712.28	299.86
712.61	298.86
712.95	297.91
713.28	297.06
713.61	296.18
713.95	295.32
714.28	294.46
714.61	293.64
714.95	292.80
715.28	291.98
715.61	291.15
715.95	290.32
716.28	289.44
716.61	288.62
716.95	287.84
717.28	287.12
717.61	286.36
717.94	285.63
718.28	284.82
718.61	284.10
718.94	283.41
719.27	282.77
719.61	282.13
719.94	281.51
720.27	280.82
720.60	280.15
720.94	279.54
721.27	278.94
721.60	278.34
721.93	277.77
722.27	277.23
722.60	276.64
722.93	276.09
723.26	275.56
723.59	275.01
723.93	274.53
724.26	273.99
724.59	273.44
724.92	272.96
725.25	272.49
725.59	271.96
725.92	271.44
726.25	270.93
726.58	270.48
726.91	269.97
727.24	269.51
727.57	269.01
727.91	268.49
728.24	268.05
728.57	267.56
728.90	267.08
729.23	266.58
729.56	266.16
729.89	265.70
730.22	265.22
730.55	264.74
730.89	264.25
731.22	263.79
731.55	263.35
731.88	262.90
732.21	262.43
732.54	262.00
732.87	261.54
733.20	261.14
733.53	260.73
733.86	260.35
734.19	259.93
734.52	259.57
734.85	259.29
735.18	258.87
735.51	258.53
735.84	258.15
736.17	257.83
736.50	257.44
736.83	257.18
737.16	256.84
737.49	256.47
737.82	256.12
738.15	255.77
738.48	255.41
738.81	255.07
739.14	254.76
739.47	254.43
739.80	254.15
740.13	253.83
740.46	253.49
740.79	253.15
741.12	252.86
741.45	252.54
741.78	252.16
742.11	251.85
742.44	251.51
742.77	251.21
743.10	250.87
743.43	250.60
743.75	250.19
744.08	250.05
744.41	249.78
744.74	249.47
745.07	249.17
745.40	248.95
745.73	248.70
746.06	248.39
746.39	248.13
746.71	247.82
747.04	247.54
747.37	247.25
747.70	246.98
748.03	246.70
748.36	246.49
748.68	246.26
749.01	246.04
749.34	245.80
749.67	245.59
750.00	245.35
750.33	245.19
750.65	244.98
750.98	244.64
751.31	244.40
751.64	244.21
751.97	244.06
752.29	243.83
752.62	243.61
752.95	243.42
753.28	243.22
753.60	243.06
753.93	242.91
754.26	242.78
754.59	242.56
754.91	242.34
755.24	242.11
755.57	241.93
755.90	241.74
756.22	241.55
756.55	241.34
756.88	241.16
757.20	240.88
757.53	240.70
757.86	240.54
758.19	240.41
758.51	240.25
758.84	240.06
759.17	239.90
759.49	239.74
759.82	239.64
760.15	239.47
760.47	239.32
760.80	239.15
761.13	239.01
761.45	238.89
761.78	238.79
762.11	238.67
762.43	238.52
762.76	238.37
763.08	238.26
763.41	238.16
763.74	238.02
764.06	237.93
764.39	237.84
764.71	237.72
765.04	237.57
765.37	237.46
765.69	237.30
766.02	237.18
766.34	237.03
766.67	236.87
767.00	236.80
767.32	236.74
767.65	236.67
767.97	236.57
768.30	236.46
768.62	236.35
768.95	236.20
769.27	236.08
769.60	235.99
769.92	235.88
770.25	235.75
770.57	235.64
770.90	235.52
771.22	235.39
771.55	235.25
771.87	235.14
772.20	235.03
772.52	235.04
772.85	235.07
773.17	234.97
773.50	234.85
773.82	234.74
774.15	234.60
774.47	234.46
774.80	234.34
775.12	234.25
775.45	234.15
775.77	234.12
776.09	234.05
776.42	233.95
776.74	233.88
777.07	233.79
777.39	233.73
777.72	233.64
778.04	233.56
778.36	233.51
778.69	233.45
779.01	233.38
779.33	233.24
779.66	233.03
779.98	232.98
780.31	232.93
780.63	232.89
780.95	232.79
781.28	232.74
781.60	232.65
781.92	232.56
782.25	232.52
782.57	232.42
782.89	232.36
783.22	232.27
783.54	232.20
783.86	232.15
784.19	232.08
784.51	232.04
784.83	231.99
785.16	231.91
785.48	231.89
785.80	231.81
786.12	231.75
786.45	231.68
786.77	231.60
787.09	231.54
