SpectraSuite Data File
++++++++++++++++++++++++++++++++++++
Date: Fri Feb 01 15:23:54 EST 2013
User: group
Dark Spectrum Present: No
Reference Spectrum Present: No
Number of Sampled Component Spectra: 1
Spectrometers: USB2E7196
Integration Time (usec): 35000 (USB2E7196)
Spectra Averaged: 100 (USB2E7196)
Boxcar Smoothing: 10 (USB2E7196)
Correct for Electrical Dark: No (USB2E7196)
Strobe/Lamp Enabled: No (USB2E7196)
Correct for Detector Non-linearity: No (USB2E7196)
Correct for Stray Light: No (USB2E7196)
Number of Pixels in Processed Spectrum: 2048
>>>>>Begin Processed Spectral Data<<<<<
339.09	0.00
339.48	215.85
339.86	217.10
340.24	218.95
340.63	219.71
341.01	222.85
341.39	222.22
341.78	223.71
342.16	224.82
342.54	225.27
342.93	213.85
343.31	224.65
343.69	225.19
344.07	225.64
344.46	226.03
344.84	226.40
345.22	226.61
345.60	226.84
345.99	227.02
346.37	227.17
346.75	227.27
347.13	227.32
347.52	227.35
347.90	227.38
348.28	227.45
348.66	227.48
349.05	227.46
349.43	227.49
349.81	227.57
350.19	227.61
350.57	227.63
350.96	227.70
351.34	227.78
351.72	227.81
352.10	227.90
352.48	227.96
352.87	228.01
353.25	228.09
353.63	228.19
354.01	228.24
354.39	228.29
354.77	228.37
355.15	228.46
355.54	228.53
355.92	228.57
356.30	228.61
356.68	228.73
357.06	228.81
357.44	228.85
357.82	228.85
358.20	228.89
358.58	228.97
358.97	229.02
359.35	229.08
359.73	229.14
360.11	229.19
360.49	229.25
360.87	229.28
361.25	229.31
361.63	229.34
362.01	229.39
362.39	229.41
362.77	229.44
363.15	229.42
363.53	229.47
363.91	229.49
364.29	229.54
364.67	229.48
365.05	229.46
365.43	229.50
365.81	229.53
366.19	229.58
366.57	229.61
366.95	229.60
367.33	229.57
367.71	229.56
368.09	229.56
368.47	229.58
368.85	229.55
369.23	229.54
369.61	229.51
369.99	229.52
370.37	229.49
370.75	229.47
371.13	229.46
371.51	229.37
371.89	229.34
372.27	229.27
372.65	229.20
373.03	229.17
373.41	229.13
373.78	229.05
374.16	228.95
374.54	228.87
374.92	228.77
375.30	228.69
375.68	228.60
376.06	228.51
376.44	228.39
376.82	228.30
377.19	228.24
377.57	228.16
377.95	228.00
378.33	227.97
378.71	227.84
379.09	227.78
379.47	227.73
379.84	227.65
380.22	227.57
380.60	227.50
380.98	227.43
381.36	227.33
381.73	227.24
382.11	227.20
382.49	227.12
382.87	227.09
383.25	227.03
383.62	227.12
384.00	227.05
384.38	226.99
384.76	226.96
385.13	226.93
385.51	226.87
385.89	226.84
386.27	226.77
386.64	226.75
387.02	226.69
387.40	226.68
387.78	226.62
388.15	226.61
388.53	226.56
388.91	226.52
389.29	226.46
389.66	226.48
390.04	226.41
390.42	226.42
390.79	226.41
391.17	226.40
391.55	226.29
391.92	226.29
392.30	226.33
392.68	226.35
393.05	226.33
393.43	226.33
393.81	226.38
394.18	226.38
394.56	226.40
394.94	226.43
395.31	226.42
395.69	226.51
396.06	226.55
396.44	226.60
396.82	226.65
397.19	226.77
397.57	226.79
397.95	226.86
398.32	226.88
398.70	226.94
399.07	227.03
399.45	227.05
399.82	227.09
400.20	227.11
400.58	227.18
400.95	227.24
401.33	227.37
401.70	227.50
402.08	227.58
402.45	227.68
402.83	227.83
403.20	227.94
403.58	228.03
403.95	228.17
404.33	228.29
404.71	228.42
405.08	228.63
405.46	228.76
405.83	228.89
406.21	229.02
406.58	229.19
406.96	229.33
407.33	229.57
407.70	229.79
408.08	230.09
408.45	230.31
408.83	230.54
409.20	230.74
409.58	230.93
409.95	231.21
410.33	231.49
410.70	231.70
411.08	232.03
411.45	232.33
411.82	232.61
412.20	232.99
412.57	233.40
412.95	233.68
413.32	234.12
413.69	234.53
414.07	234.97
414.44	235.44
414.82	235.95
415.19	236.47
415.56	237.02
415.94	237.56
416.31	238.21
416.68	238.85
417.06	239.58
417.43	240.25
417.81	241.01
418.18	241.80
418.55	242.68
418.93	243.49
419.30	244.40
419.67	245.33
420.04	246.26
420.42	247.23
420.79	248.40
421.16	249.57
421.54	250.78
421.91	252.00
422.28	253.27
422.66	254.61
423.03	255.90
423.40	257.27
423.77	258.64
424.15	260.06
424.52	261.54
424.89	263.13
425.26	264.71
425.64	266.17
426.01	267.76
426.38	269.38
426.75	271.09
427.13	272.80
427.50	274.61
427.87	276.52
428.24	278.39
428.61	280.11
428.99	282.06
429.36	284.20
429.73	286.31
430.10	288.30
430.47	290.35
430.85	292.44
431.22	294.66
431.59	297.09
431.96	299.34
432.33	301.81
432.70	304.21
433.08	307.02
433.45	309.65
433.82	312.27
434.19	315.23
434.56	318.07
434.93	320.74
435.30	323.39
435.68	326.27
436.05	329.15
436.42	331.95
436.79	334.47
437.16	337.19
437.53	339.99
437.90	342.79
438.27	345.59
438.64	348.47
439.01	351.06
439.38	353.31
439.75	355.48
440.13	357.99
440.50	360.33
440.87	362.18
441.24	364.12
441.61	366.31
441.98	367.78
442.35	369.57
442.72	371.37
443.09	373.17
443.46	374.16
443.83	374.71
444.20	375.26
444.57	376.05
444.94	376.33
445.31	376.64
445.68	377.04
446.05	377.05
446.42	376.68
446.79	376.27
447.16	375.79
447.53	375.47
447.90	374.30
448.27	373.09
448.64	371.48
449.01	370.35
449.37	368.36
449.74	366.43
450.11	364.14
450.48	361.70
450.85	359.17
451.22	357.05
451.59	355.05
451.96	353.08
452.33	350.46
452.70	348.03
453.07	345.24
453.43	342.27
453.80	339.52
454.17	336.81
454.54	334.24
454.91	331.51
455.28	328.84
455.65	326.32
456.02	323.90
456.38	321.77
456.75	319.10
457.12	316.81
457.49	314.61
457.86	312.44
458.23	310.60
458.59	308.55
458.96	306.45
459.33	304.59
459.70	302.71
460.07	301.23
460.43	299.54
460.80	297.88
461.17	296.53
461.54	295.03
461.91	293.61
462.27	292.17
462.64	290.94
463.01	289.57
463.38	288.29
463.74	286.92
464.11	285.76
464.48	284.73
464.85	283.62
465.21	282.76
465.58	281.86
465.95	280.75
466.32	279.85
466.68	278.93
467.05	278.06
467.42	277.18
467.78	276.24
468.15	275.35
468.52	274.68
468.88	273.79
469.25	273.02
469.62	272.38
469.98	271.69
470.35	271.02
470.72	270.39
471.08	269.73
471.45	269.16
471.82	268.62
472.18	268.01
472.55	267.58
472.92	267.06
473.28	266.54
473.65	266.06
474.02	265.61
474.38	265.25
474.75	264.89
475.11	264.55
475.48	264.29
475.85	264.05
476.21	263.85
476.58	263.65
476.94	263.52
477.31	263.36
477.67	263.26
478.04	263.16
478.41	263.12
478.77	263.16
479.14	263.10
479.50	263.10
479.87	263.19
480.23	263.27
480.60	263.33
480.96	263.45
481.33	263.69
481.69	263.89
482.06	264.05
482.42	264.21
482.79	264.45
483.15	264.77
483.52	265.16
483.88	265.50
484.25	265.90
484.61	266.31
484.98	266.75
485.34	267.30
485.71	267.92
486.07	268.54
486.44	269.15
486.80	269.87
487.17	270.61
487.53	271.42
487.90	272.25
488.26	273.17
488.62	274.17
488.99	275.15
489.35	276.21
489.72	277.36
490.08	278.60
490.44	279.88
490.81	281.20
491.17	282.54
491.54	284.01
491.90	285.57
492.26	287.19
492.63	288.92
492.99	290.65
493.36	292.49
493.72	294.53
494.08	296.63
494.45	298.85
494.81	301.23
495.17	303.62
495.54	306.20
495.90	308.88
496.26	311.63
496.63	314.59
496.99	317.66
497.35	320.88
497.72	324.23
498.08	327.72
498.44	331.41
498.80	335.32
499.17	339.31
499.53	343.44
499.89	347.82
500.26	352.32
500.62	357.06
500.98	362.02
501.34	367.04
501.71	372.30
502.07	377.76
502.43	383.31
502.79	389.14
503.16	395.17
503.52	401.47
503.88	407.90
504.24	414.52
504.60	421.40
504.97	428.52
505.33	435.86
505.69	443.57
506.05	451.32
506.41	459.25
506.78	467.46
507.14	475.89
507.50	484.63
507.86	493.67
508.22	502.78
508.59	512.03
508.95	521.59
509.31	531.39
509.67	541.44
510.03	551.77
510.39	562.29
510.75	573.10
511.12	584.05
511.48	595.38
511.84	606.86
512.20	618.40
512.56	630.39
512.92	642.52
513.28	654.82
513.64	667.39
514.00	680.08
514.37	692.93
514.73	706.07
515.09	719.14
515.45	732.44
515.81	746.12
516.17	760.18
516.53	774.40
516.89	788.72
517.25	802.93
517.61	817.39
517.97	832.02
518.33	846.51
518.69	861.26
519.05	876.27
519.41	891.41
519.77	907.03
520.13	922.46
520.49	937.91
520.85	953.44
521.21	969.11
521.57	985.43
521.93	1001.44
522.29	1017.92
522.65	1034.23
523.01	1050.46
523.37	1066.64
523.73	1082.80
524.09	1098.96
524.45	1115.35
524.81	1132.03
525.17	1148.96
525.53	1165.84
525.89	1182.73
526.25	1199.58
526.61	1216.03
526.97	1232.87
527.33	1249.43
527.68	1266.13
528.04	1282.72
528.40	1299.31
528.76	1316.42
529.12	1333.09
529.48	1349.95
529.84	1365.94
530.20	1382.68
530.56	1399.79
530.91	1417.09
531.27	1433.89
531.63	1450.45
531.99	1467.01
532.35	1483.16
532.71	1499.07
533.07	1515.30
533.42	1531.16
533.78	1547.19
534.14	1563.48
534.50	1578.90
534.86	1594.75
535.21	1609.94
535.57	1625.95
535.93	1641.52
536.29	1656.46
536.65	1671.45
537.00	1686.33
537.36	1701.76
537.72	1716.36
538.08	1730.83
538.44	1744.70
538.79	1758.68
539.15	1772.41
539.51	1786.17
539.87	1800.51
540.22	1814.27
540.58	1828.20
540.94	1841.83
541.29	1854.99
541.65	1867.91
542.01	1881.26
542.37	1893.68
542.72	1906.13
543.08	1917.86
543.44	1930.39
543.79	1941.64
544.15	1952.78
544.51	1964.29
544.87	1975.20
545.22	1985.96
545.58	1996.09
545.94	2005.93
546.29	2015.84
546.65	2025.55
547.01	2034.88
547.36	2043.56
547.72	2052.01
548.07	2059.93
548.43	2068.01
548.79	2075.96
549.14	2083.30
549.50	2090.73
549.86	2098.46
550.21	2105.80
550.57	2112.99
550.92	2119.47
551.28	2126.59
551.64	2133.48
551.99	2140.05
552.35	2146.27
552.70	2152.31
553.06	2158.47
553.41	2164.78
553.77	2170.85
554.13	2177.04
554.48	2183.09
554.84	2188.42
555.19	2193.95
555.55	2198.99
555.90	2203.39
556.26	2208.28
556.61	2213.09
556.97	2217.09
557.32	2221.21
557.68	2225.36
558.03	2229.77
558.39	2233.57
558.74	2238.14
559.10	2242.08
559.45	2245.79
559.81	2250.13
560.16	2254.00
560.52	2257.23
560.87	2260.73
561.23	2263.29
561.58	2266.24
561.94	2268.95
562.29	2271.44
562.64	2273.96
563.00	2276.57
563.35	2280.14
563.71	2283.21
564.06	2286.40
564.42	2289.25
564.77	2291.60
565.12	2293.90
565.48	2295.72
565.83	2297.35
566.19	2298.77
566.54	2299.82
566.89	2300.94
567.25	2301.40
567.60	2302.76
567.96	2304.30
568.31	2305.15
568.66	2306.18
569.02	2306.80
569.37	2306.91
569.72	2307.71
570.08	2307.68
570.43	2307.80
570.78	2307.14
571.14	2305.59
571.49	2304.27
571.84	2303.88
572.20	2302.67
572.55	2301.40
572.90	2299.93
573.26	2298.70
573.61	2296.79
573.96	2294.86
574.31	2291.72
574.67	2288.71
575.02	2285.01
575.37	2281.62
575.72	2277.66
576.08	2274.32
576.43	2270.97
576.78	2267.24
577.13	2263.99
577.49	2261.02
577.84	2257.27
578.19	2253.50
578.54	2249.81
578.90	2245.52
579.25	2240.04
579.60	2235.13
579.95	2230.32
580.30	2225.13
580.66	2219.92
581.01	2214.85
581.36	2209.88
581.71	2205.80
582.06	2201.19
582.42	2196.61
582.77	2191.21
583.12	2186.51
583.47	2181.73
583.82	2176.39
584.17	2170.97
584.53	2165.45
584.88	2159.51
585.23	2153.65
585.58	2148.10
585.93	2142.60
586.28	2137.65
586.63	2132.39
586.98	2127.14
587.34	2122.25
587.69	2117.21
588.04	2111.71
588.39	2105.99
588.74	2099.40
589.09	2093.01
589.44	2086.03
589.79	2080.05
590.14	2074.43
590.49	2067.77
590.84	2061.22
591.19	2055.20
591.54	2048.74
591.89	2041.23
592.25	2034.38
592.60	2027.16
592.95	2019.39
593.30	2011.91
593.65	2004.18
594.00	1997.09
594.35	1989.81
594.70	1981.68
595.05	1974.44
595.40	1967.22
595.75	1959.65
596.10	1953.31
596.45	1946.45
596.80	1940.36
597.15	1933.48
597.50	1926.14
597.85	1919.73
598.19	1912.99
598.54	1905.91
598.89	1899.22
599.24	1893.32
599.59	1886.62
599.94	1880.39
600.29	1874.12
600.64	1867.61
600.99	1860.09
601.34	1853.23
601.69	1846.22
602.04	1839.24
602.39	1831.75
602.74	1824.73
603.08	1818.01
603.43	1811.32
603.78	1804.05
604.13	1796.75
604.48	1789.41
604.83	1782.68
605.18	1775.56
605.53	1767.70
605.87	1759.59
606.22	1752.38
606.57	1744.40
606.92	1737.12
607.27	1729.85
607.62	1723.00
607.96	1715.60
608.31	1709.05
608.66	1701.34
609.01	1693.78
609.36	1686.33
609.70	1678.40
610.05	1670.40
610.40	1662.66
610.75	1654.25
611.10	1646.58
611.44	1638.29
611.79	1630.43
612.14	1621.69
612.49	1612.58
612.83	1604.12
613.18	1596.12
613.53	1588.05
613.88	1579.53
614.22	1571.20
614.57	1562.68
614.92	1554.52
615.27	1546.85
615.61	1538.52
615.96	1530.62
616.31	1522.99
616.65	1515.59
617.00	1508.08
617.35	1500.40
617.70	1492.00
618.04	1483.52
618.39	1475.26
618.74	1467.61
619.08	1459.27
619.43	1451.72
619.78	1444.74
620.12	1437.59
620.47	1429.96
620.82	1421.80
621.16	1414.32
621.51	1406.75
621.85	1399.13
622.20	1390.57
622.55	1382.27
622.89	1374.46
623.24	1366.76
623.59	1359.40
623.93	1351.73
624.28	1344.37
624.62	1336.83
624.97	1329.54
625.32	1322.81
625.66	1315.77
626.01	1308.53
626.35	1301.10
626.70	1293.28
627.04	1285.60
627.39	1277.83
627.73	1270.42
628.08	1263.43
628.43	1256.11
628.77	1248.65
629.12	1241.09
629.46	1233.84
629.81	1226.47
630.15	1219.22
630.50	1211.88
630.84	1203.71
631.19	1195.85
631.53	1188.43
631.88	1180.91
632.22	1173.34
632.57	1165.99
632.91	1158.50
633.26	1151.12
633.60	1143.75
633.95	1136.89
634.29	1129.91
634.64	1123.22
634.98	1115.93
635.32	1108.80
635.67	1102.36
636.01	1095.82
636.36	1088.95
636.70	1082.61
637.05	1076.01
637.39	1069.56
637.73	1063.04
638.08	1057.13
638.42	1051.19
638.77	1044.71
639.11	1038.11
639.45	1031.81
639.80	1025.10
640.14	1018.62
640.49	1012.06
640.83	1005.81
641.17	999.50
641.52	993.12
641.86	986.77
642.20	980.81
642.55	974.55
642.89	967.93
643.23	961.37
643.58	955.63
643.92	949.43
644.26	943.29
644.61	937.36
644.95	931.34
645.29	924.68
645.64	917.95
645.98	911.66
646.32	905.81
646.66	899.86
647.01	894.11
647.35	888.48
647.69	882.65
648.04	877.12
648.38	871.29
648.72	865.25
649.06	859.10
649.41	853.29
649.75	847.19
650.09	841.27
650.43	835.46
650.78	829.26
651.12	823.23
651.46	817.58
651.80	811.73
652.14	806.32
652.49	801.03
652.83	795.89
653.17	790.20
653.51	784.49
653.85	779.14
654.20	773.55
654.54	767.55
654.88	761.92
655.22	756.12
655.56	750.37
655.90	744.99
656.25	739.73
656.59	734.36
656.93	729.43
657.27	724.31
657.61	718.92
657.95	713.90
658.29	708.86
658.64	703.60
658.98	698.38
659.32	692.91
659.66	687.75
660.00	682.35
660.34	677.41
660.68	672.53
661.02	667.41
661.36	662.75
661.70	658.30
662.05	653.84
662.39	649.43
662.73	645.01
663.07	640.66
663.41	636.25
663.75	631.76
664.09	627.11
664.43	622.79
664.77	618.66
665.11	614.38
665.45	610.30
665.79	606.28
666.13	602.15
666.47	598.08
666.81	593.86
667.15	589.82
667.49	585.93
667.83	582.14
668.17	578.18
668.51	574.04
668.85	570.04
669.19	566.24
669.53	562.40
669.87	558.58
670.21	554.90
670.55	551.28
670.89	547.88
671.23	544.53
671.57	540.98
671.91	537.42
672.25	534.03
672.58	530.50
672.92	527.14
673.26	523.94
673.60	520.81
673.94	517.73
674.28	514.86
674.62	511.92
674.96	508.80
675.30	505.92
675.64	503.04
675.97	500.28
676.31	497.44
676.65	494.48
676.99	491.70
677.33	488.83
677.67	485.99
678.01	482.96
678.34	479.96
678.68	477.11
679.02	474.36
679.36	471.52
679.70	468.79
680.04	466.02
680.37	463.13
680.71	460.37
681.05	457.75
681.39	454.99
681.73	452.35
682.06	449.82
682.40	447.30
682.74	444.75
683.08	442.16
683.42	439.55
683.75	437.04
684.09	434.50
684.43	432.01
684.77	429.54
685.10	427.21
685.44	424.92
685.78	422.62
686.12	420.38
686.45	418.13
686.79	415.85
687.13	413.68
687.46	411.55
687.80	409.35
688.14	407.21
688.48	405.16
688.81	402.88
689.15	400.71
689.49	398.53
689.82	396.48
690.16	394.38
690.50	392.43
690.83	390.48
691.17	388.55
691.51	386.70
691.84	384.88
692.18	382.93
692.52	380.95
692.85	379.04
693.19	377.16
693.52	375.33
693.86	373.55
694.20	371.74
694.53	369.94
694.87	368.09
695.21	366.27
695.54	364.47
695.88	362.78
696.21	361.10
696.55	359.44
696.88	357.75
697.22	356.14
697.56	354.56
697.89	352.97
698.23	351.35
698.56	349.72
698.90	348.11
699.23	346.45
699.57	344.94
699.90	343.41
700.24	341.84
700.58	340.30
700.91	338.77
701.25	337.34
701.58	336.00
701.92	334.69
702.25	333.32
702.59	331.96
702.92	330.62
703.26	329.34
703.59	328.10
703.93	326.93
704.26	325.69
704.60	324.37
704.93	323.05
705.26	321.79
705.60	320.67
705.93	319.53
706.27	318.52
706.60	317.47
706.94	316.37
707.27	315.26
707.61	314.23
707.94	313.22
708.27	312.10
708.61	310.97
708.94	309.92
709.28	308.94
709.61	307.97
709.94	307.03
710.28	306.00
710.61	305.01
710.95	303.95
711.28	303.03
711.61	302.11
711.95	301.24
712.28	300.30
712.61	299.28
712.95	298.34
713.28	297.45
713.61	296.53
713.95	295.64
714.28	294.78
714.61	293.90
714.95	293.06
715.28	292.19
715.61	291.33
715.95	290.49
716.28	289.64
716.61	288.80
716.95	287.98
717.28	287.20
717.61	286.42
717.94	285.69
718.28	284.87
718.61	284.14
718.94	283.42
719.27	282.75
719.61	282.07
719.94	281.38
720.27	280.64
720.60	279.97
720.94	279.37
721.27	278.77
721.60	278.19
721.93	277.58
722.27	277.07
722.60	276.52
722.93	275.95
723.26	275.40
723.59	274.85
723.93	274.30
724.26	273.79
724.59	273.24
724.92	272.67
725.25	272.16
725.59	271.59
725.92	271.05
726.25	270.54
726.58	270.08
726.91	269.59
727.24	269.14
727.57	268.67
727.91	268.11
728.24	267.64
728.57	267.15
728.90	266.68
729.23	266.20
729.56	265.77
729.89	265.30
730.22	264.78
730.55	264.31
730.89	263.85
731.22	263.40
731.55	262.98
731.88	262.57
732.21	262.16
732.54	261.75
732.87	261.33
733.20	260.98
733.53	260.61
733.86	260.25
734.19	259.84
734.52	259.47
734.85	259.20
735.18	258.78
735.51	258.43
735.84	258.08
736.17	257.72
736.50	257.33
736.83	257.11
737.16	256.83
737.49	256.55
737.82	256.21
738.15	255.86
738.48	255.53
738.81	255.24
739.14	254.91
739.47	254.64
739.80	254.37
740.13	254.06
740.46	253.71
740.79	253.36
741.12	253.09
741.45	252.77
741.78	252.44
742.11	252.19
742.44	251.88
742.77	251.61
743.10	251.32
743.43	251.03
743.75	250.66
744.08	250.52
744.41	250.22
744.74	249.97
745.07	249.70
745.40	249.48
745.73	249.24
746.06	248.98
746.39	248.72
746.71	248.48
747.04	248.20
747.37	247.96
747.70	247.75
748.03	247.50
748.36	247.31
748.68	247.06
749.01	246.79
749.34	246.59
749.67	246.37
750.00	246.14
750.33	245.99
750.65	245.75
750.98	245.41
751.31	245.18
751.64	244.99
751.97	244.86
752.29	244.64
752.62	244.38
752.95	244.17
753.28	243.94
753.60	243.69
753.93	243.51
754.26	243.30
754.59	243.04
754.91	242.81
755.24	242.58
755.57	242.40
755.90	242.21
756.22	241.99
756.55	241.78
756.88	241.58
757.20	241.34
757.53	241.16
757.86	240.96
758.19	240.81
758.51	240.58
758.84	240.34
759.17	240.14
759.49	239.98
759.82	239.84
760.15	239.68
760.47	239.54
760.80	239.34
761.13	239.25
761.45	239.06
761.78	238.96
762.11	238.83
762.43	238.66
762.76	238.53
763.08	238.38
763.41	238.23
763.74	238.07
764.06	237.90
764.39	237.73
764.71	237.57
765.04	237.40
765.37	237.30
765.69	237.13
766.02	237.01
766.34	236.86
766.67	236.70
767.00	236.59
767.32	236.52
767.65	236.48
767.97	236.31
768.30	236.23
768.62	236.06
768.95	235.92
769.27	235.80
769.60	235.68
769.92	235.55
770.25	235.44
770.57	235.36
770.90	235.25
771.22	235.17
771.55	235.08
771.87	235.01
772.20	234.86
772.52	234.91
772.85	234.90
773.17	234.86
773.50	234.77
773.82	234.67
774.15	234.51
774.47	234.32
774.80	234.22
775.12	234.15
775.45	234.06
775.77	234.00
776.09	233.92
776.42	233.86
776.74	233.84
777.07	233.75
777.39	233.67
777.72	233.62
778.04	233.56
778.36	233.53
778.69	233.47
779.01	233.46
779.33	233.29
779.66	233.12
779.98	233.03
780.31	232.99
780.63	232.99
780.95	232.98
781.28	232.94
781.60	232.90
781.92	232.83
782.25	232.80
782.57	232.72
782.89	232.70
783.22	232.64
783.54	232.57
783.86	232.53
784.19	232.49
784.51	232.46
784.83	232.40
785.16	232.34
785.48	232.32
785.80	232.24
786.12	232.21
786.45	232.17
786.77	232.14
787.09	232.06
