SpectraSuite Data File
++++++++++++++++++++++++++++++++++++
Date: Fri Feb 01 15:48:35 EST 2013
User: group
Dark Spectrum Present: No
Reference Spectrum Present: No
Number of Sampled Component Spectra: 1
Spectrometers: USB2E7196
Integration Time (usec): 35000 (USB2E7196)
Spectra Averaged: 100 (USB2E7196)
Boxcar Smoothing: 10 (USB2E7196)
Correct for Electrical Dark: No (USB2E7196)
Strobe/Lamp Enabled: No (USB2E7196)
Correct for Detector Non-linearity: No (USB2E7196)
Correct for Stray Light: No (USB2E7196)
Number of Pixels in Processed Spectrum: 2048
>>>>>Begin Processed Spectral Data<<<<<
339.09	0.00
339.48	214.74
339.86	216.46
340.24	217.30
340.63	219.25
341.01	222.01
341.39	221.97
341.78	223.17
342.16	224.37
342.54	224.56
342.93	213.22
343.31	223.99
343.69	224.54
344.07	225.02
344.46	225.47
344.84	225.86
345.22	226.10
345.60	226.33
345.99	226.53
346.37	226.65
346.75	226.79
347.13	226.88
347.52	226.94
347.90	226.99
348.28	227.00
348.66	227.02
349.05	227.04
349.43	227.09
349.81	227.12
350.19	227.14
350.57	227.18
350.96	227.26
351.34	227.35
351.72	227.42
352.10	227.52
352.48	227.62
352.87	227.64
353.25	227.69
353.63	227.77
354.01	227.84
354.39	227.90
354.77	227.97
355.15	228.01
355.54	228.11
355.92	228.13
356.30	228.23
356.68	228.41
357.06	228.43
357.44	228.48
357.82	228.53
358.20	228.64
358.58	228.73
358.97	228.80
359.35	228.88
359.73	228.97
360.11	229.00
360.49	229.02
360.87	229.10
361.25	229.19
361.63	229.25
362.01	229.25
362.39	229.28
362.77	229.32
363.15	229.35
363.53	229.36
363.91	229.42
364.29	229.41
364.67	229.30
365.05	229.32
365.43	229.33
365.81	229.35
366.19	229.38
366.57	229.41
366.95	229.38
367.33	229.34
367.71	229.34
368.09	229.36
368.47	229.37
368.85	229.33
369.23	229.30
369.61	229.25
369.99	229.26
370.37	229.26
370.75	229.27
371.13	229.24
371.51	229.16
371.89	229.11
372.27	229.13
372.65	229.11
373.03	229.09
373.41	229.01
373.78	228.96
374.16	228.86
374.54	228.80
374.92	228.75
375.30	228.67
375.68	228.55
376.06	228.48
376.44	228.41
376.82	228.33
377.19	228.23
377.57	228.15
377.95	228.07
378.33	227.95
378.71	227.81
379.09	227.74
379.47	227.69
379.84	227.60
380.22	227.47
380.60	227.37
380.98	227.27
381.36	227.24
381.73	227.17
382.11	227.09
382.49	226.99
382.87	226.93
383.25	226.89
383.62	226.92
384.00	226.85
384.38	226.76
384.76	226.73
385.13	226.73
385.51	226.68
385.89	226.63
386.27	226.59
386.64	226.57
387.02	226.48
387.40	226.43
387.78	226.40
388.15	226.38
388.53	226.31
388.91	226.27
389.29	226.25
389.66	226.26
390.04	226.24
390.42	226.24
390.79	226.22
391.17	226.19
391.55	226.11
391.92	226.05
392.30	226.07
392.68	226.09
393.05	226.08
393.43	226.09
393.81	226.10
394.18	226.11
394.56	226.14
394.94	226.21
395.31	226.24
395.69	226.28
396.06	226.33
396.44	226.38
396.82	226.42
397.19	226.51
397.57	226.50
397.95	226.57
398.32	226.60
398.70	226.66
399.07	226.75
399.45	226.80
399.82	226.90
400.20	226.95
400.58	227.00
400.95	227.01
401.33	227.13
401.70	227.28
402.08	227.39
402.45	227.48
402.83	227.58
403.20	227.69
403.58	227.78
403.95	227.89
404.33	228.04
404.71	228.14
405.08	228.29
405.46	228.42
405.83	228.62
406.21	228.76
406.58	228.92
406.96	229.09
407.33	229.26
407.70	229.47
408.08	229.76
408.45	229.97
408.83	230.25
409.20	230.45
409.58	230.66
409.95	230.89
410.33	231.17
410.70	231.43
411.08	231.76
411.45	232.09
411.82	232.39
412.20	232.75
412.57	233.19
412.95	233.48
413.32	233.89
413.69	234.26
414.07	234.71
414.44	235.17
414.82	235.64
415.19	236.20
415.56	236.74
415.94	237.28
416.31	237.91
416.68	238.52
417.06	239.23
417.43	239.92
417.81	240.71
418.18	241.47
418.55	242.36
418.93	243.21
419.30	244.10
419.67	245.05
420.04	246.00
420.42	246.99
420.79	248.22
421.16	249.37
421.54	250.58
421.91	251.85
422.28	253.10
422.66	254.37
423.03	255.68
423.40	257.01
423.77	258.42
424.15	259.82
424.52	261.33
424.89	262.95
425.26	264.48
425.64	265.91
426.01	267.50
426.38	269.15
426.75	270.82
427.13	272.54
427.50	274.37
427.87	276.24
428.24	278.07
428.61	279.79
428.99	281.73
429.36	283.82
429.73	285.80
430.10	287.83
430.47	289.94
430.85	292.05
431.22	294.28
431.59	296.71
431.96	298.97
432.33	301.42
432.70	303.78
433.08	306.56
433.45	309.24
433.82	311.84
434.19	314.72
434.56	317.55
434.93	320.20
435.30	322.82
435.68	325.70
436.05	328.56
436.42	331.40
436.79	333.92
437.16	336.64
437.53	339.51
437.90	342.32
438.27	345.04
438.64	347.84
439.01	350.45
439.38	352.66
439.75	354.81
440.13	357.30
440.50	359.61
440.87	361.49
441.24	363.40
441.61	365.55
441.98	367.00
442.35	368.80
442.72	370.63
443.09	372.42
443.46	373.38
443.83	373.95
444.20	374.42
444.57	375.25
444.94	375.48
445.31	375.77
445.68	376.14
446.05	376.27
446.42	375.90
446.79	375.47
447.16	375.04
447.53	374.72
447.90	373.57
448.27	372.42
448.64	370.81
449.01	369.67
449.37	367.69
449.74	365.84
450.11	363.55
450.48	361.08
450.85	358.52
451.22	356.39
451.59	354.39
451.96	352.41
452.33	349.80
452.70	347.48
453.07	344.63
453.43	341.72
453.80	338.91
454.17	336.23
454.54	333.68
454.91	330.94
455.28	328.25
455.65	325.80
456.02	323.35
456.38	321.20
456.75	318.55
457.12	316.32
457.49	314.08
457.86	311.93
458.23	310.09
458.59	308.10
458.96	306.02
459.33	304.16
459.70	302.34
460.07	300.82
460.43	299.11
460.80	297.52
461.17	296.10
461.54	294.61
461.91	293.21
462.27	291.75
462.64	290.48
463.01	289.13
463.38	287.85
463.74	286.49
464.11	285.33
464.48	284.28
464.85	283.16
465.21	282.30
465.58	281.44
465.95	280.33
466.32	279.43
466.68	278.56
467.05	277.68
467.42	276.75
467.78	275.82
468.15	274.97
468.52	274.34
468.88	273.48
469.25	272.72
469.62	272.11
469.98	271.50
470.35	270.87
470.72	270.32
471.08	269.66
471.45	269.15
471.82	268.63
472.18	268.07
472.55	267.66
472.92	267.15
473.28	266.64
473.65	266.21
474.02	265.79
474.38	265.44
474.75	265.11
475.11	264.79
475.48	264.57
475.85	264.31
476.21	264.06
476.58	263.87
476.94	263.72
477.31	263.57
477.67	263.38
478.04	263.30
478.41	263.21
478.77	263.21
479.14	263.13
479.50	263.12
479.87	263.21
480.23	263.26
480.60	263.31
480.96	263.41
481.33	263.64
481.69	263.80
482.06	263.97
482.42	264.18
482.79	264.45
483.15	264.72
483.52	265.11
483.88	265.47
484.25	265.86
484.61	266.28
484.98	266.71
485.34	267.29
485.71	267.86
486.07	268.42
486.44	269.03
486.80	269.74
487.17	270.46
487.53	271.23
487.90	272.07
488.26	272.99
488.62	273.99
488.99	274.95
489.35	275.98
489.72	277.11
490.08	278.32
490.44	279.53
490.81	280.84
491.17	282.17
491.54	283.66
491.90	285.16
492.26	286.80
492.63	288.52
492.99	290.25
493.36	292.10
493.72	294.14
494.08	296.22
494.45	298.46
494.81	300.84
495.17	303.33
495.54	305.92
495.90	308.61
496.26	311.40
496.63	314.34
496.99	317.46
497.35	320.72
497.72	324.10
498.08	327.62
498.44	331.31
498.80	335.26
499.17	339.25
499.53	343.48
499.89	347.84
500.26	352.31
500.62	357.01
500.98	362.03
501.34	367.17
501.71	372.54
502.07	377.97
502.43	383.54
502.79	389.31
503.16	395.40
503.52	401.68
503.88	408.09
504.24	414.79
504.60	421.70
504.97	428.83
505.33	436.14
505.69	443.79
506.05	451.62
506.41	459.48
506.78	467.65
507.14	476.11
507.50	484.86
507.86	493.95
508.22	503.19
508.59	512.41
508.95	522.05
509.31	531.81
509.67	541.92
510.03	552.25
510.39	562.83
510.75	573.59
511.12	584.55
511.48	595.86
511.84	607.21
512.20	618.79
512.56	630.77
512.92	642.94
513.28	655.35
513.64	667.81
514.00	680.56
514.37	693.49
514.73	706.57
515.09	719.61
515.45	732.88
515.81	746.42
516.17	760.33
516.53	774.41
516.89	788.63
517.25	802.85
517.61	817.37
517.97	831.75
518.33	846.25
518.69	861.03
519.05	875.97
519.41	891.20
519.77	906.72
520.13	922.13
520.49	937.55
520.85	952.95
521.21	968.73
521.57	985.01
521.93	1000.84
522.29	1017.20
522.65	1033.53
523.01	1049.75
523.37	1065.78
523.73	1081.98
524.09	1098.03
524.45	1114.33
524.81	1130.97
525.17	1147.73
525.53	1164.77
525.89	1181.59
526.25	1198.36
526.61	1214.86
526.97	1231.55
527.33	1248.07
527.68	1264.66
528.04	1281.18
528.40	1297.86
528.76	1314.84
529.12	1331.41
529.48	1348.23
529.84	1364.27
530.20	1380.80
530.56	1397.86
530.91	1415.35
531.27	1432.13
531.63	1448.60
531.99	1465.21
532.35	1481.07
532.71	1497.00
533.07	1513.20
533.42	1529.18
533.78	1545.34
534.14	1561.54
534.50	1576.91
534.86	1592.62
535.21	1607.72
535.57	1623.62
535.93	1639.12
536.29	1653.83
536.65	1668.84
537.00	1683.54
537.36	1698.77
537.72	1713.42
538.08	1727.62
538.44	1741.25
538.79	1755.07
539.15	1768.65
539.51	1782.33
539.87	1796.66
540.22	1810.28
540.58	1824.02
540.94	1837.27
541.29	1850.04
541.65	1862.67
542.01	1875.82
542.37	1888.07
542.72	1900.53
543.08	1912.30
543.44	1924.61
543.79	1935.90
544.15	1946.90
544.51	1958.38
544.87	1969.40
545.22	1980.07
545.58	1990.48
545.94	2000.38
546.29	2010.26
546.65	2020.18
547.01	2029.28
547.36	2037.97
547.72	2046.41
548.07	2054.33
548.43	2062.49
548.79	2070.61
549.14	2078.17
549.50	2085.58
549.86	2093.42
550.21	2100.78
550.57	2107.84
550.92	2114.42
551.28	2121.41
551.64	2128.53
551.99	2135.18
552.35	2141.31
552.70	2147.57
553.06	2153.35
553.41	2159.57
553.77	2165.72
554.13	2171.83
554.48	2178.19
554.84	2183.59
555.19	2188.99
555.55	2193.99
555.90	2198.47
556.26	2203.34
556.61	2208.01
556.97	2212.29
557.32	2216.50
557.68	2220.60
558.03	2224.98
558.39	2228.67
558.74	2233.29
559.10	2237.07
559.45	2240.84
559.81	2245.19
560.16	2248.94
560.52	2252.35
560.87	2255.90
561.23	2258.40
561.58	2261.41
561.94	2263.90
562.29	2266.34
562.64	2268.83
563.00	2271.61
563.35	2275.05
563.71	2278.16
564.06	2281.50
564.42	2284.24
564.77	2286.68
565.12	2289.02
565.48	2290.99
565.83	2292.94
566.19	2294.29
566.54	2295.19
566.89	2296.24
567.25	2296.79
567.60	2298.02
567.96	2299.69
568.31	2300.43
568.66	2301.67
569.02	2302.18
569.37	2302.34
569.72	2303.38
570.08	2303.63
570.43	2303.58
570.78	2303.03
571.14	2301.59
571.49	2300.15
571.84	2299.99
572.20	2298.83
572.55	2297.74
572.90	2296.08
573.26	2294.66
573.61	2293.00
573.96	2291.29
574.31	2288.36
574.67	2285.34
575.02	2281.78
575.37	2278.36
575.72	2274.58
576.08	2271.27
576.43	2267.89
576.78	2264.38
577.13	2261.14
577.49	2258.04
577.84	2254.54
578.19	2250.78
578.54	2246.97
578.90	2242.66
579.25	2236.96
579.60	2231.89
579.95	2226.80
580.30	2221.84
580.66	2216.67
581.01	2211.60
581.36	2206.58
581.71	2202.29
582.06	2197.84
582.42	2193.38
582.77	2188.14
583.12	2183.50
583.47	2178.58
583.82	2173.55
584.17	2168.24
584.53	2162.65
584.88	2157.09
585.23	2151.28
585.58	2145.81
585.93	2140.31
586.28	2135.60
586.63	2130.57
586.98	2125.52
587.34	2120.92
587.69	2115.95
588.04	2110.61
588.39	2105.04
588.74	2098.52
589.09	2092.44
589.44	2085.66
589.79	2079.68
590.14	2074.08
590.49	2067.62
590.84	2061.29
591.19	2055.36
591.54	2048.76
591.89	2041.22
592.25	2034.31
592.60	2027.04
592.95	2019.38
593.30	2012.03
593.65	2004.42
594.00	1997.51
594.35	1990.40
594.70	1982.33
595.05	1975.13
595.40	1967.88
595.75	1960.30
596.10	1954.16
596.45	1947.38
596.80	1941.06
597.15	1934.36
597.50	1927.21
597.85	1920.73
598.19	1913.99
598.54	1906.79
598.89	1900.28
599.24	1894.59
599.59	1887.90
599.94	1881.74
600.29	1875.48
600.64	1868.95
600.99	1861.54
601.34	1854.56
601.69	1847.44
602.04	1840.47
602.39	1833.24
602.74	1826.33
603.08	1819.67
603.43	1812.92
603.78	1805.58
604.13	1798.37
604.48	1791.02
604.83	1784.19
605.18	1777.12
605.53	1769.23
605.87	1761.27
606.22	1754.12
606.57	1746.14
606.92	1738.79
607.27	1731.59
607.62	1724.62
607.96	1717.27
608.31	1710.62
608.66	1702.99
609.01	1695.44
609.36	1687.98
609.70	1679.86
610.05	1671.78
610.40	1664.09
610.75	1655.75
611.10	1648.19
611.44	1639.88
611.79	1631.87
612.14	1623.13
612.49	1614.02
612.83	1605.51
613.18	1597.26
613.53	1589.10
613.88	1580.54
614.22	1572.28
614.57	1563.69
614.92	1555.62
615.27	1548.09
615.61	1539.74
615.96	1531.75
616.31	1524.17
616.65	1516.74
617.00	1509.11
617.35	1501.54
617.70	1493.15
618.04	1484.64
618.39	1476.28
618.74	1468.64
619.08	1460.47
619.43	1452.92
619.78	1446.04
620.12	1438.89
620.47	1431.39
620.82	1423.21
621.16	1415.92
621.51	1408.35
621.85	1400.74
622.20	1392.24
622.55	1383.88
622.89	1376.04
623.24	1368.40
623.59	1361.01
623.93	1353.46
624.28	1346.24
624.62	1338.74
624.97	1331.57
625.32	1324.84
625.66	1317.81
626.01	1310.64
626.35	1302.91
626.70	1295.14
627.04	1287.30
627.39	1279.63
627.73	1272.27
628.08	1265.37
628.43	1257.98
628.77	1250.55
629.12	1243.00
629.46	1235.81
629.81	1228.47
630.15	1221.22
630.50	1213.79
630.84	1205.61
631.19	1197.77
631.53	1190.26
631.88	1182.68
632.22	1175.08
632.57	1167.77
632.91	1160.35
633.26	1152.88
633.60	1145.75
633.95	1138.68
634.29	1131.75
634.64	1125.03
634.98	1117.68
635.32	1110.43
635.67	1103.86
636.01	1097.23
636.36	1090.41
636.70	1083.99
637.05	1077.43
637.39	1070.97
637.73	1064.53
638.08	1058.66
638.42	1052.57
638.77	1046.18
639.11	1039.48
639.45	1033.08
639.80	1026.47
640.14	1020.03
640.49	1013.55
640.83	1007.22
641.17	1000.91
641.52	994.50
641.86	988.05
642.20	982.18
642.55	975.92
642.89	969.36
643.23	962.83
643.58	956.97
643.92	950.66
644.26	944.47
644.61	938.48
644.95	932.37
645.29	925.64
645.64	918.89
645.98	912.56
646.32	906.80
646.66	900.75
647.01	894.85
647.35	889.09
647.69	883.31
648.04	877.67
648.38	871.94
648.72	865.94
649.06	859.82
649.41	853.95
649.75	847.98
650.09	842.01
650.43	836.18
650.78	830.10
651.12	824.20
651.46	818.45
651.80	812.65
652.14	807.31
652.49	802.00
652.83	796.90
653.17	791.13
653.51	785.36
653.85	779.97
654.20	774.33
654.54	768.29
654.88	762.50
655.22	756.67
655.56	750.92
655.90	745.55
656.25	740.37
656.59	735.00
656.93	729.94
657.27	724.80
657.61	719.32
657.95	714.20
658.29	709.11
658.64	703.97
658.98	698.69
659.32	693.17
659.66	687.91
660.00	682.53
660.34	677.62
660.68	672.72
661.02	667.67
661.36	662.93
661.70	658.45
662.05	654.10
662.39	649.77
662.73	645.35
663.07	640.95
663.41	636.49
663.75	631.98
664.09	627.41
664.43	623.00
664.77	618.93
665.11	614.67
665.45	610.55
665.79	606.44
666.13	602.28
666.47	598.22
666.81	594.11
667.15	590.07
667.49	586.25
667.83	582.47
668.17	578.55
668.51	574.51
668.85	570.52
669.19	566.63
669.53	562.75
669.87	558.91
670.21	555.17
670.55	551.52
670.89	548.09
671.23	544.65
671.57	541.21
671.91	537.70
672.25	534.22
672.58	530.72
672.92	527.34
673.26	524.18
673.60	521.01
673.94	517.92
674.28	514.94
674.62	511.94
674.96	508.85
675.30	505.94
675.64	503.03
675.97	500.31
676.31	497.48
676.65	494.58
676.99	491.86
677.33	489.01
677.67	486.20
678.01	483.17
678.34	480.22
678.68	477.39
679.02	474.53
679.36	471.80
679.70	469.10
680.04	466.35
680.37	463.50
680.71	460.76
681.05	458.12
681.39	455.44
681.73	452.81
682.06	450.27
682.40	447.70
682.74	445.18
683.08	442.57
683.42	439.95
683.75	437.44
684.09	434.91
684.43	432.49
684.77	430.04
685.10	427.69
685.44	425.36
685.78	423.06
686.12	420.86
686.45	418.55
686.79	416.23
687.13	414.04
687.46	411.92
687.80	409.74
688.14	407.57
688.48	405.50
688.81	403.25
689.15	401.09
689.49	398.96
689.82	396.92
690.16	394.88
690.50	392.96
690.83	391.04
691.17	389.04
691.51	387.09
691.84	385.24
692.18	383.32
692.52	381.32
692.85	379.36
693.19	377.48
693.52	375.67
693.86	373.87
694.20	372.06
694.53	370.22
694.87	368.36
695.21	366.55
695.54	364.75
695.88	363.03
696.21	361.29
696.55	359.63
696.88	357.89
697.22	356.20
697.56	354.57
697.89	352.95
698.23	351.38
698.56	349.72
698.90	348.11
699.23	346.46
699.57	344.90
699.90	343.32
700.24	341.75
700.58	340.20
700.91	338.67
701.25	337.22
701.58	335.86
701.92	334.52
702.25	333.14
702.59	331.73
702.92	330.39
703.26	329.06
703.59	327.77
703.93	326.59
704.26	325.33
704.60	324.04
704.93	322.73
705.26	321.45
705.60	320.35
705.93	319.18
706.27	318.13
706.60	317.12
706.94	316.07
707.27	314.94
707.61	313.84
707.94	312.84
708.27	311.73
708.61	310.63
708.94	309.63
709.28	308.66
709.61	307.69
709.94	306.74
710.28	305.73
710.61	304.74
710.95	303.70
711.28	302.81
711.61	301.87
711.95	300.96
712.28	300.02
712.61	299.01
712.95	298.10
713.28	297.22
713.61	296.32
713.95	295.43
714.28	294.60
714.61	293.79
714.95	292.95
715.28	292.10
715.61	291.23
715.95	290.37
716.28	289.50
716.61	288.69
716.95	287.88
717.28	287.16
717.61	286.37
717.94	285.61
718.28	284.80
718.61	284.07
718.94	283.37
719.27	282.72
719.61	282.11
719.94	281.43
720.27	280.71
720.60	280.03
720.94	279.42
721.27	278.84
721.60	278.23
721.93	277.63
722.27	277.10
722.60	276.54
722.93	276.02
723.26	275.48
723.59	274.92
723.93	274.37
724.26	273.78
724.59	273.23
724.92	272.70
725.25	272.17
725.59	271.63
725.92	271.14
726.25	270.63
726.58	270.16
726.91	269.65
727.24	269.20
727.57	268.75
727.91	268.20
728.24	267.71
728.57	267.22
728.90	266.76
729.23	266.25
729.56	265.81
729.89	265.31
730.22	264.82
730.55	264.37
730.89	263.92
731.22	263.51
731.55	263.11
731.88	262.71
732.21	262.30
732.54	261.87
732.87	261.39
733.20	260.98
733.53	260.53
733.86	260.17
734.19	259.76
734.52	259.40
734.85	259.12
735.18	258.69
735.51	258.35
735.84	257.99
736.17	257.66
736.50	257.30
736.83	257.04
737.16	256.69
737.49	256.37
737.82	256.02
738.15	255.68
738.48	255.33
738.81	254.99
739.14	254.65
739.47	254.36
739.80	254.06
740.13	253.76
740.46	253.46
740.79	253.13
741.12	252.82
741.45	252.46
741.78	252.13
742.11	251.88
742.44	251.55
742.77	251.25
743.10	250.96
743.43	250.64
743.75	250.24
744.08	250.11
744.41	249.82
744.74	249.56
745.07	249.29
745.40	249.07
745.73	248.84
746.06	248.59
746.39	248.32
746.71	248.05
747.04	247.77
747.37	247.50
747.70	247.23
748.03	246.98
748.36	246.76
748.68	246.50
749.01	246.24
749.34	246.02
749.67	245.77
750.00	245.52
750.33	245.38
750.65	245.20
750.98	244.88
751.31	244.68
751.64	244.46
751.97	244.29
752.29	244.08
752.62	243.83
752.95	243.61
753.28	243.41
753.60	243.21
753.93	243.01
754.26	242.84
754.59	242.65
754.91	242.49
755.24	242.28
755.57	242.08
755.90	241.88
756.22	241.65
756.55	241.48
756.88	241.32
757.20	241.09
757.53	240.89
757.86	240.72
758.19	240.57
758.51	240.43
758.84	240.22
759.17	240.03
759.49	239.88
759.82	239.77
760.15	239.62
760.47	239.49
760.80	239.38
761.13	239.25
761.45	239.08
761.78	238.87
762.11	238.74
762.43	238.60
762.76	238.47
763.08	238.38
763.41	238.24
763.74	238.09
764.06	237.93
764.39	237.80
764.71	237.63
765.04	237.49
765.37	237.35
765.69	237.26
766.02	237.11
766.34	236.98
766.67	236.84
767.00	236.73
767.32	236.66
767.65	236.56
767.97	236.46
768.30	236.36
768.62	236.28
768.95	236.17
769.27	236.03
769.60	235.93
769.92	235.78
770.25	235.67
770.57	235.57
770.90	235.46
771.22	235.36
771.55	235.26
771.87	235.14
772.20	235.00
772.52	234.94
772.85	234.97
773.17	234.87
773.50	234.74
773.82	234.64
774.15	234.49
774.47	234.33
774.80	234.23
775.12	234.16
775.45	234.05
775.77	233.97
776.09	233.92
776.42	233.85
776.74	233.83
777.07	233.74
777.39	233.64
777.72	233.59
778.04	233.54
778.36	233.47
778.69	233.40
779.01	233.36
779.33	233.20
779.66	233.01
779.98	232.95
780.31	232.87
780.63	232.84
780.95	232.78
781.28	232.75
781.60	232.65
781.92	232.58
782.25	232.53
782.57	232.46
782.89	232.39
783.22	232.31
783.54	232.21
783.86	232.13
784.19	232.12
784.51	232.06
784.83	231.98
785.16	231.91
785.48	231.87
785.80	231.79
786.12	231.74
786.45	231.69
786.77	231.66
787.09	231.62
