SpectraSuite Data File
++++++++++++++++++++++++++++++++++++
Date: Fri Feb 01 16:55:06 EST 2013
User: group
Dark Spectrum Present: No
Reference Spectrum Present: No
Number of Sampled Component Spectra: 1
Spectrometers: USB2E7196
Integration Time (usec): 35000 (USB2E7196)
Spectra Averaged: 100 (USB2E7196)
Boxcar Smoothing: 10 (USB2E7196)
Correct for Electrical Dark: No (USB2E7196)
Strobe/Lamp Enabled: No (USB2E7196)
Correct for Detector Non-linearity: No (USB2E7196)
Correct for Stray Light: No (USB2E7196)
Number of Pixels in Processed Spectrum: 2048
>>>>>Begin Processed Spectral Data<<<<<
339.09	0.00
339.48	213.74
339.86	214.42
340.24	215.90
340.63	217.72
341.01	221.03
341.39	220.35
341.78	221.70
342.16	222.79
342.54	222.90
342.93	211.82
343.31	222.53
343.69	223.05
344.07	223.51
344.46	223.95
344.84	224.31
345.22	224.51
345.60	224.75
345.99	224.92
346.37	225.03
346.75	225.14
347.13	225.16
347.52	225.23
347.90	225.27
348.28	225.28
348.66	225.32
349.05	225.32
349.43	225.30
349.81	225.33
350.19	225.39
350.57	225.45
350.96	225.48
351.34	225.54
351.72	225.61
352.10	225.74
352.48	225.81
352.87	225.89
353.25	225.94
353.63	225.99
354.01	226.08
354.39	226.14
354.77	226.22
355.15	226.37
355.54	226.39
355.92	226.47
356.30	226.54
356.68	226.67
357.06	226.72
357.44	226.80
357.82	226.84
358.20	226.90
358.58	226.92
358.97	226.97
359.35	227.04
359.73	227.14
360.11	227.17
360.49	227.23
360.87	227.25
361.25	227.32
361.63	227.38
362.01	227.41
362.39	227.49
362.77	227.53
363.15	227.53
363.53	227.61
363.91	227.59
364.29	227.64
364.67	227.57
365.05	227.63
365.43	227.67
365.81	227.74
366.19	227.79
366.57	227.85
366.95	227.85
367.33	227.83
367.71	227.79
368.09	227.84
368.47	227.81
368.85	227.80
369.23	227.81
369.61	227.78
369.99	227.81
370.37	227.78
370.75	227.82
371.13	227.80
371.51	227.73
371.89	227.74
372.27	227.74
372.65	227.72
373.03	227.66
373.41	227.58
373.78	227.51
374.16	227.40
374.54	227.36
374.92	227.31
375.30	227.27
375.68	227.20
376.06	227.08
376.44	227.00
376.82	226.96
377.19	226.88
377.57	226.81
377.95	226.72
378.33	226.69
378.71	226.56
379.09	226.49
379.47	226.42
379.84	226.36
380.22	226.24
380.60	226.15
380.98	226.06
381.36	226.03
381.73	225.94
382.11	225.91
382.49	225.85
382.87	225.84
383.25	225.80
383.62	225.85
384.00	225.83
384.38	225.81
384.76	225.77
385.13	225.75
385.51	225.69
385.89	225.61
386.27	225.53
386.64	225.48
387.02	225.43
387.40	225.41
387.78	225.37
388.15	225.33
388.53	225.28
388.91	225.25
389.29	225.20
389.66	225.19
390.04	225.15
390.42	225.12
390.79	225.06
391.17	225.02
391.55	224.92
391.92	224.88
392.30	224.86
392.68	224.83
393.05	224.82
393.43	224.82
393.81	224.83
394.18	224.82
394.56	224.81
394.94	224.83
395.31	224.81
395.69	224.85
396.06	224.88
396.44	224.93
396.82	224.95
397.19	225.01
397.57	225.01
397.95	225.05
398.32	225.05
398.70	225.07
399.07	225.13
399.45	225.15
399.82	225.18
400.20	225.21
400.58	225.29
400.95	225.29
401.33	225.35
401.70	225.47
402.08	225.54
402.45	225.62
402.83	225.74
403.20	225.86
403.58	225.93
403.95	226.07
404.33	226.18
404.71	226.29
405.08	226.48
405.46	226.58
405.83	226.72
406.21	226.83
406.58	227.02
406.96	227.17
407.33	227.38
407.70	227.58
408.08	227.85
408.45	228.06
408.83	228.33
409.20	228.59
409.58	228.75
409.95	229.02
410.33	229.28
410.70	229.53
411.08	229.79
411.45	230.07
411.82	230.34
412.20	230.69
412.57	231.10
412.95	231.38
413.32	231.83
413.69	232.22
414.07	232.70
414.44	233.14
414.82	233.61
415.19	234.13
415.56	234.68
415.94	235.20
416.31	235.82
416.68	236.45
417.06	237.12
417.43	237.81
417.81	238.59
418.18	239.37
418.55	240.21
418.93	241.10
419.30	242.05
419.67	243.02
420.04	243.97
420.42	244.99
420.79	246.18
421.16	247.31
421.54	248.52
421.91	249.73
422.28	251.02
422.66	252.34
423.03	253.70
423.40	255.03
423.77	256.48
424.15	257.88
424.52	259.36
424.89	260.97
425.26	262.52
425.64	263.94
426.01	265.56
426.38	267.23
426.75	268.90
427.13	270.59
427.50	272.39
427.87	274.28
428.24	276.14
428.61	277.89
428.99	279.84
429.36	281.91
429.73	284.00
430.10	286.00
430.47	288.09
430.85	290.13
431.22	292.35
431.59	294.73
431.96	296.98
432.33	299.43
432.70	301.78
433.08	304.60
433.45	307.23
433.82	309.83
434.19	312.66
434.56	315.46
434.93	318.09
435.30	320.69
435.68	323.50
436.05	326.30
436.42	329.06
436.79	331.53
437.16	334.24
437.53	337.01
437.90	339.79
438.27	342.46
438.64	345.30
439.01	347.93
439.38	350.10
439.75	352.30
440.13	354.80
440.50	357.13
440.87	358.94
441.24	360.85
441.61	362.93
441.98	364.45
442.35	366.25
442.72	368.12
443.09	369.90
443.46	370.91
443.83	371.50
444.20	371.98
444.57	372.85
444.94	373.12
445.31	373.46
445.68	373.82
446.05	373.94
446.42	373.56
446.79	373.11
447.16	372.62
447.53	372.28
447.90	371.14
448.27	369.94
448.64	368.40
449.01	367.32
449.37	365.39
449.74	363.49
450.11	361.25
450.48	358.80
450.85	356.27
451.22	354.15
451.59	352.14
451.96	350.25
452.33	347.64
452.70	345.29
453.07	342.51
453.43	339.64
453.80	336.87
454.17	334.22
454.54	331.69
454.91	329.01
455.28	326.36
455.65	323.86
456.02	321.53
456.38	319.34
456.75	316.67
457.12	314.42
457.49	312.19
457.86	310.05
458.23	308.17
458.59	306.17
458.96	304.10
459.33	302.28
459.70	300.41
460.07	298.93
460.43	297.22
460.80	295.61
461.17	294.18
461.54	292.71
461.91	291.31
462.27	289.90
462.64	288.68
463.01	287.34
463.38	286.07
463.74	284.66
464.11	283.55
464.48	282.56
464.85	281.46
465.21	280.63
465.58	279.69
465.95	278.63
466.32	277.75
466.68	276.86
467.05	275.94
467.42	275.06
467.78	274.11
468.15	273.26
468.52	272.58
468.88	271.75
469.25	270.98
469.62	270.33
469.98	269.66
470.35	269.05
470.72	268.46
471.08	267.85
471.45	267.33
471.82	266.81
472.18	266.21
472.55	265.81
472.92	265.27
473.28	264.84
473.65	264.39
474.02	263.92
474.38	263.60
474.75	263.28
475.11	262.95
475.48	262.71
475.85	262.52
476.21	262.31
476.58	262.15
476.94	261.97
477.31	261.82
477.67	261.65
478.04	261.55
478.41	261.53
478.77	261.53
479.14	261.51
479.50	261.51
479.87	261.59
480.23	261.67
480.60	261.80
480.96	261.90
481.33	262.16
481.69	262.36
482.06	262.54
482.42	262.78
482.79	263.03
483.15	263.35
483.52	263.70
483.88	264.05
484.25	264.45
484.61	264.91
484.98	265.34
485.34	265.95
485.71	266.54
486.07	267.12
486.44	267.71
486.80	268.40
487.17	269.18
487.53	270.02
487.90	270.87
488.26	271.80
488.62	272.77
488.99	273.71
489.35	274.77
489.72	275.89
490.08	277.06
490.44	278.30
490.81	279.65
491.17	280.99
491.54	282.50
491.90	284.02
492.26	285.69
492.63	287.47
492.99	289.24
493.36	291.17
493.72	293.20
494.08	295.29
494.45	297.53
494.81	299.87
495.17	302.27
495.54	304.81
495.90	307.48
496.26	310.27
496.63	313.23
496.99	316.35
497.35	319.59
497.72	323.01
498.08	326.52
498.44	330.19
498.80	334.09
499.17	338.06
499.53	342.23
499.89	346.55
500.26	351.02
500.62	355.69
500.98	360.57
501.34	365.65
501.71	371.00
502.07	376.41
502.43	381.98
502.79	387.75
503.16	393.82
503.52	400.04
503.88	406.43
504.24	413.05
504.60	419.90
504.97	427.01
505.33	434.31
505.69	442.03
506.05	449.76
506.41	457.62
506.78	465.77
507.14	474.17
507.50	482.79
507.86	491.77
508.22	500.82
508.59	509.96
508.95	519.46
509.31	529.15
509.67	539.22
510.03	549.43
510.39	559.96
510.75	570.58
511.12	581.45
511.48	592.69
511.84	603.97
512.20	615.34
512.56	627.19
512.92	639.16
513.28	651.33
513.64	663.64
514.00	676.23
514.37	689.07
514.73	701.97
515.09	714.79
515.45	727.90
515.81	741.32
516.17	755.10
516.53	769.06
516.89	783.11
517.25	797.03
517.61	811.31
517.97	825.55
518.33	839.79
518.69	854.34
519.05	869.01
519.41	884.03
519.77	899.33
520.13	914.49
520.49	929.65
520.85	944.85
521.21	960.35
521.57	976.26
521.93	991.74
522.29	1007.85
522.65	1023.95
523.01	1039.82
523.37	1055.68
523.73	1071.62
524.09	1087.36
524.45	1103.37
524.81	1119.72
525.17	1136.06
525.53	1152.65
525.89	1169.32
526.25	1185.85
526.61	1202.03
526.97	1218.56
527.33	1234.77
527.68	1251.15
528.04	1267.41
528.40	1283.65
528.76	1300.42
529.12	1316.71
529.48	1333.21
529.84	1348.96
530.20	1365.20
530.56	1381.95
530.91	1399.04
531.27	1415.54
531.63	1431.75
531.99	1447.97
532.35	1463.77
532.71	1479.51
533.07	1495.50
533.42	1511.09
533.78	1526.92
534.14	1542.78
534.50	1557.74
534.86	1573.30
535.21	1588.13
535.57	1603.85
535.93	1619.07
536.29	1633.57
536.65	1648.34
537.00	1662.89
537.36	1677.83
537.72	1692.23
538.08	1706.47
538.44	1719.92
538.79	1733.55
539.15	1747.02
539.51	1760.55
539.87	1774.46
540.22	1787.78
540.58	1801.25
540.94	1814.24
541.29	1826.75
541.65	1839.24
542.01	1852.31
542.37	1864.51
542.72	1876.74
543.08	1888.29
543.44	1900.50
543.79	1911.58
544.15	1922.37
544.51	1933.72
544.87	1944.54
545.22	1955.24
545.58	1965.23
545.94	1975.08
546.29	1984.78
546.65	1994.53
547.01	2003.74
547.36	2012.39
547.72	2020.92
548.07	2028.77
548.43	2036.84
548.79	2044.76
549.14	2052.31
549.50	2059.26
549.86	2066.70
550.21	2073.90
550.57	2080.91
550.92	2087.53
551.28	2094.48
551.64	2101.60
551.99	2108.10
552.35	2114.37
552.70	2120.45
553.06	2126.41
553.41	2132.60
553.77	2138.44
554.13	2144.32
554.48	2150.33
554.84	2155.95
555.19	2161.17
555.55	2166.34
555.90	2170.98
556.26	2176.04
556.61	2180.72
556.97	2185.30
557.32	2189.40
557.68	2193.54
558.03	2197.86
558.39	2201.45
558.74	2206.03
559.10	2209.79
559.45	2213.46
559.81	2217.68
560.16	2221.54
560.52	2224.89
560.87	2228.17
561.23	2231.02
561.58	2233.95
561.94	2236.60
562.29	2238.90
562.64	2241.85
563.00	2244.41
563.35	2247.88
563.71	2250.90
564.06	2254.22
564.42	2257.16
564.77	2259.91
565.12	2262.48
565.48	2264.59
565.83	2266.59
566.19	2268.17
566.54	2269.31
566.89	2270.76
567.25	2271.53
567.60	2272.82
567.96	2274.68
568.31	2275.70
568.66	2277.06
569.02	2278.01
569.37	2278.40
569.72	2279.49
570.08	2279.73
570.43	2279.96
570.78	2279.67
571.14	2278.38
571.49	2277.19
571.84	2276.98
572.20	2275.99
572.55	2275.08
572.90	2273.52
573.26	2272.37
573.61	2270.62
573.96	2269.09
574.31	2266.29
574.67	2263.44
575.02	2260.05
575.37	2256.78
575.72	2253.32
576.08	2249.97
576.43	2246.68
576.78	2243.33
577.13	2240.15
577.49	2237.16
577.84	2233.95
578.19	2230.20
578.54	2226.91
578.90	2222.93
579.25	2217.64
579.60	2212.91
579.95	2208.04
580.30	2203.22
580.66	2198.25
581.01	2193.49
581.36	2188.66
581.71	2184.61
582.06	2180.41
582.42	2176.23
582.77	2171.11
583.12	2166.75
583.47	2162.32
583.82	2157.67
584.17	2152.61
584.53	2147.29
584.88	2141.74
585.23	2136.12
585.58	2130.94
585.93	2125.49
586.28	2120.73
586.63	2115.89
586.98	2110.94
587.34	2106.46
587.69	2101.82
588.04	2096.72
588.39	2091.50
588.74	2085.22
589.09	2079.16
589.44	2072.55
589.79	2066.54
590.14	2061.19
590.49	2054.68
590.84	2048.37
591.19	2042.35
591.54	2036.03
591.89	2028.94
592.25	2022.46
592.60	2015.48
592.95	2008.22
593.30	2001.04
593.65	1993.68
594.00	1986.68
594.35	1979.61
594.70	1971.63
595.05	1964.62
595.40	1957.43
595.75	1949.93
596.10	1944.01
596.45	1937.47
596.80	1931.44
597.15	1925.01
597.50	1918.10
597.85	1911.81
598.19	1905.43
598.54	1898.65
598.89	1892.16
599.24	1886.33
599.59	1879.80
599.94	1873.58
600.29	1867.25
600.64	1860.69
600.99	1853.39
601.34	1846.74
601.69	1839.86
602.04	1833.25
602.39	1825.98
602.74	1819.33
603.08	1812.81
603.43	1806.02
603.78	1798.72
604.13	1791.70
604.48	1784.50
604.83	1777.70
605.18	1770.93
605.53	1763.00
605.87	1755.01
606.22	1747.81
606.57	1739.96
606.92	1732.57
607.27	1725.55
607.62	1718.75
607.96	1711.68
608.31	1705.34
608.66	1697.92
609.01	1690.49
609.36	1682.92
609.70	1675.00
610.05	1667.01
610.40	1659.38
610.75	1651.17
611.10	1643.67
611.44	1635.22
611.79	1627.26
612.14	1618.63
612.49	1609.53
612.83	1601.21
613.18	1593.10
613.53	1585.00
613.88	1576.59
614.22	1568.38
614.57	1559.72
614.92	1551.72
615.27	1544.31
615.61	1535.85
615.96	1527.72
616.31	1520.11
616.65	1512.73
617.00	1505.04
617.35	1497.38
617.70	1489.09
618.04	1480.75
618.39	1472.63
618.74	1465.07
619.08	1456.87
619.43	1449.33
619.78	1442.42
620.12	1435.25
620.47	1427.80
620.82	1419.78
621.16	1412.32
621.51	1404.68
621.85	1397.10
622.20	1388.49
622.55	1379.97
622.89	1372.22
623.24	1364.52
623.59	1357.07
623.93	1349.53
624.28	1342.45
624.62	1335.06
624.97	1327.87
625.32	1320.90
625.66	1313.78
626.01	1306.61
626.35	1299.28
626.70	1291.49
627.04	1283.71
627.39	1275.96
627.73	1268.56
628.08	1261.65
628.43	1254.47
628.77	1247.29
629.12	1239.79
629.46	1232.77
629.81	1225.43
630.15	1218.12
630.50	1210.87
630.84	1202.82
631.19	1194.92
631.53	1187.34
631.88	1179.68
632.22	1172.09
632.57	1164.84
632.91	1157.31
633.26	1149.86
633.60	1142.32
633.95	1135.18
634.29	1128.18
634.64	1121.53
634.98	1114.26
635.32	1107.05
635.67	1100.41
636.01	1093.70
636.36	1086.99
636.70	1080.43
637.05	1073.87
637.39	1067.53
637.73	1061.05
638.08	1055.17
638.42	1049.18
638.77	1042.86
639.11	1036.39
639.45	1029.94
639.80	1023.37
640.14	1017.01
640.49	1010.64
640.83	1004.47
641.17	998.36
641.52	992.00
641.86	985.49
642.20	979.63
642.55	973.26
642.89	966.87
643.23	960.24
643.58	954.45
643.92	948.26
644.26	942.34
644.61	936.18
644.95	930.19
645.29	923.69
645.64	917.05
645.98	910.69
646.32	904.82
646.66	898.87
647.01	893.08
647.35	887.45
647.69	881.51
648.04	875.95
648.38	870.19
648.72	864.30
649.06	858.26
649.41	852.35
649.75	846.53
650.09	840.60
650.43	834.96
650.78	828.79
651.12	822.83
651.46	817.00
651.80	811.40
652.14	805.94
652.49	800.54
652.83	795.38
653.17	789.82
653.51	784.15
653.85	778.75
654.20	773.18
654.54	767.12
654.88	761.37
655.22	755.48
655.56	749.80
655.90	744.29
656.25	739.10
656.59	733.78
656.93	728.60
657.27	723.47
657.61	718.01
657.95	712.94
658.29	707.91
658.64	702.66
658.98	697.36
659.32	691.96
659.66	686.69
660.00	681.40
660.34	676.44
660.68	671.53
661.02	666.46
661.36	661.73
661.70	657.33
662.05	653.06
662.39	648.82
662.73	644.40
663.07	640.09
663.41	635.63
663.75	631.13
664.09	626.66
664.43	622.22
664.77	618.14
665.11	613.91
665.45	609.74
665.79	605.74
666.13	601.58
666.47	597.49
666.81	593.44
667.15	589.26
667.49	585.33
667.83	581.43
668.17	577.53
668.51	573.52
668.85	569.43
669.19	565.55
669.53	561.60
669.87	557.64
670.21	553.90
670.55	550.26
670.89	546.89
671.23	543.41
671.57	539.87
671.91	536.34
672.25	532.83
672.58	529.35
672.92	525.91
673.26	522.74
673.60	519.53
673.94	516.37
674.28	513.54
674.62	510.59
674.96	507.52
675.30	504.62
675.64	501.66
675.97	498.87
676.31	495.98
676.65	493.10
676.99	490.43
677.33	487.57
677.67	484.75
678.01	481.67
678.34	478.69
678.68	475.87
679.02	473.01
679.36	470.24
679.70	467.56
680.04	464.80
680.37	461.94
680.71	459.15
681.05	456.52
681.39	453.74
681.73	451.06
682.06	448.55
682.40	446.02
682.74	443.40
683.08	440.83
683.42	438.24
683.75	435.76
684.09	433.16
684.43	430.68
684.77	428.26
685.10	425.87
685.44	423.62
685.78	421.33
686.12	419.13
686.45	416.88
686.79	414.55
687.13	412.39
687.46	410.21
687.80	408.04
688.14	405.89
688.48	403.88
688.81	401.66
689.15	399.51
689.49	397.33
689.82	395.30
690.16	393.25
690.50	391.29
690.83	389.38
691.17	387.44
691.51	385.60
691.84	383.74
692.18	381.84
692.52	379.89
692.85	377.95
693.19	376.05
693.52	374.17
693.86	372.35
694.20	370.50
694.53	368.77
694.87	366.95
695.21	365.13
695.54	363.30
695.88	361.59
696.21	359.87
696.55	358.20
696.88	356.52
697.22	354.87
697.56	353.27
697.89	351.62
698.23	350.02
698.56	348.41
698.90	346.84
699.23	345.26
699.57	343.68
699.90	342.15
700.24	340.62
700.58	339.12
700.91	337.65
701.25	336.28
701.58	334.88
701.92	333.51
702.25	332.15
702.59	330.77
702.92	329.44
703.26	328.11
703.59	326.81
703.93	325.62
704.26	324.35
704.60	323.06
704.93	321.78
705.26	320.54
705.60	319.33
705.93	318.14
706.27	317.06
706.60	316.03
706.94	314.96
707.27	313.80
707.61	312.74
707.94	311.72
708.27	310.59
708.61	309.53
708.94	308.54
709.28	307.53
709.61	306.55
709.94	305.57
710.28	304.56
710.61	303.57
710.95	302.51
711.28	301.53
711.61	300.57
711.95	299.66
712.28	298.68
712.61	297.71
712.95	296.77
713.28	295.86
713.61	294.93
713.95	294.05
714.28	293.22
714.61	292.34
714.95	291.45
715.28	290.57
715.61	289.66
715.95	288.79
716.28	287.92
716.61	287.13
716.95	286.34
717.28	285.62
717.61	284.86
717.94	284.11
718.28	283.30
718.61	282.54
718.94	281.80
719.27	281.14
719.61	280.48
719.94	279.81
720.27	279.11
720.60	278.45
720.94	277.78
721.27	277.17
721.60	276.54
721.93	275.98
722.27	275.47
722.60	274.96
722.93	274.40
723.26	273.89
723.59	273.32
723.93	272.73
724.26	272.14
724.59	271.56
724.92	271.04
725.25	270.64
725.59	270.16
725.92	269.67
726.25	269.17
726.58	268.70
726.91	268.22
727.24	267.75
727.57	267.27
727.91	266.75
728.24	266.26
728.57	265.80
728.90	265.33
729.23	264.81
729.56	264.34
729.89	263.87
730.22	263.38
730.55	262.92
730.89	262.54
731.22	262.10
731.55	261.71
731.88	261.31
732.21	260.82
732.54	260.40
732.87	259.97
733.20	259.57
733.53	259.19
733.86	258.80
734.19	258.40
734.52	258.03
734.85	257.75
735.18	257.39
735.51	257.05
735.84	256.66
736.17	256.35
736.50	255.96
736.83	255.74
737.16	255.41
737.49	255.07
737.82	254.71
738.15	254.38
738.48	254.05
738.81	253.74
739.14	253.44
739.47	253.13
739.80	252.88
740.13	252.57
740.46	252.25
740.79	251.97
741.12	251.67
741.45	251.37
741.78	251.01
742.11	250.73
742.44	250.41
742.77	250.14
743.10	249.83
743.43	249.51
743.75	249.12
744.08	248.96
744.41	248.66
744.74	248.36
745.07	248.07
745.40	247.82
745.73	247.54
746.06	247.28
746.39	247.00
746.71	246.67
747.04	246.40
747.37	246.12
747.70	245.88
748.03	245.64
748.36	245.44
748.68	245.18
749.01	244.91
749.34	244.70
749.67	244.45
750.00	244.18
750.33	244.02
750.65	243.78
750.98	243.44
751.31	243.23
751.64	243.03
751.97	242.88
752.29	242.62
752.62	242.40
752.95	242.17
753.28	241.95
753.60	241.74
753.93	241.53
754.26	241.33
754.59	241.09
754.91	240.90
755.24	240.63
755.57	240.47
755.90	240.27
756.22	240.07
756.55	239.86
756.88	239.69
757.20	239.42
757.53	239.24
757.86	239.07
758.19	238.92
758.51	238.76
758.84	238.56
759.17	238.39
759.49	238.20
759.82	238.07
760.15	237.90
760.47	237.76
760.80	237.58
761.13	237.43
761.45	237.24
761.78	237.06
762.11	236.93
762.43	236.75
762.76	236.59
763.08	236.46
763.41	236.36
763.74	236.25
764.06	236.13
764.39	235.98
764.71	235.81
765.04	235.64
765.37	235.50
765.69	235.35
766.02	235.25
766.34	235.13
766.67	235.02
767.00	234.93
767.32	234.89
767.65	234.83
767.97	234.72
768.30	234.63
768.62	234.51
768.95	234.41
769.27	234.30
769.60	234.24
769.92	234.10
770.25	233.95
770.57	233.83
770.90	233.74
771.22	233.68
771.55	233.60
771.87	233.54
772.20	233.45
772.52	233.44
772.85	233.47
773.17	233.37
773.50	233.26
773.82	233.18
774.15	233.05
774.47	232.92
774.80	232.88
775.12	232.79
775.45	232.70
775.77	232.65
776.09	232.60
776.42	232.52
776.74	232.44
777.07	232.37
777.39	232.29
777.72	232.22
778.04	232.15
778.36	232.07
778.69	231.98
779.01	231.90
779.33	231.75
779.66	231.60
779.98	231.56
780.31	231.48
780.63	231.43
780.95	231.37
781.28	231.30
781.60	231.20
781.92	231.17
782.25	231.12
782.57	231.03
782.89	230.93
783.22	230.85
783.54	230.81
783.86	230.79
784.19	230.74
784.51	230.71
784.83	230.61
785.16	230.60
785.48	230.59
785.80	230.56
786.12	230.53
786.45	230.46
786.77	230.34
787.09	230.28
