SpectraSuite Data File
++++++++++++++++++++++++++++++++++++
Date: Fri Feb 01 14:58:22 EST 2013
User: group
Dark Spectrum Present: No
Reference Spectrum Present: No
Number of Sampled Component Spectra: 1
Spectrometers: USB2E7196
Integration Time (usec): 35000 (USB2E7196)
Spectra Averaged: 100 (USB2E7196)
Boxcar Smoothing: 10 (USB2E7196)
Correct for Electrical Dark: No (USB2E7196)
Strobe/Lamp Enabled: No (USB2E7196)
Correct for Detector Non-linearity: No (USB2E7196)
Correct for Stray Light: No (USB2E7196)
Number of Pixels in Processed Spectrum: 2048
>>>>>Begin Processed Spectral Data<<<<<
339.09	0.00
339.48	215.52
339.86	217.71
340.24	218.11
340.63	219.86
341.01	222.11
341.39	222.92
341.78	223.36
342.16	224.80
342.54	224.83
342.93	213.71
343.31	224.51
343.69	225.03
344.07	225.47
344.46	225.90
344.84	226.27
345.22	226.50
345.60	226.74
345.99	226.92
346.37	227.05
346.75	227.14
347.13	227.19
347.52	227.24
347.90	227.28
348.28	227.32
348.66	227.35
349.05	227.33
349.43	227.36
349.81	227.40
350.19	227.45
350.57	227.51
350.96	227.60
351.34	227.66
351.72	227.74
352.10	227.81
352.48	227.89
352.87	227.93
353.25	228.03
353.63	228.04
354.01	228.11
354.39	228.21
354.77	228.30
355.15	228.40
355.54	228.47
355.92	228.53
356.30	228.61
356.68	228.76
357.06	228.84
357.44	228.91
357.82	228.97
358.20	229.01
358.58	229.08
358.97	229.12
359.35	229.22
359.73	229.30
360.11	229.33
360.49	229.34
360.87	229.38
361.25	229.41
361.63	229.49
362.01	229.54
362.39	229.55
362.77	229.62
363.15	229.62
363.53	229.64
363.91	229.65
364.29	229.65
364.67	229.55
365.05	229.57
365.43	229.55
365.81	229.56
366.19	229.60
366.57	229.60
366.95	229.60
367.33	229.54
367.71	229.52
368.09	229.55
368.47	229.54
368.85	229.52
369.23	229.49
369.61	229.42
369.99	229.40
370.37	229.34
370.75	229.30
371.13	229.25
371.51	229.21
371.89	229.17
372.27	229.11
372.65	229.08
373.03	229.01
373.41	228.94
373.78	228.88
374.16	228.76
374.54	228.66
374.92	228.56
375.30	228.50
375.68	228.39
376.06	228.28
376.44	228.20
376.82	228.14
377.19	228.08
377.57	227.98
377.95	227.88
378.33	227.82
378.71	227.71
379.09	227.64
379.47	227.57
379.84	227.47
380.22	227.36
380.60	227.24
380.98	227.14
381.36	227.08
381.73	227.00
382.11	226.97
382.49	226.92
382.87	226.84
383.25	226.77
383.62	226.82
384.00	226.76
384.38	226.69
384.76	226.65
385.13	226.61
385.51	226.58
385.89	226.49
386.27	226.46
386.64	226.40
387.02	226.32
387.40	226.26
387.78	226.26
388.15	226.24
388.53	226.23
388.91	226.22
389.29	226.18
389.66	226.15
390.04	226.09
390.42	226.12
390.79	226.12
391.17	226.12
391.55	226.05
391.92	226.04
392.30	226.06
392.68	226.08
393.05	226.09
393.43	226.12
393.81	226.19
394.18	226.18
394.56	226.24
394.94	226.30
395.31	226.34
395.69	226.37
396.06	226.44
396.44	226.48
396.82	226.53
397.19	226.60
397.57	226.70
397.95	226.81
398.32	226.83
398.70	226.93
399.07	227.03
399.45	227.08
399.82	227.18
400.20	227.27
400.58	227.32
400.95	227.37
401.33	227.46
401.70	227.59
402.08	227.70
402.45	227.80
402.83	227.98
403.20	228.10
403.58	228.21
403.95	228.35
404.33	228.46
404.71	228.62
405.08	228.83
405.46	228.92
405.83	229.09
406.21	229.24
406.58	229.39
406.96	229.59
407.33	229.77
407.70	229.95
408.08	230.25
408.45	230.50
408.83	230.76
409.20	231.01
409.58	231.24
409.95	231.53
410.33	231.81
410.70	232.01
411.08	232.32
411.45	232.64
411.82	232.95
412.20	233.33
412.57	233.74
412.95	234.02
413.32	234.47
413.69	234.87
414.07	235.31
414.44	235.80
414.82	236.23
415.19	236.82
415.56	237.38
415.94	237.88
416.31	238.50
416.68	239.11
417.06	239.78
417.43	240.41
417.81	241.19
418.18	241.95
418.55	242.82
418.93	243.68
419.30	244.60
419.67	245.53
420.04	246.49
420.42	247.46
420.79	248.64
421.16	249.75
421.54	250.90
421.91	252.13
422.28	253.35
422.66	254.69
423.03	255.96
423.40	257.29
423.77	258.72
424.15	260.14
424.52	261.62
424.89	263.25
425.26	264.83
425.64	266.22
426.01	267.82
426.38	269.47
426.75	271.13
427.13	272.83
427.50	274.61
427.87	276.46
428.24	278.31
428.61	280.02
428.99	281.97
429.36	284.07
429.73	286.11
430.10	288.14
430.47	290.19
430.85	292.28
431.22	294.55
431.59	296.89
431.96	299.13
432.33	301.64
432.70	304.02
433.08	306.85
433.45	309.50
433.82	312.13
434.19	315.02
434.56	317.85
434.93	320.53
435.30	323.17
435.68	326.06
436.05	328.92
436.42	331.82
436.79	334.36
437.16	337.11
437.53	339.99
437.90	342.85
438.27	345.64
438.64	348.49
439.01	351.07
439.38	353.32
439.75	355.52
440.13	358.01
440.50	360.37
440.87	362.22
441.24	364.19
441.61	366.33
441.98	367.83
442.35	369.64
442.72	371.51
443.09	373.35
443.46	374.34
443.83	374.97
444.20	375.39
444.57	376.25
444.94	376.53
445.31	376.81
445.68	377.18
446.05	377.24
446.42	376.89
446.79	376.46
447.16	376.06
447.53	375.76
447.90	374.58
448.27	373.44
448.64	371.84
449.01	370.73
449.37	368.79
449.74	366.90
450.11	364.67
450.48	362.14
450.85	359.60
451.22	357.51
451.59	355.44
451.96	353.55
452.33	350.93
452.70	348.55
453.07	345.80
453.43	342.90
453.80	340.15
454.17	337.50
454.54	334.93
454.91	332.15
455.28	329.48
455.65	327.00
456.02	324.54
456.38	322.37
456.75	319.61
457.12	317.35
457.49	315.09
457.86	312.89
458.23	311.04
458.59	308.97
458.96	306.86
459.33	304.99
459.70	303.12
460.07	301.56
460.43	299.82
460.80	298.17
461.17	296.70
461.54	295.19
461.91	293.71
462.27	292.32
462.64	291.07
463.01	289.66
463.38	288.34
463.74	286.95
464.11	285.80
464.48	284.78
464.85	283.67
465.21	282.77
465.58	281.88
465.95	280.81
466.32	279.89
466.68	278.99
467.05	278.08
467.42	277.17
467.78	276.24
468.15	275.37
468.52	274.65
468.88	273.77
469.25	272.93
469.62	272.29
469.98	271.57
470.35	270.89
470.72	270.29
471.08	269.62
471.45	269.06
471.82	268.48
472.18	267.89
472.55	267.41
472.92	266.89
473.28	266.37
473.65	265.88
474.02	265.41
474.38	265.01
474.75	264.64
475.11	264.27
475.48	263.99
475.85	263.73
476.21	263.49
476.58	263.26
476.94	263.14
477.31	262.96
477.67	262.78
478.04	262.70
478.41	262.60
478.77	262.66
479.14	262.57
479.50	262.58
479.87	262.66
480.23	262.76
480.60	262.82
480.96	262.93
481.33	263.11
481.69	263.32
482.06	263.52
482.42	263.75
482.79	264.03
483.15	264.36
483.52	264.76
483.88	265.12
484.25	265.53
484.61	265.95
484.98	266.40
485.34	267.00
485.71	267.58
486.07	268.21
486.44	268.81
486.80	269.52
487.17	270.23
487.53	271.04
487.90	271.88
488.26	272.85
488.62	273.81
488.99	274.80
489.35	275.85
489.72	276.94
490.08	278.14
490.44	279.39
490.81	280.71
491.17	282.05
491.54	283.56
491.90	285.12
492.26	286.77
492.63	288.51
492.99	290.25
493.36	292.16
493.72	294.22
494.08	296.25
494.45	298.50
494.81	300.89
495.17	303.27
495.54	305.83
495.90	308.48
496.26	311.32
496.63	314.30
496.99	317.37
497.35	320.64
497.72	324.04
498.08	327.49
498.44	331.15
498.80	335.07
499.17	339.07
499.53	343.18
499.89	347.52
500.26	352.01
500.62	356.66
500.98	361.60
501.34	366.60
501.71	371.89
502.07	377.25
502.43	382.80
502.79	388.65
503.16	394.65
503.52	400.89
503.88	407.23
504.24	413.83
504.60	420.67
504.97	427.74
505.33	435.03
505.69	442.72
506.05	450.45
506.41	458.30
506.78	466.44
507.14	474.83
507.50	483.51
507.86	492.44
508.22	501.57
508.59	510.73
508.95	520.34
509.31	530.13
509.67	540.26
510.03	550.48
510.39	560.97
510.75	571.77
511.12	582.69
511.48	593.97
511.84	605.33
512.20	616.87
512.56	628.78
512.92	640.94
513.28	653.22
513.64	665.76
514.00	678.40
514.37	691.27
514.73	704.32
515.09	717.35
515.45	730.64
515.81	744.27
516.17	758.27
516.53	772.35
516.89	786.56
517.25	800.74
517.61	815.27
517.97	829.67
518.33	844.10
518.69	858.90
519.05	873.96
519.41	889.21
519.77	904.82
520.13	920.30
520.49	935.65
520.85	951.06
521.21	966.83
521.57	983.21
521.93	999.11
522.29	1015.68
522.65	1032.02
523.01	1048.29
523.37	1064.30
523.73	1080.62
524.09	1096.82
524.45	1113.25
524.81	1129.93
525.17	1146.91
525.53	1164.01
525.89	1180.98
526.25	1197.88
526.61	1214.26
526.97	1231.06
527.33	1247.62
527.68	1264.36
528.04	1281.05
528.40	1297.88
528.76	1314.97
529.12	1331.49
529.48	1348.39
529.84	1364.46
530.20	1381.27
530.56	1398.36
530.91	1415.88
531.27	1432.64
531.63	1449.22
531.99	1465.91
532.35	1482.02
532.71	1497.88
533.07	1514.28
533.42	1530.27
533.78	1546.28
534.14	1562.73
534.50	1578.12
534.86	1594.10
535.21	1609.36
535.57	1625.41
535.93	1641.03
536.29	1655.92
536.65	1671.33
537.00	1686.34
537.36	1701.77
537.72	1716.23
538.08	1730.77
538.44	1744.62
538.79	1758.57
539.15	1772.27
539.51	1786.10
539.87	1800.58
540.22	1814.26
540.58	1828.09
540.94	1841.44
541.29	1854.67
541.65	1867.43
542.01	1880.91
542.37	1893.24
542.72	1905.76
543.08	1917.54
543.44	1929.90
543.79	1941.16
544.15	1951.93
544.51	1963.36
544.87	1974.35
545.22	1985.24
545.58	1995.44
545.94	2005.19
546.29	2015.16
546.65	2025.07
547.01	2034.22
547.36	2042.94
547.72	2051.59
548.07	2059.43
548.43	2067.62
548.79	2075.47
549.14	2082.95
549.50	2090.24
549.86	2098.07
550.21	2105.29
550.57	2112.45
550.92	2119.06
551.28	2126.26
551.64	2133.44
551.99	2140.04
552.35	2146.12
552.70	2152.23
553.06	2158.24
553.41	2164.74
553.77	2170.76
554.13	2176.88
554.48	2182.83
554.84	2188.13
555.19	2193.38
555.55	2198.40
555.90	2202.94
556.26	2207.77
556.61	2212.42
556.97	2216.53
557.32	2220.62
557.68	2224.89
558.03	2229.19
558.39	2232.86
558.74	2237.39
559.10	2241.16
559.45	2244.68
559.81	2248.91
560.16	2252.51
560.52	2255.68
560.87	2258.92
561.23	2261.50
561.58	2264.33
561.94	2266.97
562.29	2269.40
562.64	2272.03
563.00	2274.63
563.35	2278.07
563.71	2281.11
564.06	2284.31
564.42	2287.13
564.77	2289.25
565.12	2291.29
565.48	2292.97
565.83	2294.70
566.19	2295.77
566.54	2296.59
566.89	2297.65
567.25	2298.15
567.60	2299.66
567.96	2301.20
568.31	2301.96
568.66	2302.82
569.02	2303.29
569.37	2303.56
569.72	2304.36
570.08	2304.23
570.43	2303.99
570.78	2303.03
571.14	2301.36
571.49	2299.83
571.84	2299.34
572.20	2298.09
572.55	2296.90
572.90	2295.33
573.26	2293.68
573.61	2292.07
573.96	2290.21
574.31	2287.07
574.67	2283.86
575.02	2279.98
575.37	2276.37
575.72	2272.33
576.08	2268.89
576.43	2265.36
576.78	2261.49
577.13	2257.99
577.49	2254.80
577.84	2251.24
578.19	2247.56
578.54	2243.80
578.90	2239.56
579.25	2233.81
579.60	2228.75
579.95	2223.53
580.30	2218.29
580.66	2213.07
581.01	2207.79
581.36	2202.67
581.71	2198.37
582.06	2193.84
582.42	2189.27
582.77	2183.92
583.12	2179.17
583.47	2174.29
583.82	2169.25
584.17	2163.82
584.53	2158.35
584.88	2152.58
585.23	2146.71
585.58	2141.22
585.93	2135.58
586.28	2130.59
586.63	2125.47
586.98	2120.32
587.34	2115.60
587.69	2110.69
588.04	2105.38
588.39	2099.49
588.74	2092.93
589.09	2086.62
589.44	2079.71
589.79	2073.54
590.14	2067.87
590.49	2061.26
590.84	2054.64
591.19	2048.39
591.54	2041.84
591.89	2034.16
592.25	2027.19
592.60	2019.91
592.95	2012.06
593.30	2004.70
593.65	1996.92
594.00	1989.71
594.35	1982.39
594.70	1974.27
595.05	1966.88
595.40	1959.39
595.75	1951.89
596.10	1945.51
596.45	1938.68
596.80	1932.34
597.15	1925.60
597.50	1918.36
597.85	1911.94
598.19	1905.28
598.54	1898.09
598.89	1891.38
599.24	1885.56
599.59	1878.79
599.94	1872.55
600.29	1866.25
600.64	1859.60
600.99	1852.11
601.34	1845.21
601.69	1838.18
602.04	1831.17
602.39	1823.77
602.74	1817.01
603.08	1810.25
603.43	1803.57
603.78	1796.28
604.13	1789.17
604.48	1781.74
604.83	1774.93
605.18	1767.83
605.53	1759.81
605.87	1751.81
606.22	1744.61
606.57	1736.55
606.92	1729.26
607.27	1721.86
607.62	1714.86
607.96	1707.46
608.31	1700.92
608.66	1693.27
609.01	1685.69
609.36	1678.16
609.70	1670.07
610.05	1662.01
610.40	1654.37
610.75	1646.08
611.10	1638.35
611.44	1630.01
611.79	1622.14
612.14	1613.42
612.49	1604.40
612.83	1596.20
613.18	1588.14
613.53	1580.06
613.88	1571.54
614.22	1563.40
614.57	1554.99
614.92	1546.93
615.27	1539.47
615.61	1531.06
615.96	1523.20
616.31	1515.56
616.65	1508.22
617.00	1500.87
617.35	1493.18
617.70	1484.82
618.04	1476.29
618.39	1468.11
618.74	1460.53
619.08	1452.36
619.43	1444.91
619.78	1438.00
620.12	1430.87
620.47	1423.41
620.82	1415.25
621.16	1407.95
621.51	1400.32
621.85	1392.76
622.20	1384.44
622.55	1376.19
622.89	1368.45
623.24	1360.93
623.59	1353.71
623.93	1346.33
624.28	1339.07
624.62	1331.56
624.97	1324.49
625.32	1317.87
625.66	1310.88
626.01	1303.64
626.35	1296.10
626.70	1288.41
627.04	1280.72
627.39	1272.95
627.73	1265.61
628.08	1258.71
628.43	1251.37
628.77	1244.01
629.12	1236.46
629.46	1229.26
629.81	1221.87
630.15	1214.77
630.50	1207.41
630.84	1199.17
631.19	1191.18
631.53	1183.66
631.88	1176.29
632.22	1168.70
632.57	1161.38
632.91	1153.89
633.26	1146.58
633.60	1139.34
633.95	1132.22
634.29	1125.31
634.64	1118.56
634.98	1111.13
635.32	1104.07
635.67	1097.60
636.01	1091.08
636.36	1084.31
636.70	1077.88
637.05	1071.41
637.39	1064.98
637.73	1058.52
638.08	1052.73
638.42	1046.86
638.77	1040.45
639.11	1033.78
639.45	1027.42
639.80	1020.74
640.14	1014.36
640.49	1007.85
640.83	1001.62
641.17	995.39
641.52	989.08
641.86	982.75
642.20	977.01
642.55	970.72
642.89	964.28
643.23	957.74
643.58	951.98
643.92	945.75
644.26	939.62
644.61	933.55
644.95	927.48
645.29	920.87
645.64	914.08
645.98	907.83
646.32	902.13
646.66	896.14
647.01	890.38
647.35	884.72
647.69	878.87
648.04	873.33
648.38	867.61
648.72	861.61
649.06	855.53
649.41	849.67
649.75	843.72
650.09	837.77
650.43	832.00
650.78	825.89
651.12	819.97
651.46	814.33
651.80	808.61
652.14	803.26
652.49	797.91
652.83	792.79
653.17	787.13
653.51	781.33
653.85	775.93
654.20	770.35
654.54	764.41
654.88	758.78
655.22	752.99
655.56	747.40
655.90	741.99
656.25	736.80
656.59	731.50
656.93	726.47
657.27	721.32
657.61	715.91
657.95	710.87
658.29	705.82
658.64	700.58
658.98	695.35
659.32	689.97
659.66	684.88
660.00	679.63
660.34	674.72
660.68	669.82
661.02	664.81
661.36	660.13
661.70	655.66
662.05	651.30
662.39	646.95
662.73	642.52
663.07	638.18
663.41	633.82
663.75	629.35
664.09	624.81
664.43	620.56
664.77	616.52
665.11	612.30
665.45	608.20
665.79	604.15
666.13	600.07
666.47	595.96
666.81	591.83
667.15	587.77
667.49	583.92
667.83	580.22
668.17	576.34
668.51	572.27
668.85	568.35
669.19	564.56
669.53	560.76
669.87	556.88
670.21	553.17
670.55	549.52
670.89	546.12
671.23	542.72
671.57	539.19
671.91	535.65
672.25	532.20
672.58	528.72
672.92	525.38
673.26	522.24
673.60	519.15
673.94	516.05
674.28	513.13
674.62	510.19
674.96	507.06
675.30	504.17
675.64	501.35
675.97	498.57
676.31	495.69
676.65	492.81
676.99	490.16
677.33	487.36
677.67	484.55
678.01	481.50
678.34	478.53
678.68	475.67
679.02	472.89
679.36	470.10
679.70	467.42
680.04	464.62
680.37	461.78
680.71	458.98
681.05	456.36
681.39	453.64
681.73	450.96
682.06	448.47
682.40	445.91
682.74	443.35
683.08	440.81
683.42	438.23
683.75	435.74
684.09	433.17
684.43	430.67
684.77	428.22
685.10	425.94
685.44	423.68
685.78	421.42
686.12	419.24
686.45	416.99
686.79	414.68
687.13	412.53
687.46	410.37
687.80	408.22
688.14	406.04
688.48	404.05
688.81	401.80
689.15	399.65
689.49	397.54
689.82	395.49
690.16	393.40
690.50	391.45
690.83	389.49
691.17	387.48
691.51	385.57
691.84	383.76
692.18	381.78
692.52	379.81
692.85	377.86
693.19	375.95
693.52	374.15
693.86	372.37
694.20	370.62
694.53	368.83
694.87	367.01
695.21	365.25
695.54	363.41
695.88	361.72
696.21	360.06
696.55	358.39
696.88	356.70
697.22	355.09
697.56	353.49
697.89	351.84
698.23	350.26
698.56	348.73
698.90	347.15
699.23	345.52
699.57	343.97
699.90	342.48
700.24	340.94
700.58	339.39
700.91	337.91
701.25	336.47
701.58	335.09
701.92	333.73
702.25	332.41
702.59	331.07
702.92	329.76
703.26	328.43
703.59	327.19
703.93	326.04
704.26	324.80
704.60	323.51
704.93	322.27
705.26	321.08
705.60	319.90
705.93	318.75
706.27	317.81
706.60	316.81
706.94	315.75
707.27	314.68
707.61	313.66
707.94	312.66
708.27	311.54
708.61	310.50
708.94	309.55
709.28	308.58
709.61	307.65
709.94	306.77
710.28	305.81
710.61	304.86
710.95	303.81
711.28	302.95
711.61	302.04
711.95	301.15
712.28	300.23
712.61	299.22
712.95	298.31
713.28	297.38
713.61	296.47
713.95	295.56
714.28	294.75
714.61	293.90
714.95	293.07
715.28	292.24
715.61	291.37
715.95	290.51
716.28	289.65
716.61	288.80
716.95	287.97
717.28	287.23
717.61	286.50
717.94	285.81
718.28	284.96
718.61	284.25
718.94	283.58
719.27	282.89
719.61	282.27
719.94	281.61
720.27	280.93
720.60	280.26
720.94	279.69
721.27	279.05
721.60	278.45
721.93	277.83
722.27	277.32
722.60	276.80
722.93	276.24
723.26	275.69
723.59	275.12
723.93	274.56
724.26	273.98
724.59	273.38
724.92	272.81
725.25	272.31
725.59	271.77
725.92	271.22
726.25	270.72
726.58	270.28
726.91	269.78
727.24	269.32
727.57	268.85
727.91	268.27
728.24	267.81
728.57	267.34
728.90	266.85
729.23	266.35
729.56	265.88
729.89	265.38
730.22	264.90
730.55	264.42
730.89	263.95
731.22	263.51
731.55	263.09
731.88	262.68
732.21	262.24
732.54	261.79
732.87	261.40
733.20	261.01
733.53	260.58
733.86	260.21
734.19	259.78
734.52	259.40
734.85	259.11
735.18	258.73
735.51	258.33
735.84	257.99
736.17	257.63
736.50	257.23
736.83	257.03
737.16	256.71
737.49	256.37
737.82	256.04
738.15	255.68
738.48	255.33
738.81	254.97
739.14	254.67
739.47	254.36
739.80	254.01
740.13	253.71
740.46	253.37
740.79	253.00
741.12	252.71
741.45	252.40
741.78	252.05
742.11	251.74
742.44	251.42
742.77	251.14
743.10	250.83
743.43	250.58
743.75	250.16
744.08	249.98
744.41	249.75
744.74	249.51
745.07	249.22
745.40	249.01
745.73	248.81
746.06	248.51
746.39	248.28
746.71	248.09
747.04	247.78
747.37	247.55
747.70	247.36
748.03	247.16
748.36	246.95
748.68	246.76
749.01	246.53
749.34	246.33
749.67	246.09
750.00	245.89
750.33	245.75
750.65	245.56
750.98	245.24
751.31	244.97
751.64	244.74
751.97	244.62
752.29	244.38
752.62	244.13
752.95	243.94
753.28	243.73
753.60	243.49
753.93	243.32
754.26	243.11
754.59	242.89
754.91	242.67
755.24	242.50
755.57	242.26
755.90	242.10
756.22	241.93
756.55	241.74
756.88	241.54
757.20	241.29
757.53	241.08
757.86	240.92
758.19	240.82
758.51	240.69
758.84	240.46
759.17	240.28
759.49	240.11
759.82	239.99
760.15	239.83
760.47	239.68
760.80	239.54
761.13	239.39
761.45	239.21
761.78	239.03
762.11	238.87
762.43	238.74
762.76	238.56
763.08	238.41
763.41	238.27
763.74	238.14
764.06	237.99
764.39	237.88
764.71	237.73
765.04	237.59
765.37	237.42
765.69	237.34
766.02	237.21
766.34	237.09
766.67	236.95
767.00	236.84
767.32	236.78
767.65	236.74
767.97	236.65
768.30	236.57
768.62	236.46
768.95	236.32
769.27	236.21
769.60	236.12
769.92	236.01
770.25	235.88
770.57	235.76
770.90	235.66
771.22	235.51
771.55	235.41
771.87	235.32
772.20	235.23
772.52	235.18
772.85	235.22
773.17	235.14
773.50	235.03
773.82	234.91
774.15	234.75
774.47	234.59
774.80	234.48
775.12	234.39
775.45	234.33
775.77	234.23
776.09	234.12
776.42	234.07
776.74	234.02
777.07	233.95
777.39	233.89
777.72	233.82
778.04	233.77
778.36	233.68
778.69	233.59
779.01	233.51
779.33	233.35
779.66	233.15
779.98	233.07
780.31	233.00
780.63	232.99
780.95	232.96
781.28	232.87
781.60	232.81
781.92	232.74
782.25	232.68
782.57	232.68
782.89	232.64
783.22	232.57
783.54	232.50
783.86	232.44
784.19	232.36
784.51	232.31
784.83	232.26
785.16	232.20
785.48	232.17
785.80	232.15
786.12	232.12
786.45	232.09
786.77	232.03
787.09	231.95
