SpectraSuite Data File
++++++++++++++++++++++++++++++++++++
Date: Fri Feb 01 15:56:05 EST 2013
User: group
Dark Spectrum Present: No
Reference Spectrum Present: No
Number of Sampled Component Spectra: 1
Spectrometers: USB2E7196
Integration Time (usec): 35000 (USB2E7196)
Spectra Averaged: 100 (USB2E7196)
Boxcar Smoothing: 10 (USB2E7196)
Correct for Electrical Dark: No (USB2E7196)
Strobe/Lamp Enabled: No (USB2E7196)
Correct for Detector Non-linearity: No (USB2E7196)
Correct for Stray Light: No (USB2E7196)
Number of Pixels in Processed Spectrum: 2048
>>>>>Begin Processed Spectral Data<<<<<
339.09	0.00
339.48	214.84
339.86	215.99
340.24	217.45
340.63	218.87
341.01	221.95
341.39	221.61
341.78	222.57
342.16	224.00
342.54	224.44
342.93	212.83
343.31	223.55
343.69	224.10
344.07	224.57
344.46	225.02
344.84	225.38
345.22	225.58
345.60	225.82
345.99	226.01
346.37	226.16
346.75	226.24
347.13	226.33
347.52	226.37
347.90	226.46
348.28	226.50
348.66	226.54
349.05	226.54
349.43	226.59
349.81	226.68
350.19	226.72
350.57	226.78
350.96	226.90
351.34	227.02
351.72	227.08
352.10	227.18
352.48	227.23
352.87	227.29
353.25	227.38
353.63	227.42
354.01	227.51
354.39	227.60
354.77	227.70
355.15	227.82
355.54	227.88
355.92	227.92
356.30	228.01
356.68	228.17
357.06	228.25
357.44	228.32
357.82	228.37
358.20	228.46
358.58	228.53
358.97	228.58
359.35	228.64
359.73	228.73
360.11	228.79
360.49	228.86
360.87	228.96
361.25	229.03
361.63	229.13
362.01	229.17
362.39	229.18
362.77	229.21
363.15	229.21
363.53	229.27
363.91	229.30
364.29	229.35
364.67	229.28
365.05	229.31
365.43	229.34
365.81	229.36
366.19	229.40
366.57	229.43
366.95	229.42
367.33	229.41
367.71	229.41
368.09	229.40
368.47	229.37
368.85	229.32
369.23	229.28
369.61	229.23
369.99	229.22
370.37	229.20
370.75	229.21
371.13	229.19
371.51	229.14
371.89	229.14
372.27	229.09
372.65	229.03
373.03	228.98
373.41	228.93
373.78	228.89
374.16	228.76
374.54	228.62
374.92	228.56
375.30	228.50
375.68	228.41
376.06	228.34
376.44	228.27
376.82	228.21
377.19	228.15
377.57	228.05
377.95	227.97
378.33	227.88
378.71	227.76
379.09	227.70
379.47	227.63
379.84	227.54
380.22	227.42
380.60	227.35
380.98	227.24
381.36	227.17
381.73	227.06
382.11	227.05
382.49	227.01
382.87	226.93
383.25	226.87
383.62	226.90
384.00	226.81
384.38	226.76
384.76	226.74
385.13	226.71
385.51	226.66
385.89	226.57
386.27	226.54
386.64	226.53
387.02	226.46
387.40	226.39
387.78	226.33
388.15	226.32
388.53	226.27
388.91	226.27
389.29	226.23
389.66	226.23
390.04	226.18
390.42	226.18
390.79	226.16
391.17	226.14
391.55	226.06
391.92	226.05
392.30	226.07
392.68	226.03
393.05	226.03
393.43	226.03
393.81	226.08
394.18	226.09
394.56	226.07
394.94	226.10
395.31	226.12
395.69	226.17
396.06	226.18
396.44	226.22
396.82	226.25
397.19	226.31
397.57	226.33
397.95	226.39
398.32	226.40
398.70	226.47
399.07	226.56
399.45	226.62
399.82	226.72
400.20	226.79
400.58	226.86
400.95	226.94
401.33	227.04
401.70	227.18
402.08	227.28
402.45	227.36
402.83	227.46
403.20	227.59
403.58	227.70
403.95	227.87
404.33	227.99
404.71	228.10
405.08	228.31
405.46	228.43
405.83	228.57
406.21	228.77
406.58	228.94
406.96	229.10
407.33	229.26
407.70	229.45
408.08	229.70
408.45	229.93
408.83	230.14
409.20	230.37
409.58	230.54
409.95	230.82
410.33	231.10
410.70	231.37
411.08	231.67
411.45	232.01
411.82	232.29
412.20	232.66
412.57	233.07
412.95	233.38
413.32	233.80
413.69	234.19
414.07	234.60
414.44	235.05
414.82	235.51
415.19	236.08
415.56	236.63
415.94	237.15
416.31	237.81
416.68	238.47
417.06	239.22
417.43	239.90
417.81	240.65
418.18	241.41
418.55	242.24
418.93	243.14
419.30	243.99
419.67	244.95
420.04	245.91
420.42	246.94
420.79	248.11
421.16	249.26
421.54	250.49
421.91	251.72
422.28	252.99
422.66	254.31
423.03	255.61
423.40	256.94
423.77	258.36
424.15	259.76
424.52	261.24
424.89	262.80
425.26	264.33
425.64	265.79
426.01	267.40
426.38	269.05
426.75	270.67
427.13	272.40
427.50	274.18
427.87	276.09
428.24	277.93
428.61	279.66
428.99	281.61
429.36	283.68
429.73	285.76
430.10	287.81
430.47	289.88
430.85	292.00
431.22	294.26
431.59	296.61
431.96	298.83
432.33	301.29
432.70	303.68
433.08	306.52
433.45	309.16
433.82	311.78
434.19	314.70
434.56	317.52
434.93	320.18
435.30	322.79
435.68	325.66
436.05	328.49
436.42	331.29
436.79	333.78
437.16	336.47
437.53	339.30
437.90	342.12
438.27	344.86
438.64	347.69
439.01	350.22
439.38	352.48
439.75	354.66
440.13	357.19
440.50	359.48
440.87	361.32
441.24	363.20
441.61	365.34
441.98	366.81
442.35	368.62
442.72	370.49
443.09	372.30
443.46	373.25
443.83	373.84
444.20	374.32
444.57	375.18
444.94	375.48
445.31	375.79
445.68	376.11
446.05	376.15
446.42	375.77
446.79	375.37
447.16	374.90
447.53	374.53
447.90	373.34
448.27	372.21
448.64	370.60
449.01	369.50
449.37	367.54
449.74	365.61
450.11	363.35
450.48	360.85
450.85	358.34
451.22	356.19
451.59	354.19
451.96	352.27
452.33	349.63
452.70	347.29
453.07	344.45
453.43	341.55
453.80	338.81
454.17	336.11
454.54	333.58
454.91	330.87
455.28	328.21
455.65	325.70
456.02	323.23
456.38	321.10
456.75	318.40
457.12	316.12
457.49	313.90
457.86	311.74
458.23	309.86
458.59	307.79
458.96	305.70
459.33	303.82
459.70	301.97
460.07	300.48
460.43	298.73
460.80	297.09
461.17	295.66
461.54	294.14
461.91	292.75
462.27	291.33
462.64	290.11
463.01	288.79
463.38	287.52
463.74	286.19
464.11	285.06
464.48	284.10
464.85	282.99
465.21	282.19
465.58	281.25
465.95	280.19
466.32	279.29
466.68	278.42
467.05	277.51
467.42	276.59
467.78	275.68
468.15	274.82
468.52	274.18
468.88	273.31
469.25	272.58
469.62	271.93
469.98	271.22
470.35	270.57
470.72	269.96
471.08	269.32
471.45	268.75
471.82	268.18
472.18	267.56
472.55	267.12
472.92	266.56
473.28	266.09
473.65	265.64
474.02	265.22
474.38	264.85
474.75	264.56
475.11	264.22
475.48	263.99
475.85	263.77
476.21	263.54
476.58	263.37
476.94	263.21
477.31	263.06
477.67	262.91
478.04	262.80
478.41	262.74
478.77	262.76
479.14	262.71
479.50	262.76
479.87	262.83
480.23	262.96
480.60	263.04
480.96	263.17
481.33	263.43
481.69	263.60
482.06	263.83
482.42	264.01
482.79	264.32
483.15	264.61
483.52	264.98
483.88	265.35
484.25	265.74
484.61	266.17
484.98	266.60
485.34	267.17
485.71	267.77
486.07	268.37
486.44	268.95
486.80	269.64
487.17	270.36
487.53	271.18
487.90	272.00
488.26	272.93
488.62	273.88
488.99	274.81
489.35	275.87
489.72	276.98
490.08	278.20
490.44	279.38
490.81	280.68
491.17	282.03
491.54	283.54
491.90	285.09
492.26	286.74
492.63	288.51
492.99	290.32
493.36	292.25
493.72	294.26
494.08	296.37
494.45	298.64
494.81	300.96
495.17	303.38
495.54	305.97
495.90	308.70
496.26	311.53
496.63	314.48
496.99	317.62
497.35	320.87
497.72	324.26
498.08	327.82
498.44	331.44
498.80	335.37
499.17	339.37
499.53	343.50
499.89	347.86
500.26	352.30
500.62	356.93
500.98	361.86
501.34	366.96
501.71	372.23
502.07	377.70
502.43	383.39
502.79	389.20
503.16	395.26
503.52	401.50
503.88	407.89
504.24	414.54
504.60	421.38
504.97	428.52
505.33	435.80
505.69	443.45
506.05	451.30
506.41	459.15
506.78	467.30
507.14	475.72
507.50	484.43
507.86	493.49
508.22	502.70
508.59	511.96
508.95	521.58
509.31	531.43
509.67	541.50
510.03	551.73
510.39	562.30
510.75	573.14
511.12	584.15
511.48	595.49
511.84	606.88
512.20	618.45
512.56	630.33
512.92	642.53
513.28	654.89
513.64	667.34
514.00	680.12
514.37	693.10
514.73	706.24
515.09	719.31
515.45	732.59
515.81	746.11
516.17	760.11
516.53	774.26
516.89	788.37
517.25	802.57
517.61	817.03
517.97	831.46
518.33	845.79
518.69	860.51
519.05	875.48
519.41	890.73
519.77	906.26
520.13	921.74
520.49	937.15
520.85	952.62
521.21	968.41
521.57	984.74
521.93	1000.43
522.29	1016.81
522.65	1032.99
523.01	1049.15
523.37	1065.22
523.73	1081.26
524.09	1097.26
524.45	1113.64
524.81	1130.17
525.17	1146.88
525.53	1163.77
525.89	1180.68
526.25	1197.50
526.61	1213.82
526.97	1230.50
527.33	1246.85
527.68	1263.49
528.04	1279.92
528.40	1296.46
528.76	1313.40
529.12	1329.84
529.48	1346.71
529.84	1362.63
530.20	1379.35
530.56	1396.49
530.91	1413.89
531.27	1430.69
531.63	1447.17
531.99	1463.67
532.35	1479.60
532.71	1495.71
533.07	1511.96
533.42	1527.78
533.78	1543.78
534.14	1560.13
534.50	1575.38
534.86	1591.33
535.21	1606.42
535.57	1622.42
535.93	1637.98
536.29	1652.82
536.65	1667.87
537.00	1682.60
537.36	1697.89
537.72	1712.41
538.08	1726.72
538.44	1740.44
538.79	1754.28
539.15	1767.94
539.51	1781.58
539.87	1795.97
540.22	1809.52
540.58	1823.12
540.94	1836.40
541.29	1849.22
541.65	1861.72
542.01	1875.00
542.37	1887.19
542.72	1899.67
543.08	1911.25
543.44	1923.41
543.79	1934.48
544.15	1945.42
544.51	1957.06
544.87	1968.00
545.22	1978.63
545.58	1988.81
545.94	1998.54
546.29	2008.36
546.65	2018.08
547.01	2027.46
547.36	2036.04
547.72	2044.38
548.07	2052.27
548.43	2060.38
548.79	2068.46
549.14	2075.98
549.50	2083.30
549.86	2091.03
550.21	2098.28
550.57	2105.64
550.92	2112.24
551.28	2119.37
551.64	2126.45
551.99	2132.86
552.35	2139.07
552.70	2145.38
553.06	2151.30
553.41	2157.73
553.77	2163.74
554.13	2169.86
554.48	2175.97
554.84	2181.48
555.19	2186.92
555.55	2192.22
555.90	2196.78
556.26	2201.61
556.61	2206.36
556.97	2210.60
557.32	2214.77
557.68	2218.95
558.03	2223.14
558.39	2226.99
558.74	2231.64
559.10	2235.51
559.45	2239.20
559.81	2243.49
560.16	2247.30
560.52	2250.53
560.87	2253.88
561.23	2256.64
561.58	2259.62
561.94	2262.02
562.29	2264.37
562.64	2266.96
563.00	2269.42
563.35	2272.93
563.71	2276.09
564.06	2279.36
564.42	2282.19
564.77	2284.65
565.12	2286.89
565.48	2288.80
565.83	2290.63
566.19	2291.81
566.54	2292.73
566.89	2293.94
567.25	2294.36
567.60	2295.59
567.96	2297.33
568.31	2298.17
568.66	2299.30
569.02	2299.82
569.37	2300.25
569.72	2301.12
570.08	2301.27
570.43	2301.39
570.78	2300.70
571.14	2299.07
571.49	2297.74
571.84	2297.52
572.20	2296.46
572.55	2295.35
572.90	2293.77
573.26	2292.41
573.61	2290.78
573.96	2288.95
574.31	2285.92
574.67	2283.06
575.02	2279.45
575.37	2276.03
575.72	2272.33
576.08	2269.03
576.43	2265.76
576.78	2262.01
577.13	2258.89
577.49	2255.83
577.84	2252.26
578.19	2248.61
578.54	2245.04
578.90	2240.83
579.25	2235.31
579.60	2230.24
579.95	2225.21
580.30	2220.23
580.66	2215.05
581.01	2210.14
581.36	2205.28
581.71	2201.18
582.06	2196.75
582.42	2192.30
582.77	2187.00
583.12	2182.35
583.47	2177.44
583.82	2172.31
584.17	2167.10
584.53	2161.53
584.88	2155.90
585.23	2150.12
585.58	2144.74
585.93	2139.36
586.28	2134.58
586.63	2129.46
586.98	2124.53
587.34	2119.70
587.69	2114.88
588.04	2109.61
588.39	2103.95
588.74	2097.51
589.09	2091.36
589.44	2084.52
589.79	2078.49
590.14	2073.04
590.49	2066.47
590.84	2060.00
591.19	2054.16
591.54	2047.75
591.89	2040.48
592.25	2033.63
592.60	2026.45
592.95	2018.77
593.30	2011.26
593.65	2003.59
594.00	1996.52
594.35	1989.23
594.70	1981.47
595.05	1974.16
595.40	1966.92
595.75	1959.44
596.10	1953.15
596.45	1946.32
596.80	1940.23
597.15	1933.48
597.50	1926.21
597.85	1919.78
598.19	1913.33
598.54	1906.04
598.89	1899.47
599.24	1893.56
599.59	1886.82
599.94	1880.67
600.29	1874.36
600.64	1867.84
600.99	1860.41
601.34	1853.58
601.69	1846.61
602.04	1839.66
602.39	1832.30
602.74	1825.45
603.08	1818.82
603.43	1812.09
603.78	1804.82
604.13	1797.66
604.48	1790.50
604.83	1783.80
605.18	1776.76
605.53	1768.73
605.87	1760.79
606.22	1753.51
606.57	1745.54
606.92	1738.35
607.27	1731.16
607.62	1724.32
607.96	1717.07
608.31	1710.57
608.66	1702.96
609.01	1695.38
609.36	1687.84
609.70	1679.90
610.05	1671.76
610.40	1663.89
610.75	1655.48
611.10	1647.80
611.44	1639.32
611.79	1631.27
612.14	1622.56
612.49	1613.41
612.83	1605.07
613.18	1596.97
613.53	1588.92
613.88	1580.33
614.22	1571.96
614.57	1563.33
614.92	1555.16
615.27	1547.57
615.61	1539.14
615.96	1531.14
616.31	1523.58
616.65	1516.20
617.00	1508.48
617.35	1500.91
617.70	1492.64
618.04	1484.30
618.39	1476.09
618.74	1468.46
619.08	1460.23
619.43	1452.68
619.78	1445.86
620.12	1438.70
620.47	1431.20
620.82	1423.05
621.16	1415.74
621.51	1408.16
621.85	1400.59
622.20	1392.16
622.55	1383.78
622.89	1376.01
623.24	1368.46
623.59	1361.09
623.93	1353.55
624.28	1346.46
624.62	1338.87
624.97	1331.66
625.32	1324.86
625.66	1317.92
626.01	1310.71
626.35	1303.25
626.70	1295.45
627.04	1287.60
627.39	1279.81
627.73	1272.47
628.08	1265.57
628.43	1258.23
628.77	1250.82
629.12	1243.19
629.46	1236.04
629.81	1228.75
630.15	1221.53
630.50	1214.07
630.84	1205.80
631.19	1197.85
631.53	1190.29
631.88	1182.70
632.22	1175.16
632.57	1167.82
632.91	1160.19
633.26	1152.85
633.60	1145.50
633.95	1138.39
634.29	1131.52
634.64	1124.80
634.98	1117.38
635.32	1110.06
635.67	1103.45
636.01	1096.91
636.36	1090.11
636.70	1083.62
637.05	1077.01
637.39	1070.50
637.73	1063.97
638.08	1058.19
638.42	1052.25
638.77	1045.71
639.11	1039.16
639.45	1032.67
639.80	1026.02
640.14	1019.57
640.49	1012.96
640.83	1006.56
641.17	1000.27
641.52	993.77
641.86	987.35
642.20	981.44
642.55	975.13
642.89	968.66
643.23	962.08
643.58	956.45
643.92	950.23
644.26	944.09
644.61	938.09
644.95	932.00
645.29	925.32
645.64	918.60
645.98	912.35
646.32	906.54
646.66	900.60
647.01	894.78
647.35	889.11
647.69	883.29
648.04	877.75
648.38	872.04
648.72	866.13
649.06	860.07
649.41	854.27
649.75	848.45
650.09	842.54
650.43	836.80
650.78	830.58
651.12	824.63
651.46	818.97
651.80	813.17
652.14	807.80
652.49	802.41
652.83	797.21
653.17	791.49
653.51	785.77
653.85	780.33
654.20	774.67
654.54	768.66
654.88	762.97
655.22	757.11
655.56	751.43
655.90	745.99
656.25	740.79
656.59	735.49
656.93	730.36
657.27	725.15
657.61	719.70
657.95	714.50
658.29	709.43
658.64	704.11
658.98	698.81
659.32	693.34
659.66	688.17
660.00	682.83
660.34	677.93
660.68	673.08
661.02	668.11
661.36	663.41
661.70	658.91
662.05	654.56
662.39	650.25
662.73	645.75
663.07	641.31
663.41	636.77
663.75	632.18
664.09	627.62
664.43	623.25
664.77	619.10
665.11	614.87
665.45	610.72
665.79	606.60
666.13	602.49
666.47	598.44
666.81	594.28
667.15	590.16
667.49	586.27
667.83	582.37
668.17	578.38
668.51	574.29
668.85	570.27
669.19	566.47
669.53	562.58
669.87	558.76
670.21	555.09
670.55	551.47
670.89	548.03
671.23	544.60
671.57	541.07
671.91	537.50
672.25	534.05
672.58	530.56
672.92	527.20
673.26	524.04
673.60	520.87
673.94	517.75
674.28	514.83
674.62	511.85
674.96	508.75
675.30	505.82
675.64	502.94
675.97	500.16
676.31	497.28
676.65	494.34
676.99	491.61
677.33	488.75
677.67	485.96
678.01	482.92
678.34	479.93
678.68	477.07
679.02	474.26
679.36	471.51
679.70	468.72
680.04	465.94
680.37	463.06
680.71	460.22
681.05	457.62
681.39	454.86
681.73	452.19
682.06	449.70
682.40	447.13
682.74	444.58
683.08	441.98
683.42	439.32
683.75	436.83
684.09	434.24
684.43	431.77
684.77	429.28
685.10	426.95
685.44	424.65
685.78	422.35
686.12	420.11
686.45	417.79
686.79	415.49
687.13	413.32
687.46	411.16
687.80	409.03
688.14	406.76
688.48	404.74
688.81	402.51
689.15	400.31
689.49	398.21
689.82	396.14
690.16	394.08
690.50	392.20
690.83	390.27
691.17	388.29
691.51	386.35
691.84	384.51
692.18	382.59
692.52	380.59
692.85	378.70
693.19	376.82
693.52	375.02
693.86	373.21
694.20	371.43
694.53	369.60
694.87	367.78
695.21	366.02
695.54	364.20
695.88	362.47
696.21	360.75
696.55	359.03
696.88	357.33
697.22	355.66
697.56	354.05
697.89	352.38
698.23	350.77
698.56	349.14
698.90	347.60
699.23	345.95
699.57	344.45
699.90	342.87
700.24	341.35
700.58	339.80
700.91	338.31
701.25	336.89
701.58	335.51
701.92	334.16
702.25	332.79
702.59	331.42
702.92	330.10
703.26	328.81
703.59	327.59
703.93	326.43
704.26	325.23
704.60	323.91
704.93	322.67
705.26	321.49
705.60	320.34
705.93	319.16
706.27	318.13
706.60	317.08
706.94	316.05
707.27	314.91
707.61	313.90
707.94	312.89
708.27	311.80
708.61	310.74
708.94	309.72
709.28	308.74
709.61	307.79
709.94	306.86
710.28	305.85
710.61	304.85
710.95	303.78
711.28	302.88
711.61	301.94
711.95	301.00
712.28	300.01
712.61	299.05
712.95	298.14
713.28	297.26
713.61	296.35
713.95	295.43
714.28	294.58
714.61	293.70
714.95	292.86
715.28	292.01
715.61	291.15
715.95	290.31
716.28	289.48
716.61	288.66
716.95	287.86
717.28	287.12
717.61	286.33
717.94	285.59
718.28	284.75
718.61	284.03
718.94	283.32
719.27	282.67
719.61	282.02
719.94	281.35
720.27	280.65
720.60	279.96
720.94	279.34
721.27	278.72
721.60	278.15
721.93	277.52
722.27	276.99
722.60	276.43
722.93	275.83
723.26	275.27
723.59	274.70
723.93	274.16
724.26	273.60
724.59	273.04
724.92	272.52
725.25	272.02
725.59	271.49
725.92	270.97
726.25	270.46
726.58	269.99
726.91	269.48
727.24	269.01
727.57	268.55
727.91	268.02
728.24	267.59
728.57	267.06
728.90	266.61
729.23	266.11
729.56	265.65
729.89	265.20
730.22	264.72
730.55	264.29
730.89	263.82
731.22	263.37
731.55	262.95
731.88	262.51
732.21	262.09
732.54	261.65
732.87	261.28
733.20	260.87
733.53	260.45
733.86	260.08
734.19	259.68
734.52	259.30
734.85	259.01
735.18	258.60
735.51	258.28
735.84	257.95
736.17	257.61
736.50	257.22
736.83	256.97
737.16	256.63
737.49	256.28
737.82	255.96
738.15	255.64
738.48	255.32
738.81	255.00
739.14	254.64
739.47	254.34
739.80	254.00
740.13	253.71
740.46	253.38
740.79	253.02
741.12	252.70
741.45	252.36
741.78	252.01
742.11	251.70
742.44	251.35
742.77	251.03
743.10	250.73
743.43	250.43
743.75	250.07
744.08	249.93
744.41	249.59
744.74	249.30
745.07	249.00
745.40	248.75
745.73	248.50
746.06	248.26
746.39	247.97
746.71	247.72
747.04	247.42
747.37	247.18
747.70	246.97
748.03	246.72
748.36	246.54
748.68	246.29
749.01	246.02
749.34	245.80
749.67	245.54
750.00	245.35
750.33	245.23
750.65	245.02
750.98	244.70
751.31	244.55
751.64	244.35
751.97	244.16
752.29	243.94
752.62	243.70
752.95	243.50
753.28	243.30
753.60	243.10
753.93	242.95
754.26	242.73
754.59	242.51
754.91	242.31
755.24	242.11
755.57	241.93
755.90	241.78
756.22	241.59
756.55	241.41
756.88	241.18
757.20	240.93
757.53	240.73
757.86	240.52
758.19	240.36
758.51	240.17
758.84	239.98
759.17	239.79
759.49	239.62
759.82	239.50
760.15	239.33
760.47	239.17
760.80	239.01
761.13	238.91
761.45	238.71
761.78	238.56
762.11	238.40
762.43	238.23
762.76	238.08
763.08	237.96
763.41	237.85
763.74	237.74
764.06	237.61
764.39	237.50
764.71	237.36
765.04	237.19
765.37	237.07
765.69	236.93
766.02	236.79
766.34	236.70
766.67	236.50
767.00	236.43
767.32	236.36
767.65	236.29
767.97	236.15
768.30	236.07
768.62	235.94
768.95	235.81
769.27	235.71
769.60	235.61
769.92	235.49
770.25	235.35
770.57	235.25
770.90	235.11
771.22	234.99
771.55	234.90
771.87	234.81
772.20	234.67
772.52	234.68
772.85	234.72
773.17	234.61
773.50	234.58
773.82	234.49
774.15	234.36
774.47	234.20
774.80	234.11
775.12	234.02
775.45	233.97
775.77	233.91
776.09	233.81
776.42	233.74
776.74	233.71
777.07	233.65
777.39	233.54
777.72	233.50
778.04	233.46
778.36	233.38
778.69	233.30
779.01	233.30
779.33	233.13
779.66	232.94
779.98	232.85
780.31	232.75
780.63	232.73
780.95	232.66
781.28	232.60
781.60	232.52
781.92	232.47
782.25	232.40
782.57	232.32
782.89	232.29
783.22	232.22
783.54	232.12
783.86	232.07
784.19	232.00
784.51	231.96
784.83	231.86
785.16	231.82
785.48	231.79
785.80	231.72
786.12	231.69
786.45	231.65
786.77	231.62
787.09	231.54
