SpectraSuite Data File
++++++++++++++++++++++++++++++++++++
Date: Fri Feb 01 17:33:08 EST 2013
User: group
Dark Spectrum Present: No
Reference Spectrum Present: No
Number of Sampled Component Spectra: 1
Spectrometers: USB2E7196
Integration Time (usec): 35000 (USB2E7196)
Spectra Averaged: 100 (USB2E7196)
Boxcar Smoothing: 10 (USB2E7196)
Correct for Electrical Dark: No (USB2E7196)
Strobe/Lamp Enabled: No (USB2E7196)
Correct for Detector Non-linearity: No (USB2E7196)
Correct for Stray Light: No (USB2E7196)
Number of Pixels in Processed Spectrum: 2048
>>>>>Begin Processed Spectral Data<<<<<
339.09	0.00
339.48	213.23
339.86	214.46
340.24	215.50
340.63	217.29
341.01	219.66
341.39	219.71
341.78	220.90
342.16	222.42
342.54	222.32
342.93	211.30
343.31	221.97
343.69	222.48
344.07	222.96
344.46	223.39
344.84	223.77
345.22	224.01
345.60	224.26
345.99	224.45
346.37	224.58
346.75	224.73
347.13	224.79
347.52	224.86
347.90	224.96
348.28	224.99
348.66	225.04
349.05	225.05
349.43	225.06
349.81	225.09
350.19	225.13
350.57	225.19
350.96	225.29
351.34	225.39
351.72	225.49
352.10	225.59
352.48	225.68
352.87	225.73
353.25	225.81
353.63	225.86
354.01	225.97
354.39	226.05
354.77	226.12
355.15	226.23
355.54	226.29
355.92	226.29
356.30	226.36
356.68	226.53
357.06	226.59
357.44	226.66
357.82	226.75
358.20	226.82
358.58	226.87
358.97	226.93
359.35	226.99
359.73	227.08
360.11	227.13
360.49	227.16
360.87	227.20
361.25	227.26
361.63	227.33
362.01	227.36
362.39	227.41
362.77	227.41
363.15	227.41
363.53	227.47
363.91	227.49
364.29	227.51
364.67	227.41
365.05	227.44
365.43	227.48
365.81	227.49
366.19	227.51
366.57	227.58
366.95	227.55
367.33	227.52
367.71	227.51
368.09	227.50
368.47	227.50
368.85	227.48
369.23	227.46
369.61	227.43
369.99	227.41
370.37	227.37
370.75	227.44
371.13	227.40
371.51	227.31
371.89	227.31
372.27	227.28
372.65	227.23
373.03	227.20
373.41	227.11
373.78	227.03
374.16	226.93
374.54	226.82
374.92	226.75
375.30	226.71
375.68	226.63
376.06	226.59
376.44	226.50
376.82	226.46
377.19	226.43
377.57	226.34
377.95	226.24
378.33	226.13
378.71	225.95
379.09	225.90
379.47	225.87
379.84	225.79
380.22	225.70
380.60	225.64
380.98	225.52
381.36	225.44
381.73	225.36
382.11	225.34
382.49	225.26
382.87	225.19
383.25	225.13
383.62	225.18
384.00	225.12
384.38	225.09
384.76	225.04
385.13	225.01
385.51	224.99
385.89	224.96
386.27	224.95
386.64	224.97
387.02	224.93
387.40	224.85
387.78	224.81
388.15	224.79
388.53	224.73
388.91	224.72
389.29	224.71
389.66	224.72
390.04	224.67
390.42	224.66
390.79	224.63
391.17	224.60
391.55	224.47
391.92	224.44
392.30	224.44
392.68	224.39
393.05	224.39
393.43	224.35
393.81	224.35
394.18	224.38
394.56	224.37
394.94	224.38
395.31	224.42
395.69	224.49
396.06	224.50
396.44	224.55
396.82	224.57
397.19	224.65
397.57	224.66
397.95	224.71
398.32	224.73
398.70	224.82
399.07	224.89
399.45	224.96
399.82	225.03
400.20	225.06
400.58	225.12
400.95	225.13
401.33	225.24
401.70	225.39
402.08	225.47
402.45	225.54
402.83	225.64
403.20	225.73
403.58	225.84
403.95	226.00
404.33	226.16
404.71	226.28
405.08	226.46
405.46	226.63
405.83	226.79
406.21	226.93
406.58	227.08
406.96	227.23
407.33	227.38
407.70	227.54
408.08	227.84
408.45	228.09
408.83	228.33
409.20	228.56
409.58	228.72
409.95	228.95
410.33	229.23
410.70	229.48
411.08	229.81
411.45	230.08
411.82	230.38
412.20	230.73
412.57	231.13
412.95	231.45
413.32	231.83
413.69	232.25
414.07	232.74
414.44	233.20
414.82	233.69
415.19	234.28
415.56	234.86
415.94	235.41
416.31	236.08
416.68	236.71
417.06	237.42
417.43	238.12
417.81	238.89
418.18	239.70
418.55	240.61
418.93	241.46
419.30	242.40
419.67	243.37
420.04	244.34
420.42	245.40
420.79	246.61
421.16	247.81
421.54	249.06
421.91	250.30
422.28	251.64
422.66	253.02
423.03	254.38
423.40	255.75
423.77	257.21
424.15	258.65
424.52	260.22
424.89	261.90
425.26	263.54
425.64	265.09
426.01	266.75
426.38	268.46
426.75	270.21
427.13	272.03
427.50	273.91
427.87	275.92
428.24	277.86
428.61	279.64
428.99	281.66
429.36	283.85
429.73	285.99
430.10	288.10
430.47	290.28
430.85	292.52
431.22	294.90
431.59	297.36
431.96	299.72
432.33	302.35
432.70	304.83
433.08	307.74
433.45	310.54
433.82	313.25
434.19	316.23
434.56	319.17
434.93	321.92
435.30	324.61
435.68	327.56
436.05	330.51
436.42	333.49
436.79	336.12
437.16	338.91
437.53	341.87
437.90	344.82
438.27	347.65
438.64	350.62
439.01	353.29
439.38	355.67
439.75	357.93
440.13	360.50
440.50	362.92
440.87	364.87
441.24	366.85
441.61	369.08
441.98	370.66
442.35	372.57
442.72	374.52
443.09	376.44
443.46	377.48
443.83	378.11
444.20	378.64
444.57	379.54
444.94	379.85
445.31	380.21
445.68	380.57
446.05	380.68
446.42	380.25
446.79	379.84
447.16	379.40
447.53	379.11
447.90	377.94
448.27	376.81
448.64	375.23
449.01	374.07
449.37	372.12
449.74	370.19
450.11	367.84
450.48	365.32
450.85	362.68
451.22	360.47
451.59	358.39
451.96	356.38
452.33	353.71
452.70	351.30
453.07	348.38
453.43	345.36
453.80	342.49
454.17	339.70
454.54	337.02
454.91	334.15
455.28	331.38
455.65	328.81
456.02	326.23
456.38	323.96
456.75	321.18
457.12	318.76
457.49	316.40
457.86	314.10
458.23	312.13
458.59	310.01
458.96	307.84
459.33	305.90
459.70	303.92
460.07	302.32
460.43	300.51
460.80	298.84
461.17	297.33
461.54	295.75
461.91	294.26
462.27	292.80
462.64	291.51
463.01	290.04
463.38	288.63
463.74	287.16
464.11	285.93
464.48	284.88
464.85	283.78
465.21	282.90
465.58	281.96
465.95	280.85
466.32	279.93
466.68	279.01
467.05	278.07
467.42	277.14
467.78	276.18
468.15	275.26
468.52	274.53
468.88	273.64
469.25	272.82
469.62	272.19
469.98	271.43
470.35	270.78
470.72	270.15
471.08	269.45
471.45	268.91
471.82	268.34
472.18	267.69
472.55	267.21
472.92	266.66
473.28	266.19
473.65	265.68
474.02	265.21
474.38	264.83
474.75	264.47
475.11	264.11
475.48	263.86
475.85	263.63
476.21	263.44
476.58	263.26
476.94	263.16
477.31	263.00
477.67	262.89
478.04	262.74
478.41	262.73
478.77	262.82
479.14	262.79
479.50	262.80
479.87	262.86
480.23	262.94
480.60	263.00
480.96	263.06
481.33	263.31
481.69	263.48
482.06	263.66
482.42	263.86
482.79	264.11
483.15	264.41
483.52	264.77
483.88	265.09
484.25	265.48
484.61	265.89
484.98	266.32
485.34	266.87
485.71	267.46
486.07	268.04
486.44	268.56
486.80	269.23
487.17	269.94
487.53	270.76
487.90	271.62
488.26	272.60
488.62	273.61
488.99	274.59
489.35	275.66
489.72	276.80
490.08	278.00
490.44	279.26
490.81	280.56
491.17	281.92
491.54	283.39
491.90	284.92
492.26	286.54
492.63	288.28
492.99	290.04
493.36	291.94
493.72	293.98
494.08	296.13
494.45	298.38
494.81	300.76
495.17	303.22
495.54	305.78
495.90	308.43
496.26	311.19
496.63	314.11
496.99	317.16
497.35	320.38
497.72	323.77
498.08	327.21
498.44	330.85
498.80	334.78
499.17	338.79
499.53	342.88
499.89	347.23
500.26	351.69
500.62	356.27
500.98	361.20
501.34	366.22
501.71	371.47
502.07	376.81
502.43	382.34
502.79	388.02
503.16	393.96
503.52	400.12
503.88	406.45
504.24	413.03
504.60	419.80
504.97	426.85
505.33	434.09
505.69	441.73
506.05	449.42
506.41	457.07
506.78	465.07
507.14	473.45
507.50	481.99
507.86	490.82
508.22	499.87
508.59	508.89
508.95	518.27
509.31	527.86
509.67	537.77
510.03	547.77
510.39	558.19
510.75	568.82
511.12	579.56
511.48	590.62
511.84	601.76
512.20	612.96
512.56	624.58
512.92	636.39
513.28	648.40
513.64	660.52
514.00	672.97
514.37	685.56
514.73	698.24
515.09	710.90
515.45	723.85
515.81	737.06
516.17	750.62
516.53	764.35
516.89	778.14
517.25	791.97
517.61	806.10
517.97	820.03
518.33	834.01
518.69	848.30
519.05	862.84
519.41	877.58
519.77	892.71
520.13	907.62
520.49	922.59
520.85	937.54
521.21	952.75
521.57	968.52
521.93	983.83
522.29	999.66
522.65	1015.47
523.01	1031.14
523.37	1046.77
523.73	1062.45
524.09	1078.07
524.45	1093.82
524.81	1109.92
525.17	1126.05
525.53	1142.48
525.89	1158.83
526.25	1175.23
526.61	1191.11
526.97	1207.41
527.33	1223.46
527.68	1239.50
528.04	1255.55
528.40	1271.63
528.76	1288.16
529.12	1304.20
529.48	1320.62
529.84	1336.18
530.20	1352.28
530.56	1368.70
530.91	1385.37
531.27	1401.81
531.63	1417.75
531.99	1433.97
532.35	1449.51
532.71	1465.12
533.07	1480.82
533.42	1496.31
533.78	1511.82
534.14	1527.84
534.50	1542.75
534.86	1558.18
535.21	1573.17
535.57	1588.62
535.93	1603.66
536.29	1618.17
536.65	1632.88
537.00	1647.26
537.36	1662.39
537.72	1676.64
538.08	1690.95
538.44	1704.72
538.79	1718.21
539.15	1731.57
539.51	1744.96
539.87	1759.09
540.22	1772.53
540.58	1786.15
540.94	1799.18
541.29	1811.88
541.65	1824.13
542.01	1837.15
542.37	1849.44
542.72	1861.52
543.08	1873.37
543.44	1885.78
543.79	1897.04
544.15	1908.05
544.51	1919.65
544.87	1930.48
545.22	1941.31
545.58	1951.51
545.94	1961.25
546.29	1971.34
546.65	1981.36
547.01	1990.78
547.36	1999.52
547.72	2008.07
548.07	2016.11
548.43	2024.54
548.79	2032.53
549.14	2040.44
549.50	2047.98
549.86	2055.59
550.21	2063.17
550.57	2070.46
550.92	2077.30
551.28	2084.62
551.64	2091.91
551.99	2098.62
552.35	2104.94
552.70	2111.34
553.06	2117.51
553.41	2124.19
553.77	2130.25
554.13	2136.59
554.48	2142.93
554.84	2148.90
555.19	2154.48
555.55	2159.99
555.90	2164.79
556.26	2170.18
556.61	2175.13
556.97	2179.95
557.32	2184.57
557.68	2189.06
558.03	2193.70
558.39	2197.57
558.74	2202.41
559.10	2206.63
559.45	2210.74
559.81	2215.39
560.16	2219.47
560.52	2223.12
560.87	2226.79
561.23	2229.89
561.58	2232.98
561.94	2235.90
562.29	2238.48
562.64	2241.77
563.00	2244.71
563.35	2248.55
563.71	2252.02
564.06	2255.48
564.42	2258.53
564.77	2261.43
565.12	2264.40
565.48	2266.76
565.83	2269.20
566.19	2271.03
566.54	2272.20
566.89	2273.79
567.25	2274.79
567.60	2276.67
567.96	2278.87
568.31	2280.22
568.66	2281.78
569.02	2282.89
569.37	2283.70
569.72	2285.10
570.08	2285.64
570.43	2286.17
570.78	2286.12
571.14	2285.24
571.49	2284.42
571.84	2284.40
572.20	2283.71
572.55	2282.89
572.90	2281.47
573.26	2280.53
573.61	2279.00
573.96	2277.88
574.31	2275.38
574.67	2272.94
575.02	2269.65
575.37	2266.48
575.72	2263.16
576.08	2260.17
576.43	2257.20
576.78	2254.08
577.13	2251.04
577.49	2248.22
577.84	2245.09
578.19	2241.65
578.54	2238.36
578.90	2234.65
579.25	2229.72
579.60	2225.24
579.95	2220.77
580.30	2216.20
580.66	2211.30
581.01	2206.76
581.36	2202.10
581.71	2198.25
582.06	2194.17
582.42	2190.15
582.77	2185.37
583.12	2181.14
583.47	2176.85
583.82	2172.34
584.17	2167.25
584.53	2162.08
584.88	2156.85
585.23	2151.47
585.58	2146.20
585.93	2140.93
586.28	2136.20
586.63	2131.44
586.98	2126.51
587.34	2121.92
587.69	2117.36
588.04	2112.62
588.39	2107.24
588.74	2101.02
589.09	2095.03
589.44	2088.53
589.79	2082.44
590.14	2077.02
590.49	2070.63
590.84	2064.43
591.19	2058.74
591.54	2052.64
591.89	2045.73
592.25	2039.15
592.60	2032.14
592.95	2024.93
593.30	2017.91
593.65	2010.58
594.00	2003.62
594.35	1996.52
594.70	1988.52
595.05	1981.53
595.40	1974.24
595.75	1966.94
596.10	1960.94
596.45	1954.51
596.80	1948.48
597.15	1942.11
597.50	1935.35
597.85	1929.02
598.19	1922.43
598.54	1915.52
598.89	1908.92
599.24	1903.11
599.59	1896.78
599.94	1890.54
600.29	1884.28
600.64	1877.60
600.99	1870.37
601.34	1863.67
601.69	1856.78
602.04	1850.26
602.39	1843.10
602.74	1836.42
603.08	1829.82
603.43	1823.16
603.78	1815.84
604.13	1808.67
604.48	1801.70
604.83	1794.83
605.18	1788.02
605.53	1780.31
605.87	1772.23
606.22	1765.03
606.57	1756.93
606.92	1749.13
607.27	1742.17
607.62	1735.29
607.96	1728.23
608.31	1721.85
608.66	1714.38
609.01	1706.97
609.36	1699.42
609.70	1691.38
610.05	1683.32
610.40	1675.65
610.75	1667.26
611.10	1659.56
611.44	1651.16
611.79	1643.06
612.14	1634.36
612.49	1625.08
612.83	1616.45
613.18	1608.25
613.53	1600.05
613.88	1591.60
614.22	1583.48
614.57	1574.61
614.92	1566.56
615.27	1559.01
615.61	1550.45
615.96	1542.24
616.31	1534.41
616.65	1526.91
617.00	1519.25
617.35	1511.52
617.70	1503.24
618.04	1494.79
618.39	1486.47
618.74	1478.88
619.08	1470.36
619.43	1462.74
619.78	1455.71
620.12	1448.53
620.47	1440.97
620.82	1432.74
621.16	1425.06
621.51	1417.30
621.85	1409.58
622.20	1401.02
622.55	1392.39
622.89	1384.45
623.24	1376.73
623.59	1369.33
623.93	1361.67
624.28	1354.37
624.62	1346.80
624.97	1339.43
625.32	1332.50
625.66	1325.40
626.01	1318.09
626.35	1310.82
626.70	1302.88
627.04	1295.28
627.39	1287.54
627.73	1279.97
628.08	1272.99
628.43	1265.76
628.77	1258.49
629.12	1250.99
629.46	1243.63
629.81	1236.18
630.15	1228.79
630.50	1221.41
630.84	1213.20
631.19	1205.09
631.53	1197.45
631.88	1189.79
632.22	1181.94
632.57	1174.57
632.91	1167.00
633.26	1159.47
633.60	1151.88
633.95	1144.66
634.29	1137.31
634.64	1130.44
634.98	1123.13
635.32	1115.98
635.67	1109.32
636.01	1102.50
636.36	1095.68
636.70	1089.14
637.05	1082.52
637.39	1076.07
637.73	1069.51
638.08	1063.43
638.42	1057.44
638.77	1050.97
639.11	1044.34
639.45	1037.92
639.80	1031.22
640.14	1024.67
640.49	1018.12
640.83	1011.82
641.17	1005.68
641.52	999.38
641.86	992.85
642.20	986.87
642.55	980.41
642.89	973.89
643.23	967.24
643.58	961.34
643.92	955.19
644.26	949.17
644.61	943.07
644.95	936.96
645.29	930.42
645.64	923.63
645.98	917.21
646.32	911.16
646.66	905.16
647.01	899.35
647.35	893.71
647.69	887.77
648.04	882.13
648.38	876.20
648.72	870.21
649.06	864.12
649.41	858.16
649.75	852.25
650.09	846.31
650.43	840.56
650.78	834.44
651.12	828.36
651.46	822.55
651.80	816.90
652.14	811.48
652.49	806.16
652.83	801.01
653.17	795.46
653.51	789.94
653.85	784.43
654.20	778.79
654.54	772.74
654.88	766.94
655.22	761.05
655.56	755.36
655.90	749.85
656.25	744.60
656.59	739.22
656.93	734.10
657.27	728.92
657.61	723.51
657.95	718.34
658.29	713.23
658.64	707.95
658.98	702.49
659.32	696.96
659.66	691.70
660.00	686.34
660.34	681.32
660.68	676.26
661.02	671.27
661.36	666.55
661.70	662.03
662.05	657.72
662.39	653.36
662.73	648.85
663.07	644.45
663.41	639.99
663.75	635.51
664.09	630.94
664.43	626.49
664.77	622.33
665.11	618.07
665.45	613.90
665.79	609.79
666.13	605.69
666.47	601.63
666.81	597.45
667.15	593.35
667.49	589.36
667.83	585.49
668.17	581.55
668.51	577.44
668.85	573.34
669.19	569.48
669.53	565.68
669.87	561.83
670.21	558.14
670.55	554.41
670.89	551.02
671.23	547.56
671.57	544.07
671.91	540.57
672.25	537.00
672.58	533.53
672.92	530.12
673.26	526.90
673.60	523.69
673.94	520.56
674.28	517.67
674.62	514.75
674.96	511.71
675.30	508.83
675.64	505.86
675.97	503.08
676.31	500.19
676.65	497.20
676.99	494.47
677.33	491.54
677.67	488.83
678.01	485.71
678.34	482.70
678.68	479.76
679.02	476.89
679.36	474.11
679.70	471.30
680.04	468.49
680.37	465.63
680.71	462.84
681.05	460.17
681.39	457.34
681.73	454.62
682.06	452.04
682.40	449.45
682.74	446.91
683.08	444.25
683.42	441.58
683.75	439.06
684.09	436.43
684.43	433.94
684.77	431.41
685.10	429.07
685.44	426.73
685.78	424.45
686.12	422.14
686.45	419.82
686.79	417.49
687.13	415.30
687.46	413.06
687.80	410.83
688.14	408.56
688.48	406.50
688.81	404.24
689.15	402.07
689.49	399.86
689.82	397.75
690.16	395.66
690.50	393.66
690.83	391.70
691.17	389.61
691.51	387.63
691.84	385.74
692.18	383.78
692.52	381.81
692.85	379.85
693.19	377.97
693.52	376.12
693.86	374.31
694.20	372.48
694.53	370.69
694.87	368.79
695.21	366.96
695.54	365.08
695.88	363.33
696.21	361.54
696.55	359.80
696.88	358.05
697.22	356.36
697.56	354.72
697.89	353.06
698.23	351.49
698.56	349.93
698.90	348.30
699.23	346.66
699.57	345.10
699.90	343.50
700.24	341.89
700.58	340.32
700.91	338.80
701.25	337.36
701.58	335.97
701.92	334.60
702.25	333.22
702.59	331.89
702.92	330.54
703.26	329.24
703.59	327.99
703.93	326.80
704.26	325.56
704.60	324.27
704.93	322.96
705.26	321.72
705.60	320.49
705.93	319.31
706.27	318.23
706.60	317.11
706.94	316.03
707.27	314.91
707.61	313.85
707.94	312.80
708.27	311.68
708.61	310.55
708.94	309.50
709.28	308.54
709.61	307.56
709.94	306.63
710.28	305.59
710.61	304.55
710.95	303.47
711.28	302.58
711.61	301.61
711.95	300.68
712.28	299.78
712.61	298.82
712.95	297.93
713.28	297.01
713.61	296.13
713.95	295.24
714.28	294.33
714.61	293.48
714.95	292.60
715.28	291.74
715.61	290.89
715.95	290.05
716.28	289.15
716.61	288.30
716.95	287.43
717.28	286.68
717.61	285.94
717.94	285.18
718.28	284.35
718.61	283.59
718.94	282.91
719.27	282.18
719.61	281.50
719.94	280.79
720.27	280.11
720.60	279.39
720.94	278.77
721.27	278.19
721.60	277.57
721.93	276.96
722.27	276.39
722.60	275.81
722.93	275.24
723.26	274.65
723.59	274.08
723.93	273.50
724.26	272.94
724.59	272.30
724.92	271.76
725.25	271.25
725.59	270.73
725.92	270.19
726.25	269.69
726.58	269.17
726.91	268.69
727.24	268.18
727.57	267.72
727.91	267.18
728.24	266.71
728.57	266.17
728.90	265.71
729.23	265.18
729.56	264.73
729.89	264.22
730.22	263.76
730.55	263.26
730.89	262.83
731.22	262.36
731.55	261.96
731.88	261.50
732.21	261.04
732.54	260.60
732.87	260.17
733.20	259.71
733.53	259.30
733.86	258.88
734.19	258.49
734.52	258.10
734.85	257.78
735.18	257.34
735.51	257.00
735.84	256.65
736.17	256.30
736.50	255.89
736.83	255.69
737.16	255.33
737.49	255.02
737.82	254.67
738.15	254.32
738.48	253.96
738.81	253.66
739.14	253.33
739.47	253.01
739.80	252.71
740.13	252.43
740.46	252.09
740.79	251.74
741.12	251.42
741.45	251.07
741.78	250.70
742.11	250.46
742.44	250.14
742.77	249.85
743.10	249.49
743.43	249.16
743.75	248.75
744.08	248.61
744.41	248.31
744.74	248.03
745.07	247.74
745.40	247.52
745.73	247.25
746.06	246.97
746.39	246.70
746.71	246.40
747.04	246.14
747.37	245.84
747.70	245.59
748.03	245.35
748.36	245.17
748.68	244.95
749.01	244.68
749.34	244.43
749.67	244.18
750.00	244.01
750.33	243.91
750.65	243.69
750.98	243.36
751.31	243.14
751.64	242.92
751.97	242.74
752.29	242.44
752.62	242.21
752.95	242.01
753.28	241.78
753.60	241.57
753.93	241.39
754.26	241.24
754.59	241.02
754.91	240.79
755.24	240.55
755.57	240.36
755.90	240.14
756.22	239.98
756.55	239.77
756.88	239.59
757.20	239.34
757.53	239.17
757.86	239.01
758.19	238.85
758.51	238.67
758.84	238.49
759.17	238.35
759.49	238.20
759.82	238.06
760.15	237.94
760.47	237.80
760.80	237.61
761.13	237.47
761.45	237.33
761.78	237.17
762.11	237.03
762.43	236.87
762.76	236.73
763.08	236.55
763.41	236.43
763.74	236.27
764.06	236.13
764.39	235.97
764.71	235.81
765.04	235.65
765.37	235.54
765.69	235.43
766.02	235.31
766.34	235.16
766.67	235.01
767.00	234.89
767.32	234.84
767.65	234.80
767.97	234.69
768.30	234.57
768.62	234.44
768.95	234.33
769.27	234.22
769.60	234.10
769.92	233.98
770.25	233.84
770.57	233.72
770.90	233.59
771.22	233.49
771.55	233.38
771.87	233.30
772.20	233.14
772.52	233.08
772.85	233.13
773.17	233.02
773.50	232.92
773.82	232.81
774.15	232.67
774.47	232.49
774.80	232.36
775.12	232.27
775.45	232.20
775.77	232.08
776.09	232.02
776.42	231.96
776.74	231.91
777.07	231.84
777.39	231.81
777.72	231.73
778.04	231.65
778.36	231.58
778.69	231.52
779.01	231.52
779.33	231.39
779.66	231.20
779.98	231.12
780.31	231.03
780.63	230.99
780.95	230.87
781.28	230.82
781.60	230.77
781.92	230.74
782.25	230.70
782.57	230.66
782.89	230.57
783.22	230.50
783.54	230.40
783.86	230.34
784.19	230.26
784.51	230.25
784.83	230.19
785.16	230.14
785.48	230.09
785.80	230.02
786.12	229.97
786.45	229.91
786.77	229.87
787.09	229.86
