SpectraSuite Data File
++++++++++++++++++++++++++++++++++++
Date: Fri Feb 01 16:01:17 EST 2013
User: group
Dark Spectrum Present: No
Reference Spectrum Present: No
Number of Sampled Component Spectra: 1
Spectrometers: USB2E7196
Integration Time (usec): 35000 (USB2E7196)
Spectra Averaged: 100 (USB2E7196)
Boxcar Smoothing: 10 (USB2E7196)
Correct for Electrical Dark: No (USB2E7196)
Strobe/Lamp Enabled: No (USB2E7196)
Correct for Detector Non-linearity: No (USB2E7196)
Correct for Stray Light: No (USB2E7196)
Number of Pixels in Processed Spectrum: 2048
>>>>>Begin Processed Spectral Data<<<<<
339.09	0.00
339.48	214.23
339.86	216.54
340.24	217.09
340.63	219.25
341.01	221.71
341.39	221.98
341.78	222.97
342.16	224.16
342.54	225.10
342.93	213.19
343.31	223.97
343.69	224.53
344.07	224.99
344.46	225.46
344.84	225.82
345.22	226.06
345.60	226.27
345.99	226.46
346.37	226.61
346.75	226.71
347.13	226.79
347.52	226.84
347.90	226.91
348.28	226.91
348.66	226.96
349.05	226.92
349.43	226.98
349.81	227.03
350.19	227.06
350.57	227.12
350.96	227.19
351.34	227.27
351.72	227.36
352.10	227.47
352.48	227.52
352.87	227.57
353.25	227.65
353.63	227.76
354.01	227.83
354.39	227.89
354.77	227.97
355.15	228.09
355.54	228.15
355.92	228.20
356.30	228.29
356.68	228.46
357.06	228.56
357.44	228.63
357.82	228.66
358.20	228.77
358.58	228.82
358.97	228.86
359.35	228.96
359.73	229.07
360.11	229.10
360.49	229.17
360.87	229.22
361.25	229.25
361.63	229.35
362.01	229.41
362.39	229.42
362.77	229.44
363.15	229.40
363.53	229.46
363.91	229.49
364.29	229.49
364.67	229.37
365.05	229.35
365.43	229.38
365.81	229.40
366.19	229.45
366.57	229.47
366.95	229.47
367.33	229.39
367.71	229.34
368.09	229.36
368.47	229.34
368.85	229.37
369.23	229.35
369.61	229.25
369.99	229.25
370.37	229.23
370.75	229.23
371.13	229.20
371.51	229.12
371.89	229.08
372.27	229.07
372.65	229.05
373.03	229.04
373.41	228.95
373.78	228.88
374.16	228.76
374.54	228.65
374.92	228.58
375.30	228.54
375.68	228.46
376.06	228.40
376.44	228.36
376.82	228.25
377.19	228.19
377.57	228.11
377.95	228.00
378.33	227.94
378.71	227.82
379.09	227.76
379.47	227.72
379.84	227.65
380.22	227.55
380.60	227.46
380.98	227.37
381.36	227.30
381.73	227.21
382.11	227.16
382.49	227.12
382.87	227.05
383.25	227.01
383.62	227.08
384.00	226.97
384.38	226.92
384.76	226.89
385.13	226.88
385.51	226.84
385.89	226.77
386.27	226.70
386.64	226.68
387.02	226.64
387.40	226.57
387.78	226.54
388.15	226.51
388.53	226.48
388.91	226.44
389.29	226.43
389.66	226.42
390.04	226.38
390.42	226.40
390.79	226.38
391.17	226.33
391.55	226.20
391.92	226.22
392.30	226.21
392.68	226.17
393.05	226.17
393.43	226.20
393.81	226.20
394.18	226.22
394.56	226.22
394.94	226.24
395.31	226.27
395.69	226.32
396.06	226.37
396.44	226.43
396.82	226.45
397.19	226.52
397.57	226.59
397.95	226.66
398.32	226.68
398.70	226.76
399.07	226.86
399.45	226.91
399.82	226.96
400.20	227.03
400.58	227.11
400.95	227.15
401.33	227.23
401.70	227.43
402.08	227.51
402.45	227.62
402.83	227.76
403.20	227.85
403.58	227.93
403.95	228.06
404.33	228.13
404.71	228.29
405.08	228.48
405.46	228.59
405.83	228.75
406.21	228.90
406.58	229.06
406.96	229.22
407.33	229.42
407.70	229.64
408.08	229.88
408.45	230.11
408.83	230.34
409.20	230.57
409.58	230.70
409.95	230.98
410.33	231.27
410.70	231.49
411.08	231.80
411.45	232.09
411.82	232.37
412.20	232.76
412.57	233.18
412.95	233.47
413.32	233.87
413.69	234.29
414.07	234.72
414.44	235.19
414.82	235.67
415.19	236.19
415.56	236.72
415.94	237.24
416.31	237.89
416.68	238.50
417.06	239.19
417.43	239.88
417.81	240.63
418.18	241.41
418.55	242.24
418.93	243.11
419.30	244.01
419.67	244.98
420.04	245.94
420.42	246.89
420.79	248.05
421.16	249.23
421.54	250.39
421.91	251.58
422.28	252.82
422.66	254.16
423.03	255.48
423.40	256.81
423.77	258.21
424.15	259.60
424.52	261.11
424.89	262.72
425.26	264.26
425.64	265.69
426.01	267.27
426.38	268.93
426.75	270.62
427.13	272.30
427.50	274.04
427.87	275.91
428.24	277.77
428.61	279.52
428.99	281.40
429.36	283.48
429.73	285.57
430.10	287.57
430.47	289.60
430.85	291.75
431.22	293.97
431.59	296.39
431.96	298.67
432.33	301.12
432.70	303.53
433.08	306.36
433.45	308.99
433.82	311.61
434.19	314.49
434.56	317.27
434.93	319.95
435.30	322.61
435.68	325.50
436.05	328.33
436.42	331.13
436.79	333.69
437.16	336.40
437.53	339.22
437.90	342.04
438.27	344.77
438.64	347.56
439.01	350.16
439.38	352.37
439.75	354.54
440.13	357.02
440.50	359.31
440.87	361.14
441.24	363.11
441.61	365.27
441.98	366.73
442.35	368.50
442.72	370.39
443.09	372.22
443.46	373.21
443.83	373.83
444.20	374.33
444.57	375.15
444.94	375.43
445.31	375.74
445.68	376.07
446.05	376.17
446.42	375.81
446.79	375.43
447.16	375.01
447.53	374.65
447.90	373.50
448.27	372.36
448.64	370.80
449.01	369.64
449.37	367.64
449.74	365.77
450.11	363.57
450.48	361.09
450.85	358.56
451.22	356.44
451.59	354.44
451.96	352.52
452.33	349.96
452.70	347.63
453.07	344.79
453.43	341.91
453.80	339.12
454.17	336.43
454.54	333.86
454.91	331.11
455.28	328.46
455.65	326.02
456.02	323.52
456.38	321.37
456.75	318.74
457.12	316.53
457.49	314.32
457.86	312.15
458.23	310.29
458.59	308.24
458.96	306.12
459.33	304.22
459.70	302.34
460.07	300.81
460.43	299.09
460.80	297.49
461.17	296.07
461.54	294.56
461.91	293.12
462.27	291.66
462.64	290.41
463.01	289.07
463.38	287.72
463.74	286.39
464.11	285.26
464.48	284.24
464.85	283.09
465.21	282.22
465.58	281.31
465.95	280.22
466.32	279.30
466.68	278.40
467.05	277.50
467.42	276.62
467.78	275.68
468.15	274.77
468.52	274.11
468.88	273.26
469.25	272.53
469.62	271.91
469.98	271.24
470.35	270.61
470.72	270.00
471.08	269.33
471.45	268.78
471.82	268.21
472.18	267.61
472.55	267.20
472.92	266.73
473.28	266.25
473.65	265.79
474.02	265.34
474.38	264.95
474.75	264.64
475.11	264.28
475.48	264.02
475.85	263.79
476.21	263.57
476.58	263.36
476.94	263.20
477.31	263.03
477.67	262.88
478.04	262.79
478.41	262.75
478.77	262.77
479.14	262.71
479.50	262.72
479.87	262.79
480.23	262.84
480.60	262.82
480.96	262.90
481.33	263.14
481.69	263.33
482.06	263.56
482.42	263.78
482.79	264.06
483.15	264.41
483.52	264.80
483.88	265.16
484.25	265.55
484.61	265.99
484.98	266.45
485.34	267.00
485.71	267.58
486.07	268.16
486.44	268.82
486.80	269.51
487.17	270.24
487.53	271.04
487.90	271.93
488.26	272.94
488.62	273.96
488.99	274.92
489.35	276.00
489.72	277.13
490.08	278.32
490.44	279.57
490.81	280.88
491.17	282.20
491.54	283.67
491.90	285.21
492.26	286.85
492.63	288.59
492.99	290.38
493.36	292.27
493.72	294.35
494.08	296.45
494.45	298.72
494.81	301.09
495.17	303.52
495.54	306.07
495.90	308.75
496.26	311.55
496.63	314.51
496.99	317.65
497.35	320.89
497.72	324.33
498.08	327.86
498.44	331.54
498.80	335.52
499.17	339.57
499.53	343.80
499.89	348.13
500.26	352.65
500.62	357.37
500.98	362.37
501.34	367.45
501.71	372.80
502.07	378.27
502.43	383.87
502.79	389.74
503.16	395.75
503.52	402.05
503.88	408.46
504.24	415.09
504.60	421.97
504.97	429.05
505.33	436.38
505.69	444.07
506.05	451.89
506.41	459.79
506.78	467.99
507.14	476.40
507.50	485.16
507.86	494.21
508.22	503.41
508.59	512.65
508.95	522.25
509.31	532.04
509.67	542.19
510.03	552.53
510.39	563.07
510.75	573.94
511.12	584.84
511.48	596.17
511.84	607.62
512.20	619.10
512.56	631.03
512.92	643.15
513.28	655.53
513.64	668.00
514.00	680.67
514.37	693.61
514.73	706.71
515.09	719.73
515.45	733.00
515.81	746.55
516.17	760.53
516.53	774.60
516.89	788.85
517.25	803.00
517.61	817.43
517.97	831.85
518.33	846.27
518.69	860.95
519.05	875.84
519.41	891.02
519.77	906.62
520.13	922.14
520.49	937.55
520.85	952.87
521.21	968.51
521.57	984.75
521.93	1000.43
522.29	1016.80
522.65	1033.05
523.01	1049.22
523.37	1065.21
523.73	1081.29
524.09	1097.38
524.45	1113.49
524.81	1130.01
525.17	1146.79
525.53	1163.68
525.89	1180.52
526.25	1197.49
526.61	1213.91
526.97	1230.63
527.33	1247.15
527.68	1263.64
528.04	1280.09
528.40	1296.81
528.76	1313.96
529.12	1330.51
529.48	1347.43
529.84	1363.40
530.20	1380.01
530.56	1397.00
530.91	1414.43
531.27	1431.19
531.63	1447.67
531.99	1464.35
532.35	1480.30
532.71	1496.13
533.07	1512.40
533.42	1528.29
533.78	1544.32
534.14	1560.64
534.50	1575.93
534.86	1591.71
535.21	1606.86
535.57	1622.74
535.93	1638.20
536.29	1652.91
536.65	1667.90
537.00	1682.64
537.36	1698.02
537.72	1712.52
538.08	1726.86
538.44	1740.56
538.79	1754.46
539.15	1768.03
539.51	1781.71
539.87	1796.09
540.22	1809.84
540.58	1823.46
540.94	1836.80
541.29	1849.59
541.65	1862.21
542.01	1875.43
542.37	1887.75
542.72	1900.30
543.08	1912.10
543.44	1924.39
543.79	1935.64
544.15	1946.69
544.51	1958.11
544.87	1969.02
545.22	1979.87
545.58	1990.24
545.94	2000.07
546.29	2009.86
546.65	2019.74
547.01	2028.87
547.36	2037.62
547.72	2046.02
548.07	2053.88
548.43	2061.92
548.79	2069.92
549.14	2077.39
549.50	2084.61
549.86	2092.20
550.21	2099.49
550.57	2106.59
550.92	2113.03
551.28	2119.99
551.64	2126.96
551.99	2133.53
552.35	2139.70
552.70	2145.92
553.06	2151.80
553.41	2158.05
553.77	2164.01
554.13	2170.13
554.48	2176.34
554.84	2181.64
555.19	2186.96
555.55	2192.20
555.90	2196.75
556.26	2201.62
556.61	2206.45
556.97	2210.71
557.32	2214.80
557.68	2219.00
558.03	2223.38
558.39	2227.26
558.74	2231.99
559.10	2235.92
559.45	2239.68
559.81	2243.96
560.16	2247.57
560.52	2250.81
560.87	2254.30
561.23	2257.08
561.58	2259.87
561.94	2262.35
562.29	2264.81
562.64	2267.47
563.00	2269.97
563.35	2273.51
563.71	2276.61
564.06	2279.73
564.42	2282.73
564.77	2285.22
565.12	2287.34
565.48	2289.15
565.83	2290.94
566.19	2292.19
566.54	2293.06
566.89	2294.12
567.25	2294.66
567.60	2296.01
567.96	2297.64
568.31	2298.41
568.66	2299.45
569.02	2300.03
569.37	2300.33
569.72	2301.06
570.08	2301.10
570.43	2301.18
570.78	2300.53
571.14	2298.97
571.49	2297.73
571.84	2297.48
572.20	2296.51
572.55	2295.56
572.90	2294.01
573.26	2292.59
573.61	2290.88
573.96	2289.13
574.31	2286.15
574.67	2283.22
575.02	2279.68
575.37	2276.34
575.72	2272.66
576.08	2269.37
576.43	2266.11
576.78	2262.61
577.13	2259.56
577.49	2256.47
577.84	2252.97
578.19	2249.38
578.54	2245.83
578.90	2241.53
579.25	2235.90
579.60	2230.95
579.95	2226.02
580.30	2221.06
580.66	2216.02
581.01	2211.16
581.36	2206.29
581.71	2202.12
582.06	2197.59
582.42	2193.02
582.77	2187.83
583.12	2183.31
583.47	2178.55
583.82	2173.58
584.17	2168.36
584.53	2162.83
584.88	2157.32
585.23	2151.53
585.58	2146.01
585.93	2140.66
586.28	2136.00
586.63	2130.87
586.98	2125.77
587.34	2120.95
587.69	2116.13
588.04	2110.77
588.39	2105.13
588.74	2098.80
589.09	2092.71
589.44	2086.00
589.79	2080.12
590.14	2074.49
590.49	2067.87
590.84	2061.55
591.19	2055.61
591.54	2048.96
591.89	2041.68
592.25	2034.81
592.60	2027.66
592.95	2020.06
593.30	2012.58
593.65	2004.97
594.00	1997.95
594.35	1990.76
594.70	1982.79
595.05	1975.54
595.40	1968.36
595.75	1960.64
596.10	1954.47
596.45	1947.72
596.80	1941.47
597.15	1934.70
597.50	1927.52
597.85	1921.17
598.19	1914.51
598.54	1907.33
598.89	1900.78
599.24	1894.95
599.59	1888.32
599.94	1882.06
600.29	1875.85
600.64	1869.36
600.99	1861.93
601.34	1855.15
601.69	1848.15
602.04	1841.18
602.39	1833.90
602.74	1827.05
603.08	1820.42
603.43	1813.53
603.78	1806.14
604.13	1799.03
604.48	1791.76
604.83	1785.11
605.18	1777.98
605.53	1769.94
605.87	1761.92
606.22	1754.73
606.57	1746.65
606.92	1739.32
607.27	1732.09
607.62	1725.09
607.96	1717.77
608.31	1711.08
608.66	1703.43
609.01	1695.90
609.36	1688.40
609.70	1680.27
610.05	1672.21
610.40	1664.49
610.75	1656.11
611.10	1648.44
611.44	1639.97
611.79	1632.00
612.14	1623.13
612.49	1614.00
612.83	1605.59
613.18	1597.50
613.53	1589.41
613.88	1580.98
614.22	1572.74
614.57	1564.30
614.92	1556.20
615.27	1548.58
615.61	1540.27
615.96	1532.22
616.31	1524.49
616.65	1517.03
617.00	1509.50
617.35	1501.86
617.70	1493.53
618.04	1485.19
618.39	1477.06
618.74	1469.29
619.08	1461.02
619.43	1453.51
619.78	1446.57
620.12	1439.39
620.47	1431.87
620.82	1423.61
621.16	1416.14
621.51	1408.59
621.85	1400.90
622.20	1392.43
622.55	1384.19
622.89	1376.35
623.24	1368.70
623.59	1361.37
623.93	1353.90
624.28	1346.66
624.62	1338.96
624.97	1331.90
625.32	1325.05
625.66	1317.95
626.01	1310.94
626.35	1303.50
626.70	1295.72
627.04	1288.00
627.39	1280.29
627.73	1272.85
628.08	1266.07
628.43	1258.76
628.77	1251.25
629.12	1243.73
629.46	1236.60
629.81	1229.10
630.15	1221.72
630.50	1214.39
630.84	1206.19
631.19	1198.36
631.53	1190.80
631.88	1183.35
632.22	1175.72
632.57	1168.42
632.91	1160.93
633.26	1153.50
633.60	1146.14
633.95	1139.15
634.29	1132.23
634.64	1125.63
634.98	1118.27
635.32	1111.08
635.67	1104.46
636.01	1097.88
636.36	1091.06
636.70	1084.40
637.05	1077.77
637.39	1071.42
637.73	1064.92
638.08	1059.05
638.42	1053.03
638.77	1046.60
639.11	1040.02
639.45	1033.53
639.80	1026.88
640.14	1020.48
640.49	1014.01
640.83	1007.63
641.17	1001.27
641.52	994.83
641.86	988.31
642.20	982.40
642.55	976.13
642.89	969.63
643.23	963.11
643.58	957.31
643.92	951.09
644.26	945.05
644.61	939.07
644.95	933.01
645.29	926.37
645.64	919.61
645.98	913.35
646.32	907.62
646.66	901.58
647.01	895.71
647.35	889.98
647.69	884.08
648.04	878.62
648.38	872.91
648.72	866.83
649.06	860.77
649.41	854.97
649.75	848.91
650.09	843.01
650.43	837.21
650.78	831.04
651.12	825.20
651.46	819.51
651.80	813.70
652.14	808.29
652.49	802.94
652.83	797.75
653.17	791.99
653.51	786.16
653.85	780.81
654.20	775.19
654.54	769.14
654.88	763.41
655.22	757.48
655.56	751.75
655.90	746.36
656.25	741.12
656.59	735.69
656.93	730.67
657.27	725.49
657.61	720.01
657.95	714.89
658.29	709.83
658.64	704.55
658.98	699.27
659.32	693.82
659.66	688.61
660.00	683.28
660.34	678.33
660.68	673.43
661.02	668.37
661.36	663.66
661.70	659.19
662.05	654.78
662.39	650.47
662.73	645.94
663.07	641.53
663.41	637.07
663.75	632.61
664.09	628.03
664.43	623.66
664.77	619.51
665.11	615.32
665.45	611.15
665.79	607.04
666.13	602.86
666.47	598.76
666.81	594.52
667.15	590.37
667.49	586.50
667.83	582.67
668.17	578.70
668.51	574.64
668.85	570.64
669.19	566.84
669.53	562.97
669.87	559.18
670.21	555.45
670.55	551.79
670.89	548.34
671.23	544.88
671.57	541.35
671.91	537.84
672.25	534.34
672.58	530.78
672.92	527.41
673.26	524.26
673.60	521.11
673.94	518.03
674.28	515.17
674.62	512.17
674.96	509.02
675.30	506.22
675.64	503.30
675.97	500.49
676.31	497.58
676.65	494.64
676.99	491.85
677.33	489.07
677.67	486.20
678.01	483.15
678.34	480.17
678.68	477.28
679.02	474.46
679.36	471.69
679.70	469.05
680.04	466.27
680.37	463.38
680.71	460.60
681.05	458.00
681.39	455.24
681.73	452.56
682.06	450.06
682.40	447.43
682.74	444.82
683.08	442.28
683.42	439.72
683.75	437.27
684.09	434.72
684.43	432.22
684.77	429.78
685.10	427.44
685.44	425.16
685.78	422.87
686.12	420.60
686.45	418.27
686.79	415.90
687.13	413.76
687.46	411.59
687.80	409.41
688.14	407.22
688.48	405.15
688.81	402.94
689.15	400.79
689.49	398.62
689.82	396.61
690.16	394.52
690.50	392.57
690.83	390.58
691.17	388.65
691.51	386.75
691.84	384.90
692.18	382.97
692.52	380.99
692.85	379.07
693.19	377.18
693.52	375.40
693.86	373.64
694.20	371.82
694.53	370.01
694.87	368.18
695.21	366.38
695.54	364.61
695.88	362.89
696.21	361.16
696.55	359.50
696.88	357.76
697.22	356.07
697.56	354.44
697.89	352.79
698.23	351.14
698.56	349.54
698.90	347.95
699.23	346.35
699.57	344.79
699.90	343.25
700.24	341.70
700.58	340.16
700.91	338.64
701.25	337.18
701.58	335.86
701.92	334.48
702.25	333.10
702.59	331.69
702.92	330.38
703.26	329.05
703.59	327.73
703.93	326.56
704.26	325.33
704.60	324.02
704.93	322.73
705.26	321.55
705.60	320.31
705.93	319.14
706.27	318.06
706.60	316.97
706.94	315.88
707.27	314.77
707.61	313.69
707.94	312.63
708.27	311.54
708.61	310.42
708.94	309.40
709.28	308.38
709.61	307.41
709.94	306.43
710.28	305.46
710.61	304.50
710.95	303.47
711.28	302.63
711.61	301.62
711.95	300.73
712.28	299.73
712.61	298.75
712.95	297.82
713.28	296.99
713.61	296.15
713.95	295.27
714.28	294.44
714.61	293.57
714.95	292.76
715.28	291.88
715.61	291.03
715.95	290.14
716.28	289.30
716.61	288.50
716.95	287.68
717.28	286.93
717.61	286.16
717.94	285.39
718.28	284.52
718.61	283.83
718.94	283.11
719.27	282.45
719.61	281.84
719.94	281.19
720.27	280.45
720.60	279.75
720.94	279.12
721.27	278.53
721.60	277.99
721.93	277.38
722.27	276.83
722.60	276.29
722.93	275.79
723.26	275.30
723.59	274.75
723.93	274.24
724.26	273.65
724.59	273.15
724.92	272.60
725.25	272.11
725.59	271.59
725.92	271.13
726.25	270.63
726.58	270.14
726.91	269.63
727.24	269.16
727.57	268.67
727.91	268.16
728.24	267.66
728.57	267.13
728.90	266.71
729.23	266.23
729.56	265.78
729.89	265.29
730.22	264.75
730.55	264.28
730.89	263.78
731.22	263.34
731.55	262.86
731.88	262.47
732.21	262.05
732.54	261.62
732.87	261.20
733.20	260.81
733.53	260.43
733.86	260.10
734.19	259.68
734.52	259.30
734.85	258.98
735.18	258.55
735.51	258.18
735.84	257.77
736.17	257.41
736.50	257.01
736.83	256.78
737.16	256.44
737.49	256.13
737.82	255.79
738.15	255.48
738.48	255.14
738.81	254.80
739.14	254.47
739.47	254.18
739.80	253.86
740.13	253.53
740.46	253.19
740.79	252.85
741.12	252.56
741.45	252.28
741.78	251.96
742.11	251.69
742.44	251.35
742.77	251.05
743.10	250.74
743.43	250.46
743.75	250.07
744.08	249.95
744.41	249.67
744.74	249.44
745.07	249.17
745.40	248.94
745.73	248.72
746.06	248.44
746.39	248.18
746.71	247.87
747.04	247.60
747.37	247.33
747.70	247.07
748.03	246.80
748.36	246.56
748.68	246.30
749.01	246.05
749.34	245.89
749.67	245.67
750.00	245.43
750.33	245.26
750.65	245.01
750.98	244.65
751.31	244.42
751.64	244.18
751.97	244.01
752.29	243.77
752.62	243.51
752.95	243.32
753.28	243.08
753.60	242.91
753.93	242.73
754.26	242.53
754.59	242.31
754.91	242.12
755.24	241.91
755.57	241.72
755.90	241.54
756.22	241.32
756.55	241.15
756.88	240.97
757.20	240.74
757.53	240.56
757.86	240.40
758.19	240.25
758.51	240.10
758.84	239.88
759.17	239.71
759.49	239.58
759.82	239.45
760.15	239.33
760.47	239.19
760.80	239.01
761.13	238.90
761.45	238.74
761.78	238.58
762.11	238.47
762.43	238.35
762.76	238.19
763.08	238.04
763.41	237.93
763.74	237.81
764.06	237.68
764.39	237.58
764.71	237.44
765.04	237.31
765.37	237.15
765.69	237.05
766.02	236.93
766.34	236.78
766.67	236.64
767.00	236.51
767.32	236.43
767.65	236.39
767.97	236.27
768.30	236.21
768.62	236.11
768.95	235.97
769.27	235.85
769.60	235.80
769.92	235.70
770.25	235.57
770.57	235.44
770.90	235.34
771.22	235.22
771.55	235.11
771.87	235.01
772.20	234.94
772.52	234.89
772.85	234.92
773.17	234.83
773.50	234.72
773.82	234.62
774.15	234.50
774.47	234.36
774.80	234.25
775.12	234.13
775.45	234.05
775.77	233.99
776.09	233.91
776.42	233.81
776.74	233.80
777.07	233.71
777.39	233.64
777.72	233.55
778.04	233.49
778.36	233.43
778.69	233.34
779.01	233.26
779.33	233.12
779.66	232.93
779.98	232.87
780.31	232.79
780.63	232.77
780.95	232.72
781.28	232.62
781.60	232.56
781.92	232.50
782.25	232.43
782.57	232.37
782.89	232.31
783.22	232.21
783.54	232.10
783.86	232.05
784.19	232.00
784.51	231.98
784.83	231.91
785.16	231.85
785.48	231.80
785.80	231.73
786.12	231.69
786.45	231.64
786.77	231.60
787.09	231.53
