SpectraSuite Data File
++++++++++++++++++++++++++++++++++++
Date: Fri Feb 01 16:21:54 EST 2013
User: group
Dark Spectrum Present: No
Reference Spectrum Present: No
Number of Sampled Component Spectra: 1
Spectrometers: USB2E7196
Integration Time (usec): 35000 (USB2E7196)
Spectra Averaged: 100 (USB2E7196)
Boxcar Smoothing: 10 (USB2E7196)
Correct for Electrical Dark: No (USB2E7196)
Strobe/Lamp Enabled: No (USB2E7196)
Correct for Detector Non-linearity: No (USB2E7196)
Correct for Stray Light: No (USB2E7196)
Number of Pixels in Processed Spectrum: 2048
>>>>>Begin Processed Spectral Data<<<<<
339.09	0.00
339.48	215.08
339.86	215.73
340.24	217.56
340.63	218.42
341.01	221.75
341.39	220.91
341.78	222.66
342.16	223.67
342.54	224.22
342.93	212.63
343.31	223.41
343.69	223.90
344.07	224.36
344.46	224.75
344.84	225.10
345.22	225.32
345.60	225.59
345.99	225.80
346.37	225.93
346.75	226.04
347.13	226.07
347.52	226.10
347.90	226.17
348.28	226.18
348.66	226.25
349.05	226.20
349.43	226.22
349.81	226.25
350.19	226.31
350.57	226.40
350.96	226.44
351.34	226.48
351.72	226.58
352.10	226.67
352.48	226.74
352.87	226.81
353.25	226.87
353.63	226.90
354.01	226.94
354.39	227.00
354.77	227.05
355.15	227.17
355.54	227.26
355.92	227.29
356.30	227.35
356.68	227.48
357.06	227.56
357.44	227.64
357.82	227.70
358.20	227.76
358.58	227.82
358.97	227.88
359.35	227.94
359.73	228.00
360.11	228.02
360.49	228.06
360.87	228.10
361.25	228.16
361.63	228.21
362.01	228.27
362.39	228.29
362.77	228.35
363.15	228.35
363.53	228.36
363.91	228.39
364.29	228.42
364.67	228.31
365.05	228.37
365.43	228.35
365.81	228.39
366.19	228.46
366.57	228.47
366.95	228.48
367.33	228.46
367.71	228.45
368.09	228.50
368.47	228.52
368.85	228.50
369.23	228.49
369.61	228.43
369.99	228.41
370.37	228.40
370.75	228.39
371.13	228.33
371.51	228.31
371.89	228.27
372.27	228.23
372.65	228.23
373.03	228.14
373.41	228.14
373.78	228.06
374.16	227.92
374.54	227.85
374.92	227.80
375.30	227.74
375.68	227.66
376.06	227.59
376.44	227.48
376.82	227.45
377.19	227.39
377.57	227.35
377.95	227.26
378.33	227.20
378.71	227.09
379.09	227.03
379.47	226.95
379.84	226.86
380.22	226.80
380.60	226.73
380.98	226.66
381.36	226.57
381.73	226.47
382.11	226.44
382.49	226.44
382.87	226.36
383.25	226.29
383.62	226.37
384.00	226.29
384.38	226.24
384.76	226.20
385.13	226.19
385.51	226.13
385.89	226.10
386.27	226.04
386.64	226.04
387.02	225.99
387.40	225.94
387.78	225.94
388.15	225.90
388.53	225.88
388.91	225.84
389.29	225.80
389.66	225.80
390.04	225.76
390.42	225.70
390.79	225.74
391.17	225.75
391.55	225.63
391.92	225.62
392.30	225.65
392.68	225.63
393.05	225.57
393.43	225.59
393.81	225.59
394.18	225.60
394.56	225.58
394.94	225.66
395.31	225.67
395.69	225.70
396.06	225.74
396.44	225.73
396.82	225.78
397.19	225.87
397.57	225.93
397.95	225.97
398.32	225.99
398.70	226.02
399.07	226.06
399.45	226.12
399.82	226.18
400.20	226.21
400.58	226.27
400.95	226.29
401.33	226.40
401.70	226.54
402.08	226.60
402.45	226.67
402.83	226.78
403.20	226.88
403.58	226.98
403.95	227.11
404.33	227.26
404.71	227.35
405.08	227.50
405.46	227.60
405.83	227.77
406.21	227.93
406.58	228.09
406.96	228.24
407.33	228.41
407.70	228.56
408.08	228.85
408.45	229.04
408.83	229.29
409.20	229.46
409.58	229.62
409.95	229.87
410.33	230.17
410.70	230.38
411.08	230.68
411.45	230.95
411.82	231.23
412.20	231.60
412.57	232.05
412.95	232.36
413.32	232.78
413.69	233.16
414.07	233.59
414.44	234.04
414.82	234.51
415.19	235.04
415.56	235.60
415.94	236.15
416.31	236.81
416.68	237.43
417.06	238.16
417.43	238.86
417.81	239.64
418.18	240.38
418.55	241.23
418.93	242.15
419.30	243.06
419.67	244.01
420.04	244.94
420.42	245.94
420.79	247.11
421.16	248.28
421.54	249.49
421.91	250.72
422.28	252.00
422.66	253.34
423.03	254.64
423.40	255.99
423.77	257.41
424.15	258.86
424.52	260.36
424.89	261.94
425.26	263.51
425.64	264.96
426.01	266.58
426.38	268.23
426.75	269.86
427.13	271.59
427.50	273.39
427.87	275.29
428.24	277.14
428.61	278.89
428.99	280.83
429.36	282.88
429.73	284.94
430.10	286.95
430.47	289.02
430.85	291.19
431.22	293.43
431.59	295.81
431.96	298.04
432.33	300.49
432.70	302.89
433.08	305.69
433.45	308.35
433.82	310.95
434.19	313.86
434.56	316.64
434.93	319.26
435.30	321.86
435.68	324.74
436.05	327.53
436.42	330.31
436.79	332.79
437.16	335.54
437.53	338.39
437.90	341.23
438.27	344.00
438.64	346.77
439.01	349.36
439.38	351.56
439.75	353.71
440.13	356.21
440.50	358.53
440.87	360.39
441.24	362.28
441.61	364.39
441.98	365.87
442.35	367.71
442.72	369.55
443.09	371.34
443.46	372.29
443.83	372.88
444.20	373.33
444.57	374.17
444.94	374.41
445.31	374.73
445.68	375.04
446.05	375.03
446.42	374.68
446.79	374.26
447.16	373.81
447.53	373.49
447.90	372.33
448.27	371.14
448.64	369.56
449.01	368.44
449.37	366.51
449.74	364.59
450.11	362.31
450.48	359.88
450.85	357.38
451.22	355.25
451.59	353.22
451.96	351.33
452.33	348.70
452.70	346.36
453.07	343.52
453.43	340.60
453.80	337.83
454.17	335.12
454.54	332.55
454.91	329.80
455.28	327.12
455.65	324.61
456.02	322.16
456.38	319.97
456.75	317.31
457.12	315.05
457.49	312.82
457.86	310.67
458.23	308.81
458.59	306.77
458.96	304.68
459.33	302.83
459.70	300.97
460.07	299.51
460.43	297.80
460.80	296.17
461.17	294.74
461.54	293.27
461.91	291.86
462.27	290.39
462.64	289.18
463.01	287.80
463.38	286.56
463.74	285.24
464.11	284.10
464.48	283.09
464.85	282.01
465.21	281.17
465.58	280.21
465.95	279.12
466.32	278.22
466.68	277.29
467.05	276.42
467.42	275.55
467.78	274.64
468.15	273.78
468.52	273.12
468.88	272.29
469.25	271.55
469.62	270.93
469.98	270.29
470.35	269.66
470.72	269.14
471.08	268.48
471.45	267.95
471.82	267.41
472.18	266.81
472.55	266.37
472.92	265.87
473.28	265.48
473.65	265.06
474.02	264.69
474.38	264.38
474.75	264.05
475.11	263.71
475.48	263.44
475.85	263.25
476.21	263.04
476.58	262.86
476.94	262.74
477.31	262.62
477.67	262.49
478.04	262.39
478.41	262.34
478.77	262.39
479.14	262.35
479.50	262.37
479.87	262.47
480.23	262.60
480.60	262.65
480.96	262.74
481.33	262.95
481.69	263.11
482.06	263.30
482.42	263.56
482.79	263.84
483.15	264.24
483.52	264.63
483.88	264.98
484.25	265.42
484.61	265.87
484.98	266.35
485.34	266.92
485.71	267.52
486.07	268.09
486.44	268.69
486.80	269.41
487.17	270.16
487.53	270.98
487.90	271.78
488.26	272.74
488.62	273.75
488.99	274.75
489.35	275.80
489.72	276.97
490.08	278.11
490.44	279.34
490.81	280.66
491.17	282.02
491.54	283.53
491.90	285.06
492.26	286.71
492.63	288.44
492.99	290.23
493.36	292.14
493.72	294.17
494.08	296.26
494.45	298.50
494.81	300.89
495.17	303.35
495.54	305.96
495.90	308.62
496.26	311.40
496.63	314.30
496.99	317.42
497.35	320.67
497.72	324.12
498.08	327.67
498.44	331.33
498.80	335.25
499.17	339.26
499.53	343.40
499.89	347.74
500.26	352.20
500.62	356.84
500.98	361.77
501.34	366.92
501.71	372.26
502.07	377.66
502.43	383.25
502.79	389.01
503.16	395.12
503.52	401.42
503.88	407.88
504.24	414.53
504.60	421.45
504.97	428.56
505.33	435.85
505.69	443.55
506.05	451.29
506.41	459.14
506.78	467.31
507.14	475.80
507.50	484.45
507.86	493.50
508.22	502.73
508.59	512.03
508.95	521.64
509.31	531.42
509.67	541.53
510.03	551.89
510.39	562.43
510.75	573.17
511.12	584.10
511.48	595.38
511.84	606.77
512.20	618.24
512.56	630.22
512.92	642.36
513.28	654.70
513.64	667.25
514.00	679.96
514.37	692.89
514.73	705.97
515.09	719.06
515.45	732.31
515.81	745.85
516.17	759.78
516.53	773.79
516.89	788.00
517.25	802.21
517.61	816.51
517.97	830.99
518.33	845.39
518.69	860.17
519.05	875.05
519.41	890.23
519.77	905.83
520.13	921.26
520.49	936.59
520.85	951.94
521.21	967.51
521.57	983.74
521.93	999.47
522.29	1015.75
522.65	1031.96
523.01	1048.20
523.37	1064.29
523.73	1080.41
524.09	1096.46
524.45	1112.70
524.81	1129.24
525.17	1146.07
525.53	1162.91
525.89	1179.79
526.25	1196.50
526.61	1212.89
526.97	1229.63
527.33	1246.14
527.68	1262.67
528.04	1279.21
528.40	1295.68
528.76	1312.71
529.12	1329.28
529.48	1346.12
529.84	1362.07
530.20	1378.60
530.56	1395.54
530.91	1412.86
531.27	1429.46
531.63	1445.91
531.99	1462.30
532.35	1478.24
532.71	1493.99
533.07	1510.11
533.42	1525.89
533.78	1541.94
534.14	1558.10
534.50	1573.49
534.86	1589.10
535.21	1604.22
535.57	1619.95
535.93	1635.42
536.29	1650.08
536.65	1664.92
537.00	1679.64
537.36	1694.96
537.72	1709.43
538.08	1723.72
538.44	1737.39
538.79	1751.22
539.15	1764.79
539.51	1778.56
539.87	1792.79
540.22	1806.45
540.58	1820.21
540.94	1833.36
541.29	1846.14
541.65	1858.72
542.01	1871.70
542.37	1883.97
542.72	1896.39
543.08	1908.15
543.44	1920.60
543.79	1932.00
544.15	1943.10
544.51	1954.63
544.87	1965.34
545.22	1976.11
545.58	1986.26
545.94	1995.85
546.29	2005.71
546.65	2015.46
547.01	2024.76
547.36	2033.53
547.72	2042.02
548.07	2049.76
548.43	2058.07
548.79	2066.03
549.14	2073.56
549.50	2080.94
549.86	2088.54
550.21	2095.64
550.57	2102.74
550.92	2109.12
551.28	2115.96
551.64	2122.89
551.99	2129.24
552.35	2135.46
552.70	2141.54
553.06	2147.56
553.41	2153.97
553.77	2159.89
554.13	2165.95
554.48	2172.05
554.84	2177.40
555.19	2182.53
555.55	2187.76
555.90	2192.14
556.26	2196.93
556.61	2201.63
556.97	2205.82
557.32	2210.02
557.68	2214.19
558.03	2218.55
558.39	2222.29
558.74	2226.95
559.10	2230.82
559.45	2234.48
559.81	2238.76
560.16	2242.66
560.52	2245.89
560.87	2249.35
561.23	2252.13
561.58	2255.11
561.94	2257.53
562.29	2259.84
562.64	2262.57
563.00	2265.09
563.35	2268.61
563.71	2271.74
564.06	2275.09
564.42	2278.05
564.77	2280.44
565.12	2282.75
565.48	2284.70
565.83	2286.68
566.19	2288.13
566.54	2289.06
566.89	2290.35
567.25	2290.97
567.60	2292.28
567.96	2293.90
568.31	2294.71
568.66	2295.91
569.02	2296.53
569.37	2296.97
569.72	2298.04
570.08	2298.32
570.43	2298.42
570.78	2297.92
571.14	2296.49
571.49	2295.15
571.84	2294.94
572.20	2294.00
572.55	2293.09
572.90	2291.51
573.26	2290.17
573.61	2288.32
573.96	2286.72
574.31	2283.85
574.67	2280.93
575.02	2277.38
575.37	2274.03
575.72	2270.24
576.08	2266.81
576.43	2263.48
576.78	2259.77
577.13	2256.64
577.49	2253.54
577.84	2250.14
578.19	2246.45
578.54	2242.94
578.90	2238.71
579.25	2233.14
579.60	2228.08
579.95	2223.00
580.30	2218.13
580.66	2212.93
581.01	2208.04
581.36	2203.07
581.71	2198.90
582.06	2194.54
582.42	2190.10
582.77	2185.10
583.12	2180.71
583.47	2176.15
583.82	2171.25
584.17	2166.07
584.53	2160.41
584.88	2154.86
585.23	2149.17
585.58	2143.67
585.93	2138.16
586.28	2133.44
586.63	2128.36
586.98	2123.55
587.34	2118.85
587.69	2113.96
588.04	2108.77
588.39	2103.21
588.74	2096.80
589.09	2090.56
589.44	2083.75
589.79	2077.79
590.14	2072.15
590.49	2065.68
590.84	2059.39
591.19	2053.47
591.54	2047.22
591.89	2040.09
592.25	2033.37
592.60	2026.06
592.95	2018.51
593.30	2011.39
593.65	2003.87
594.00	1996.89
594.35	1989.49
594.70	1981.64
595.05	1974.34
595.40	1967.02
595.75	1959.51
596.10	1953.36
596.45	1946.79
596.80	1940.68
597.15	1934.09
597.50	1927.04
597.85	1920.54
598.19	1913.71
598.54	1906.47
598.89	1899.76
599.24	1893.93
599.59	1887.13
599.94	1881.10
600.29	1874.92
600.64	1868.25
600.99	1860.84
601.34	1854.05
601.69	1847.30
602.04	1840.44
602.39	1833.29
602.74	1826.58
603.08	1819.88
603.43	1813.09
603.78	1805.70
604.13	1798.41
604.48	1791.08
604.83	1784.22
605.18	1777.36
605.53	1769.49
605.87	1761.68
606.22	1754.42
606.57	1746.39
606.92	1739.27
607.27	1732.01
607.62	1725.10
607.96	1717.87
608.31	1711.31
608.66	1703.69
609.01	1696.07
609.36	1688.53
609.70	1680.41
610.05	1672.41
610.40	1664.66
610.75	1656.45
611.10	1648.85
611.44	1640.53
611.79	1632.67
612.14	1623.97
612.49	1614.67
612.83	1606.34
613.18	1598.19
613.53	1590.07
613.88	1581.59
614.22	1573.22
614.57	1564.67
614.92	1556.65
615.27	1549.06
615.61	1540.68
615.96	1532.63
616.31	1525.06
616.65	1517.67
617.00	1510.13
617.35	1502.45
617.70	1494.17
618.04	1485.56
618.39	1477.36
618.74	1469.74
619.08	1461.34
619.43	1453.80
619.78	1446.97
620.12	1439.78
620.47	1432.18
620.82	1424.12
621.16	1416.63
621.51	1409.05
621.85	1401.43
622.20	1392.79
622.55	1384.39
622.89	1376.56
623.24	1369.05
623.59	1361.57
623.93	1354.01
624.28	1346.84
624.62	1339.24
624.97	1332.02
625.32	1325.28
625.66	1318.26
626.01	1311.14
626.35	1303.71
626.70	1295.94
627.04	1288.25
627.39	1280.42
627.73	1273.04
628.08	1266.06
628.43	1258.73
628.77	1251.32
629.12	1243.74
629.46	1236.59
629.81	1229.17
630.15	1221.98
630.50	1214.39
630.84	1206.17
631.19	1198.18
631.53	1190.62
631.88	1183.13
632.22	1175.59
632.57	1168.23
632.91	1160.64
633.26	1153.18
633.60	1145.86
633.95	1138.77
634.29	1131.70
634.64	1125.05
634.98	1117.70
635.32	1110.50
635.67	1103.89
636.01	1097.22
636.36	1090.43
636.70	1083.82
637.05	1077.21
637.39	1070.68
637.73	1064.21
638.08	1058.30
638.42	1052.28
638.77	1045.81
639.11	1039.18
639.45	1032.72
639.80	1026.06
640.14	1019.67
640.49	1013.18
640.83	1006.79
641.17	1000.39
641.52	994.01
641.86	987.46
642.20	981.64
642.55	975.39
642.89	968.85
643.23	962.35
643.58	956.62
643.92	950.55
644.26	944.57
644.61	938.54
644.95	932.54
645.29	926.02
645.64	919.31
645.98	913.05
646.32	907.20
646.66	901.11
647.01	895.43
647.35	889.70
647.69	883.83
648.04	878.31
648.38	872.62
648.72	866.57
649.06	860.55
649.41	854.61
649.75	848.57
650.09	842.66
650.43	836.89
650.78	830.69
651.12	824.72
651.46	818.93
651.80	813.15
652.14	807.80
652.49	802.36
652.83	797.21
653.17	791.49
653.51	785.79
653.85	780.48
654.20	774.75
654.54	768.71
654.88	762.91
655.22	757.07
655.56	751.42
655.90	746.01
656.25	740.79
656.59	735.47
656.93	730.44
657.27	725.28
657.61	719.83
657.95	714.72
658.29	709.66
658.64	704.46
658.98	699.14
659.32	693.63
659.66	688.53
660.00	683.21
660.34	678.22
660.68	673.29
661.02	668.22
661.36	663.48
661.70	659.05
662.05	654.70
662.39	650.27
662.73	645.69
663.07	641.31
663.41	636.84
663.75	632.33
664.09	627.70
664.43	623.37
664.77	619.27
665.11	615.03
665.45	610.90
665.79	606.76
666.13	602.63
666.47	598.49
666.81	594.25
667.15	590.15
667.49	586.26
667.83	582.44
668.17	578.48
668.51	574.40
668.85	570.30
669.19	566.44
669.53	562.64
669.87	558.83
670.21	555.14
670.55	551.51
670.89	548.02
671.23	544.55
671.57	541.02
671.91	537.40
672.25	533.91
672.58	530.38
672.92	526.94
673.26	523.78
673.60	520.65
673.94	517.52
674.28	514.58
674.62	511.65
674.96	508.53
675.30	505.62
675.64	502.71
675.97	499.96
676.31	497.10
676.65	494.16
676.99	491.44
677.33	488.58
677.67	485.73
678.01	482.73
678.34	479.82
678.68	476.87
679.02	474.12
679.36	471.30
679.70	468.53
680.04	465.83
680.37	462.95
680.71	460.13
681.05	457.54
681.39	454.80
681.73	452.14
682.06	449.64
682.40	447.13
682.74	444.62
683.08	442.01
683.42	439.40
683.75	436.94
684.09	434.35
684.43	431.85
684.77	429.38
685.10	426.99
685.44	424.69
685.78	422.48
686.12	420.22
686.45	417.97
686.79	415.69
687.13	413.48
687.46	411.36
687.80	409.21
688.14	406.97
688.48	404.94
688.81	402.67
689.15	400.51
689.49	398.36
689.82	396.30
690.16	394.27
690.50	392.38
690.83	390.39
691.17	388.45
691.51	386.56
691.84	384.69
692.18	382.82
692.52	380.79
692.85	378.80
693.19	376.91
693.52	375.08
693.86	373.28
694.20	371.50
694.53	369.66
694.87	367.83
695.21	366.02
695.54	364.17
695.88	362.45
696.21	360.70
696.55	358.98
696.88	357.27
697.22	355.58
697.56	353.93
697.89	352.28
698.23	350.67
698.56	349.03
698.90	347.49
699.23	345.84
699.57	344.32
699.90	342.81
700.24	341.24
700.58	339.67
700.91	338.15
701.25	336.66
701.58	335.31
701.92	333.98
702.25	332.61
702.59	331.30
702.92	329.94
703.26	328.64
703.59	327.41
703.93	326.23
704.26	325.04
704.60	323.69
704.93	322.45
705.26	321.22
705.60	320.00
705.93	318.81
706.27	317.71
706.60	316.64
706.94	315.52
707.27	314.36
707.61	313.30
707.94	312.24
708.27	311.17
708.61	310.05
708.94	308.99
709.28	308.04
709.61	307.05
709.94	306.11
710.28	305.09
710.61	304.07
710.95	302.97
711.28	302.01
711.61	301.06
711.95	300.14
712.28	299.20
712.61	298.27
712.95	297.33
713.28	296.49
713.61	295.58
713.95	294.71
714.28	293.90
714.61	293.08
714.95	292.25
715.28	291.37
715.61	290.54
715.95	289.68
716.28	288.78
716.61	287.92
716.95	287.08
717.28	286.31
717.61	285.51
717.94	284.82
718.28	284.01
718.61	283.28
718.94	282.56
719.27	281.84
719.61	281.20
719.94	280.57
720.27	279.79
720.60	279.12
720.94	278.49
721.27	277.92
721.60	277.33
721.93	276.74
722.27	276.21
722.60	275.66
722.93	275.13
723.26	274.64
723.59	274.10
723.93	273.57
724.26	273.05
724.59	272.53
724.92	272.02
725.25	271.52
725.59	271.01
725.92	270.48
726.25	269.98
726.58	269.51
726.91	269.01
727.24	268.61
727.57	268.19
727.91	267.68
728.24	267.17
728.57	266.68
728.90	266.20
729.23	265.69
729.56	265.25
729.89	264.76
730.22	264.27
730.55	263.78
730.89	263.34
731.22	262.92
731.55	262.51
731.88	262.09
732.21	261.66
732.54	261.26
732.87	260.87
733.20	260.47
733.53	260.07
733.86	259.65
734.19	259.26
734.52	258.88
734.85	258.59
735.18	258.22
735.51	257.87
735.84	257.51
736.17	257.15
736.50	256.75
736.83	256.53
737.16	256.18
737.49	255.86
737.82	255.50
738.15	255.13
738.48	254.77
738.81	254.41
739.14	254.10
739.47	253.73
739.80	253.40
740.13	253.11
740.46	252.78
740.79	252.45
741.12	252.10
741.45	251.78
741.78	251.40
742.11	251.07
742.44	250.70
742.77	250.42
743.10	250.11
743.43	249.79
743.75	249.38
744.08	249.21
744.41	248.93
744.74	248.65
745.07	248.36
745.40	248.11
745.73	247.86
746.06	247.58
746.39	247.36
746.71	247.10
747.04	246.81
747.37	246.52
747.70	246.27
748.03	245.99
748.36	245.75
748.68	245.51
749.01	245.28
749.34	245.03
749.67	244.80
750.00	244.59
750.33	244.44
750.65	244.23
750.98	243.88
751.31	243.66
751.64	243.41
751.97	243.27
752.29	243.01
752.62	242.74
752.95	242.52
753.28	242.29
753.60	242.03
753.93	241.84
754.26	241.65
754.59	241.42
754.91	241.25
755.24	241.04
755.57	240.84
755.90	240.66
756.22	240.51
756.55	240.28
756.88	240.09
757.20	239.80
757.53	239.63
757.86	239.45
758.19	239.26
758.51	239.13
758.84	238.89
759.17	238.71
759.49	238.58
759.82	238.44
760.15	238.26
760.47	238.18
760.80	238.00
761.13	237.85
761.45	237.73
761.78	237.59
762.11	237.46
762.43	237.33
762.76	237.18
763.08	237.04
763.41	236.95
763.74	236.81
764.06	236.74
764.39	236.61
764.71	236.48
765.04	236.36
765.37	236.22
765.69	236.11
766.02	236.01
766.34	235.89
766.67	235.75
767.00	235.67
767.32	235.57
767.65	235.53
767.97	235.43
768.30	235.33
768.62	235.22
768.95	235.09
769.27	234.99
769.60	234.88
769.92	234.76
770.25	234.63
770.57	234.51
770.90	234.36
771.22	234.27
771.55	234.24
771.87	234.15
772.20	234.08
772.52	234.08
772.85	234.13
773.17	234.08
773.50	234.00
773.82	233.90
774.15	233.80
774.47	233.68
774.80	233.62
775.12	233.51
775.45	233.43
775.77	233.37
776.09	233.28
776.42	233.23
776.74	233.19
777.07	233.11
777.39	233.07
777.72	233.06
778.04	233.02
778.36	232.91
778.69	232.86
779.01	232.82
779.33	232.65
779.66	232.47
779.98	232.39
780.31	232.37
780.63	232.38
780.95	232.34
781.28	232.26
781.60	232.20
781.92	232.15
782.25	232.08
782.57	232.01
782.89	231.94
783.22	231.88
783.54	231.81
783.86	231.76
784.19	231.68
784.51	231.63
784.83	231.52
785.16	231.48
785.48	231.43
785.80	231.35
786.12	231.31
786.45	231.24
786.77	231.16
787.09	231.05
