SpectraSuite Data File
++++++++++++++++++++++++++++++++++++
Date: Fri Feb 01 14:57:12 EST 2013
User: group
Dark Spectrum Present: No
Reference Spectrum Present: No
Number of Sampled Component Spectra: 1
Spectrometers: USB2E7196
Integration Time (usec): 35000 (USB2E7196)
Spectra Averaged: 100 (USB2E7196)
Boxcar Smoothing: 10 (USB2E7196)
Correct for Electrical Dark: No (USB2E7196)
Strobe/Lamp Enabled: No (USB2E7196)
Correct for Detector Non-linearity: No (USB2E7196)
Correct for Stray Light: No (USB2E7196)
Number of Pixels in Processed Spectrum: 2048
>>>>>Begin Processed Spectral Data<<<<<
339.09	0.00
339.48	215.09
339.86	216.32
340.24	217.97
340.63	219.39
341.01	221.78
341.39	221.63
341.78	223.58
342.16	223.72
342.54	225.18
342.93	213.37
343.31	224.14
343.69	224.67
344.07	225.14
344.46	225.58
344.84	225.94
345.22	226.21
345.60	226.48
345.99	226.63
346.37	226.79
346.75	226.88
347.13	226.95
347.52	226.98
347.90	227.08
348.28	227.12
348.66	227.17
349.05	227.17
349.43	227.27
349.81	227.33
350.19	227.41
350.57	227.46
350.96	227.56
351.34	227.67
351.72	227.78
352.10	227.92
352.48	227.98
352.87	228.07
353.25	228.15
353.63	228.23
354.01	228.34
354.39	228.47
354.77	228.59
355.15	228.71
355.54	228.80
355.92	228.86
356.30	228.97
356.68	229.10
357.06	229.15
357.44	229.20
357.82	229.26
358.20	229.32
358.58	229.36
358.97	229.41
359.35	229.49
359.73	229.55
360.11	229.61
360.49	229.66
360.87	229.68
361.25	229.74
361.63	229.80
362.01	229.83
362.39	229.80
362.77	229.83
363.15	229.81
363.53	229.84
363.91	229.82
364.29	229.80
364.67	229.71
365.05	229.71
365.43	229.69
365.81	229.69
366.19	229.70
366.57	229.77
366.95	229.79
367.33	229.77
367.71	229.77
368.09	229.73
368.47	229.70
368.85	229.67
369.23	229.66
369.61	229.58
369.99	229.60
370.37	229.60
370.75	229.59
371.13	229.52
371.51	229.47
371.89	229.44
372.27	229.39
372.65	229.37
373.03	229.30
373.41	229.22
373.78	229.17
374.16	229.05
374.54	228.95
374.92	228.80
375.30	228.71
375.68	228.61
376.06	228.53
376.44	228.46
376.82	228.41
377.19	228.31
377.57	228.24
377.95	228.11
378.33	228.00
378.71	227.86
379.09	227.81
379.47	227.75
379.84	227.68
380.22	227.60
380.60	227.47
380.98	227.41
381.36	227.36
381.73	227.26
382.11	227.23
382.49	227.15
382.87	227.09
383.25	227.03
383.62	227.05
384.00	226.96
384.38	226.89
384.76	226.85
385.13	226.81
385.51	226.74
385.89	226.69
386.27	226.63
386.64	226.61
387.02	226.59
387.40	226.51
387.78	226.44
388.15	226.39
388.53	226.35
388.91	226.31
389.29	226.23
389.66	226.21
390.04	226.18
390.42	226.16
390.79	226.12
391.17	226.09
391.55	225.99
391.92	226.02
392.30	226.05
392.68	226.00
393.05	226.00
393.43	226.01
393.81	226.04
394.18	226.07
394.56	226.07
394.94	226.12
395.31	226.16
395.69	226.24
396.06	226.30
396.44	226.40
396.82	226.45
397.19	226.62
397.57	226.68
397.95	226.73
398.32	226.78
398.70	226.89
399.07	227.00
399.45	227.06
399.82	227.13
400.20	227.20
400.58	227.34
400.95	227.41
401.33	227.54
401.70	227.70
402.08	227.77
402.45	227.91
402.83	228.04
403.20	228.16
403.58	228.27
403.95	228.40
404.33	228.52
404.71	228.69
405.08	228.84
405.46	228.99
405.83	229.17
406.21	229.34
406.58	229.55
406.96	229.73
407.33	229.91
407.70	230.11
408.08	230.40
408.45	230.60
408.83	230.85
409.20	231.05
409.58	231.23
409.95	231.55
410.33	231.85
410.70	232.12
411.08	232.41
411.45	232.75
411.82	233.07
412.20	233.45
412.57	233.86
412.95	234.17
413.32	234.58
413.69	235.00
414.07	235.42
414.44	235.89
414.82	236.38
415.19	236.93
415.56	237.49
415.94	238.03
416.31	238.65
416.68	239.26
417.06	239.99
417.43	240.66
417.81	241.40
418.18	242.15
418.55	242.96
418.93	243.83
419.30	244.72
419.67	245.63
420.04	246.57
420.42	247.56
420.79	248.73
421.16	249.89
421.54	251.10
421.91	252.30
422.28	253.52
422.66	254.85
423.03	256.18
423.40	257.52
423.77	258.91
424.15	260.34
424.52	261.83
424.89	263.44
425.26	264.99
425.64	266.45
426.01	268.03
426.38	269.68
426.75	271.33
427.13	273.04
427.50	274.84
427.87	276.71
428.24	278.54
428.61	280.26
428.99	282.17
429.36	284.25
429.73	286.34
430.10	288.34
430.47	290.37
430.85	292.46
431.22	294.72
431.59	297.10
431.96	299.36
432.33	301.87
432.70	304.22
433.08	307.06
433.45	309.64
433.82	312.26
434.19	315.13
434.56	317.96
434.93	320.60
435.30	323.25
435.68	326.18
436.05	329.02
436.42	331.87
436.79	334.39
437.16	337.09
437.53	339.93
437.90	342.79
438.27	345.52
438.64	348.38
439.01	350.92
439.38	353.18
439.75	355.35
440.13	357.85
440.50	360.20
440.87	362.05
441.24	364.06
441.61	366.21
441.98	367.72
442.35	369.53
442.72	371.39
443.09	373.22
443.46	374.18
443.83	374.81
444.20	375.26
444.57	376.14
444.94	376.41
445.31	376.71
445.68	377.06
446.05	377.13
446.42	376.72
446.79	376.32
447.16	375.87
447.53	375.51
447.90	374.34
448.27	373.22
448.64	371.66
449.01	370.49
449.37	368.54
449.74	366.63
450.11	364.39
450.48	361.93
450.85	359.39
451.22	357.23
451.59	355.16
451.96	353.28
452.33	350.62
452.70	348.30
453.07	345.48
453.43	342.56
453.80	339.84
454.17	337.19
454.54	334.62
454.91	331.92
455.28	329.29
455.65	326.78
456.02	324.29
456.38	322.10
456.75	319.46
457.12	317.20
457.49	314.99
457.86	312.85
458.23	310.97
458.59	308.92
458.96	306.82
459.33	304.97
459.70	303.10
460.07	301.63
460.43	299.87
460.80	298.23
461.17	296.81
461.54	295.27
461.91	293.85
462.27	292.40
462.64	291.13
463.01	289.76
463.38	288.45
463.74	287.07
464.11	285.91
464.48	284.89
464.85	283.77
465.21	282.84
465.58	281.89
465.95	280.81
466.32	279.86
466.68	278.93
467.05	278.01
467.42	277.09
467.78	276.12
468.15	275.24
468.52	274.58
468.88	273.70
469.25	272.91
469.62	272.26
469.98	271.56
470.35	270.93
470.72	270.33
471.08	269.69
471.45	269.12
471.82	268.55
472.18	267.90
472.55	267.44
472.92	266.94
473.28	266.45
473.65	265.98
474.02	265.53
474.38	265.17
474.75	264.82
475.11	264.44
475.48	264.14
475.85	263.89
476.21	263.64
476.58	263.44
476.94	263.27
477.31	263.06
477.67	262.90
478.04	262.74
478.41	262.66
478.77	262.63
479.14	262.56
479.50	262.55
479.87	262.62
480.23	262.66
480.60	262.67
480.96	262.78
481.33	262.95
481.69	263.14
482.06	263.37
482.42	263.59
482.79	263.86
483.15	264.21
483.52	264.56
483.88	264.90
484.25	265.24
484.61	265.68
484.98	266.15
485.34	266.71
485.71	267.34
486.07	267.91
486.44	268.49
486.80	269.17
487.17	269.91
487.53	270.72
487.90	271.61
488.26	272.58
488.62	273.56
488.99	274.54
489.35	275.60
489.72	276.69
490.08	277.89
490.44	279.12
490.81	280.46
491.17	281.83
491.54	283.33
491.90	284.89
492.26	286.52
492.63	288.24
492.99	290.00
493.36	291.84
493.72	293.90
494.08	295.99
494.45	298.30
494.81	300.65
495.17	303.10
495.54	305.65
495.90	308.30
496.26	311.05
496.63	313.99
496.99	317.09
497.35	320.33
497.72	323.71
498.08	327.24
498.44	330.92
498.80	334.87
499.17	338.90
499.53	343.04
499.89	347.40
500.26	351.87
500.62	356.53
500.98	361.49
501.34	366.55
501.71	371.88
502.07	377.26
502.43	382.82
502.79	388.59
503.16	394.57
503.52	400.81
503.88	407.24
504.24	413.84
504.60	420.65
504.97	427.73
505.33	435.00
505.69	442.66
506.05	450.33
506.41	458.18
506.78	466.29
507.14	474.77
507.50	483.48
507.86	492.51
508.22	501.61
508.59	510.78
508.95	520.29
509.31	530.02
509.67	540.08
510.03	550.41
510.39	560.95
510.75	571.83
511.12	582.72
511.48	593.96
511.84	605.30
512.20	616.88
512.56	628.86
512.92	641.06
513.28	653.39
513.64	665.90
514.00	678.54
514.37	691.43
514.73	704.39
515.09	717.39
515.45	730.64
515.81	744.26
516.17	758.22
516.53	772.38
516.89	786.61
517.25	800.82
517.61	815.26
517.97	829.72
518.33	844.21
518.69	859.04
519.05	874.06
519.41	889.36
519.77	904.93
520.13	920.49
520.49	935.80
520.85	951.28
521.21	967.05
521.57	983.28
521.93	999.17
522.29	1015.64
522.65	1031.93
523.01	1048.20
523.37	1064.35
523.73	1080.65
524.09	1096.80
524.45	1113.07
524.81	1129.82
525.17	1146.74
525.53	1163.72
525.89	1180.51
526.25	1197.37
526.61	1213.88
526.97	1230.71
527.33	1247.20
527.68	1263.81
528.04	1280.54
528.40	1297.24
528.76	1314.43
529.12	1331.16
529.48	1348.00
529.84	1364.08
530.20	1380.85
530.56	1398.07
530.91	1415.39
531.27	1432.15
531.63	1448.65
531.99	1465.42
532.35	1481.41
532.71	1497.27
533.07	1513.59
533.42	1529.61
533.78	1545.70
534.14	1562.03
534.50	1577.37
534.86	1593.34
535.21	1608.63
535.57	1624.52
535.93	1640.09
536.29	1654.85
536.65	1670.06
537.00	1685.09
537.36	1700.56
537.72	1715.26
538.08	1729.59
538.44	1743.67
538.79	1757.71
539.15	1771.62
539.51	1785.55
539.87	1800.02
540.22	1814.00
540.58	1827.91
540.94	1841.47
541.29	1854.66
541.65	1867.47
542.01	1880.88
542.37	1893.27
542.72	1905.85
543.08	1917.71
543.44	1930.30
543.79	1941.65
544.15	1952.66
544.51	1964.35
544.87	1975.35
545.22	1986.14
545.58	1996.46
545.94	2006.16
546.29	2016.07
546.65	2025.73
547.01	2034.96
547.36	2043.62
547.72	2052.04
548.07	2059.79
548.43	2067.86
548.79	2075.84
549.14	2083.22
549.50	2090.54
549.86	2098.30
550.21	2105.44
550.57	2112.67
550.92	2119.04
551.28	2126.19
551.64	2133.29
551.99	2139.62
552.35	2145.86
552.70	2151.97
553.06	2157.86
553.41	2164.27
553.77	2170.30
554.13	2176.49
554.48	2182.48
554.84	2187.97
555.19	2193.24
555.55	2198.36
555.90	2202.75
556.26	2207.54
556.61	2212.35
556.97	2216.30
557.32	2220.40
557.68	2224.55
558.03	2228.76
558.39	2232.50
558.74	2237.04
559.10	2240.73
559.45	2244.40
559.81	2248.56
560.16	2252.21
560.52	2255.48
560.87	2258.87
561.23	2261.36
561.58	2264.31
561.94	2266.89
562.29	2269.30
562.64	2271.88
563.00	2274.61
563.35	2278.20
563.71	2281.22
564.06	2284.40
564.42	2287.43
564.77	2289.89
565.12	2291.99
565.48	2293.69
565.83	2295.36
566.19	2296.45
566.54	2297.29
566.89	2298.19
567.25	2298.62
567.60	2300.01
567.96	2301.39
568.31	2302.06
568.66	2302.96
569.02	2303.26
569.37	2303.32
569.72	2303.91
570.08	2303.68
570.43	2303.31
570.78	2302.40
571.14	2300.68
571.49	2299.06
571.84	2298.61
572.20	2297.12
572.55	2295.99
572.90	2294.37
573.26	2292.81
573.61	2291.00
573.96	2288.91
574.31	2285.71
574.67	2282.42
575.02	2278.38
575.37	2274.83
575.72	2270.65
576.08	2267.27
576.43	2263.88
576.78	2260.18
577.13	2257.02
577.49	2253.93
577.84	2250.46
578.19	2246.68
578.54	2242.84
578.90	2238.51
579.25	2232.81
579.60	2227.82
579.95	2222.67
580.30	2217.49
580.66	2212.20
581.01	2207.15
581.36	2202.21
581.71	2198.04
582.06	2193.40
582.42	2188.90
582.77	2183.65
583.12	2179.05
583.47	2174.12
583.82	2168.83
584.17	2163.34
584.53	2157.52
584.88	2151.76
585.23	2145.74
585.58	2140.08
585.93	2134.62
586.28	2129.70
586.63	2124.51
586.98	2119.20
587.34	2114.32
587.69	2109.35
588.04	2103.89
588.39	2097.92
588.74	2091.38
589.09	2085.09
589.44	2078.23
589.79	2072.28
590.14	2066.48
590.49	2059.88
590.84	2053.35
591.19	2047.33
591.54	2040.66
591.89	2033.07
592.25	2026.12
592.60	2018.84
592.95	2011.09
593.30	2003.65
593.65	1995.97
594.00	1988.79
594.35	1981.52
594.70	1973.50
595.05	1966.10
595.40	1958.86
595.75	1951.43
596.10	1945.00
596.45	1938.09
596.80	1931.87
597.15	1924.91
597.50	1917.65
597.85	1911.16
598.19	1904.48
598.54	1897.28
598.89	1890.78
599.24	1884.95
599.59	1878.29
599.94	1872.04
600.29	1865.77
600.64	1859.06
600.99	1851.43
601.34	1844.57
601.69	1837.46
602.04	1830.33
602.39	1822.95
602.74	1816.15
603.08	1809.27
603.43	1802.65
603.78	1795.49
604.13	1788.32
604.48	1780.95
604.83	1774.21
605.18	1767.20
605.53	1759.09
605.87	1751.09
606.22	1743.80
606.57	1735.86
606.92	1728.56
607.27	1721.20
607.62	1714.29
607.96	1706.97
608.31	1700.37
608.66	1692.67
609.01	1685.30
609.36	1677.79
609.70	1669.72
610.05	1661.57
610.40	1653.93
610.75	1645.54
611.10	1637.76
611.44	1629.31
611.79	1621.53
612.14	1612.76
612.49	1603.67
612.83	1595.42
613.18	1587.29
613.53	1579.22
613.88	1570.70
614.22	1562.32
614.57	1553.95
614.92	1545.83
615.27	1538.34
615.61	1530.08
615.96	1522.22
616.31	1514.61
616.65	1507.36
617.00	1499.90
617.35	1492.26
617.70	1483.97
618.04	1475.54
618.39	1467.45
618.74	1459.99
619.08	1451.73
619.43	1444.27
619.78	1437.43
620.12	1430.30
620.47	1422.78
620.82	1414.66
621.16	1407.30
621.51	1399.79
621.85	1392.24
622.20	1383.76
622.55	1375.46
622.89	1367.70
623.24	1360.04
623.59	1352.65
623.93	1345.22
624.28	1338.02
624.62	1330.50
624.97	1323.39
625.32	1316.72
625.66	1309.72
626.01	1302.50
626.35	1295.09
626.70	1287.38
627.04	1279.59
627.39	1271.85
627.73	1264.59
628.08	1257.70
628.43	1250.34
628.77	1243.05
629.12	1235.47
629.46	1228.44
629.81	1221.22
630.15	1214.05
630.50	1206.80
630.84	1198.70
631.19	1190.79
631.53	1183.37
631.88	1175.94
632.22	1168.41
632.57	1161.12
632.91	1153.61
633.26	1146.23
633.60	1138.92
633.95	1131.99
634.29	1125.07
634.64	1118.48
634.98	1111.14
635.32	1103.95
635.67	1097.46
636.01	1090.81
636.36	1084.04
636.70	1077.58
637.05	1070.93
637.39	1064.54
637.73	1057.95
638.08	1052.08
638.42	1046.15
638.77	1039.71
639.11	1033.15
639.45	1026.82
639.80	1020.17
640.14	1013.77
640.49	1007.38
640.83	1001.03
641.17	994.78
641.52	988.53
641.86	982.16
642.20	976.35
642.55	970.26
642.89	963.83
643.23	957.46
643.58	951.76
643.92	945.57
644.26	939.54
644.61	933.59
644.95	927.60
645.29	921.06
645.64	914.27
645.98	908.02
646.32	902.19
646.66	896.11
647.01	890.35
647.35	884.65
647.69	878.78
648.04	873.39
648.38	867.63
648.72	861.52
649.06	855.48
649.41	849.64
649.75	843.61
650.09	837.71
650.43	831.87
650.78	825.64
651.12	819.76
651.46	814.02
651.80	808.20
652.14	802.82
652.49	797.49
652.83	792.31
653.17	786.60
653.51	780.85
653.85	775.59
654.20	770.02
654.54	764.06
654.88	758.44
655.22	752.51
655.56	746.86
655.90	741.53
656.25	736.27
656.59	730.88
656.93	725.86
657.27	720.67
657.61	715.28
657.95	710.25
658.29	705.19
658.64	700.01
658.98	694.79
659.32	689.36
659.66	684.14
660.00	678.89
660.34	674.07
660.68	669.28
661.02	664.22
661.36	659.58
661.70	655.19
662.05	650.85
662.39	646.60
662.73	642.14
663.07	637.83
663.41	633.41
663.75	628.98
664.09	624.45
664.43	620.20
664.77	616.09
665.11	611.91
665.45	607.81
665.79	603.80
666.13	599.76
666.47	595.77
666.81	591.69
667.15	587.67
667.49	583.85
667.83	580.06
668.17	576.17
668.51	572.14
668.85	568.17
669.19	564.34
669.53	560.49
669.87	556.69
670.21	552.97
670.55	549.41
670.89	546.06
671.23	542.64
671.57	539.01
671.91	535.55
672.25	532.10
672.58	528.60
672.92	525.21
673.26	522.08
673.60	518.86
673.94	515.74
674.28	512.88
674.62	509.91
674.96	506.87
675.30	503.99
675.64	501.05
675.97	498.29
676.31	495.44
676.65	492.53
676.99	489.83
677.33	487.00
677.67	484.18
678.01	481.14
678.34	478.21
678.68	475.45
679.02	472.63
679.36	469.90
679.70	467.21
680.04	464.46
680.37	461.52
680.71	458.86
681.05	456.27
681.39	453.55
681.73	450.89
682.06	448.40
682.40	445.87
682.74	443.36
683.08	440.86
683.42	438.34
683.75	435.90
684.09	433.37
684.43	430.87
684.77	428.43
685.10	426.12
685.44	423.84
685.78	421.57
686.12	419.36
686.45	417.09
686.79	414.85
687.13	412.69
687.46	410.64
687.80	408.52
688.14	406.37
688.48	404.35
688.81	402.14
689.15	399.95
689.49	397.83
689.82	395.78
690.16	393.69
690.50	391.71
690.83	389.78
691.17	387.84
691.51	386.00
691.84	384.15
692.18	382.21
692.52	380.24
692.85	378.31
693.19	376.42
693.52	374.60
693.86	372.80
694.20	371.01
694.53	369.19
694.87	367.33
695.21	365.54
695.54	363.69
695.88	362.02
696.21	360.30
696.55	358.63
696.88	356.99
697.22	355.33
697.56	353.73
697.89	352.07
698.23	350.48
698.56	348.89
698.90	347.35
699.23	345.72
699.57	344.15
699.90	342.66
700.24	341.11
700.58	339.56
700.91	338.04
701.25	336.58
701.58	335.22
701.92	333.85
702.25	332.49
702.59	331.13
702.92	329.77
703.26	328.46
703.59	327.17
703.93	325.96
704.26	324.76
704.60	323.48
704.93	322.23
705.26	320.95
705.60	319.81
705.93	318.67
706.27	317.69
706.60	316.70
706.94	315.64
707.27	314.54
707.61	313.53
707.94	312.51
708.27	311.45
708.61	310.35
708.94	309.39
709.28	308.38
709.61	307.43
709.94	306.51
710.28	305.53
710.61	304.60
710.95	303.52
711.28	302.63
711.61	301.71
711.95	300.81
712.28	299.92
712.61	298.92
712.95	297.99
713.28	297.09
713.61	296.17
713.95	295.26
714.28	294.41
714.61	293.52
714.95	292.72
715.28	291.90
715.61	291.06
715.95	290.20
716.28	289.35
716.61	288.55
716.95	287.73
717.28	287.00
717.61	286.18
717.94	285.46
718.28	284.66
718.61	283.91
718.94	283.19
719.27	282.56
719.61	281.93
719.94	281.29
720.27	280.57
720.60	279.93
720.94	279.33
721.27	278.78
721.60	278.25
721.93	277.67
722.27	277.10
722.60	276.59
722.93	276.03
723.26	275.54
723.59	274.98
723.93	274.44
724.26	273.88
724.59	273.36
724.92	272.81
725.25	272.28
725.59	271.78
725.92	271.27
726.25	270.75
726.58	270.24
726.91	269.71
727.24	269.27
727.57	268.79
727.91	268.26
728.24	267.77
728.57	267.25
728.90	266.78
729.23	266.28
729.56	265.81
729.89	265.36
730.22	264.83
730.55	264.35
730.89	263.90
731.22	263.46
731.55	263.02
731.88	262.63
732.21	262.22
732.54	261.76
732.87	261.37
733.20	260.99
733.53	260.60
733.86	260.25
734.19	259.81
734.52	259.43
734.85	259.14
735.18	258.72
735.51	258.39
735.84	258.02
736.17	257.67
736.50	257.27
736.83	257.01
737.16	256.72
737.49	256.42
737.82	256.07
738.15	255.73
738.48	255.38
738.81	255.03
739.14	254.71
739.47	254.41
739.80	254.09
740.13	253.76
740.46	253.41
740.79	253.06
741.12	252.76
741.45	252.43
741.78	252.08
742.11	251.81
742.44	251.48
742.77	251.20
743.10	250.92
743.43	250.67
743.75	250.26
744.08	250.14
744.41	249.87
744.74	249.61
745.07	249.37
745.40	249.17
745.73	248.96
746.06	248.67
746.39	248.43
746.71	248.17
747.04	247.88
747.37	247.68
747.70	247.46
748.03	247.26
748.36	247.06
748.68	246.81
749.01	246.58
749.34	246.37
749.67	246.12
750.00	245.92
750.33	245.80
750.65	245.59
750.98	245.24
751.31	245.00
751.64	244.82
751.97	244.66
752.29	244.41
752.62	244.16
752.95	243.97
753.28	243.76
753.60	243.55
753.93	243.38
754.26	243.17
754.59	242.93
754.91	242.69
755.24	242.49
755.57	242.34
755.90	242.13
756.22	241.93
756.55	241.75
756.88	241.55
757.20	241.28
757.53	241.10
757.86	240.95
758.19	240.78
758.51	240.59
758.84	240.39
759.17	240.25
759.49	240.10
759.82	239.99
760.15	239.84
760.47	239.68
760.80	239.55
761.13	239.46
761.45	239.31
761.78	239.20
762.11	239.02
762.43	238.84
762.76	238.72
763.08	238.59
763.41	238.44
763.74	238.32
764.06	238.20
764.39	238.07
764.71	237.91
765.04	237.78
765.37	237.64
765.69	237.49
766.02	237.36
766.34	237.26
766.67	237.11
767.00	237.00
767.32	236.97
767.65	236.86
767.97	236.70
768.30	236.61
768.62	236.50
768.95	236.41
769.27	236.33
769.60	236.22
769.92	236.11
770.25	235.98
770.57	235.86
770.90	235.77
771.22	235.68
771.55	235.62
771.87	235.54
772.20	235.44
772.52	235.44
772.85	235.46
773.17	235.36
773.50	235.25
773.82	235.13
774.15	235.02
774.47	234.88
774.80	234.78
775.12	234.69
775.45	234.57
775.77	234.53
776.09	234.42
776.42	234.33
776.74	234.28
777.07	234.22
777.39	234.13
777.72	234.03
778.04	233.94
778.36	233.83
778.69	233.73
779.01	233.65
779.33	233.47
779.66	233.27
779.98	233.18
780.31	233.10
780.63	233.08
780.95	233.01
781.28	232.94
781.60	232.86
781.92	232.77
782.25	232.70
782.57	232.60
782.89	232.56
783.22	232.50
783.54	232.42
783.86	232.35
784.19	232.30
784.51	232.27
784.83	232.22
785.16	232.15
785.48	232.11
785.80	232.10
786.12	232.06
786.45	232.00
786.77	231.99
787.09	231.95
