SpectraSuite Data File
++++++++++++++++++++++++++++++++++++
Date: Fri Feb 01 14:56:54 EST 2013
User: group
Dark Spectrum Present: No
Reference Spectrum Present: No
Number of Sampled Component Spectra: 1
Spectrometers: USB2E7196
Integration Time (usec): 35000 (USB2E7196)
Spectra Averaged: 100 (USB2E7196)
Boxcar Smoothing: 10 (USB2E7196)
Correct for Electrical Dark: No (USB2E7196)
Strobe/Lamp Enabled: No (USB2E7196)
Correct for Detector Non-linearity: No (USB2E7196)
Correct for Stray Light: No (USB2E7196)
Number of Pixels in Processed Spectrum: 2048
>>>>>Begin Processed Spectral Data<<<<<
339.09	0.00
339.48	215.22
339.86	217.06
340.24	218.05
340.63	219.30
341.01	222.40
341.39	222.00
341.78	223.64
342.16	225.04
342.54	225.24
342.93	213.57
343.31	224.39
343.69	224.94
344.07	225.39
344.46	225.81
344.84	226.19
345.22	226.41
345.60	226.69
345.99	226.87
346.37	226.98
346.75	227.06
347.13	227.14
347.52	227.20
347.90	227.24
348.28	227.27
348.66	227.30
349.05	227.32
349.43	227.39
349.81	227.42
350.19	227.47
350.57	227.53
350.96	227.59
351.34	227.65
351.72	227.69
352.10	227.79
352.48	227.89
352.87	227.93
353.25	228.02
353.63	228.07
354.01	228.10
354.39	228.18
354.77	228.31
355.15	228.41
355.54	228.48
355.92	228.52
356.30	228.58
356.68	228.72
357.06	228.77
357.44	228.84
357.82	228.88
358.20	228.97
358.58	229.02
358.97	229.09
359.35	229.14
359.73	229.25
360.11	229.23
360.49	229.26
360.87	229.34
361.25	229.38
361.63	229.45
362.01	229.54
362.39	229.58
362.77	229.61
363.15	229.64
363.53	229.69
363.91	229.72
364.29	229.74
364.67	229.65
365.05	229.66
365.43	229.63
365.81	229.63
366.19	229.66
366.57	229.65
366.95	229.63
367.33	229.62
367.71	229.58
368.09	229.63
368.47	229.62
368.85	229.54
369.23	229.53
369.61	229.45
369.99	229.43
370.37	229.37
370.75	229.37
371.13	229.31
371.51	229.22
371.89	229.17
372.27	229.13
372.65	229.08
373.03	229.02
373.41	228.95
373.78	228.91
374.16	228.80
374.54	228.74
374.92	228.68
375.30	228.61
375.68	228.50
376.06	228.43
376.44	228.35
376.82	228.32
377.19	228.21
377.57	228.11
377.95	228.02
378.33	227.95
378.71	227.79
379.09	227.70
379.47	227.62
379.84	227.53
380.22	227.44
380.60	227.34
380.98	227.27
381.36	227.22
381.73	227.12
382.11	227.08
382.49	227.01
382.87	226.91
383.25	226.84
383.62	226.94
384.00	226.85
384.38	226.78
384.76	226.73
385.13	226.73
385.51	226.67
385.89	226.59
386.27	226.55
386.64	226.54
387.02	226.49
387.40	226.42
387.78	226.36
388.15	226.34
388.53	226.32
388.91	226.30
389.29	226.27
389.66	226.28
390.04	226.22
390.42	226.24
390.79	226.23
391.17	226.19
391.55	226.07
391.92	226.06
392.30	226.08
392.68	226.06
393.05	226.05
393.43	226.10
393.81	226.14
394.18	226.13
394.56	226.14
394.94	226.17
395.31	226.24
395.69	226.31
396.06	226.37
396.44	226.43
396.82	226.47
397.19	226.56
397.57	226.58
397.95	226.67
398.32	226.68
398.70	226.78
399.07	226.90
399.45	226.99
399.82	227.06
400.20	227.15
400.58	227.27
400.95	227.32
401.33	227.43
401.70	227.59
402.08	227.72
402.45	227.83
402.83	227.99
403.20	228.10
403.58	228.22
403.95	228.37
404.33	228.53
404.71	228.70
405.08	228.88
405.46	229.03
405.83	229.19
406.21	229.35
406.58	229.51
406.96	229.68
407.33	229.85
407.70	230.09
408.08	230.35
408.45	230.57
408.83	230.85
409.20	231.05
409.58	231.23
409.95	231.52
410.33	231.80
410.70	232.03
411.08	232.37
411.45	232.73
411.82	233.00
412.20	233.35
412.57	233.74
412.95	234.06
413.32	234.50
413.69	234.88
414.07	235.32
414.44	235.81
414.82	236.28
415.19	236.82
415.56	237.34
415.94	237.87
416.31	238.49
416.68	239.12
417.06	239.82
417.43	240.49
417.81	241.21
418.18	242.02
418.55	242.86
418.93	243.71
419.30	244.58
419.67	245.53
420.04	246.47
420.42	247.45
420.79	248.60
421.16	249.73
421.54	250.90
421.91	252.11
422.28	253.33
422.66	254.67
423.03	255.99
423.40	257.31
423.77	258.73
424.15	260.13
424.52	261.60
424.89	263.22
425.26	264.81
425.64	266.25
426.01	267.81
426.38	269.48
426.75	271.12
427.13	272.81
427.50	274.58
427.87	276.43
428.24	278.29
428.61	280.03
428.99	281.96
429.36	284.09
429.73	286.20
430.10	288.24
430.47	290.26
430.85	292.39
431.22	294.63
431.59	296.99
431.96	299.24
432.33	301.71
432.70	304.10
433.08	306.89
433.45	309.54
433.82	312.15
434.19	315.06
434.56	317.91
434.93	320.59
435.30	323.21
435.68	326.11
436.05	328.94
436.42	331.74
436.79	334.28
437.16	336.99
437.53	339.81
437.90	342.62
438.27	345.39
438.64	348.18
439.01	350.81
439.38	353.08
439.75	355.26
440.13	357.78
440.50	360.16
440.87	362.04
441.24	364.00
441.61	366.23
441.98	367.71
442.35	369.48
442.72	371.34
443.09	373.23
443.46	374.21
443.83	374.81
444.20	375.32
444.57	376.16
444.94	376.47
445.31	376.82
445.68	377.19
446.05	377.25
446.42	376.85
446.79	376.43
447.16	375.95
447.53	375.63
447.90	374.45
448.27	373.22
448.64	371.63
449.01	370.50
449.37	368.45
449.74	366.58
450.11	364.31
450.48	361.82
450.85	359.25
451.22	357.19
451.59	355.19
451.96	353.25
452.33	350.68
452.70	348.26
453.07	345.41
453.43	342.51
453.80	339.75
454.17	337.11
454.54	334.53
454.91	331.85
455.28	329.16
455.65	326.68
456.02	324.22
456.38	322.06
456.75	319.39
457.12	317.16
457.49	314.92
457.86	312.77
458.23	310.89
458.59	308.87
458.96	306.71
459.33	304.86
459.70	302.97
460.07	301.44
460.43	299.69
460.80	298.05
461.17	296.61
461.54	295.08
461.91	293.65
462.27	292.23
462.64	290.94
463.01	289.54
463.38	288.21
463.74	286.85
464.11	285.68
464.48	284.65
464.85	283.50
465.21	282.61
465.58	281.68
465.95	280.57
466.32	279.61
466.68	278.72
467.05	277.76
467.42	276.88
467.78	275.91
468.15	275.05
468.52	274.40
468.88	273.50
469.25	272.72
469.62	272.07
469.98	271.36
470.35	270.71
470.72	270.13
471.08	269.51
471.45	268.93
471.82	268.38
472.18	267.76
472.55	267.29
472.92	266.75
473.28	266.25
473.65	265.78
474.02	265.34
474.38	264.96
474.75	264.63
475.11	264.27
475.48	264.01
475.85	263.77
476.21	263.50
476.58	263.34
476.94	263.16
477.31	262.95
477.67	262.79
478.04	262.65
478.41	262.58
478.77	262.58
479.14	262.50
479.50	262.48
479.87	262.54
480.23	262.63
480.60	262.69
480.96	262.82
481.33	263.05
481.69	263.21
482.06	263.41
482.42	263.64
482.79	263.88
483.15	264.19
483.52	264.57
483.88	264.91
484.25	265.30
484.61	265.75
484.98	266.24
485.34	266.84
485.71	267.45
486.07	268.05
486.44	268.65
486.80	269.34
487.17	270.08
487.53	270.86
487.90	271.73
488.26	272.68
488.62	273.63
488.99	274.65
489.35	275.70
489.72	276.84
490.08	278.03
490.44	279.26
490.81	280.60
491.17	281.96
491.54	283.46
491.90	284.95
492.26	286.59
492.63	288.34
492.99	290.10
493.36	292.00
493.72	294.00
494.08	296.10
494.45	298.37
494.81	300.74
495.17	303.17
495.54	305.70
495.90	308.37
496.26	311.19
496.63	314.08
496.99	317.19
497.35	320.40
497.72	323.80
498.08	327.31
498.44	330.96
498.80	334.82
499.17	338.83
499.53	343.01
499.89	347.34
500.26	351.80
500.62	356.44
500.98	361.40
501.34	366.45
501.71	371.78
502.07	377.13
502.43	382.67
502.79	388.47
503.16	394.55
503.52	400.76
503.88	407.12
504.24	413.74
504.60	420.61
504.97	427.72
505.33	434.98
505.69	442.64
506.05	450.40
506.41	458.33
506.78	466.44
507.14	474.88
507.50	483.59
507.86	492.57
508.22	501.76
508.59	510.88
508.95	520.48
509.31	530.29
509.67	540.37
510.03	550.68
510.39	561.22
510.75	571.96
511.12	582.89
511.48	594.12
511.84	605.58
512.20	617.10
512.56	629.02
512.92	641.22
513.28	653.53
513.64	666.03
514.00	678.70
514.37	691.67
514.73	704.64
515.09	717.64
515.45	730.96
515.81	744.48
516.17	758.49
516.53	772.58
516.89	786.68
517.25	800.97
517.61	815.38
517.97	829.81
518.33	844.29
518.69	859.01
519.05	873.98
519.41	889.15
519.77	904.70
520.13	920.15
520.49	935.43
520.85	950.96
521.21	966.72
521.57	983.01
521.93	998.81
522.29	1015.38
522.65	1031.70
523.01	1047.99
523.37	1064.11
523.73	1080.29
524.09	1096.52
524.45	1112.96
524.81	1129.72
525.17	1146.69
525.53	1163.83
525.89	1180.75
526.25	1197.78
526.61	1214.28
526.97	1231.04
527.33	1247.54
527.68	1264.23
528.04	1280.86
528.40	1297.51
528.76	1314.66
529.12	1331.38
529.48	1348.36
529.84	1364.45
530.20	1381.19
530.56	1398.30
530.91	1415.77
531.27	1432.66
531.63	1449.16
531.99	1465.75
532.35	1481.77
532.71	1497.57
533.07	1513.91
533.42	1529.92
533.78	1545.94
534.14	1562.33
534.50	1577.79
534.86	1593.81
535.21	1609.10
535.57	1625.10
535.93	1640.70
536.29	1655.54
536.65	1670.68
537.00	1685.54
537.36	1700.88
537.72	1715.56
538.08	1730.08
538.44	1744.08
538.79	1758.22
539.15	1771.96
539.51	1785.89
539.87	1800.27
540.22	1814.25
540.58	1827.98
540.94	1841.47
541.29	1854.71
541.65	1867.44
542.01	1880.66
542.37	1893.00
542.72	1905.60
543.08	1917.54
543.44	1929.92
543.79	1941.11
544.15	1952.05
544.51	1963.82
544.87	1974.82
545.22	1985.71
545.58	1995.97
545.94	2005.65
546.29	2015.43
546.65	2025.37
547.01	2034.56
547.36	2043.36
547.72	2051.84
548.07	2059.75
548.43	2067.82
548.79	2075.75
549.14	2083.32
549.50	2090.88
549.86	2098.71
550.21	2105.94
550.57	2113.02
550.92	2119.66
551.28	2126.87
551.64	2134.11
551.99	2140.55
552.35	2146.66
552.70	2152.76
553.06	2158.61
553.41	2164.91
553.77	2170.97
554.13	2177.06
554.48	2183.22
554.84	2188.56
555.19	2193.83
555.55	2198.91
555.90	2203.30
556.26	2207.97
556.61	2212.77
556.97	2216.80
557.32	2220.86
557.68	2224.96
558.03	2229.31
558.39	2232.99
558.74	2237.54
559.10	2241.06
559.45	2244.50
559.81	2248.93
560.16	2252.52
560.52	2255.67
560.87	2259.12
561.23	2261.50
561.58	2264.30
561.94	2266.77
562.29	2269.03
562.64	2271.60
563.00	2274.06
563.35	2277.52
563.71	2280.58
564.06	2283.60
564.42	2286.46
564.77	2288.73
565.12	2290.71
565.48	2292.27
565.83	2293.90
566.19	2295.02
566.54	2296.03
566.89	2297.01
567.25	2297.24
567.60	2298.68
567.96	2300.19
568.31	2300.85
568.66	2301.90
569.02	2302.30
569.37	2302.31
569.72	2303.04
570.08	2303.02
570.43	2302.79
570.78	2301.87
571.14	2300.22
571.49	2298.80
571.84	2298.15
572.20	2296.84
572.55	2295.74
572.90	2294.19
573.26	2292.63
573.61	2290.74
573.96	2288.78
574.31	2285.73
574.67	2282.50
575.02	2278.51
575.37	2274.99
575.72	2270.95
576.08	2267.45
576.43	2264.01
576.78	2260.21
577.13	2256.85
577.49	2253.69
577.84	2250.20
578.19	2246.48
578.54	2242.65
578.90	2238.27
579.25	2232.68
579.60	2227.59
579.95	2222.40
580.30	2217.21
580.66	2212.03
581.01	2206.92
581.36	2201.77
581.71	2197.36
582.06	2192.69
582.42	2188.18
582.77	2182.86
583.12	2178.25
583.47	2173.38
583.82	2168.20
584.17	2162.85
584.53	2157.33
584.88	2151.37
585.23	2145.35
585.58	2139.81
585.93	2134.27
586.28	2129.40
586.63	2124.21
586.98	2119.07
587.34	2114.42
587.69	2109.38
588.04	2103.92
588.39	2098.12
588.74	2091.62
589.09	2085.51
589.44	2078.63
589.79	2072.43
590.14	2066.75
590.49	2060.06
590.84	2053.41
591.19	2047.27
591.54	2040.68
591.89	2033.00
592.25	2026.22
592.60	2019.03
592.95	2011.30
593.30	2003.73
593.65	1995.86
594.00	1988.75
594.35	1981.23
594.70	1973.00
595.05	1965.68
595.40	1958.35
595.75	1950.84
596.10	1944.43
596.45	1937.40
596.80	1931.23
597.15	1924.48
597.50	1917.18
597.85	1910.65
598.19	1904.07
598.54	1896.89
598.89	1890.18
599.24	1884.31
599.59	1877.39
599.94	1871.05
600.29	1864.68
600.64	1858.16
600.99	1850.69
601.34	1843.79
601.69	1836.82
602.04	1829.77
602.39	1822.41
602.74	1815.57
603.08	1808.71
603.43	1801.92
603.78	1794.71
604.13	1787.45
604.48	1780.06
604.83	1773.22
605.18	1766.07
605.53	1757.85
605.87	1749.94
606.22	1742.73
606.57	1734.75
606.92	1727.47
607.27	1720.36
607.62	1713.37
607.96	1706.09
608.31	1699.52
608.66	1691.89
609.01	1684.33
609.36	1676.83
609.70	1668.82
610.05	1660.58
610.40	1652.98
610.75	1644.69
611.10	1637.10
611.44	1628.85
611.79	1620.95
612.14	1612.28
612.49	1603.31
612.83	1595.16
613.18	1587.07
613.53	1579.08
613.88	1570.58
614.22	1562.30
614.57	1553.74
614.92	1545.63
615.27	1538.00
615.61	1529.67
615.96	1521.78
616.31	1514.28
616.65	1507.06
617.00	1499.56
617.35	1492.04
617.70	1483.66
618.04	1475.16
618.39	1466.93
618.74	1459.32
619.08	1450.99
619.43	1443.48
619.78	1436.60
620.12	1429.48
620.47	1421.86
620.82	1413.68
621.16	1406.43
621.51	1398.92
621.85	1391.34
622.20	1383.04
622.55	1374.83
622.89	1366.99
623.24	1359.41
623.59	1352.17
623.93	1344.61
624.28	1337.33
624.62	1329.85
624.97	1322.78
625.32	1316.15
625.66	1309.15
626.01	1302.00
626.35	1294.71
626.70	1287.05
627.04	1279.39
627.39	1271.68
627.73	1264.37
628.08	1257.50
628.43	1250.22
628.77	1242.94
629.12	1235.36
629.46	1228.30
629.81	1220.97
630.15	1213.90
630.50	1206.60
630.84	1198.36
631.19	1190.50
631.53	1183.12
631.88	1175.70
632.22	1168.19
632.57	1160.97
632.91	1153.57
633.26	1146.17
633.60	1138.87
633.95	1131.88
634.29	1124.87
634.64	1118.22
634.98	1110.96
635.32	1103.95
635.67	1097.44
636.01	1090.89
636.36	1084.19
636.70	1077.68
637.05	1071.06
637.39	1064.68
637.73	1058.17
638.08	1052.35
638.42	1046.59
638.77	1040.20
639.11	1033.60
639.45	1027.24
639.80	1020.55
640.14	1014.14
640.49	1007.70
640.83	1001.38
641.17	995.15
641.52	988.96
641.86	982.70
642.20	976.92
642.55	970.64
642.89	964.20
643.23	957.71
643.58	951.88
643.92	945.72
644.26	939.69
644.61	933.70
644.95	927.70
645.29	921.19
645.64	914.33
645.98	908.03
646.32	902.28
646.66	896.22
647.01	890.52
647.35	884.93
647.69	879.20
648.04	873.81
648.38	867.99
648.72	861.93
649.06	855.80
649.41	849.81
649.75	843.79
650.09	837.79
650.43	831.93
650.78	825.89
651.12	819.92
651.46	814.25
651.80	808.44
652.14	803.02
652.49	797.63
652.83	792.47
653.17	786.77
653.51	780.99
653.85	775.68
654.20	770.01
654.54	764.05
654.88	758.38
655.22	752.53
655.56	746.88
655.90	741.47
656.25	736.22
656.59	730.97
656.93	725.91
657.27	720.92
657.61	715.58
657.95	710.51
658.29	705.45
658.64	700.37
658.98	695.14
659.32	689.74
659.66	684.59
660.00	679.27
660.34	674.39
660.68	669.60
661.02	664.58
661.36	659.93
661.70	655.42
662.05	651.05
662.39	646.73
662.73	642.29
663.07	637.99
663.41	633.61
663.75	629.12
664.09	624.58
664.43	620.07
664.77	615.99
665.11	611.84
665.45	607.77
665.79	603.62
666.13	599.52
666.47	595.47
666.81	591.37
667.15	587.31
667.49	583.44
667.83	579.68
668.17	575.83
668.51	571.85
668.85	567.82
669.19	564.02
669.53	560.14
669.87	556.31
670.21	552.65
670.55	549.06
670.89	545.68
671.23	542.32
671.57	538.87
671.91	535.35
672.25	531.84
672.58	528.34
672.92	525.01
673.26	521.94
673.60	518.82
673.94	515.67
674.28	512.84
674.62	509.98
674.96	506.86
675.30	503.97
675.64	501.03
675.97	498.29
676.31	495.43
676.65	492.61
676.99	489.94
677.33	487.03
677.67	484.25
678.01	481.23
678.34	478.26
678.68	475.48
679.02	472.72
679.36	470.00
679.70	467.34
680.04	464.61
680.37	461.68
680.71	458.91
681.05	456.40
681.39	453.73
681.73	451.07
682.06	448.56
682.40	446.04
682.74	443.51
683.08	441.00
683.42	438.40
683.75	435.90
684.09	433.42
684.43	431.01
684.77	428.51
685.10	426.23
685.44	423.97
685.78	421.71
686.12	419.47
686.45	417.24
686.79	414.95
687.13	412.73
687.46	410.65
687.80	408.52
688.14	406.35
688.48	404.33
688.81	402.09
689.15	399.95
689.49	397.79
689.82	395.71
690.16	393.66
690.50	391.69
690.83	389.80
691.17	387.82
691.51	385.92
691.84	384.08
692.18	382.14
692.52	380.17
692.85	378.21
693.19	376.33
693.52	374.47
693.86	372.68
694.20	370.94
694.53	369.10
694.87	367.27
695.21	365.44
695.54	363.55
695.88	361.81
696.21	360.09
696.55	358.41
696.88	356.73
697.22	355.06
697.56	353.48
697.89	351.77
698.23	350.16
698.56	348.55
698.90	346.93
699.23	345.30
699.57	343.71
699.90	342.20
700.24	340.66
700.58	339.10
700.91	337.58
701.25	336.13
701.58	334.77
701.92	333.42
702.25	332.04
702.59	330.68
702.92	329.40
703.26	328.10
703.59	326.84
703.93	325.68
704.26	324.47
704.60	323.20
704.93	321.94
705.26	320.69
705.60	319.55
705.93	318.46
706.27	317.45
706.60	316.43
706.94	315.32
707.27	314.19
707.61	313.19
707.94	312.19
708.27	311.10
708.61	310.06
708.94	309.04
709.28	308.09
709.61	307.16
709.94	306.20
710.28	305.22
710.61	304.26
710.95	303.22
711.28	302.32
711.61	301.37
711.95	300.50
712.28	299.56
712.61	298.57
712.95	297.65
713.28	296.80
713.61	295.93
713.95	295.08
714.28	294.26
714.61	293.40
714.95	292.58
715.28	291.75
715.61	290.82
715.95	289.99
716.28	289.18
716.61	288.38
716.95	287.58
717.28	286.87
717.61	286.11
717.94	285.40
718.28	284.57
718.61	283.90
718.94	283.23
719.27	282.59
719.61	282.00
719.94	281.36
720.27	280.65
720.60	279.99
720.94	279.39
721.27	278.79
721.60	278.23
721.93	277.64
722.27	277.14
722.60	276.66
722.93	276.12
723.26	275.53
723.59	274.96
723.93	274.43
724.26	273.88
724.59	273.32
724.92	272.80
725.25	272.31
725.59	271.81
725.92	271.31
726.25	270.84
726.58	270.32
726.91	269.83
727.24	269.36
727.57	268.91
727.91	268.40
728.24	267.97
728.57	267.46
728.90	266.99
729.23	266.47
729.56	266.03
729.89	265.56
730.22	265.11
730.55	264.65
730.89	264.17
731.22	263.73
731.55	263.30
731.88	262.86
732.21	262.43
732.54	261.96
732.87	261.52
733.20	261.12
733.53	260.73
733.86	260.36
734.19	259.94
734.52	259.59
734.85	259.26
735.18	258.85
735.51	258.47
735.84	258.10
736.17	257.75
736.50	257.33
736.83	257.08
737.16	256.74
737.49	256.41
737.82	256.07
738.15	255.75
738.48	255.42
738.81	255.11
739.14	254.78
739.47	254.47
739.80	254.19
740.13	253.86
740.46	253.52
740.79	253.18
741.12	252.88
741.45	252.52
741.78	252.18
742.11	251.86
742.44	251.52
742.77	251.23
743.10	250.93
743.43	250.63
743.75	250.25
744.08	250.11
744.41	249.81
744.74	249.53
745.07	249.20
745.40	248.95
745.73	248.68
746.06	248.41
746.39	248.13
746.71	247.82
747.04	247.58
747.37	247.33
747.70	247.05
748.03	246.78
748.36	246.56
748.68	246.32
749.01	246.05
749.34	245.87
749.67	245.60
750.00	245.40
750.33	245.24
750.65	245.03
750.98	244.69
751.31	244.48
751.64	244.28
751.97	244.12
752.29	243.90
752.62	243.68
752.95	243.51
753.28	243.30
753.60	243.08
753.93	242.89
754.26	242.67
754.59	242.50
754.91	242.34
755.24	242.13
755.57	241.94
755.90	241.78
756.22	241.60
756.55	241.45
756.88	241.26
757.20	241.02
757.53	240.88
757.86	240.74
758.19	240.59
758.51	240.44
758.84	240.25
759.17	240.12
759.49	239.99
759.82	239.90
760.15	239.76
760.47	239.64
760.80	239.51
761.13	239.40
761.45	239.25
761.78	239.10
762.11	238.98
762.43	238.84
762.76	238.73
763.08	238.61
763.41	238.50
763.74	238.37
764.06	238.26
764.39	238.08
764.71	237.94
765.04	237.80
765.37	237.68
765.69	237.59
766.02	237.43
766.34	237.27
766.67	237.09
767.00	237.06
767.32	236.99
767.65	236.91
767.97	236.79
768.30	236.70
768.62	236.61
768.95	236.51
769.27	236.41
769.60	236.32
769.92	236.19
770.25	236.04
770.57	235.93
770.90	235.84
771.22	235.76
771.55	235.66
771.87	235.55
772.20	235.43
772.52	235.42
772.85	235.46
773.17	235.40
773.50	235.28
773.82	235.13
774.15	234.96
774.47	234.82
774.80	234.75
775.12	234.61
775.45	234.52
775.77	234.43
776.09	234.36
776.42	234.24
776.74	234.22
777.07	234.13
777.39	234.04
777.72	233.95
778.04	233.85
778.36	233.76
778.69	233.72
779.01	233.66
779.33	233.47
779.66	233.24
779.98	233.15
780.31	233.12
780.63	233.06
780.95	233.03
781.28	232.95
781.60	232.81
781.92	232.76
782.25	232.63
782.57	232.54
782.89	232.45
783.22	232.38
783.54	232.28
783.86	232.21
784.19	232.14
784.51	232.13
784.83	232.06
785.16	231.99
785.48	231.95
785.80	231.87
786.12	231.84
786.45	231.84
786.77	231.78
787.09	231.68
