SpectraSuite Data File
++++++++++++++++++++++++++++++++++++
Date: Fri Feb 01 14:57:23 EST 2013
User: group
Dark Spectrum Present: No
Reference Spectrum Present: No
Number of Sampled Component Spectra: 1
Spectrometers: USB2E7196
Integration Time (usec): 35000 (USB2E7196)
Spectra Averaged: 100 (USB2E7196)
Boxcar Smoothing: 10 (USB2E7196)
Correct for Electrical Dark: No (USB2E7196)
Strobe/Lamp Enabled: No (USB2E7196)
Correct for Detector Non-linearity: No (USB2E7196)
Correct for Stray Light: No (USB2E7196)
Number of Pixels in Processed Spectrum: 2048
>>>>>Begin Processed Spectral Data<<<<<
339.09	0.00
339.48	215.48
339.86	216.93
340.24	218.47
340.63	219.70
341.01	222.55
341.39	222.44
341.78	223.81
342.16	224.84
342.54	225.34
342.93	213.71
343.31	224.53
343.69	225.09
344.07	225.53
344.46	225.93
344.84	226.29
345.22	226.51
345.60	226.73
345.99	226.92
346.37	227.03
346.75	227.14
347.13	227.23
347.52	227.27
347.90	227.35
348.28	227.40
348.66	227.47
349.05	227.45
349.43	227.47
349.81	227.50
350.19	227.49
350.57	227.55
350.96	227.61
351.34	227.67
351.72	227.73
352.10	227.85
352.48	227.94
352.87	228.03
353.25	228.12
353.63	228.22
354.01	228.28
354.39	228.35
354.77	228.43
355.15	228.49
355.54	228.55
355.92	228.60
356.30	228.66
356.68	228.81
357.06	228.90
357.44	228.93
357.82	228.99
358.20	229.07
358.58	229.13
358.97	229.19
359.35	229.26
359.73	229.31
360.11	229.37
360.49	229.42
360.87	229.43
361.25	229.47
361.63	229.51
362.01	229.55
362.39	229.61
362.77	229.63
363.15	229.68
363.53	229.72
363.91	229.74
364.29	229.76
364.67	229.65
365.05	229.66
365.43	229.70
365.81	229.74
366.19	229.79
366.57	229.84
366.95	229.83
367.33	229.79
367.71	229.77
368.09	229.73
368.47	229.70
368.85	229.70
369.23	229.64
369.61	229.57
369.99	229.55
370.37	229.51
370.75	229.49
371.13	229.44
371.51	229.36
371.89	229.32
372.27	229.27
372.65	229.21
373.03	229.17
373.41	229.07
373.78	228.99
374.16	228.86
374.54	228.76
374.92	228.68
375.30	228.62
375.68	228.52
376.06	228.48
376.44	228.41
376.82	228.32
377.19	228.25
377.57	228.16
377.95	228.06
378.33	227.96
378.71	227.82
379.09	227.73
379.47	227.70
379.84	227.61
380.22	227.52
380.60	227.43
380.98	227.35
381.36	227.27
381.73	227.19
382.11	227.13
382.49	227.06
382.87	226.98
383.25	226.89
383.62	226.95
384.00	226.87
384.38	226.80
384.76	226.74
385.13	226.71
385.51	226.70
385.89	226.63
386.27	226.57
386.64	226.59
387.02	226.53
387.40	226.47
387.78	226.42
388.15	226.39
388.53	226.36
388.91	226.31
389.29	226.28
389.66	226.25
390.04	226.24
390.42	226.24
390.79	226.23
391.17	226.19
391.55	226.06
391.92	226.07
392.30	226.07
392.68	226.07
393.05	226.07
393.43	226.08
393.81	226.08
394.18	226.08
394.56	226.06
394.94	226.10
395.31	226.11
395.69	226.19
396.06	226.24
396.44	226.31
396.82	226.38
397.19	226.52
397.57	226.60
397.95	226.68
398.32	226.73
398.70	226.81
399.07	226.97
399.45	227.08
399.82	227.16
400.20	227.26
400.58	227.36
400.95	227.44
401.33	227.55
401.70	227.79
402.08	227.95
402.45	228.05
402.83	228.21
403.20	228.35
403.58	228.49
403.95	228.66
404.33	228.80
404.71	228.94
405.08	229.11
405.46	229.24
405.83	229.39
406.21	229.52
406.58	229.69
406.96	229.84
407.33	230.02
407.70	230.22
408.08	230.50
408.45	230.74
408.83	230.96
409.20	231.19
409.58	231.35
409.95	231.62
410.33	231.92
410.70	232.13
411.08	232.45
411.45	232.72
411.82	233.03
412.20	233.38
412.57	233.80
412.95	234.07
413.32	234.52
413.69	234.94
414.07	235.40
414.44	235.86
414.82	236.33
415.19	236.90
415.56	237.47
415.94	238.00
416.31	238.65
416.68	239.27
417.06	239.97
417.43	240.66
417.81	241.44
418.18	242.19
418.55	243.07
418.93	243.92
419.30	244.83
419.67	245.70
420.04	246.65
420.42	247.62
420.79	248.82
421.16	249.92
421.54	251.11
421.91	252.33
422.28	253.63
422.66	254.93
423.03	256.17
423.40	257.48
423.77	258.89
424.15	260.29
424.52	261.78
424.89	263.35
425.26	264.87
425.64	266.26
426.01	267.84
426.38	269.45
426.75	271.11
427.13	272.81
427.50	274.65
427.87	276.53
428.24	278.38
428.61	280.08
428.99	282.01
429.36	284.08
429.73	286.13
430.10	288.09
430.47	290.11
430.85	292.28
431.22	294.52
431.59	296.85
431.96	299.11
432.33	301.59
432.70	303.98
433.08	306.80
433.45	309.46
433.82	312.10
434.19	314.97
434.56	317.79
434.93	320.45
435.30	323.04
435.68	325.93
436.05	328.78
436.42	331.59
436.79	334.15
437.16	336.88
437.53	339.73
437.90	342.60
438.27	345.38
438.64	348.18
439.01	350.79
439.38	353.09
439.75	355.23
440.13	357.74
440.50	360.07
440.87	361.93
441.24	363.85
441.61	366.00
441.98	367.57
442.35	369.38
442.72	371.24
443.09	373.07
443.46	374.10
443.83	374.69
444.20	375.17
444.57	376.02
444.94	376.30
445.31	376.61
445.68	376.97
446.05	377.06
446.42	376.68
446.79	376.21
447.16	375.73
447.53	375.40
447.90	374.24
448.27	373.11
448.64	371.56
449.01	370.45
449.37	368.53
449.74	366.60
450.11	364.38
450.48	361.91
450.85	359.41
451.22	357.27
451.59	355.26
451.96	353.34
452.33	350.75
452.70	348.39
453.07	345.62
453.43	342.66
453.80	339.88
454.17	337.22
454.54	334.68
454.91	331.97
455.28	329.30
455.65	326.82
456.02	324.32
456.38	322.17
456.75	319.51
457.12	317.22
457.49	315.02
457.86	312.82
458.23	311.00
458.59	308.93
458.96	306.82
459.33	304.96
459.70	303.12
460.07	301.59
460.43	299.87
460.80	298.23
461.17	296.77
461.54	295.30
461.91	293.86
462.27	292.41
462.64	291.15
463.01	289.84
463.38	288.56
463.74	287.23
464.11	286.04
464.48	284.99
464.85	283.87
465.21	282.98
465.58	282.01
465.95	280.87
466.32	279.97
466.68	279.09
467.05	278.17
467.42	277.28
467.78	276.32
468.15	275.41
468.52	274.72
468.88	273.88
469.25	273.10
469.62	272.48
469.98	271.78
470.35	271.10
470.72	270.46
471.08	269.78
471.45	269.20
471.82	268.61
472.18	268.01
472.55	267.56
472.92	267.02
473.28	266.55
473.65	266.10
474.02	265.61
474.38	265.18
474.75	264.78
475.11	264.41
475.48	264.13
475.85	263.88
476.21	263.60
476.58	263.40
476.94	263.20
477.31	263.01
477.67	262.86
478.04	262.76
478.41	262.67
478.77	262.67
479.14	262.60
479.50	262.58
479.87	262.64
480.23	262.67
480.60	262.76
480.96	262.86
481.33	263.01
481.69	263.20
482.06	263.42
482.42	263.65
482.79	263.89
483.15	264.22
483.52	264.64
483.88	264.99
484.25	265.38
484.61	265.81
484.98	266.26
485.34	266.82
485.71	267.36
486.07	267.94
486.44	268.49
486.80	269.21
487.17	269.93
487.53	270.74
487.90	271.56
488.26	272.47
488.62	273.46
488.99	274.46
489.35	275.51
489.72	276.62
490.08	277.85
490.44	279.09
490.81	280.37
491.17	281.69
491.54	283.16
491.90	284.67
492.26	286.28
492.63	288.01
492.99	289.75
493.36	291.64
493.72	293.73
494.08	295.86
494.45	298.08
494.81	300.45
495.17	302.88
495.54	305.42
495.90	308.09
496.26	310.86
496.63	313.80
496.99	316.91
497.35	320.15
497.72	323.51
498.08	327.00
498.44	330.68
498.80	334.54
499.17	338.56
499.53	342.76
499.89	347.12
500.26	351.61
500.62	356.25
500.98	361.22
501.34	366.24
501.71	371.54
502.07	376.99
502.43	382.57
502.79	388.36
503.16	394.48
503.52	400.75
503.88	407.17
504.24	413.84
504.60	420.68
504.97	427.81
505.33	435.09
505.69	442.75
506.05	450.48
506.41	458.36
506.78	466.53
507.14	474.97
507.50	483.70
507.86	492.70
508.22	501.89
508.59	511.08
508.95	520.66
509.31	530.42
509.67	540.45
510.03	550.70
510.39	561.27
510.75	572.02
511.12	582.93
511.48	594.14
511.84	605.55
512.20	617.06
512.56	628.98
512.92	641.21
513.28	653.55
513.64	666.08
514.00	678.86
514.37	691.77
514.73	704.79
515.09	717.81
515.45	731.09
515.81	744.74
516.17	758.67
516.53	772.86
516.89	786.97
517.25	801.16
517.61	815.60
517.97	830.05
518.33	844.41
518.69	859.14
519.05	874.24
519.41	889.42
519.77	905.04
520.13	920.48
520.49	935.83
520.85	951.35
521.21	967.09
521.57	983.33
521.93	999.19
522.29	1015.58
522.65	1031.87
523.01	1048.17
523.37	1064.36
523.73	1080.62
524.09	1096.73
524.45	1113.25
524.81	1129.94
525.17	1146.89
525.53	1163.85
525.89	1180.88
526.25	1197.82
526.61	1214.21
526.97	1231.04
527.33	1247.55
527.68	1264.24
528.04	1280.81
528.40	1297.42
528.76	1314.53
529.12	1331.13
529.48	1348.00
529.84	1364.12
530.20	1380.89
530.56	1397.96
530.91	1415.25
531.27	1432.04
531.63	1448.47
531.99	1465.12
532.35	1481.17
532.71	1496.99
533.07	1513.28
533.42	1529.26
533.78	1545.41
534.14	1561.75
534.50	1577.08
534.86	1593.04
535.21	1608.26
535.57	1624.28
535.93	1639.95
536.29	1654.75
536.65	1670.13
537.00	1685.02
537.36	1700.45
537.72	1714.96
538.08	1729.42
538.44	1743.39
538.79	1757.37
539.15	1771.28
539.51	1784.98
539.87	1799.46
540.22	1813.46
540.58	1827.39
540.94	1840.93
541.29	1854.02
541.65	1866.80
542.01	1880.29
542.37	1892.60
542.72	1905.11
543.08	1916.90
543.44	1929.35
543.79	1940.64
544.15	1951.54
544.51	1963.21
544.87	1974.27
545.22	1985.15
545.58	1995.46
545.94	2005.23
546.29	2015.23
546.65	2024.93
547.01	2034.25
547.36	2043.06
547.72	2051.61
548.07	2059.53
548.43	2067.66
548.79	2075.68
549.14	2083.30
549.50	2090.53
549.86	2098.35
550.21	2105.88
550.57	2113.14
550.92	2119.71
551.28	2127.00
551.64	2134.13
551.99	2140.70
552.35	2146.82
552.70	2152.94
553.06	2158.79
553.41	2165.16
553.77	2171.13
554.13	2177.33
554.48	2183.43
554.84	2188.80
555.19	2193.94
555.55	2198.96
555.90	2203.32
556.26	2208.12
556.61	2212.92
556.97	2217.04
557.32	2221.01
557.68	2224.97
558.03	2229.15
558.39	2232.90
558.74	2237.27
559.10	2240.94
559.45	2244.39
559.81	2248.64
560.16	2252.44
560.52	2255.74
560.87	2259.13
561.23	2261.68
561.58	2264.45
561.94	2266.96
562.29	2269.25
562.64	2271.90
563.00	2274.38
563.35	2277.73
563.71	2280.63
564.06	2283.54
564.42	2286.19
564.77	2288.67
565.12	2290.74
565.48	2292.57
565.83	2294.12
566.19	2295.31
566.54	2296.31
566.89	2297.28
567.25	2297.64
567.60	2298.85
567.96	2300.25
568.31	2300.81
568.66	2301.59
569.02	2302.04
569.37	2302.18
569.72	2302.82
570.08	2302.60
570.43	2302.43
570.78	2301.73
571.14	2300.05
571.49	2298.71
571.84	2298.41
572.20	2296.91
572.55	2295.69
572.90	2293.93
573.26	2292.36
573.61	2290.49
573.96	2288.41
574.31	2285.25
574.67	2282.24
575.02	2278.38
575.37	2274.93
575.72	2271.01
576.08	2267.75
576.43	2264.34
576.78	2260.50
577.13	2257.17
577.49	2254.03
577.84	2250.52
578.19	2246.65
578.54	2242.82
578.90	2238.35
579.25	2232.76
579.60	2227.86
579.95	2222.71
580.30	2217.59
580.66	2212.24
581.01	2207.23
581.36	2202.25
581.71	2198.02
582.06	2193.36
582.42	2188.85
582.77	2183.42
583.12	2178.62
583.47	2173.74
583.82	2168.57
584.17	2163.19
584.53	2157.59
584.88	2151.81
585.23	2145.80
585.58	2140.21
585.93	2134.69
586.28	2129.86
586.63	2124.58
586.98	2119.36
587.34	2114.60
587.69	2109.61
588.04	2104.34
588.39	2098.46
588.74	2091.81
589.09	2085.52
589.44	2078.58
589.79	2072.44
590.14	2066.76
590.49	2060.23
590.84	2053.62
591.19	2047.35
591.54	2040.80
591.89	2033.14
592.25	2026.23
592.60	2018.86
592.95	2011.14
593.30	2003.62
593.65	1995.85
594.00	1988.71
594.35	1981.36
594.70	1973.15
595.05	1965.80
595.40	1958.45
595.75	1950.98
596.10	1944.61
596.45	1937.76
596.80	1931.54
597.15	1924.73
597.50	1917.63
597.85	1911.09
598.19	1904.45
598.54	1897.54
598.89	1890.84
599.24	1885.04
599.59	1878.27
599.94	1872.09
600.29	1865.73
600.64	1859.25
600.99	1851.76
601.34	1844.78
601.69	1837.77
602.04	1830.90
602.39	1823.44
602.74	1816.65
603.08	1809.86
603.43	1803.17
603.78	1795.77
604.13	1788.39
604.48	1781.05
604.83	1773.97
605.18	1766.86
605.53	1758.78
605.87	1750.66
606.22	1743.55
606.57	1735.57
606.92	1728.32
607.27	1721.01
607.62	1714.09
607.96	1706.70
608.31	1699.98
608.66	1692.43
609.01	1684.85
609.36	1677.22
609.70	1669.30
610.05	1661.07
610.40	1653.39
610.75	1644.98
611.10	1637.43
611.44	1629.22
611.79	1621.36
612.14	1612.85
612.49	1603.85
612.83	1595.46
613.18	1587.40
613.53	1579.25
613.88	1570.75
614.22	1562.41
614.57	1554.00
614.92	1546.00
615.27	1538.48
615.61	1530.30
615.96	1522.46
616.31	1514.86
616.65	1507.56
617.00	1500.03
617.35	1492.48
617.70	1484.12
618.04	1475.70
618.39	1467.53
618.74	1459.90
619.08	1451.59
619.43	1443.97
619.78	1437.08
620.12	1429.94
620.47	1422.44
620.82	1414.37
621.16	1407.05
621.51	1399.58
621.85	1392.08
622.20	1383.61
622.55	1375.39
622.89	1367.54
623.24	1359.85
623.59	1352.58
623.93	1345.21
624.28	1338.03
624.62	1330.51
624.97	1323.33
625.32	1316.75
625.66	1309.77
626.01	1302.57
626.35	1295.11
626.70	1287.48
627.04	1279.74
627.39	1272.11
627.73	1264.64
628.08	1257.78
628.43	1250.45
628.77	1243.17
629.12	1235.56
629.46	1228.38
629.81	1220.99
630.15	1213.78
630.50	1206.47
630.84	1198.26
631.19	1190.37
631.53	1182.98
631.88	1175.51
632.22	1168.03
632.57	1160.63
632.91	1153.14
633.26	1145.80
633.60	1138.61
633.95	1131.62
634.29	1124.74
634.64	1118.18
634.98	1110.95
635.32	1103.82
635.67	1097.44
636.01	1090.75
636.36	1084.04
636.70	1077.63
637.05	1071.16
637.39	1064.76
637.73	1058.29
638.08	1052.53
638.42	1046.56
638.77	1040.15
639.11	1033.56
639.45	1027.24
639.80	1020.66
640.14	1014.22
640.49	1007.77
640.83	1001.51
641.17	995.27
641.52	988.97
641.86	982.56
642.20	976.91
642.55	970.71
642.89	964.20
643.23	957.81
643.58	952.02
643.92	945.86
644.26	939.79
644.61	933.83
644.95	927.79
645.29	921.16
645.64	914.39
645.98	908.08
646.32	902.32
646.66	896.28
647.01	890.50
647.35	884.93
647.69	879.16
648.04	873.58
648.38	867.82
648.72	861.79
649.06	855.74
649.41	849.76
649.75	843.70
650.09	837.67
650.43	831.83
650.78	825.68
651.12	819.72
651.46	813.96
651.80	808.20
652.14	802.77
652.49	797.58
652.83	792.38
653.17	786.65
653.51	780.97
653.85	775.65
654.20	770.01
654.54	763.94
654.88	758.21
655.22	752.42
655.56	746.72
655.90	741.31
656.25	736.05
656.59	730.77
656.93	725.72
657.27	720.66
657.61	715.26
657.95	710.28
658.29	705.23
658.64	700.01
658.98	694.79
659.32	689.45
659.66	684.17
660.00	678.99
660.34	674.06
660.68	669.16
661.02	664.16
661.36	659.52
661.70	655.18
662.05	650.86
662.39	646.61
662.73	642.20
663.07	637.87
663.41	633.49
663.75	628.93
664.09	624.39
664.43	620.04
664.77	615.97
665.11	611.65
665.45	607.59
665.79	603.56
666.13	599.50
666.47	595.43
666.81	591.30
667.15	587.24
667.49	583.45
667.83	579.75
668.17	575.77
668.51	571.74
668.85	567.68
669.19	563.85
669.53	560.01
669.87	556.15
670.21	552.49
670.55	548.89
670.89	545.50
671.23	542.17
671.57	538.70
671.91	535.20
672.25	531.83
672.58	528.40
672.92	525.06
673.26	521.91
673.60	518.83
673.94	515.78
674.28	512.87
674.62	509.93
674.96	506.79
675.30	503.92
675.64	501.05
675.97	498.35
676.31	495.51
676.65	492.61
676.99	489.97
677.33	487.13
677.67	484.36
678.01	481.35
678.34	478.39
678.68	475.57
679.02	472.75
679.36	470.06
679.70	467.27
680.04	464.53
680.37	461.70
680.71	458.97
681.05	456.38
681.39	453.73
681.73	451.09
682.06	448.59
682.40	446.12
682.74	443.63
683.08	441.08
683.42	438.56
683.75	436.08
684.09	433.52
684.43	431.12
684.77	428.64
685.10	426.34
685.44	424.04
685.78	421.76
686.12	419.56
686.45	417.30
686.79	415.11
687.13	412.94
687.46	410.79
687.80	408.63
688.14	406.42
688.48	404.33
688.81	402.12
689.15	399.99
689.49	397.84
689.82	395.79
690.16	393.73
690.50	391.75
690.83	389.82
691.17	387.90
691.51	386.03
691.84	384.19
692.18	382.23
692.52	380.28
692.85	378.37
693.19	376.53
693.52	374.70
693.86	372.92
694.20	371.15
694.53	369.37
694.87	367.53
695.21	365.75
695.54	363.98
695.88	362.28
696.21	360.52
696.55	358.87
696.88	357.19
697.22	355.57
697.56	353.96
697.89	352.30
698.23	350.70
698.56	349.07
698.90	347.54
699.23	345.92
699.57	344.35
699.90	342.80
700.24	341.20
700.58	339.63
700.91	338.09
701.25	336.58
701.58	335.23
701.92	333.85
702.25	332.50
702.59	331.14
702.92	329.78
703.26	328.54
703.59	327.25
703.93	326.09
704.26	324.84
704.60	323.56
704.93	322.25
705.26	321.00
705.60	319.83
705.93	318.68
706.27	317.68
706.60	316.69
706.94	315.63
707.27	314.52
707.61	313.54
707.94	312.52
708.27	311.46
708.61	310.37
708.94	309.38
709.28	308.41
709.61	307.47
709.94	306.53
710.28	305.50
710.61	304.53
710.95	303.44
711.28	302.49
711.61	301.57
711.95	300.72
712.28	299.76
712.61	298.77
712.95	297.82
713.28	296.94
713.61	296.03
713.95	295.14
714.28	294.32
714.61	293.41
714.95	292.62
715.28	291.81
715.61	290.95
715.95	290.09
716.28	289.21
716.61	288.37
716.95	287.59
717.28	286.87
717.61	286.10
717.94	285.36
718.28	284.60
718.61	283.87
718.94	283.20
719.27	282.57
719.61	281.95
719.94	281.30
720.27	280.61
720.60	279.97
720.94	279.37
721.27	278.79
721.60	278.24
721.93	277.62
722.27	277.10
722.60	276.59
722.93	276.09
723.26	275.59
723.59	275.05
723.93	274.51
724.26	273.98
724.59	273.43
724.92	272.93
725.25	272.43
725.59	271.91
725.92	271.39
726.25	270.90
726.58	270.42
726.91	269.92
727.24	269.47
727.57	268.97
727.91	268.48
728.24	268.02
728.57	267.54
728.90	267.10
729.23	266.58
729.56	266.16
729.89	265.68
730.22	265.20
730.55	264.71
730.89	264.25
731.22	263.81
731.55	263.38
731.88	262.95
732.21	262.50
732.54	262.07
732.87	261.65
733.20	261.23
733.53	260.83
733.86	260.46
734.19	260.02
734.52	259.68
734.85	259.36
735.18	258.97
735.51	258.58
735.84	258.20
736.17	257.87
736.50	257.44
736.83	257.20
737.16	256.90
737.49	256.57
737.82	256.24
738.15	255.87
738.48	255.59
738.81	255.24
739.14	254.93
739.47	254.63
739.80	254.30
740.13	254.01
740.46	253.66
740.79	253.33
741.12	253.02
741.45	252.69
741.78	252.32
742.11	252.00
742.44	251.69
742.77	251.41
743.10	251.10
743.43	250.79
743.75	250.37
744.08	250.15
744.41	249.86
744.74	249.55
745.07	249.28
745.40	248.99
745.73	248.78
746.06	248.49
746.39	248.25
746.71	248.01
747.04	247.74
747.37	247.50
747.70	247.27
748.03	247.02
748.36	246.80
748.68	246.58
749.01	246.35
749.34	246.11
749.67	245.83
750.00	245.61
750.33	245.43
750.65	245.25
750.98	244.96
751.31	244.78
751.64	244.61
751.97	244.45
752.29	244.27
752.62	244.00
752.95	243.82
753.28	243.64
753.60	243.40
753.93	243.20
754.26	243.00
754.59	242.77
754.91	242.55
755.24	242.35
755.57	242.15
755.90	241.96
756.22	241.77
756.55	241.59
756.88	241.42
757.20	241.22
757.53	241.00
757.86	240.82
758.19	240.66
758.51	240.50
758.84	240.28
759.17	240.09
759.49	239.93
759.82	239.81
760.15	239.60
760.47	239.47
760.80	239.34
761.13	239.23
761.45	239.09
761.78	238.95
762.11	238.81
762.43	238.63
762.76	238.52
763.08	238.43
763.41	238.28
763.74	238.11
764.06	237.98
764.39	237.87
764.71	237.75
765.04	237.62
765.37	237.46
765.69	237.37
766.02	237.24
766.34	237.12
766.67	236.95
767.00	236.86
767.32	236.80
767.65	236.71
767.97	236.59
768.30	236.45
768.62	236.36
768.95	236.24
769.27	236.18
769.60	236.10
769.92	235.95
770.25	235.87
770.57	235.80
770.90	235.69
771.22	235.60
771.55	235.48
771.87	235.37
772.20	235.26
772.52	235.27
772.85	235.25
773.17	235.16
773.50	235.07
773.82	234.98
774.15	234.85
774.47	234.68
774.80	234.59
775.12	234.51
775.45	234.43
775.77	234.34
776.09	234.25
776.42	234.13
776.74	234.08
777.07	234.00
777.39	233.94
777.72	233.86
778.04	233.79
778.36	233.73
778.69	233.64
779.01	233.60
779.33	233.42
779.66	233.28
779.98	233.21
780.31	233.15
780.63	233.10
780.95	233.03
781.28	232.99
781.60	232.91
781.92	232.84
782.25	232.77
782.57	232.70
782.89	232.64
783.22	232.58
783.54	232.49
783.86	232.44
784.19	232.37
784.51	232.33
784.83	232.23
785.16	232.20
785.48	232.16
785.80	232.10
786.12	232.06
786.45	231.98
786.77	231.97
787.09	231.92
