SpectraSuite Data File
++++++++++++++++++++++++++++++++++++
Date: Fri Feb 01 17:49:36 EST 2013
User: group
Dark Spectrum Present: No
Reference Spectrum Present: No
Number of Sampled Component Spectra: 1
Spectrometers: USB2E7196
Integration Time (usec): 35000 (USB2E7196)
Spectra Averaged: 100 (USB2E7196)
Boxcar Smoothing: 10 (USB2E7196)
Correct for Electrical Dark: No (USB2E7196)
Strobe/Lamp Enabled: No (USB2E7196)
Correct for Detector Non-linearity: No (USB2E7196)
Correct for Stray Light: No (USB2E7196)
Number of Pixels in Processed Spectrum: 2048
>>>>>Begin Processed Spectral Data<<<<<
339.09	0.00
339.48	212.60
339.86	215.05
340.24	215.55
340.63	216.83
341.01	220.10
341.39	219.83
341.78	220.51
342.16	221.96
342.54	222.60
342.93	211.27
343.31	221.96
343.69	222.51
344.07	222.95
344.46	223.39
344.84	223.77
345.22	224.01
345.60	224.26
345.99	224.48
346.37	224.63
346.75	224.73
347.13	224.81
347.52	224.90
347.90	224.94
348.28	224.93
348.66	224.99
349.05	224.97
349.43	225.02
349.81	225.05
350.19	225.11
350.57	225.19
350.96	225.27
351.34	225.34
351.72	225.39
352.10	225.47
352.48	225.51
352.87	225.55
353.25	225.63
353.63	225.66
354.01	225.70
354.39	225.79
354.77	225.85
355.15	225.95
355.54	225.97
355.92	226.05
356.30	226.09
356.68	226.21
357.06	226.28
357.44	226.31
357.82	226.38
358.20	226.45
358.58	226.47
358.97	226.51
359.35	226.60
359.73	226.67
360.11	226.72
360.49	226.78
360.87	226.83
361.25	226.87
361.63	226.96
362.01	227.01
362.39	227.00
362.77	227.07
363.15	227.07
363.53	227.09
363.91	227.08
364.29	227.13
364.67	227.13
365.05	227.15
365.43	227.16
365.81	227.17
366.19	227.20
366.57	227.25
366.95	227.25
367.33	227.20
367.71	227.22
368.09	227.26
368.47	227.24
368.85	227.23
369.23	227.26
369.61	227.17
369.99	227.19
370.37	227.20
370.75	227.20
371.13	227.11
371.51	227.05
371.89	227.00
372.27	226.97
372.65	226.87
373.03	226.85
373.41	226.80
373.78	226.74
374.16	226.67
374.54	226.60
374.92	226.54
375.30	226.50
375.68	226.41
376.06	226.30
376.44	226.27
376.82	226.17
377.19	226.08
377.57	226.02
377.95	225.92
378.33	225.84
378.71	225.72
379.09	225.67
379.47	225.68
379.84	225.62
380.22	225.56
380.60	225.48
380.98	225.37
381.36	225.33
381.73	225.26
382.11	225.22
382.49	225.17
382.87	225.11
383.25	225.08
383.62	225.16
384.00	225.09
384.38	225.02
384.76	225.01
385.13	224.97
385.51	224.96
385.89	224.89
386.27	224.86
386.64	224.87
387.02	224.85
387.40	224.76
387.78	224.75
388.15	224.72
388.53	224.67
388.91	224.68
389.29	224.63
389.66	224.65
390.04	224.61
390.42	224.61
390.79	224.60
391.17	224.61
391.55	224.50
391.92	224.50
392.30	224.50
392.68	224.52
393.05	224.53
393.43	224.55
393.81	224.58
394.18	224.61
394.56	224.61
394.94	224.64
395.31	224.65
395.69	224.69
396.06	224.74
396.44	224.75
396.82	224.77
397.19	224.87
397.57	224.87
397.95	224.90
398.32	224.91
398.70	224.98
399.07	225.01
399.45	225.04
399.82	225.09
400.20	225.15
400.58	225.20
400.95	225.23
401.33	225.30
401.70	225.44
402.08	225.50
402.45	225.59
402.83	225.74
403.20	225.86
403.58	225.99
403.95	226.11
404.33	226.33
404.71	226.46
405.08	226.65
405.46	226.81
405.83	226.99
406.21	227.16
406.58	227.33
406.96	227.50
407.33	227.71
407.70	227.97
408.08	228.28
408.45	228.52
408.83	228.77
409.20	229.03
409.58	229.26
409.95	229.57
410.33	229.92
410.70	230.21
411.08	230.57
411.45	230.95
411.82	231.32
412.20	231.73
412.57	232.27
412.95	232.62
413.32	233.13
413.69	233.63
414.07	234.14
414.44	234.72
414.82	235.31
415.19	236.02
415.56	236.73
415.94	237.44
416.31	238.28
416.68	239.11
417.06	240.02
417.43	240.90
417.81	241.89
418.18	242.86
418.55	243.94
418.93	245.06
419.30	246.20
419.67	247.43
420.04	248.62
420.42	249.87
420.79	251.40
421.16	252.89
421.54	254.42
421.91	256.01
422.28	257.66
422.66	259.43
423.03	261.13
423.40	262.83
423.77	264.67
424.15	266.50
424.52	268.46
424.89	270.58
425.26	272.64
425.64	274.51
426.01	276.57
426.38	278.71
426.75	280.89
427.13	283.13
427.50	285.50
427.87	287.99
428.24	290.43
428.61	292.73
428.99	295.25
429.36	298.05
429.73	300.77
430.10	303.39
430.47	306.08
430.85	308.88
431.22	311.84
431.59	314.93
431.96	317.88
432.33	321.11
432.70	324.19
433.08	327.84
433.45	331.31
433.82	334.74
434.19	338.55
434.56	342.22
434.93	345.71
435.30	349.09
435.68	352.89
436.05	356.61
436.42	360.22
436.79	363.51
437.16	366.99
437.53	370.71
437.90	374.40
438.27	378.01
438.64	381.69
439.01	385.05
439.38	387.99
439.75	390.79
440.13	394.07
440.50	397.09
440.87	399.54
441.24	402.05
441.61	404.89
441.98	406.83
442.35	409.21
442.72	411.65
443.09	414.05
443.46	415.33
443.83	416.08
444.20	416.76
444.57	417.91
444.94	418.34
445.31	418.77
445.68	419.22
446.05	419.29
446.42	418.76
446.79	418.23
447.16	417.67
447.53	417.30
447.90	415.81
448.27	414.36
448.64	412.26
449.01	410.79
449.37	408.25
449.74	405.79
450.11	402.89
450.48	399.65
450.85	396.34
451.22	393.55
451.59	390.98
451.96	388.49
452.33	385.11
452.70	382.00
453.07	378.35
453.43	374.56
453.80	370.98
454.17	367.51
454.54	364.20
454.91	360.66
455.28	357.13
455.65	353.85
456.02	350.56
456.38	347.74
456.75	344.27
457.12	341.30
457.49	338.39
457.86	335.54
458.23	333.11
458.59	330.39
458.96	327.66
459.33	325.15
459.70	322.69
460.07	320.69
460.43	318.43
460.80	316.21
461.17	314.31
461.54	312.33
461.91	310.47
462.27	308.58
462.64	306.91
463.01	305.16
463.38	303.45
463.74	301.72
464.11	300.23
464.48	298.85
464.85	297.39
465.21	296.20
465.58	294.97
465.95	293.51
466.32	292.36
466.68	291.18
467.05	290.02
467.42	288.86
467.78	287.60
468.15	286.47
468.52	285.64
468.88	284.55
469.25	283.50
469.62	282.69
469.98	281.78
470.35	280.93
470.72	280.12
471.08	279.26
471.45	278.51
471.82	277.75
472.18	276.96
472.55	276.37
472.92	275.69
473.28	275.08
473.65	274.48
474.02	273.89
474.38	273.38
474.75	272.94
475.11	272.43
475.48	272.09
475.85	271.76
476.21	271.39
476.58	271.12
476.94	270.92
477.31	270.64
477.67	270.44
478.04	270.25
478.41	270.12
478.77	270.09
479.14	269.94
479.50	269.94
479.87	269.99
480.23	270.03
480.60	270.03
480.96	270.05
481.33	270.21
481.69	270.33
482.06	270.49
482.42	270.64
482.79	270.87
483.15	271.15
483.52	271.46
483.88	271.80
484.25	272.12
484.61	272.52
484.98	272.93
485.34	273.43
485.71	274.02
486.07	274.61
486.44	275.16
486.80	275.88
487.17	276.59
487.53	277.38
487.90	278.21
488.26	279.19
488.62	280.18
488.99	281.20
489.35	282.25
489.72	283.40
490.08	284.64
490.44	285.88
490.81	287.23
491.17	288.67
491.54	290.19
491.90	291.81
492.26	293.52
492.63	295.35
492.99	297.20
493.36	299.16
493.72	301.34
494.08	303.51
494.45	305.90
494.81	308.36
495.17	310.94
495.54	313.65
495.90	316.50
496.26	319.39
496.63	322.50
496.99	325.80
497.35	329.25
497.72	332.83
498.08	336.53
498.44	340.40
498.80	344.53
499.17	348.81
499.53	353.22
499.89	357.81
500.26	362.50
500.62	367.42
500.98	372.62
501.34	377.97
501.71	383.61
502.07	389.35
502.43	395.29
502.79	401.41
503.16	407.80
503.52	414.40
503.88	421.15
504.24	428.15
504.60	435.40
504.97	442.90
505.33	450.51
505.69	458.66
506.05	466.85
506.41	475.12
506.78	483.68
507.14	492.59
507.50	501.84
507.86	511.42
508.22	521.17
508.59	530.94
508.95	541.09
509.31	551.35
509.67	561.93
510.03	572.77
510.39	583.89
510.75	595.24
511.12	606.69
511.48	618.71
511.84	630.88
512.20	643.01
512.56	655.66
512.92	668.66
513.28	681.77
513.64	695.00
514.00	708.55
514.37	722.29
514.73	736.22
515.09	750.05
515.45	764.16
515.81	778.65
516.17	793.50
516.53	808.49
516.89	823.72
517.25	838.91
517.61	854.28
517.97	869.82
518.33	885.30
518.69	901.20
519.05	917.22
519.41	933.43
519.77	950.20
520.13	966.74
520.49	983.31
520.85	999.84
521.21	1016.72
521.57	1034.14
521.93	1051.13
522.29	1068.82
522.65	1086.42
523.01	1103.95
523.37	1121.09
523.73	1138.54
524.09	1156.00
524.45	1173.64
524.81	1191.60
525.17	1209.87
525.53	1228.21
525.89	1246.59
526.25	1264.87
526.61	1282.76
526.97	1300.96
527.33	1318.92
527.68	1337.08
528.04	1355.11
528.40	1373.23
528.76	1391.87
529.12	1410.05
529.48	1428.62
529.84	1446.00
530.20	1464.26
530.56	1482.87
530.91	1502.21
531.27	1520.85
531.63	1539.00
531.99	1557.32
532.35	1575.15
532.71	1592.86
533.07	1610.70
533.42	1628.36
533.78	1646.19
534.14	1664.22
534.50	1681.47
534.86	1699.07
535.21	1716.06
535.57	1733.73
535.93	1751.10
536.29	1767.73
536.65	1784.63
537.00	1801.26
537.36	1818.56
537.72	1834.86
538.08	1851.27
538.44	1866.79
538.79	1882.55
539.15	1898.04
539.51	1913.68
539.87	1929.87
540.22	1945.37
540.58	1961.24
540.94	1976.42
541.29	1991.28
541.65	2005.88
542.01	2020.99
542.37	2035.30
542.72	2049.70
543.08	2063.50
543.44	2077.98
543.79	2091.30
544.15	2104.14
544.51	2117.81
544.87	2130.61
545.22	2143.34
545.58	2155.38
545.94	2167.10
546.29	2178.68
546.65	2190.55
547.01	2201.68
547.36	2212.31
547.72	2222.71
548.07	2232.43
548.43	2242.29
548.79	2251.89
549.14	2261.09
549.50	2270.13
549.86	2279.61
550.21	2288.53
550.57	2297.52
550.92	2305.73
551.28	2314.39
551.64	2323.23
551.99	2331.38
552.35	2339.22
552.70	2347.09
553.06	2354.80
553.41	2362.78
553.77	2370.49
554.13	2378.00
554.48	2385.86
554.84	2392.94
555.19	2399.64
555.55	2406.41
555.90	2412.62
556.26	2419.35
556.61	2425.74
556.97	2431.48
557.32	2437.04
557.68	2442.84
558.03	2448.66
558.39	2453.59
558.74	2459.75
559.10	2465.05
559.45	2469.97
559.81	2475.74
560.16	2481.11
560.52	2485.69
560.87	2490.35
561.23	2494.31
561.58	2498.61
561.94	2502.39
562.29	2505.83
562.64	2509.85
563.00	2513.44
563.35	2518.16
563.71	2522.38
564.06	2526.83
564.42	2531.03
564.77	2534.74
565.12	2538.25
565.48	2541.10
565.83	2544.27
566.19	2546.64
566.54	2548.42
566.89	2550.65
567.25	2552.18
567.60	2554.30
567.96	2557.06
568.31	2558.87
568.66	2560.98
569.02	2562.29
569.37	2563.28
569.72	2565.04
570.08	2566.02
570.43	2566.85
570.78	2567.04
571.14	2566.00
571.49	2565.11
571.84	2565.30
572.20	2564.82
572.55	2564.21
572.90	2563.09
573.26	2562.20
573.61	2560.81
573.96	2559.74
574.31	2557.09
574.67	2554.55
575.02	2551.02
575.37	2547.75
575.72	2544.14
576.08	2540.69
576.43	2537.55
576.78	2534.08
577.13	2530.97
577.49	2528.00
577.84	2524.75
578.19	2520.76
578.54	2517.22
578.90	2513.08
579.25	2507.32
579.60	2502.09
579.95	2496.89
580.30	2491.56
580.66	2486.08
581.01	2480.94
581.36	2475.63
581.71	2471.35
582.06	2466.63
582.42	2461.96
582.77	2456.38
583.12	2451.58
583.47	2446.81
583.82	2441.57
584.17	2436.06
584.53	2430.27
584.88	2424.13
585.23	2417.86
585.58	2412.26
585.93	2406.33
586.28	2401.19
586.63	2395.80
586.98	2390.44
587.34	2385.31
587.69	2380.04
588.04	2374.46
588.39	2368.24
588.74	2361.23
589.09	2354.36
589.44	2346.95
589.79	2340.34
590.14	2334.20
590.49	2326.91
590.84	2319.87
591.19	2313.29
591.54	2306.08
591.89	2298.02
592.25	2290.50
592.60	2282.32
592.95	2273.78
593.30	2265.76
593.65	2257.31
594.00	2249.35
594.35	2241.15
594.70	2232.15
595.05	2224.32
595.40	2216.16
595.75	2207.66
596.10	2200.67
596.45	2193.21
596.80	2186.31
597.15	2179.03
597.50	2171.10
597.85	2163.76
598.19	2156.30
598.54	2148.37
598.89	2140.88
599.24	2134.24
599.59	2126.91
599.94	2120.06
600.29	2113.01
600.64	2105.49
600.99	2097.17
601.34	2089.60
601.69	2081.74
602.04	2074.10
602.39	2065.72
602.74	2057.78
603.08	2050.36
603.43	2042.60
603.78	2034.14
604.13	2025.81
604.48	2017.48
604.83	2009.68
605.18	2001.98
605.53	1992.94
605.87	1983.79
606.22	1975.48
606.57	1966.15
606.92	1957.58
607.27	1949.27
607.62	1941.24
607.96	1932.83
608.31	1925.18
608.66	1916.43
609.01	1907.80
609.36	1899.07
609.70	1889.84
610.05	1880.82
610.40	1871.85
610.75	1862.42
611.10	1853.55
611.44	1843.78
611.79	1834.43
612.14	1824.45
612.49	1813.78
612.83	1803.91
613.18	1794.53
613.53	1785.32
613.88	1775.55
614.22	1766.10
614.57	1756.08
614.92	1746.81
615.27	1738.26
615.61	1728.73
615.96	1719.45
616.31	1710.58
616.65	1701.98
617.00	1693.19
617.35	1684.20
617.70	1674.72
618.04	1664.87
618.39	1655.48
618.74	1646.86
619.08	1637.33
619.43	1628.43
619.78	1620.43
620.12	1612.26
620.47	1603.51
620.82	1593.95
621.16	1585.43
621.51	1576.48
621.85	1567.75
622.20	1557.95
622.55	1548.26
622.89	1539.23
623.24	1530.29
623.59	1521.67
623.93	1513.01
624.28	1504.76
624.62	1496.00
624.97	1487.55
625.32	1479.68
625.66	1471.48
626.01	1463.21
626.35	1454.73
626.70	1445.80
627.04	1436.89
627.39	1427.86
627.73	1419.40
628.08	1411.31
628.43	1402.93
628.77	1394.59
629.12	1385.94
629.46	1377.58
629.81	1368.89
630.15	1360.38
630.50	1351.92
630.84	1342.56
631.19	1333.34
631.53	1324.55
631.88	1315.85
632.22	1307.25
632.57	1298.79
632.91	1290.07
633.26	1281.55
633.60	1272.95
633.95	1264.74
634.29	1256.63
634.64	1248.86
634.98	1240.34
635.32	1232.15
635.67	1224.43
636.01	1216.65
636.36	1208.82
636.70	1201.29
637.05	1193.74
637.39	1186.30
637.73	1178.82
638.08	1171.95
638.42	1165.01
638.77	1157.67
639.11	1150.22
639.45	1142.66
639.80	1135.05
640.14	1127.81
640.49	1120.28
640.83	1113.00
641.17	1105.85
641.52	1098.62
641.86	1091.21
642.20	1084.46
642.55	1077.12
642.89	1069.74
643.23	1062.26
643.58	1055.72
643.92	1048.72
644.26	1041.88
644.61	1034.98
644.95	1028.12
645.29	1020.72
645.64	1013.08
645.98	1005.77
646.32	999.01
646.66	992.24
647.01	985.68
647.35	979.12
647.69	972.35
648.04	966.05
648.38	959.48
648.72	952.71
649.06	945.91
649.41	939.20
649.75	932.54
650.09	925.73
650.43	919.09
650.78	912.01
651.12	905.17
651.46	898.60
651.80	892.14
652.14	885.97
652.49	879.83
652.83	873.99
653.17	867.62
653.51	861.07
653.85	854.91
654.20	848.51
654.54	841.58
654.88	835.06
655.22	828.35
655.56	821.84
655.90	815.56
656.25	809.51
656.59	803.47
656.93	797.66
657.27	791.88
657.61	785.79
657.95	780.01
658.29	774.30
658.64	768.32
658.98	762.20
659.32	755.99
659.66	750.02
660.00	743.94
660.34	738.25
660.68	732.70
661.02	726.98
661.36	721.63
661.70	716.60
662.05	711.75
662.39	706.89
662.73	701.82
663.07	696.83
663.41	691.75
663.75	686.64
664.09	681.48
664.43	676.44
664.77	671.82
665.11	666.95
665.45	662.25
665.79	657.66
666.13	652.98
666.47	648.33
666.81	643.66
667.15	639.01
667.49	634.63
667.83	630.33
668.17	625.86
668.51	621.24
668.85	616.66
669.19	612.14
669.53	607.76
669.87	603.37
670.21	599.14
670.55	594.98
670.89	591.05
671.23	587.12
671.57	583.15
671.91	579.09
672.25	575.10
672.58	571.06
672.92	567.11
673.26	563.55
673.60	559.96
673.94	556.44
674.28	553.10
674.62	549.74
674.96	546.16
675.30	542.84
675.64	539.46
675.97	536.24
676.31	533.03
676.65	529.75
676.99	526.72
677.33	523.48
677.67	520.35
678.01	516.93
678.34	513.57
678.68	510.27
679.02	507.05
679.36	503.90
679.70	500.88
680.04	497.80
680.37	494.53
680.71	491.39
681.05	488.44
681.39	485.40
681.73	482.42
682.06	479.65
682.40	476.83
682.74	474.03
683.08	471.20
683.42	468.25
683.75	465.42
684.09	462.52
684.43	459.75
684.77	456.95
685.10	454.26
685.44	451.68
685.78	449.11
686.12	446.57
686.45	444.00
686.79	441.35
687.13	438.81
687.46	436.34
687.80	433.86
688.14	431.25
688.48	428.86
688.81	426.25
689.15	423.75
689.49	421.25
689.82	418.85
690.16	416.44
690.50	414.22
690.83	412.01
691.17	409.78
691.51	407.56
691.84	405.49
692.18	403.33
692.52	401.05
692.85	398.84
693.19	396.70
693.52	394.61
693.86	392.54
694.20	390.48
694.53	388.44
694.87	386.35
695.21	384.32
695.54	382.23
695.88	380.28
696.21	378.31
696.55	376.41
696.88	374.43
697.22	372.54
697.56	370.66
697.89	368.79
698.23	366.94
698.56	365.10
698.90	363.27
699.23	361.42
699.57	359.66
699.90	357.87
700.24	356.10
700.58	354.34
700.91	352.64
701.25	351.03
701.58	349.44
701.92	347.90
702.25	346.36
702.59	344.84
702.92	343.37
703.26	341.85
703.59	340.36
703.93	339.02
704.26	337.63
704.60	336.09
704.93	334.61
705.26	333.19
705.60	331.84
705.93	330.51
706.27	329.24
706.60	328.00
706.94	326.80
707.27	325.49
707.61	324.24
707.94	323.07
708.27	321.81
708.61	320.57
708.94	319.37
709.28	318.20
709.61	317.07
709.94	315.92
710.28	314.76
710.61	313.61
710.95	312.39
711.28	311.31
711.61	310.26
711.95	309.23
712.28	308.13
712.61	307.04
712.95	305.94
713.28	304.94
713.61	303.92
713.95	302.96
714.28	302.01
714.61	301.05
714.95	300.07
715.28	299.09
715.61	298.11
715.95	297.13
716.28	296.16
716.61	295.18
716.95	294.24
717.28	293.36
717.61	292.49
717.94	291.66
718.28	290.77
718.61	289.90
718.94	289.07
719.27	288.30
719.61	287.51
719.94	286.75
720.27	285.93
720.60	285.19
720.94	284.42
721.27	283.70
721.60	283.00
721.93	282.30
722.27	281.66
722.60	281.02
722.93	280.37
723.26	279.76
723.59	279.14
723.93	278.48
724.26	277.86
724.59	277.25
724.92	276.65
725.25	276.05
725.59	275.48
725.92	274.92
726.25	274.32
726.58	273.75
726.91	273.22
727.24	272.68
727.57	272.15
727.91	271.56
728.24	271.05
728.57	270.52
728.90	270.01
729.23	269.48
729.56	268.97
729.89	268.45
730.22	267.87
730.55	267.32
730.89	266.86
731.22	266.35
731.55	265.83
731.88	265.32
732.21	264.84
732.54	264.34
732.87	263.87
733.20	263.45
733.53	263.01
733.86	262.61
734.19	262.17
734.52	261.72
734.85	261.38
735.18	260.94
735.51	260.53
735.84	260.10
736.17	259.66
736.50	259.22
736.83	258.96
737.16	258.61
737.49	258.23
737.82	257.83
738.15	257.45
738.48	257.09
738.81	256.71
739.14	256.37
739.47	256.03
739.80	255.70
740.13	255.32
740.46	254.97
740.79	254.56
741.12	254.18
741.45	253.86
741.78	253.46
742.11	253.11
742.44	252.71
742.77	252.39
743.10	252.08
743.43	251.73
743.75	251.28
744.08	251.13
744.41	250.82
744.74	250.52
745.07	250.20
745.40	249.90
745.73	249.65
746.06	249.34
746.39	249.03
746.71	248.67
747.04	248.38
747.37	248.09
747.70	247.83
748.03	247.57
748.36	247.31
748.68	247.00
749.01	246.69
749.34	246.47
749.67	246.20
750.00	245.96
750.33	245.80
750.65	245.56
750.98	245.16
751.31	244.94
751.64	244.70
751.97	244.51
752.29	244.27
752.62	243.95
752.95	243.70
753.28	243.46
753.60	243.23
753.93	243.04
754.26	242.80
754.59	242.55
754.91	242.33
755.24	242.10
755.57	241.89
755.90	241.73
756.22	241.51
756.55	241.27
756.88	241.03
757.20	240.78
757.53	240.57
757.86	240.37
758.19	240.19
758.51	239.98
758.84	239.77
759.17	239.57
759.49	239.45
759.82	239.32
760.15	239.15
760.47	238.97
760.80	238.77
761.13	238.62
761.45	238.43
761.78	238.24
762.11	238.05
762.43	237.91
762.76	237.71
763.08	237.55
763.41	237.39
763.74	237.24
764.06	237.07
764.39	236.90
764.71	236.74
765.04	236.50
765.37	236.36
765.69	236.18
766.02	236.04
766.34	235.87
766.67	235.71
767.00	235.58
767.32	235.53
767.65	235.44
767.97	235.26
768.30	235.15
768.62	234.99
768.95	234.85
769.27	234.69
769.60	234.59
769.92	234.45
770.25	234.33
770.57	234.17
770.90	234.03
771.22	233.90
771.55	233.81
771.87	233.72
772.20	233.61
772.52	233.58
772.85	233.60
773.17	233.49
773.50	233.33
773.82	233.23
774.15	233.06
774.47	232.87
774.80	232.81
775.12	232.67
775.45	232.61
775.77	232.54
776.09	232.49
776.42	232.40
776.74	232.33
777.07	232.22
777.39	232.16
777.72	232.04
778.04	231.94
778.36	231.83
778.69	231.78
779.01	231.70
779.33	231.54
779.66	231.31
779.98	231.24
780.31	231.20
780.63	231.19
780.95	231.11
781.28	231.05
781.60	230.95
781.92	230.91
782.25	230.85
782.57	230.78
782.89	230.70
783.22	230.59
783.54	230.52
783.86	230.49
784.19	230.39
784.51	230.36
784.83	230.34
785.16	230.27
785.48	230.20
785.80	230.11
786.12	230.06
786.45	230.02
786.77	229.97
