SpectraSuite Data File
++++++++++++++++++++++++++++++++++++
Date: Fri Feb 01 17:37:59 EST 2013
User: group
Dark Spectrum Present: No
Reference Spectrum Present: No
Number of Sampled Component Spectra: 1
Spectrometers: USB2E7196
Integration Time (usec): 35000 (USB2E7196)
Spectra Averaged: 100 (USB2E7196)
Boxcar Smoothing: 10 (USB2E7196)
Correct for Electrical Dark: No (USB2E7196)
Strobe/Lamp Enabled: No (USB2E7196)
Correct for Detector Non-linearity: No (USB2E7196)
Correct for Stray Light: No (USB2E7196)
Number of Pixels in Processed Spectrum: 2048
>>>>>Begin Processed Spectral Data<<<<<
339.09	0.00
339.48	212.75
339.86	214.24
340.24	215.56
340.63	217.10
341.01	219.70
341.39	219.64
341.78	220.66
342.16	222.63
342.54	223.23
342.93	211.42
343.31	222.09
343.69	222.62
344.07	223.08
344.46	223.49
344.84	223.89
345.22	224.12
345.60	224.37
345.99	224.58
346.37	224.69
346.75	224.78
347.13	224.84
347.52	224.87
347.90	224.90
348.28	224.95
348.66	224.97
349.05	224.93
349.43	224.99
349.81	225.02
350.19	225.05
350.57	225.09
350.96	225.11
351.34	225.22
351.72	225.33
352.10	225.44
352.48	225.53
352.87	225.57
353.25	225.66
353.63	225.74
354.01	225.79
354.39	225.86
354.77	225.94
355.15	226.04
355.54	226.10
355.92	226.17
356.30	226.23
356.68	226.37
357.06	226.48
357.44	226.51
357.82	226.58
358.20	226.65
358.58	226.72
358.97	226.80
359.35	226.86
359.73	226.90
360.11	226.97
360.49	227.05
360.87	227.11
361.25	227.20
361.63	227.25
362.01	227.32
362.39	227.35
362.77	227.38
363.15	227.40
363.53	227.47
363.91	227.47
364.29	227.50
364.67	227.39
365.05	227.38
365.43	227.43
365.81	227.44
366.19	227.49
366.57	227.54
366.95	227.56
367.33	227.54
367.71	227.55
368.09	227.55
368.47	227.53
368.85	227.51
369.23	227.50
369.61	227.46
369.99	227.44
370.37	227.43
370.75	227.47
371.13	227.44
371.51	227.35
371.89	227.33
372.27	227.26
372.65	227.31
373.03	227.26
373.41	227.19
373.78	227.14
374.16	227.05
374.54	226.96
374.92	226.87
375.30	226.79
375.68	226.73
376.06	226.68
376.44	226.61
376.82	226.55
377.19	226.48
377.57	226.45
377.95	226.39
378.33	226.34
378.71	226.21
379.09	226.15
379.47	226.13
379.84	226.06
380.22	225.99
380.60	225.87
380.98	225.80
381.36	225.72
381.73	225.65
382.11	225.60
382.49	225.55
382.87	225.49
383.25	225.45
383.62	225.51
384.00	225.45
384.38	225.37
384.76	225.32
385.13	225.29
385.51	225.22
385.89	225.13
386.27	225.07
386.64	225.02
387.02	224.97
387.40	224.92
387.78	224.88
388.15	224.90
388.53	224.87
388.91	224.83
389.29	224.81
389.66	224.80
390.04	224.74
390.42	224.77
390.79	224.76
391.17	224.72
391.55	224.60
391.92	224.59
392.30	224.61
392.68	224.55
393.05	224.49
393.43	224.47
393.81	224.49
394.18	224.46
394.56	224.50
394.94	224.56
395.31	224.54
395.69	224.60
396.06	224.64
396.44	224.67
396.82	224.70
397.19	224.76
397.57	224.79
397.95	224.87
398.32	224.83
398.70	224.87
399.07	224.96
399.45	224.98
399.82	225.01
400.20	225.05
400.58	225.16
400.95	225.21
401.33	225.31
401.70	225.44
402.08	225.55
402.45	225.62
402.83	225.69
403.20	225.81
403.58	225.89
403.95	225.96
404.33	226.07
404.71	226.17
405.08	226.35
405.46	226.48
405.83	226.60
406.21	226.77
406.58	226.92
406.96	227.06
407.33	227.21
407.70	227.43
408.08	227.70
408.45	227.90
408.83	228.14
409.20	228.35
409.58	228.54
409.95	228.78
410.33	229.03
410.70	229.31
411.08	229.61
411.45	229.93
411.82	230.27
412.20	230.67
412.57	231.10
412.95	231.38
413.32	231.79
413.69	232.20
414.07	232.64
414.44	233.18
414.82	233.69
415.19	234.28
415.56	234.86
415.94	235.44
416.31	236.12
416.68	236.74
417.06	237.49
417.43	238.19
417.81	239.01
418.18	239.82
418.55	240.70
418.93	241.63
419.30	242.56
419.67	243.52
420.04	244.48
420.42	245.53
420.79	246.77
421.16	247.97
421.54	249.21
421.91	250.50
422.28	251.78
422.66	253.18
423.03	254.57
423.40	255.94
423.77	257.40
424.15	258.89
424.52	260.49
424.89	262.19
425.26	263.84
425.64	265.38
426.01	267.06
426.38	268.75
426.75	270.49
427.13	272.31
427.50	274.18
427.87	276.20
428.24	278.15
428.61	279.96
428.99	282.04
429.36	284.26
429.73	286.39
430.10	288.51
430.47	290.65
430.85	292.82
431.22	295.19
431.59	297.68
431.96	300.05
432.33	302.64
432.70	305.12
433.08	308.04
433.45	310.78
433.82	313.52
434.19	316.54
434.56	319.48
434.93	322.23
435.30	324.99
435.68	328.00
436.05	330.96
436.42	333.89
436.79	336.50
437.16	339.30
437.53	342.28
437.90	345.23
438.27	348.12
438.64	351.12
439.01	353.85
439.38	356.14
439.75	358.39
440.13	360.99
440.50	363.44
440.87	365.35
441.24	367.44
441.61	369.68
441.98	371.23
442.35	373.12
442.72	375.07
443.09	377.00
443.46	378.04
443.83	378.68
444.20	379.23
444.57	380.10
444.94	380.45
445.31	380.85
445.68	381.24
446.05	381.32
446.42	380.91
446.79	380.41
447.16	380.00
447.53	379.64
447.90	378.44
448.27	377.23
448.64	375.64
449.01	374.44
449.37	372.42
449.74	370.47
450.11	368.11
450.48	365.56
450.85	362.87
451.22	360.61
451.59	358.50
451.96	356.49
452.33	353.81
452.70	351.34
453.07	348.30
453.43	345.23
453.80	342.36
454.17	339.58
454.54	336.95
454.91	334.08
455.28	331.33
455.65	328.74
456.02	326.17
456.38	323.88
456.75	321.07
457.12	318.68
457.49	316.35
457.86	314.10
458.23	312.13
458.59	310.04
458.96	307.90
459.33	305.97
459.70	304.00
460.07	302.41
460.43	300.60
460.80	298.94
461.17	297.44
461.54	295.81
461.91	294.33
462.27	292.80
462.64	291.52
463.01	290.11
463.38	288.75
463.74	287.30
464.11	286.09
464.48	284.99
464.85	283.85
465.21	282.95
465.58	281.98
465.95	280.83
466.32	279.84
466.68	278.89
467.05	277.93
467.42	276.95
467.78	275.96
468.15	275.06
468.52	274.38
468.88	273.48
469.25	272.71
469.62	272.05
469.98	271.38
470.35	270.68
470.72	270.06
471.08	269.36
471.45	268.81
471.82	268.26
472.18	267.65
472.55	267.23
472.92	266.68
473.28	266.21
473.65	265.73
474.02	265.28
474.38	264.88
474.75	264.58
475.11	264.26
475.48	264.01
475.85	263.78
476.21	263.53
476.58	263.32
476.94	263.22
477.31	263.03
477.67	262.88
478.04	262.79
478.41	262.73
478.77	262.81
479.14	262.78
479.50	262.80
479.87	262.91
480.23	262.96
480.60	263.04
480.96	263.16
481.33	263.39
481.69	263.62
482.06	263.83
482.42	263.99
482.79	264.26
483.15	264.56
483.52	264.94
483.88	265.30
484.25	265.71
484.61	266.09
484.98	266.56
485.34	267.14
485.71	267.72
486.07	268.30
486.44	268.83
486.80	269.52
487.17	270.19
487.53	270.99
487.90	271.85
488.26	272.77
488.62	273.73
488.99	274.71
489.35	275.80
489.72	276.91
490.08	278.13
490.44	279.35
490.81	280.67
491.17	282.00
491.54	283.50
491.90	285.03
492.26	286.67
492.63	288.38
492.99	290.14
493.36	292.01
493.72	294.05
494.08	296.16
494.45	298.37
494.81	300.75
495.17	303.17
495.54	305.72
495.90	308.38
496.26	311.15
496.63	314.08
496.99	317.16
497.35	320.39
497.72	323.75
498.08	327.23
498.44	330.87
498.80	334.72
499.17	338.70
499.53	342.85
499.89	347.16
500.26	351.61
500.62	356.17
500.98	360.99
501.34	366.02
501.71	371.23
502.07	376.63
502.43	382.09
502.79	387.80
503.16	393.76
503.52	399.92
503.88	406.15
504.24	412.62
504.60	419.34
504.97	426.34
505.33	433.56
505.69	441.13
506.05	448.76
506.41	456.54
506.78	464.46
507.14	472.78
507.50	481.23
507.86	490.07
508.22	499.07
508.59	508.21
508.95	517.52
509.31	527.06
509.67	536.89
510.03	546.96
510.39	557.23
510.75	567.75
511.12	578.39
511.48	589.43
511.84	600.57
512.20	611.76
512.56	623.34
512.92	635.11
513.28	647.17
513.64	659.30
514.00	671.65
514.37	684.29
514.73	696.87
515.09	709.60
515.45	722.48
515.81	735.66
516.17	749.17
516.53	762.89
516.89	776.78
517.25	790.54
517.61	804.49
517.97	818.58
518.33	832.47
518.69	846.80
519.05	861.34
519.41	876.06
519.77	891.03
520.13	906.10
520.49	921.08
520.85	935.77
521.21	951.02
521.57	966.72
521.93	981.86
522.29	997.70
522.65	1013.45
523.01	1029.09
523.37	1044.63
523.73	1060.25
524.09	1075.77
524.45	1091.37
524.81	1107.52
525.17	1123.78
525.53	1140.01
525.89	1156.42
526.25	1172.74
526.61	1188.53
526.97	1204.83
527.33	1220.85
527.68	1236.78
528.04	1252.74
528.40	1268.86
528.76	1285.34
529.12	1301.36
529.48	1317.84
529.84	1333.40
530.20	1349.38
530.56	1365.78
530.91	1382.67
531.27	1398.97
531.63	1414.91
531.99	1431.01
532.35	1446.59
532.71	1462.12
533.07	1477.94
533.42	1493.49
533.78	1509.18
534.14	1524.98
534.50	1539.90
534.86	1555.32
535.21	1570.07
535.57	1585.48
535.93	1600.66
536.29	1614.96
536.65	1629.51
537.00	1643.88
537.36	1658.89
537.72	1673.21
538.08	1687.50
538.44	1700.92
538.79	1714.54
539.15	1727.90
539.51	1741.44
539.87	1755.42
540.22	1768.76
540.58	1782.24
540.94	1795.15
541.29	1807.58
541.65	1820.20
542.01	1833.15
542.37	1845.27
542.72	1857.65
543.08	1869.57
543.44	1881.78
543.79	1893.19
544.15	1904.21
544.51	1915.72
544.87	1926.65
545.22	1937.48
545.58	1947.59
545.94	1957.45
546.29	1967.39
546.65	1977.36
547.01	1986.65
547.36	1995.40
547.72	2004.11
548.07	2012.37
548.43	2020.61
548.79	2028.63
549.14	2036.42
549.50	2043.87
549.86	2051.55
550.21	2058.93
550.57	2066.05
550.92	2072.74
551.28	2079.98
551.64	2087.38
551.99	2093.98
552.35	2100.33
552.70	2106.63
553.06	2113.00
553.41	2119.60
553.77	2125.64
554.13	2132.00
554.48	2138.33
554.84	2144.41
555.19	2149.82
555.55	2155.11
555.90	2160.07
556.26	2165.67
556.61	2170.67
556.97	2175.51
557.32	2180.23
557.68	2184.79
558.03	2189.34
558.39	2193.51
558.74	2198.25
559.10	2202.43
559.45	2206.45
559.81	2210.98
560.16	2215.30
560.52	2218.91
560.87	2222.55
561.23	2225.64
561.58	2228.81
561.94	2231.86
562.29	2234.30
562.64	2237.71
563.00	2240.61
563.35	2244.43
563.71	2247.82
564.06	2251.27
564.42	2254.52
564.77	2257.51
565.12	2260.41
565.48	2263.01
565.83	2265.43
566.19	2267.39
566.54	2268.51
566.89	2270.31
567.25	2271.55
567.60	2273.07
567.96	2275.21
568.31	2276.70
568.66	2278.45
569.02	2279.51
569.37	2280.36
569.72	2281.68
570.08	2282.21
570.43	2282.60
570.78	2282.61
571.14	2281.63
571.49	2280.75
571.84	2280.67
572.20	2280.00
572.55	2279.26
572.90	2277.91
573.26	2276.91
573.61	2275.58
573.96	2274.62
574.31	2272.07
574.67	2269.37
575.02	2266.22
575.37	2263.24
575.72	2259.94
576.08	2256.73
576.43	2253.75
576.78	2250.57
577.13	2247.63
577.49	2244.63
577.84	2241.85
578.19	2238.46
578.54	2235.28
578.90	2231.44
579.25	2226.42
579.60	2221.88
579.95	2217.36
580.30	2212.77
580.66	2207.98
581.01	2203.33
581.36	2198.61
581.71	2194.88
582.06	2190.99
582.42	2187.01
582.77	2182.14
583.12	2177.80
583.47	2173.77
583.82	2169.40
584.17	2164.48
584.53	2159.42
584.88	2154.29
585.23	2148.78
585.58	2143.65
585.93	2138.35
586.28	2133.86
586.63	2129.10
586.98	2124.22
587.34	2119.61
587.69	2114.98
588.04	2110.25
588.39	2104.91
588.74	2098.77
589.09	2092.67
589.44	2086.23
589.79	2080.20
590.14	2074.70
590.49	2068.31
590.84	2061.95
591.19	2055.97
591.54	2049.70
591.89	2042.77
592.25	2036.29
592.60	2029.37
592.95	2022.08
593.30	2015.10
593.65	2007.71
594.00	2000.89
594.35	1993.91
594.70	1985.97
595.05	1979.13
595.40	1971.76
595.75	1964.53
596.10	1958.63
596.45	1952.19
596.80	1946.10
597.15	1939.85
597.50	1933.30
597.85	1927.18
598.19	1920.82
598.54	1914.15
598.89	1907.64
599.24	1901.83
599.59	1895.60
599.94	1889.30
600.29	1883.05
600.64	1876.47
600.99	1869.19
601.34	1862.43
601.69	1855.39
602.04	1848.86
602.39	1841.53
602.74	1834.88
603.08	1828.34
603.43	1821.58
603.78	1814.37
604.13	1807.08
604.48	1800.07
604.83	1793.17
605.18	1786.44
605.53	1778.58
605.87	1770.56
606.22	1763.33
606.57	1755.34
606.92	1747.63
607.27	1740.70
607.62	1733.97
607.96	1726.85
608.31	1720.63
608.66	1713.19
609.01	1705.91
609.36	1698.55
609.70	1690.77
610.05	1682.81
610.40	1674.98
610.75	1666.76
611.10	1659.08
611.44	1650.76
611.79	1642.70
612.14	1633.89
612.49	1624.50
612.83	1616.00
613.18	1607.63
613.53	1599.52
613.88	1591.15
614.22	1582.82
614.57	1573.97
614.92	1565.76
615.27	1558.22
615.61	1549.70
615.96	1541.57
616.31	1533.74
616.65	1526.08
617.00	1518.28
617.35	1510.45
617.70	1502.07
618.04	1493.50
618.39	1485.25
618.74	1477.64
619.08	1469.14
619.43	1461.49
619.78	1454.44
620.12	1447.24
620.47	1439.81
620.82	1431.54
621.16	1423.74
621.51	1416.09
621.85	1408.36
622.20	1399.79
622.55	1391.15
622.89	1383.12
623.24	1375.33
623.59	1367.78
623.93	1360.15
624.28	1352.81
624.62	1345.21
624.97	1337.96
625.32	1330.93
625.66	1323.77
626.01	1316.56
626.35	1309.12
626.70	1301.31
627.04	1293.53
627.39	1285.54
627.73	1278.03
628.08	1271.02
628.43	1263.83
628.77	1256.56
629.12	1249.09
629.46	1241.84
629.81	1234.19
630.15	1226.87
630.50	1219.39
630.84	1211.25
631.19	1203.24
631.53	1195.61
631.88	1188.06
632.22	1180.33
632.57	1172.97
632.91	1165.35
633.26	1157.90
633.60	1150.40
633.95	1143.08
634.29	1135.94
634.64	1129.23
634.98	1121.88
635.32	1114.74
635.67	1108.06
636.01	1101.27
636.36	1094.43
636.70	1087.84
637.05	1081.38
637.39	1074.86
637.73	1068.46
638.08	1062.45
638.42	1056.45
638.77	1049.97
639.11	1043.31
639.45	1036.94
639.80	1030.31
640.14	1023.90
640.49	1017.29
640.83	1010.96
641.17	1004.83
641.52	998.50
641.86	992.08
642.20	986.17
642.55	979.69
642.89	973.15
643.23	966.54
643.58	960.64
643.92	954.45
644.26	948.55
644.61	942.47
644.95	936.35
645.29	929.82
645.64	923.06
645.98	916.61
646.32	910.61
646.66	904.58
647.01	898.83
647.35	893.07
647.69	887.23
648.04	881.64
648.38	875.79
648.72	869.86
649.06	863.82
649.41	857.80
649.75	851.97
650.09	846.04
650.43	840.23
650.78	834.09
651.12	828.11
651.46	822.23
651.80	816.60
652.14	811.14
652.49	805.79
652.83	800.58
653.17	795.12
653.51	789.52
653.85	784.10
654.20	778.43
654.54	772.44
654.88	766.67
655.22	760.77
655.56	755.01
655.90	749.49
656.25	744.22
656.59	738.88
656.93	733.68
657.27	728.54
657.61	723.02
657.95	717.95
658.29	712.84
658.64	707.46
658.98	701.97
659.32	696.44
659.66	691.16
660.00	685.83
660.34	680.79
660.68	675.79
661.02	670.66
661.36	665.88
661.70	661.37
662.05	656.92
662.39	652.56
662.73	648.11
663.07	643.67
663.41	639.21
663.75	634.77
664.09	630.19
664.43	625.76
664.77	621.71
665.11	617.42
665.45	613.23
665.79	609.25
666.13	605.21
666.47	601.16
666.81	597.00
667.15	592.84
667.49	588.86
667.83	584.98
668.17	581.02
668.51	576.95
668.85	572.91
669.19	569.01
669.53	565.20
669.87	561.29
670.21	557.59
670.55	553.88
670.89	550.40
671.23	546.96
671.57	543.39
671.91	539.91
672.25	536.36
672.58	532.80
672.92	529.28
673.26	526.06
673.60	522.83
673.94	519.72
674.28	516.79
674.62	513.87
674.96	510.81
675.30	507.92
675.64	504.99
675.97	502.15
676.31	499.30
676.65	496.31
676.99	493.58
677.33	490.70
677.67	487.88
678.01	484.81
678.34	481.84
678.68	478.90
679.02	476.00
679.36	473.22
679.70	470.51
680.04	467.81
680.37	464.93
680.71	462.11
681.05	459.48
681.39	456.76
681.73	454.07
682.06	451.55
682.40	449.01
682.74	446.44
683.08	443.88
683.42	441.27
683.75	438.83
684.09	436.25
684.43	433.76
684.77	431.29
685.10	428.97
685.44	426.64
685.78	424.38
686.12	422.06
686.45	419.76
686.79	417.48
687.13	415.20
687.46	413.05
687.80	410.89
688.14	408.63
688.48	406.55
688.81	404.35
689.15	402.12
689.49	399.92
689.82	397.83
690.16	395.65
690.50	393.66
690.83	391.65
691.17	389.65
691.51	387.75
691.84	385.86
692.18	383.93
692.52	381.98
692.85	380.01
693.19	378.15
693.52	376.24
693.86	374.35
694.20	372.56
694.53	370.75
694.87	368.85
695.21	367.01
695.54	365.12
695.88	363.30
696.21	361.54
696.55	359.85
696.88	358.14
697.22	356.47
697.56	354.79
697.89	353.10
698.23	351.46
698.56	349.83
698.90	348.26
699.23	346.61
699.57	345.03
699.90	343.49
700.24	341.90
700.58	340.41
700.91	338.94
701.25	337.49
701.58	336.07
701.92	334.70
702.25	333.31
702.59	331.99
702.92	330.67
703.26	329.35
703.59	328.06
703.93	326.86
704.26	325.64
704.60	324.37
704.93	323.12
705.26	321.88
705.60	320.67
705.93	319.44
706.27	318.40
706.60	317.27
706.94	316.20
707.27	315.09
707.61	313.97
707.94	312.91
708.27	311.79
708.61	310.70
708.94	309.69
709.28	308.71
709.61	307.71
709.94	306.76
710.28	305.73
710.61	304.72
710.95	303.59
711.28	302.67
711.61	301.70
711.95	300.75
712.28	299.77
712.61	298.81
712.95	297.87
713.28	296.92
713.61	296.01
713.95	295.10
714.28	294.21
714.61	293.30
714.95	292.44
715.28	291.55
715.61	290.65
715.95	289.78
716.28	288.88
716.61	288.01
716.95	287.15
717.28	286.38
717.61	285.59
717.94	284.88
718.28	284.03
718.61	283.25
718.94	282.53
719.27	281.86
719.61	281.14
719.94	280.48
720.27	279.78
720.60	279.09
720.94	278.42
721.27	277.81
721.60	277.27
721.93	276.65
722.27	276.12
722.60	275.57
722.93	274.96
723.26	274.41
723.59	273.83
723.93	273.27
724.26	272.74
724.59	272.18
724.92	271.61
725.25	271.11
725.59	270.62
725.92	270.12
726.25	269.62
726.58	269.13
726.91	268.61
727.24	268.10
727.57	267.60
727.91	267.09
728.24	266.64
728.57	266.11
728.90	265.69
729.23	265.20
729.56	264.75
729.89	264.30
730.22	263.84
730.55	263.39
730.89	262.93
731.22	262.45
731.55	262.02
731.88	261.57
732.21	261.13
732.54	260.69
732.87	260.24
733.20	259.79
733.53	259.41
733.86	259.05
734.19	258.65
734.52	258.29
734.85	257.96
735.18	257.52
735.51	257.13
735.84	256.72
736.17	256.37
736.50	255.95
736.83	255.69
737.16	255.38
737.49	255.06
737.82	254.71
738.15	254.40
738.48	254.04
738.81	253.71
739.14	253.42
739.47	253.08
739.80	252.78
740.13	252.47
740.46	252.13
740.79	251.76
741.12	251.49
741.45	251.16
741.78	250.83
742.11	250.54
742.44	250.21
742.77	249.91
743.10	249.60
743.43	249.31
743.75	248.93
744.08	248.75
744.41	248.46
744.74	248.20
745.07	247.93
745.40	247.70
745.73	247.47
746.06	247.15
746.39	246.90
746.71	246.61
747.04	246.34
747.37	246.05
747.70	245.84
748.03	245.53
748.36	245.31
748.68	245.05
749.01	244.78
749.34	244.59
749.67	244.33
750.00	244.08
750.33	243.90
750.65	243.70
750.98	243.36
751.31	243.14
751.64	242.91
751.97	242.72
752.29	242.50
752.62	242.24
752.95	242.01
753.28	241.78
753.60	241.57
753.93	241.39
754.26	241.19
754.59	240.91
754.91	240.71
755.24	240.49
755.57	240.29
755.90	240.11
756.22	239.90
756.55	239.71
756.88	239.54
757.20	239.31
757.53	239.09
757.86	238.92
758.19	238.73
758.51	238.58
758.84	238.36
759.17	238.14
759.49	237.94
759.82	237.81
760.15	237.65
760.47	237.50
760.80	237.28
761.13	237.16
761.45	237.01
761.78	236.89
762.11	236.74
762.43	236.60
762.76	236.41
763.08	236.25
763.41	236.13
763.74	235.99
764.06	235.79
764.39	235.61
764.71	235.45
765.04	235.29
765.37	235.10
765.69	234.96
766.02	234.83
766.34	234.75
766.67	234.63
767.00	234.52
767.32	234.42
767.65	234.42
767.97	234.29
768.30	234.22
768.62	234.06
768.95	233.94
769.27	233.80
769.60	233.74
769.92	233.62
770.25	233.52
770.57	233.38
770.90	233.35
771.22	233.26
771.55	233.18
771.87	233.06
772.20	232.97
772.52	232.96
772.85	232.98
773.17	232.86
773.50	232.76
773.82	232.69
774.15	232.61
774.47	232.42
774.80	232.33
775.12	232.22
775.45	232.16
775.77	232.08
776.09	232.01
776.42	231.95
776.74	231.89
777.07	231.81
777.39	231.73
777.72	231.65
778.04	231.59
778.36	231.50
778.69	231.48
779.01	231.45
779.33	231.30
779.66	231.14
779.98	231.07
780.31	231.01
780.63	230.98
780.95	230.94
781.28	230.88
781.60	230.81
781.92	230.73
782.25	230.67
782.57	230.62
782.89	230.57
783.22	230.50
783.54	230.42
783.86	230.39
784.19	230.33
784.51	230.28
784.83	230.25
785.16	230.22
785.48	230.15
785.80	230.08
786.12	230.08
786.45	230.00
786.77	229.98
787.09	229.90
