SpectraSuite Data File
++++++++++++++++++++++++++++++++++++
Date: Fri Feb 01 15:51:11 EST 2013
User: group
Dark Spectrum Present: No
Reference Spectrum Present: No
Number of Sampled Component Spectra: 1
Spectrometers: USB2E7196
Integration Time (usec): 35000 (USB2E7196)
Spectra Averaged: 100 (USB2E7196)
Boxcar Smoothing: 10 (USB2E7196)
Correct for Electrical Dark: No (USB2E7196)
Strobe/Lamp Enabled: No (USB2E7196)
Correct for Detector Non-linearity: No (USB2E7196)
Correct for Stray Light: No (USB2E7196)
Number of Pixels in Processed Spectrum: 2048
>>>>>Begin Processed Spectral Data<<<<<
339.09	0.00
339.48	214.79
339.86	216.48
340.24	217.52
340.63	219.03
341.01	221.30
341.39	221.34
341.78	222.90
342.16	224.20
342.54	224.43
342.93	212.99
343.31	223.77
343.69	224.33
344.07	224.79
344.46	225.20
344.84	225.56
345.22	225.79
345.60	226.06
345.99	226.25
346.37	226.40
346.75	226.49
347.13	226.56
347.52	226.60
347.90	226.64
348.28	226.68
348.66	226.75
349.05	226.75
349.43	226.79
349.81	226.82
350.19	226.88
350.57	226.97
350.96	227.03
351.34	227.11
351.72	227.18
352.10	227.28
352.48	227.34
352.87	227.44
353.25	227.54
353.63	227.60
354.01	227.67
354.39	227.72
354.77	227.82
355.15	227.95
355.54	228.01
355.92	228.06
356.30	228.15
356.68	228.27
357.06	228.37
357.44	228.43
357.82	228.46
358.20	228.54
358.58	228.58
358.97	228.68
359.35	228.72
359.73	228.77
360.11	228.83
360.49	228.93
360.87	228.96
361.25	229.03
361.63	229.08
362.01	229.15
362.39	229.19
362.77	229.21
363.15	229.20
363.53	229.25
363.91	229.29
364.29	229.29
364.67	229.22
365.05	229.23
365.43	229.27
365.81	229.33
366.19	229.39
366.57	229.40
366.95	229.38
367.33	229.36
367.71	229.39
368.09	229.39
368.47	229.33
368.85	229.32
369.23	229.30
369.61	229.24
369.99	229.23
370.37	229.23
370.75	229.27
371.13	229.23
371.51	229.17
371.89	229.14
372.27	229.14
372.65	229.08
373.03	229.04
373.41	228.94
373.78	228.86
374.16	228.74
374.54	228.66
374.92	228.60
375.30	228.60
375.68	228.51
376.06	228.42
376.44	228.36
376.82	228.30
377.19	228.23
377.57	228.19
377.95	228.10
378.33	228.00
378.71	227.86
379.09	227.80
379.47	227.70
379.84	227.62
380.22	227.54
380.60	227.48
380.98	227.41
381.36	227.37
381.73	227.29
382.11	227.24
382.49	227.18
382.87	227.09
383.25	226.98
383.62	227.04
384.00	226.99
384.38	226.95
384.76	226.90
385.13	226.88
385.51	226.80
385.89	226.71
386.27	226.66
386.64	226.65
387.02	226.60
387.40	226.59
387.78	226.55
388.15	226.52
388.53	226.48
388.91	226.45
389.29	226.43
389.66	226.42
390.04	226.39
390.42	226.44
390.79	226.44
391.17	226.44
391.55	226.28
391.92	226.29
392.30	226.30
392.68	226.26
393.05	226.26
393.43	226.29
393.81	226.32
394.18	226.34
394.56	226.34
394.94	226.40
395.31	226.42
395.69	226.46
396.06	226.50
396.44	226.55
396.82	226.60
397.19	226.68
397.57	226.72
397.95	226.77
398.32	226.73
398.70	226.78
399.07	226.82
399.45	226.92
399.82	226.99
400.20	227.04
400.58	227.14
400.95	227.17
401.33	227.29
401.70	227.44
402.08	227.55
402.45	227.64
402.83	227.71
403.20	227.79
403.58	227.89
403.95	228.00
404.33	228.11
404.71	228.21
405.08	228.39
405.46	228.52
405.83	228.68
406.21	228.87
406.58	229.04
406.96	229.23
407.33	229.40
407.70	229.55
408.08	229.81
408.45	230.02
408.83	230.25
409.20	230.44
409.58	230.61
409.95	230.83
410.33	231.12
410.70	231.39
411.08	231.68
411.45	232.00
411.82	232.28
412.20	232.61
412.57	233.02
412.95	233.29
413.32	233.70
413.69	234.09
414.07	234.50
414.44	234.95
414.82	235.42
415.19	235.97
415.56	236.51
415.94	237.05
416.31	237.70
416.68	238.33
417.06	239.02
417.43	239.73
417.81	240.51
418.18	241.29
418.55	242.12
418.93	242.99
419.30	243.89
419.67	244.87
420.04	245.82
420.42	246.81
420.79	247.99
421.16	249.19
421.54	250.41
421.91	251.62
422.28	252.88
422.66	254.17
423.03	255.47
423.40	256.77
423.77	258.20
424.15	259.59
424.52	261.04
424.89	262.66
425.26	264.18
425.64	265.61
426.01	267.20
426.38	268.85
426.75	270.53
427.13	272.23
427.50	274.02
427.87	275.90
428.24	277.74
428.61	279.50
428.99	281.44
429.36	283.53
429.73	285.61
430.10	287.62
430.47	289.71
430.85	291.81
431.22	294.10
431.59	296.44
431.96	298.71
432.33	301.26
432.70	303.64
433.08	306.44
433.45	309.11
433.82	311.75
434.19	314.66
434.56	317.52
434.93	320.23
435.30	322.83
435.68	325.73
436.05	328.57
436.42	331.37
436.79	333.82
437.16	336.51
437.53	339.33
437.90	342.18
438.27	344.95
438.64	347.80
439.01	350.41
439.38	352.69
439.75	354.85
440.13	357.29
440.50	359.64
440.87	361.51
441.24	363.46
441.61	365.60
441.98	367.10
442.35	368.87
442.72	370.68
443.09	372.49
443.46	373.52
443.83	374.14
444.20	374.65
444.57	375.51
444.94	375.81
445.31	376.14
445.68	376.47
446.05	376.57
446.42	376.13
446.79	375.69
447.16	375.24
447.53	374.97
447.90	373.79
448.27	372.58
448.64	371.02
449.01	369.81
449.37	367.84
449.74	365.92
450.11	363.69
450.48	361.22
450.85	358.70
451.22	356.57
451.59	354.54
451.96	352.57
452.33	349.99
452.70	347.60
453.07	344.78
453.43	341.87
453.80	339.08
454.17	336.43
454.54	333.87
454.91	331.13
455.28	328.46
455.65	325.98
456.02	323.59
456.38	321.39
456.75	318.77
457.12	316.51
457.49	314.27
457.86	312.11
458.23	310.27
458.59	308.22
458.96	306.14
459.33	304.25
459.70	302.39
460.07	300.85
460.43	299.12
460.80	297.51
461.17	296.06
461.54	294.54
461.91	293.15
462.27	291.73
462.64	290.51
463.01	289.12
463.38	287.80
463.74	286.42
464.11	285.26
464.48	284.22
464.85	283.13
465.21	282.28
465.58	281.32
465.95	280.20
466.32	279.29
466.68	278.34
467.05	277.48
467.42	276.60
467.78	275.63
468.15	274.78
468.52	274.14
468.88	273.32
469.25	272.56
469.62	271.91
469.98	271.23
470.35	270.57
470.72	270.02
471.08	269.40
471.45	268.86
471.82	268.31
472.18	267.75
472.55	267.27
472.92	266.76
473.28	266.31
473.65	265.88
474.02	265.45
474.38	265.09
474.75	264.78
475.11	264.40
475.48	264.19
475.85	263.95
476.21	263.68
476.58	263.47
476.94	263.33
477.31	263.20
477.67	263.02
478.04	262.92
478.41	262.83
478.77	262.91
479.14	262.84
479.50	262.84
479.87	262.90
480.23	262.99
480.60	263.04
480.96	263.10
481.33	263.30
481.69	263.49
482.06	263.70
482.42	263.90
482.79	264.20
483.15	264.54
483.52	264.94
483.88	265.32
484.25	265.71
484.61	266.15
484.98	266.57
485.34	267.13
485.71	267.72
486.07	268.33
486.44	268.88
486.80	269.61
487.17	270.38
487.53	271.18
487.90	272.03
488.26	273.00
488.62	274.02
488.99	274.98
489.35	276.04
489.72	277.15
490.08	278.33
490.44	279.54
490.81	280.81
491.17	282.15
491.54	283.65
491.90	285.21
492.26	286.82
492.63	288.59
492.99	290.38
493.36	292.28
493.72	294.33
494.08	296.45
494.45	298.66
494.81	301.01
495.17	303.44
495.54	306.00
495.90	308.67
496.26	311.44
496.63	314.45
496.99	317.52
497.35	320.78
497.72	324.20
498.08	327.70
498.44	331.36
498.80	335.28
499.17	339.26
499.53	343.40
499.89	347.81
500.26	352.29
500.62	356.94
500.98	361.93
501.34	367.01
501.71	372.32
502.07	377.77
502.43	383.42
502.79	389.30
503.16	395.38
503.52	401.67
503.88	408.10
504.24	414.78
504.60	421.66
504.97	428.82
505.33	436.15
505.69	443.91
506.05	451.75
506.41	459.62
506.78	467.79
507.14	476.28
507.50	484.96
507.86	494.01
508.22	503.22
508.59	512.45
508.95	522.04
509.31	531.84
509.67	541.97
510.03	552.23
510.39	562.74
510.75	573.58
511.12	584.56
511.48	595.85
511.84	607.28
512.20	618.81
512.56	630.72
512.92	642.90
513.28	655.19
513.64	667.68
514.00	680.41
514.37	693.33
514.73	706.36
515.09	719.43
515.45	732.65
515.81	746.17
516.17	760.10
516.53	774.20
516.89	788.40
517.25	802.57
517.61	817.01
517.97	831.45
518.33	845.81
518.69	860.56
519.05	875.50
519.41	890.63
519.77	906.27
520.13	921.80
520.49	937.12
520.85	952.66
521.21	968.33
521.57	984.60
521.93	1000.43
522.29	1016.83
522.65	1033.19
523.01	1049.40
523.37	1065.54
523.73	1081.70
524.09	1097.80
524.45	1114.04
524.81	1130.62
525.17	1147.47
525.53	1164.32
525.89	1181.21
526.25	1197.97
526.61	1214.45
526.97	1231.22
527.33	1247.63
527.68	1264.13
528.04	1280.67
528.40	1297.18
528.76	1314.22
529.12	1330.78
529.48	1347.56
529.84	1363.62
530.20	1380.16
530.56	1397.23
530.91	1414.70
531.27	1431.48
531.63	1447.93
531.99	1464.63
532.35	1480.63
532.71	1496.48
533.07	1512.81
533.42	1528.63
533.78	1544.73
534.14	1560.99
534.50	1576.25
534.86	1592.10
535.21	1607.25
535.57	1623.06
535.93	1638.53
536.29	1653.23
536.65	1668.32
537.00	1683.14
537.36	1698.36
537.72	1712.73
538.08	1727.05
538.44	1740.66
538.79	1754.50
539.15	1768.13
539.51	1781.75
539.87	1796.10
540.22	1809.86
540.58	1823.59
540.94	1836.98
541.29	1849.81
541.65	1862.40
542.01	1875.65
542.37	1887.97
542.72	1900.40
543.08	1912.11
543.44	1924.52
543.79	1935.74
544.15	1946.57
544.51	1958.04
544.87	1969.00
545.22	1979.77
545.58	1990.01
545.94	1999.74
546.29	2009.65
546.65	2019.45
547.01	2028.72
547.36	2037.35
547.72	2045.80
548.07	2053.59
548.43	2061.80
548.79	2069.83
549.14	2077.41
549.50	2084.75
549.86	2092.39
550.21	2099.66
550.57	2106.85
550.92	2113.38
551.28	2120.59
551.64	2127.63
551.99	2134.14
552.35	2140.32
552.70	2146.67
553.06	2152.78
553.41	2159.24
553.77	2165.25
554.13	2171.48
554.48	2177.55
554.84	2183.03
555.19	2188.34
555.55	2193.46
555.90	2197.91
556.26	2202.78
556.61	2207.56
556.97	2211.72
557.32	2215.90
557.68	2220.16
558.03	2224.61
558.39	2228.35
558.74	2232.80
559.10	2236.80
559.45	2240.51
559.81	2244.87
560.16	2248.57
560.52	2251.73
560.87	2255.15
561.23	2257.68
561.58	2260.52
561.94	2263.07
562.29	2265.43
562.64	2268.00
563.00	2270.60
563.35	2274.04
563.71	2277.01
564.06	2280.22
564.42	2283.09
564.77	2285.54
565.12	2287.83
565.48	2289.65
565.83	2291.60
566.19	2292.95
566.54	2293.82
566.89	2294.91
567.25	2295.36
567.60	2296.70
567.96	2298.40
568.31	2299.19
568.66	2300.33
569.02	2300.96
569.37	2301.34
569.72	2302.13
570.08	2302.30
570.43	2302.33
570.78	2301.77
571.14	2300.45
571.49	2299.11
571.84	2298.94
572.20	2297.81
572.55	2296.70
572.90	2295.24
573.26	2293.82
573.61	2292.15
573.96	2290.25
574.31	2287.22
574.67	2284.31
575.02	2280.67
575.37	2277.22
575.72	2273.31
576.08	2269.92
576.43	2266.45
576.78	2262.85
577.13	2259.92
577.49	2256.83
577.84	2253.27
578.19	2249.51
578.54	2245.71
578.90	2241.40
579.25	2235.71
579.60	2230.56
579.95	2225.53
580.30	2220.50
580.66	2215.21
581.01	2210.25
581.36	2205.36
581.71	2201.20
582.06	2196.77
582.42	2192.40
582.77	2187.19
583.12	2182.60
583.47	2177.94
583.82	2173.03
584.17	2167.71
584.53	2161.95
584.88	2156.34
585.23	2150.74
585.58	2145.25
585.93	2139.91
586.28	2135.13
586.63	2130.05
586.98	2125.14
587.34	2120.43
587.69	2115.51
588.04	2110.30
588.39	2104.67
588.74	2098.35
589.09	2092.18
589.44	2085.41
589.79	2079.31
590.14	2073.70
590.49	2067.19
590.84	2060.86
591.19	2054.85
591.54	2048.41
591.89	2041.02
592.25	2034.11
592.60	2026.97
592.95	2019.37
593.30	2012.03
593.65	2004.41
594.00	1997.46
594.35	1990.28
594.70	1982.37
595.05	1975.04
595.40	1967.68
595.75	1960.19
596.10	1954.02
596.45	1947.31
596.80	1940.97
597.15	1934.30
597.50	1927.05
597.85	1920.74
598.19	1914.01
598.54	1906.87
598.89	1900.21
599.24	1894.45
599.59	1887.73
599.94	1881.45
600.29	1875.25
600.64	1868.52
600.99	1861.21
601.34	1854.49
601.69	1847.56
602.04	1840.48
602.39	1833.19
602.74	1826.49
603.08	1819.68
603.43	1812.88
603.78	1805.64
604.13	1798.57
604.48	1791.21
604.83	1784.41
605.18	1777.32
605.53	1769.30
605.87	1761.23
606.22	1754.02
606.57	1746.06
606.92	1738.89
607.27	1731.70
607.62	1724.64
607.96	1717.39
608.31	1710.65
608.66	1702.98
609.01	1695.37
609.36	1687.89
609.70	1679.80
610.05	1671.67
610.40	1664.00
610.75	1655.63
611.10	1647.94
611.44	1639.46
611.79	1631.52
612.14	1622.90
612.49	1613.70
612.83	1605.34
613.18	1597.19
613.53	1589.02
613.88	1580.40
614.22	1571.98
614.57	1563.30
614.92	1555.33
615.27	1547.74
615.61	1539.48
615.96	1531.37
616.31	1523.77
616.65	1516.38
617.00	1508.80
617.35	1501.05
617.70	1492.71
618.04	1484.16
618.39	1476.00
618.74	1468.41
619.08	1460.16
619.43	1452.55
619.78	1445.80
620.12	1438.74
620.47	1431.25
620.82	1423.13
621.16	1415.83
621.51	1408.30
621.85	1400.73
622.20	1392.16
622.55	1383.97
622.89	1375.97
623.24	1368.45
623.59	1361.01
623.93	1353.50
624.28	1346.29
624.62	1338.78
624.97	1331.59
625.32	1324.93
625.66	1317.78
626.01	1310.58
626.35	1303.02
626.70	1295.29
627.04	1287.49
627.39	1279.70
627.73	1272.41
628.08	1265.52
628.43	1258.03
628.77	1250.62
629.12	1243.06
629.46	1235.88
629.81	1228.45
630.15	1221.31
630.50	1213.80
630.84	1205.60
631.19	1197.69
631.53	1190.19
631.88	1182.70
632.22	1175.16
632.57	1167.78
632.91	1160.31
633.26	1152.87
633.60	1145.57
633.95	1138.51
634.29	1131.44
634.64	1124.70
634.98	1117.18
635.32	1109.96
635.67	1103.52
636.01	1096.92
636.36	1090.12
636.70	1083.62
637.05	1077.00
637.39	1070.49
637.73	1063.90
638.08	1058.00
638.42	1051.97
638.77	1045.54
639.11	1038.88
639.45	1032.41
639.80	1025.81
640.14	1019.41
640.49	1012.95
640.83	1006.69
641.17	1000.44
641.52	994.07
641.86	987.60
642.20	981.80
642.55	975.46
642.89	968.88
643.23	962.33
643.58	956.50
643.92	950.26
644.26	944.13
644.61	938.12
644.95	932.10
645.29	925.45
645.64	918.66
645.98	912.36
646.32	906.57
646.66	900.54
647.01	894.69
647.35	888.96
647.69	883.15
648.04	877.68
648.38	871.81
648.72	865.82
649.06	859.77
649.41	853.92
649.75	847.99
650.09	842.09
650.43	836.30
650.78	830.20
651.12	824.24
651.46	818.53
651.80	812.74
652.14	807.38
652.49	802.05
652.83	796.95
653.17	791.14
653.51	785.41
653.85	780.03
654.20	774.40
654.54	768.41
654.88	762.60
655.22	756.62
655.56	750.99
655.90	745.56
656.25	740.35
656.59	735.01
656.93	729.94
657.27	724.77
657.61	719.28
657.95	714.17
658.29	709.08
658.64	703.85
658.98	698.60
659.32	693.21
659.66	688.01
660.00	682.65
660.34	677.82
660.68	672.83
661.02	667.86
661.36	663.18
661.70	658.71
662.05	654.35
662.39	650.02
662.73	645.56
663.07	641.22
663.41	636.72
663.75	632.29
664.09	627.69
664.43	623.33
664.77	619.30
665.11	615.13
665.45	611.10
665.79	606.96
666.13	602.84
666.47	598.70
666.81	594.52
667.15	590.41
667.49	586.53
667.83	582.78
668.17	578.78
668.51	574.65
668.85	570.61
669.19	566.72
669.53	562.83
669.87	558.94
670.21	555.21
670.55	551.56
670.89	548.00
671.23	544.61
671.57	541.12
671.91	537.51
672.25	534.00
672.58	530.44
672.92	527.06
673.26	523.91
673.60	520.72
673.94	517.60
674.28	514.70
674.62	511.71
674.96	508.55
675.30	505.62
675.64	502.67
675.97	499.90
676.31	497.01
676.65	494.11
676.99	491.40
677.33	488.53
677.67	485.74
678.01	482.72
678.34	479.72
678.68	476.78
679.02	473.91
679.36	471.07
679.70	468.36
680.04	465.61
680.37	462.71
680.71	459.98
681.05	457.43
681.39	454.66
681.73	452.02
682.06	449.49
682.40	446.98
682.74	444.47
683.08	441.95
683.42	439.38
683.75	436.91
684.09	434.33
684.43	431.87
684.77	429.38
685.10	427.03
685.44	424.69
685.78	422.49
686.12	420.29
686.45	418.04
686.79	415.68
687.13	413.48
687.46	411.32
687.80	409.14
688.14	406.93
688.48	404.91
688.81	402.61
689.15	400.50
689.49	398.36
689.82	396.30
690.16	394.19
690.50	392.29
690.83	390.36
691.17	388.38
691.51	386.53
691.84	384.67
692.18	382.74
692.52	380.81
692.85	378.85
693.19	377.00
693.52	375.19
693.86	373.47
694.20	371.71
694.53	369.93
694.87	368.09
695.21	366.28
695.54	364.45
695.88	362.78
696.21	361.06
696.55	359.38
696.88	357.72
697.22	356.09
697.56	354.44
697.89	352.78
698.23	351.19
698.56	349.51
698.90	347.94
699.23	346.33
699.57	344.79
699.90	343.24
700.24	341.64
700.58	340.08
700.91	338.58
701.25	337.12
701.58	335.76
701.92	334.40
702.25	333.00
702.59	331.66
702.92	330.29
703.26	329.00
703.59	327.72
703.93	326.54
704.26	325.29
704.60	323.99
704.93	322.72
705.26	321.50
705.60	320.36
705.93	319.22
706.27	318.17
706.60	317.12
706.94	316.06
707.27	314.96
707.61	313.95
707.94	312.86
708.27	311.75
708.61	310.65
708.94	309.66
709.28	308.70
709.61	307.71
709.94	306.80
710.28	305.78
710.61	304.81
710.95	303.73
711.28	302.85
711.61	301.85
711.95	300.96
712.28	299.97
712.61	298.97
712.95	298.03
713.28	297.17
713.61	296.20
713.95	295.25
714.28	294.41
714.61	293.53
714.95	292.73
715.28	291.89
715.61	291.02
715.95	290.13
716.28	289.27
716.61	288.43
716.95	287.60
717.28	286.84
717.61	286.05
717.94	285.27
718.28	284.41
718.61	283.74
718.94	283.02
719.27	282.38
719.61	281.73
719.94	281.08
720.27	280.35
720.60	279.72
720.94	279.16
721.27	278.54
721.60	277.96
721.93	277.36
722.27	276.79
722.60	276.24
722.93	275.65
723.26	275.11
723.59	274.55
723.93	274.01
724.26	273.48
724.59	272.90
724.92	272.40
725.25	271.92
725.59	271.40
725.92	270.87
726.25	270.33
726.58	269.82
726.91	269.31
727.24	268.80
727.57	268.38
727.91	267.83
728.24	267.36
728.57	266.86
728.90	266.38
729.23	265.94
729.56	265.49
729.89	265.05
730.22	264.57
730.55	264.12
730.89	263.70
731.22	263.23
731.55	262.82
731.88	262.35
732.21	261.92
732.54	261.50
732.87	261.09
733.20	260.73
733.53	260.34
733.86	259.97
734.19	259.59
734.52	259.15
734.85	258.84
735.18	258.42
735.51	258.07
735.84	257.72
736.17	257.36
736.50	256.95
736.83	256.73
737.16	256.39
737.49	256.05
737.82	255.71
738.15	255.42
738.48	255.10
738.81	254.82
739.14	254.49
739.47	254.16
739.80	253.83
740.13	253.53
740.46	253.23
740.79	252.91
741.12	252.64
741.45	252.33
741.78	251.98
742.11	251.72
742.44	251.38
742.77	251.07
743.10	250.77
743.43	250.50
743.75	250.09
744.08	249.95
744.41	249.72
744.74	249.45
745.07	249.14
745.40	248.89
745.73	248.63
746.06	248.35
746.39	248.10
746.71	247.86
747.04	247.57
747.37	247.29
747.70	247.06
748.03	246.77
748.36	246.57
748.68	246.34
749.01	246.06
749.34	245.87
749.67	245.63
750.00	245.40
750.33	245.22
750.65	245.01
750.98	244.66
751.31	244.39
751.64	244.15
751.97	243.99
752.29	243.75
752.62	243.49
752.95	243.28
753.28	243.08
753.60	242.85
753.93	242.66
754.26	242.48
754.59	242.24
754.91	242.02
755.24	241.79
755.57	241.59
755.90	241.40
756.22	241.19
756.55	240.98
756.88	240.78
757.20	240.56
757.53	240.37
757.86	240.22
758.19	240.07
758.51	239.91
758.84	239.70
759.17	239.55
759.49	239.44
759.82	239.32
760.15	239.19
760.47	239.04
760.80	238.90
761.13	238.72
761.45	238.60
761.78	238.46
762.11	238.31
762.43	238.18
762.76	238.07
763.08	237.94
763.41	237.78
763.74	237.66
764.06	237.52
764.39	237.36
764.71	237.22
765.04	237.07
765.37	236.96
765.69	236.83
766.02	236.74
766.34	236.57
766.67	236.41
767.00	236.28
767.32	236.23
767.65	236.14
767.97	236.06
768.30	235.94
768.62	235.88
768.95	235.76
769.27	235.65
769.60	235.55
769.92	235.48
770.25	235.40
770.57	235.26
770.90	235.18
771.22	235.06
771.55	234.93
771.87	234.88
772.20	234.76
772.52	234.75
772.85	234.76
773.17	234.67
773.50	234.57
773.82	234.48
774.15	234.37
774.47	234.23
774.80	234.14
775.12	234.05
775.45	233.93
775.77	233.88
776.09	233.77
776.42	233.68
776.74	233.62
777.07	233.56
777.39	233.51
777.72	233.41
778.04	233.41
778.36	233.36
778.69	233.29
779.01	233.23
779.33	233.07
779.66	232.89
779.98	232.85
780.31	232.81
780.63	232.76
780.95	232.69
781.28	232.60
781.60	232.53
781.92	232.45
782.25	232.40
782.57	232.30
782.89	232.25
783.22	232.20
783.54	232.11
783.86	232.07
784.19	232.00
784.51	231.96
784.83	231.89
785.16	231.82
785.48	231.78
785.80	231.74
786.12	231.71
786.45	231.66
786.77	231.57
787.09	231.51
