SpectraSuite Data File
++++++++++++++++++++++++++++++++++++
Date: Fri Feb 01 15:13:16 EST 2013
User: group
Dark Spectrum Present: No
Reference Spectrum Present: No
Number of Sampled Component Spectra: 1
Spectrometers: USB2E7196
Integration Time (usec): 35000 (USB2E7196)
Spectra Averaged: 100 (USB2E7196)
Boxcar Smoothing: 10 (USB2E7196)
Correct for Electrical Dark: No (USB2E7196)
Strobe/Lamp Enabled: No (USB2E7196)
Correct for Detector Non-linearity: No (USB2E7196)
Correct for Stray Light: No (USB2E7196)
Number of Pixels in Processed Spectrum: 2048
>>>>>Begin Processed Spectral Data<<<<<
339.09	0.00
339.48	215.00
339.86	216.48
340.24	218.28
340.63	219.28
341.01	222.17
341.39	221.66
341.78	223.71
342.16	224.00
342.54	225.33
342.93	213.50
343.31	224.32
343.69	224.89
344.07	225.33
344.46	225.73
344.84	226.13
345.22	226.38
345.60	226.66
345.99	226.83
346.37	226.99
346.75	227.09
347.13	227.16
347.52	227.20
347.90	227.26
348.28	227.27
348.66	227.27
349.05	227.27
349.43	227.29
349.81	227.33
350.19	227.40
350.57	227.45
350.96	227.55
351.34	227.62
351.72	227.66
352.10	227.82
352.48	227.90
352.87	227.92
353.25	228.01
353.63	228.05
354.01	228.13
354.39	228.23
354.77	228.30
355.15	228.38
355.54	228.46
355.92	228.49
356.30	228.59
356.68	228.75
357.06	228.80
357.44	228.86
357.82	228.93
358.20	229.01
358.58	229.08
358.97	229.13
359.35	229.19
359.73	229.30
360.11	229.32
360.49	229.37
360.87	229.47
361.25	229.45
361.63	229.53
362.01	229.57
362.39	229.58
362.77	229.61
363.15	229.67
363.53	229.70
363.91	229.71
364.29	229.70
364.67	229.62
365.05	229.66
365.43	229.70
365.81	229.71
366.19	229.71
366.57	229.71
366.95	229.71
367.33	229.70
367.71	229.68
368.09	229.68
368.47	229.64
368.85	229.58
369.23	229.62
369.61	229.54
369.99	229.53
370.37	229.49
370.75	229.49
371.13	229.42
371.51	229.34
371.89	229.31
372.27	229.24
372.65	229.19
373.03	229.12
373.41	229.03
373.78	228.96
374.16	228.89
374.54	228.81
374.92	228.74
375.30	228.65
375.68	228.55
376.06	228.51
376.44	228.45
376.82	228.38
377.19	228.27
377.57	228.21
377.95	228.12
378.33	228.02
378.71	227.90
379.09	227.84
379.47	227.76
379.84	227.67
380.22	227.61
380.60	227.51
380.98	227.46
381.36	227.37
381.73	227.27
382.11	227.16
382.49	227.09
382.87	227.00
383.25	226.94
383.62	226.98
384.00	226.88
384.38	226.80
384.76	226.74
385.13	226.71
385.51	226.66
385.89	226.57
386.27	226.53
386.64	226.48
387.02	226.42
387.40	226.40
387.78	226.36
388.15	226.32
388.53	226.29
388.91	226.27
389.29	226.20
389.66	226.22
390.04	226.18
390.42	226.18
390.79	226.15
391.17	226.14
391.55	226.04
391.92	226.01
392.30	226.02
392.68	226.02
393.05	226.04
393.43	226.06
393.81	226.07
394.18	226.11
394.56	226.12
394.94	226.16
395.31	226.19
395.69	226.29
396.06	226.34
396.44	226.40
396.82	226.42
397.19	226.54
397.57	226.59
397.95	226.69
398.32	226.71
398.70	226.80
399.07	226.88
399.45	226.95
399.82	227.04
400.20	227.12
400.58	227.23
400.95	227.28
401.33	227.39
401.70	227.56
402.08	227.66
402.45	227.79
402.83	227.90
403.20	228.04
403.58	228.15
403.95	228.27
404.33	228.44
404.71	228.58
405.08	228.78
405.46	228.91
405.83	229.08
406.21	229.26
406.58	229.45
406.96	229.63
407.33	229.83
407.70	230.03
408.08	230.31
408.45	230.52
408.83	230.79
409.20	231.02
409.58	231.22
409.95	231.47
410.33	231.78
410.70	232.04
411.08	232.32
411.45	232.61
411.82	232.93
412.20	233.28
412.57	233.70
412.95	233.99
413.32	234.38
413.69	234.78
414.07	235.19
414.44	235.67
414.82	236.16
415.19	236.69
415.56	237.26
415.94	237.82
416.31	238.46
416.68	239.08
417.06	239.78
417.43	240.46
417.81	241.22
418.18	241.98
418.55	242.82
418.93	243.68
419.30	244.58
419.67	245.49
420.04	246.45
420.42	247.44
420.79	248.60
421.16	249.75
421.54	250.96
421.91	252.21
422.28	253.47
422.66	254.78
423.03	256.06
423.40	257.39
423.77	258.79
424.15	260.20
424.52	261.68
424.89	263.27
425.26	264.83
425.64	266.32
426.01	267.89
426.38	269.55
426.75	271.23
427.13	272.99
427.50	274.81
427.87	276.65
428.24	278.51
428.61	280.31
428.99	282.26
429.36	284.35
429.73	286.42
430.10	288.44
430.47	290.53
430.85	292.67
431.22	294.93
431.59	297.29
431.96	299.53
432.33	302.06
432.70	304.43
433.08	307.26
433.45	309.90
433.82	312.50
434.19	315.41
434.56	318.25
434.93	320.89
435.30	323.55
435.68	326.44
436.05	329.23
436.42	332.00
436.79	334.54
437.16	337.24
437.53	340.09
437.90	342.89
438.27	345.66
438.64	348.46
439.01	351.02
439.38	353.29
439.75	355.51
440.13	357.97
440.50	360.35
440.87	362.19
441.24	364.12
441.61	366.31
441.98	367.86
442.35	369.66
442.72	371.54
443.09	373.30
443.46	374.33
443.83	375.02
444.20	375.52
444.57	376.35
444.94	376.64
445.31	376.95
445.68	377.31
446.05	377.36
446.42	377.01
446.79	376.61
447.16	376.16
447.53	375.84
447.90	374.68
448.27	373.51
448.64	371.94
449.01	370.79
449.37	368.81
449.74	366.83
450.11	364.52
450.48	362.02
450.85	359.50
451.22	357.34
451.59	355.26
451.96	353.28
452.33	350.68
452.70	348.36
453.07	345.54
453.43	342.61
453.80	339.82
454.17	337.16
454.54	334.59
454.91	331.87
455.28	329.18
455.65	326.73
456.02	324.26
456.38	322.12
456.75	319.45
457.12	317.22
457.49	315.02
457.86	312.86
458.23	310.99
458.59	308.98
458.96	306.89
459.33	305.04
459.70	303.22
460.07	301.69
460.43	299.95
460.80	298.34
461.17	296.93
461.54	295.41
461.91	293.98
462.27	292.52
462.64	291.27
463.01	289.89
463.38	288.56
463.74	287.20
464.11	286.00
464.48	284.98
464.85	283.81
465.21	282.94
465.58	282.04
465.95	280.96
466.32	280.00
466.68	279.09
467.05	278.22
467.42	277.28
467.78	276.32
468.15	275.43
468.52	274.72
468.88	273.83
469.25	273.09
469.62	272.44
469.98	271.76
470.35	271.10
470.72	270.49
471.08	269.81
471.45	269.23
471.82	268.65
472.18	268.01
472.55	267.57
472.92	267.00
473.28	266.49
473.65	266.00
474.02	265.54
474.38	265.17
474.75	264.79
475.11	264.43
475.48	264.18
475.85	263.95
476.21	263.69
476.58	263.54
476.94	263.34
477.31	263.14
477.67	262.97
478.04	262.84
478.41	262.78
478.77	262.83
479.14	262.77
479.50	262.77
479.87	262.84
480.23	262.91
480.60	262.99
480.96	263.09
481.33	263.28
481.69	263.50
482.06	263.67
482.42	263.88
482.79	264.14
483.15	264.46
483.52	264.83
483.88	265.20
484.25	265.57
484.61	266.03
484.98	266.49
485.34	267.05
485.71	267.63
486.07	268.21
486.44	268.76
486.80	269.45
487.17	270.17
487.53	271.00
487.90	271.86
488.26	272.78
488.62	273.77
488.99	274.74
489.35	275.73
489.72	276.89
490.08	278.09
490.44	279.35
490.81	280.70
491.17	282.02
491.54	283.48
491.90	285.00
492.26	286.61
492.63	288.32
492.99	290.12
493.36	292.03
493.72	294.04
494.08	296.15
494.45	298.41
494.81	300.79
495.17	303.21
495.54	305.75
495.90	308.40
496.26	311.20
496.63	314.16
496.99	317.28
497.35	320.53
497.72	323.94
498.08	327.46
498.44	331.14
498.80	335.07
499.17	339.09
499.53	343.27
499.89	347.65
500.26	352.17
500.62	356.84
500.98	361.72
501.34	366.82
501.71	372.13
502.07	377.54
502.43	383.15
502.79	389.00
503.16	395.08
503.52	401.35
503.88	407.70
504.24	414.33
504.60	421.26
504.97	428.37
505.33	435.70
505.69	443.34
506.05	451.06
506.41	458.92
506.78	467.09
507.14	475.54
507.50	484.29
507.86	493.27
508.22	502.42
508.59	511.72
508.95	521.28
509.31	531.11
509.67	541.15
510.03	551.50
510.39	562.02
510.75	572.81
511.12	583.78
511.48	595.18
511.84	606.64
512.20	618.13
512.56	630.04
512.92	642.25
513.28	654.61
513.64	667.09
514.00	679.87
514.37	692.72
514.73	705.76
515.09	718.79
515.45	732.15
515.81	745.81
516.17	759.78
516.53	773.93
516.89	788.15
517.25	802.45
517.61	816.86
517.97	831.29
518.33	845.84
518.69	860.74
519.05	875.69
519.41	890.91
519.77	906.45
520.13	922.07
520.49	937.43
520.85	952.96
521.21	968.81
521.57	984.98
521.93	1000.95
522.29	1017.43
522.65	1033.65
523.01	1049.95
523.37	1066.06
523.73	1082.30
524.09	1098.47
524.45	1114.78
524.81	1131.50
525.17	1148.46
525.53	1165.50
525.89	1182.32
526.25	1199.07
526.61	1215.54
526.97	1232.32
527.33	1248.93
527.68	1265.49
528.04	1281.94
528.40	1298.65
528.76	1315.73
529.12	1332.50
529.48	1349.39
529.84	1365.56
530.20	1382.38
530.56	1399.39
530.91	1416.79
531.27	1433.74
531.63	1450.25
531.99	1466.82
532.35	1482.85
532.71	1498.68
533.07	1514.95
533.42	1530.90
533.78	1546.96
534.14	1563.29
534.50	1578.70
534.86	1594.63
535.21	1609.85
535.57	1626.01
535.93	1641.51
536.29	1656.50
536.65	1671.56
537.00	1686.53
537.36	1701.87
537.72	1716.38
538.08	1730.93
538.44	1744.87
538.79	1758.75
539.15	1772.67
539.51	1786.68
539.87	1801.11
540.22	1814.92
540.58	1828.85
540.94	1842.48
541.29	1855.53
541.65	1868.31
542.01	1881.68
542.37	1894.09
542.72	1906.82
543.08	1918.62
543.44	1931.14
543.79	1942.32
544.15	1953.53
544.51	1964.98
544.87	1975.93
545.22	1986.86
545.58	1997.07
545.94	2006.85
546.29	2016.73
546.65	2026.35
547.01	2035.54
547.36	2044.20
547.72	2052.82
548.07	2060.64
548.43	2068.70
548.79	2076.77
549.14	2084.33
549.50	2091.70
549.86	2099.53
550.21	2106.71
550.57	2113.85
550.92	2120.37
551.28	2127.47
551.64	2134.48
551.99	2141.06
552.35	2147.21
552.70	2153.33
553.06	2159.30
553.41	2165.74
553.77	2171.78
554.13	2177.97
554.48	2184.20
554.84	2189.63
555.19	2194.76
555.55	2199.86
555.90	2204.33
556.26	2209.29
556.61	2214.10
556.97	2218.24
557.32	2222.27
557.68	2226.40
558.03	2230.78
558.39	2234.55
558.74	2238.99
559.10	2242.74
559.45	2246.40
559.81	2250.76
560.16	2254.55
560.52	2257.84
560.87	2261.04
561.23	2263.67
561.58	2266.69
561.94	2269.08
562.29	2271.55
562.64	2274.36
563.00	2276.97
563.35	2280.44
563.71	2283.40
564.06	2286.58
564.42	2289.47
564.77	2291.88
565.12	2293.93
565.48	2295.64
565.83	2297.39
566.19	2298.84
566.54	2299.76
566.89	2300.77
567.25	2301.23
567.60	2302.57
567.96	2303.99
568.31	2304.88
568.66	2305.77
569.02	2306.25
569.37	2306.50
569.72	2307.18
570.08	2307.00
570.43	2306.87
570.78	2306.19
571.14	2304.72
571.49	2303.26
571.84	2302.86
572.20	2301.64
572.55	2300.70
572.90	2299.10
573.26	2297.45
573.61	2295.61
573.96	2293.78
574.31	2290.71
574.67	2287.64
575.02	2283.82
575.37	2280.48
575.72	2276.63
576.08	2273.30
576.43	2269.88
576.78	2266.06
577.13	2262.86
577.49	2259.91
577.84	2256.42
578.19	2252.64
578.54	2248.77
578.90	2244.34
579.25	2238.66
579.60	2233.51
579.95	2228.46
580.30	2223.39
580.66	2218.30
581.01	2213.32
581.36	2208.29
581.71	2203.91
582.06	2199.37
582.42	2194.74
582.77	2189.42
583.12	2184.54
583.47	2179.75
583.82	2174.54
584.17	2169.31
584.53	2163.73
584.88	2157.98
585.23	2152.08
585.58	2146.46
585.93	2141.00
586.28	2136.16
586.63	2131.06
586.98	2125.90
587.34	2121.11
587.69	2116.25
588.04	2110.80
588.39	2104.94
588.74	2098.51
589.09	2092.52
589.44	2085.71
589.79	2079.75
590.14	2074.07
590.49	2067.47
590.84	2060.97
591.19	2055.00
591.54	2048.33
591.89	2040.79
592.25	2033.94
592.60	2026.66
592.95	2018.94
593.30	2011.48
593.65	2003.82
594.00	1996.56
594.35	1989.40
594.70	1981.15
595.05	1973.81
595.40	1966.47
595.75	1958.88
596.10	1952.36
596.45	1945.33
596.80	1938.97
597.15	1932.20
597.50	1924.99
597.85	1918.45
598.19	1911.64
598.54	1904.56
598.89	1898.01
599.24	1892.11
599.59	1885.22
599.94	1878.88
600.29	1872.48
600.64	1865.93
600.99	1858.53
601.34	1851.71
601.69	1844.73
602.04	1837.78
602.39	1830.40
602.74	1823.43
603.08	1816.73
603.43	1809.95
603.78	1802.77
604.13	1795.53
604.48	1788.10
604.83	1781.25
605.18	1774.23
605.53	1766.15
605.87	1757.97
606.22	1750.63
606.57	1742.50
606.92	1735.21
607.27	1728.03
607.62	1721.09
607.96	1713.68
608.31	1706.93
608.66	1699.26
609.01	1691.60
609.36	1684.02
609.70	1675.91
610.05	1667.90
610.40	1660.11
610.75	1651.86
611.10	1644.09
611.44	1635.74
611.79	1627.87
612.14	1619.15
612.49	1610.20
612.83	1601.92
613.18	1593.79
613.53	1585.69
613.88	1577.25
614.22	1568.90
614.57	1560.36
614.92	1552.51
615.27	1544.95
615.61	1536.64
615.96	1528.66
616.31	1521.01
616.65	1513.63
617.00	1505.92
617.35	1498.29
617.70	1489.96
618.04	1481.45
618.39	1473.25
618.74	1465.61
619.08	1457.24
619.43	1449.71
619.78	1442.66
620.12	1435.51
620.47	1427.95
620.82	1419.74
621.16	1412.40
621.51	1404.89
621.85	1397.21
622.20	1388.59
622.55	1380.28
622.89	1372.43
623.24	1364.81
623.59	1357.44
623.93	1349.97
624.28	1342.87
624.62	1335.35
624.97	1328.23
625.32	1321.51
625.66	1314.47
626.01	1307.33
626.35	1299.87
626.70	1292.09
627.04	1284.35
627.39	1276.62
627.73	1269.24
628.08	1262.49
628.43	1255.13
628.77	1247.65
629.12	1240.20
629.46	1233.02
629.81	1225.68
630.15	1218.50
630.50	1211.07
630.84	1202.87
631.19	1194.98
631.53	1187.53
631.88	1180.01
632.22	1172.38
632.57	1165.06
632.91	1157.58
633.26	1150.13
633.60	1142.90
633.95	1135.88
634.29	1128.90
634.64	1122.28
634.98	1114.99
635.32	1107.76
635.67	1101.32
636.01	1094.77
636.36	1087.93
636.70	1081.39
637.05	1074.76
637.39	1068.31
637.73	1061.90
638.08	1056.11
638.42	1050.17
638.77	1043.69
639.11	1037.15
639.45	1030.79
639.80	1024.14
640.14	1017.71
640.49	1011.21
640.83	1004.87
641.17	998.56
641.52	992.23
641.86	985.85
642.20	980.08
642.55	973.85
642.89	967.21
643.23	960.65
643.58	954.93
643.92	948.77
644.26	942.65
644.61	936.64
644.95	930.55
645.29	923.84
645.64	917.02
645.98	910.73
646.32	904.89
646.66	898.88
647.01	893.09
647.35	887.48
647.69	881.66
648.04	876.10
648.38	870.31
648.72	864.38
649.06	858.24
649.41	852.31
649.75	846.24
650.09	840.38
650.43	834.66
650.78	828.44
651.12	822.49
651.46	816.75
651.80	810.98
652.14	805.59
652.49	800.28
652.83	795.13
653.17	789.40
653.51	783.67
653.85	778.27
654.20	772.58
654.54	766.50
654.88	760.83
655.22	755.00
655.56	749.32
655.90	743.82
656.25	738.60
656.59	733.24
656.93	728.21
657.27	723.05
657.61	717.63
657.95	712.62
658.29	707.60
658.64	702.44
658.98	697.18
659.32	691.77
659.66	686.64
660.00	681.35
660.34	676.49
660.68	671.61
661.02	666.59
661.36	661.96
661.70	657.49
662.05	653.10
662.39	648.78
662.73	644.38
663.07	640.03
663.41	635.60
663.75	631.06
664.09	626.50
664.43	622.16
664.77	618.09
665.11	613.88
665.45	609.73
665.79	605.69
666.13	601.56
666.47	597.52
666.81	593.38
667.15	589.27
667.49	585.40
667.83	581.63
668.17	577.79
668.51	573.70
668.85	569.69
669.19	565.90
669.53	562.08
669.87	558.17
670.21	554.48
670.55	550.86
670.89	547.55
671.23	544.15
671.57	540.66
671.91	537.08
672.25	533.56
672.58	530.07
672.92	526.63
673.26	523.49
673.60	520.34
673.94	517.19
674.28	514.32
674.62	511.37
674.96	508.23
675.30	505.25
675.64	502.30
675.97	499.60
676.31	496.63
676.65	493.69
676.99	491.03
677.33	488.23
677.67	485.36
678.01	482.29
678.34	479.32
678.68	476.46
679.02	473.66
679.36	470.87
679.70	468.16
680.04	465.44
680.37	462.54
680.71	459.74
681.05	457.13
681.39	454.41
681.73	451.73
682.06	449.26
682.40	446.72
682.74	444.24
683.08	441.69
683.42	439.22
683.75	436.72
684.09	434.16
684.43	431.69
684.77	429.25
685.10	426.92
685.44	424.59
685.78	422.25
686.12	420.00
686.45	417.77
686.79	415.50
687.13	413.31
687.46	411.16
687.80	409.03
688.14	406.86
688.48	404.81
688.81	402.56
689.15	400.36
689.49	398.21
689.82	396.15
690.16	394.02
690.50	392.06
690.83	390.12
691.17	388.16
691.51	386.23
691.84	384.35
692.18	382.42
692.52	380.43
692.85	378.54
693.19	376.67
693.52	374.84
693.86	373.05
694.20	371.25
694.53	369.50
694.87	367.66
695.21	365.84
695.54	364.01
695.88	362.35
696.21	360.65
696.55	359.02
696.88	357.33
697.22	355.70
697.56	354.09
697.89	352.39
698.23	350.79
698.56	349.19
698.90	347.60
699.23	345.98
699.57	344.42
699.90	342.87
700.24	341.33
700.58	339.77
700.91	338.27
701.25	336.83
701.58	335.42
701.92	334.04
702.25	332.70
702.59	331.36
702.92	330.03
703.26	328.76
703.59	327.45
703.93	326.29
704.26	325.06
704.60	323.76
704.93	322.54
705.26	321.34
705.60	320.18
705.93	319.06
706.27	318.01
706.60	317.02
706.94	315.97
707.27	314.87
707.61	313.84
707.94	312.82
708.27	311.76
708.61	310.72
708.94	309.76
709.28	308.79
709.61	307.80
709.94	306.78
710.28	305.73
710.61	304.79
710.95	303.75
711.28	302.83
711.61	301.87
711.95	300.93
712.28	299.96
712.61	299.00
712.95	298.12
713.28	297.25
713.61	296.33
713.95	295.47
714.28	294.59
714.61	293.75
714.95	292.89
715.28	292.01
715.61	291.13
715.95	290.25
716.28	289.38
716.61	288.57
716.95	287.80
717.28	287.06
717.61	286.29
717.94	285.51
718.28	284.72
718.61	284.00
718.94	283.31
719.27	282.68
719.61	282.02
719.94	281.34
720.27	280.61
720.60	279.98
720.94	279.34
721.27	278.75
721.60	278.15
721.93	277.55
722.27	277.02
722.60	276.49
722.93	275.93
723.26	275.41
723.59	274.84
723.93	274.30
724.26	273.76
724.59	273.20
724.92	272.69
725.25	272.23
725.59	271.72
725.92	271.25
726.25	270.69
726.58	270.19
726.91	269.68
727.24	269.21
727.57	268.72
727.91	268.19
728.24	267.74
728.57	267.25
728.90	266.81
729.23	266.30
729.56	265.89
729.89	265.44
730.22	264.95
730.55	264.48
730.89	264.07
731.22	263.61
731.55	263.19
731.88	262.76
732.21	262.33
732.54	261.89
732.87	261.45
733.20	261.10
733.53	260.76
733.86	260.38
734.19	260.02
734.52	259.63
734.85	259.35
735.18	258.92
735.51	258.58
735.84	258.18
736.17	257.82
736.50	257.39
736.83	257.12
737.16	256.77
737.49	256.47
737.82	256.07
738.15	255.75
738.48	255.43
738.81	255.10
739.14	254.76
739.47	254.47
739.80	254.17
740.13	253.86
740.46	253.49
740.79	253.18
741.12	252.89
741.45	252.59
741.78	252.21
742.11	251.94
742.44	251.59
742.77	251.33
743.10	251.05
743.43	250.76
743.75	250.40
744.08	250.26
744.41	249.99
744.74	249.75
745.07	249.46
745.40	249.21
745.73	248.98
746.06	248.69
746.39	248.42
746.71	248.11
747.04	247.81
747.37	247.56
747.70	247.33
748.03	247.04
748.36	246.84
748.68	246.63
749.01	246.39
749.34	246.19
749.67	245.94
750.00	245.71
750.33	245.55
750.65	245.32
750.98	244.99
751.31	244.75
751.64	244.54
751.97	244.39
752.29	244.15
752.62	243.85
752.95	243.68
753.28	243.49
753.60	243.29
753.93	243.16
754.26	242.97
754.59	242.76
754.91	242.55
755.24	242.33
755.57	242.12
755.90	241.97
756.22	241.73
756.55	241.54
756.88	241.37
757.20	241.14
757.53	240.96
757.86	240.79
758.19	240.62
758.51	240.42
758.84	240.24
759.17	240.06
759.49	239.93
759.82	239.82
760.15	239.67
760.47	239.54
760.80	239.31
761.13	239.20
761.45	239.06
761.78	238.93
762.11	238.81
762.43	238.68
762.76	238.51
763.08	238.41
763.41	238.28
763.74	238.16
764.06	238.01
764.39	237.87
764.71	237.72
765.04	237.63
765.37	237.51
765.69	237.38
766.02	237.32
766.34	237.17
766.67	236.99
767.00	236.89
767.32	236.85
767.65	236.83
767.97	236.71
768.30	236.57
768.62	236.48
768.95	236.33
769.27	236.24
769.60	236.14
769.92	236.03
770.25	235.91
770.57	235.80
770.90	235.72
771.22	235.63
771.55	235.53
771.87	235.39
772.20	235.30
772.52	235.28
772.85	235.25
773.17	235.16
773.50	235.04
773.82	234.92
774.15	234.74
774.47	234.57
774.80	234.48
775.12	234.37
775.45	234.26
775.77	234.18
776.09	234.08
776.42	233.98
776.74	233.92
777.07	233.82
777.39	233.71
777.72	233.62
778.04	233.53
778.36	233.47
778.69	233.41
779.01	233.34
779.33	233.18
779.66	233.04
779.98	232.98
780.31	232.95
780.63	232.93
780.95	232.90
781.28	232.84
781.60	232.77
781.92	232.69
782.25	232.64
782.57	232.57
782.89	232.48
783.22	232.41
783.54	232.36
783.86	232.32
784.19	232.24
784.51	232.22
784.83	232.14
785.16	232.09
785.48	232.03
785.80	231.99
786.12	231.91
786.45	231.81
786.77	231.76
787.09	231.70
