SpectraSuite Data File
++++++++++++++++++++++++++++++++++++
Date: Fri Feb 01 16:27:22 EST 2013
User: group
Dark Spectrum Present: No
Reference Spectrum Present: No
Number of Sampled Component Spectra: 1
Spectrometers: USB2E7196
Integration Time (usec): 35000 (USB2E7196)
Spectra Averaged: 100 (USB2E7196)
Boxcar Smoothing: 10 (USB2E7196)
Correct for Electrical Dark: No (USB2E7196)
Strobe/Lamp Enabled: No (USB2E7196)
Correct for Detector Non-linearity: No (USB2E7196)
Correct for Stray Light: No (USB2E7196)
Number of Pixels in Processed Spectrum: 2048
>>>>>Begin Processed Spectral Data<<<<<
339.09	0.00
339.48	213.90
339.86	215.74
340.24	217.00
340.63	218.09
341.01	221.42
341.39	220.43
341.78	222.36
342.16	223.40
342.54	224.48
342.93	212.46
343.31	223.17
343.69	223.71
344.07	224.16
344.46	224.58
344.84	224.96
345.22	225.18
345.60	225.48
345.99	225.68
346.37	225.80
346.75	225.87
347.13	225.93
347.52	226.02
347.90	226.09
348.28	226.12
348.66	226.16
349.05	226.15
349.43	226.16
349.81	226.19
350.19	226.21
350.57	226.24
350.96	226.29
351.34	226.40
351.72	226.49
352.10	226.57
352.48	226.64
352.87	226.69
353.25	226.73
353.63	226.78
354.01	226.81
354.39	226.94
354.77	227.02
355.15	227.13
355.54	227.16
355.92	227.20
356.30	227.26
356.68	227.38
357.06	227.45
357.44	227.50
357.82	227.56
358.20	227.63
358.58	227.72
358.97	227.81
359.35	227.88
359.73	227.97
360.11	228.04
360.49	228.08
360.87	228.14
361.25	228.19
361.63	228.25
362.01	228.27
362.39	228.28
362.77	228.30
363.15	228.30
363.53	228.31
363.91	228.33
364.29	228.32
364.67	228.27
365.05	228.29
365.43	228.33
365.81	228.34
366.19	228.38
366.57	228.40
366.95	228.39
367.33	228.36
367.71	228.31
368.09	228.30
368.47	228.25
368.85	228.22
369.23	228.24
369.61	228.15
369.99	228.18
370.37	228.15
370.75	228.17
371.13	228.13
371.51	228.08
371.89	228.05
372.27	228.04
372.65	228.00
373.03	227.96
373.41	227.90
373.78	227.86
374.16	227.78
374.54	227.69
374.92	227.61
375.30	227.55
375.68	227.49
376.06	227.45
376.44	227.42
376.82	227.37
377.19	227.31
377.57	227.26
377.95	227.18
378.33	227.11
378.71	227.02
379.09	226.97
379.47	226.94
379.84	226.88
380.22	226.80
380.60	226.72
380.98	226.66
381.36	226.61
381.73	226.54
382.11	226.50
382.49	226.46
382.87	226.39
383.25	226.34
383.62	226.38
384.00	226.31
384.38	226.21
384.76	226.20
385.13	226.21
385.51	226.15
385.89	226.11
386.27	226.05
386.64	226.04
387.02	226.00
387.40	225.96
387.78	225.91
388.15	225.87
388.53	225.84
388.91	225.78
389.29	225.72
389.66	225.70
390.04	225.62
390.42	225.62
390.79	225.61
391.17	225.62
391.55	225.50
391.92	225.48
392.30	225.51
392.68	225.44
393.05	225.40
393.43	225.41
393.81	225.40
394.18	225.41
394.56	225.40
394.94	225.40
395.31	225.41
395.69	225.48
396.06	225.52
396.44	225.54
396.82	225.57
397.19	225.67
397.57	225.70
397.95	225.77
398.32	225.79
398.70	225.87
399.07	225.92
399.45	225.96
399.82	226.01
400.20	226.10
400.58	226.18
400.95	226.20
401.33	226.30
401.70	226.46
402.08	226.56
402.45	226.63
402.83	226.78
403.20	226.89
403.58	226.99
403.95	227.14
404.33	227.28
404.71	227.40
405.08	227.58
405.46	227.69
405.83	227.85
406.21	227.98
406.58	228.12
406.96	228.29
407.33	228.47
407.70	228.68
408.08	228.93
408.45	229.16
408.83	229.40
409.20	229.63
409.58	229.79
409.95	230.03
410.33	230.29
410.70	230.50
411.08	230.80
411.45	231.11
411.82	231.41
412.20	231.79
412.57	232.19
412.95	232.47
413.32	232.92
413.69	233.30
414.07	233.72
414.44	234.17
414.82	234.61
415.19	235.18
415.56	235.72
415.94	236.26
416.31	236.91
416.68	237.53
417.06	238.23
417.43	238.92
417.81	239.70
418.18	240.49
418.55	241.34
418.93	242.21
419.30	243.09
419.67	244.00
420.04	244.93
420.42	245.95
420.79	247.17
421.16	248.31
421.54	249.50
421.91	250.75
422.28	252.01
422.66	253.37
423.03	254.69
423.40	256.02
423.77	257.43
424.15	258.83
424.52	260.32
424.89	261.93
425.26	263.49
425.64	264.92
426.01	266.49
426.38	268.14
426.75	269.78
427.13	271.49
427.50	273.32
427.87	275.16
428.24	276.97
428.61	278.67
428.99	280.61
429.36	282.71
429.73	284.80
430.10	286.79
430.47	288.83
430.85	290.97
431.22	293.16
431.59	295.52
431.96	297.74
432.33	300.23
432.70	302.58
433.08	305.35
433.45	307.96
433.82	310.57
434.19	313.45
434.56	316.33
434.93	318.98
435.30	321.58
435.68	324.51
436.05	327.37
436.42	330.15
436.79	332.66
437.16	335.33
437.53	338.12
437.90	340.93
438.27	343.64
438.64	346.42
439.01	349.06
439.38	351.31
439.75	353.46
440.13	355.90
440.50	358.23
440.87	360.15
441.24	362.13
441.61	364.27
441.98	365.73
442.35	367.48
442.72	369.30
443.09	371.07
443.46	372.04
443.83	372.62
444.20	373.10
444.57	373.92
444.94	374.25
445.31	374.57
445.68	374.94
446.05	375.04
446.42	374.64
446.79	374.18
447.16	373.70
447.53	373.40
447.90	372.28
448.27	371.16
448.64	369.51
449.01	368.37
449.37	366.41
449.74	364.56
450.11	362.29
450.48	359.89
450.85	357.39
451.22	355.26
451.59	353.24
451.96	351.32
452.33	348.71
452.70	346.32
453.07	343.55
453.43	340.67
453.80	337.93
454.17	335.30
454.54	332.79
454.91	330.09
455.28	327.43
455.65	324.94
456.02	322.47
456.38	320.32
456.75	317.65
457.12	315.42
457.49	313.19
457.86	311.08
458.23	309.19
458.59	307.15
458.96	305.09
459.33	303.24
459.70	301.40
460.07	299.90
460.43	298.21
460.80	296.55
461.17	295.13
461.54	293.64
461.91	292.19
462.27	290.76
462.64	289.53
463.01	288.19
463.38	286.94
463.74	285.58
464.11	284.43
464.48	283.43
464.85	282.35
465.21	281.49
465.58	280.55
465.95	279.46
466.32	278.60
466.68	277.69
467.05	276.79
467.42	275.89
467.78	275.00
468.15	274.14
468.52	273.49
468.88	272.62
469.25	271.87
469.62	271.25
469.98	270.58
470.35	269.96
470.72	269.41
471.08	268.78
471.45	268.25
471.82	267.76
472.18	267.17
472.55	266.78
472.92	266.25
473.28	265.84
473.65	265.42
474.02	264.99
474.38	264.64
474.75	264.35
475.11	264.04
475.48	263.77
475.85	263.55
476.21	263.36
476.58	263.22
476.94	263.12
477.31	262.96
477.67	262.82
478.04	262.72
478.41	262.64
478.77	262.69
479.14	262.67
479.50	262.65
479.87	262.71
480.23	262.76
480.60	262.82
480.96	262.93
481.33	263.16
481.69	263.37
482.06	263.56
482.42	263.79
482.79	264.06
483.15	264.41
483.52	264.77
483.88	265.11
484.25	265.49
484.61	265.86
484.98	266.30
485.34	266.92
485.71	267.52
486.07	268.17
486.44	268.75
486.80	269.45
487.17	270.21
487.53	271.03
487.90	271.89
488.26	272.85
488.62	273.83
488.99	274.73
489.35	275.71
489.72	276.84
490.08	278.02
490.44	279.27
490.81	280.60
491.17	281.94
491.54	283.42
491.90	284.93
492.26	286.61
492.63	288.37
492.99	290.12
493.36	292.02
493.72	294.04
494.08	296.13
494.45	298.35
494.81	300.70
495.17	303.12
495.54	305.68
495.90	308.36
496.26	311.15
496.63	314.19
496.99	317.33
497.35	320.59
497.72	323.97
498.08	327.46
498.44	331.13
498.80	335.08
499.17	339.15
499.53	343.32
499.89	347.71
500.26	352.19
500.62	356.86
500.98	361.82
501.34	366.87
501.71	372.20
502.07	377.67
502.43	383.33
502.79	389.15
503.16	395.23
503.52	401.51
503.88	407.95
504.24	414.59
504.60	421.52
504.97	428.64
505.33	435.99
505.69	443.73
506.05	451.49
506.41	459.31
506.78	467.45
507.14	475.92
507.50	484.64
507.86	493.65
508.22	502.82
508.59	512.06
508.95	521.69
509.31	531.50
509.67	541.54
510.03	551.88
510.39	562.48
510.75	573.22
511.12	584.15
511.48	595.37
511.84	606.78
512.20	618.28
512.56	630.18
512.92	642.39
513.28	654.72
513.64	667.16
514.00	679.96
514.37	692.90
514.73	705.95
515.09	718.93
515.45	732.13
515.81	745.74
516.17	759.65
516.53	773.75
516.89	787.88
517.25	802.05
517.61	816.33
517.97	830.80
518.33	845.22
518.69	859.95
519.05	874.84
519.41	889.97
519.77	905.42
520.13	920.84
520.49	936.17
520.85	951.48
521.21	967.20
521.57	983.33
521.93	999.06
522.29	1015.38
522.65	1031.60
523.01	1047.80
523.37	1063.78
523.73	1079.87
524.09	1095.95
524.45	1112.15
524.81	1128.75
525.17	1145.45
525.53	1162.19
525.89	1179.01
526.25	1195.75
526.61	1212.11
526.97	1228.81
527.33	1245.20
527.68	1261.73
528.04	1278.10
528.40	1294.61
528.76	1311.54
529.12	1328.03
529.48	1344.80
529.84	1360.76
530.20	1377.36
530.56	1394.28
530.91	1411.70
531.27	1428.47
531.63	1444.84
531.99	1461.31
532.35	1477.19
532.71	1492.96
533.07	1509.13
533.42	1524.96
533.78	1541.07
534.14	1557.34
534.50	1572.57
534.86	1588.37
535.21	1603.48
535.57	1619.28
535.93	1634.84
536.29	1649.44
536.65	1664.43
537.00	1679.14
537.36	1694.34
537.72	1708.72
538.08	1723.04
538.44	1736.56
538.79	1750.18
539.15	1763.57
539.51	1777.24
539.87	1791.48
540.22	1805.25
540.58	1818.93
540.94	1832.12
541.29	1844.89
541.65	1857.41
542.01	1870.54
542.37	1882.85
542.72	1895.18
543.08	1906.76
543.44	1918.96
543.79	1930.06
544.15	1940.89
544.51	1952.31
544.87	1963.10
545.22	1973.70
545.58	1983.91
545.94	1993.69
546.29	2003.65
546.65	2013.51
547.01	2022.70
547.36	2031.28
547.72	2039.64
548.07	2047.36
548.43	2055.53
548.79	2063.37
549.14	2070.83
549.50	2078.05
549.86	2085.35
550.21	2092.79
550.57	2100.11
550.92	2106.56
551.28	2113.62
551.64	2120.64
551.99	2127.07
552.35	2133.35
552.70	2139.63
553.06	2145.54
553.41	2151.74
553.77	2157.67
554.13	2163.82
554.48	2169.97
554.84	2175.48
555.19	2180.70
555.55	2185.92
555.90	2190.42
556.26	2195.28
556.61	2199.92
556.97	2204.37
557.32	2208.60
557.68	2212.50
558.03	2216.81
558.39	2220.55
558.74	2225.25
559.10	2229.18
559.45	2232.91
559.81	2237.12
560.16	2240.94
560.52	2244.19
560.87	2247.68
561.23	2250.31
561.58	2253.29
561.94	2255.64
562.29	2257.93
562.64	2260.62
563.00	2263.20
563.35	2266.69
563.71	2269.90
564.06	2273.32
564.42	2276.08
564.77	2278.74
565.12	2281.00
565.48	2282.83
565.83	2284.72
566.19	2286.06
566.54	2286.92
566.89	2288.00
567.25	2288.56
567.60	2289.89
567.96	2291.56
568.31	2292.45
568.66	2293.62
569.02	2294.13
569.37	2294.74
569.72	2295.75
570.08	2296.03
570.43	2296.04
570.78	2295.45
571.14	2293.89
571.49	2292.52
571.84	2292.28
572.20	2291.30
572.55	2290.51
572.90	2289.01
573.26	2287.75
573.61	2286.09
573.96	2284.51
574.31	2281.68
574.67	2278.89
575.02	2275.30
575.37	2272.01
575.72	2268.31
576.08	2264.97
576.43	2261.70
576.78	2257.91
577.13	2254.78
577.49	2251.76
577.84	2248.29
578.19	2244.65
578.54	2241.12
578.90	2237.08
579.25	2231.57
579.60	2226.54
579.95	2221.46
580.30	2216.58
580.66	2211.39
581.01	2206.58
581.36	2201.75
581.71	2197.69
582.06	2193.28
582.42	2188.83
582.77	2183.75
583.12	2179.19
583.47	2174.63
583.82	2169.69
584.17	2164.60
584.53	2159.16
584.88	2153.53
585.23	2147.90
585.58	2142.46
585.93	2137.05
586.28	2132.30
586.63	2127.40
586.98	2122.53
587.34	2117.88
587.69	2113.05
588.04	2107.97
588.39	2102.36
588.74	2095.91
589.09	2089.76
589.44	2083.03
589.79	2077.29
590.14	2071.70
590.49	2065.27
590.84	2058.94
591.19	2053.13
591.54	2046.75
591.89	2039.54
592.25	2032.72
592.60	2025.51
592.95	2017.94
593.30	2010.62
593.65	2003.10
594.00	1996.10
594.35	1988.76
594.70	1980.89
595.05	1973.60
595.40	1966.32
595.75	1958.89
596.10	1952.71
596.45	1946.00
596.80	1939.86
597.15	1933.15
597.50	1926.10
597.85	1919.58
598.19	1912.89
598.54	1905.71
598.89	1899.12
599.24	1893.26
599.59	1886.70
599.94	1880.69
600.29	1874.48
600.64	1867.97
600.99	1860.57
601.34	1853.69
601.69	1846.86
602.04	1839.98
602.39	1832.79
602.74	1826.05
603.08	1819.39
603.43	1812.72
603.78	1805.42
604.13	1798.23
604.48	1790.87
604.83	1783.90
605.18	1776.93
605.53	1769.02
605.87	1761.15
606.22	1753.95
606.57	1745.94
606.92	1738.75
607.27	1731.60
607.62	1724.73
607.96	1717.49
608.31	1710.86
608.66	1703.32
609.01	1695.77
609.36	1688.16
609.70	1680.05
610.05	1672.01
610.40	1664.28
610.75	1655.86
611.10	1648.24
611.44	1639.77
611.79	1631.86
612.14	1623.26
612.49	1614.18
612.83	1605.78
613.18	1597.57
613.53	1589.41
613.88	1580.83
614.22	1572.45
614.57	1563.77
614.92	1555.64
615.27	1548.07
615.61	1539.78
615.96	1531.62
616.31	1523.93
616.65	1516.59
617.00	1509.08
617.35	1501.30
617.70	1493.02
618.04	1484.67
618.39	1476.44
618.74	1468.91
619.08	1460.53
619.43	1453.00
619.78	1446.12
620.12	1439.02
620.47	1431.49
620.82	1423.28
621.16	1415.94
621.51	1408.27
621.85	1400.76
622.20	1392.34
622.55	1383.83
622.89	1376.01
623.24	1368.42
623.59	1361.05
623.93	1353.49
624.28	1346.33
624.62	1338.80
624.97	1331.47
625.32	1324.66
625.66	1317.73
626.01	1310.50
626.35	1303.14
626.70	1295.32
627.04	1287.55
627.39	1279.75
627.73	1272.26
628.08	1265.41
628.43	1258.07
628.77	1250.81
629.12	1243.23
629.46	1235.93
629.81	1228.59
630.15	1221.33
630.50	1213.95
630.84	1205.79
631.19	1197.88
631.53	1190.29
631.88	1182.82
632.22	1175.18
632.57	1167.88
632.91	1160.22
633.26	1152.77
633.60	1145.36
633.95	1138.25
634.29	1131.20
634.64	1124.51
634.98	1117.26
635.32	1110.03
635.67	1103.39
636.01	1096.76
636.36	1089.86
636.70	1083.36
637.05	1076.86
637.39	1070.28
637.73	1063.74
638.08	1057.84
638.42	1051.83
638.77	1045.44
639.11	1038.87
639.45	1032.59
639.80	1025.88
640.14	1019.58
640.49	1013.11
640.83	1006.77
641.17	1000.57
641.52	994.17
641.86	987.67
642.20	981.71
642.55	975.46
642.89	969.07
643.23	962.42
643.58	956.65
643.92	950.44
644.26	944.30
644.61	938.32
644.95	932.24
645.29	925.59
645.64	918.88
645.98	912.48
646.32	906.60
646.66	900.58
647.01	894.74
647.35	888.95
647.69	883.10
648.04	877.62
648.38	871.79
648.72	865.82
649.06	859.73
649.41	853.91
649.75	847.92
650.09	841.99
650.43	836.23
650.78	830.10
651.12	824.22
651.46	818.54
651.80	812.72
652.14	807.44
652.49	802.11
652.83	796.91
653.17	791.23
653.51	785.46
653.85	779.99
654.20	774.34
654.54	768.35
654.88	762.59
655.22	756.60
655.56	750.94
655.90	745.48
656.25	740.29
656.59	734.95
656.93	729.89
657.27	724.67
657.61	719.26
657.95	714.12
658.29	709.00
658.64	703.76
658.98	698.56
659.32	693.03
659.66	687.80
660.00	682.52
660.34	677.62
660.68	672.64
661.02	667.63
661.36	662.94
661.70	658.46
662.05	654.10
662.39	649.88
662.73	645.41
663.07	641.06
663.41	636.62
663.75	632.06
664.09	627.45
664.43	623.13
664.77	619.00
665.11	614.78
665.45	610.70
665.79	606.62
666.13	602.40
666.47	598.33
666.81	594.16
667.15	590.01
667.49	586.10
667.83	582.36
668.17	578.42
668.51	574.38
668.85	570.29
669.19	566.46
669.53	562.60
669.87	558.69
670.21	554.98
670.55	551.39
670.89	547.99
671.23	544.55
671.57	540.97
671.91	537.43
672.25	533.90
672.58	530.36
672.92	526.93
673.26	523.82
673.60	520.69
673.94	517.61
674.28	514.75
674.62	511.79
674.96	508.65
675.30	505.75
675.64	502.82
675.97	500.09
676.31	497.26
676.65	494.32
676.99	491.59
677.33	488.69
677.67	485.84
678.01	482.80
678.34	479.84
678.68	477.00
679.02	474.17
679.36	471.39
679.70	468.69
680.04	465.91
680.37	462.99
680.71	460.17
681.05	457.57
681.39	454.80
681.73	452.12
682.06	449.63
682.40	447.05
682.74	444.52
683.08	441.99
683.42	439.31
683.75	436.78
684.09	434.31
684.43	431.90
684.77	429.41
685.10	427.04
685.44	424.72
685.78	422.34
686.12	420.14
686.45	417.84
686.79	415.51
687.13	413.30
687.46	411.14
687.80	409.03
688.14	406.79
688.48	404.69
688.81	402.46
689.15	400.30
689.49	398.19
689.82	396.08
690.16	394.00
690.50	392.03
690.83	390.07
691.17	388.04
691.51	386.08
691.84	384.20
692.18	382.25
692.52	380.25
692.85	378.33
693.19	376.40
693.52	374.60
693.86	372.74
694.20	370.93
694.53	369.17
694.87	367.24
695.21	365.44
695.54	363.62
695.88	361.86
696.21	360.09
696.55	358.37
696.88	356.69
697.22	354.96
697.56	353.36
697.89	351.75
698.23	350.13
698.56	348.54
698.90	346.96
699.23	345.35
699.57	343.86
699.90	342.32
700.24	340.76
700.58	339.23
700.91	337.77
701.25	336.36
701.58	334.95
701.92	333.59
702.25	332.19
702.59	330.83
702.92	329.51
703.26	328.23
703.59	326.96
703.93	325.76
704.26	324.57
704.60	323.30
704.93	322.01
705.26	320.79
705.60	319.64
705.93	318.46
706.27	317.43
706.60	316.36
706.94	315.31
707.27	314.19
707.61	313.13
707.94	312.09
708.27	310.99
708.61	309.93
708.94	308.95
709.28	308.02
709.61	307.08
709.94	306.17
710.28	305.15
710.61	304.16
710.95	303.10
711.28	302.20
711.61	301.27
711.95	300.39
712.28	299.45
712.61	298.47
712.95	297.57
713.28	296.69
713.61	295.83
713.95	294.94
714.28	294.12
714.61	293.23
714.95	292.43
715.28	291.59
715.61	290.69
715.95	289.88
716.28	289.02
716.61	288.20
716.95	287.37
717.28	286.62
717.61	285.88
717.94	285.13
718.28	284.29
718.61	283.55
718.94	282.85
719.27	282.17
719.61	281.53
719.94	280.86
720.27	280.15
720.60	279.49
720.94	278.86
721.27	278.24
721.60	277.67
721.93	277.06
722.27	276.52
722.60	275.98
722.93	275.37
723.26	274.85
723.59	274.28
723.93	273.70
724.26	273.17
724.59	272.62
724.92	272.10
725.25	271.65
725.59	271.16
725.92	270.66
726.25	270.15
726.58	269.63
726.91	269.13
727.24	268.64
727.57	268.15
727.91	267.67
728.24	267.24
728.57	266.74
728.90	266.27
729.23	265.78
729.56	265.34
729.89	264.89
730.22	264.35
730.55	263.89
730.89	263.50
731.22	263.06
731.55	262.59
731.88	262.17
732.21	261.72
732.54	261.28
732.87	260.82
733.20	260.40
733.53	260.03
733.86	259.63
734.19	259.22
734.52	258.80
734.85	258.49
735.18	258.03
735.51	257.69
735.84	257.33
736.17	256.94
736.50	256.54
736.83	256.30
737.16	255.96
737.49	255.63
737.82	255.24
738.15	254.90
738.48	254.57
738.81	254.26
739.14	253.93
739.47	253.61
739.80	253.29
740.13	253.05
740.46	252.69
740.79	252.37
741.12	252.06
741.45	251.77
741.78	251.39
742.11	251.11
742.44	250.78
742.77	250.50
743.10	250.25
743.43	249.96
743.75	249.57
744.08	249.43
744.41	249.17
744.74	248.91
745.07	248.63
745.40	248.40
745.73	248.14
746.06	247.88
746.39	247.63
746.71	247.37
747.04	247.05
747.37	246.81
747.70	246.59
748.03	246.39
748.36	246.17
748.68	245.96
749.01	245.72
749.34	245.52
749.67	245.30
750.00	245.07
750.33	244.93
750.65	244.72
750.98	244.40
751.31	244.18
751.64	243.97
751.97	243.82
752.29	243.60
752.62	243.37
752.95	243.17
753.28	242.97
753.60	242.77
753.93	242.63
754.26	242.47
754.59	242.26
754.91	242.05
755.24	241.89
755.57	241.72
755.90	241.53
756.22	241.33
756.55	241.14
756.88	240.93
757.20	240.72
757.53	240.55
757.86	240.38
758.19	240.23
758.51	240.03
758.84	239.81
759.17	239.63
759.49	239.48
759.82	239.35
760.15	239.17
760.47	239.01
760.80	238.82
761.13	238.67
761.45	238.51
761.78	238.36
762.11	238.20
762.43	238.02
762.76	237.88
763.08	237.74
763.41	237.59
763.74	237.47
764.06	237.30
764.39	237.13
764.71	236.99
765.04	236.82
765.37	236.70
765.69	236.56
766.02	236.43
766.34	236.25
766.67	236.09
767.00	235.99
767.32	235.93
767.65	235.88
767.97	235.73
768.30	235.62
768.62	235.51
768.95	235.39
769.27	235.26
769.60	235.19
769.92	235.06
770.25	234.93
770.57	234.79
770.90	234.66
771.22	234.59
771.55	234.47
771.87	234.37
772.20	234.25
772.52	234.28
772.85	234.31
773.17	234.21
773.50	234.11
773.82	234.02
774.15	233.85
774.47	233.72
774.80	233.62
775.12	233.50
775.45	233.38
775.77	233.28
776.09	233.21
776.42	233.07
776.74	233.02
777.07	232.93
777.39	232.88
777.72	232.84
778.04	232.73
778.36	232.67
778.69	232.61
779.01	232.58
779.33	232.41
779.66	232.23
779.98	232.18
780.31	232.12
780.63	232.06
780.95	232.05
781.28	231.95
781.60	231.88
781.92	231.83
782.25	231.78
782.57	231.72
782.89	231.67
783.22	231.63
783.54	231.51
783.86	231.47
784.19	231.39
784.51	231.33
784.83	231.26
785.16	231.18
785.48	231.13
785.80	231.06
786.12	231.00
786.45	230.94
786.77	230.92
787.09	230.87
