SpectraSuite Data File
++++++++++++++++++++++++++++++++++++
Date: Fri Feb 01 15:39:41 EST 2013
User: group
Dark Spectrum Present: No
Reference Spectrum Present: No
Number of Sampled Component Spectra: 1
Spectrometers: USB2E7196
Integration Time (usec): 35000 (USB2E7196)
Spectra Averaged: 100 (USB2E7196)
Boxcar Smoothing: 10 (USB2E7196)
Correct for Electrical Dark: No (USB2E7196)
Strobe/Lamp Enabled: No (USB2E7196)
Correct for Detector Non-linearity: No (USB2E7196)
Correct for Stray Light: No (USB2E7196)
Number of Pixels in Processed Spectrum: 2048
>>>>>Begin Processed Spectral Data<<<<<
339.09	0.00
339.48	215.25
339.86	216.57
340.24	217.94
340.63	219.46
341.01	221.99
341.39	221.97
341.78	222.85
342.16	224.50
342.54	225.02
342.93	213.31
343.31	224.09
343.69	224.61
344.07	225.06
344.46	225.47
344.84	225.84
345.22	226.07
345.60	226.32
345.99	226.50
346.37	226.62
346.75	226.70
347.13	226.77
347.52	226.82
347.90	226.90
348.28	226.91
348.66	226.98
349.05	226.99
349.43	227.04
349.81	227.10
350.19	227.15
350.57	227.18
350.96	227.28
351.34	227.36
351.72	227.43
352.10	227.51
352.48	227.61
352.87	227.65
353.25	227.71
353.63	227.80
354.01	227.86
354.39	227.94
354.77	228.04
355.15	228.14
355.54	228.20
355.92	228.24
356.30	228.28
356.68	228.38
357.06	228.43
357.44	228.49
357.82	228.53
358.20	228.60
358.58	228.68
358.97	228.75
359.35	228.83
359.73	228.88
360.11	228.93
360.49	228.96
360.87	229.00
361.25	229.05
361.63	229.10
362.01	229.16
362.39	229.17
362.77	229.20
363.15	229.23
363.53	229.21
363.91	229.22
364.29	229.25
364.67	229.16
365.05	229.17
365.43	229.16
365.81	229.18
366.19	229.19
366.57	229.23
366.95	229.17
367.33	229.12
367.71	229.12
368.09	229.11
368.47	229.10
368.85	229.08
369.23	229.05
369.61	228.97
369.99	228.96
370.37	228.92
370.75	228.92
371.13	228.86
371.51	228.81
371.89	228.75
372.27	228.71
372.65	228.69
373.03	228.62
373.41	228.55
373.78	228.49
374.16	228.40
374.54	228.27
374.92	228.21
375.30	228.14
375.68	228.07
376.06	228.00
376.44	227.93
376.82	227.89
377.19	227.82
377.57	227.73
377.95	227.62
378.33	227.56
378.71	227.45
379.09	227.39
379.47	227.35
379.84	227.28
380.22	227.23
380.60	227.13
380.98	227.05
381.36	227.00
381.73	226.92
382.11	226.86
382.49	226.83
382.87	226.75
383.25	226.69
383.62	226.74
384.00	226.70
384.38	226.63
384.76	226.57
385.13	226.59
385.51	226.56
385.89	226.52
386.27	226.48
386.64	226.45
387.02	226.40
387.40	226.37
387.78	226.36
388.15	226.30
388.53	226.28
388.91	226.27
389.29	226.24
389.66	226.23
390.04	226.20
390.42	226.17
390.79	226.20
391.17	226.24
391.55	226.10
391.92	226.13
392.30	226.16
392.68	226.15
393.05	226.13
393.43	226.17
393.81	226.20
394.18	226.20
394.56	226.21
394.94	226.26
395.31	226.28
395.69	226.31
396.06	226.36
396.44	226.42
396.82	226.49
397.19	226.62
397.57	226.67
397.95	226.74
398.32	226.78
398.70	226.84
399.07	226.89
399.45	226.99
399.82	227.03
400.20	227.08
400.58	227.15
400.95	227.22
401.33	227.28
401.70	227.47
402.08	227.56
402.45	227.67
402.83	227.78
403.20	227.90
403.58	228.03
403.95	228.19
404.33	228.31
404.71	228.43
405.08	228.60
405.46	228.75
405.83	228.93
406.21	229.08
406.58	229.24
406.96	229.40
407.33	229.60
407.70	229.80
408.08	230.08
408.45	230.33
408.83	230.57
409.20	230.81
409.58	230.98
409.95	231.26
410.33	231.53
410.70	231.80
411.08	232.07
411.45	232.39
411.82	232.68
412.20	233.05
412.57	233.48
412.95	233.78
413.32	234.18
413.69	234.58
414.07	235.00
414.44	235.48
414.82	235.98
415.19	236.49
415.56	237.01
415.94	237.55
416.31	238.17
416.68	238.78
417.06	239.48
417.43	240.14
417.81	240.88
418.18	241.67
418.55	242.48
418.93	243.37
419.30	244.27
419.67	245.21
420.04	246.14
420.42	247.09
420.79	248.24
421.16	249.36
421.54	250.56
421.91	251.77
422.28	253.04
422.66	254.34
423.03	255.63
423.40	256.95
423.77	258.33
424.15	259.72
424.52	261.21
424.89	262.82
425.26	264.38
425.64	265.84
426.01	267.41
426.38	269.06
426.75	270.72
427.13	272.45
427.50	274.23
427.87	276.11
428.24	277.97
428.61	279.70
428.99	281.67
429.36	283.73
429.73	285.84
430.10	287.84
430.47	289.90
430.85	292.06
431.22	294.37
431.59	296.79
431.96	299.05
432.33	301.54
432.70	303.91
433.08	306.76
433.45	309.39
433.82	312.01
434.19	314.92
434.56	317.70
434.93	320.36
435.30	323.00
435.68	325.88
436.05	328.74
436.42	331.53
436.79	334.04
437.16	336.75
437.53	339.60
437.90	342.40
438.27	345.17
438.64	348.01
439.01	350.59
439.38	352.83
439.75	355.03
440.13	357.51
440.50	359.86
440.87	361.70
441.24	363.65
441.61	365.80
441.98	367.30
442.35	369.14
442.72	370.99
443.09	372.83
443.46	373.86
443.83	374.44
444.20	374.96
444.57	375.83
444.94	376.16
445.31	376.48
445.68	376.85
446.05	376.92
446.42	376.55
446.79	376.11
447.16	375.63
447.53	375.29
447.90	374.14
448.27	372.95
448.64	371.38
449.01	370.22
449.37	368.28
449.74	366.36
450.11	364.10
450.48	361.60
450.85	359.03
451.22	356.87
451.59	354.83
451.96	352.89
452.33	350.26
452.70	347.86
453.07	345.00
453.43	342.11
453.80	339.29
454.17	336.60
454.54	334.04
454.91	331.33
455.28	328.67
455.65	326.19
456.02	323.80
456.38	321.64
456.75	318.99
457.12	316.71
457.49	314.50
457.86	312.33
458.23	310.47
458.59	308.41
458.96	306.34
459.33	304.52
459.70	302.67
460.07	301.15
460.43	299.41
460.80	297.77
461.17	296.32
461.54	294.85
461.91	293.41
462.27	291.95
462.64	290.70
463.01	289.29
463.38	287.96
463.74	286.53
464.11	285.32
464.48	284.34
464.85	283.24
465.21	282.35
465.58	281.38
465.95	280.29
466.32	279.37
466.68	278.45
467.05	277.49
467.42	276.57
467.78	275.64
468.15	274.78
468.52	274.14
468.88	273.26
469.25	272.49
469.62	271.84
469.98	271.15
470.35	270.52
470.72	269.95
471.08	269.29
471.45	268.78
471.82	268.30
472.18	267.66
472.55	267.20
472.92	266.69
473.28	266.24
473.65	265.81
474.02	265.41
474.38	265.03
474.75	264.72
475.11	264.39
475.48	264.11
475.85	263.87
476.21	263.63
476.58	263.46
476.94	263.32
477.31	263.20
477.67	263.07
478.04	262.96
478.41	262.89
478.77	262.92
479.14	262.86
479.50	262.85
479.87	262.92
480.23	263.04
480.60	263.12
480.96	263.20
481.33	263.42
481.69	263.63
482.06	263.84
482.42	264.05
482.79	264.30
483.15	264.66
483.52	265.07
483.88	265.45
484.25	265.82
484.61	266.28
484.98	266.72
485.34	267.28
485.71	267.85
486.07	268.48
486.44	269.07
486.80	269.78
487.17	270.51
487.53	271.34
487.90	272.19
488.26	273.11
488.62	274.14
488.99	275.10
489.35	276.14
489.72	277.28
490.08	278.50
490.44	279.75
490.81	281.07
491.17	282.40
491.54	283.86
491.90	285.46
492.26	287.12
492.63	288.85
492.99	290.62
493.36	292.51
493.72	294.59
494.08	296.67
494.45	298.90
494.81	301.25
495.17	303.64
495.54	306.18
495.90	308.86
496.26	311.63
496.63	314.63
496.99	317.70
497.35	320.90
497.72	324.26
498.08	327.75
498.44	331.38
498.80	335.31
499.17	339.35
499.53	343.46
499.89	347.78
500.26	352.26
500.62	356.92
500.98	361.89
501.34	366.96
501.71	372.28
502.07	377.72
502.43	383.31
502.79	389.17
503.16	395.25
503.52	401.54
503.88	407.96
504.24	414.56
504.60	421.43
504.97	428.60
505.33	435.93
505.69	443.66
506.05	451.42
506.41	459.31
506.78	467.41
507.14	475.86
507.50	484.59
507.86	493.65
508.22	502.84
508.59	512.06
508.95	521.58
509.31	531.36
509.67	541.41
510.03	551.74
510.39	562.26
510.75	573.05
511.12	584.04
511.48	595.36
511.84	606.80
512.20	618.32
512.56	630.31
512.92	642.46
513.28	654.80
513.64	667.32
514.00	680.05
514.37	693.03
514.73	706.18
515.09	719.20
515.45	732.40
515.81	746.06
516.17	760.02
516.53	774.19
516.89	788.42
517.25	802.70
517.61	817.15
517.97	831.70
518.33	846.13
518.69	860.86
519.05	875.84
519.41	891.04
519.77	906.59
520.13	921.99
520.49	937.37
520.85	952.88
521.21	968.69
521.57	984.94
521.93	1000.81
522.29	1017.21
522.65	1033.46
523.01	1049.74
523.37	1065.75
523.73	1081.90
524.09	1098.02
524.45	1114.41
524.81	1130.93
525.17	1147.79
525.53	1164.59
525.89	1181.48
526.25	1198.37
526.61	1214.75
526.97	1231.51
527.33	1248.07
527.68	1264.71
528.04	1281.27
528.40	1297.87
528.76	1314.90
529.12	1331.47
529.48	1348.27
529.84	1364.23
530.20	1380.92
530.56	1397.96
530.91	1415.30
531.27	1432.07
531.63	1448.48
531.99	1465.06
532.35	1481.17
532.71	1496.97
533.07	1513.28
533.42	1529.33
533.78	1545.26
534.14	1561.53
534.50	1576.82
534.86	1592.66
535.21	1607.88
535.57	1623.85
535.93	1639.23
536.29	1654.03
536.65	1669.14
537.00	1684.02
537.36	1699.45
537.72	1714.03
538.08	1728.43
538.44	1742.32
538.79	1756.29
539.15	1770.16
539.51	1783.75
539.87	1798.14
540.22	1811.93
540.58	1825.82
540.94	1839.07
541.29	1852.13
541.65	1864.87
542.01	1878.20
542.37	1890.59
542.72	1902.95
543.08	1914.68
543.44	1927.06
543.79	1938.37
544.15	1949.37
544.51	1960.91
544.87	1971.96
545.22	1982.67
545.58	1992.95
545.94	2002.76
546.29	2012.63
546.65	2022.42
547.01	2031.80
547.36	2040.49
547.72	2048.96
548.07	2056.76
548.43	2065.02
548.79	2073.05
549.14	2080.53
549.50	2088.00
549.86	2095.62
550.21	2102.88
550.57	2109.96
550.92	2116.61
551.28	2123.54
551.64	2130.63
551.99	2137.26
552.35	2143.28
552.70	2149.43
553.06	2155.41
553.41	2161.79
553.77	2167.81
554.13	2173.95
554.48	2180.10
554.84	2185.45
555.19	2190.77
555.55	2195.79
555.90	2200.16
556.26	2204.87
556.61	2209.76
556.97	2213.90
557.32	2218.11
557.68	2222.31
558.03	2226.88
558.39	2230.69
558.74	2235.25
559.10	2239.10
559.45	2242.68
559.81	2247.07
560.16	2250.97
560.52	2254.12
560.87	2257.58
561.23	2260.24
561.58	2263.17
561.94	2265.66
562.29	2268.10
562.64	2270.76
563.00	2273.48
563.35	2277.01
563.71	2280.30
564.06	2283.44
564.42	2286.19
564.77	2288.54
565.12	2290.70
565.48	2292.42
565.83	2294.16
566.19	2295.60
566.54	2296.47
566.89	2297.38
567.25	2297.83
567.60	2299.20
567.96	2300.97
568.31	2301.79
568.66	2302.90
569.02	2303.35
569.37	2303.58
569.72	2304.44
570.08	2304.43
570.43	2304.36
570.78	2303.81
571.14	2302.23
571.49	2300.86
571.84	2300.64
572.20	2299.52
572.55	2298.67
572.90	2297.28
573.26	2295.95
573.61	2294.15
573.96	2292.39
574.31	2289.68
574.67	2286.73
575.02	2283.16
575.37	2279.69
575.72	2275.84
576.08	2272.45
576.43	2269.14
576.78	2265.39
577.13	2262.24
577.49	2259.28
577.84	2255.79
578.19	2251.93
578.54	2248.16
578.90	2243.85
579.25	2238.25
579.60	2233.29
579.95	2228.11
580.30	2222.90
580.66	2217.71
581.01	2212.80
581.36	2207.94
581.71	2203.53
582.06	2198.94
582.42	2194.35
582.77	2189.04
583.12	2184.31
583.47	2179.52
583.82	2174.50
584.17	2169.23
584.53	2163.61
584.88	2157.82
585.23	2151.95
585.58	2146.63
585.93	2141.29
586.28	2136.51
586.63	2131.39
586.98	2126.22
587.34	2121.52
587.69	2116.49
588.04	2111.12
588.39	2105.46
588.74	2098.88
589.09	2092.75
589.44	2085.87
589.79	2079.83
590.14	2074.26
590.49	2067.75
590.84	2061.46
591.19	2055.27
591.54	2048.83
591.89	2041.36
592.25	2034.62
592.60	2027.38
592.95	2019.61
593.30	2012.17
593.65	2004.46
594.00	1997.36
594.35	1990.09
594.70	1982.07
595.05	1974.79
595.40	1967.43
595.75	1959.81
596.10	1953.53
596.45	1946.78
596.80	1940.66
597.15	1933.96
597.50	1926.79
597.85	1920.32
598.19	1913.51
598.54	1906.45
598.89	1899.88
599.24	1894.03
599.59	1887.23
599.94	1881.08
600.29	1874.85
600.64	1868.22
600.99	1860.82
601.34	1853.92
601.69	1847.00
602.04	1840.17
602.39	1832.93
602.74	1826.18
603.08	1819.45
603.43	1812.67
603.78	1805.35
604.13	1798.16
604.48	1790.74
604.83	1783.88
605.18	1776.78
605.53	1768.76
605.87	1760.75
606.22	1753.46
606.57	1745.48
606.92	1738.18
607.27	1730.85
607.62	1723.81
607.96	1716.51
608.31	1709.97
608.66	1702.42
609.01	1694.87
609.36	1687.10
609.70	1679.08
610.05	1670.90
610.40	1663.11
610.75	1654.76
611.10	1647.03
611.44	1638.63
611.79	1630.76
612.14	1622.07
612.49	1612.98
612.83	1604.65
613.18	1596.64
613.53	1588.47
613.88	1579.99
614.22	1571.67
614.57	1563.17
614.92	1555.03
615.27	1547.35
615.61	1538.86
615.96	1530.77
616.31	1523.17
616.65	1515.89
617.00	1508.35
617.35	1500.72
617.70	1492.44
618.04	1483.99
618.39	1475.86
618.74	1468.19
619.08	1459.78
619.43	1452.17
619.78	1445.33
620.12	1438.10
620.47	1430.44
620.82	1422.35
621.16	1414.98
621.51	1407.56
621.85	1399.96
622.20	1391.48
622.55	1383.22
622.89	1375.43
623.24	1367.83
623.59	1360.46
623.93	1352.93
624.28	1345.63
624.62	1338.10
624.97	1330.97
625.32	1324.15
625.66	1317.00
626.01	1309.70
626.35	1302.28
626.70	1294.58
627.04	1286.85
627.39	1279.04
627.73	1271.66
628.08	1264.73
628.43	1257.33
628.77	1249.79
629.12	1242.24
629.46	1235.11
629.81	1227.63
630.15	1220.35
630.50	1212.97
630.84	1204.65
631.19	1196.83
631.53	1189.41
631.88	1181.89
632.22	1174.18
632.57	1166.88
632.91	1159.40
633.26	1152.20
633.60	1144.90
633.95	1137.80
634.29	1130.72
634.64	1124.07
634.98	1116.71
635.32	1109.53
635.67	1102.98
636.01	1096.38
636.36	1089.59
636.70	1083.05
637.05	1076.51
637.39	1070.14
637.73	1063.59
638.08	1057.70
638.42	1051.68
638.77	1045.19
639.11	1038.58
639.45	1032.23
639.80	1025.61
640.14	1019.24
640.49	1012.59
640.83	1006.31
641.17	1000.13
641.52	993.76
641.86	987.31
642.20	981.50
642.55	975.25
642.89	968.76
643.23	962.20
643.58	956.46
643.92	950.25
644.26	944.17
644.61	938.11
644.95	932.10
645.29	925.51
645.64	918.76
645.98	912.52
646.32	906.81
646.66	900.72
647.01	894.98
647.35	889.24
647.69	883.46
648.04	877.86
648.38	871.96
648.72	865.97
649.06	859.96
649.41	854.10
649.75	848.04
650.09	842.09
650.43	836.27
650.78	830.00
651.12	824.08
651.46	818.35
651.80	812.54
652.14	807.19
652.49	801.87
652.83	796.67
653.17	790.85
653.51	785.10
653.85	779.82
654.20	774.10
654.54	768.09
654.88	762.35
655.22	756.56
655.56	750.84
655.90	745.40
656.25	740.12
656.59	734.77
656.93	729.72
657.27	724.55
657.61	719.19
657.95	714.12
658.29	709.07
658.64	703.86
658.98	698.62
659.32	693.11
659.66	687.90
660.00	682.61
660.34	677.67
660.68	672.72
661.02	667.62
661.36	662.89
661.70	658.39
662.05	654.03
662.39	649.63
662.73	645.22
663.07	640.83
663.41	636.36
663.75	631.85
664.09	627.28
664.43	622.91
664.77	618.72
665.11	614.52
665.45	610.29
665.79	606.20
666.13	602.05
666.47	597.95
666.81	593.80
667.15	589.68
667.49	585.89
667.83	582.09
668.17	578.23
668.51	574.15
668.85	570.07
669.19	566.26
669.53	562.44
669.87	558.56
670.21	554.87
670.55	551.23
670.89	547.87
671.23	544.45
671.57	540.96
671.91	537.47
672.25	534.01
672.58	530.55
672.92	527.21
673.26	524.13
673.60	521.02
673.94	517.89
674.28	515.08
674.62	512.11
674.96	508.94
675.30	505.97
675.64	503.07
675.97	500.34
676.31	497.41
676.65	494.46
676.99	491.75
677.33	488.92
677.67	486.13
678.01	483.04
678.34	480.09
678.68	477.22
679.02	474.39
679.36	471.55
679.70	468.87
680.04	466.10
680.37	463.13
680.71	460.31
681.05	457.74
681.39	454.92
681.73	452.24
682.06	449.73
682.40	447.16
682.74	444.64
683.08	442.14
683.42	439.56
683.75	437.10
684.09	434.53
684.43	432.03
684.77	429.54
685.10	427.17
685.44	424.84
685.78	422.56
686.12	420.34
686.45	418.06
686.79	415.72
687.13	413.51
687.46	411.42
687.80	409.28
688.14	407.06
688.48	404.97
688.81	402.74
689.15	400.62
689.49	398.53
689.82	396.44
690.16	394.32
690.50	392.36
690.83	390.36
691.17	388.42
691.51	386.52
691.84	384.68
692.18	382.74
692.52	380.74
692.85	378.80
693.19	376.90
693.52	375.07
693.86	373.29
694.20	371.49
694.53	369.65
694.87	367.81
695.21	365.97
695.54	364.17
695.88	362.43
696.21	360.69
696.55	359.01
696.88	357.36
697.22	355.71
697.56	354.14
697.89	352.50
698.23	350.88
698.56	349.31
698.90	347.71
699.23	346.04
699.57	344.54
699.90	343.00
700.24	341.46
700.58	339.98
700.91	338.47
701.25	337.04
701.58	335.68
701.92	334.35
702.25	333.05
702.59	331.65
702.92	330.33
703.26	329.05
703.59	327.77
703.93	326.55
704.26	325.31
704.60	323.98
704.93	322.73
705.26	321.48
705.60	320.30
705.93	319.15
706.27	318.16
706.60	317.09
706.94	316.00
707.27	314.89
707.61	313.81
707.94	312.82
708.27	311.69
708.61	310.61
708.94	309.58
709.28	308.60
709.61	307.68
709.94	306.73
710.28	305.72
710.61	304.78
710.95	303.69
711.28	302.80
711.61	301.85
711.95	300.92
712.28	300.00
712.61	299.03
712.95	298.14
713.28	297.27
713.61	296.36
713.95	295.50
714.28	294.67
714.61	293.81
714.95	292.97
715.28	292.14
715.61	291.28
715.95	290.41
716.28	289.53
716.61	288.69
716.95	287.89
717.28	287.15
717.61	286.36
717.94	285.66
718.28	284.84
718.61	284.12
718.94	283.45
719.27	282.76
719.61	282.11
719.94	281.42
720.27	280.73
720.60	280.09
720.94	279.44
721.27	278.83
721.60	278.23
721.93	277.60
722.27	277.06
722.60	276.52
722.93	275.99
723.26	275.45
723.59	274.89
723.93	274.35
724.26	273.75
724.59	273.18
724.92	272.64
725.25	272.14
725.59	271.64
725.92	271.13
726.25	270.62
726.58	270.12
726.91	269.63
727.24	269.12
727.57	268.64
727.91	268.12
728.24	267.65
728.57	267.20
728.90	266.79
729.23	266.28
729.56	265.80
729.89	265.31
730.22	264.81
730.55	264.31
730.89	263.86
731.22	263.42
731.55	262.98
731.88	262.56
732.21	262.10
732.54	261.66
732.87	261.21
733.20	260.83
733.53	260.42
733.86	260.02
734.19	259.60
734.52	259.19
734.85	258.87
735.18	258.47
735.51	258.10
735.84	257.71
736.17	257.36
736.50	256.98
736.83	256.75
737.16	256.43
737.49	256.09
737.82	255.73
738.15	255.39
738.48	255.06
738.81	254.73
739.14	254.43
739.47	254.10
739.80	253.78
740.13	253.43
740.46	253.07
740.79	252.77
741.12	252.47
741.45	252.18
741.78	251.84
742.11	251.53
742.44	251.20
742.77	250.88
743.10	250.56
743.43	250.29
743.75	249.94
744.08	249.77
744.41	249.51
744.74	249.28
745.07	249.02
745.40	248.77
745.73	248.55
746.06	248.27
746.39	248.00
746.71	247.74
747.04	247.53
747.37	247.32
747.70	247.10
748.03	246.85
748.36	246.65
748.68	246.41
749.01	246.18
749.34	245.97
749.67	245.77
750.00	245.58
750.33	245.42
750.65	245.18
750.98	244.87
751.31	244.65
751.64	244.46
751.97	244.31
752.29	244.10
752.62	243.86
752.95	243.68
753.28	243.50
753.60	243.30
753.93	243.13
754.26	242.95
754.59	242.68
754.91	242.47
755.24	242.27
755.57	242.09
755.90	241.89
756.22	241.69
756.55	241.48
756.88	241.29
757.20	241.08
757.53	240.89
757.86	240.75
758.19	240.60
758.51	240.43
758.84	240.23
759.17	240.06
759.49	239.90
759.82	239.79
760.15	239.64
760.47	239.49
760.80	239.32
761.13	239.19
761.45	239.07
761.78	238.94
762.11	238.80
762.43	238.67
762.76	238.55
763.08	238.45
763.41	238.32
763.74	238.18
764.06	238.01
764.39	237.88
764.71	237.71
765.04	237.56
765.37	237.41
765.69	237.26
766.02	237.14
766.34	236.99
766.67	236.81
767.00	236.70
767.32	236.64
767.65	236.55
767.97	236.40
768.30	236.29
768.62	236.18
768.95	236.04
769.27	235.89
769.60	235.79
769.92	235.66
770.25	235.57
770.57	235.45
770.90	235.36
771.22	235.25
771.55	235.12
771.87	235.01
772.20	234.88
772.52	234.88
772.85	234.91
773.17	234.80
773.50	234.71
773.82	234.60
774.15	234.43
774.47	234.30
774.80	234.19
775.12	234.09
775.45	234.02
775.77	233.95
776.09	233.90
776.42	233.79
776.74	233.73
777.07	233.63
777.39	233.55
777.72	233.47
778.04	233.40
778.36	233.33
778.69	233.26
779.01	233.18
779.33	233.02
779.66	232.84
779.98	232.79
780.31	232.72
780.63	232.67
780.95	232.64
781.28	232.57
781.60	232.49
781.92	232.41
782.25	232.30
782.57	232.24
782.89	232.20
783.22	232.10
783.54	232.02
783.86	231.96
784.19	231.90
784.51	231.87
784.83	231.84
785.16	231.81
785.48	231.79
785.80	231.75
786.12	231.73
786.45	231.66
786.77	231.62
787.09	231.57
