SpectraSuite Data File
++++++++++++++++++++++++++++++++++++
Date: Fri Feb 01 16:43:02 EST 2013
User: group
Dark Spectrum Present: No
Reference Spectrum Present: No
Number of Sampled Component Spectra: 1
Spectrometers: USB2E7196
Integration Time (usec): 35000 (USB2E7196)
Spectra Averaged: 100 (USB2E7196)
Boxcar Smoothing: 10 (USB2E7196)
Correct for Electrical Dark: No (USB2E7196)
Strobe/Lamp Enabled: No (USB2E7196)
Correct for Detector Non-linearity: No (USB2E7196)
Correct for Stray Light: No (USB2E7196)
Number of Pixels in Processed Spectrum: 2048
>>>>>Begin Processed Spectral Data<<<<<
339.09	0.00
339.48	214.20
339.86	215.00
340.24	215.96
340.63	217.64
341.01	220.31
341.39	220.60
341.78	222.08
342.16	222.37
342.54	223.84
342.93	211.94
343.31	222.62
343.69	223.14
344.07	223.57
344.46	224.02
344.84	224.40
345.22	224.64
345.60	224.86
345.99	225.03
346.37	225.17
346.75	225.24
347.13	225.33
347.52	225.38
347.90	225.45
348.28	225.45
348.66	225.51
349.05	225.49
349.43	225.53
349.81	225.57
350.19	225.62
350.57	225.66
350.96	225.74
351.34	225.85
351.72	225.92
352.10	226.06
352.48	226.13
352.87	226.17
353.25	226.24
353.63	226.34
354.01	226.39
354.39	226.50
354.77	226.57
355.15	226.68
355.54	226.74
355.92	226.78
356.30	226.87
356.68	226.99
357.06	227.06
357.44	227.15
357.82	227.20
358.20	227.31
358.58	227.39
358.97	227.47
359.35	227.55
359.73	227.63
360.11	227.68
360.49	227.74
360.87	227.82
361.25	227.92
361.63	228.02
362.01	228.11
362.39	228.15
362.77	228.21
363.15	228.25
363.53	228.32
363.91	228.35
364.29	228.37
364.67	228.35
365.05	228.38
365.43	228.42
365.81	228.44
366.19	228.46
366.57	228.54
366.95	228.56
367.33	228.55
367.71	228.53
368.09	228.55
368.47	228.54
368.85	228.53
369.23	228.53
369.61	228.45
369.99	228.44
370.37	228.45
370.75	228.48
371.13	228.40
371.51	228.35
371.89	228.34
372.27	228.30
372.65	228.22
373.03	228.18
373.41	228.13
373.78	228.08
374.16	227.97
374.54	227.86
374.92	227.77
375.30	227.71
375.68	227.62
376.06	227.56
376.44	227.50
376.82	227.41
377.19	227.31
377.57	227.27
377.95	227.18
378.33	227.13
378.71	227.00
379.09	226.96
379.47	226.89
379.84	226.81
380.22	226.74
380.60	226.67
380.98	226.57
381.36	226.48
381.73	226.42
382.11	226.42
382.49	226.36
382.87	226.29
383.25	226.20
383.62	226.27
384.00	226.19
384.38	226.07
384.76	226.07
385.13	226.00
385.51	225.93
385.89	225.84
386.27	225.77
386.64	225.71
387.02	225.64
387.40	225.61
387.78	225.54
388.15	225.50
388.53	225.46
388.91	225.43
389.29	225.39
389.66	225.32
390.04	225.25
390.42	225.22
390.79	225.24
391.17	225.22
391.55	225.09
391.92	225.07
392.30	225.09
392.68	225.03
393.05	225.05
393.43	225.04
393.81	225.08
394.18	225.05
394.56	225.07
394.94	225.10
395.31	225.10
395.69	225.15
396.06	225.18
396.44	225.20
396.82	225.23
397.19	225.31
397.57	225.35
397.95	225.39
398.32	225.40
398.70	225.43
399.07	225.49
399.45	225.55
399.82	225.62
400.20	225.67
400.58	225.77
400.95	225.79
401.33	225.88
401.70	225.98
402.08	226.05
402.45	226.12
402.83	226.24
403.20	226.30
403.58	226.39
403.95	226.50
404.33	226.62
404.71	226.72
405.08	226.88
405.46	227.01
405.83	227.17
406.21	227.32
406.58	227.46
406.96	227.63
407.33	227.78
407.70	227.97
408.08	228.25
408.45	228.45
408.83	228.69
409.20	228.87
409.58	229.05
409.95	229.31
410.33	229.57
410.70	229.78
411.08	230.12
411.45	230.42
411.82	230.72
412.20	231.09
412.57	231.51
412.95	231.77
413.32	232.20
413.69	232.58
414.07	233.04
414.44	233.51
414.82	233.99
415.19	234.52
415.56	235.05
415.94	235.59
416.31	236.22
416.68	236.82
417.06	237.56
417.43	238.23
417.81	238.99
418.18	239.74
418.55	240.60
418.93	241.46
419.30	242.37
419.67	243.32
420.04	244.24
420.42	245.21
420.79	246.38
421.16	247.53
421.54	248.74
421.91	249.92
422.28	251.18
422.66	252.49
423.03	253.78
423.40	255.09
423.77	256.47
424.15	257.85
424.52	259.36
424.89	260.93
425.26	262.52
425.64	263.95
426.01	265.56
426.38	267.22
426.75	268.90
427.13	270.59
427.50	272.36
427.87	274.23
428.24	276.05
428.61	277.81
428.99	279.70
429.36	281.75
429.73	283.81
430.10	285.78
430.47	287.78
430.85	289.89
431.22	292.10
431.59	294.48
431.96	296.74
432.33	299.18
432.70	301.54
433.08	304.26
433.45	306.89
433.82	309.43
434.19	312.28
434.56	315.06
434.93	317.71
435.30	320.30
435.68	323.13
436.05	325.98
436.42	328.73
436.79	331.24
437.16	333.92
437.53	336.71
437.90	339.48
438.27	342.24
438.64	345.08
439.01	347.70
439.38	349.89
439.75	352.01
440.13	354.43
440.50	356.76
440.87	358.60
441.24	360.57
441.61	362.73
441.98	364.19
442.35	365.94
442.72	367.72
443.09	369.52
443.46	370.55
443.83	371.14
444.20	371.67
444.57	372.52
444.94	372.83
445.31	373.15
445.68	373.55
446.05	373.65
446.42	373.25
446.79	372.84
447.16	372.44
447.53	372.15
447.90	371.03
448.27	369.88
448.64	368.36
449.01	367.22
449.37	365.31
449.74	363.46
450.11	361.26
450.48	358.85
450.85	356.36
451.22	354.27
451.59	352.25
451.96	350.32
452.33	347.74
452.70	345.39
453.07	342.62
453.43	339.73
453.80	336.98
454.17	334.33
454.54	331.78
454.91	329.05
455.28	326.41
455.65	323.97
456.02	321.53
456.38	319.39
456.75	316.76
457.12	314.51
457.49	312.29
457.86	310.15
458.23	308.31
458.59	306.33
458.96	304.26
459.33	302.46
459.70	300.60
460.07	299.12
460.43	297.43
460.80	295.84
461.17	294.42
461.54	292.91
461.91	291.51
462.27	290.11
462.64	288.88
463.01	287.53
463.38	286.25
463.74	284.90
464.11	283.73
464.48	282.71
464.85	281.62
465.21	280.79
465.58	279.90
465.95	278.79
466.32	277.85
466.68	276.97
467.05	276.06
467.42	275.19
467.78	274.27
468.15	273.41
468.52	272.76
468.88	271.94
469.25	271.21
469.62	270.62
469.98	269.99
470.35	269.38
470.72	268.79
471.08	268.13
471.45	267.65
471.82	267.17
472.18	266.55
472.55	266.11
472.92	265.61
473.28	265.15
473.65	264.74
474.02	264.32
474.38	263.98
474.75	263.65
475.11	263.33
475.48	263.12
475.85	262.87
476.21	262.61
476.58	262.44
476.94	262.32
477.31	262.13
477.67	261.97
478.04	261.87
478.41	261.81
478.77	261.88
479.14	261.79
479.50	261.81
479.87	261.93
480.23	262.05
480.60	262.13
480.96	262.21
481.33	262.41
481.69	262.61
482.06	262.79
482.42	263.02
482.79	263.25
483.15	263.54
483.52	263.93
483.88	264.29
484.25	264.67
484.61	265.10
484.98	265.54
485.34	266.07
485.71	266.64
486.07	267.23
486.44	267.79
486.80	268.54
487.17	269.21
487.53	269.99
487.90	270.79
488.26	271.69
488.62	272.70
488.99	273.66
489.35	274.69
489.72	275.81
490.08	276.98
490.44	278.25
490.81	279.57
491.17	280.93
491.54	282.42
491.90	283.96
492.26	285.58
492.63	287.33
492.99	289.11
493.36	291.06
493.72	293.16
494.08	295.30
494.45	297.46
494.81	299.87
495.17	302.31
495.54	304.93
495.90	307.60
496.26	310.43
496.63	313.46
496.99	316.58
497.35	319.84
497.72	323.26
498.08	326.80
498.44	330.47
498.80	334.40
499.17	338.44
499.53	342.62
499.89	347.00
500.26	351.54
500.62	356.22
500.98	361.18
501.34	366.25
501.71	371.53
502.07	377.06
502.43	382.67
502.79	388.52
503.16	394.57
503.52	400.90
503.88	407.29
504.24	413.88
504.60	420.72
504.97	427.87
505.33	435.19
505.69	442.87
506.05	450.66
506.41	458.53
506.78	466.68
507.14	475.15
507.50	483.85
507.86	492.80
508.22	501.97
508.59	511.08
508.95	520.60
509.31	530.42
509.67	540.50
510.03	550.77
510.39	561.28
510.75	572.03
511.12	582.80
511.48	594.10
511.84	605.48
512.20	616.96
512.56	628.84
512.92	640.97
513.28	653.26
513.64	665.73
514.00	678.41
514.37	691.34
514.73	704.27
515.09	717.16
515.45	730.41
515.81	743.87
516.17	757.83
516.53	771.91
516.89	785.98
517.25	800.04
517.61	814.36
517.97	828.68
518.33	842.99
518.69	857.72
519.05	872.47
519.41	887.52
519.77	903.02
520.13	918.35
520.49	933.73
520.85	949.02
521.21	964.60
521.57	980.64
521.93	996.29
522.29	1012.56
522.65	1028.86
523.01	1045.00
523.37	1060.98
523.73	1076.90
524.09	1092.93
524.45	1109.06
524.81	1125.54
525.17	1142.14
525.53	1158.84
525.89	1175.66
526.25	1192.38
526.61	1208.64
526.97	1225.34
527.33	1241.64
527.68	1258.04
528.04	1274.26
528.40	1290.58
528.76	1307.40
529.12	1323.79
529.48	1340.48
529.84	1356.28
530.20	1372.65
530.56	1389.25
530.91	1406.46
531.27	1423.13
531.63	1439.41
531.99	1455.90
532.35	1471.70
532.71	1487.47
533.07	1503.68
533.42	1519.44
533.78	1535.28
534.14	1551.45
534.50	1566.61
534.86	1582.10
535.21	1597.24
535.57	1612.95
535.93	1628.28
536.29	1642.92
536.65	1657.97
537.00	1672.37
537.36	1687.65
537.72	1701.87
538.08	1716.31
538.44	1729.89
538.79	1743.66
539.15	1756.90
539.51	1770.34
539.87	1784.48
540.22	1797.99
540.58	1811.32
540.94	1824.22
541.29	1836.72
541.65	1849.08
542.01	1861.97
542.37	1874.21
542.72	1886.37
543.08	1897.93
543.44	1910.05
543.79	1921.09
544.15	1931.90
544.51	1943.46
544.87	1954.16
545.22	1964.89
545.58	1974.93
545.94	1984.69
546.29	1994.48
546.65	2004.47
547.01	2013.80
547.36	2022.44
547.72	2030.93
548.07	2039.00
548.43	2047.11
548.79	2055.13
549.14	2062.75
549.50	2070.10
549.86	2077.76
550.21	2085.00
550.57	2092.34
550.92	2099.03
551.28	2106.18
551.64	2113.20
551.99	2119.63
552.35	2125.83
552.70	2131.97
553.06	2137.92
553.41	2144.19
553.77	2150.03
554.13	2155.90
554.48	2161.83
554.84	2167.39
555.19	2172.56
555.55	2177.65
555.90	2182.26
556.26	2187.40
556.61	2192.06
556.97	2196.40
557.32	2200.50
557.68	2204.70
558.03	2208.69
558.39	2212.27
558.74	2216.84
559.10	2220.60
559.45	2224.27
559.81	2228.41
560.16	2232.25
560.52	2235.61
560.87	2238.94
561.23	2241.56
561.58	2244.48
561.94	2247.13
562.29	2249.37
562.64	2252.21
563.00	2254.69
563.35	2258.15
563.71	2261.18
564.06	2264.38
564.42	2267.30
564.77	2269.97
565.12	2272.37
565.48	2274.65
565.83	2276.76
566.19	2278.16
566.54	2279.03
566.89	2280.27
567.25	2281.06
567.60	2282.36
567.96	2284.10
568.31	2284.99
568.66	2286.35
569.02	2287.18
569.37	2287.60
569.72	2288.74
570.08	2288.82
570.43	2289.03
570.78	2288.64
571.14	2287.11
571.49	2285.83
571.84	2285.47
572.20	2284.47
572.55	2283.32
572.90	2281.49
573.26	2280.23
573.61	2278.47
573.96	2277.03
574.31	2274.14
574.67	2271.29
575.02	2267.83
575.37	2264.45
575.72	2260.83
576.08	2257.40
576.43	2253.95
576.78	2250.32
577.13	2247.02
577.49	2243.93
577.84	2240.48
578.19	2236.75
578.54	2233.35
578.90	2229.32
579.25	2223.83
579.60	2219.11
579.95	2214.27
580.30	2209.47
580.66	2204.42
581.01	2199.60
581.36	2194.65
581.71	2190.70
582.06	2186.38
582.42	2182.00
582.77	2176.89
583.12	2172.43
583.47	2168.09
583.82	2163.40
584.17	2158.36
584.53	2152.89
584.88	2147.40
585.23	2141.80
585.58	2136.29
585.93	2130.84
586.28	2126.03
586.63	2121.28
586.98	2116.07
587.34	2111.53
587.69	2106.72
588.04	2101.44
588.39	2095.84
588.74	2089.42
589.09	2083.33
589.44	2076.56
589.79	2070.39
590.14	2064.72
590.49	2058.18
590.84	2051.54
591.19	2045.40
591.54	2038.92
591.89	2031.95
592.25	2025.35
592.60	2018.18
592.95	2010.87
593.30	2003.68
593.65	1996.11
594.00	1988.99
594.35	1981.77
594.70	1973.56
595.05	1966.58
595.40	1959.33
595.75	1951.93
596.10	1945.99
596.45	1939.27
596.80	1933.21
597.15	1926.96
597.50	1920.17
597.85	1913.80
598.19	1907.43
598.54	1900.61
598.89	1894.01
599.24	1888.00
599.59	1881.45
599.94	1875.29
600.29	1868.99
600.64	1862.33
600.99	1855.17
601.34	1848.52
601.69	1841.66
602.04	1835.09
602.39	1827.85
602.74	1821.17
603.08	1814.64
603.43	1807.86
603.78	1800.64
604.13	1793.48
604.48	1786.27
604.83	1779.30
605.18	1772.44
605.53	1764.57
605.87	1756.44
606.22	1749.10
606.57	1741.16
606.92	1733.57
607.27	1726.51
607.62	1719.67
607.96	1712.63
608.31	1706.27
608.66	1698.62
609.01	1691.20
609.36	1683.59
609.70	1675.54
610.05	1667.66
610.40	1659.86
610.75	1651.55
611.10	1643.95
611.44	1635.48
611.79	1627.38
612.14	1618.78
612.49	1609.62
612.83	1601.16
613.18	1593.17
613.53	1585.26
613.88	1576.82
614.22	1568.82
614.57	1560.12
614.92	1552.15
615.27	1544.68
615.61	1536.31
615.96	1528.34
616.31	1520.64
616.65	1513.42
617.00	1505.93
617.35	1498.15
617.70	1489.97
618.04	1481.63
618.39	1473.40
618.74	1466.01
619.08	1457.79
619.43	1450.33
619.78	1443.44
620.12	1436.39
620.47	1428.97
620.82	1420.87
621.16	1413.47
621.51	1405.83
621.85	1398.36
622.20	1389.91
622.55	1381.53
622.89	1373.59
623.24	1365.89
623.59	1358.46
623.93	1350.86
624.28	1343.61
624.62	1336.15
624.97	1328.99
625.32	1322.11
625.66	1314.99
626.01	1307.74
626.35	1300.40
626.70	1292.57
627.04	1284.92
627.39	1277.08
627.73	1269.64
628.08	1262.81
628.43	1255.57
628.77	1248.27
629.12	1240.67
629.46	1233.57
629.81	1226.04
630.15	1218.82
630.50	1211.57
630.84	1203.48
631.19	1195.41
631.53	1187.75
631.88	1180.11
632.22	1172.50
632.57	1165.15
632.91	1157.69
633.26	1150.36
633.60	1142.89
633.95	1135.68
634.29	1128.63
634.64	1121.94
634.98	1114.68
635.32	1107.49
635.67	1100.85
636.01	1094.20
636.36	1087.56
636.70	1080.90
637.05	1074.44
637.39	1067.93
637.73	1061.33
638.08	1055.43
638.42	1049.58
638.77	1043.32
639.11	1036.81
639.45	1030.44
639.80	1023.85
640.14	1017.47
640.49	1010.86
640.83	1004.59
641.17	998.60
641.52	992.32
641.86	985.87
642.20	979.92
642.55	973.59
642.89	967.13
643.23	960.50
643.58	954.77
643.92	948.71
644.26	942.76
644.61	936.73
644.95	930.78
645.29	924.29
645.64	917.67
645.98	911.31
646.32	905.45
646.66	899.47
647.01	893.66
647.35	888.05
647.69	882.20
648.04	876.64
648.38	870.79
648.72	864.80
649.06	858.82
649.41	852.98
649.75	847.08
650.09	841.18
650.43	835.49
650.78	829.28
651.12	823.28
651.46	817.47
651.80	811.91
652.14	806.62
652.49	801.25
652.83	796.04
653.17	790.42
653.51	784.83
653.85	779.32
654.20	773.76
654.54	767.72
654.88	762.01
655.22	756.17
655.56	750.47
655.90	744.96
656.25	739.67
656.59	734.32
656.93	729.17
657.27	724.03
657.61	718.58
657.95	713.46
658.29	708.40
658.64	703.17
658.98	697.74
659.32	692.21
659.66	687.00
660.00	681.76
660.34	676.82
660.68	671.88
661.02	666.89
661.36	662.25
661.70	657.83
662.05	653.59
662.39	649.31
662.73	644.90
663.07	640.65
663.41	636.29
663.75	631.85
664.09	627.35
664.43	623.00
664.77	618.99
665.11	614.78
665.45	610.58
665.79	606.51
666.13	602.39
666.47	598.25
666.81	594.14
667.15	589.97
667.49	586.04
667.83	582.13
668.17	578.17
668.51	574.05
668.85	569.97
669.19	566.04
669.53	562.22
669.87	558.31
670.21	554.55
670.55	550.91
670.89	547.43
671.23	544.02
671.57	540.50
671.91	536.95
672.25	533.47
672.58	529.99
672.92	526.55
673.26	523.40
673.60	520.23
673.94	517.08
674.28	514.12
674.62	511.16
674.96	508.10
675.30	505.27
675.64	502.39
675.97	499.61
676.31	496.74
676.65	493.79
676.99	491.12
677.33	488.21
677.67	485.37
678.01	482.35
678.34	479.31
678.68	476.37
679.02	473.53
679.36	470.71
679.70	467.95
680.04	465.19
680.37	462.33
680.71	459.52
681.05	456.88
681.39	454.16
681.73	451.48
682.06	448.96
682.40	446.38
682.74	443.77
683.08	441.15
683.42	438.52
683.75	436.05
684.09	433.46
684.43	431.04
684.77	428.53
685.10	426.17
685.44	423.82
685.78	421.55
686.12	419.22
686.45	416.91
686.79	414.66
687.13	412.46
687.46	410.29
687.80	408.19
688.14	405.95
688.48	403.96
688.81	401.75
689.15	399.59
689.49	397.43
689.82	395.37
690.16	393.34
690.50	391.39
690.83	389.41
691.17	387.37
691.51	385.42
691.84	383.64
692.18	381.74
692.52	379.84
692.85	377.90
693.19	376.07
693.52	374.22
693.86	372.40
694.20	370.63
694.53	368.85
694.87	366.93
695.21	365.15
695.54	363.28
695.88	361.55
696.21	359.82
696.55	358.15
696.88	356.48
697.22	354.80
697.56	353.15
697.89	351.51
698.23	349.95
698.56	348.35
698.90	346.74
699.23	345.13
699.57	343.59
699.90	342.04
700.24	340.46
700.58	338.96
700.91	337.45
701.25	335.95
701.58	334.58
701.92	333.26
702.25	331.90
702.59	330.59
702.92	329.29
703.26	328.01
703.59	326.73
703.93	325.54
704.26	324.28
704.60	323.04
704.93	321.80
705.26	320.60
705.60	319.42
705.93	318.26
706.27	317.20
706.60	316.14
706.94	315.07
707.27	313.99
707.61	312.95
707.94	311.95
708.27	310.87
708.61	309.75
708.94	308.75
709.28	307.76
709.61	306.83
709.94	305.87
710.28	304.82
710.61	303.80
710.95	302.69
711.28	301.80
711.61	300.83
711.95	299.89
712.28	298.93
712.61	298.01
712.95	297.07
713.28	296.20
713.61	295.31
713.95	294.40
714.28	293.55
714.61	292.67
714.95	291.80
715.28	291.00
715.61	290.14
715.95	289.29
716.28	288.46
716.61	287.56
716.95	286.72
717.28	285.98
717.61	285.24
717.94	284.55
718.28	283.72
718.61	282.96
718.94	282.26
719.27	281.63
719.61	280.94
719.94	280.27
720.27	279.52
720.60	278.87
720.94	278.26
721.27	277.66
721.60	277.09
721.93	276.49
722.27	275.91
722.60	275.37
722.93	274.79
723.26	274.22
723.59	273.63
723.93	273.12
724.26	272.57
724.59	271.98
724.92	271.40
725.25	270.91
725.59	270.41
725.92	269.91
726.25	269.34
726.58	268.83
726.91	268.36
727.24	267.90
727.57	267.39
727.91	266.86
728.24	266.39
728.57	265.89
728.90	265.40
729.23	264.88
729.56	264.46
729.89	264.00
730.22	263.50
730.55	263.06
730.89	262.58
731.22	262.13
731.55	261.71
731.88	261.30
732.21	260.87
732.54	260.46
732.87	260.01
733.20	259.62
733.53	259.26
733.86	258.88
734.19	258.48
734.52	258.15
734.85	257.85
735.18	257.45
735.51	257.06
735.84	256.71
736.17	256.38
736.50	255.97
736.83	255.76
737.16	255.45
737.49	255.13
737.82	254.77
738.15	254.46
738.48	254.15
738.81	253.87
739.14	253.52
739.47	253.18
739.80	252.90
740.13	252.61
740.46	252.29
740.79	251.95
741.12	251.63
741.45	251.28
741.78	250.92
742.11	250.64
742.44	250.36
742.77	250.09
743.10	249.76
743.43	249.46
743.75	249.04
744.08	248.90
744.41	248.63
744.74	248.38
745.07	248.10
745.40	247.85
745.73	247.62
746.06	247.37
746.39	247.10
746.71	246.83
747.04	246.57
747.37	246.27
747.70	246.05
748.03	245.82
748.36	245.62
748.68	245.39
749.01	245.14
749.34	244.90
749.67	244.66
750.00	244.50
750.33	244.34
750.65	244.14
750.98	243.79
751.31	243.58
751.64	243.38
751.97	243.22
752.29	243.01
752.62	242.72
752.95	242.51
753.28	242.31
753.60	242.15
753.93	241.95
754.26	241.80
754.59	241.55
754.91	241.36
755.24	241.13
755.57	240.96
755.90	240.77
756.22	240.62
756.55	240.41
756.88	240.18
757.20	239.96
757.53	239.79
757.86	239.59
758.19	239.44
758.51	239.24
758.84	239.02
759.17	238.84
759.49	238.71
759.82	238.59
760.15	238.45
760.47	238.24
760.80	238.08
761.13	237.94
761.45	237.79
761.78	237.62
762.11	237.51
762.43	237.34
762.76	237.19
763.08	237.02
763.41	236.89
763.74	236.78
764.06	236.61
764.39	236.46
764.71	236.32
765.04	236.15
765.37	236.03
765.69	235.91
766.02	235.82
766.34	235.66
766.67	235.48
767.00	235.35
767.32	235.31
767.65	235.23
767.97	235.08
768.30	234.98
768.62	234.86
768.95	234.72
769.27	234.60
769.60	234.48
769.92	234.30
770.25	234.21
770.57	234.07
770.90	233.96
771.22	233.84
771.55	233.73
771.87	233.61
772.20	233.48
772.52	233.42
772.85	233.44
773.17	233.35
773.50	233.26
773.82	233.17
774.15	233.04
774.47	232.88
774.80	232.78
775.12	232.69
775.45	232.59
775.77	232.50
776.09	232.40
776.42	232.32
776.74	232.31
777.07	232.21
777.39	232.16
777.72	232.09
778.04	232.04
778.36	231.99
778.69	231.97
779.01	231.94
779.33	231.79
779.66	231.55
779.98	231.51
780.31	231.44
780.63	231.44
780.95	231.37
781.28	231.33
781.60	231.26
781.92	231.22
782.25	231.17
782.57	231.12
782.89	231.06
783.22	231.01
783.54	230.92
783.86	230.89
784.19	230.80
784.51	230.77
784.83	230.70
785.16	230.66
785.48	230.58
785.80	230.53
786.12	230.49
786.45	230.50
786.77	230.43
787.09	230.41
