SpectraSuite Data File
++++++++++++++++++++++++++++++++++++
Date: Fri Feb 01 16:17:08 EST 2013
User: group
Dark Spectrum Present: No
Reference Spectrum Present: No
Number of Sampled Component Spectra: 1
Spectrometers: USB2E7196
Integration Time (usec): 35000 (USB2E7196)
Spectra Averaged: 100 (USB2E7196)
Boxcar Smoothing: 10 (USB2E7196)
Correct for Electrical Dark: No (USB2E7196)
Strobe/Lamp Enabled: No (USB2E7196)
Correct for Detector Non-linearity: No (USB2E7196)
Correct for Stray Light: No (USB2E7196)
Number of Pixels in Processed Spectrum: 2048
>>>>>Begin Processed Spectral Data<<<<<
339.09	0.00
339.48	213.85
339.86	215.28
340.24	217.04
340.63	218.64
341.01	221.15
341.39	220.76
341.78	222.33
342.16	223.39
342.54	224.55
342.93	212.42
343.31	223.15
343.69	223.71
344.07	224.20
344.46	224.60
344.84	224.97
345.22	225.20
345.60	225.44
345.99	225.64
346.37	225.79
346.75	225.88
347.13	225.96
347.52	226.05
347.90	226.13
348.28	226.17
348.66	226.23
349.05	226.21
349.43	226.23
349.81	226.25
350.19	226.30
350.57	226.36
350.96	226.48
351.34	226.55
351.72	226.62
352.10	226.70
352.48	226.82
352.87	226.87
353.25	226.93
353.63	226.98
354.01	227.03
354.39	227.10
354.77	227.15
355.15	227.25
355.54	227.32
355.92	227.34
356.30	227.43
356.68	227.57
357.06	227.66
357.44	227.74
357.82	227.83
358.20	227.89
358.58	227.95
358.97	227.98
359.35	228.09
359.73	228.16
360.11	228.25
360.49	228.28
360.87	228.34
361.25	228.41
361.63	228.52
362.01	228.55
362.39	228.56
362.77	228.62
363.15	228.63
363.53	228.66
363.91	228.69
364.29	228.68
364.67	228.58
365.05	228.58
365.43	228.57
365.81	228.58
366.19	228.63
366.57	228.68
366.95	228.68
367.33	228.62
367.71	228.61
368.09	228.56
368.47	228.53
368.85	228.47
369.23	228.47
369.61	228.40
369.99	228.41
370.37	228.41
370.75	228.42
371.13	228.34
371.51	228.26
371.89	228.21
372.27	228.18
372.65	228.13
373.03	228.12
373.41	228.07
373.78	227.99
374.16	227.89
374.54	227.77
374.92	227.70
375.30	227.66
375.68	227.57
376.06	227.53
376.44	227.47
376.82	227.44
377.19	227.37
377.57	227.29
377.95	227.19
378.33	227.12
378.71	226.98
379.09	226.94
379.47	226.90
379.84	226.80
380.22	226.73
380.60	226.65
380.98	226.57
381.36	226.50
381.73	226.44
382.11	226.38
382.49	226.34
382.87	226.26
383.25	226.20
383.62	226.28
384.00	226.19
384.38	226.15
384.76	226.09
385.13	226.06
385.51	226.03
385.89	225.98
386.27	225.95
386.64	225.96
387.02	225.92
387.40	225.88
387.78	225.90
388.15	225.87
388.53	225.83
388.91	225.79
389.29	225.77
389.66	225.73
390.04	225.72
390.42	225.71
390.79	225.72
391.17	225.72
391.55	225.59
391.92	225.59
392.30	225.59
392.68	225.56
393.05	225.54
393.43	225.57
393.81	225.63
394.18	225.59
394.56	225.59
394.94	225.66
395.31	225.64
395.69	225.71
396.06	225.74
396.44	225.78
396.82	225.82
397.19	225.87
397.57	225.91
397.95	225.97
398.32	226.02
398.70	226.08
399.07	226.13
399.45	226.17
399.82	226.25
400.20	226.29
400.58	226.40
400.95	226.45
401.33	226.51
401.70	226.61
402.08	226.72
402.45	226.80
402.83	226.89
403.20	227.04
403.58	227.11
403.95	227.25
404.33	227.38
404.71	227.47
405.08	227.63
405.46	227.75
405.83	227.89
406.21	228.03
406.58	228.20
406.96	228.36
407.33	228.53
407.70	228.71
408.08	229.00
408.45	229.21
408.83	229.43
409.20	229.63
409.58	229.79
409.95	230.01
410.33	230.28
410.70	230.51
411.08	230.79
411.45	231.11
411.82	231.42
412.20	231.77
412.57	232.18
412.95	232.48
413.32	232.91
413.69	233.30
414.07	233.73
414.44	234.15
414.82	234.63
415.19	235.21
415.56	235.75
415.94	236.23
416.31	236.86
416.68	237.52
417.06	238.26
417.43	238.95
417.81	239.73
418.18	240.53
418.55	241.34
418.93	242.19
419.30	243.03
419.67	243.95
420.04	244.92
420.42	245.93
420.79	247.10
421.16	248.25
421.54	249.45
421.91	250.64
422.28	251.92
422.66	253.25
423.03	254.56
423.40	255.85
423.77	257.28
424.15	258.71
424.52	260.15
424.89	261.75
425.26	263.30
425.64	264.75
426.01	266.32
426.38	267.95
426.75	269.62
427.13	271.35
427.50	273.15
427.87	275.01
428.24	276.86
428.61	278.61
428.99	280.52
429.36	282.60
429.73	284.68
430.10	286.67
430.47	288.75
430.85	290.86
431.22	293.15
431.59	295.53
431.96	297.76
432.33	300.26
432.70	302.62
433.08	305.43
433.45	308.07
433.82	310.66
434.19	313.60
434.56	316.39
434.93	319.01
435.30	321.67
435.68	324.57
436.05	327.45
436.42	330.25
436.79	332.81
437.16	335.49
437.53	338.27
437.90	341.10
438.27	343.78
438.64	346.55
439.01	349.09
439.38	351.30
439.75	353.47
440.13	355.91
440.50	358.26
440.87	360.09
441.24	362.03
441.61	364.20
441.98	365.67
442.35	367.48
442.72	369.38
443.09	371.10
443.46	372.08
443.83	372.64
444.20	373.16
444.57	373.99
444.94	374.29
445.31	374.62
445.68	374.96
446.05	375.09
446.42	374.75
446.79	374.37
447.16	373.91
447.53	373.59
447.90	372.48
448.27	371.30
448.64	369.74
449.01	368.64
449.37	366.70
449.74	364.76
450.11	362.50
450.48	360.00
450.85	357.47
451.22	355.32
451.59	353.34
451.96	351.33
452.33	348.72
452.70	346.42
453.07	343.64
453.43	340.76
453.80	337.97
454.17	335.30
454.54	332.78
454.91	330.08
455.28	327.44
455.65	324.93
456.02	322.46
456.38	320.32
456.75	317.62
457.12	315.36
457.49	313.15
457.86	311.01
458.23	309.16
458.59	307.11
458.96	305.02
459.33	303.13
459.70	301.33
460.07	299.83
460.43	298.09
460.80	296.49
461.17	295.05
461.54	293.56
461.91	292.13
462.27	290.69
462.64	289.46
463.01	288.08
463.38	286.78
463.74	285.48
464.11	284.30
464.48	283.30
464.85	282.20
465.21	281.36
465.58	280.44
465.95	279.39
466.32	278.55
466.68	277.65
467.05	276.73
467.42	275.83
467.78	274.91
468.15	274.03
468.52	273.37
468.88	272.52
469.25	271.75
469.62	271.13
469.98	270.43
470.35	269.78
470.72	269.19
471.08	268.54
471.45	267.97
471.82	267.45
472.18	266.84
472.55	266.41
472.92	265.89
473.28	265.44
473.65	264.98
474.02	264.52
474.38	264.18
474.75	263.90
475.11	263.54
475.48	263.29
475.85	263.08
476.21	262.82
476.58	262.66
476.94	262.50
477.31	262.35
477.67	262.21
478.04	262.09
478.41	262.08
478.77	262.13
479.14	262.06
479.50	262.05
479.87	262.13
480.23	262.20
480.60	262.26
480.96	262.31
481.33	262.54
481.69	262.75
482.06	262.92
482.42	263.13
482.79	263.42
483.15	263.73
483.52	264.09
483.88	264.48
484.25	264.87
484.61	265.34
484.98	265.79
485.34	266.35
485.71	266.98
486.07	267.57
486.44	268.17
486.80	268.90
487.17	269.66
487.53	270.50
487.90	271.37
488.26	272.34
488.62	273.41
488.99	274.42
489.35	275.48
489.72	276.64
490.08	277.84
490.44	279.08
490.81	280.43
491.17	281.78
491.54	283.28
491.90	284.82
492.26	286.46
492.63	288.19
492.99	290.00
493.36	291.90
493.72	293.99
494.08	296.10
494.45	298.36
494.81	300.73
495.17	303.11
495.54	305.68
495.90	308.42
496.26	311.22
496.63	314.19
496.99	317.30
497.35	320.56
497.72	323.98
498.08	327.48
498.44	331.21
498.80	335.22
499.17	339.26
499.53	343.46
499.89	347.90
500.26	352.46
500.62	357.18
500.98	362.15
501.34	367.26
501.71	372.57
502.07	377.99
502.43	383.61
502.79	389.51
503.16	395.61
503.52	401.86
503.88	408.23
504.24	414.84
504.60	421.72
504.97	428.91
505.33	436.28
505.69	444.06
506.05	451.80
506.41	459.64
506.78	467.76
507.14	476.17
507.50	484.86
507.86	493.87
508.22	503.07
508.59	512.30
508.95	521.78
509.31	531.64
509.67	541.80
510.03	552.09
510.39	562.60
510.75	573.38
511.12	584.26
511.48	595.60
511.84	607.05
512.20	618.55
512.56	630.42
512.92	642.53
513.28	654.86
513.64	667.30
514.00	680.01
514.37	693.01
514.73	706.08
515.09	719.05
515.45	732.31
515.81	745.91
516.17	759.94
516.53	774.11
516.89	788.18
517.25	802.24
517.61	816.60
517.97	831.00
518.33	845.37
518.69	860.09
519.05	874.96
519.41	890.14
519.77	905.69
520.13	921.15
520.49	936.57
520.85	951.94
521.21	967.57
521.57	983.80
521.93	999.46
522.29	1015.87
522.65	1032.05
523.01	1048.20
523.37	1064.15
523.73	1080.21
524.09	1096.23
524.45	1112.52
524.81	1129.19
525.17	1145.96
525.53	1162.88
525.89	1179.71
526.25	1196.58
526.61	1212.97
526.97	1229.61
527.33	1246.02
527.68	1262.37
528.04	1278.75
528.40	1295.14
528.76	1312.19
529.12	1328.61
529.48	1345.36
529.84	1361.21
530.20	1377.88
530.56	1394.75
530.91	1412.03
531.27	1428.74
531.63	1445.26
531.99	1461.74
532.35	1477.63
532.71	1493.45
533.07	1509.60
533.42	1525.45
533.78	1541.47
534.14	1557.72
534.50	1573.04
534.86	1588.84
535.21	1604.15
535.57	1619.99
535.93	1635.50
536.29	1650.13
536.65	1665.19
537.00	1679.87
537.36	1695.18
537.72	1709.49
538.08	1723.84
538.44	1737.64
538.79	1751.33
539.15	1764.71
539.51	1778.39
539.87	1792.72
540.22	1806.45
540.58	1820.09
540.94	1833.28
541.29	1846.07
541.65	1858.73
542.01	1871.85
542.37	1884.24
542.72	1896.52
543.08	1908.24
543.44	1920.55
543.79	1931.90
544.15	1942.79
544.51	1954.41
544.87	1965.36
545.22	1976.20
545.58	1986.50
545.94	1996.22
546.29	2006.14
546.65	2016.10
547.01	2025.35
547.36	2033.96
547.72	2042.45
548.07	2050.40
548.43	2058.61
548.79	2066.48
549.14	2073.88
549.50	2081.20
549.86	2088.80
550.21	2096.03
550.57	2103.32
550.92	2109.92
551.28	2116.86
551.64	2123.83
551.99	2130.29
552.35	2136.37
552.70	2142.48
553.06	2148.40
553.41	2154.66
553.77	2160.70
554.13	2166.66
554.48	2172.73
554.84	2178.26
555.19	2183.47
555.55	2188.68
555.90	2193.07
556.26	2198.06
556.61	2202.84
556.97	2207.08
557.32	2211.24
557.68	2215.58
558.03	2219.69
558.39	2223.42
558.74	2228.09
559.10	2232.13
559.45	2235.89
559.81	2240.08
560.16	2243.97
560.52	2247.27
560.87	2250.84
561.23	2253.52
561.58	2256.54
561.94	2259.06
562.29	2261.26
562.64	2263.94
563.00	2266.46
563.35	2270.10
563.71	2273.10
564.06	2276.27
564.42	2279.00
564.77	2281.39
565.12	2283.65
565.48	2285.62
565.83	2287.33
566.19	2288.69
566.54	2289.46
566.89	2290.57
567.25	2291.32
567.60	2292.64
567.96	2294.32
568.31	2295.01
568.66	2296.03
569.02	2296.51
569.37	2297.02
569.72	2297.98
570.08	2298.10
570.43	2298.09
570.78	2297.48
571.14	2295.99
571.49	2294.66
571.84	2294.48
572.20	2293.36
572.55	2292.34
572.90	2290.66
573.26	2289.42
573.61	2287.78
573.96	2286.17
574.31	2283.10
574.67	2280.09
575.02	2276.54
575.37	2273.16
575.72	2269.48
576.08	2266.24
576.43	2263.06
576.78	2259.25
577.13	2256.19
577.49	2253.08
577.84	2249.75
578.19	2246.11
578.54	2242.63
578.90	2238.56
579.25	2233.02
579.60	2228.09
579.95	2222.97
580.30	2218.12
580.66	2213.00
581.01	2207.95
581.36	2203.11
581.71	2199.14
582.06	2194.77
582.42	2190.34
582.77	2185.28
583.12	2180.85
583.47	2176.14
583.82	2171.22
584.17	2166.16
584.53	2160.55
584.88	2154.96
585.23	2149.04
585.58	2143.60
585.93	2138.21
586.28	2133.50
586.63	2128.48
586.98	2123.49
587.34	2118.96
587.69	2114.23
588.04	2108.97
588.39	2103.36
588.74	2096.77
589.09	2090.57
589.44	2083.84
589.79	2077.75
590.14	2072.13
590.49	2065.50
590.84	2059.12
591.19	2053.06
591.54	2046.54
591.89	2039.39
592.25	2032.72
592.60	2025.72
592.95	2018.16
593.30	2010.76
593.65	2003.14
594.00	1996.22
594.35	1989.03
594.70	1980.95
595.05	1973.73
595.40	1966.52
595.75	1959.10
596.10	1953.08
596.45	1946.51
596.80	1940.35
597.15	1933.80
597.50	1926.70
597.85	1920.23
598.19	1913.58
598.54	1906.53
598.89	1899.88
599.24	1893.88
599.59	1887.13
599.94	1881.00
600.29	1874.74
600.64	1868.21
600.99	1860.78
601.34	1853.97
601.69	1847.06
602.04	1840.22
602.39	1832.89
602.74	1826.06
603.08	1819.34
603.43	1812.58
603.78	1805.23
604.13	1798.05
604.48	1790.81
604.83	1783.83
605.18	1776.87
605.53	1769.03
605.87	1761.01
606.22	1753.82
606.57	1745.95
606.92	1738.73
607.27	1731.37
607.62	1724.42
607.96	1717.14
608.31	1710.60
608.66	1702.99
609.01	1695.47
609.36	1687.93
609.70	1679.88
610.05	1671.93
610.40	1664.34
610.75	1656.05
611.10	1648.39
611.44	1639.90
611.79	1631.94
612.14	1623.21
612.49	1614.16
612.83	1605.88
613.18	1597.84
613.53	1589.72
613.88	1581.19
614.22	1572.91
614.57	1564.43
614.92	1556.34
615.27	1548.82
615.61	1540.35
615.96	1532.30
616.31	1524.71
616.65	1517.27
617.00	1509.72
617.35	1502.04
617.70	1493.63
618.04	1485.12
618.39	1477.02
618.74	1469.48
619.08	1461.12
619.43	1453.55
619.78	1446.57
620.12	1439.24
620.47	1431.62
620.82	1423.50
621.16	1416.09
621.51	1408.40
621.85	1400.78
622.20	1392.29
622.55	1383.85
622.89	1376.10
623.24	1368.45
623.59	1361.02
623.93	1353.56
624.28	1346.30
624.62	1338.77
624.97	1331.57
625.32	1324.78
625.66	1317.59
626.01	1310.35
626.35	1303.02
626.70	1295.38
627.04	1287.69
627.39	1279.93
627.73	1272.53
628.08	1265.62
628.43	1258.47
628.77	1251.14
629.12	1243.52
629.46	1236.46
629.81	1229.06
630.15	1221.80
630.50	1214.40
630.84	1206.04
631.19	1198.05
631.53	1190.54
631.88	1182.93
632.22	1175.27
632.57	1167.90
632.91	1160.29
633.26	1152.88
633.60	1145.42
633.95	1138.37
634.29	1131.38
634.64	1124.64
634.98	1117.36
635.32	1110.16
635.67	1103.37
636.01	1096.73
636.36	1089.95
636.70	1083.25
637.05	1076.71
637.39	1070.24
637.73	1063.78
638.08	1057.98
638.42	1052.05
638.77	1045.61
639.11	1039.07
639.45	1032.64
639.80	1025.95
640.14	1019.66
640.49	1013.18
640.83	1006.88
641.17	1000.55
641.52	994.05
641.86	987.49
642.20	981.55
642.55	975.24
642.89	968.83
643.23	962.29
643.58	956.52
643.92	950.39
644.26	944.35
644.61	938.35
644.95	932.27
645.29	925.75
645.64	919.05
645.98	912.71
646.32	906.90
646.66	900.93
647.01	895.24
647.35	889.43
647.69	883.54
648.04	877.99
648.38	872.19
648.72	866.22
649.06	860.27
649.41	854.45
649.75	848.51
650.09	842.57
650.43	836.69
650.78	830.49
651.12	824.59
651.46	818.82
651.80	813.05
652.14	807.65
652.49	802.27
652.83	797.04
653.17	791.39
653.51	785.62
653.85	780.15
654.20	774.50
654.54	768.48
654.88	762.76
655.22	756.79
655.56	751.11
655.90	745.69
656.25	740.56
656.59	735.12
656.93	730.00
657.27	724.80
657.61	719.45
657.95	714.39
658.29	709.26
658.64	703.96
658.98	698.64
659.32	693.21
659.66	687.99
660.00	682.61
660.34	677.61
660.68	672.67
661.02	667.69
661.36	663.01
661.70	658.50
662.05	654.17
662.39	649.90
662.73	645.43
663.07	640.95
663.41	636.42
663.75	631.94
664.09	627.40
664.43	623.01
664.77	618.89
665.11	614.57
665.45	610.41
665.79	606.38
666.13	602.26
666.47	598.11
666.81	593.92
667.15	589.89
667.49	586.04
667.83	582.20
668.17	578.22
668.51	574.08
668.85	570.12
669.19	566.23
669.53	562.41
669.87	558.54
670.21	554.96
670.55	551.32
670.89	547.92
671.23	544.51
671.57	540.97
671.91	537.37
672.25	533.84
672.58	530.35
672.92	526.90
673.26	523.67
673.60	520.60
673.94	517.43
674.28	514.45
674.62	511.50
674.96	508.41
675.30	505.60
675.64	502.69
675.97	499.92
676.31	497.06
676.65	494.12
676.99	491.40
677.33	488.53
677.67	485.74
678.01	482.66
678.34	479.68
678.68	476.84
679.02	474.04
679.36	471.34
679.70	468.66
680.04	465.98
680.37	463.10
680.71	460.28
681.05	457.72
681.39	455.00
681.73	452.25
682.06	449.73
682.40	447.11
682.74	444.53
683.08	441.93
683.42	439.34
683.75	436.87
684.09	434.35
684.43	431.86
684.77	429.34
685.10	426.99
685.44	424.66
685.78	422.40
686.12	420.15
686.45	417.84
686.79	415.47
687.13	413.21
687.46	411.09
687.80	408.95
688.14	406.71
688.48	404.66
688.81	402.43
689.15	400.27
689.49	398.12
689.82	396.07
690.16	394.00
690.50	392.02
690.83	390.05
691.17	388.07
691.51	386.13
691.84	384.31
692.18	382.46
692.52	380.47
692.85	378.53
693.19	376.65
693.52	374.84
693.86	373.09
694.20	371.28
694.53	369.46
694.87	367.56
695.21	365.77
695.54	363.94
695.88	362.27
696.21	360.56
696.55	358.90
696.88	357.21
697.22	355.56
697.56	353.91
697.89	352.24
698.23	350.64
698.56	349.01
698.90	347.43
699.23	345.74
699.57	344.18
699.90	342.61
700.24	341.10
700.58	339.56
700.91	338.02
701.25	336.58
701.58	335.24
701.92	333.88
702.25	332.52
702.59	331.15
702.92	329.82
703.26	328.52
703.59	327.20
703.93	326.00
704.26	324.77
704.60	323.51
704.93	322.22
705.26	320.98
705.60	319.81
705.93	318.62
706.27	317.60
706.60	316.52
706.94	315.43
707.27	314.27
707.61	313.24
707.94	312.24
708.27	311.19
708.61	310.07
708.94	309.08
709.28	308.08
709.61	307.13
709.94	306.18
710.28	305.14
710.61	304.17
710.95	303.10
711.28	302.18
711.61	301.24
711.95	300.34
712.28	299.39
712.61	298.44
712.95	297.51
713.28	296.60
713.61	295.71
713.95	294.83
714.28	294.01
714.61	293.11
714.95	292.25
715.28	291.39
715.61	290.53
715.95	289.63
716.28	288.78
716.61	287.92
716.95	287.08
717.28	286.36
717.61	285.58
717.94	284.88
718.28	284.06
718.61	283.33
718.94	282.62
719.27	281.94
719.61	281.29
719.94	280.62
720.27	279.88
720.60	279.26
720.94	278.65
721.27	278.04
721.60	277.48
721.93	276.91
722.27	276.35
722.60	275.80
722.93	275.25
723.26	274.71
723.59	274.16
723.93	273.60
724.26	273.00
724.59	272.42
724.92	271.86
725.25	271.39
725.59	270.87
725.92	270.38
726.25	269.87
726.58	269.37
726.91	268.92
727.24	268.46
727.57	267.97
727.91	267.45
728.24	266.97
728.57	266.45
728.90	265.97
729.23	265.44
729.56	265.02
729.89	264.55
730.22	264.05
730.55	263.58
730.89	263.15
731.22	262.72
731.55	262.33
731.88	261.94
732.21	261.48
732.54	261.04
732.87	260.63
733.20	260.24
733.53	259.84
733.86	259.43
734.19	259.01
734.52	258.67
734.85	258.39
735.18	257.98
735.51	257.63
735.84	257.27
736.17	256.95
736.50	256.56
736.83	256.30
737.16	255.99
737.49	255.69
737.82	255.32
738.15	254.98
738.48	254.63
738.81	254.26
739.14	253.93
739.47	253.58
739.80	253.23
740.13	252.94
740.46	252.60
740.79	252.21
741.12	251.97
741.45	251.60
741.78	251.23
742.11	250.94
742.44	250.65
742.77	250.34
743.10	250.04
743.43	249.71
743.75	249.40
744.08	249.26
744.41	248.98
744.74	248.73
745.07	248.48
745.40	248.24
745.73	248.01
746.06	247.77
746.39	247.53
746.71	247.31
747.04	247.00
747.37	246.75
747.70	246.55
748.03	246.26
748.36	246.02
748.68	245.81
749.01	245.58
749.34	245.32
749.67	245.07
750.00	244.86
750.33	244.70
750.65	244.45
750.98	244.09
751.31	243.83
751.64	243.60
751.97	243.43
752.29	243.20
752.62	242.97
752.95	242.75
753.28	242.54
753.60	242.33
753.93	242.16
754.26	241.97
754.59	241.74
754.91	241.55
755.24	241.35
755.57	241.12
755.90	240.95
756.22	240.77
756.55	240.57
756.88	240.37
757.20	240.14
757.53	239.97
757.86	239.82
758.19	239.70
758.51	239.55
758.84	239.35
759.17	239.16
759.49	238.99
759.82	238.90
760.15	238.79
760.47	238.67
760.80	238.50
761.13	238.37
761.45	238.22
761.78	238.08
762.11	237.94
762.43	237.82
762.76	237.63
763.08	237.54
763.41	237.43
763.74	237.29
764.06	237.13
764.39	236.98
764.71	236.82
765.04	236.68
765.37	236.53
765.69	236.38
766.02	236.30
766.34	236.17
766.67	235.99
767.00	235.86
767.32	235.78
767.65	235.70
767.97	235.58
768.30	235.47
768.62	235.36
768.95	235.23
769.27	235.10
769.60	235.01
769.92	234.82
770.25	234.69
770.57	234.59
770.90	234.50
771.22	234.41
771.55	234.31
771.87	234.21
772.20	234.11
772.52	234.11
772.85	234.11
773.17	234.01
773.50	233.89
773.82	233.78
774.15	233.60
774.47	233.52
774.80	233.41
775.12	233.30
775.45	233.21
775.77	233.15
776.09	233.09
776.42	233.01
776.74	233.01
777.07	232.94
777.39	232.86
777.72	232.78
778.04	232.69
778.36	232.63
778.69	232.57
779.01	232.51
779.33	232.34
779.66	232.17
779.98	232.10
780.31	232.05
780.63	232.02
780.95	231.97
781.28	231.88
781.60	231.82
781.92	231.78
782.25	231.72
782.57	231.66
782.89	231.59
783.22	231.49
783.54	231.41
783.86	231.33
784.19	231.23
784.51	231.23
784.83	231.18
785.16	231.08
785.48	231.01
785.80	230.97
786.12	230.96
786.45	230.89
786.77	230.88
787.09	230.80
