SpectraSuite Data File
++++++++++++++++++++++++++++++++++++
Date: Fri Feb 01 15:47:26 EST 2013
User: group
Dark Spectrum Present: No
Reference Spectrum Present: No
Number of Sampled Component Spectra: 1
Spectrometers: USB2E7196
Integration Time (usec): 35000 (USB2E7196)
Spectra Averaged: 100 (USB2E7196)
Boxcar Smoothing: 10 (USB2E7196)
Correct for Electrical Dark: No (USB2E7196)
Strobe/Lamp Enabled: No (USB2E7196)
Correct for Detector Non-linearity: No (USB2E7196)
Correct for Stray Light: No (USB2E7196)
Number of Pixels in Processed Spectrum: 2048
>>>>>Begin Processed Spectral Data<<<<<
339.09	0.00
339.48	215.02
339.86	216.05
340.24	218.12
340.63	219.54
341.01	221.88
341.39	222.03
341.78	223.15
342.16	224.39
342.54	224.95
342.93	213.46
343.31	224.26
343.69	224.83
344.07	225.31
344.46	225.75
344.84	226.12
345.22	226.37
345.60	226.62
345.99	226.80
346.37	226.93
346.75	227.04
347.13	227.11
347.52	227.15
347.90	227.19
348.28	227.22
348.66	227.26
349.05	227.26
349.43	227.28
349.81	227.32
350.19	227.37
350.57	227.39
350.96	227.46
351.34	227.54
351.72	227.60
352.10	227.68
352.48	227.71
352.87	227.75
353.25	227.83
353.63	227.90
354.01	228.01
354.39	228.10
354.77	228.16
355.15	228.27
355.54	228.30
355.92	228.36
356.30	228.44
356.68	228.54
357.06	228.63
357.44	228.68
357.82	228.75
358.20	228.80
358.58	228.87
358.97	228.90
359.35	228.97
359.73	229.03
360.11	229.07
360.49	229.14
360.87	229.21
361.25	229.25
361.63	229.31
362.01	229.31
362.39	229.33
362.77	229.36
363.15	229.38
363.53	229.42
363.91	229.42
364.29	229.42
364.67	229.33
365.05	229.34
365.43	229.34
365.81	229.33
366.19	229.40
366.57	229.43
366.95	229.42
367.33	229.39
367.71	229.37
368.09	229.38
368.47	229.34
368.85	229.29
369.23	229.28
369.61	229.21
369.99	229.21
370.37	229.17
370.75	229.20
371.13	229.10
371.51	229.07
371.89	229.03
372.27	228.98
372.65	228.98
373.03	228.92
373.41	228.90
373.78	228.84
374.16	228.71
374.54	228.61
374.92	228.58
375.30	228.50
375.68	228.39
376.06	228.35
376.44	228.28
376.82	228.21
377.19	228.11
377.57	228.03
377.95	227.96
378.33	227.88
378.71	227.73
379.09	227.69
379.47	227.63
379.84	227.55
380.22	227.49
380.60	227.37
380.98	227.27
381.36	227.19
381.73	227.08
382.11	227.04
382.49	227.00
382.87	226.90
383.25	226.89
383.62	226.97
384.00	226.87
384.38	226.81
384.76	226.82
385.13	226.80
385.51	226.79
385.89	226.68
386.27	226.64
386.64	226.62
387.02	226.60
387.40	226.53
387.78	226.52
388.15	226.50
388.53	226.47
388.91	226.46
389.29	226.42
389.66	226.44
390.04	226.43
390.42	226.42
390.79	226.44
391.17	226.39
391.55	226.27
391.92	226.28
392.30	226.31
392.68	226.29
393.05	226.28
393.43	226.31
393.81	226.36
394.18	226.39
394.56	226.43
394.94	226.45
395.31	226.49
395.69	226.55
396.06	226.59
396.44	226.62
396.82	226.63
397.19	226.72
397.57	226.74
397.95	226.81
398.32	226.84
398.70	226.89
399.07	226.99
399.45	227.04
399.82	227.11
400.20	227.16
400.58	227.23
400.95	227.28
401.33	227.35
401.70	227.48
402.08	227.55
402.45	227.62
402.83	227.74
403.20	227.85
403.58	227.89
403.95	228.04
404.33	228.19
404.71	228.37
405.08	228.54
405.46	228.69
405.83	228.81
406.21	228.95
406.58	229.11
406.96	229.29
407.33	229.45
407.70	229.62
408.08	229.90
408.45	230.09
408.83	230.29
409.20	230.50
409.58	230.64
409.95	230.92
410.33	231.22
410.70	231.46
411.08	231.77
411.45	232.08
411.82	232.35
412.20	232.71
412.57	233.09
412.95	233.36
413.32	233.78
413.69	234.19
414.07	234.61
414.44	235.07
414.82	235.51
415.19	236.10
415.56	236.70
415.94	237.24
416.31	237.91
416.68	238.59
417.06	239.30
417.43	240.02
417.81	240.77
418.18	241.50
418.55	242.33
418.93	243.21
419.30	244.14
419.67	245.08
420.04	246.01
420.42	247.00
420.79	248.20
421.16	249.36
421.54	250.58
421.91	251.78
422.28	253.03
422.66	254.35
423.03	255.63
423.40	256.93
423.77	258.34
424.15	259.73
424.52	261.19
424.89	262.77
425.26	264.34
425.64	265.78
426.01	267.40
426.38	269.08
426.75	270.73
427.13	272.42
427.50	274.21
427.87	276.11
428.24	277.97
428.61	279.74
428.99	281.65
429.36	283.70
429.73	285.75
430.10	287.79
430.47	289.81
430.85	291.94
431.22	294.18
431.59	296.56
431.96	298.82
432.33	301.29
432.70	303.64
433.08	306.46
433.45	309.11
433.82	311.73
434.19	314.56
434.56	317.36
434.93	320.01
435.30	322.67
435.68	325.55
436.05	328.36
436.42	331.17
436.79	333.69
437.16	336.39
437.53	339.26
437.90	342.06
438.27	344.83
438.64	347.62
439.01	350.19
439.38	352.43
439.75	354.56
440.13	357.06
440.50	359.46
440.87	361.28
441.24	363.24
441.61	365.39
441.98	366.91
442.35	368.72
442.72	370.63
443.09	372.42
443.46	373.44
443.83	374.06
444.20	374.51
444.57	375.36
444.94	375.66
445.31	376.01
445.68	376.39
446.05	376.52
446.42	376.19
446.79	375.75
447.16	375.28
447.53	374.99
447.90	373.85
448.27	372.64
448.64	371.01
449.01	369.85
449.37	367.85
449.74	365.97
450.11	363.69
450.48	361.17
450.85	358.64
451.22	356.49
451.59	354.48
451.96	352.57
452.33	349.96
452.70	347.60
453.07	344.74
453.43	341.81
453.80	338.97
454.17	336.32
454.54	333.81
454.91	331.08
455.28	328.38
455.65	325.89
456.02	323.44
456.38	321.36
456.75	318.72
457.12	316.50
457.49	314.29
457.86	312.15
458.23	310.30
458.59	308.26
458.96	306.16
459.33	304.29
459.70	302.39
460.07	300.87
460.43	299.22
460.80	297.64
461.17	296.22
461.54	294.80
461.91	293.35
462.27	291.93
462.64	290.66
463.01	289.35
463.38	288.11
463.74	286.79
464.11	285.59
464.48	284.58
464.85	283.49
465.21	282.61
465.58	281.65
465.95	280.57
466.32	279.65
466.68	278.78
467.05	277.86
467.42	276.99
467.78	276.09
468.15	275.17
468.52	274.46
468.88	273.57
469.25	272.78
469.62	272.15
469.98	271.46
470.35	270.84
470.72	270.25
471.08	269.55
471.45	269.01
471.82	268.52
472.18	267.89
472.55	267.47
472.92	266.96
473.28	266.53
473.65	266.10
474.02	265.66
474.38	265.29
474.75	264.98
475.11	264.67
475.48	264.39
475.85	264.14
476.21	263.94
476.58	263.78
476.94	263.60
477.31	263.42
477.67	263.29
478.04	263.22
478.41	263.16
478.77	263.19
479.14	263.09
479.50	263.07
479.87	263.14
480.23	263.22
480.60	263.31
480.96	263.39
481.33	263.57
481.69	263.79
482.06	264.01
482.42	264.20
482.79	264.47
483.15	264.76
483.52	265.17
483.88	265.54
484.25	265.92
484.61	266.35
484.98	266.80
485.34	267.37
485.71	267.89
486.07	268.48
486.44	269.03
486.80	269.73
487.17	270.49
487.53	271.30
487.90	272.14
488.26	273.07
488.62	274.06
488.99	275.05
489.35	276.07
489.72	277.16
490.08	278.34
490.44	279.56
490.81	280.94
491.17	282.25
491.54	283.71
491.90	285.23
492.26	286.90
492.63	288.65
492.99	290.39
493.36	292.36
493.72	294.44
494.08	296.59
494.45	298.85
494.81	301.19
495.17	303.62
495.54	306.17
495.90	308.80
496.26	311.60
496.63	314.59
496.99	317.67
497.35	320.96
497.72	324.36
498.08	327.84
498.44	331.43
498.80	335.35
499.17	339.38
499.53	343.59
499.89	347.98
500.26	352.47
500.62	357.16
500.98	362.05
501.34	367.08
501.71	372.32
502.07	377.78
502.43	383.42
502.79	389.25
503.16	395.33
503.52	401.58
503.88	408.01
504.24	414.60
504.60	421.52
504.97	428.62
505.33	435.89
505.69	443.67
506.05	451.47
506.41	459.36
506.78	467.55
507.14	476.01
507.50	484.70
507.86	493.71
508.22	502.91
508.59	512.16
508.95	521.77
509.31	531.63
509.67	541.73
510.03	552.02
510.39	562.55
510.75	573.31
511.12	584.31
511.48	595.56
511.84	607.00
512.20	618.49
512.56	630.45
512.92	642.69
513.28	655.01
513.64	667.48
514.00	680.20
514.37	693.11
514.73	706.16
515.09	719.24
515.45	732.56
515.81	746.17
516.17	760.09
516.53	774.21
516.89	788.38
517.25	802.50
517.61	816.99
517.97	831.45
518.33	845.89
518.69	860.65
519.05	875.71
519.41	890.95
519.77	906.49
520.13	921.89
520.49	937.27
520.85	952.67
521.21	968.47
521.57	984.77
521.93	1000.49
522.29	1016.89
522.65	1033.09
523.01	1049.23
523.37	1065.26
523.73	1081.51
524.09	1097.62
524.45	1113.94
524.81	1130.61
525.17	1147.41
525.53	1164.31
525.89	1181.23
526.25	1198.04
526.61	1214.37
526.97	1231.06
527.33	1247.55
527.68	1264.16
528.04	1280.69
528.40	1297.35
528.76	1314.37
529.12	1331.01
529.48	1347.98
529.84	1363.96
530.20	1380.65
530.56	1397.69
530.91	1415.02
531.27	1431.84
531.63	1448.30
531.99	1464.89
532.35	1480.83
532.71	1496.68
533.07	1512.92
533.42	1528.71
533.78	1544.83
534.14	1561.13
534.50	1576.40
534.86	1592.26
535.21	1607.42
535.57	1623.28
535.93	1638.74
536.29	1653.53
536.65	1668.47
537.00	1683.23
537.36	1698.54
537.72	1712.96
538.08	1727.42
538.44	1741.25
538.79	1755.03
539.15	1768.81
539.51	1782.54
539.87	1797.06
540.22	1810.80
540.58	1824.65
540.94	1838.14
541.29	1851.01
541.65	1863.75
542.01	1877.03
542.37	1889.28
542.72	1901.70
543.08	1913.50
543.44	1925.85
543.79	1937.02
544.15	1948.11
544.51	1959.70
544.87	1970.64
545.22	1981.51
545.58	1991.66
545.94	2001.59
546.29	2011.37
546.65	2021.04
547.01	2030.29
547.36	2038.77
547.72	2047.28
548.07	2055.04
548.43	2063.08
548.79	2071.18
549.14	2078.73
549.50	2086.00
549.86	2093.75
550.21	2101.16
550.57	2108.36
550.92	2114.83
551.28	2121.84
551.64	2128.87
551.99	2135.32
552.35	2141.46
552.70	2147.73
553.06	2153.63
553.41	2159.88
553.77	2166.05
554.13	2172.24
554.48	2178.36
554.84	2183.84
555.19	2189.05
555.55	2194.22
555.90	2198.65
556.26	2203.29
556.61	2207.94
556.97	2212.27
557.32	2216.45
557.68	2220.67
558.03	2224.90
558.39	2228.81
558.74	2233.58
559.10	2237.39
559.45	2241.03
559.81	2245.28
560.16	2248.98
560.52	2252.35
560.87	2255.68
561.23	2258.38
561.58	2261.41
561.94	2263.87
562.29	2266.44
562.64	2269.19
563.00	2271.77
563.35	2275.33
563.71	2278.60
564.06	2281.89
564.42	2284.74
564.77	2287.27
565.12	2289.36
565.48	2291.33
565.83	2293.06
566.19	2294.21
566.54	2295.09
566.89	2296.23
567.25	2296.81
567.60	2298.01
567.96	2299.60
568.31	2300.49
568.66	2301.61
569.02	2302.13
569.37	2302.48
569.72	2303.27
570.08	2303.18
570.43	2303.21
570.78	2302.61
571.14	2301.06
571.49	2299.81
571.84	2299.57
572.20	2298.38
572.55	2297.38
572.90	2295.78
573.26	2294.48
573.61	2292.75
573.96	2290.99
574.31	2288.00
574.67	2285.07
575.02	2281.65
575.37	2278.37
575.72	2274.49
576.08	2271.19
576.43	2267.79
576.78	2264.06
577.13	2260.76
577.49	2257.84
577.84	2254.40
578.19	2250.64
578.54	2247.00
578.90	2242.63
579.25	2237.08
579.60	2232.13
579.95	2227.01
580.30	2222.01
580.66	2216.83
581.01	2211.96
581.36	2207.01
581.71	2202.88
582.06	2198.40
582.42	2193.84
582.77	2188.58
583.12	2183.99
583.47	2179.11
583.82	2173.97
584.17	2168.78
584.53	2163.20
584.88	2157.48
585.23	2151.60
585.58	2146.16
585.93	2140.76
586.28	2136.10
586.63	2130.87
586.98	2125.73
587.34	2121.21
587.69	2116.46
588.04	2111.16
588.39	2105.45
588.74	2099.01
589.09	2092.75
589.44	2085.80
589.79	2079.79
590.14	2074.30
590.49	2067.79
590.84	2061.43
591.19	2055.55
591.54	2049.15
591.89	2041.85
592.25	2035.01
592.60	2027.83
592.95	2020.22
593.30	2012.71
593.65	2004.96
594.00	1997.99
594.35	1990.87
594.70	1982.77
595.05	1975.28
595.40	1967.95
595.75	1960.50
596.10	1954.25
596.45	1947.60
596.80	1941.50
597.15	1934.87
597.50	1927.56
597.85	1921.13
598.19	1914.35
598.54	1907.18
598.89	1900.46
599.24	1894.64
599.59	1887.99
599.94	1881.77
600.29	1875.48
600.64	1868.97
600.99	1861.46
601.34	1854.65
601.69	1847.50
602.04	1840.46
602.39	1833.23
602.74	1826.35
603.08	1819.58
603.43	1812.86
603.78	1805.44
604.13	1798.25
604.48	1790.91
604.83	1783.97
605.18	1776.88
605.53	1768.94
605.87	1760.84
606.22	1753.47
606.57	1745.48
606.92	1738.09
607.27	1730.93
607.62	1723.89
607.96	1716.58
608.31	1709.97
608.66	1702.30
609.01	1694.75
609.36	1687.25
609.70	1679.16
610.05	1671.16
610.40	1663.29
610.75	1654.87
611.10	1647.23
611.44	1638.89
611.79	1630.92
612.14	1622.22
612.49	1613.07
612.83	1604.64
613.18	1596.57
613.53	1588.55
613.88	1579.90
614.22	1571.62
614.57	1562.99
614.92	1554.91
615.27	1547.19
615.61	1538.87
615.96	1530.96
616.31	1523.32
616.65	1515.93
617.00	1508.43
617.35	1500.70
617.70	1492.49
618.04	1483.97
618.39	1475.80
618.74	1468.16
619.08	1459.78
619.43	1452.28
619.78	1445.52
620.12	1438.34
620.47	1430.80
620.82	1422.62
621.16	1415.31
621.51	1407.88
621.85	1400.36
622.20	1391.89
622.55	1383.64
622.89	1375.81
623.24	1368.03
623.59	1360.78
623.93	1353.36
624.28	1346.05
624.62	1338.53
624.97	1331.41
625.32	1324.73
625.66	1317.64
626.01	1310.48
626.35	1303.06
626.70	1295.30
627.04	1287.45
627.39	1279.63
627.73	1272.24
628.08	1265.40
628.43	1257.98
628.77	1250.53
629.12	1242.86
629.46	1235.72
629.81	1228.30
630.15	1220.98
630.50	1213.60
630.84	1205.28
631.19	1197.34
631.53	1189.89
631.88	1182.36
632.22	1174.68
632.57	1167.48
632.91	1159.99
633.26	1152.58
633.60	1145.24
633.95	1138.21
634.29	1131.25
634.64	1124.68
634.98	1117.37
635.32	1110.13
635.67	1103.67
636.01	1097.01
636.36	1090.26
636.70	1083.75
637.05	1077.23
637.39	1070.81
637.73	1064.29
638.08	1058.52
638.42	1052.49
638.77	1046.00
639.11	1039.44
639.45	1033.14
639.80	1026.40
640.14	1019.93
640.49	1013.39
640.83	1007.11
641.17	1000.73
641.52	994.31
641.86	987.91
642.20	982.00
642.55	975.76
642.89	969.21
643.23	962.62
643.58	956.78
643.92	950.64
644.26	944.47
644.61	938.46
644.95	932.45
645.29	925.68
645.64	919.01
645.98	912.66
646.32	906.81
646.66	900.68
647.01	894.85
647.35	889.09
647.69	883.25
648.04	877.74
648.38	871.97
648.72	865.93
649.06	859.84
649.41	853.97
649.75	847.98
650.09	842.10
650.43	836.42
650.78	830.27
651.12	824.22
651.46	818.56
651.80	812.79
652.14	807.40
652.49	802.08
652.83	796.83
653.17	791.05
653.51	785.33
653.85	780.05
654.20	774.44
654.54	768.49
654.88	762.76
655.22	756.89
655.56	751.23
655.90	745.87
656.25	740.67
656.59	735.30
656.93	730.22
657.27	725.02
657.61	719.56
657.95	714.49
658.29	709.47
658.64	704.31
658.98	699.09
659.32	693.57
659.66	688.45
660.00	683.03
660.34	678.19
660.68	673.33
661.02	668.23
661.36	663.53
661.70	659.07
662.05	654.69
662.39	650.30
662.73	645.87
663.07	641.43
663.41	636.89
663.75	632.38
664.09	627.83
664.43	623.47
664.77	619.34
665.11	615.09
665.45	610.95
665.79	606.80
666.13	602.71
666.47	598.71
666.81	594.46
667.15	590.42
667.49	586.54
667.83	582.72
668.17	578.76
668.51	574.66
668.85	570.58
669.19	566.80
669.53	562.96
669.87	559.02
670.21	555.35
670.55	551.71
670.89	548.24
671.23	544.82
671.57	541.29
671.91	537.71
672.25	534.19
672.58	530.70
672.92	527.28
673.26	524.06
673.60	520.87
673.94	517.82
674.28	514.92
674.62	511.96
674.96	508.78
675.30	505.91
675.64	502.97
675.97	500.25
676.31	497.29
676.65	494.39
676.99	491.78
677.33	488.88
677.67	486.06
678.01	483.07
678.34	480.09
678.68	477.20
679.02	474.40
679.36	471.68
679.70	468.92
680.04	466.15
680.37	463.25
680.71	460.42
681.05	457.73
681.39	455.03
681.73	452.37
682.06	449.85
682.40	447.24
682.74	444.73
683.08	442.17
683.42	439.63
683.75	437.12
684.09	434.47
684.43	432.04
684.77	429.59
685.10	427.27
685.44	424.93
685.78	422.66
686.12	420.41
686.45	418.09
686.79	415.77
687.13	413.57
687.46	411.39
687.80	409.27
688.14	407.10
688.48	405.02
688.81	402.78
689.15	400.62
689.49	398.46
689.82	396.37
690.16	394.30
690.50	392.29
690.83	390.34
691.17	388.36
691.51	386.45
691.84	384.62
692.18	382.68
692.52	380.72
692.85	378.83
693.19	376.94
693.52	375.14
693.86	373.38
694.20	371.62
694.53	369.81
694.87	367.98
695.21	366.20
695.54	364.42
695.88	362.67
696.21	360.94
696.55	359.32
696.88	357.60
697.22	355.93
697.56	354.35
697.89	352.69
698.23	351.07
698.56	349.42
698.90	347.81
699.23	346.12
699.57	344.60
699.90	343.01
700.24	341.49
700.58	339.91
700.91	338.40
701.25	336.94
701.58	335.61
701.92	334.24
702.25	332.87
702.59	331.49
702.92	330.17
703.26	328.88
703.59	327.61
703.93	326.46
704.26	325.23
704.60	323.91
704.93	322.61
705.26	321.42
705.60	320.30
705.93	319.17
706.27	318.18
706.60	317.09
706.94	316.05
707.27	314.94
707.61	313.93
707.94	312.89
708.27	311.82
708.61	310.72
708.94	309.70
709.28	308.74
709.61	307.80
709.94	306.89
710.28	305.90
710.61	304.90
710.95	303.85
711.28	302.96
711.61	302.07
711.95	301.16
712.28	300.21
712.61	299.20
712.95	298.25
713.28	297.39
713.61	296.48
713.95	295.59
714.28	294.72
714.61	293.86
714.95	293.05
715.28	292.18
715.61	291.33
715.95	290.48
716.28	289.60
716.61	288.78
716.95	287.95
717.28	287.23
717.61	286.46
717.94	285.72
718.28	284.90
718.61	284.18
718.94	283.47
719.27	282.81
719.61	282.20
719.94	281.59
720.27	280.83
720.60	280.16
720.94	279.51
721.27	278.91
721.60	278.31
721.93	277.70
722.27	277.16
722.60	276.59
722.93	276.02
723.26	275.48
723.59	274.91
723.93	274.35
724.26	273.77
724.59	273.24
724.92	272.73
725.25	272.23
725.59	271.68
725.92	271.18
726.25	270.69
726.58	270.19
726.91	269.63
727.24	269.19
727.57	268.72
727.91	268.22
728.24	267.77
728.57	267.26
728.90	266.80
729.23	266.29
729.56	265.85
729.89	265.38
730.22	264.89
730.55	264.38
730.89	263.93
731.22	263.46
731.55	262.96
731.88	262.49
732.21	262.02
732.54	261.58
732.87	261.17
733.20	260.76
733.53	260.34
733.86	259.93
734.19	259.49
734.52	259.10
734.85	258.78
735.18	258.31
735.51	257.96
735.84	257.59
736.17	257.23
736.50	256.81
736.83	256.57
737.16	256.22
737.49	255.91
737.82	255.52
738.15	255.19
738.48	254.85
738.81	254.51
739.14	254.21
739.47	253.92
739.80	253.60
740.13	253.29
740.46	252.96
740.79	252.64
741.12	252.33
741.45	251.99
741.78	251.62
742.11	251.39
742.44	251.05
742.77	250.76
743.10	250.48
743.43	250.20
743.75	249.85
744.08	249.70
744.41	249.44
744.74	249.17
745.07	248.86
745.40	248.67
745.73	248.46
746.06	248.18
746.39	247.90
746.71	247.65
747.04	247.37
747.37	247.11
747.70	246.90
748.03	246.66
748.36	246.47
748.68	246.25
749.01	246.00
749.34	245.80
749.67	245.58
750.00	245.36
750.33	245.17
750.65	244.96
750.98	244.61
751.31	244.41
751.64	244.27
751.97	244.12
752.29	243.91
752.62	243.68
752.95	243.51
753.28	243.33
753.60	243.12
753.93	242.97
754.26	242.82
754.59	242.58
754.91	242.42
755.24	242.22
755.57	242.03
755.90	241.86
756.22	241.67
756.55	241.45
756.88	241.28
757.20	241.13
757.53	240.94
757.86	240.81
758.19	240.65
758.51	240.45
758.84	240.26
759.17	240.10
759.49	239.94
759.82	239.80
760.15	239.61
760.47	239.48
760.80	239.32
761.13	239.15
761.45	239.02
761.78	238.91
762.11	238.79
762.43	238.63
762.76	238.49
763.08	238.38
763.41	238.29
763.74	238.14
764.06	237.94
764.39	237.78
764.71	237.63
765.04	237.48
765.37	237.35
765.69	237.25
766.02	237.11
766.34	236.98
766.67	236.82
767.00	236.74
767.32	236.66
767.65	236.61
767.97	236.49
768.30	236.39
768.62	236.24
768.95	236.10
769.27	236.00
769.60	235.89
769.92	235.73
770.25	235.59
770.57	235.44
770.90	235.35
771.22	235.26
771.55	235.14
771.87	235.08
772.20	234.97
772.52	234.91
772.85	234.93
773.17	234.79
773.50	234.67
773.82	234.55
774.15	234.40
774.47	234.23
774.80	234.12
775.12	234.02
775.45	233.95
775.77	233.87
776.09	233.79
776.42	233.69
776.74	233.64
777.07	233.53
777.39	233.48
777.72	233.38
778.04	233.31
778.36	233.22
778.69	233.13
779.01	233.04
779.33	232.89
779.66	232.69
779.98	232.66
780.31	232.57
780.63	232.55
780.95	232.49
781.28	232.38
781.60	232.31
781.92	232.24
782.25	232.14
782.57	232.08
782.89	232.00
783.22	231.95
783.54	231.89
783.86	231.87
784.19	231.78
784.51	231.77
784.83	231.70
785.16	231.65
785.48	231.59
785.80	231.55
786.12	231.53
786.45	231.51
786.77	231.44
787.09	231.40
