SpectraSuite Data File
++++++++++++++++++++++++++++++++++++
Date: Fri Feb 01 15:31:34 EST 2013
User: group
Dark Spectrum Present: No
Reference Spectrum Present: No
Number of Sampled Component Spectra: 1
Spectrometers: USB2E7196
Integration Time (usec): 35000 (USB2E7196)
Spectra Averaged: 100 (USB2E7196)
Boxcar Smoothing: 10 (USB2E7196)
Correct for Electrical Dark: No (USB2E7196)
Strobe/Lamp Enabled: No (USB2E7196)
Correct for Detector Non-linearity: No (USB2E7196)
Correct for Stray Light: No (USB2E7196)
Number of Pixels in Processed Spectrum: 2048
>>>>>Begin Processed Spectral Data<<<<<
339.09	0.00
339.48	215.32
339.86	216.53
340.24	217.74
340.63	219.10
341.01	221.98
341.39	222.22
341.78	223.26
342.16	224.52
342.54	224.53
342.93	213.42
343.31	224.22
343.69	224.74
344.07	225.21
344.46	225.64
344.84	226.02
345.22	226.26
345.60	226.50
345.99	226.67
346.37	226.78
346.75	226.91
347.13	227.01
347.52	227.07
347.90	227.12
348.28	227.13
348.66	227.18
349.05	227.14
349.43	227.15
349.81	227.20
350.19	227.23
350.57	227.29
350.96	227.37
351.34	227.45
351.72	227.57
352.10	227.64
352.48	227.73
352.87	227.79
353.25	227.88
353.63	227.98
354.01	228.09
354.39	228.18
354.77	228.26
355.15	228.30
355.54	228.38
355.92	228.43
356.30	228.51
356.68	228.64
357.06	228.74
357.44	228.79
357.82	228.85
358.20	228.92
358.58	229.02
358.97	229.06
359.35	229.13
359.73	229.18
360.11	229.26
360.49	229.29
360.87	229.34
361.25	229.35
361.63	229.41
362.01	229.44
362.39	229.49
362.77	229.52
363.15	229.57
363.53	229.56
363.91	229.54
364.29	229.55
364.67	229.47
365.05	229.46
365.43	229.47
365.81	229.48
366.19	229.48
366.57	229.50
366.95	229.47
367.33	229.44
367.71	229.41
368.09	229.39
368.47	229.35
368.85	229.30
369.23	229.30
369.61	229.19
369.99	229.16
370.37	229.15
370.75	229.10
371.13	229.02
371.51	228.98
371.89	228.94
372.27	228.90
372.65	228.85
373.03	228.81
373.41	228.76
373.78	228.68
374.16	228.59
374.54	228.51
374.92	228.46
375.30	228.37
375.68	228.27
376.06	228.22
376.44	228.17
376.82	228.11
377.19	228.07
377.57	228.01
377.95	227.91
378.33	227.80
378.71	227.69
379.09	227.64
379.47	227.57
379.84	227.51
380.22	227.41
380.60	227.33
380.98	227.25
381.36	227.19
381.73	227.09
382.11	227.06
382.49	227.00
382.87	226.95
383.25	226.93
383.62	227.01
384.00	226.94
384.38	226.85
384.76	226.84
385.13	226.81
385.51	226.77
385.89	226.72
386.27	226.70
386.64	226.70
387.02	226.67
387.40	226.63
387.78	226.59
388.15	226.59
388.53	226.58
388.91	226.55
389.29	226.50
389.66	226.53
390.04	226.49
390.42	226.49
390.79	226.50
391.17	226.46
391.55	226.35
391.92	226.34
392.30	226.41
392.68	226.40
393.05	226.38
393.43	226.42
393.81	226.42
394.18	226.40
394.56	226.42
394.94	226.45
395.31	226.48
395.69	226.54
396.06	226.58
396.44	226.62
396.82	226.66
397.19	226.78
397.57	226.82
397.95	226.89
398.32	226.91
398.70	226.95
399.07	227.06
399.45	227.12
399.82	227.20
400.20	227.22
400.58	227.32
400.95	227.37
401.33	227.48
401.70	227.66
402.08	227.79
402.45	227.91
402.83	228.03
403.20	228.13
403.58	228.25
403.95	228.40
404.33	228.53
404.71	228.67
405.08	228.82
405.46	228.98
405.83	229.11
406.21	229.28
406.58	229.47
406.96	229.61
407.33	229.78
407.70	229.98
408.08	230.27
408.45	230.49
408.83	230.76
409.20	230.93
409.58	231.11
409.95	231.39
410.33	231.60
410.70	231.87
411.08	232.19
411.45	232.48
411.82	232.78
412.20	233.13
412.57	233.53
412.95	233.82
413.32	234.18
413.69	234.64
414.07	235.06
414.44	235.51
414.82	236.00
415.19	236.56
415.56	237.08
415.94	237.59
416.31	238.22
416.68	238.82
417.06	239.53
417.43	240.21
417.81	240.97
418.18	241.79
418.55	242.63
418.93	243.46
419.30	244.38
419.67	245.29
420.04	246.22
420.42	247.21
420.79	248.43
421.16	249.61
421.54	250.77
421.91	251.97
422.28	253.22
422.66	254.55
423.03	255.86
423.40	257.18
423.77	258.65
424.15	260.03
424.52	261.53
424.89	263.17
425.26	264.74
425.64	266.16
426.01	267.72
426.38	269.37
426.75	271.09
427.13	272.75
427.50	274.59
427.87	276.52
428.24	278.39
428.61	280.10
428.99	282.03
429.36	284.14
429.73	286.18
430.10	288.23
430.47	290.27
430.85	292.37
431.22	294.63
431.59	296.98
431.96	299.23
432.33	301.69
432.70	304.04
433.08	306.81
433.45	309.48
433.82	312.13
434.19	315.02
434.56	317.80
434.93	320.49
435.30	323.11
435.68	325.98
436.05	328.83
436.42	331.66
436.79	334.22
437.16	336.92
437.53	339.79
437.90	342.62
438.27	345.37
438.64	348.22
439.01	350.81
439.38	353.06
439.75	355.28
440.13	357.82
440.50	360.15
440.87	362.03
441.24	363.96
441.61	366.09
441.98	367.60
442.35	369.44
442.72	371.35
443.09	373.15
443.46	374.16
443.83	374.75
444.20	375.26
444.57	376.04
444.94	376.37
445.31	376.69
445.68	377.01
446.05	377.11
446.42	376.75
446.79	376.36
447.16	375.91
447.53	375.57
447.90	374.39
448.27	373.23
448.64	371.63
449.01	370.47
449.37	368.55
449.74	366.64
450.11	364.35
450.48	361.83
450.85	359.28
451.22	357.13
451.59	355.13
451.96	353.15
452.33	350.57
452.70	348.20
453.07	345.33
453.43	342.43
453.80	339.67
454.17	336.95
454.54	334.39
454.91	331.71
455.28	329.00
455.65	326.49
456.02	324.02
456.38	321.87
456.75	319.23
457.12	316.97
457.49	314.72
457.86	312.54
458.23	310.68
458.59	308.63
458.96	306.54
459.33	304.65
459.70	302.81
460.07	301.30
460.43	299.55
460.80	297.94
461.17	296.53
461.54	294.99
461.91	293.58
462.27	292.11
462.64	290.81
463.01	289.47
463.38	288.19
463.74	286.81
464.11	285.65
464.48	284.59
464.85	283.45
465.21	282.59
465.58	281.69
465.95	280.57
466.32	279.65
466.68	278.73
467.05	277.85
467.42	276.93
467.78	276.00
468.15	275.15
468.52	274.50
468.88	273.62
469.25	272.86
469.62	272.23
469.98	271.58
470.35	270.97
470.72	270.38
471.08	269.72
471.45	269.19
471.82	268.63
472.18	268.02
472.55	267.58
472.92	267.07
473.28	266.59
473.65	266.15
474.02	265.72
474.38	265.36
474.75	265.03
475.11	264.69
475.48	264.42
475.85	264.17
476.21	263.91
476.58	263.73
476.94	263.55
477.31	263.38
477.67	263.20
478.04	263.05
478.41	262.98
478.77	263.03
479.14	262.96
479.50	262.97
479.87	263.05
480.23	263.13
480.60	263.20
480.96	263.28
481.33	263.48
481.69	263.70
482.06	263.90
482.42	264.07
482.79	264.33
483.15	264.63
483.52	265.00
483.88	265.37
484.25	265.73
484.61	266.18
484.98	266.60
485.34	267.13
485.71	267.76
486.07	268.37
486.44	268.94
486.80	269.64
487.17	270.37
487.53	271.20
487.90	272.04
488.26	272.97
488.62	273.97
488.99	274.98
489.35	276.00
489.72	277.11
490.08	278.32
490.44	279.56
490.81	280.90
491.17	282.27
491.54	283.76
491.90	285.34
492.26	286.95
492.63	288.69
492.99	290.52
493.36	292.37
493.72	294.40
494.08	296.52
494.45	298.77
494.81	301.12
495.17	303.52
495.54	306.10
495.90	308.74
496.26	311.53
496.63	314.44
496.99	317.55
497.35	320.77
497.72	324.17
498.08	327.68
498.44	331.39
498.80	335.30
499.17	339.35
499.53	343.47
499.89	347.88
500.26	352.39
500.62	357.03
500.98	362.02
501.34	367.05
501.71	372.36
502.07	377.81
502.43	383.43
502.79	389.25
503.16	395.31
503.52	401.63
503.88	408.05
504.24	414.72
504.60	421.66
504.97	428.81
505.33	436.13
505.69	443.85
506.05	451.63
506.41	459.53
506.78	467.65
507.14	476.16
507.50	484.91
507.86	493.88
508.22	503.05
508.59	512.28
508.95	521.91
509.31	531.72
509.67	541.72
510.03	552.03
510.39	562.62
510.75	573.42
511.12	584.36
511.48	595.64
511.84	607.09
512.20	618.60
512.56	630.60
512.92	642.81
513.28	655.16
513.64	667.70
514.00	680.45
514.37	693.45
514.73	706.51
515.09	719.54
515.45	732.92
515.81	746.63
516.17	760.62
516.53	774.73
516.89	788.95
517.25	803.32
517.61	817.79
517.97	832.28
518.33	846.69
518.69	861.55
519.05	876.51
519.41	891.79
519.77	907.29
520.13	922.77
520.49	938.19
520.85	953.69
521.21	969.44
521.57	985.63
521.93	1001.47
522.29	1017.84
522.65	1034.03
523.01	1050.33
523.37	1066.50
523.73	1082.65
524.09	1098.81
524.45	1115.12
524.81	1131.73
525.17	1148.68
525.53	1165.65
525.89	1182.63
526.25	1199.42
526.61	1216.02
526.97	1232.71
527.33	1249.25
527.68	1265.96
528.04	1282.54
528.40	1299.17
528.76	1316.19
529.12	1332.75
529.48	1349.57
529.84	1365.79
530.20	1382.70
530.56	1399.81
530.91	1417.19
531.27	1434.06
531.63	1450.53
531.99	1467.23
532.35	1483.30
532.71	1499.17
533.07	1515.54
533.42	1531.54
533.78	1547.66
534.14	1563.94
534.50	1579.35
534.86	1595.34
535.21	1610.45
535.57	1626.40
535.93	1641.92
536.29	1656.82
536.65	1671.97
537.00	1686.84
537.36	1702.05
537.72	1716.54
538.08	1731.00
538.44	1744.75
538.79	1758.72
539.15	1772.45
539.51	1786.26
539.87	1800.73
540.22	1814.48
540.58	1828.30
540.94	1841.60
541.29	1854.62
541.65	1867.33
542.01	1880.67
542.37	1893.05
542.72	1905.46
543.08	1917.31
543.44	1929.97
543.79	1941.10
544.15	1952.22
544.51	1963.79
544.87	1974.88
545.22	1985.70
545.58	1995.98
545.94	2005.86
546.29	2015.69
546.65	2025.66
547.01	2034.87
547.36	2043.58
547.72	2052.10
548.07	2059.93
548.43	2068.16
548.79	2076.15
549.14	2083.77
549.50	2091.03
549.86	2098.70
550.21	2106.06
550.57	2113.18
550.92	2119.60
551.28	2126.79
551.64	2133.81
551.99	2140.36
552.35	2146.60
552.70	2152.70
553.06	2158.63
553.41	2164.98
553.77	2171.12
554.13	2177.16
554.48	2183.34
554.84	2188.67
555.19	2194.02
555.55	2199.10
555.90	2203.59
556.26	2208.52
556.61	2213.24
556.97	2217.42
557.32	2221.57
557.68	2225.85
558.03	2230.20
558.39	2233.93
558.74	2238.53
559.10	2242.52
559.45	2246.17
559.81	2250.46
560.16	2254.44
560.52	2257.66
560.87	2260.97
561.23	2263.55
561.58	2266.52
561.94	2268.91
562.29	2271.39
562.64	2274.09
563.00	2276.74
563.35	2280.34
563.71	2283.39
564.06	2286.49
564.42	2289.48
564.77	2291.92
565.12	2294.12
565.48	2295.84
565.83	2297.55
566.19	2298.81
566.54	2299.73
566.89	2300.87
567.25	2301.28
567.60	2302.42
567.96	2304.06
568.31	2304.93
568.66	2305.95
569.02	2306.50
569.37	2306.82
569.72	2307.61
570.08	2307.58
570.43	2307.66
570.78	2306.92
571.14	2305.40
571.49	2304.16
571.84	2303.72
572.20	2302.49
572.55	2301.41
572.90	2300.05
573.26	2298.64
573.61	2297.03
573.96	2295.10
574.31	2292.12
574.67	2289.08
575.02	2285.51
575.37	2282.09
575.72	2278.20
576.08	2274.75
576.43	2271.31
576.78	2267.70
577.13	2264.52
577.49	2261.43
577.84	2257.78
578.19	2253.97
578.54	2250.20
578.90	2245.82
579.25	2240.34
579.60	2235.32
579.95	2230.27
580.30	2225.14
580.66	2219.96
581.01	2214.89
581.36	2209.88
581.71	2205.67
582.06	2201.12
582.42	2196.57
582.77	2191.26
583.12	2186.62
583.47	2181.90
583.82	2176.91
584.17	2171.48
584.53	2165.82
584.88	2160.11
585.23	2154.16
585.58	2148.66
585.93	2143.31
586.28	2138.48
586.63	2133.32
586.98	2128.23
587.34	2123.36
587.69	2118.38
588.04	2113.01
588.39	2107.24
588.74	2100.82
589.09	2094.49
589.44	2087.84
589.79	2081.84
590.14	2076.17
590.49	2069.52
590.84	2063.14
591.19	2057.00
591.54	2050.53
591.89	2042.99
592.25	2036.19
592.60	2029.07
592.95	2021.37
593.30	2013.76
593.65	2006.28
594.00	1999.14
594.35	1991.89
594.70	1983.92
595.05	1976.63
595.40	1969.39
595.75	1961.88
596.10	1955.56
596.45	1948.77
596.80	1942.42
597.15	1935.65
597.50	1928.31
597.85	1921.88
598.19	1915.20
598.54	1907.90
598.89	1901.34
599.24	1895.53
599.59	1888.71
599.94	1882.44
600.29	1876.24
600.64	1869.73
600.99	1862.01
601.34	1855.12
601.69	1848.04
602.04	1841.06
602.39	1833.64
602.74	1826.74
603.08	1819.98
603.43	1813.15
603.78	1805.91
604.13	1798.74
604.48	1791.24
604.83	1784.53
605.18	1777.45
605.53	1769.35
605.87	1761.36
606.22	1754.03
606.57	1745.93
606.92	1738.54
607.27	1731.27
607.62	1724.01
607.96	1716.62
608.31	1709.97
608.66	1702.34
609.01	1694.83
609.36	1687.11
609.70	1678.94
610.05	1670.69
610.40	1662.91
610.75	1654.61
611.10	1646.83
611.44	1638.37
611.79	1630.57
612.14	1621.84
612.49	1612.69
612.83	1604.23
613.18	1596.15
613.53	1588.11
613.88	1579.74
614.22	1571.40
614.57	1562.88
614.92	1554.97
615.27	1547.29
615.61	1539.00
615.96	1530.98
616.31	1523.34
616.65	1516.02
617.00	1508.64
617.35	1501.16
617.70	1492.74
618.04	1484.28
618.39	1476.06
618.74	1468.41
619.08	1460.06
619.43	1452.48
619.78	1445.67
620.12	1438.56
620.47	1430.97
620.82	1422.77
621.16	1415.39
621.51	1407.88
621.85	1400.23
622.20	1391.71
622.55	1383.50
622.89	1375.72
623.24	1368.06
623.59	1360.68
623.93	1353.16
624.28	1345.90
624.62	1338.26
624.97	1331.24
625.32	1324.48
625.66	1317.51
626.01	1310.28
626.35	1302.85
626.70	1295.17
627.04	1287.34
627.39	1279.65
627.73	1272.28
628.08	1265.37
628.43	1258.06
628.77	1250.73
629.12	1243.09
629.46	1235.93
629.81	1228.45
630.15	1221.10
630.50	1213.70
630.84	1205.49
631.19	1197.69
631.53	1190.14
631.88	1182.62
632.22	1174.91
632.57	1167.58
632.91	1159.95
633.26	1152.51
633.60	1145.09
633.95	1137.94
634.29	1130.92
634.64	1124.17
634.98	1116.90
635.32	1109.66
635.67	1103.04
636.01	1096.39
636.36	1089.70
636.70	1083.28
637.05	1076.65
637.39	1070.24
637.73	1063.80
638.08	1057.95
638.42	1051.92
638.77	1045.54
639.11	1038.90
639.45	1032.44
639.80	1025.75
640.14	1019.40
640.49	1012.86
640.83	1006.51
641.17	1000.29
641.52	994.01
641.86	987.65
642.20	981.75
642.55	975.49
642.89	968.92
643.23	962.28
643.58	956.43
643.92	950.15
644.26	944.03
644.61	938.06
644.95	931.95
645.29	925.31
645.64	918.55
645.98	912.22
646.32	906.41
646.66	900.47
647.01	894.71
647.35	889.00
647.69	883.22
648.04	877.79
648.38	871.97
648.72	865.91
649.06	859.80
649.41	853.93
649.75	847.92
650.09	842.02
650.43	836.33
650.78	830.16
651.12	824.24
651.46	818.62
651.80	812.79
652.14	807.35
652.49	802.03
652.83	796.91
653.17	791.11
653.51	785.39
653.85	779.95
654.20	774.26
654.54	768.25
654.88	762.56
655.22	756.65
655.56	750.98
655.90	745.54
656.25	740.21
656.59	734.86
656.93	729.82
657.27	724.63
657.61	719.09
657.95	714.02
658.29	708.91
658.64	703.69
658.98	698.43
659.32	693.00
659.66	687.73
660.00	682.41
660.34	677.55
660.68	672.64
661.02	667.66
661.36	662.96
661.70	658.52
662.05	654.10
662.39	649.73
662.73	645.31
663.07	640.90
663.41	636.46
663.75	631.96
664.09	627.38
664.43	623.02
664.77	618.96
665.11	614.66
665.45	610.55
665.79	606.43
666.13	602.24
666.47	598.12
666.81	594.02
667.15	589.85
667.49	585.93
667.83	582.18
668.17	578.26
668.51	574.16
668.85	570.10
669.19	566.30
669.53	562.43
669.87	558.45
670.21	554.74
670.55	551.13
670.89	547.72
671.23	544.27
671.57	540.76
671.91	537.19
672.25	533.75
672.58	530.20
672.92	526.84
673.26	523.74
673.60	520.64
673.94	517.49
674.28	514.63
674.62	511.70
674.96	508.57
675.30	505.61
675.64	502.73
675.97	499.91
676.31	497.00
676.65	494.12
676.99	491.47
677.33	488.69
677.67	485.87
678.01	482.81
678.34	479.86
678.68	476.96
679.02	474.16
679.36	471.39
679.70	468.70
680.04	465.94
680.37	463.07
680.71	460.30
681.05	457.75
681.39	454.99
681.73	452.30
682.06	449.75
682.40	447.20
682.74	444.68
683.08	442.16
683.42	439.61
683.75	437.11
684.09	434.54
684.43	432.03
684.77	429.56
685.10	427.22
685.44	424.92
685.78	422.64
686.12	420.44
686.45	418.16
686.79	415.85
687.13	413.66
687.46	411.52
687.80	409.40
688.14	407.17
688.48	405.15
688.81	402.92
689.15	400.78
689.49	398.66
689.82	396.57
690.16	394.51
690.50	392.57
690.83	390.62
691.17	388.65
691.51	386.77
691.84	384.95
692.18	383.10
692.52	381.08
692.85	379.17
693.19	377.31
693.52	375.53
693.86	373.82
694.20	372.02
694.53	370.21
694.87	368.34
695.21	366.54
695.54	364.74
695.88	363.06
696.21	361.38
696.55	359.68
696.88	357.99
697.22	356.33
697.56	354.69
697.89	353.03
698.23	351.47
698.56	349.86
698.90	348.29
699.23	346.64
699.57	345.12
699.90	343.60
700.24	342.04
700.58	340.47
700.91	338.92
701.25	337.50
701.58	336.13
701.92	334.78
702.25	333.40
702.59	331.99
702.92	330.62
703.26	329.36
703.59	328.08
703.93	326.89
704.26	325.67
704.60	324.43
704.93	323.19
705.26	321.87
705.60	320.72
705.93	319.55
706.27	318.49
706.60	317.44
706.94	316.35
707.27	315.19
707.61	314.11
707.94	313.05
708.27	311.97
708.61	310.88
708.94	309.87
709.28	308.91
709.61	307.93
709.94	306.98
710.28	305.89
710.61	304.98
710.95	303.91
711.28	303.00
711.61	301.99
711.95	301.02
712.28	300.10
712.61	299.08
712.95	298.14
713.28	297.26
713.61	296.34
713.95	295.44
714.28	294.63
714.61	293.76
714.95	292.97
715.28	292.12
715.61	291.26
715.95	290.39
716.28	289.53
716.61	288.74
716.95	287.95
717.28	287.25
717.61	286.45
717.94	285.75
718.28	284.93
718.61	284.24
718.94	283.56
719.27	282.95
719.61	282.34
719.94	281.69
720.27	280.94
720.60	280.32
720.94	279.70
721.27	279.12
721.60	278.55
721.93	277.92
722.27	277.36
722.60	276.78
722.93	276.21
723.26	275.67
723.59	275.05
723.93	274.50
724.26	273.93
724.59	273.35
724.92	272.79
725.25	272.33
725.59	271.78
725.92	271.29
726.25	270.72
726.58	270.22
726.91	269.72
727.24	269.22
727.57	268.72
727.91	268.23
728.24	267.71
728.57	267.20
728.90	266.73
729.23	266.24
729.56	265.82
729.89	265.36
730.22	264.86
730.55	264.48
730.89	264.02
731.22	263.53
731.55	263.10
731.88	262.67
732.21	262.19
732.54	261.75
732.87	261.32
733.20	260.94
733.53	260.55
733.86	260.16
734.19	259.76
734.52	259.39
734.85	259.07
735.18	258.69
735.51	258.39
735.84	258.03
736.17	257.70
736.50	257.30
736.83	257.10
737.16	256.76
737.49	256.37
737.82	256.03
738.15	255.72
738.48	255.38
738.81	255.08
739.14	254.76
739.47	254.46
739.80	254.18
740.13	253.88
740.46	253.56
740.79	253.28
741.12	253.01
741.45	252.70
741.78	252.37
742.11	252.08
742.44	251.73
742.77	251.46
743.10	251.14
743.43	250.84
743.75	250.44
744.08	250.32
744.41	250.06
744.74	249.79
745.07	249.56
745.40	249.34
745.73	249.07
746.06	248.81
746.39	248.57
746.71	248.26
747.04	248.01
747.37	247.73
747.70	247.47
748.03	247.21
748.36	247.00
748.68	246.74
749.01	246.46
749.34	246.25
749.67	245.99
750.00	245.76
750.33	245.60
750.65	245.40
750.98	245.08
751.31	244.88
751.64	244.70
751.97	244.54
752.29	244.32
752.62	244.10
752.95	243.89
753.28	243.68
753.60	243.51
753.93	243.34
754.26	243.18
754.59	242.95
754.91	242.73
755.24	242.54
755.57	242.35
755.90	242.20
756.22	241.98
756.55	241.83
756.88	241.62
757.20	241.41
757.53	241.20
757.86	241.02
758.19	240.84
758.51	240.64
758.84	240.44
759.17	240.27
759.49	240.12
759.82	239.98
760.15	239.85
760.47	239.67
760.80	239.47
761.13	239.33
761.45	239.16
761.78	239.01
762.11	238.86
762.43	238.72
762.76	238.60
763.08	238.47
763.41	238.30
763.74	238.19
764.06	237.99
764.39	237.87
764.71	237.70
765.04	237.56
765.37	237.41
765.69	237.24
766.02	237.09
766.34	236.91
766.67	236.75
767.00	236.65
767.32	236.56
767.65	236.52
767.97	236.37
768.30	236.27
768.62	236.15
768.95	236.01
769.27	235.85
769.60	235.73
769.92	235.62
770.25	235.51
770.57	235.37
770.90	235.29
771.22	235.17
771.55	235.06
771.87	234.96
772.20	234.85
772.52	234.83
772.85	234.84
773.17	234.72
773.50	234.58
773.82	234.45
774.15	234.30
774.47	234.12
774.80	234.03
775.12	233.95
775.45	233.90
775.77	233.87
776.09	233.82
776.42	233.73
776.74	233.68
777.07	233.59
777.39	233.53
777.72	233.46
778.04	233.39
778.36	233.34
778.69	233.30
779.01	233.24
779.33	233.09
779.66	232.95
779.98	232.92
780.31	232.92
780.63	232.90
780.95	232.90
781.28	232.85
781.60	232.76
781.92	232.71
782.25	232.63
782.57	232.56
782.89	232.50
783.22	232.41
783.54	232.34
783.86	232.30
784.19	232.26
784.51	232.29
784.83	232.22
785.16	232.16
785.48	232.10
785.80	232.08
786.12	232.05
786.45	231.98
786.77	231.96
787.09	231.91
