SpectraSuite Data File
++++++++++++++++++++++++++++++++++++
Date: Fri Feb 01 14:49:59 EST 2013
User: group
Dark Spectrum Present: No
Reference Spectrum Present: No
Number of Sampled Component Spectra: 1
Spectrometers: USB2E7196
Integration Time (usec): 35000 (USB2E7196)
Spectra Averaged: 100 (USB2E7196)
Boxcar Smoothing: 10 (USB2E7196)
Correct for Electrical Dark: No (USB2E7196)
Strobe/Lamp Enabled: No (USB2E7196)
Correct for Detector Non-linearity: No (USB2E7196)
Correct for Stray Light: No (USB2E7196)
Number of Pixels in Processed Spectrum: 2048
>>>>>Begin Processed Spectral Data<<<<<
339.09	0.00
339.48	215.51
339.86	217.15
340.24	218.51
340.63	220.34
341.01	222.83
341.39	222.23
341.78	224.88
342.16	225.45
342.54	225.12
342.93	214.20
343.31	225.01
343.69	225.59
344.07	226.04
344.46	226.48
344.84	226.84
345.22	227.10
345.60	227.37
345.99	227.53
346.37	227.64
346.75	227.79
347.13	227.83
347.52	227.90
347.90	227.94
348.28	227.93
348.66	227.98
349.05	227.98
349.43	228.02
349.81	228.05
350.19	228.07
350.57	228.12
350.96	228.20
351.34	228.30
351.72	228.34
352.10	228.45
352.48	228.53
352.87	228.57
353.25	228.62
353.63	228.66
354.01	228.72
354.39	228.78
354.77	228.85
355.15	228.91
355.54	228.95
355.92	229.00
356.30	229.10
356.68	229.25
357.06	229.33
357.44	229.37
357.82	229.43
358.20	229.52
358.58	229.58
358.97	229.61
359.35	229.67
359.73	229.74
360.11	229.78
360.49	229.77
360.87	229.82
361.25	229.86
361.63	229.94
362.01	229.99
362.39	230.03
362.77	230.03
363.15	230.06
363.53	230.09
363.91	230.11
364.29	230.08
364.67	229.96
365.05	229.98
365.43	230.01
365.81	230.04
366.19	230.08
366.57	230.07
366.95	230.05
367.33	230.02
367.71	229.99
368.09	229.98
368.47	229.99
368.85	229.98
369.23	229.97
369.61	229.91
369.99	229.86
370.37	229.81
370.75	229.80
371.13	229.73
371.51	229.64
371.89	229.60
372.27	229.56
372.65	229.49
373.03	229.39
373.41	229.29
373.78	229.20
374.16	229.06
374.54	228.96
374.92	228.89
375.30	228.80
375.68	228.73
376.06	228.66
376.44	228.57
376.82	228.50
377.19	228.38
377.57	228.27
377.95	228.21
378.33	228.13
378.71	228.04
379.09	227.97
379.47	227.93
379.84	227.81
380.22	227.75
380.60	227.65
380.98	227.60
381.36	227.53
381.73	227.41
382.11	227.37
382.49	227.29
382.87	227.22
383.25	227.16
383.62	227.19
384.00	227.14
384.38	227.10
384.76	227.08
385.13	227.05
385.51	227.03
385.89	226.95
386.27	226.94
386.64	226.91
387.02	226.86
387.40	226.81
387.78	226.80
388.15	226.76
388.53	226.76
388.91	226.73
389.29	226.70
389.66	226.74
390.04	226.69
390.42	226.72
390.79	226.71
391.17	226.71
391.55	226.61
391.92	226.58
392.30	226.59
392.68	226.57
393.05	226.62
393.43	226.64
393.81	226.70
394.18	226.69
394.56	226.73
394.94	226.78
395.31	226.82
395.69	226.87
396.06	226.95
396.44	227.04
396.82	227.09
397.19	227.24
397.57	227.27
397.95	227.34
398.32	227.40
398.70	227.50
399.07	227.61
399.45	227.66
399.82	227.75
400.20	227.83
400.58	227.89
400.95	227.91
401.33	228.03
401.70	228.18
402.08	228.31
402.45	228.41
402.83	228.58
403.20	228.66
403.58	228.79
403.95	228.91
404.33	229.04
404.71	229.18
405.08	229.32
405.46	229.50
405.83	229.69
406.21	229.82
406.58	229.98
406.96	230.12
407.33	230.35
407.70	230.56
408.08	230.83
408.45	231.07
408.83	231.33
409.20	231.55
409.58	231.71
409.95	232.00
410.33	232.28
410.70	232.51
411.08	232.86
411.45	233.15
411.82	233.44
412.20	233.77
412.57	234.17
412.95	234.47
413.32	234.90
413.69	235.31
414.07	235.77
414.44	236.23
414.82	236.71
415.19	237.23
415.56	237.75
415.94	238.30
416.31	238.92
416.68	239.52
417.06	240.23
417.43	240.92
417.81	241.63
418.18	242.36
418.55	243.18
418.93	244.07
419.30	244.94
419.67	245.89
420.04	246.84
420.42	247.80
420.79	248.96
421.16	250.06
421.54	251.24
421.91	252.44
422.28	253.67
422.66	254.99
423.03	256.31
423.40	257.62
423.77	259.00
424.15	260.41
424.52	261.90
424.89	263.49
425.26	265.01
425.64	266.45
426.01	268.04
426.38	269.65
426.75	271.28
427.13	273.02
427.50	274.83
427.87	276.69
428.24	278.57
428.61	280.32
428.99	282.24
429.36	284.34
429.73	286.37
430.10	288.37
430.47	290.40
430.85	292.48
431.22	294.75
431.59	297.14
431.96	299.37
432.33	301.86
432.70	304.27
433.08	307.08
433.45	309.76
433.82	312.38
434.19	315.26
434.56	318.06
434.93	320.72
435.30	323.33
435.68	326.27
436.05	329.12
436.42	331.91
436.79	334.42
437.16	337.08
437.53	339.95
437.90	342.81
438.27	345.58
438.64	348.42
439.01	351.02
439.38	353.24
439.75	355.41
440.13	357.88
440.50	360.19
440.87	362.09
441.24	364.02
441.61	366.19
441.98	367.70
442.35	369.53
442.72	371.36
443.09	373.17
443.46	374.15
443.83	374.68
444.20	375.16
444.57	376.00
444.94	376.36
445.31	376.68
445.68	377.04
446.05	377.10
446.42	376.76
446.79	376.34
447.16	375.94
447.53	375.64
447.90	374.48
448.27	373.33
448.64	371.71
449.01	370.56
449.37	368.58
449.74	366.72
450.11	364.46
450.48	362.02
450.85	359.51
451.22	357.37
451.59	355.37
451.96	353.45
452.33	350.88
452.70	348.50
453.07	345.70
453.43	342.81
453.80	340.07
454.17	337.38
454.54	334.84
454.91	332.11
455.28	329.45
455.65	326.97
456.02	324.54
456.38	322.38
456.75	319.69
457.12	317.43
457.49	315.22
457.86	313.04
458.23	311.17
458.59	309.10
458.96	307.03
459.33	305.21
459.70	303.38
460.07	301.86
460.43	300.14
460.80	298.49
461.17	297.06
461.54	295.56
461.91	294.12
462.27	292.70
462.64	291.44
463.01	290.11
463.38	288.84
463.74	287.46
464.11	286.32
464.48	285.32
464.85	284.24
465.21	283.35
465.58	282.42
465.95	281.32
466.32	280.44
466.68	279.52
467.05	278.59
467.42	277.70
467.78	276.72
468.15	275.82
468.52	275.14
468.88	274.28
469.25	273.50
469.62	272.87
469.98	272.14
470.35	271.45
470.72	270.81
471.08	270.11
471.45	269.51
471.82	268.93
472.18	268.33
472.55	267.86
472.92	267.30
473.28	266.84
473.65	266.38
474.02	265.87
474.38	265.47
474.75	265.15
475.11	264.77
475.48	264.51
475.85	264.25
476.21	263.99
476.58	263.78
476.94	263.61
477.31	263.41
477.67	263.28
478.04	263.18
478.41	263.12
478.77	263.16
479.14	263.14
479.50	263.16
479.87	263.19
480.23	263.30
480.60	263.37
480.96	263.44
481.33	263.66
481.69	263.87
482.06	264.06
482.42	264.25
482.79	264.48
483.15	264.83
483.52	265.22
483.88	265.55
484.25	265.91
484.61	266.34
484.98	266.80
485.34	267.36
485.71	267.93
486.07	268.53
486.44	269.09
486.80	269.77
487.17	270.46
487.53	271.25
487.90	272.07
488.26	272.95
488.62	273.96
488.99	274.91
489.35	275.96
489.72	277.07
490.08	278.26
490.44	279.48
490.81	280.79
491.17	282.09
491.54	283.59
491.90	285.14
492.26	286.74
492.63	288.43
492.99	290.16
493.36	292.04
493.72	294.06
494.08	296.15
494.45	298.40
494.81	300.76
495.17	303.22
495.54	305.76
495.90	308.43
496.26	311.18
496.63	314.11
496.99	317.20
497.35	320.44
497.72	323.84
498.08	327.31
498.44	330.92
498.80	334.82
499.17	338.78
499.53	342.88
499.89	347.22
500.26	351.73
500.62	356.37
500.98	361.29
501.34	366.29
501.71	371.55
502.07	376.92
502.43	382.47
502.79	388.16
503.16	394.20
503.52	400.42
503.88	406.70
504.24	413.28
504.60	420.13
504.97	427.18
505.33	434.38
505.69	442.00
506.05	449.73
506.41	457.61
506.78	465.78
507.14	474.15
507.50	482.74
507.86	491.69
508.22	500.86
508.59	510.02
508.95	519.56
509.31	529.34
509.67	539.44
510.03	549.69
510.39	560.31
510.75	571.05
511.12	581.93
511.48	593.22
511.84	604.66
512.20	616.04
512.56	627.93
512.92	640.10
513.28	652.43
513.64	664.88
514.00	677.51
514.37	690.37
514.73	703.42
515.09	716.54
515.45	729.79
515.81	743.22
516.17	757.14
516.53	771.20
516.89	785.35
517.25	799.45
517.61	813.91
517.97	828.23
518.33	842.61
518.69	857.37
519.05	872.35
519.41	887.52
519.77	903.08
520.13	918.54
520.49	933.97
520.85	949.39
521.21	965.18
521.57	981.50
521.93	997.31
522.29	1013.73
522.65	1030.02
523.01	1046.34
523.37	1062.58
523.73	1078.79
524.09	1094.96
524.45	1111.46
524.81	1128.09
525.17	1144.93
525.53	1161.90
525.89	1178.84
526.25	1195.72
526.61	1212.24
526.97	1228.98
527.33	1245.62
527.68	1262.39
528.04	1278.98
528.40	1295.72
528.76	1312.85
529.12	1329.39
529.48	1346.35
529.84	1362.49
530.20	1379.09
530.56	1396.12
530.91	1413.53
531.27	1430.43
531.63	1446.91
531.99	1463.53
532.35	1479.55
532.71	1495.47
533.07	1511.87
533.42	1527.78
533.78	1543.91
534.14	1560.19
534.50	1575.64
534.86	1591.45
535.21	1606.57
535.57	1622.65
535.93	1638.05
536.29	1652.81
536.65	1668.12
537.00	1682.99
537.36	1698.12
537.72	1712.73
538.08	1727.23
538.44	1741.03
538.79	1754.90
539.15	1768.73
539.51	1782.46
539.87	1796.95
540.22	1810.63
540.58	1824.26
540.94	1837.65
541.29	1850.54
541.65	1863.33
542.01	1876.61
542.37	1888.87
542.72	1901.51
543.08	1913.13
543.44	1925.65
543.79	1936.97
544.15	1947.76
544.51	1959.16
544.87	1970.34
545.22	1981.23
545.58	1991.39
545.94	2001.26
546.29	2011.02
546.65	2020.80
547.01	2029.82
547.36	2038.42
547.72	2047.00
548.07	2054.92
548.43	2063.24
548.79	2071.27
549.14	2078.80
549.50	2085.99
549.86	2093.93
550.21	2100.95
550.57	2108.09
550.92	2114.61
551.28	2121.66
551.64	2128.69
551.99	2135.31
552.35	2141.37
552.70	2147.36
553.06	2153.29
553.41	2159.43
553.77	2165.47
554.13	2171.38
554.48	2177.48
554.84	2182.78
555.19	2188.02
555.55	2193.05
555.90	2197.36
556.26	2202.14
556.61	2206.69
556.97	2210.87
557.32	2214.78
557.68	2218.83
558.03	2223.05
558.39	2226.62
558.74	2231.04
559.10	2234.69
559.45	2238.06
559.81	2242.38
560.16	2246.06
560.52	2249.03
560.87	2252.47
561.23	2255.07
561.58	2257.94
561.94	2260.53
562.29	2262.99
562.64	2265.56
563.00	2268.06
563.35	2271.39
563.71	2274.38
564.06	2277.36
564.42	2280.15
564.77	2282.45
565.12	2284.60
565.48	2286.30
565.83	2287.92
566.19	2288.98
566.54	2290.00
566.89	2291.17
567.25	2291.37
567.60	2292.51
567.96	2294.08
568.31	2294.49
568.66	2295.20
569.02	2295.54
569.37	2295.46
569.72	2295.92
570.08	2295.62
570.43	2295.29
570.78	2294.31
571.14	2292.43
571.49	2290.76
571.84	2290.02
572.20	2288.51
572.55	2287.15
572.90	2285.20
573.26	2283.58
573.61	2281.65
573.96	2279.47
574.31	2276.18
574.67	2272.91
575.02	2269.00
575.37	2265.20
575.72	2261.20
576.08	2257.74
576.43	2254.22
576.78	2250.46
577.13	2247.02
577.49	2243.80
577.84	2240.13
578.19	2236.27
578.54	2232.41
578.90	2227.91
579.25	2222.20
579.60	2217.20
579.95	2211.96
580.30	2206.85
580.66	2201.51
581.01	2196.31
581.36	2191.15
581.71	2186.66
582.06	2182.07
582.42	2177.48
582.77	2172.22
583.12	2167.48
583.47	2162.50
583.82	2157.49
584.17	2152.00
584.53	2146.34
584.88	2140.45
585.23	2134.65
585.58	2129.09
585.93	2123.47
586.28	2118.77
586.63	2113.62
586.98	2108.42
587.34	2103.59
587.69	2098.57
588.04	2093.18
588.39	2087.39
588.74	2080.86
589.09	2074.64
589.44	2067.66
589.79	2061.35
590.14	2055.34
590.49	2048.59
590.84	2041.97
591.19	2035.60
591.54	2028.91
591.89	2021.45
592.25	2014.58
592.60	2007.28
592.95	1999.45
593.30	1992.15
593.65	1984.27
594.00	1977.16
594.35	1969.72
594.70	1961.58
595.05	1954.23
595.40	1946.93
595.75	1939.39
596.10	1933.04
596.45	1926.17
596.80	1919.84
597.15	1913.14
597.50	1906.07
597.85	1899.58
598.19	1893.02
598.54	1885.85
598.89	1879.35
599.24	1873.47
599.59	1866.80
599.94	1860.43
600.29	1854.17
600.64	1847.44
600.99	1840.11
601.34	1833.13
601.69	1826.09
602.04	1819.19
602.39	1811.89
602.74	1804.93
603.08	1798.31
603.43	1791.58
603.78	1784.39
604.13	1777.31
604.48	1770.26
604.83	1763.64
605.18	1756.80
605.53	1748.75
605.87	1740.79
606.22	1733.50
606.57	1725.58
606.92	1718.20
607.27	1711.13
607.62	1704.19
607.96	1696.90
608.31	1690.27
608.66	1682.83
609.01	1675.27
609.36	1667.80
609.70	1659.76
610.05	1651.99
610.40	1644.30
610.75	1636.11
611.10	1628.51
611.44	1620.31
611.79	1612.31
612.14	1603.62
612.49	1594.61
612.83	1586.44
613.18	1578.49
613.53	1570.43
613.88	1561.98
614.22	1553.92
614.57	1545.41
614.92	1537.54
615.27	1530.20
615.61	1522.03
615.96	1513.99
616.31	1506.67
616.65	1499.34
617.00	1491.95
617.35	1484.23
617.70	1475.85
618.04	1467.34
618.39	1459.13
618.74	1451.53
619.08	1443.43
619.43	1436.07
619.78	1429.27
620.12	1422.28
620.47	1414.84
620.82	1406.83
621.16	1399.63
621.51	1392.04
621.85	1384.53
622.20	1376.11
622.55	1367.85
622.89	1360.15
623.24	1352.74
623.59	1345.51
623.93	1338.20
624.28	1330.96
624.62	1323.63
624.97	1316.66
625.32	1310.02
625.66	1303.14
626.01	1296.16
626.35	1288.71
626.70	1281.00
627.04	1273.33
627.39	1265.47
627.73	1258.14
628.08	1251.34
628.43	1244.01
628.77	1236.76
629.12	1229.32
629.46	1222.23
629.81	1215.00
630.15	1207.94
630.50	1200.66
630.84	1192.44
631.19	1184.60
631.53	1177.23
631.88	1169.70
632.22	1162.24
632.57	1155.12
632.91	1147.68
633.26	1140.21
633.60	1132.92
633.95	1126.05
634.29	1119.10
634.64	1112.62
634.98	1105.39
635.32	1098.43
635.67	1091.99
636.01	1085.52
636.36	1078.76
636.70	1072.35
637.05	1065.82
637.39	1059.47
637.73	1053.09
638.08	1047.39
638.42	1041.59
638.77	1035.33
639.11	1028.87
639.45	1022.58
639.80	1016.04
640.14	1009.75
640.49	1003.45
640.83	997.31
641.17	991.04
641.52	984.83
641.86	978.58
642.20	972.88
642.55	966.56
642.89	960.16
643.23	953.66
643.58	948.04
643.92	941.95
644.26	935.99
644.61	929.97
644.95	923.99
645.29	917.48
645.64	910.71
645.98	904.50
646.32	898.83
646.66	892.87
647.01	887.12
647.35	881.50
647.69	875.64
648.04	870.27
648.38	864.64
648.72	858.69
649.06	852.67
649.41	846.81
649.75	841.00
650.09	835.13
650.43	829.37
650.78	823.28
651.12	817.35
651.46	811.74
651.80	806.01
652.14	800.65
652.49	795.26
652.83	790.17
653.17	784.53
653.51	778.70
653.85	773.32
654.20	767.80
654.54	761.79
654.88	756.11
655.22	750.26
655.56	744.55
655.90	739.13
656.25	733.91
656.59	728.59
656.93	723.51
657.27	718.48
657.61	713.13
657.95	708.04
658.29	703.05
658.64	697.83
658.98	692.65
659.32	687.24
659.66	682.15
660.00	677.00
660.34	672.07
660.68	667.36
661.02	662.38
661.36	657.67
661.70	653.32
662.05	649.08
662.39	644.72
662.73	640.34
663.07	636.03
663.41	631.61
663.75	627.17
664.09	622.66
664.43	618.29
664.77	614.23
665.11	610.04
665.45	605.95
665.79	601.94
666.13	597.85
666.47	593.81
666.81	589.71
667.15	585.54
667.49	581.70
667.83	577.84
668.17	573.94
668.51	569.99
668.85	565.97
669.19	562.15
669.53	558.40
669.87	554.59
670.21	550.99
670.55	547.44
670.89	544.09
671.23	540.75
671.57	537.26
671.91	533.79
672.25	530.37
672.58	526.93
672.92	523.59
673.26	520.49
673.60	517.40
673.94	514.30
674.28	511.42
674.62	508.54
674.96	505.56
675.30	502.73
675.64	499.83
675.97	497.16
676.31	494.36
676.65	491.48
676.99	488.77
677.33	485.95
677.67	483.15
678.01	480.13
678.34	477.21
678.68	474.42
679.02	471.71
679.36	468.99
679.70	466.30
680.04	463.52
680.37	460.71
680.71	457.98
681.05	455.46
681.39	452.85
681.73	450.21
682.06	447.71
682.40	445.19
682.74	442.72
683.08	440.18
683.42	437.67
683.75	435.25
684.09	432.81
684.43	430.36
684.77	427.93
685.10	425.69
685.44	423.39
685.78	421.12
686.12	418.91
686.45	416.68
686.79	414.43
687.13	412.28
687.46	410.13
687.80	408.00
688.14	405.83
688.48	403.78
688.81	401.62
689.15	399.48
689.49	397.41
689.82	395.35
690.16	393.35
690.50	391.39
690.83	389.47
691.17	387.48
691.51	385.61
691.84	383.81
692.18	381.88
692.52	379.98
692.85	378.08
693.19	376.16
693.52	374.33
693.86	372.57
694.20	370.86
694.53	369.12
694.87	367.36
695.21	365.61
695.54	363.84
695.88	362.13
696.21	360.47
696.55	358.80
696.88	357.09
697.22	355.41
697.56	353.80
697.89	352.14
698.23	350.54
698.56	348.95
698.90	347.36
699.23	345.73
699.57	344.13
699.90	342.60
700.24	341.13
700.58	339.62
700.91	338.13
701.25	336.67
701.58	335.25
701.92	333.89
702.25	332.50
702.59	331.18
702.92	329.86
703.26	328.57
703.59	327.33
703.93	326.17
704.26	324.95
704.60	323.66
704.93	322.42
705.26	321.20
705.60	320.04
705.93	318.88
706.27	317.89
706.60	316.88
706.94	315.80
707.27	314.67
707.61	313.63
707.94	312.64
708.27	311.61
708.61	310.59
708.94	309.56
709.28	308.60
709.61	307.61
709.94	306.64
710.28	305.61
710.61	304.64
710.95	303.58
711.28	302.68
711.61	301.78
711.95	300.89
712.28	299.98
712.61	298.97
712.95	298.07
713.28	297.19
713.61	296.31
713.95	295.47
714.28	294.67
714.61	293.81
714.95	292.94
715.28	292.05
715.61	291.20
715.95	290.37
716.28	289.49
716.61	288.73
716.95	287.94
717.28	287.24
717.61	286.47
717.94	285.74
718.28	284.96
718.61	284.22
718.94	283.55
719.27	282.91
719.61	282.32
719.94	281.70
720.27	280.97
720.60	280.27
720.94	279.63
721.27	279.01
721.60	278.44
721.93	277.86
722.27	277.37
722.60	276.85
722.93	276.31
723.26	275.83
723.59	275.26
723.93	274.70
724.26	274.11
724.59	273.55
724.92	273.05
725.25	272.57
725.59	272.08
725.92	271.56
726.25	271.02
726.58	270.49
726.91	270.03
727.24	269.57
727.57	269.15
727.91	268.67
728.24	268.19
728.57	267.72
728.90	267.31
729.23	266.81
729.56	266.39
729.89	265.89
730.22	265.39
730.55	264.94
730.89	264.50
731.22	264.05
731.55	263.64
731.88	263.19
732.21	262.76
732.54	262.32
732.87	261.88
733.20	261.52
733.53	261.13
733.86	260.71
734.19	260.31
734.52	259.91
734.85	259.58
735.18	259.20
735.51	258.80
735.84	258.36
736.17	258.00
736.50	257.57
736.83	257.32
737.16	256.96
737.49	256.61
737.82	256.28
738.15	255.99
738.48	255.64
738.81	255.33
739.14	254.96
739.47	254.63
739.80	254.31
740.13	254.03
740.46	253.72
740.79	253.38
741.12	253.09
741.45	252.76
741.78	252.42
742.11	252.13
742.44	251.81
742.77	251.57
743.10	251.27
743.43	250.94
743.75	250.56
744.08	250.36
744.41	250.11
744.74	249.84
745.07	249.50
745.40	249.24
745.73	248.99
746.06	248.72
746.39	248.48
746.71	248.23
747.04	247.92
747.37	247.65
747.70	247.44
748.03	247.14
748.36	246.94
748.68	246.69
749.01	246.43
749.34	246.27
749.67	246.03
750.00	245.80
750.33	245.66
750.65	245.46
750.98	245.20
751.31	245.00
751.64	244.78
751.97	244.65
752.29	244.42
752.62	244.18
752.95	243.99
753.28	243.76
753.60	243.56
753.93	243.41
754.26	243.25
754.59	243.03
754.91	242.86
755.24	242.66
755.57	242.50
755.90	242.33
756.22	242.08
756.55	241.87
756.88	241.69
757.20	241.49
757.53	241.34
757.86	241.18
758.19	241.00
758.51	240.81
758.84	240.63
759.17	240.53
759.49	240.41
759.82	240.31
760.15	240.18
760.47	240.06
760.80	239.90
761.13	239.81
761.45	239.62
761.78	239.48
762.11	239.32
762.43	239.22
762.76	239.11
763.08	239.01
763.41	238.91
763.74	238.79
764.06	238.64
764.39	238.49
764.71	238.36
765.04	238.24
765.37	238.15
765.69	238.03
766.02	237.87
766.34	237.78
766.67	237.61
767.00	237.54
767.32	237.47
767.65	237.42
767.97	237.27
768.30	237.17
768.62	237.06
768.95	236.96
769.27	236.80
769.60	236.68
769.92	236.54
770.25	236.42
770.57	236.29
770.90	236.21
771.22	236.11
771.55	235.98
771.87	235.91
772.20	235.79
772.52	235.77
772.85	235.80
773.17	235.68
773.50	235.56
773.82	235.42
774.15	235.25
774.47	235.09
774.80	234.94
775.12	234.88
775.45	234.80
775.77	234.69
776.09	234.64
776.42	234.55
776.74	234.52
777.07	234.42
777.39	234.35
777.72	234.24
778.04	234.15
778.36	234.05
778.69	233.93
779.01	233.86
779.33	233.72
779.66	233.49
779.98	233.41
780.31	233.37
780.63	233.31
780.95	233.27
781.28	233.21
781.60	233.17
781.92	233.10
782.25	233.04
782.57	233.01
782.89	232.93
783.22	232.87
783.54	232.78
783.86	232.73
784.19	232.62
784.51	232.58
784.83	232.51
785.16	232.45
785.48	232.39
785.80	232.36
786.12	232.28
786.45	232.27
786.77	232.19
787.09	232.16
