SpectraSuite Data File
++++++++++++++++++++++++++++++++++++
Date: Fri Feb 01 15:58:23 EST 2013
User: group
Dark Spectrum Present: No
Reference Spectrum Present: No
Number of Sampled Component Spectra: 1
Spectrometers: USB2E7196
Integration Time (usec): 35000 (USB2E7196)
Spectra Averaged: 100 (USB2E7196)
Boxcar Smoothing: 10 (USB2E7196)
Correct for Electrical Dark: No (USB2E7196)
Strobe/Lamp Enabled: No (USB2E7196)
Correct for Detector Non-linearity: No (USB2E7196)
Correct for Stray Light: No (USB2E7196)
Number of Pixels in Processed Spectrum: 2048
>>>>>Begin Processed Spectral Data<<<<<
339.09	0.00
339.48	214.80
339.86	216.76
340.24	218.28
340.63	219.16
341.01	222.64
341.39	221.75
341.78	223.10
342.16	224.71
342.54	225.31
342.93	213.49
343.31	224.26
343.69	224.80
344.07	225.22
344.46	225.63
344.84	226.00
345.22	226.20
345.60	226.45
345.99	226.63
346.37	226.74
346.75	226.80
347.13	226.83
347.52	226.88
347.90	226.90
348.28	226.94
348.66	226.98
349.05	226.96
349.43	226.98
349.81	226.97
350.19	227.04
350.57	227.06
350.96	227.16
351.34	227.22
351.72	227.28
352.10	227.38
352.48	227.42
352.87	227.47
353.25	227.52
353.63	227.59
354.01	227.66
354.39	227.74
354.77	227.83
355.15	227.93
355.54	227.99
355.92	228.03
356.30	228.10
356.68	228.22
357.06	228.27
357.44	228.31
357.82	228.37
358.20	228.44
358.58	228.49
358.97	228.52
359.35	228.62
359.73	228.70
360.11	228.76
360.49	228.83
360.87	228.87
361.25	228.94
361.63	229.00
362.01	229.03
362.39	229.07
362.77	229.11
363.15	229.13
363.53	229.16
363.91	229.18
364.29	229.16
364.67	229.11
365.05	229.14
365.43	229.16
365.81	229.18
366.19	229.20
366.57	229.26
366.95	229.28
367.33	229.24
367.71	229.24
368.09	229.23
368.47	229.22
368.85	229.19
369.23	229.18
369.61	229.14
369.99	229.14
370.37	229.12
370.75	229.12
371.13	229.06
371.51	228.99
371.89	228.94
372.27	228.93
372.65	228.86
373.03	228.80
373.41	228.74
373.78	228.66
374.16	228.56
374.54	228.45
374.92	228.32
375.30	228.27
375.68	228.19
376.06	228.15
376.44	228.07
376.82	228.01
377.19	227.92
377.57	227.87
377.95	227.78
378.33	227.67
378.71	227.53
379.09	227.48
379.47	227.42
379.84	227.34
380.22	227.27
380.60	227.22
380.98	227.17
381.36	227.07
381.73	226.99
382.11	226.95
382.49	226.89
382.87	226.87
383.25	226.81
383.62	226.87
384.00	226.75
384.38	226.71
384.76	226.69
385.13	226.69
385.51	226.59
385.89	226.54
386.27	226.50
386.64	226.50
387.02	226.45
387.40	226.41
387.78	226.41
388.15	226.37
388.53	226.33
388.91	226.26
389.29	226.26
389.66	226.26
390.04	226.26
390.42	226.29
390.79	226.28
391.17	226.27
391.55	226.15
391.92	226.17
392.30	226.17
392.68	226.15
393.05	226.14
393.43	226.16
393.81	226.18
394.18	226.20
394.56	226.18
394.94	226.22
395.31	226.25
395.69	226.31
396.06	226.35
396.44	226.37
396.82	226.45
397.19	226.50
397.57	226.53
397.95	226.57
398.32	226.57
398.70	226.64
399.07	226.70
399.45	226.72
399.82	226.78
400.20	226.85
400.58	226.94
400.95	226.96
401.33	227.05
401.70	227.20
402.08	227.29
402.45	227.41
402.83	227.53
403.20	227.63
403.58	227.68
403.95	227.83
404.33	227.98
404.71	228.06
405.08	228.28
405.46	228.43
405.83	228.58
406.21	228.75
406.58	228.92
406.96	229.11
407.33	229.31
407.70	229.48
408.08	229.74
408.45	229.94
408.83	230.17
409.20	230.37
409.58	230.51
409.95	230.76
410.33	231.03
410.70	231.26
411.08	231.55
411.45	231.88
411.82	232.16
412.20	232.49
412.57	232.92
412.95	233.18
413.32	233.58
413.69	233.97
414.07	234.39
414.44	234.83
414.82	235.30
415.19	235.86
415.56	236.45
415.94	236.98
416.31	237.61
416.68	238.24
417.06	238.98
417.43	239.71
417.81	240.48
418.18	241.25
418.55	242.10
418.93	243.00
419.30	243.88
419.67	244.83
420.04	245.79
420.42	246.81
420.79	248.02
421.16	249.16
421.54	250.36
421.91	251.60
422.28	252.82
422.66	254.14
423.03	255.47
423.40	256.79
423.77	258.19
424.15	259.64
424.52	261.13
424.89	262.72
425.26	264.21
425.64	265.68
426.01	267.29
426.38	268.90
426.75	270.56
427.13	272.31
427.50	274.12
427.87	276.02
428.24	277.84
428.61	279.56
428.99	281.51
429.36	283.64
429.73	285.71
430.10	287.76
430.47	289.84
430.85	291.95
431.22	294.20
431.59	296.60
431.96	298.81
432.33	301.32
432.70	303.74
433.08	306.60
433.45	309.21
433.82	311.82
434.19	314.75
434.56	317.56
434.93	320.18
435.30	322.79
435.68	325.67
436.05	328.51
436.42	331.31
436.79	333.84
437.16	336.50
437.53	339.30
437.90	342.13
438.27	344.83
438.64	347.64
439.01	350.17
439.38	352.37
439.75	354.59
440.13	357.07
440.50	359.39
440.87	361.21
441.24	363.17
441.61	365.30
441.98	366.77
442.35	368.61
442.72	370.48
443.09	372.30
443.46	373.28
443.83	373.90
444.20	374.39
444.57	375.21
444.94	375.49
445.31	375.78
445.68	376.13
446.05	376.18
446.42	375.80
446.79	375.42
447.16	374.96
447.53	374.57
447.90	373.37
448.27	372.18
448.64	370.62
449.01	369.49
449.37	367.54
449.74	365.67
450.11	363.37
450.48	360.90
450.85	358.34
451.22	356.17
451.59	354.11
451.96	352.17
452.33	349.53
452.70	347.19
453.07	344.41
453.43	341.49
453.80	338.78
454.17	336.11
454.54	333.55
454.91	330.89
455.28	328.24
455.65	325.78
456.02	323.32
456.38	321.14
456.75	318.45
457.12	316.15
457.49	313.92
457.86	311.76
458.23	309.88
458.59	307.87
458.96	305.80
459.33	304.00
459.70	302.13
460.07	300.66
460.43	298.90
460.80	297.31
461.17	295.88
461.54	294.35
461.91	292.94
462.27	291.51
462.64	290.25
463.01	288.90
463.38	287.60
463.74	286.23
464.11	285.08
464.48	284.11
464.85	283.01
465.21	282.12
465.58	281.18
465.95	280.12
466.32	279.20
466.68	278.33
467.05	277.38
467.42	276.49
467.78	275.58
468.15	274.71
468.52	274.01
468.88	273.14
469.25	272.41
469.62	271.80
469.98	271.12
470.35	270.47
470.72	269.87
471.08	269.22
471.45	268.72
471.82	268.18
472.18	267.57
472.55	267.17
472.92	266.68
473.28	266.21
473.65	265.77
474.02	265.32
474.38	264.96
474.75	264.66
475.11	264.32
475.48	264.06
475.85	263.85
476.21	263.65
476.58	263.50
476.94	263.30
477.31	263.13
477.67	262.95
478.04	262.86
478.41	262.83
478.77	262.88
479.14	262.81
479.50	262.85
479.87	262.93
480.23	263.00
480.60	263.08
480.96	263.19
481.33	263.37
481.69	263.57
482.06	263.77
482.42	264.00
482.79	264.27
483.15	264.59
483.52	264.97
483.88	265.31
484.25	265.70
484.61	266.16
484.98	266.61
485.34	267.20
485.71	267.80
486.07	268.39
486.44	268.98
486.80	269.72
487.17	270.41
487.53	271.22
487.90	272.12
488.26	273.06
488.62	274.09
488.99	275.08
489.35	276.13
489.72	277.28
490.08	278.47
490.44	279.74
490.81	281.08
491.17	282.43
491.54	283.91
491.90	285.46
492.26	287.11
492.63	288.87
492.99	290.64
493.36	292.58
493.72	294.60
494.08	296.70
494.45	298.92
494.81	301.30
495.17	303.71
495.54	306.26
495.90	308.96
496.26	311.72
496.63	314.68
496.99	317.80
497.35	321.02
497.72	324.41
498.08	327.87
498.44	331.55
498.80	335.50
499.17	339.52
499.53	343.71
499.89	348.10
500.26	352.65
500.62	357.31
500.98	362.27
501.34	367.38
501.71	372.73
502.07	378.18
502.43	383.83
502.79	389.67
503.16	395.73
503.52	401.96
503.88	408.35
504.24	414.95
504.60	421.81
504.97	428.93
505.33	436.25
505.69	444.07
506.05	451.79
506.41	459.68
506.78	467.88
507.14	476.31
507.50	485.02
507.86	493.97
508.22	503.20
508.59	512.38
508.95	521.98
509.31	531.74
509.67	541.82
510.03	552.04
510.39	562.58
510.75	573.36
511.12	584.33
511.48	595.70
511.84	607.18
512.20	618.70
512.56	630.74
512.92	642.97
513.28	655.22
513.64	667.71
514.00	680.44
514.37	693.35
514.73	706.35
515.09	719.39
515.45	732.72
515.81	746.36
516.17	760.34
516.53	774.41
516.89	788.64
517.25	802.79
517.61	817.26
517.97	831.68
518.33	846.08
518.69	860.86
519.05	875.79
519.41	890.97
519.77	906.50
520.13	921.89
520.49	937.20
520.85	952.62
521.21	968.35
521.57	984.54
521.93	1000.32
522.29	1016.70
522.65	1032.84
523.01	1048.94
523.37	1064.72
523.73	1080.90
524.09	1096.89
524.45	1113.09
524.81	1129.78
525.17	1146.63
525.53	1163.54
525.89	1180.51
526.25	1197.23
526.61	1213.60
526.97	1230.28
527.33	1246.68
527.68	1263.21
528.04	1279.70
528.40	1296.19
528.76	1313.14
529.12	1329.76
529.48	1346.57
529.84	1362.63
530.20	1379.34
530.56	1396.42
530.91	1414.04
531.27	1430.64
531.63	1447.12
531.99	1463.69
532.35	1479.48
532.71	1495.26
533.07	1511.43
533.42	1527.22
533.78	1543.31
534.14	1559.54
534.50	1574.96
534.86	1590.92
535.21	1606.26
535.57	1622.20
535.93	1637.79
536.29	1652.60
536.65	1667.62
537.00	1682.35
537.36	1697.66
537.72	1712.08
538.08	1726.47
538.44	1740.10
538.79	1754.03
539.15	1767.67
539.51	1781.36
539.87	1795.76
540.22	1809.46
540.58	1823.16
540.94	1836.43
541.29	1849.24
541.65	1862.00
542.01	1875.01
542.37	1887.26
542.72	1899.36
543.08	1911.09
543.44	1923.53
543.79	1934.71
544.15	1945.71
544.51	1957.25
544.87	1968.11
545.22	1978.89
545.58	1989.00
545.94	1998.69
546.29	2008.52
546.65	2018.40
547.01	2027.75
547.36	2036.44
547.72	2044.97
548.07	2052.87
548.43	2061.08
548.79	2069.27
549.14	2076.66
549.50	2084.13
549.86	2091.78
550.21	2099.28
550.57	2106.44
550.92	2112.85
551.28	2119.99
551.64	2126.91
551.99	2133.39
552.35	2139.61
552.70	2145.75
553.06	2151.73
553.41	2158.13
553.77	2164.12
554.13	2170.11
554.48	2176.29
554.84	2181.72
555.19	2186.96
555.55	2192.06
555.90	2196.55
556.26	2201.21
556.61	2206.06
556.97	2210.17
557.32	2214.38
557.68	2218.34
558.03	2222.59
558.39	2226.29
558.74	2230.95
559.10	2234.74
559.45	2238.51
559.81	2242.77
560.16	2246.63
560.52	2249.87
560.87	2253.28
561.23	2256.03
561.58	2259.11
561.94	2261.55
562.29	2263.89
562.64	2266.43
563.00	2268.99
563.35	2272.43
563.71	2275.62
564.06	2278.86
564.42	2281.72
564.77	2284.08
565.12	2286.42
565.48	2288.28
565.83	2290.21
566.19	2291.29
566.54	2292.31
566.89	2293.28
567.25	2293.79
567.60	2295.19
567.96	2296.89
568.31	2297.80
568.66	2298.78
569.02	2299.21
569.37	2299.49
569.72	2300.38
570.08	2300.58
570.43	2300.61
570.78	2300.04
571.14	2298.52
571.49	2297.01
571.84	2296.79
572.20	2295.67
572.55	2294.72
572.90	2293.09
573.26	2291.67
573.61	2290.11
573.96	2288.39
574.31	2285.50
574.67	2282.68
575.02	2278.92
575.37	2275.51
575.72	2271.68
576.08	2268.55
576.43	2265.50
576.78	2261.78
577.13	2258.69
577.49	2255.73
577.84	2252.42
578.19	2248.81
578.54	2245.11
578.90	2240.94
579.25	2235.39
579.60	2230.33
579.95	2225.27
580.30	2220.31
580.66	2215.12
581.01	2210.11
581.36	2205.19
581.71	2201.02
582.06	2196.42
582.42	2192.06
582.77	2186.76
583.12	2182.19
583.47	2177.32
583.82	2172.13
584.17	2167.02
584.53	2161.33
584.88	2155.56
585.23	2149.69
585.58	2144.15
585.93	2138.87
586.28	2134.03
586.63	2129.02
586.98	2124.00
587.34	2119.30
587.69	2114.56
588.04	2109.35
588.39	2103.79
588.74	2097.27
589.09	2091.17
589.44	2084.39
589.79	2078.38
590.14	2073.00
590.49	2066.42
590.84	2060.11
591.19	2054.09
591.54	2047.54
591.89	2040.24
592.25	2033.48
592.60	2026.30
592.95	2018.67
593.30	2011.18
593.65	2003.70
594.00	1996.60
594.35	1989.52
594.70	1981.54
595.05	1974.31
595.40	1967.02
595.75	1959.54
596.10	1953.33
596.45	1946.57
596.80	1940.41
597.15	1933.79
597.50	1926.51
597.85	1920.11
598.19	1913.44
598.54	1906.16
598.89	1899.56
599.24	1893.74
599.59	1887.06
599.94	1880.96
600.29	1874.74
600.64	1868.29
600.99	1860.87
601.34	1854.08
601.69	1847.22
602.04	1840.30
602.39	1832.98
602.74	1826.06
603.08	1819.28
603.43	1812.52
603.78	1805.20
604.13	1798.09
604.48	1790.70
604.83	1783.97
605.18	1776.99
605.53	1768.85
605.87	1761.11
606.22	1753.84
606.57	1745.92
606.92	1738.59
607.27	1731.34
607.62	1724.38
607.96	1717.00
608.31	1710.25
608.66	1702.73
609.01	1694.94
609.36	1687.36
609.70	1679.17
610.05	1671.20
610.40	1663.48
610.75	1655.19
611.10	1647.47
611.44	1638.94
611.79	1631.07
612.14	1622.27
612.49	1613.10
612.83	1604.79
613.18	1596.47
613.53	1588.43
613.88	1579.92
614.22	1571.65
614.57	1563.04
614.92	1554.96
615.27	1547.27
615.61	1539.03
615.96	1530.93
616.31	1523.52
616.65	1516.15
617.00	1508.71
617.35	1501.12
617.70	1492.82
618.04	1484.33
618.39	1476.19
618.74	1468.67
619.08	1460.30
619.43	1452.75
619.78	1445.84
620.12	1438.68
620.47	1431.27
620.82	1423.14
621.16	1415.70
621.51	1408.16
621.85	1400.52
622.20	1391.86
622.55	1383.70
622.89	1375.78
623.24	1368.19
623.59	1360.69
623.93	1353.18
624.28	1345.89
624.62	1338.29
624.97	1331.15
625.32	1324.35
625.66	1317.37
626.01	1310.15
626.35	1302.66
626.70	1294.94
627.04	1287.17
627.39	1279.47
627.73	1272.06
628.08	1265.11
628.43	1257.87
628.77	1250.49
629.12	1242.98
629.46	1236.01
629.81	1228.53
630.15	1221.34
630.50	1213.90
630.84	1205.64
631.19	1197.73
631.53	1190.28
631.88	1182.78
632.22	1175.07
632.57	1167.76
632.91	1160.25
633.26	1152.86
633.60	1145.66
633.95	1138.59
634.29	1131.68
634.64	1124.97
634.98	1117.55
635.32	1110.47
635.67	1103.84
636.01	1097.16
636.36	1090.37
636.70	1083.78
637.05	1077.24
637.39	1070.77
637.73	1064.16
638.08	1058.35
638.42	1052.35
638.77	1045.86
639.11	1039.20
639.45	1032.94
639.80	1026.34
640.14	1019.87
640.49	1013.28
640.83	1006.82
641.17	1000.56
641.52	994.10
641.86	987.72
642.20	981.85
642.55	975.49
642.89	968.98
643.23	962.46
643.58	956.69
643.92	950.53
644.26	944.41
644.61	938.43
644.95	932.48
645.29	925.89
645.64	919.14
645.98	912.73
646.32	906.90
646.66	900.81
647.01	895.02
647.35	889.29
647.69	883.46
648.04	877.99
648.38	872.17
648.72	866.18
649.06	860.08
649.41	854.24
649.75	848.26
650.09	842.32
650.43	836.48
650.78	830.19
651.12	824.16
651.46	818.44
651.80	812.60
652.14	807.24
652.49	801.83
652.83	796.71
653.17	791.07
653.51	785.35
653.85	779.91
654.20	774.28
654.54	768.23
654.88	762.49
655.22	756.61
655.56	750.92
655.90	745.56
656.25	740.35
656.59	734.98
656.93	729.85
657.27	724.67
657.61	719.22
657.95	714.23
658.29	709.18
658.64	703.99
658.98	698.74
659.32	693.24
659.66	688.02
660.00	682.67
660.34	677.77
660.68	672.85
661.02	667.79
661.36	663.03
661.70	658.57
662.05	654.25
662.39	649.93
662.73	645.43
663.07	641.00
663.41	636.53
663.75	632.09
664.09	627.53
664.43	623.16
664.77	619.08
665.11	614.86
665.45	610.73
665.79	606.59
666.13	602.44
666.47	598.37
666.81	594.21
667.15	590.13
667.49	586.21
667.83	582.45
668.17	578.58
668.51	574.48
668.85	570.44
669.19	566.65
669.53	562.76
669.87	558.90
670.21	555.16
670.55	551.48
670.89	548.04
671.23	544.58
671.57	541.06
671.91	537.53
672.25	534.06
672.58	530.56
672.92	527.19
673.26	524.03
673.60	520.86
673.94	517.75
674.28	514.88
674.62	511.89
674.96	508.73
675.30	505.78
675.64	502.85
675.97	500.07
676.31	497.18
676.65	494.24
676.99	491.53
677.33	488.77
677.67	485.97
678.01	482.92
678.34	480.02
678.68	477.21
679.02	474.38
679.36	471.58
679.70	468.85
680.04	466.11
680.37	463.23
680.71	460.47
681.05	457.85
681.39	455.05
681.73	452.39
682.06	449.91
682.40	447.41
682.74	444.93
683.08	442.39
683.42	439.76
683.75	437.26
684.09	434.70
684.43	432.20
684.77	429.76
685.10	427.44
685.44	425.12
685.78	422.79
686.12	420.56
686.45	418.28
686.79	416.01
687.13	413.80
687.46	411.67
687.80	409.51
688.14	407.34
688.48	405.31
688.81	403.12
689.15	400.93
689.49	398.77
689.82	396.65
690.16	394.56
690.50	392.62
690.83	390.73
691.17	388.78
691.51	386.91
691.84	385.03
692.18	383.09
692.52	381.08
692.85	379.12
693.19	377.24
693.52	375.41
693.86	373.57
694.20	371.81
694.53	369.99
694.87	368.13
695.21	366.35
695.54	364.54
695.88	362.84
696.21	361.17
696.55	359.49
696.88	357.88
697.22	356.29
697.56	354.69
697.89	353.01
698.23	351.35
698.56	349.68
698.90	348.13
699.23	346.50
699.57	345.00
699.90	343.49
700.24	341.99
700.58	340.44
700.91	338.94
701.25	337.48
701.58	336.12
701.92	334.74
702.25	333.34
702.59	331.98
702.92	330.59
703.26	329.22
703.59	327.92
703.93	326.71
704.26	325.42
704.60	324.12
704.93	322.87
705.26	321.67
705.60	320.51
705.93	319.32
706.27	318.28
706.60	317.16
706.94	316.10
707.27	314.93
707.61	313.91
707.94	312.86
708.27	311.74
708.61	310.62
708.94	309.67
709.28	308.68
709.61	307.73
709.94	306.80
710.28	305.80
710.61	304.88
710.95	303.79
711.28	302.91
711.61	301.94
711.95	301.00
712.28	300.05
712.61	299.04
712.95	298.12
713.28	297.22
713.61	296.33
713.95	295.41
714.28	294.55
714.61	293.63
714.95	292.87
715.28	292.02
715.61	291.18
715.95	290.29
716.28	289.40
716.61	288.61
716.95	287.79
717.28	287.08
717.61	286.29
717.94	285.59
718.28	284.77
718.61	284.09
718.94	283.41
719.27	282.78
719.61	282.16
719.94	281.49
720.27	280.79
720.60	280.14
720.94	279.55
721.27	279.00
721.60	278.44
721.93	277.81
722.27	277.28
722.60	276.75
722.93	276.18
723.26	275.65
723.59	275.08
723.93	274.54
724.26	273.95
724.59	273.43
724.92	272.90
725.25	272.41
725.59	271.88
725.92	271.37
726.25	270.87
726.58	270.36
726.91	269.88
727.24	269.39
727.57	268.90
727.91	268.34
728.24	267.88
728.57	267.37
728.90	266.89
729.23	266.39
729.56	265.92
729.89	265.46
730.22	264.99
730.55	264.52
730.89	264.08
731.22	263.61
731.55	263.16
731.88	262.72
732.21	262.27
732.54	261.81
732.87	261.39
733.20	260.97
733.53	260.62
733.86	260.22
734.19	259.83
734.52	259.47
734.85	259.19
735.18	258.74
735.51	258.41
735.84	258.04
736.17	257.70
736.50	257.31
736.83	257.07
737.16	256.75
737.49	256.39
737.82	256.03
738.15	255.69
738.48	255.35
738.81	255.03
739.14	254.72
739.47	254.39
739.80	254.07
740.13	253.74
740.46	253.37
740.79	253.04
741.12	252.74
741.45	252.44
741.78	252.06
742.11	251.78
742.44	251.45
742.77	251.16
743.10	250.84
743.43	250.56
743.75	250.16
744.08	250.02
744.41	249.74
744.74	249.49
745.07	249.22
745.40	248.95
745.73	248.70
746.06	248.38
746.39	248.13
746.71	247.87
747.04	247.61
747.37	247.40
747.70	247.16
748.03	246.89
748.36	246.63
748.68	246.40
749.01	246.18
749.34	245.93
749.67	245.70
750.00	245.49
750.33	245.31
750.65	245.10
750.98	244.71
751.31	244.47
751.64	244.23
751.97	244.07
752.29	243.85
752.62	243.61
752.95	243.41
753.28	243.17
753.60	242.93
753.93	242.74
754.26	242.53
754.59	242.31
754.91	242.12
755.24	241.95
755.57	241.75
755.90	241.54
756.22	241.36
756.55	241.15
756.88	240.95
757.20	240.70
757.53	240.50
757.86	240.35
758.19	240.21
758.51	240.06
758.84	239.83
759.17	239.67
759.49	239.51
759.82	239.38
760.15	239.26
760.47	239.13
760.80	238.98
761.13	238.83
761.45	238.67
761.78	238.51
762.11	238.37
762.43	238.21
762.76	238.08
763.08	237.92
763.41	237.82
763.74	237.70
764.06	237.57
764.39	237.41
764.71	237.28
765.04	237.13
765.37	237.00
765.69	236.89
766.02	236.79
766.34	236.65
766.67	236.51
767.00	236.41
767.32	236.32
767.65	236.26
767.97	236.13
768.30	236.05
768.62	235.93
768.95	235.79
769.27	235.70
769.60	235.62
769.92	235.50
770.25	235.36
770.57	235.26
770.90	235.15
771.22	235.08
771.55	235.02
771.87	234.97
772.20	234.87
772.52	234.86
772.85	234.87
773.17	234.80
773.50	234.70
773.82	234.60
774.15	234.49
774.47	234.37
774.80	234.30
775.12	234.22
775.45	234.16
775.77	234.09
776.09	234.00
776.42	233.91
776.74	233.90
777.07	233.83
777.39	233.76
777.72	233.71
778.04	233.67
778.36	233.57
778.69	233.47
779.01	233.37
779.33	233.21
779.66	233.04
779.98	232.98
780.31	232.93
780.63	232.93
780.95	232.90
781.28	232.84
781.60	232.77
781.92	232.71
782.25	232.65
782.57	232.60
782.89	232.57
783.22	232.51
783.54	232.42
783.86	232.39
784.19	232.34
784.51	232.30
784.83	232.23
785.16	232.16
785.48	232.12
785.80	232.07
786.12	232.04
786.45	231.95
786.77	231.90
787.09	231.85
