SpectraSuite Data File
++++++++++++++++++++++++++++++++++++
Date: Fri Feb 01 18:00:40 EST 2013
User: group
Dark Spectrum Present: No
Reference Spectrum Present: No
Number of Sampled Component Spectra: 1
Spectrometers: USB2E7196
Integration Time (usec): 35000 (USB2E7196)
Spectra Averaged: 100 (USB2E7196)
Boxcar Smoothing: 10 (USB2E7196)
Correct for Electrical Dark: No (USB2E7196)
Strobe/Lamp Enabled: No (USB2E7196)
Correct for Detector Non-linearity: No (USB2E7196)
Correct for Stray Light: No (USB2E7196)
Number of Pixels in Processed Spectrum: 2048
>>>>>Begin Processed Spectral Data<<<<<
339.09	0.00
339.48	213.50
339.86	214.32
340.24	215.99
340.63	217.65
341.01	220.59
341.39	219.67
341.78	221.87
342.16	222.99
342.54	223.12
342.93	211.61
343.31	222.33
343.69	222.86
344.07	223.35
344.46	223.78
344.84	224.15
345.22	224.37
345.60	224.64
345.99	224.79
346.37	224.91
346.75	225.02
347.13	225.06
347.52	225.08
347.90	225.13
348.28	225.19
348.66	225.26
349.05	225.22
349.43	225.29
349.81	225.34
350.19	225.36
350.57	225.43
350.96	225.48
351.34	225.52
351.72	225.59
352.10	225.67
352.48	225.74
352.87	225.78
353.25	225.85
353.63	225.92
354.01	225.99
354.39	226.06
354.77	226.11
355.15	226.17
355.54	226.23
355.92	226.24
356.30	226.28
356.68	226.39
357.06	226.47
357.44	226.49
357.82	226.54
358.20	226.58
358.58	226.62
358.97	226.69
359.35	226.76
359.73	226.83
360.11	226.89
360.49	226.92
360.87	226.95
361.25	226.98
361.63	227.03
362.01	227.06
362.39	227.06
362.77	227.08
363.15	227.11
363.53	227.15
363.91	227.22
364.29	227.26
364.67	227.19
365.05	227.18
365.43	227.18
365.81	227.19
366.19	227.27
366.57	227.32
366.95	227.30
367.33	227.27
367.71	227.29
368.09	227.29
368.47	227.28
368.85	227.29
369.23	227.32
369.61	227.25
369.99	227.27
370.37	227.28
370.75	227.33
371.13	227.31
371.51	227.27
371.89	227.28
372.27	227.25
372.65	227.21
373.03	227.18
373.41	227.14
373.78	227.10
374.16	226.98
374.54	226.91
374.92	226.86
375.30	226.81
375.68	226.70
376.06	226.62
376.44	226.57
376.82	226.52
377.19	226.41
377.57	226.40
377.95	226.31
378.33	226.24
378.71	226.11
379.09	226.04
379.47	226.00
379.84	225.90
380.22	225.83
380.60	225.76
380.98	225.72
381.36	225.69
381.73	225.60
382.11	225.59
382.49	225.53
382.87	225.46
383.25	225.39
383.62	225.47
384.00	225.40
384.38	225.37
384.76	225.32
385.13	225.34
385.51	225.26
385.89	225.20
386.27	225.18
386.64	225.15
387.02	225.10
387.40	225.05
387.78	225.03
388.15	224.99
388.53	224.95
388.91	224.90
389.29	224.84
389.66	224.83
390.04	224.76
390.42	224.76
390.79	224.74
391.17	224.76
391.55	224.63
391.92	224.62
392.30	224.61
392.68	224.62
393.05	224.58
393.43	224.58
393.81	224.56
394.18	224.52
394.56	224.55
394.94	224.57
395.31	224.58
395.69	224.61
396.06	224.65
396.44	224.69
396.82	224.71
397.19	224.81
397.57	224.83
397.95	224.91
398.32	224.93
398.70	225.01
399.07	225.07
399.45	225.13
399.82	225.17
400.20	225.25
400.58	225.29
400.95	225.34
401.33	225.44
401.70	225.63
402.08	225.75
402.45	225.83
402.83	225.94
403.20	226.05
403.58	226.15
403.95	226.27
404.33	226.40
404.71	226.53
405.08	226.72
405.46	226.87
405.83	227.02
406.21	227.21
406.58	227.38
406.96	227.55
407.33	227.75
407.70	228.00
408.08	228.28
408.45	228.52
408.83	228.79
409.20	229.04
409.58	229.25
409.95	229.57
410.33	229.88
410.70	230.22
411.08	230.58
411.45	230.95
411.82	231.35
412.20	231.80
412.57	232.32
412.95	232.72
413.32	233.23
413.69	233.76
414.07	234.34
414.44	234.95
414.82	235.58
415.19	236.28
415.56	237.03
415.94	237.78
416.31	238.66
416.68	239.50
417.06	240.45
417.43	241.35
417.81	242.37
418.18	243.41
418.55	244.53
418.93	245.71
419.30	246.91
419.67	248.14
420.04	249.40
420.42	250.79
420.79	252.34
421.16	253.95
421.54	255.53
421.91	257.15
422.28	258.84
422.66	260.66
423.03	262.40
423.40	264.15
423.77	266.05
424.15	267.96
424.52	269.93
424.89	272.09
425.26	274.22
425.64	276.19
426.01	278.38
426.38	280.63
426.75	282.90
427.13	285.26
427.50	287.74
427.87	290.31
428.24	292.79
428.61	295.20
428.99	297.79
429.36	300.66
429.73	303.43
430.10	306.19
430.47	308.99
430.85	311.88
431.22	314.95
431.59	318.15
431.96	321.16
432.33	324.55
432.70	327.78
433.08	331.54
433.45	335.10
433.82	338.58
434.19	342.48
434.56	346.25
434.93	349.85
435.30	353.41
435.68	357.33
436.05	361.15
436.42	364.89
436.79	368.28
437.16	371.96
437.53	375.80
437.90	379.62
438.27	383.30
438.64	387.13
439.01	390.58
439.38	393.64
439.75	396.61
440.13	400.01
440.50	403.16
440.87	405.72
441.24	408.36
441.61	411.31
441.98	413.33
442.35	415.83
442.72	418.38
443.09	420.81
443.46	422.16
443.83	423.03
444.20	423.75
444.57	424.90
444.94	425.32
445.31	425.78
445.68	426.22
446.05	426.37
446.42	425.89
446.79	425.41
447.16	424.82
447.53	424.39
447.90	422.81
448.27	421.26
448.64	419.12
449.01	417.58
449.37	414.92
449.74	412.41
450.11	409.30
450.48	405.96
450.85	402.56
451.22	399.64
451.59	396.87
451.96	394.28
452.33	390.78
452.70	387.58
453.07	383.74
453.43	379.85
453.80	376.10
454.17	372.49
454.54	369.02
454.91	365.32
455.28	361.67
455.65	358.32
456.02	354.96
456.38	352.02
456.75	348.40
457.12	345.37
457.49	342.32
457.86	339.45
458.23	336.86
458.59	334.06
458.96	331.21
459.33	328.64
459.70	326.05
460.07	324.02
460.43	321.64
460.80	319.41
461.17	317.39
461.54	315.30
461.91	313.33
462.27	311.31
462.64	309.60
463.01	307.74
463.38	305.92
463.74	304.08
464.11	302.51
464.48	301.10
464.85	299.59
465.21	298.39
465.58	297.09
465.95	295.62
466.32	294.34
466.68	293.11
467.05	291.93
467.42	290.73
467.78	289.42
468.15	288.21
468.52	287.33
468.88	286.17
469.25	285.14
469.62	284.28
469.98	283.35
470.35	282.50
470.72	281.71
471.08	280.82
471.45	280.07
471.82	279.28
472.18	278.44
472.55	277.79
472.92	277.05
473.28	276.41
473.65	275.76
474.02	275.16
474.38	274.64
474.75	274.18
475.11	273.72
475.48	273.34
475.85	273.00
476.21	272.64
476.58	272.36
476.94	272.14
477.31	271.85
477.67	271.63
478.04	271.44
478.41	271.33
478.77	271.31
479.14	271.16
479.50	271.15
479.87	271.18
480.23	271.23
480.60	271.25
480.96	271.29
481.33	271.46
481.69	271.64
482.06	271.81
482.42	271.94
482.79	272.14
483.15	272.46
483.52	272.82
483.88	273.14
484.25	273.53
484.61	273.91
484.98	274.39
485.34	274.92
485.71	275.47
486.07	276.09
486.44	276.67
486.80	277.42
487.17	278.11
487.53	278.96
487.90	279.78
488.26	280.70
488.62	281.73
488.99	282.75
489.35	283.78
489.72	284.95
490.08	286.23
490.44	287.51
490.81	288.88
491.17	290.27
491.54	291.84
491.90	293.43
492.26	295.15
492.63	296.92
492.99	298.79
493.36	300.77
493.72	302.90
494.08	305.12
494.45	307.45
494.81	309.91
495.17	312.47
495.54	315.23
495.90	318.09
496.26	321.06
496.63	324.13
496.99	327.46
497.35	330.90
497.72	334.48
498.08	338.19
498.44	342.05
498.80	346.22
499.17	350.50
499.53	354.93
499.89	359.60
500.26	364.38
500.62	369.31
500.98	374.60
501.34	379.96
501.71	385.58
502.07	391.35
502.43	397.37
502.79	403.54
503.16	409.97
503.52	416.64
503.88	423.42
504.24	430.44
504.60	437.77
504.97	445.38
505.33	453.13
505.69	461.38
506.05	469.68
506.41	478.06
506.78	486.78
507.14	495.76
507.50	505.01
507.86	514.58
508.22	524.43
508.59	534.25
508.95	544.46
509.31	554.93
509.67	565.74
510.03	576.69
510.39	587.99
510.75	599.56
511.12	611.14
511.48	623.26
511.84	635.55
512.20	647.84
512.56	660.59
512.92	673.66
513.28	686.85
513.64	700.32
514.00	714.01
514.37	727.87
514.73	742.01
515.09	756.07
515.45	770.43
515.81	784.99
516.17	800.05
516.53	815.31
516.89	830.77
517.25	846.12
517.61	861.71
517.97	877.36
518.33	892.93
518.69	909.09
519.05	925.31
519.41	941.74
519.77	958.67
520.13	975.55
520.49	992.34
520.85	1009.13
521.21	1026.13
521.57	1043.87
521.93	1061.11
522.29	1078.86
522.65	1096.68
523.01	1114.49
523.37	1132.15
523.73	1150.01
524.09	1167.68
524.45	1185.48
524.81	1203.74
525.17	1222.17
525.53	1240.74
525.89	1259.46
526.25	1277.96
526.61	1296.19
526.97	1314.74
527.33	1332.98
527.68	1351.34
528.04	1369.74
528.40	1388.17
528.76	1407.25
529.12	1425.59
529.48	1444.36
529.84	1462.24
530.20	1480.83
530.56	1499.77
530.91	1519.25
531.27	1538.00
531.63	1556.44
531.99	1575.20
532.35	1593.29
532.71	1611.31
533.07	1629.68
533.42	1647.58
533.78	1665.81
534.14	1684.16
534.50	1701.63
534.86	1719.67
535.21	1737.03
535.57	1755.08
535.93	1772.86
536.29	1789.75
536.65	1807.11
537.00	1824.17
537.36	1841.78
537.72	1858.42
538.08	1875.13
538.44	1891.01
538.79	1906.99
539.15	1922.77
539.51	1938.58
539.87	1955.10
540.22	1970.99
540.58	1987.11
540.94	2002.82
541.29	2017.86
541.65	2032.68
542.01	2048.11
542.37	2062.64
542.72	2077.30
543.08	2091.30
543.44	2105.87
543.79	2119.38
544.15	2132.45
544.51	2146.10
544.87	2159.09
545.22	2172.17
545.58	2184.56
545.94	2196.57
546.29	2208.65
546.65	2220.79
547.01	2232.29
547.36	2243.16
547.72	2253.83
548.07	2263.63
548.43	2273.73
548.79	2283.85
549.14	2293.44
549.50	2302.84
549.86	2312.61
550.21	2321.91
550.57	2330.95
550.92	2339.48
551.28	2348.38
551.64	2357.60
551.99	2366.12
552.35	2374.40
552.70	2382.49
553.06	2390.39
553.41	2398.69
553.77	2406.63
554.13	2414.53
554.48	2422.53
554.84	2429.90
555.19	2436.98
555.55	2444.05
555.90	2450.19
556.26	2456.94
556.61	2463.26
556.97	2469.45
557.32	2475.13
557.68	2480.94
558.03	2486.98
558.39	2492.21
558.74	2498.51
559.10	2503.95
559.45	2509.19
559.81	2514.92
560.16	2520.30
560.52	2525.02
560.87	2529.91
561.23	2533.88
561.58	2538.20
561.94	2542.02
562.29	2545.55
562.64	2549.60
563.00	2553.41
563.35	2558.43
563.71	2562.80
564.06	2567.57
564.42	2571.59
564.77	2575.44
565.12	2579.00
565.48	2582.26
565.83	2585.45
566.19	2588.05
566.54	2589.81
566.89	2592.06
567.25	2593.84
567.60	2596.12
567.96	2598.81
568.31	2600.62
568.66	2602.86
569.02	2604.56
569.37	2605.70
569.72	2607.65
570.08	2608.62
570.43	2609.57
570.78	2609.71
571.14	2608.80
571.49	2607.98
571.84	2608.32
572.20	2607.85
572.55	2607.33
572.90	2606.08
573.26	2605.15
573.61	2603.73
573.96	2602.63
574.31	2599.87
574.67	2597.12
575.02	2593.80
575.37	2590.60
575.72	2586.94
576.08	2583.48
576.43	2580.09
576.78	2576.63
577.13	2573.47
577.49	2570.30
577.84	2566.76
578.19	2562.92
578.54	2559.43
578.90	2555.31
579.25	2549.52
579.60	2544.42
579.95	2539.16
580.30	2533.84
580.66	2528.39
581.01	2523.16
581.36	2517.80
581.71	2513.63
582.06	2508.93
582.42	2504.20
582.77	2498.64
583.12	2493.70
583.47	2488.86
583.82	2483.67
584.17	2477.97
584.53	2472.03
584.88	2466.09
585.23	2459.93
585.58	2454.03
585.93	2447.82
586.28	2442.48
586.63	2436.95
586.98	2431.34
587.34	2426.06
587.69	2420.70
588.04	2415.05
588.39	2408.81
588.74	2401.61
589.09	2394.64
589.44	2387.13
589.79	2380.17
590.14	2373.76
590.49	2366.38
590.84	2359.15
591.19	2352.36
591.54	2345.17
591.89	2337.01
592.25	2329.36
592.60	2321.15
592.95	2312.56
593.30	2304.34
593.65	2295.66
594.00	2287.67
594.35	2279.34
594.70	2270.16
595.05	2262.06
595.40	2253.55
595.75	2245.00
596.10	2237.99
596.45	2230.27
596.80	2223.25
597.15	2215.85
597.50	2207.96
597.85	2200.51
598.19	2192.80
598.54	2184.78
598.89	2177.04
599.24	2170.20
599.59	2162.61
599.94	2155.45
600.29	2148.16
600.64	2140.57
600.99	2132.04
601.34	2124.19
601.69	2116.06
602.04	2108.19
602.39	2099.61
602.74	2091.77
603.08	2084.02
603.43	2076.14
603.78	2067.65
604.13	2059.17
604.48	2050.69
604.83	2042.58
605.18	2034.68
605.53	2025.47
605.87	2016.04
606.22	2007.68
606.57	1998.30
606.92	1989.46
607.27	1981.00
607.62	1972.97
607.96	1964.40
608.31	1956.70
608.66	1947.86
609.01	1939.18
609.36	1930.39
609.70	1921.08
610.05	1911.76
610.40	1902.73
610.75	1893.01
611.10	1884.11
611.44	1874.25
611.79	1864.84
612.14	1854.71
612.49	1843.74
612.83	1833.93
613.18	1824.27
613.53	1814.72
613.88	1804.68
614.22	1795.04
614.57	1784.94
614.92	1775.51
615.27	1766.75
615.61	1756.95
615.96	1747.42
616.31	1738.31
616.65	1729.57
617.00	1720.61
617.35	1711.46
617.70	1701.64
618.04	1691.66
618.39	1681.85
618.74	1672.84
619.08	1663.07
619.43	1654.08
619.78	1645.91
620.12	1637.38
620.47	1628.68
620.82	1618.98
621.16	1610.13
621.51	1601.21
621.85	1592.20
622.20	1582.07
622.55	1572.23
622.89	1563.06
623.24	1553.97
623.59	1545.26
623.93	1536.37
624.28	1527.93
624.62	1519.00
624.97	1510.59
625.32	1502.62
625.66	1494.34
626.01	1485.99
626.35	1477.32
626.70	1468.19
627.04	1459.19
627.39	1450.02
627.73	1441.19
628.08	1433.10
628.43	1424.65
628.77	1416.04
629.12	1407.27
629.46	1398.98
629.81	1390.08
630.15	1381.45
630.50	1372.74
630.84	1363.17
631.19	1353.89
631.53	1344.99
631.88	1336.10
632.22	1327.03
632.57	1318.38
632.91	1309.62
633.26	1300.88
633.60	1292.07
633.95	1283.73
634.29	1275.40
634.64	1267.59
634.98	1258.96
635.32	1250.50
635.67	1242.72
636.01	1234.91
636.36	1226.93
636.70	1219.17
637.05	1211.48
637.39	1203.88
637.73	1196.40
638.08	1189.45
638.42	1182.44
638.77	1174.92
639.11	1167.29
639.45	1159.97
639.80	1152.17
640.14	1144.63
640.49	1136.96
640.83	1129.62
641.17	1122.31
641.52	1114.95
641.86	1107.38
642.20	1100.58
642.55	1093.24
642.89	1085.76
643.23	1078.06
643.58	1071.32
643.92	1064.07
644.26	1057.13
644.61	1050.05
644.95	1043.07
645.29	1035.42
645.64	1027.61
645.98	1020.23
646.32	1013.40
646.66	1006.32
647.01	999.64
647.35	993.05
647.69	986.22
648.04	979.75
648.38	973.09
648.72	966.18
649.06	959.23
649.41	952.39
649.75	945.53
650.09	938.64
650.43	931.91
650.78	924.75
651.12	917.93
651.46	911.28
651.80	904.72
652.14	898.36
652.49	892.13
652.83	886.06
653.17	879.49
653.51	872.87
653.85	866.61
654.20	860.03
654.54	853.05
654.88	846.44
655.22	839.62
655.56	833.04
655.90	826.68
656.25	820.66
656.59	814.40
656.93	808.52
657.27	802.53
657.61	796.29
657.95	790.44
658.29	784.52
658.64	778.40
658.98	772.17
659.32	765.86
659.66	759.85
660.00	753.77
660.34	748.01
660.68	742.31
661.02	736.47
661.36	731.06
661.70	725.79
662.05	720.70
662.39	715.68
662.73	710.46
663.07	705.38
663.41	700.18
663.75	695.02
664.09	689.64
664.43	684.52
664.77	679.71
665.11	674.76
665.45	669.93
665.79	665.24
666.13	660.50
666.47	655.77
666.81	651.05
667.15	646.23
667.49	641.76
667.83	637.30
668.17	632.74
668.51	628.09
668.85	623.47
669.19	619.13
669.53	614.77
669.87	610.37
670.21	606.11
670.55	601.84
670.89	597.82
671.23	593.91
671.57	589.84
671.91	585.83
672.25	581.74
672.58	577.69
672.92	573.67
673.26	570.01
673.60	566.37
673.94	562.72
674.28	559.44
674.62	556.03
674.96	552.52
675.30	549.20
675.64	545.72
675.97	542.51
676.31	539.12
676.65	535.76
676.99	532.57
677.33	529.22
677.67	525.98
678.01	522.58
678.34	519.18
678.68	515.92
679.02	512.69
679.36	509.48
679.70	506.43
680.04	503.35
680.37	500.06
680.71	496.85
681.05	493.85
681.39	490.71
681.73	487.66
682.06	484.75
682.40	481.81
682.74	478.92
683.08	475.99
683.42	473.05
683.75	470.17
684.09	467.21
684.43	464.39
684.77	461.58
685.10	458.85
685.44	456.19
685.78	453.45
686.12	450.79
686.45	448.13
686.79	445.42
687.13	442.88
687.46	440.38
687.80	437.85
688.14	435.23
688.48	432.83
688.81	430.21
689.15	427.73
689.49	425.20
689.82	422.82
690.16	420.34
690.50	417.99
690.83	415.67
691.17	413.38
691.51	411.23
691.84	409.05
692.18	406.80
692.52	404.50
692.85	402.29
693.19	400.12
693.52	397.96
693.86	395.82
694.20	393.70
694.53	391.60
694.87	389.43
695.21	387.40
695.54	385.20
695.88	383.20
696.21	381.16
696.55	379.22
696.88	377.19
697.22	375.27
697.56	373.39
697.89	371.48
698.23	369.62
698.56	367.64
698.90	365.79
699.23	363.87
699.57	362.07
699.90	360.24
700.24	358.42
700.58	356.69
700.91	354.94
701.25	353.23
701.58	351.60
701.92	349.98
702.25	348.33
702.59	346.80
702.92	345.21
703.26	343.70
703.59	342.21
703.93	340.85
704.26	339.40
704.60	337.90
704.93	336.40
705.26	334.98
705.60	333.60
705.93	332.22
706.27	331.01
706.60	329.77
706.94	328.50
707.27	327.18
707.61	325.94
707.94	324.72
708.27	323.44
708.61	322.20
708.94	321.00
709.28	319.85
709.61	318.69
709.94	317.57
710.28	316.35
710.61	315.24
710.95	313.96
711.28	312.88
711.61	311.79
711.95	310.72
712.28	309.62
712.61	308.51
712.95	307.44
713.28	306.40
713.61	305.34
713.95	304.35
714.28	303.38
714.61	302.39
714.95	301.41
715.28	300.48
715.61	299.46
715.95	298.51
716.28	297.51
716.61	296.55
716.95	295.61
717.28	294.76
717.61	293.81
717.94	292.97
718.28	292.05
718.61	291.19
718.94	290.36
719.27	289.60
719.61	288.86
719.94	288.08
720.27	287.26
720.60	286.49
720.94	285.72
721.27	285.01
721.60	284.29
721.93	283.59
722.27	282.91
722.60	282.24
722.93	281.62
723.26	281.01
723.59	280.33
723.93	279.69
724.26	279.03
724.59	278.37
724.92	277.79
725.25	277.22
725.59	276.63
725.92	276.08
726.25	275.47
726.58	274.91
726.91	274.34
727.24	273.78
727.57	273.27
727.91	272.67
728.24	272.12
728.57	271.59
728.90	271.09
729.23	270.51
729.56	270.05
729.89	269.48
730.22	268.91
730.55	268.36
730.89	267.89
731.22	267.41
731.55	266.94
731.88	266.42
732.21	265.94
732.54	265.45
732.87	264.93
733.20	264.42
733.53	263.97
733.86	263.53
734.19	263.05
734.52	262.58
734.85	262.24
735.18	261.77
735.51	261.34
735.84	260.88
736.17	260.45
736.50	259.98
736.83	259.69
737.16	259.35
737.49	259.01
737.82	258.58
738.15	258.16
738.48	257.75
738.81	257.34
739.14	256.93
739.47	256.57
739.80	256.22
740.13	255.90
740.46	255.50
740.79	255.11
741.12	254.77
741.45	254.40
741.78	253.96
742.11	253.62
742.44	253.23
742.77	252.91
743.10	252.56
743.43	252.22
743.75	251.79
744.08	251.58
744.41	251.22
744.74	250.89
745.07	250.56
745.40	250.27
745.73	250.02
746.06	249.72
746.39	249.43
746.71	249.08
747.04	248.75
747.37	248.44
747.70	248.15
748.03	247.85
748.36	247.58
748.68	247.32
749.01	247.07
749.34	246.83
749.67	246.57
750.00	246.31
750.33	246.10
750.65	245.84
750.98	245.45
751.31	245.22
751.64	244.97
751.97	244.79
752.29	244.53
752.62	244.25
752.95	243.99
753.28	243.75
753.60	243.52
753.93	243.30
754.26	243.06
754.59	242.81
754.91	242.56
755.24	242.34
755.57	242.13
755.90	241.92
756.22	241.70
756.55	241.46
756.88	241.23
757.20	240.97
757.53	240.76
757.86	240.56
758.19	240.39
758.51	240.24
758.84	239.98
759.17	239.79
759.49	239.61
759.82	239.47
760.15	239.27
760.47	239.10
760.80	238.93
761.13	238.80
761.45	238.66
761.78	238.53
762.11	238.37
762.43	238.17
762.76	237.98
763.08	237.84
763.41	237.70
763.74	237.59
764.06	237.42
764.39	237.28
764.71	237.12
765.04	236.93
765.37	236.73
765.69	236.57
766.02	236.44
766.34	236.26
766.67	236.10
767.00	235.99
767.32	235.89
767.65	235.83
767.97	235.67
768.30	235.53
768.62	235.36
768.95	235.24
769.27	235.11
769.60	235.00
769.92	234.85
770.25	234.71
770.57	234.53
770.90	234.42
771.22	234.28
771.55	234.18
771.87	234.09
772.20	233.99
772.52	233.98
772.85	233.98
773.17	233.91
773.50	233.80
773.82	233.65
774.15	233.50
774.47	233.34
774.80	233.26
775.12	233.13
775.45	233.04
775.77	232.95
776.09	232.88
776.42	232.80
776.74	232.74
777.07	232.64
777.39	232.59
777.72	232.51
778.04	232.46
778.36	232.36
778.69	232.28
779.01	232.24
779.33	232.08
779.66	231.93
779.98	231.86
780.31	231.79
780.63	231.77
780.95	231.72
781.28	231.65
781.60	231.55
781.92	231.48
782.25	231.43
782.57	231.36
782.89	231.28
783.22	231.18
783.54	231.08
783.86	231.07
784.19	231.00
784.51	230.95
784.83	230.86
785.16	230.81
785.48	230.76
785.80	230.68
786.12	230.64
786.45	230.52
