SpectraSuite Data File
++++++++++++++++++++++++++++++++++++
Date: Fri Feb 01 15:52:53 EST 2013
User: group
Dark Spectrum Present: No
Reference Spectrum Present: No
Number of Sampled Component Spectra: 1
Spectrometers: USB2E7196
Integration Time (usec): 35000 (USB2E7196)
Spectra Averaged: 100 (USB2E7196)
Boxcar Smoothing: 10 (USB2E7196)
Correct for Electrical Dark: No (USB2E7196)
Strobe/Lamp Enabled: No (USB2E7196)
Correct for Detector Non-linearity: No (USB2E7196)
Correct for Stray Light: No (USB2E7196)
Number of Pixels in Processed Spectrum: 2048
>>>>>Begin Processed Spectral Data<<<<<
339.09	0.00
339.48	214.79
339.86	216.83
340.24	217.27
340.63	219.16
341.01	221.30
341.39	221.84
341.78	223.11
342.16	223.89
342.54	225.07
342.93	212.99
343.31	223.77
343.69	224.30
344.07	224.73
344.46	225.17
344.84	225.55
345.22	225.81
345.60	226.03
345.99	226.24
346.37	226.38
346.75	226.43
347.13	226.48
347.52	226.53
347.90	226.58
348.28	226.62
348.66	226.65
349.05	226.63
349.43	226.69
349.81	226.78
350.19	226.81
350.57	226.86
350.96	226.93
351.34	227.00
351.72	227.10
352.10	227.19
352.48	227.27
352.87	227.32
353.25	227.36
353.63	227.44
354.01	227.47
354.39	227.56
354.77	227.67
355.15	227.81
355.54	227.87
355.92	227.94
356.30	228.02
356.68	228.18
357.06	228.26
357.44	228.31
357.82	228.39
358.20	228.46
358.58	228.52
358.97	228.60
359.35	228.69
359.73	228.73
360.11	228.78
360.49	228.83
360.87	228.85
361.25	228.94
361.63	228.99
362.01	229.07
362.39	229.07
362.77	229.10
363.15	229.11
363.53	229.13
363.91	229.13
364.29	229.18
364.67	229.12
365.05	229.15
365.43	229.16
365.81	229.19
366.19	229.28
366.57	229.31
366.95	229.31
367.33	229.27
367.71	229.27
368.09	229.27
368.47	229.23
368.85	229.23
369.23	229.21
369.61	229.20
369.99	229.17
370.37	229.16
370.75	229.17
371.13	229.11
371.51	229.05
371.89	229.02
372.27	228.92
372.65	228.85
373.03	228.83
373.41	228.79
373.78	228.69
374.16	228.59
374.54	228.49
374.92	228.40
375.30	228.34
375.68	228.26
376.06	228.19
376.44	228.11
376.82	228.06
377.19	227.96
377.57	227.86
377.95	227.73
378.33	227.66
378.71	227.54
379.09	227.48
379.47	227.44
379.84	227.38
380.22	227.32
380.60	227.23
380.98	227.15
381.36	227.05
381.73	226.99
382.11	226.92
382.49	226.86
382.87	226.80
383.25	226.73
383.62	226.77
384.00	226.68
384.38	226.65
384.76	226.59
385.13	226.58
385.51	226.51
385.89	226.47
386.27	226.42
386.64	226.38
387.02	226.33
387.40	226.27
387.78	226.23
388.15	226.16
388.53	226.15
388.91	226.11
389.29	226.08
389.66	226.03
390.04	225.99
390.42	225.97
390.79	225.98
391.17	225.96
391.55	225.85
391.92	225.87
392.30	225.89
392.68	225.87
393.05	225.86
393.43	225.90
393.81	225.92
394.18	225.92
394.56	225.94
394.94	225.98
395.31	226.00
395.69	226.05
396.06	226.13
396.44	226.16
396.82	226.18
397.19	226.29
397.57	226.37
397.95	226.43
398.32	226.48
398.70	226.55
399.07	226.64
399.45	226.72
399.82	226.76
400.20	226.79
400.58	226.89
400.95	226.95
401.33	227.05
401.70	227.20
402.08	227.30
402.45	227.40
402.83	227.54
403.20	227.63
403.58	227.72
403.95	227.81
404.33	227.96
404.71	228.08
405.08	228.26
405.46	228.40
405.83	228.54
406.21	228.69
406.58	228.86
406.96	229.01
407.33	229.21
407.70	229.43
408.08	229.76
408.45	229.96
408.83	230.21
409.20	230.42
409.58	230.59
409.95	230.83
410.33	231.13
410.70	231.37
411.08	231.68
411.45	232.04
411.82	232.37
412.20	232.72
412.57	233.16
412.95	233.43
413.32	233.82
413.69	234.22
414.07	234.64
414.44	235.10
414.82	235.57
415.19	236.10
415.56	236.64
415.94	237.15
416.31	237.80
416.68	238.41
417.06	239.12
417.43	239.83
417.81	240.61
418.18	241.39
418.55	242.24
418.93	243.14
419.30	243.99
419.67	244.92
420.04	245.86
420.42	246.85
420.79	248.04
421.16	249.21
421.54	250.41
421.91	251.67
422.28	252.93
422.66	254.26
423.03	255.55
423.40	256.88
423.77	258.29
424.15	259.68
424.52	261.18
424.89	262.75
425.26	264.25
425.64	265.70
426.01	267.27
426.38	268.87
426.75	270.52
427.13	272.24
427.50	274.04
427.87	275.91
428.24	277.80
428.61	279.51
428.99	281.46
429.36	283.54
429.73	285.57
430.10	287.60
430.47	289.63
430.85	291.73
431.22	293.95
431.59	296.33
431.96	298.59
432.33	301.08
432.70	303.49
433.08	306.32
433.45	308.96
433.82	311.57
434.19	314.52
434.56	317.31
434.93	319.98
435.30	322.59
435.68	325.50
436.05	328.28
436.42	331.07
436.79	333.58
437.16	336.30
437.53	339.14
437.90	341.95
438.27	344.74
438.64	347.60
439.01	350.20
439.38	352.43
439.75	354.58
440.13	357.05
440.50	359.34
440.87	361.24
441.24	363.19
441.61	365.35
441.98	366.79
442.35	368.62
442.72	370.51
443.09	372.35
443.46	373.36
443.83	373.91
444.20	374.42
444.57	375.24
444.94	375.53
445.31	375.84
445.68	376.16
446.05	376.19
446.42	375.77
446.79	375.41
447.16	374.93
447.53	374.67
447.90	373.54
448.27	372.40
448.64	370.81
449.01	369.63
449.37	367.63
449.74	365.75
450.11	363.45
450.48	360.95
450.85	358.38
451.22	356.23
451.59	354.27
451.96	352.32
452.33	349.72
452.70	347.31
453.07	344.52
453.43	341.63
453.80	338.91
454.17	336.26
454.54	333.68
454.91	331.01
455.28	328.30
455.65	325.78
456.02	323.33
456.38	321.18
456.75	318.56
457.12	316.34
457.49	314.12
457.86	311.98
458.23	310.12
458.59	308.10
458.96	306.03
459.33	304.18
459.70	302.34
460.07	300.79
460.43	299.15
460.80	297.51
461.17	296.08
461.54	294.58
461.91	293.16
462.27	291.71
462.64	290.46
463.01	289.10
463.38	287.78
463.74	286.44
464.11	285.28
464.48	284.24
464.85	283.13
465.21	282.28
465.58	281.36
465.95	280.28
466.32	279.39
466.68	278.46
467.05	277.55
467.42	276.69
467.78	275.76
468.15	274.87
468.52	274.20
468.88	273.33
469.25	272.53
469.62	271.92
469.98	271.25
470.35	270.59
470.72	269.99
471.08	269.37
471.45	268.80
471.82	268.22
472.18	267.63
472.55	267.21
472.92	266.67
473.28	266.20
473.65	265.71
474.02	265.24
474.38	264.90
474.75	264.56
475.11	264.19
475.48	263.93
475.85	263.68
476.21	263.48
476.58	263.33
476.94	263.18
477.31	263.01
477.67	262.88
478.04	262.79
478.41	262.76
478.77	262.81
479.14	262.75
479.50	262.74
479.87	262.80
480.23	262.86
480.60	262.92
480.96	263.03
481.33	263.26
481.69	263.45
482.06	263.64
482.42	263.85
482.79	264.07
483.15	264.40
483.52	264.80
483.88	265.12
484.25	265.49
484.61	265.91
484.98	266.35
485.34	266.91
485.71	267.47
486.07	268.08
486.44	268.62
486.80	269.30
487.17	270.06
487.53	270.88
487.90	271.70
488.26	272.63
488.62	273.61
488.99	274.56
489.35	275.60
489.72	276.75
490.08	277.98
490.44	279.24
490.81	280.58
491.17	281.91
491.54	283.39
491.90	284.90
492.26	286.54
492.63	288.26
492.99	290.06
493.36	292.00
493.72	294.01
494.08	296.14
494.45	298.42
494.81	300.77
495.17	303.21
495.54	305.80
495.90	308.52
496.26	311.38
496.63	314.34
496.99	317.48
497.35	320.74
497.72	324.12
498.08	327.67
498.44	331.31
498.80	335.24
499.17	339.30
499.53	343.55
499.89	347.95
500.26	352.46
500.62	357.13
500.98	362.07
501.34	367.18
501.71	372.48
502.07	377.95
502.43	383.57
502.79	389.40
503.16	395.52
503.52	401.75
503.88	408.11
504.24	414.84
504.60	421.76
504.97	428.88
505.33	436.23
505.69	443.92
506.05	451.69
506.41	459.54
506.78	467.69
507.14	476.13
507.50	484.89
507.86	493.93
508.22	503.08
508.59	512.26
508.95	521.86
509.31	531.69
509.67	541.77
510.03	552.05
510.39	562.55
510.75	573.29
511.12	584.25
511.48	595.59
511.84	606.96
512.20	618.45
512.56	630.44
512.92	642.59
513.28	655.00
513.64	667.47
514.00	680.26
514.37	693.25
514.73	706.33
515.09	719.36
515.45	732.68
515.81	746.34
516.17	760.39
516.53	774.51
516.89	788.67
517.25	802.85
517.61	817.29
517.97	831.77
518.33	846.20
518.69	860.98
519.05	875.94
519.41	891.19
519.77	906.77
520.13	922.13
520.49	937.43
520.85	952.83
521.21	968.55
521.57	984.76
521.93	1000.45
522.29	1016.79
522.65	1032.97
523.01	1049.19
523.37	1065.23
523.73	1081.39
524.09	1097.42
524.45	1113.64
524.81	1130.20
525.17	1146.96
525.53	1163.93
525.89	1180.82
526.25	1197.61
526.61	1214.02
526.97	1230.76
527.33	1247.21
527.68	1263.77
528.04	1280.38
528.40	1296.99
528.76	1314.09
529.12	1330.65
529.48	1347.53
529.84	1363.58
530.20	1380.19
530.56	1397.25
530.91	1414.64
531.27	1431.28
531.63	1447.73
531.99	1464.31
532.35	1480.27
532.71	1496.22
533.07	1512.33
533.42	1528.17
533.78	1544.26
534.14	1560.57
534.50	1575.90
534.86	1591.73
535.21	1606.95
535.57	1622.77
535.93	1638.29
536.29	1653.13
536.65	1668.22
537.00	1683.01
537.36	1698.18
537.72	1712.74
538.08	1726.99
538.44	1740.73
538.79	1754.77
539.15	1768.39
539.51	1782.23
539.87	1796.50
540.22	1810.24
540.58	1824.19
540.94	1837.53
541.29	1850.40
541.65	1863.02
542.01	1876.14
542.37	1888.46
542.72	1900.84
543.08	1912.62
543.44	1924.88
543.79	1935.99
544.15	1946.97
544.51	1958.46
544.87	1969.51
545.22	1980.19
545.58	1990.39
545.94	2000.18
546.29	2009.91
546.65	2019.87
547.01	2029.08
547.36	2037.90
547.72	2046.30
548.07	2053.94
548.43	2062.18
548.79	2070.34
549.14	2077.79
549.50	2085.10
549.86	2092.82
550.21	2100.16
550.57	2107.45
550.92	2114.00
551.28	2121.05
551.64	2128.01
551.99	2134.51
552.35	2140.70
552.70	2146.96
553.06	2152.97
553.41	2159.32
553.77	2165.47
554.13	2171.59
554.48	2177.78
554.84	2183.17
555.19	2188.60
555.55	2193.77
555.90	2198.03
556.26	2202.63
556.61	2207.46
556.97	2211.67
557.32	2215.77
557.68	2219.87
558.03	2224.16
558.39	2227.91
558.74	2232.62
559.10	2236.53
559.45	2240.27
559.81	2244.46
560.16	2248.25
560.52	2251.32
560.87	2254.60
561.23	2257.15
561.58	2259.98
561.94	2262.36
562.29	2264.73
562.64	2267.28
563.00	2269.84
563.35	2273.62
563.71	2276.70
564.06	2279.94
564.42	2282.89
564.77	2285.37
565.12	2287.63
565.48	2289.34
565.83	2291.20
566.19	2292.46
566.54	2293.25
566.89	2294.34
567.25	2294.89
567.60	2296.29
567.96	2298.18
568.31	2299.16
568.66	2300.23
569.02	2300.83
569.37	2301.17
569.72	2302.03
570.08	2302.07
570.43	2302.21
570.78	2301.43
571.14	2300.09
571.49	2298.68
571.84	2298.33
572.20	2297.16
572.55	2296.08
572.90	2294.71
573.26	2293.28
573.61	2291.57
573.96	2289.81
574.31	2286.94
574.67	2283.94
575.02	2280.22
575.37	2276.77
575.72	2272.83
576.08	2269.62
576.43	2266.30
576.78	2262.74
577.13	2259.64
577.49	2256.57
577.84	2252.99
578.19	2249.24
578.54	2245.51
578.90	2241.22
579.25	2235.56
579.60	2230.58
579.95	2225.56
580.30	2220.36
580.66	2215.28
581.01	2210.36
581.36	2205.51
581.71	2201.18
582.06	2196.81
582.42	2192.32
582.77	2187.07
583.12	2182.56
583.47	2177.75
583.82	2172.68
584.17	2167.31
584.53	2161.71
584.88	2156.19
585.23	2150.53
585.58	2145.07
585.93	2139.64
586.28	2134.87
586.63	2129.88
586.98	2124.92
587.34	2120.17
587.69	2115.30
588.04	2109.96
588.39	2104.23
588.74	2097.73
589.09	2091.67
589.44	2084.90
589.79	2079.01
590.14	2073.51
590.49	2067.03
590.84	2060.69
591.19	2054.83
591.54	2048.43
591.89	2041.16
592.25	2034.32
592.60	2027.00
592.95	2019.36
593.30	2012.06
593.65	2004.54
594.00	1997.50
594.35	1990.23
594.70	1982.33
595.05	1975.13
595.40	1967.90
595.75	1960.47
596.10	1954.27
596.45	1947.49
596.80	1941.19
597.15	1934.50
597.50	1927.22
597.85	1920.79
598.19	1914.00
598.54	1906.75
598.89	1900.04
599.24	1894.12
599.59	1887.23
599.94	1881.07
600.29	1874.84
600.64	1868.18
600.99	1860.73
601.34	1853.95
601.69	1847.01
602.04	1840.03
602.39	1832.66
602.74	1825.72
603.08	1818.96
603.43	1812.25
603.78	1804.92
604.13	1797.79
604.48	1790.42
604.83	1783.60
605.18	1776.46
605.53	1768.47
605.87	1760.42
606.22	1753.24
606.57	1745.18
606.92	1738.02
607.27	1730.87
607.62	1724.01
607.96	1716.69
608.31	1709.95
608.66	1702.32
609.01	1694.65
609.36	1687.13
609.70	1679.15
610.05	1671.07
610.40	1663.28
610.75	1654.97
611.10	1647.16
611.44	1638.80
611.79	1630.86
612.14	1622.13
612.49	1613.01
612.83	1604.75
613.18	1596.68
613.53	1588.50
613.88	1580.04
614.22	1571.77
614.57	1563.11
614.92	1554.92
615.27	1547.40
615.61	1539.10
615.96	1531.06
616.31	1523.47
616.65	1516.06
617.00	1508.45
617.35	1500.90
617.70	1492.57
618.04	1484.00
618.39	1476.02
618.74	1468.36
619.08	1460.06
619.43	1452.55
619.78	1445.61
620.12	1438.31
620.47	1430.77
620.82	1422.71
621.16	1415.36
621.51	1407.69
621.85	1400.07
622.20	1391.75
622.55	1383.50
622.89	1375.63
623.24	1368.01
623.59	1360.60
623.93	1353.04
624.28	1345.90
624.62	1338.25
624.97	1331.16
625.32	1324.56
625.66	1317.41
626.01	1310.21
626.35	1302.71
626.70	1294.98
627.04	1287.18
627.39	1279.45
627.73	1272.02
628.08	1265.07
628.43	1257.67
628.77	1250.23
629.12	1242.67
629.46	1235.46
629.81	1227.98
630.15	1220.78
630.50	1213.36
630.84	1205.19
631.19	1197.29
631.53	1189.66
631.88	1182.10
632.22	1174.48
632.57	1167.08
632.91	1159.62
633.26	1152.20
633.60	1144.89
633.95	1137.81
634.29	1130.85
634.64	1124.19
634.98	1116.90
635.32	1109.68
635.67	1103.12
636.01	1096.57
636.36	1089.77
636.70	1083.22
637.05	1076.60
637.39	1070.07
637.73	1063.55
638.08	1057.74
638.42	1051.81
638.77	1045.45
639.11	1038.89
639.45	1032.50
639.80	1025.85
640.14	1019.37
640.49	1012.88
640.83	1006.53
641.17	1000.24
641.52	993.89
641.86	987.41
642.20	981.46
642.55	975.18
642.89	968.72
643.23	962.16
643.58	956.40
643.92	950.12
644.26	944.00
644.61	938.05
644.95	932.11
645.29	925.45
645.64	918.66
645.98	912.39
646.32	906.65
646.66	900.57
647.01	894.71
647.35	888.99
647.69	883.12
648.04	877.68
648.38	871.88
648.72	865.90
649.06	859.91
649.41	854.11
649.75	848.21
650.09	842.29
650.43	836.55
650.78	830.44
651.12	824.53
651.46	818.86
651.80	813.15
652.14	807.72
652.49	802.34
652.83	797.25
653.17	791.54
653.51	785.71
653.85	780.38
654.20	774.77
654.54	768.84
654.88	763.16
655.22	757.22
655.56	751.60
655.90	746.15
656.25	740.87
656.59	735.49
656.93	730.39
657.27	725.17
657.61	719.76
657.95	714.59
658.29	709.55
658.64	704.35
658.98	699.06
659.32	693.52
659.66	688.33
660.00	682.93
660.34	677.95
660.68	673.07
661.02	667.99
661.36	663.25
661.70	658.67
662.05	654.33
662.39	649.99
662.73	645.52
663.07	641.17
663.41	636.73
663.75	632.25
664.09	627.66
664.43	623.34
664.77	619.15
665.11	614.96
665.45	610.83
665.79	606.73
666.13	602.56
666.47	598.48
666.81	594.27
667.15	590.14
667.49	586.28
667.83	582.52
668.17	578.62
668.51	574.56
668.85	570.61
669.19	566.73
669.53	562.85
669.87	558.93
670.21	555.22
670.55	551.56
670.89	548.08
671.23	544.63
671.57	541.04
671.91	537.53
672.25	534.01
672.58	530.43
672.92	527.02
673.26	523.81
673.60	520.65
673.94	517.55
674.28	514.70
674.62	511.70
674.96	508.58
675.30	505.65
675.64	502.67
675.97	499.86
676.31	496.99
676.65	494.13
676.99	491.45
677.33	488.58
677.67	485.76
678.01	482.76
678.34	479.76
678.68	476.95
679.02	474.14
679.36	471.35
679.70	468.63
680.04	465.84
680.37	462.97
680.71	460.22
681.05	457.59
681.39	454.88
681.73	452.23
682.06	449.77
682.40	447.17
682.74	444.71
683.08	442.08
683.42	439.43
683.75	436.91
684.09	434.34
684.43	431.80
684.77	429.39
685.10	427.04
685.44	424.77
685.78	422.46
686.12	420.24
686.45	417.98
686.79	415.71
687.13	413.54
687.46	411.39
687.80	409.25
688.14	407.08
688.48	404.97
688.81	402.70
689.15	400.47
689.49	398.37
689.82	396.26
690.16	394.26
690.50	392.40
690.83	390.42
691.17	388.44
691.51	386.59
691.84	384.68
692.18	382.76
692.52	380.75
692.85	378.80
693.19	376.91
693.52	375.07
693.86	373.24
694.20	371.49
694.53	369.68
694.87	367.85
695.21	366.09
695.54	364.33
695.88	362.63
696.21	360.94
696.55	359.24
696.88	357.57
697.22	355.92
697.56	354.27
697.89	352.65
698.23	351.06
698.56	349.46
698.90	347.89
699.23	346.23
699.57	344.73
699.90	343.22
700.24	341.68
700.58	340.14
700.91	338.67
701.25	337.20
701.58	335.87
701.92	334.47
702.25	333.05
702.59	331.63
702.92	330.34
703.26	329.03
703.59	327.79
703.93	326.64
704.26	325.42
704.60	324.10
704.93	322.78
705.26	321.55
705.60	320.36
705.93	319.16
706.27	318.14
706.60	317.07
706.94	316.00
707.27	314.88
707.61	313.87
707.94	312.84
708.27	311.76
708.61	310.65
708.94	309.65
709.28	308.66
709.61	307.68
709.94	306.70
710.28	305.66
710.61	304.68
710.95	303.55
711.28	302.60
711.61	301.66
711.95	300.77
712.28	299.84
712.61	298.88
712.95	297.99
713.28	297.12
713.61	296.18
713.95	295.25
714.28	294.41
714.61	293.52
714.95	292.65
715.28	291.79
715.61	290.90
715.95	290.01
716.28	289.13
716.61	288.30
716.95	287.50
717.28	286.70
717.61	285.92
717.94	285.15
718.28	284.33
718.61	283.63
718.94	282.94
719.27	282.25
719.61	281.57
719.94	280.89
720.27	280.11
720.60	279.45
720.94	278.82
721.27	278.17
721.60	277.58
721.93	276.95
722.27	276.42
722.60	275.93
722.93	275.37
723.26	274.85
723.59	274.29
723.93	273.72
724.26	273.23
724.59	272.68
724.92	272.16
725.25	271.67
725.59	271.12
725.92	270.60
726.25	270.07
726.58	269.58
726.91	269.08
727.24	268.64
727.57	268.20
727.91	267.74
728.24	267.30
728.57	266.82
728.90	266.40
729.23	265.88
729.56	265.43
729.89	264.98
730.22	264.51
730.55	264.05
730.89	263.60
731.22	263.16
731.55	262.72
731.88	262.32
732.21	261.91
732.54	261.49
732.87	261.05
733.20	260.67
733.53	260.32
733.86	259.94
734.19	259.53
734.52	259.16
734.85	258.82
735.18	258.40
735.51	258.03
735.84	257.69
736.17	257.36
736.50	256.98
736.83	256.76
737.16	256.46
737.49	256.14
737.82	255.84
738.15	255.49
738.48	255.21
738.81	254.92
739.14	254.62
739.47	254.31
739.80	254.05
740.13	253.77
740.46	253.44
740.79	253.13
741.12	252.85
741.45	252.52
741.78	252.20
742.11	251.93
742.44	251.60
742.77	251.33
743.10	251.02
743.43	250.71
743.75	250.34
744.08	250.20
744.41	249.91
744.74	249.61
745.07	249.35
745.40	249.07
745.73	248.81
746.06	248.54
746.39	248.28
746.71	248.01
747.04	247.72
747.37	247.46
747.70	247.22
748.03	246.95
748.36	246.71
748.68	246.46
749.01	246.22
749.34	246.02
749.67	245.77
750.00	245.56
750.33	245.42
750.65	245.22
750.98	244.87
751.31	244.63
751.64	244.43
751.97	244.26
752.29	244.07
752.62	243.82
752.95	243.58
753.28	243.36
753.60	243.13
753.93	242.94
754.26	242.76
754.59	242.54
754.91	242.35
755.24	242.14
755.57	241.96
755.90	241.76
756.22	241.56
756.55	241.34
756.88	241.12
757.20	240.84
757.53	240.62
757.86	240.41
758.19	240.28
758.51	240.10
758.84	239.87
759.17	239.67
759.49	239.50
759.82	239.36
760.15	239.22
760.47	239.05
760.80	238.88
761.13	238.71
761.45	238.55
761.78	238.42
762.11	238.29
762.43	238.15
762.76	238.00
763.08	237.84
763.41	237.71
763.74	237.60
764.06	237.48
764.39	237.37
764.71	237.24
765.04	237.10
765.37	236.97
765.69	236.86
766.02	236.75
766.34	236.62
766.67	236.48
767.00	236.38
767.32	236.32
767.65	236.26
767.97	236.15
768.30	236.03
768.62	235.90
768.95	235.77
769.27	235.65
769.60	235.57
769.92	235.47
770.25	235.37
770.57	235.22
770.90	235.11
771.22	234.97
771.55	234.90
771.87	234.77
772.20	234.66
772.52	234.64
772.85	234.63
773.17	234.56
773.50	234.49
773.82	234.35
774.15	234.24
774.47	234.12
774.80	234.00
775.12	233.92
775.45	233.86
775.77	233.79
776.09	233.72
776.42	233.64
776.74	233.60
777.07	233.52
777.39	233.45
777.72	233.38
778.04	233.34
778.36	233.29
778.69	233.24
779.01	233.20
779.33	233.06
779.66	232.93
779.98	232.82
780.31	232.76
780.63	232.76
780.95	232.68
781.28	232.61
781.60	232.56
781.92	232.49
782.25	232.42
782.57	232.35
782.89	232.32
783.22	232.28
783.54	232.21
783.86	232.19
784.19	232.14
784.51	232.11
784.83	232.08
785.16	232.01
785.48	231.97
785.80	231.89
786.12	231.85
786.45	231.76
786.77	231.76
787.09	231.70
