SpectraSuite Data File
++++++++++++++++++++++++++++++++++++
Date: Fri Feb 01 16:14:24 EST 2013
User: group
Dark Spectrum Present: No
Reference Spectrum Present: No
Number of Sampled Component Spectra: 1
Spectrometers: USB2E7196
Integration Time (usec): 35000 (USB2E7196)
Spectra Averaged: 100 (USB2E7196)
Boxcar Smoothing: 10 (USB2E7196)
Correct for Electrical Dark: No (USB2E7196)
Strobe/Lamp Enabled: No (USB2E7196)
Correct for Detector Non-linearity: No (USB2E7196)
Correct for Stray Light: No (USB2E7196)
Number of Pixels in Processed Spectrum: 2048
>>>>>Begin Processed Spectral Data<<<<<
339.09	0.00
339.48	214.11
339.86	215.57
340.24	217.17
340.63	217.77
341.01	221.01
341.39	220.96
341.78	222.63
342.16	223.59
342.54	224.18
342.93	212.53
343.31	223.26
343.69	223.79
344.07	224.28
344.46	224.69
344.84	225.10
345.22	225.33
345.60	225.56
345.99	225.76
346.37	225.88
346.75	225.98
347.13	226.05
347.52	226.12
347.90	226.20
348.28	226.26
348.66	226.30
349.05	226.27
349.43	226.29
349.81	226.32
350.19	226.31
350.57	226.36
350.96	226.40
351.34	226.54
351.72	226.63
352.10	226.70
352.48	226.74
352.87	226.81
353.25	226.90
353.63	226.98
354.01	226.99
354.39	227.10
354.77	227.21
355.15	227.30
355.54	227.37
355.92	227.39
356.30	227.45
356.68	227.56
357.06	227.67
357.44	227.76
357.82	227.81
358.20	227.89
358.58	227.97
358.97	228.08
359.35	228.12
359.73	228.19
360.11	228.24
360.49	228.31
360.87	228.36
361.25	228.43
361.63	228.50
362.01	228.57
362.39	228.59
362.77	228.59
363.15	228.61
363.53	228.62
363.91	228.65
364.29	228.69
364.67	228.65
365.05	228.64
365.43	228.65
365.81	228.68
366.19	228.74
366.57	228.78
366.95	228.74
367.33	228.72
367.71	228.72
368.09	228.74
368.47	228.74
368.85	228.72
369.23	228.69
369.61	228.68
369.99	228.66
370.37	228.63
370.75	228.63
371.13	228.57
371.51	228.56
371.89	228.54
372.27	228.49
372.65	228.46
373.03	228.39
373.41	228.33
373.78	228.26
374.16	228.14
374.54	228.08
374.92	228.03
375.30	227.97
375.68	227.86
376.06	227.79
376.44	227.71
376.82	227.67
377.19	227.59
377.57	227.50
377.95	227.42
378.33	227.34
378.71	227.23
379.09	227.19
379.47	227.08
379.84	227.02
380.22	226.91
380.60	226.82
380.98	226.78
381.36	226.71
381.73	226.66
382.11	226.61
382.49	226.53
382.87	226.44
383.25	226.40
383.62	226.47
384.00	226.41
384.38	226.36
384.76	226.29
385.13	226.27
385.51	226.23
385.89	226.18
386.27	226.14
386.64	226.12
387.02	226.07
387.40	226.05
387.78	226.02
388.15	226.01
388.53	225.96
388.91	225.90
389.29	225.88
389.66	225.88
390.04	225.85
390.42	225.83
390.79	225.83
391.17	225.78
391.55	225.67
391.92	225.66
392.30	225.68
392.68	225.65
393.05	225.63
393.43	225.63
393.81	225.65
394.18	225.65
394.56	225.65
394.94	225.70
395.31	225.74
395.69	225.77
396.06	225.81
396.44	225.86
396.82	225.90
397.19	225.99
397.57	226.02
397.95	226.09
398.32	226.14
398.70	226.19
399.07	226.26
399.45	226.32
399.82	226.37
400.20	226.41
400.58	226.52
400.95	226.57
401.33	226.66
401.70	226.80
402.08	226.88
402.45	226.99
402.83	227.08
403.20	227.13
403.58	227.23
403.95	227.34
404.33	227.44
404.71	227.61
405.08	227.79
405.46	227.91
405.83	228.06
406.21	228.18
406.58	228.35
406.96	228.55
407.33	228.74
407.70	228.95
408.08	229.23
408.45	229.45
408.83	229.69
409.20	229.90
409.58	230.08
409.95	230.36
410.33	230.66
410.70	230.90
411.08	231.22
411.45	231.55
411.82	231.85
412.20	232.21
412.57	232.60
412.95	232.85
413.32	233.27
413.69	233.67
414.07	234.14
414.44	234.62
414.82	235.09
415.19	235.64
415.56	236.17
415.94	236.68
416.31	237.26
416.68	237.92
417.06	238.63
417.43	239.36
417.81	240.09
418.18	240.83
418.55	241.66
418.93	242.52
419.30	243.41
419.67	244.36
420.04	245.32
420.42	246.29
420.79	247.49
421.16	248.63
421.54	249.80
421.91	251.01
422.28	252.24
422.66	253.56
423.03	254.85
423.40	256.19
423.77	257.64
424.15	259.09
424.52	260.54
424.89	262.12
425.26	263.63
425.64	265.09
426.01	266.70
426.38	268.37
426.75	270.04
427.13	271.73
427.50	273.57
427.87	275.42
428.24	277.29
428.61	279.03
428.99	280.98
429.36	283.08
429.73	285.14
430.10	287.15
430.47	289.20
430.85	291.32
431.22	293.57
431.59	295.91
431.96	298.14
432.33	300.67
432.70	303.03
433.08	305.86
433.45	308.51
433.82	311.10
434.19	313.99
434.56	316.80
434.93	319.42
435.30	321.97
435.68	324.87
436.05	327.68
436.42	330.48
436.79	332.96
437.16	335.64
437.53	338.43
437.90	341.21
438.27	343.97
438.64	346.75
439.01	349.30
439.38	351.52
439.75	353.70
440.13	356.17
440.50	358.49
440.87	360.31
441.24	362.22
441.61	364.32
441.98	365.81
442.35	367.61
442.72	369.47
443.09	371.28
443.46	372.26
443.83	372.84
444.20	373.32
444.57	374.16
444.94	374.49
445.31	374.86
445.68	375.21
446.05	375.24
446.42	374.86
446.79	374.43
447.16	373.95
447.53	373.61
447.90	372.43
448.27	371.26
448.64	369.68
449.01	368.54
449.37	366.62
449.74	364.72
450.11	362.50
450.48	360.08
450.85	357.62
451.22	355.47
451.59	353.46
451.96	351.53
452.33	348.95
452.70	346.56
453.07	343.72
453.43	340.88
453.80	338.12
454.17	335.47
454.54	332.94
454.91	330.25
455.28	327.57
455.65	325.10
456.02	322.65
456.38	320.49
456.75	317.84
457.12	315.53
457.49	313.28
457.86	311.10
458.23	309.19
458.59	307.11
458.96	305.00
459.33	303.16
459.70	301.31
460.07	299.84
460.43	298.16
460.80	296.53
461.17	295.07
461.54	293.59
461.91	292.15
462.27	290.72
462.64	289.52
463.01	288.18
463.38	286.88
463.74	285.56
464.11	284.45
464.48	283.43
464.85	282.38
465.21	281.56
465.58	280.59
465.95	279.53
466.32	278.63
466.68	277.79
467.05	276.89
467.42	276.02
467.78	275.08
468.15	274.19
468.52	273.56
468.88	272.73
469.25	271.99
469.62	271.38
469.98	270.74
470.35	270.08
470.72	269.52
471.08	268.90
471.45	268.35
471.82	267.81
472.18	267.21
472.55	266.80
472.92	266.27
473.28	265.84
473.65	265.40
474.02	264.96
474.38	264.62
474.75	264.31
475.11	263.96
475.48	263.68
475.85	263.48
476.21	263.25
476.58	263.05
476.94	262.91
477.31	262.75
477.67	262.62
478.04	262.52
478.41	262.46
478.77	262.51
479.14	262.45
479.50	262.50
479.87	262.59
480.23	262.64
480.60	262.72
480.96	262.79
481.33	262.97
481.69	263.18
482.06	263.34
482.42	263.52
482.79	263.77
483.15	264.10
483.52	264.45
483.88	264.82
484.25	265.17
484.61	265.57
484.98	266.05
485.34	266.59
485.71	267.15
486.07	267.71
486.44	268.27
486.80	268.97
487.17	269.68
487.53	270.50
487.90	271.37
488.26	272.29
488.62	273.33
488.99	274.34
489.35	275.38
489.72	276.54
490.08	277.72
490.44	278.96
490.81	280.26
491.17	281.59
491.54	283.05
491.90	284.63
492.26	286.29
492.63	288.01
492.99	289.78
493.36	291.69
493.72	293.76
494.08	295.83
494.45	298.10
494.81	300.42
495.17	302.83
495.54	305.39
495.90	308.06
496.26	310.87
496.63	313.82
496.99	316.91
497.35	320.14
497.72	323.56
498.08	327.12
498.44	330.85
498.80	334.79
499.17	338.85
499.53	343.05
499.89	347.40
500.26	351.90
500.62	356.60
500.98	361.58
501.34	366.67
501.71	372.05
502.07	377.53
502.43	383.19
502.79	389.06
503.16	395.15
503.52	401.50
503.88	407.93
504.24	414.52
504.60	421.47
504.97	428.64
505.33	436.00
505.69	443.68
506.05	451.43
506.41	459.28
506.78	467.42
507.14	475.86
507.50	484.64
507.86	493.68
508.22	502.89
508.59	512.15
508.95	521.66
509.31	531.47
509.67	541.55
510.03	551.89
510.39	562.46
510.75	573.24
511.12	584.14
511.48	595.39
511.84	606.87
512.20	618.36
512.56	630.28
512.92	642.49
513.28	654.89
513.64	667.43
514.00	680.12
514.37	693.06
514.73	706.02
515.09	719.02
515.45	732.22
515.81	745.76
516.17	759.72
516.53	773.83
516.89	788.02
517.25	802.24
517.61	816.47
517.97	830.90
518.33	845.35
518.69	860.13
519.05	875.17
519.41	890.40
519.77	905.92
520.13	921.34
520.49	936.62
520.85	951.95
521.21	967.55
521.57	983.78
521.93	999.54
522.29	1015.99
522.65	1032.18
523.01	1048.42
523.37	1064.44
523.73	1080.55
524.09	1096.64
524.45	1112.76
524.81	1129.39
525.17	1146.22
525.53	1162.99
525.89	1179.70
526.25	1196.41
526.61	1212.70
526.97	1229.28
527.33	1245.77
527.68	1262.29
528.04	1278.78
528.40	1295.34
528.76	1312.34
529.12	1328.89
529.48	1345.68
529.84	1361.59
530.20	1378.25
530.56	1395.03
530.91	1412.40
531.27	1429.10
531.63	1445.44
531.99	1462.05
532.35	1477.89
532.71	1493.78
533.07	1510.03
533.42	1525.93
533.78	1541.98
534.14	1558.17
534.50	1573.52
534.86	1589.23
535.21	1604.29
535.57	1619.98
535.93	1635.36
536.29	1650.05
536.65	1665.16
537.00	1679.97
537.36	1695.25
537.72	1709.65
538.08	1724.07
538.44	1737.70
538.79	1751.50
539.15	1765.11
539.51	1778.66
539.87	1792.98
540.22	1806.43
540.58	1819.97
540.94	1833.11
541.29	1845.80
541.65	1858.37
542.01	1871.47
542.37	1883.72
542.72	1896.13
543.08	1907.97
543.44	1920.24
543.79	1931.44
544.15	1942.11
544.51	1953.47
544.87	1964.35
545.22	1975.09
545.58	1985.25
545.94	1994.94
546.29	2004.72
546.65	2014.56
547.01	2023.90
547.36	2032.53
547.72	2041.19
548.07	2049.23
548.43	2057.37
548.79	2065.29
549.14	2072.89
549.50	2080.14
549.86	2087.75
550.21	2094.92
550.57	2102.07
550.92	2108.68
551.28	2115.78
551.64	2122.88
551.99	2129.38
552.35	2135.47
552.70	2141.72
553.06	2147.75
553.41	2154.07
553.77	2160.00
554.13	2165.99
554.48	2172.02
554.84	2177.50
555.19	2182.76
555.55	2187.87
555.90	2192.38
556.26	2197.39
556.61	2201.94
556.97	2206.39
557.32	2210.58
557.68	2214.73
558.03	2218.98
558.39	2222.51
558.74	2227.09
559.10	2230.96
559.45	2234.57
559.81	2238.80
560.16	2242.44
560.52	2245.69
560.87	2249.20
561.23	2251.93
561.58	2254.82
561.94	2257.49
562.29	2259.66
562.64	2262.31
563.00	2264.81
563.35	2268.33
563.71	2271.55
564.06	2274.69
564.42	2277.52
564.77	2280.05
565.12	2282.39
565.48	2284.21
565.83	2286.20
566.19	2287.51
566.54	2288.42
566.89	2289.64
567.25	2290.47
567.60	2291.78
567.96	2293.59
568.31	2294.34
568.66	2295.62
569.02	2296.24
569.37	2296.57
569.72	2297.57
570.08	2297.75
570.43	2297.84
570.78	2297.40
571.14	2295.72
571.49	2294.52
571.84	2294.09
572.20	2293.00
572.55	2292.01
572.90	2290.44
573.26	2289.13
573.61	2287.53
573.96	2285.82
574.31	2282.98
574.67	2279.84
575.02	2276.24
575.37	2272.73
575.72	2269.04
576.08	2265.37
576.43	2262.17
576.78	2258.46
577.13	2255.11
577.49	2251.87
577.84	2248.37
578.19	2244.43
578.54	2240.84
578.90	2236.75
579.25	2231.28
579.60	2226.36
579.95	2221.28
580.30	2216.37
580.66	2211.16
581.01	2206.13
581.36	2201.11
581.71	2196.87
582.06	2192.54
582.42	2188.23
582.77	2183.14
583.12	2178.60
583.47	2174.29
583.82	2169.42
584.17	2164.41
584.53	2159.15
584.88	2153.58
585.23	2147.99
585.58	2142.67
585.93	2137.25
586.28	2132.40
586.63	2127.41
586.98	2122.40
587.34	2117.88
587.69	2113.10
588.04	2108.05
588.39	2102.49
588.74	2096.20
589.09	2090.23
589.44	2083.55
589.79	2077.31
590.14	2071.49
590.49	2064.78
590.84	2058.18
591.19	2052.08
591.54	2045.50
591.89	2038.32
592.25	2031.75
592.60	2024.45
592.95	2017.05
593.30	2009.83
593.65	2002.23
594.00	1995.10
594.35	1987.78
594.70	1979.72
595.05	1972.60
595.40	1965.24
595.75	1957.81
596.10	1951.70
596.45	1944.80
596.80	1938.71
597.15	1932.27
597.50	1925.59
597.85	1919.41
598.19	1912.86
598.54	1905.92
598.89	1899.31
599.24	1893.36
599.59	1886.72
599.94	1880.61
600.29	1874.17
600.64	1867.49
600.99	1860.12
601.34	1853.40
601.69	1846.41
602.04	1839.52
602.39	1832.26
602.74	1825.61
603.08	1818.80
603.43	1812.03
603.78	1804.77
604.13	1797.36
604.48	1790.17
604.83	1783.24
605.18	1776.38
605.53	1768.42
605.87	1760.31
606.22	1753.11
606.57	1745.12
606.92	1737.72
607.27	1730.68
607.62	1723.83
607.96	1716.72
608.31	1710.32
608.66	1702.73
609.01	1695.27
609.36	1687.88
609.70	1679.74
610.05	1671.66
610.40	1664.12
610.75	1655.80
611.10	1648.20
611.44	1639.88
611.79	1631.79
612.14	1623.09
612.49	1613.82
612.83	1605.48
613.18	1597.30
613.53	1589.16
613.88	1580.61
614.22	1572.24
614.57	1563.49
614.92	1555.41
615.27	1547.89
615.61	1539.48
615.96	1531.46
616.31	1523.83
616.65	1516.36
617.00	1508.83
617.35	1501.09
617.70	1492.64
618.04	1484.23
618.39	1475.99
618.74	1468.53
619.08	1460.28
619.43	1452.70
619.78	1445.81
620.12	1438.68
620.47	1431.27
620.82	1423.02
621.16	1415.57
621.51	1408.09
621.85	1400.41
622.20	1392.07
622.55	1383.68
622.89	1375.82
623.24	1368.20
623.59	1360.71
623.93	1353.16
624.28	1345.99
624.62	1338.47
624.97	1331.31
625.32	1324.41
625.66	1317.36
626.01	1310.25
626.35	1302.89
626.70	1295.07
627.04	1287.34
627.39	1279.44
627.73	1271.97
628.08	1265.08
628.43	1257.92
628.77	1250.61
629.12	1243.12
629.46	1235.92
629.81	1228.48
630.15	1221.26
630.50	1213.84
630.84	1205.72
631.19	1197.83
631.53	1190.21
631.88	1182.67
632.22	1175.14
632.57	1167.91
632.91	1160.35
633.26	1152.71
633.60	1145.28
633.95	1138.12
634.29	1130.96
634.64	1124.33
634.98	1117.02
635.32	1109.90
635.67	1103.21
636.01	1096.42
636.36	1089.63
636.70	1083.00
637.05	1076.42
637.39	1069.91
637.73	1063.42
638.08	1057.53
638.42	1051.54
638.77	1045.13
639.11	1038.64
639.45	1032.26
639.80	1025.56
640.14	1019.30
640.49	1012.83
640.83	1006.57
641.17	1000.44
641.52	994.19
641.86	987.73
642.20	981.93
642.55	975.56
642.89	969.13
643.23	962.70
643.58	956.98
643.92	950.80
644.26	944.79
644.61	938.72
644.95	932.77
645.29	926.23
645.64	919.53
645.98	913.11
646.32	907.16
646.66	901.11
647.01	895.29
647.35	889.57
647.69	883.72
648.04	878.06
648.38	872.26
648.72	866.30
649.06	860.24
649.41	854.30
649.75	848.40
650.09	842.45
650.43	836.57
650.78	830.41
651.12	824.48
651.46	818.68
651.80	813.07
652.14	807.60
652.49	802.26
652.83	797.03
653.17	791.43
653.51	785.76
653.85	780.30
654.20	774.73
654.54	768.60
654.88	762.84
655.22	757.03
655.56	751.26
655.90	745.69
656.25	740.48
656.59	735.08
656.93	730.01
657.27	724.84
657.61	719.42
657.95	714.38
658.29	709.23
658.64	703.99
658.98	698.62
659.32	693.17
659.66	687.89
660.00	682.56
660.34	677.65
660.68	672.69
661.02	667.73
661.36	663.00
661.70	658.57
662.05	654.16
662.39	649.80
662.73	645.33
663.07	641.06
663.41	636.60
663.75	632.17
664.09	627.56
664.43	623.21
664.77	619.15
665.11	614.83
665.45	610.66
665.79	606.53
666.13	602.42
666.47	598.31
666.81	594.19
667.15	590.10
667.49	586.16
667.83	582.37
668.17	578.42
668.51	574.32
668.85	570.25
669.19	566.41
669.53	562.59
669.87	558.74
670.21	555.00
670.55	551.31
670.89	547.92
671.23	544.47
671.57	540.86
671.91	537.30
672.25	533.75
672.58	530.31
672.92	526.90
673.26	523.68
673.60	520.56
673.94	517.42
674.28	514.53
674.62	511.57
674.96	508.49
675.30	505.56
675.64	502.67
675.97	499.93
676.31	497.09
676.65	494.18
676.99	491.52
677.33	488.65
677.67	485.84
678.01	482.77
678.34	479.87
678.68	477.08
679.02	474.28
679.36	471.57
679.70	468.82
680.04	466.09
680.37	463.27
680.71	460.45
681.05	457.85
681.39	455.11
681.73	452.44
682.06	449.88
682.40	447.37
682.74	444.77
683.08	442.24
683.42	439.66
683.75	437.20
684.09	434.62
684.43	432.18
684.77	429.76
685.10	427.38
685.44	425.04
685.78	422.69
686.12	420.42
686.45	418.09
686.79	415.82
687.13	413.63
687.46	411.41
687.80	409.20
688.14	406.96
688.48	404.96
688.81	402.71
689.15	400.53
689.49	398.32
689.82	396.28
690.16	394.13
690.50	392.14
690.83	390.10
691.17	388.07
691.51	386.12
691.84	384.23
692.18	382.31
692.52	380.34
692.85	378.39
693.19	376.49
693.52	374.64
693.86	372.77
694.20	370.96
694.53	369.19
694.87	367.34
695.21	365.53
695.54	363.63
695.88	361.87
696.21	360.11
696.55	358.50
696.88	356.77
697.22	355.13
697.56	353.53
697.89	351.87
698.23	350.31
698.56	348.67
698.90	347.10
699.23	345.44
699.57	343.87
699.90	342.32
700.24	340.76
700.58	339.23
700.91	337.70
701.25	336.21
701.58	334.87
701.92	333.54
702.25	332.18
702.59	330.81
702.92	329.54
703.26	328.27
703.59	326.93
703.93	325.74
704.26	324.51
704.60	323.18
704.93	321.94
705.26	320.65
705.60	319.49
705.93	318.31
706.27	317.28
706.60	316.23
706.94	315.15
707.27	314.00
707.61	312.96
707.94	311.96
708.27	310.89
708.61	309.77
708.94	308.76
709.28	307.78
709.61	306.85
709.94	305.87
710.28	304.88
710.61	303.85
710.95	302.80
711.28	301.86
711.61	300.92
711.95	300.02
712.28	299.09
712.61	298.10
712.95	297.16
713.28	296.29
713.61	295.40
713.95	294.53
714.28	293.71
714.61	292.79
714.95	291.96
715.28	291.15
715.61	290.27
715.95	289.39
716.28	288.52
716.61	287.67
716.95	286.86
717.28	286.10
717.61	285.39
717.94	284.67
718.28	283.89
718.61	283.15
718.94	282.48
719.27	281.82
719.61	281.25
719.94	280.63
720.27	279.89
720.60	279.29
720.94	278.67
721.27	278.07
721.60	277.55
721.93	276.97
722.27	276.39
722.60	275.88
722.93	275.34
723.26	274.84
723.59	274.28
723.93	273.71
724.26	273.18
724.59	272.63
724.92	272.12
725.25	271.63
725.59	271.15
725.92	270.65
726.25	270.12
726.58	269.63
726.91	269.12
727.24	268.67
727.57	268.16
727.91	267.64
728.24	267.17
728.57	266.68
728.90	266.24
729.23	265.75
729.56	265.32
729.89	264.83
730.22	264.31
730.55	263.89
730.89	263.46
731.22	263.02
731.55	262.59
731.88	262.15
732.21	261.72
732.54	261.29
732.87	260.86
733.20	260.49
733.53	260.05
733.86	259.68
734.19	259.28
734.52	258.89
734.85	258.56
735.18	258.15
735.51	257.78
735.84	257.37
736.17	257.03
736.50	256.62
736.83	256.41
737.16	256.10
737.49	255.74
737.82	255.39
738.15	255.05
738.48	254.68
738.81	254.34
739.14	254.00
739.47	253.64
739.80	253.34
740.13	253.01
740.46	252.67
740.79	252.32
741.12	252.00
741.45	251.68
741.78	251.32
742.11	251.08
742.44	250.75
742.77	250.46
743.10	250.16
743.43	249.84
743.75	249.41
744.08	249.23
744.41	248.97
744.74	248.69
745.07	248.35
745.40	248.10
745.73	247.86
746.06	247.58
746.39	247.31
746.71	247.04
747.04	246.76
747.37	246.50
747.70	246.26
748.03	245.99
748.36	245.78
748.68	245.59
749.01	245.35
749.34	245.17
749.67	244.97
750.00	244.74
750.33	244.62
750.65	244.44
750.98	244.12
751.31	243.88
751.64	243.68
751.97	243.55
752.29	243.32
752.62	243.07
752.95	242.87
753.28	242.70
753.60	242.50
753.93	242.35
754.26	242.18
754.59	241.97
754.91	241.79
755.24	241.57
755.57	241.34
755.90	241.13
756.22	240.92
756.55	240.70
756.88	240.54
757.20	240.31
757.53	240.12
757.86	239.98
758.19	239.84
758.51	239.69
758.84	239.49
759.17	239.33
759.49	239.18
759.82	239.08
760.15	238.95
760.47	238.77
760.80	238.62
761.13	238.49
761.45	238.31
761.78	238.18
762.11	238.06
762.43	237.95
762.76	237.84
763.08	237.70
763.41	237.56
763.74	237.42
764.06	237.24
764.39	237.15
764.71	237.00
765.04	236.90
765.37	236.80
765.69	236.68
766.02	236.57
766.34	236.43
766.67	236.27
767.00	236.15
767.32	236.11
767.65	236.06
767.97	235.96
768.30	235.90
768.62	235.80
768.95	235.68
769.27	235.54
769.60	235.42
769.92	235.31
770.25	235.18
770.57	235.06
770.90	234.98
771.22	234.83
771.55	234.71
771.87	234.58
772.20	234.47
772.52	234.45
772.85	234.48
773.17	234.41
773.50	234.26
773.82	234.18
774.15	234.06
774.47	233.89
774.80	233.77
775.12	233.67
775.45	233.58
775.77	233.48
776.09	233.41
776.42	233.33
776.74	233.26
777.07	233.20
777.39	233.15
777.72	233.07
778.04	233.02
778.36	232.96
778.69	232.87
779.01	232.79
779.33	232.63
779.66	232.42
779.98	232.38
780.31	232.37
780.63	232.32
780.95	232.24
781.28	232.14
781.60	232.07
781.92	232.00
782.25	231.94
782.57	231.88
782.89	231.80
783.22	231.75
783.54	231.66
783.86	231.63
784.19	231.55
784.51	231.52
784.83	231.47
785.16	231.40
785.48	231.37
785.80	231.32
786.12	231.25
786.45	231.20
786.77	231.11
787.09	231.04
