SpectraSuite Data File
++++++++++++++++++++++++++++++++++++
Date: Fri Feb 01 15:08:00 EST 2013
User: group
Dark Spectrum Present: No
Reference Spectrum Present: No
Number of Sampled Component Spectra: 1
Spectrometers: USB2E7196
Integration Time (usec): 35000 (USB2E7196)
Spectra Averaged: 100 (USB2E7196)
Boxcar Smoothing: 10 (USB2E7196)
Correct for Electrical Dark: No (USB2E7196)
Strobe/Lamp Enabled: No (USB2E7196)
Correct for Detector Non-linearity: No (USB2E7196)
Correct for Stray Light: No (USB2E7196)
Number of Pixels in Processed Spectrum: 2048
>>>>>Begin Processed Spectral Data<<<<<
339.09	0.00
339.48	215.03
339.86	216.58
340.24	217.49
340.63	219.40
341.01	221.97
341.39	221.89
341.78	223.29
342.16	224.33
342.54	224.16
342.93	213.31
343.31	224.09
343.69	224.64
344.07	225.09
344.46	225.55
344.84	225.90
345.22	226.13
345.60	226.37
345.99	226.55
346.37	226.70
346.75	226.83
347.13	226.89
347.52	226.92
347.90	226.98
348.28	227.03
348.66	227.05
349.05	227.04
349.43	227.09
349.81	227.10
350.19	227.14
350.57	227.21
350.96	227.26
351.34	227.36
351.72	227.44
352.10	227.51
352.48	227.56
352.87	227.63
353.25	227.72
353.63	227.80
354.01	227.88
354.39	227.94
354.77	228.04
355.15	228.12
355.54	228.18
355.92	228.22
356.30	228.33
356.68	228.50
357.06	228.58
357.44	228.63
357.82	228.72
358.20	228.80
358.58	228.87
358.97	228.96
359.35	229.03
359.73	229.11
360.11	229.22
360.49	229.28
360.87	229.34
361.25	229.41
361.63	229.49
362.01	229.54
362.39	229.59
362.77	229.59
363.15	229.62
363.53	229.63
363.91	229.63
364.29	229.62
364.67	229.52
365.05	229.57
365.43	229.60
365.81	229.61
366.19	229.65
366.57	229.70
366.95	229.69
367.33	229.65
367.71	229.62
368.09	229.60
368.47	229.57
368.85	229.55
369.23	229.53
369.61	229.44
369.99	229.44
370.37	229.39
370.75	229.42
371.13	229.35
371.51	229.31
371.89	229.30
372.27	229.27
372.65	229.24
373.03	229.14
373.41	229.05
373.78	228.98
374.16	228.88
374.54	228.78
374.92	228.71
375.30	228.67
375.68	228.55
376.06	228.47
376.44	228.40
376.82	228.33
377.19	228.27
377.57	228.16
377.95	228.02
378.33	227.96
378.71	227.79
379.09	227.73
379.47	227.66
379.84	227.57
380.22	227.49
380.60	227.39
380.98	227.33
381.36	227.28
381.73	227.21
382.11	227.15
382.49	227.07
382.87	226.97
383.25	226.88
383.62	226.94
384.00	226.86
384.38	226.82
384.76	226.77
385.13	226.73
385.51	226.71
385.89	226.67
386.27	226.64
386.64	226.63
387.02	226.58
387.40	226.51
387.78	226.47
388.15	226.43
388.53	226.40
388.91	226.34
389.29	226.31
389.66	226.30
390.04	226.28
390.42	226.27
390.79	226.27
391.17	226.28
391.55	226.18
391.92	226.19
392.30	226.18
392.68	226.17
393.05	226.18
393.43	226.19
393.81	226.23
394.18	226.25
394.56	226.31
394.94	226.40
395.31	226.43
395.69	226.49
396.06	226.54
396.44	226.58
396.82	226.62
397.19	226.72
397.57	226.75
397.95	226.81
398.32	226.88
398.70	226.95
399.07	227.04
399.45	227.17
399.82	227.27
400.20	227.35
400.58	227.45
400.95	227.48
401.33	227.56
401.70	227.70
402.08	227.78
402.45	227.86
402.83	227.96
403.20	228.09
403.58	228.20
403.95	228.36
404.33	228.51
404.71	228.68
405.08	228.89
405.46	229.05
405.83	229.21
406.21	229.35
406.58	229.51
406.96	229.71
407.33	229.87
407.70	230.05
408.08	230.31
408.45	230.53
408.83	230.80
409.20	231.03
409.58	231.22
409.95	231.50
410.33	231.75
410.70	231.99
411.08	232.32
411.45	232.63
411.82	232.93
412.20	233.27
412.57	233.67
412.95	233.93
413.32	234.34
413.69	234.76
414.07	235.23
414.44	235.70
414.82	236.13
415.19	236.64
415.56	237.20
415.94	237.79
416.31	238.43
416.68	239.04
417.06	239.77
417.43	240.47
417.81	241.25
418.18	242.03
418.55	242.89
418.93	243.75
419.30	244.64
419.67	245.58
420.04	246.55
420.42	247.56
420.79	248.73
421.16	249.88
421.54	251.02
421.91	252.20
422.28	253.46
422.66	254.81
423.03	256.14
423.40	257.48
423.77	258.82
424.15	260.22
424.52	261.68
424.89	263.29
425.26	264.85
425.64	266.25
426.01	267.89
426.38	269.55
426.75	271.19
427.13	272.91
427.50	274.72
427.87	276.57
428.24	278.39
428.61	280.15
428.99	282.09
429.36	284.22
429.73	286.27
430.10	288.29
430.47	290.37
430.85	292.48
431.22	294.72
431.59	297.13
431.96	299.42
432.33	301.89
432.70	304.24
433.08	307.05
433.45	309.73
433.82	312.30
434.19	315.18
434.56	318.01
434.93	320.68
435.30	323.32
435.68	326.23
436.05	329.09
436.42	331.89
436.79	334.40
437.16	337.13
437.53	340.01
437.90	342.85
438.27	345.54
438.64	348.42
439.01	350.99
439.38	353.24
439.75	355.40
440.13	357.95
440.50	360.32
440.87	362.17
441.24	364.08
441.61	366.30
441.98	367.78
442.35	369.60
442.72	371.48
443.09	373.24
443.46	374.21
443.83	374.77
444.20	375.28
444.57	376.15
444.94	376.44
445.31	376.81
445.68	377.17
446.05	377.27
446.42	376.86
446.79	376.48
447.16	376.00
447.53	375.66
447.90	374.51
448.27	373.31
448.64	371.73
449.01	370.62
449.37	368.62
449.74	366.75
450.11	364.53
450.48	362.01
450.85	359.52
451.22	357.41
451.59	355.44
451.96	353.51
452.33	350.89
452.70	348.51
453.07	345.68
453.43	342.78
453.80	340.03
454.17	337.36
454.54	334.82
454.91	332.13
455.28	329.45
455.65	326.96
456.02	324.51
456.38	322.37
456.75	319.70
457.12	317.43
457.49	315.18
457.86	313.02
458.23	311.20
458.59	309.16
458.96	307.06
459.33	305.18
459.70	303.30
460.07	301.81
460.43	300.10
460.80	298.42
461.17	296.99
461.54	295.50
461.91	294.04
462.27	292.55
462.64	291.28
463.01	289.90
463.38	288.57
463.74	287.23
464.11	286.04
464.48	284.99
464.85	283.90
465.21	283.05
465.58	282.09
465.95	280.94
466.32	280.01
466.68	279.10
467.05	278.19
467.42	277.30
467.78	276.36
468.15	275.48
468.52	274.84
468.88	273.95
469.25	273.14
469.62	272.50
469.98	271.82
470.35	271.15
470.72	270.55
471.08	269.90
471.45	269.36
471.82	268.82
472.18	268.24
472.55	267.78
472.92	267.23
473.28	266.75
473.65	266.26
474.02	265.82
474.38	265.43
474.75	265.07
475.11	264.72
475.48	264.39
475.85	264.12
476.21	263.84
476.58	263.62
476.94	263.47
477.31	263.31
477.67	263.15
478.04	263.06
478.41	262.98
478.77	263.01
479.14	262.88
479.50	262.85
479.87	262.90
480.23	262.96
480.60	263.03
480.96	263.09
481.33	263.31
481.69	263.48
482.06	263.67
482.42	263.86
482.79	264.13
483.15	264.41
483.52	264.80
483.88	265.13
484.25	265.53
484.61	265.96
484.98	266.39
485.34	266.96
485.71	267.52
486.07	268.14
486.44	268.71
486.80	269.44
487.17	270.18
487.53	270.99
487.90	271.86
488.26	272.77
488.62	273.76
488.99	274.75
489.35	275.78
489.72	276.94
490.08	278.17
490.44	279.41
490.81	280.77
491.17	282.12
491.54	283.63
491.90	285.16
492.26	286.77
492.63	288.50
492.99	290.25
493.36	292.15
493.72	294.17
494.08	296.24
494.45	298.49
494.81	300.83
495.17	303.24
495.54	305.80
495.90	308.50
496.26	311.31
496.63	314.27
496.99	317.38
497.35	320.61
497.72	323.96
498.08	327.47
498.44	331.18
498.80	335.04
499.17	339.03
499.53	343.18
499.89	347.56
500.26	352.05
500.62	356.70
500.98	361.67
501.34	366.71
501.71	372.08
502.07	377.48
502.43	383.08
502.79	388.89
503.16	394.95
503.52	401.14
503.88	407.50
504.24	414.13
504.60	421.04
504.97	428.15
505.33	435.48
505.69	443.15
506.05	450.90
506.41	458.83
506.78	467.01
507.14	475.52
507.50	484.29
507.86	493.31
508.22	502.48
508.59	511.69
508.95	521.34
509.31	531.13
509.67	541.28
510.03	551.51
510.39	562.09
510.75	572.89
511.12	583.84
511.48	595.13
511.84	606.58
512.20	618.07
512.56	630.06
512.92	642.21
513.28	654.49
513.64	667.01
514.00	679.73
514.37	692.63
514.73	705.68
515.09	718.60
515.45	731.87
515.81	745.41
516.17	759.40
516.53	773.46
516.89	787.61
517.25	801.72
517.61	816.28
517.97	830.82
518.33	845.26
518.69	860.03
519.05	875.12
519.41	890.31
519.77	905.87
520.13	921.32
520.49	936.76
520.85	952.28
521.21	968.06
521.57	984.38
521.93	1000.23
522.29	1016.62
522.65	1032.99
523.01	1049.25
523.37	1065.39
523.73	1081.64
524.09	1097.86
524.45	1114.27
524.81	1130.90
525.17	1147.80
525.53	1164.71
525.89	1181.55
526.25	1198.44
526.61	1214.76
526.97	1231.54
527.33	1248.02
527.68	1264.71
528.04	1281.29
528.40	1298.03
528.76	1315.23
529.12	1331.83
529.48	1348.85
529.84	1364.92
530.20	1381.70
530.56	1398.86
530.91	1416.35
531.27	1433.09
531.63	1449.61
531.99	1466.28
532.35	1482.41
532.71	1498.33
533.07	1514.64
533.42	1530.64
533.78	1546.81
534.14	1563.24
534.50	1578.68
534.86	1594.73
535.21	1609.92
535.57	1625.94
535.93	1641.43
536.29	1656.19
536.65	1671.26
537.00	1686.05
537.36	1701.45
537.72	1716.01
538.08	1730.42
538.44	1744.19
538.79	1758.16
539.15	1771.97
539.51	1785.78
539.87	1800.17
540.22	1813.99
540.58	1827.95
540.94	1841.51
541.29	1854.58
541.65	1867.37
542.01	1880.61
542.37	1893.00
542.72	1905.53
543.08	1917.30
543.44	1929.85
543.79	1941.24
544.15	1952.31
544.51	1963.92
544.87	1974.92
545.22	1985.78
545.58	1996.06
545.94	2006.02
546.29	2015.95
546.65	2025.80
547.01	2035.08
547.36	2043.86
547.72	2052.34
548.07	2060.22
548.43	2068.38
548.79	2076.39
549.14	2083.95
549.50	2091.52
549.86	2099.22
550.21	2106.62
550.57	2113.84
550.92	2120.44
551.28	2127.45
551.64	2134.70
551.99	2141.36
552.35	2147.62
552.70	2153.74
553.06	2159.76
553.41	2165.99
553.77	2172.12
554.13	2178.21
554.48	2184.32
554.84	2189.67
555.19	2195.10
555.55	2200.09
555.90	2204.43
556.26	2209.25
556.61	2213.95
556.97	2217.85
557.32	2222.04
557.68	2226.17
558.03	2230.56
558.39	2234.27
558.74	2238.76
559.10	2242.46
559.45	2245.88
559.81	2250.20
560.16	2254.00
560.52	2257.13
560.87	2260.70
561.23	2263.23
561.58	2266.09
561.94	2268.51
562.29	2270.91
562.64	2273.48
563.00	2276.02
563.35	2279.70
563.71	2282.74
564.06	2285.95
564.42	2288.99
564.77	2291.27
565.12	2293.29
565.48	2294.97
565.83	2296.70
566.19	2297.92
566.54	2298.81
566.89	2300.02
567.25	2300.42
567.60	2301.78
567.96	2303.42
568.31	2304.06
568.66	2305.03
569.02	2305.49
569.37	2305.84
569.72	2306.64
570.08	2306.54
570.43	2306.41
570.78	2305.51
571.14	2303.95
571.49	2302.45
571.84	2302.02
572.20	2300.69
572.55	2299.59
572.90	2297.90
573.26	2296.42
573.61	2294.68
573.96	2292.67
574.31	2289.50
574.67	2286.32
575.02	2282.53
575.37	2278.93
575.72	2274.97
576.08	2271.67
576.43	2268.32
576.78	2264.49
577.13	2261.21
577.49	2258.19
577.84	2254.65
578.19	2250.91
578.54	2247.04
578.90	2242.73
579.25	2237.03
579.60	2232.00
579.95	2226.89
580.30	2221.77
580.66	2216.43
581.01	2211.41
581.36	2206.39
581.71	2202.11
582.06	2197.59
582.42	2192.92
582.77	2187.65
583.12	2182.97
583.47	2177.99
583.82	2172.71
584.17	2167.34
584.53	2161.67
584.88	2155.79
585.23	2150.07
585.58	2144.53
585.93	2139.02
586.28	2134.17
586.63	2128.99
586.98	2123.71
587.34	2119.03
587.69	2114.08
588.04	2108.75
588.39	2102.79
588.74	2096.37
589.09	2090.04
589.44	2083.10
589.79	2076.97
590.14	2071.23
590.49	2064.49
590.84	2057.92
591.19	2051.85
591.54	2045.27
591.89	2037.69
592.25	2030.75
592.60	2023.25
592.95	2015.50
593.30	2008.07
593.65	2000.38
594.00	1993.25
594.35	1986.12
594.70	1977.87
595.05	1970.46
595.40	1963.07
595.75	1955.67
596.10	1949.31
596.45	1942.42
596.80	1936.19
597.15	1929.34
597.50	1922.09
597.85	1915.79
598.19	1909.20
598.54	1902.02
598.89	1895.42
599.24	1889.60
599.59	1882.78
599.94	1876.59
600.29	1870.25
600.64	1863.63
600.99	1856.04
601.34	1849.22
601.69	1842.14
602.04	1835.18
602.39	1827.89
602.74	1820.96
603.08	1814.13
603.43	1807.43
603.78	1800.21
604.13	1793.00
604.48	1785.73
604.83	1778.92
605.18	1771.76
605.53	1763.66
605.87	1755.57
606.22	1748.20
606.57	1740.27
606.92	1733.06
607.27	1725.65
607.62	1718.67
607.96	1711.27
608.31	1704.58
608.66	1696.84
609.01	1689.28
609.36	1681.77
609.70	1673.72
610.05	1665.65
610.40	1657.87
610.75	1649.45
611.10	1641.79
611.44	1633.49
611.79	1625.61
612.14	1616.88
612.49	1607.84
612.83	1599.52
613.18	1591.63
613.53	1583.64
613.88	1575.08
614.22	1566.83
614.57	1558.43
614.92	1550.31
615.27	1542.74
615.61	1534.52
615.96	1526.60
616.31	1519.15
616.65	1511.77
617.00	1504.18
617.35	1496.55
617.70	1488.23
618.04	1479.70
618.39	1471.48
618.74	1463.82
619.08	1455.41
619.43	1447.99
619.78	1441.03
620.12	1433.86
620.47	1426.29
620.82	1418.15
621.16	1410.84
621.51	1403.34
621.85	1395.69
622.20	1387.27
622.55	1379.00
622.89	1371.24
623.24	1363.64
623.59	1356.13
623.93	1348.59
624.28	1341.37
624.62	1333.83
624.97	1326.77
625.32	1320.09
625.66	1313.06
626.01	1305.80
626.35	1298.44
626.70	1290.65
627.04	1282.92
627.39	1275.21
627.73	1267.85
628.08	1260.87
628.43	1253.50
628.77	1246.05
629.12	1238.60
629.46	1231.48
629.81	1224.19
630.15	1216.97
630.50	1209.55
630.84	1201.38
631.19	1193.57
631.53	1186.09
631.88	1178.62
632.22	1170.97
632.57	1163.72
632.91	1156.32
633.26	1148.92
633.60	1141.68
633.95	1134.62
634.29	1127.70
634.64	1121.03
634.98	1113.69
635.32	1106.64
635.67	1100.22
636.01	1093.55
636.36	1086.82
636.70	1080.35
637.05	1073.70
637.39	1067.26
637.73	1060.78
638.08	1055.06
638.42	1049.08
638.77	1042.71
639.11	1036.08
639.45	1029.83
639.80	1023.07
640.14	1016.54
640.49	1010.10
640.83	1003.76
641.17	997.60
641.52	991.22
641.86	984.86
642.20	979.04
642.55	972.84
642.89	966.29
643.23	959.84
643.58	954.02
643.92	947.78
644.26	941.80
644.61	935.78
644.95	929.76
645.29	923.09
645.64	916.42
645.98	910.18
646.32	904.47
646.66	898.39
647.01	892.70
647.35	887.15
647.69	881.38
648.04	875.91
648.38	870.07
648.72	864.03
649.06	857.94
649.41	852.03
649.75	845.89
650.09	840.00
650.43	834.14
650.78	827.96
651.12	822.04
651.46	816.23
651.80	810.46
652.14	805.04
652.49	799.67
652.83	794.50
653.17	788.69
653.51	782.95
653.85	777.62
654.20	771.92
654.54	765.94
654.88	760.20
655.22	754.31
655.56	748.62
655.90	743.30
656.25	738.06
656.59	732.68
656.93	727.64
657.27	722.43
657.61	717.03
657.95	712.03
658.29	706.96
658.64	701.87
658.98	696.59
659.32	691.18
659.66	686.00
660.00	680.68
660.34	675.84
660.68	670.94
661.02	665.85
661.36	661.23
661.70	656.75
662.05	652.44
662.39	648.07
662.73	643.68
663.07	639.32
663.41	634.91
663.75	630.45
664.09	625.88
664.43	621.51
664.77	617.44
665.11	613.15
665.45	609.09
665.79	604.95
666.13	600.83
666.47	596.77
666.81	592.59
667.15	588.52
667.49	584.66
667.83	580.96
668.17	577.09
668.51	573.05
668.85	569.01
669.19	565.19
669.53	561.33
669.87	557.52
670.21	553.83
670.55	550.19
670.89	546.80
671.23	543.44
671.57	539.93
671.91	536.40
672.25	532.90
672.58	529.41
672.92	526.07
673.26	522.95
673.60	519.82
673.94	516.78
674.28	513.86
674.62	510.89
674.96	507.74
675.30	504.85
675.64	501.87
675.97	499.16
676.31	496.29
676.65	493.47
676.99	490.75
677.33	487.94
677.67	485.11
678.01	482.09
678.34	479.08
678.68	476.27
679.02	473.47
679.36	470.81
679.70	468.10
680.04	465.30
680.37	462.42
680.71	459.67
681.05	457.10
681.39	454.35
681.73	451.77
682.06	449.24
682.40	446.67
682.74	444.19
683.08	441.63
683.42	439.02
683.75	436.54
684.09	434.01
684.43	431.50
684.77	429.08
685.10	426.80
685.44	424.57
685.78	422.28
686.12	420.05
686.45	417.74
686.79	415.44
687.13	413.31
687.46	411.17
687.80	408.97
688.14	406.73
688.48	404.71
688.81	402.45
689.15	400.31
689.49	398.17
689.82	396.07
690.16	393.95
690.50	391.99
690.83	390.03
691.17	388.09
691.51	386.21
691.84	384.37
692.18	382.40
692.52	380.41
692.85	378.49
693.19	376.59
693.52	374.76
693.86	372.94
694.20	371.16
694.53	369.35
694.87	367.57
695.21	365.79
695.54	363.95
695.88	362.23
696.21	360.46
696.55	358.77
696.88	357.10
697.22	355.46
697.56	353.88
697.89	352.18
698.23	350.55
698.56	348.93
698.90	347.34
699.23	345.67
699.57	344.13
699.90	342.62
700.24	341.11
700.58	339.59
700.91	338.09
701.25	336.63
701.58	335.24
701.92	333.85
702.25	332.48
702.59	331.16
702.92	329.86
703.26	328.65
703.59	327.45
703.93	326.31
704.26	325.11
704.60	323.81
704.93	322.58
705.26	321.35
705.60	320.21
705.93	319.06
706.27	318.05
706.60	316.97
706.94	315.88
707.27	314.75
707.61	313.71
707.94	312.72
708.27	311.65
708.61	310.63
708.94	309.63
709.28	308.67
709.61	307.75
709.94	306.78
710.28	305.77
710.61	304.76
710.95	303.71
711.28	302.79
711.61	301.91
711.95	301.05
712.28	300.10
712.61	299.13
712.95	298.20
713.28	297.34
713.61	296.51
713.95	295.65
714.28	294.88
714.61	294.02
714.95	293.17
715.28	292.34
715.61	291.47
715.95	290.65
716.28	289.82
716.61	288.98
716.95	288.18
717.28	287.43
717.61	286.66
717.94	285.93
718.28	285.18
718.61	284.43
718.94	283.74
719.27	283.09
719.61	282.46
719.94	281.84
720.27	281.12
720.60	280.45
720.94	279.84
721.27	279.24
721.60	278.63
721.93	278.03
722.27	277.49
722.60	276.93
722.93	276.37
723.26	275.85
723.59	275.26
723.93	274.74
724.26	274.19
724.59	273.64
724.92	273.10
725.25	272.56
725.59	272.02
725.92	271.51
726.25	271.02
726.58	270.51
726.91	269.98
727.24	269.52
727.57	269.06
727.91	268.51
728.24	267.99
728.57	267.51
728.90	267.06
729.23	266.53
729.56	266.10
729.89	265.58
730.22	265.06
730.55	264.58
730.89	264.07
731.22	263.63
731.55	263.19
731.88	262.76
732.21	262.30
732.54	261.86
732.87	261.43
733.20	261.01
733.53	260.62
733.86	260.22
734.19	259.81
734.52	259.36
734.85	259.03
735.18	258.59
735.51	258.22
735.84	257.81
736.17	257.44
736.50	257.01
736.83	256.83
737.16	256.49
737.49	256.15
737.82	255.80
738.15	255.45
738.48	255.12
738.81	254.77
739.14	254.47
739.47	254.14
739.80	253.80
740.13	253.49
740.46	253.15
740.79	252.81
741.12	252.50
741.45	252.20
741.78	251.88
742.11	251.62
742.44	251.34
742.77	251.09
743.10	250.82
743.43	250.54
743.75	250.13
744.08	249.96
744.41	249.72
744.74	249.46
745.07	249.13
745.40	248.92
745.73	248.69
746.06	248.40
746.39	248.14
746.71	247.87
747.04	247.58
747.37	247.34
747.70	247.12
748.03	246.88
748.36	246.66
748.68	246.40
749.01	246.15
749.34	245.91
749.67	245.66
750.00	245.45
750.33	245.30
750.65	245.11
750.98	244.80
751.31	244.57
751.64	244.40
751.97	244.33
752.29	244.10
752.62	243.84
752.95	243.68
753.28	243.48
753.60	243.31
753.93	243.18
754.26	242.98
754.59	242.75
754.91	242.55
755.24	242.37
755.57	242.21
755.90	242.06
756.22	241.88
756.55	241.72
756.88	241.53
757.20	241.32
757.53	241.15
757.86	240.99
758.19	240.87
758.51	240.73
758.84	240.50
759.17	240.37
759.49	240.26
759.82	240.11
760.15	239.96
760.47	239.79
760.80	239.60
761.13	239.48
761.45	239.34
761.78	239.24
762.11	239.12
762.43	238.97
762.76	238.80
763.08	238.70
763.41	238.58
763.74	238.45
764.06	238.30
764.39	238.16
764.71	238.03
765.04	237.87
765.37	237.73
765.69	237.60
766.02	237.43
766.34	237.29
766.67	237.14
767.00	237.06
767.32	236.98
767.65	236.93
767.97	236.79
768.30	236.69
768.62	236.54
768.95	236.43
769.27	236.30
769.60	236.22
769.92	236.04
770.25	235.91
770.57	235.78
770.90	235.68
771.22	235.53
771.55	235.42
771.87	235.32
772.20	235.21
772.52	235.17
772.85	235.16
773.17	235.09
773.50	235.00
773.82	234.88
774.15	234.75
774.47	234.62
774.80	234.50
775.12	234.42
775.45	234.35
775.77	234.24
776.09	234.15
776.42	234.06
776.74	233.99
777.07	233.85
777.39	233.77
777.72	233.67
778.04	233.61
778.36	233.54
778.69	233.45
779.01	233.35
779.33	233.21
779.66	233.06
779.98	232.95
780.31	232.88
780.63	232.84
780.95	232.80
781.28	232.73
781.60	232.68
781.92	232.60
782.25	232.54
782.57	232.52
782.89	232.48
783.22	232.44
783.54	232.38
783.86	232.35
784.19	232.28
784.51	232.26
784.83	232.21
785.16	232.15
785.48	232.13
785.80	232.12
786.12	232.07
786.45	232.02
786.77	231.98
787.09	231.95
