SpectraSuite Data File
++++++++++++++++++++++++++++++++++++
Date: Fri Feb 01 16:20:56 EST 2013
User: group
Dark Spectrum Present: No
Reference Spectrum Present: No
Number of Sampled Component Spectra: 1
Spectrometers: USB2E7196
Integration Time (usec): 35000 (USB2E7196)
Spectra Averaged: 100 (USB2E7196)
Boxcar Smoothing: 10 (USB2E7196)
Correct for Electrical Dark: No (USB2E7196)
Strobe/Lamp Enabled: No (USB2E7196)
Correct for Detector Non-linearity: No (USB2E7196)
Correct for Stray Light: No (USB2E7196)
Number of Pixels in Processed Spectrum: 2048
>>>>>Begin Processed Spectral Data<<<<<
339.09	0.00
339.48	214.17
339.86	215.68
340.24	216.59
340.63	218.24
341.01	221.69
341.39	220.54
341.78	222.20
342.16	223.56
342.54	223.57
342.93	212.42
343.31	223.16
343.69	223.68
344.07	224.13
344.46	224.58
344.84	224.96
345.22	225.17
345.60	225.44
345.99	225.63
346.37	225.79
346.75	225.92
347.13	226.00
347.52	226.07
347.90	226.13
348.28	226.15
348.66	226.21
349.05	226.21
349.43	226.22
349.81	226.25
350.19	226.31
350.57	226.40
350.96	226.44
351.34	226.52
351.72	226.64
352.10	226.71
352.48	226.81
352.87	226.85
353.25	226.94
353.63	227.01
354.01	227.08
354.39	227.14
354.77	227.20
355.15	227.31
355.54	227.36
355.92	227.42
356.30	227.48
356.68	227.60
357.06	227.70
357.44	227.77
357.82	227.84
358.20	227.90
358.58	227.92
358.97	228.02
359.35	228.10
359.73	228.17
360.11	228.25
360.49	228.28
360.87	228.35
361.25	228.37
361.63	228.42
362.01	228.47
362.39	228.49
362.77	228.55
363.15	228.56
363.53	228.58
363.91	228.59
364.29	228.62
364.67	228.54
365.05	228.52
365.43	228.52
365.81	228.56
366.19	228.60
366.57	228.65
366.95	228.62
367.33	228.60
367.71	228.60
368.09	228.64
368.47	228.63
368.85	228.58
369.23	228.60
369.61	228.59
369.99	228.57
370.37	228.58
370.75	228.58
371.13	228.52
371.51	228.49
371.89	228.45
372.27	228.43
372.65	228.40
373.03	228.35
373.41	228.30
373.78	228.24
374.16	228.15
374.54	228.06
374.92	227.97
375.30	227.92
375.68	227.81
376.06	227.72
376.44	227.64
376.82	227.59
377.19	227.53
377.57	227.44
377.95	227.36
378.33	227.27
378.71	227.15
379.09	227.14
379.47	227.08
379.84	227.02
380.22	226.93
380.60	226.88
380.98	226.82
381.36	226.76
381.73	226.66
382.11	226.59
382.49	226.55
382.87	226.49
383.25	226.42
383.62	226.48
384.00	226.41
384.38	226.33
384.76	226.34
385.13	226.31
385.51	226.25
385.89	226.16
386.27	226.11
386.64	226.09
387.02	226.02
387.40	225.97
387.78	225.92
388.15	225.89
388.53	225.84
388.91	225.84
389.29	225.82
389.66	225.82
390.04	225.81
390.42	225.80
390.79	225.79
391.17	225.76
391.55	225.62
391.92	225.60
392.30	225.65
392.68	225.61
393.05	225.57
393.43	225.59
393.81	225.64
394.18	225.64
394.56	225.67
394.94	225.71
395.31	225.71
395.69	225.75
396.06	225.79
396.44	225.82
396.82	225.85
397.19	225.90
397.57	225.92
397.95	225.98
398.32	225.99
398.70	226.07
399.07	226.19
399.45	226.28
399.82	226.36
400.20	226.39
400.58	226.47
400.95	226.53
401.33	226.63
401.70	226.76
402.08	226.81
402.45	226.87
402.83	226.99
403.20	227.12
403.58	227.23
403.95	227.36
404.33	227.50
404.71	227.62
405.08	227.83
405.46	228.00
405.83	228.14
406.21	228.28
406.58	228.47
406.96	228.59
407.33	228.79
407.70	228.98
408.08	229.22
408.45	229.44
408.83	229.68
409.20	229.87
409.58	230.07
409.95	230.34
410.33	230.62
410.70	230.83
411.08	231.11
411.45	231.42
411.82	231.69
412.20	232.03
412.57	232.42
412.95	232.71
413.32	233.08
413.69	233.48
414.07	233.95
414.44	234.39
414.82	234.87
415.19	235.38
415.56	235.88
415.94	236.43
416.31	237.07
416.68	237.68
417.06	238.38
417.43	239.06
417.81	239.84
418.18	240.60
418.55	241.47
418.93	242.32
419.30	243.20
419.67	244.14
420.04	245.08
420.42	246.07
420.79	247.24
421.16	248.42
421.54	249.59
421.91	250.76
422.28	251.97
422.66	253.30
423.03	254.59
423.40	255.97
423.77	257.37
424.15	258.76
424.52	260.23
424.89	261.88
425.26	263.40
425.64	264.85
426.01	266.48
426.38	268.09
426.75	269.80
427.13	271.50
427.50	273.29
427.87	275.15
428.24	276.99
428.61	278.72
428.99	280.66
429.36	282.78
429.73	284.84
430.10	286.86
430.47	288.94
430.85	291.07
431.22	293.32
431.59	295.72
431.96	298.03
432.33	300.50
432.70	302.84
433.08	305.64
433.45	308.26
433.82	310.83
434.19	313.73
434.56	316.52
434.93	319.22
435.30	321.86
435.68	324.76
436.05	327.62
436.42	330.43
436.79	332.93
437.16	335.59
437.53	338.44
437.90	341.27
438.27	343.99
438.64	346.78
439.01	349.33
439.38	351.53
439.75	353.67
440.13	356.10
440.50	358.46
440.87	360.32
441.24	362.28
441.61	364.44
441.98	365.94
442.35	367.74
442.72	369.52
443.09	371.31
443.46	372.32
443.83	372.90
444.20	373.41
444.57	374.23
444.94	374.53
445.31	374.85
445.68	375.19
446.05	375.26
446.42	374.90
446.79	374.50
447.16	374.08
447.53	373.74
447.90	372.63
448.27	371.44
448.64	369.88
449.01	368.72
449.37	366.74
449.74	364.84
450.11	362.61
450.48	360.19
450.85	357.70
451.22	355.54
451.59	353.51
451.96	351.55
452.33	348.99
452.70	346.68
453.07	343.87
453.43	340.99
453.80	338.21
454.17	335.56
454.54	332.98
454.91	330.31
455.28	327.61
455.65	325.14
456.02	322.69
456.38	320.53
456.75	317.89
457.12	315.65
457.49	313.42
457.86	311.26
458.23	309.40
458.59	307.36
458.96	305.32
459.33	303.48
459.70	301.60
460.07	300.08
460.43	298.37
460.80	296.75
461.17	295.32
461.54	293.85
461.91	292.43
462.27	290.99
462.64	289.71
463.01	288.38
463.38	287.10
463.74	285.76
464.11	284.56
464.48	283.54
464.85	282.43
465.21	281.58
465.58	280.64
465.95	279.55
466.32	278.63
466.68	277.70
467.05	276.80
467.42	275.97
467.78	275.06
468.15	274.17
468.52	273.50
468.88	272.68
469.25	271.88
469.62	271.26
469.98	270.61
470.35	269.96
470.72	269.38
471.08	268.74
471.45	268.21
471.82	267.71
472.18	267.12
472.55	266.71
472.92	266.15
473.28	265.71
473.65	265.21
474.02	264.79
474.38	264.42
474.75	264.11
475.11	263.76
475.48	263.51
475.85	263.26
476.21	263.03
476.58	262.84
476.94	262.77
477.31	262.58
477.67	262.44
478.04	262.36
478.41	262.30
478.77	262.35
479.14	262.27
479.50	262.28
479.87	262.37
480.23	262.46
480.60	262.55
480.96	262.65
481.33	262.91
481.69	263.11
482.06	263.32
482.42	263.50
482.79	263.70
483.15	264.02
483.52	264.39
483.88	264.74
484.25	265.14
484.61	265.52
484.98	265.96
485.34	266.54
485.71	267.12
486.07	267.74
486.44	268.28
486.80	269.00
487.17	269.71
487.53	270.49
487.90	271.34
488.26	272.29
488.62	273.31
488.99	274.30
489.35	275.33
489.72	276.50
490.08	277.69
490.44	278.98
490.81	280.30
491.17	281.68
491.54	283.20
491.90	284.71
492.26	286.38
492.63	288.17
492.99	289.91
493.36	291.85
493.72	293.90
494.08	295.98
494.45	298.24
494.81	300.64
495.17	303.10
495.54	305.64
495.90	308.37
496.26	311.20
496.63	314.13
496.99	317.32
497.35	320.56
497.72	324.01
498.08	327.53
498.44	331.23
498.80	335.14
499.17	339.17
499.53	343.35
499.89	347.75
500.26	352.28
500.62	356.97
500.98	361.90
501.34	366.99
501.71	372.37
502.07	377.81
502.43	383.47
502.79	389.30
503.16	395.39
503.52	401.65
503.88	408.04
504.24	414.76
504.60	421.56
504.97	428.73
505.33	436.09
505.69	443.82
506.05	451.57
506.41	459.46
506.78	467.64
507.14	476.09
507.50	484.79
507.86	493.81
508.22	503.01
508.59	512.27
508.95	521.90
509.31	531.72
509.67	541.80
510.03	552.09
510.39	562.64
510.75	573.39
511.12	584.32
511.48	595.61
511.84	606.99
512.20	618.52
512.56	630.39
512.92	642.62
513.28	654.97
513.64	667.46
514.00	680.19
514.37	693.07
514.73	706.11
515.09	719.14
515.45	732.37
515.81	745.97
516.17	759.92
516.53	773.99
516.89	788.20
517.25	802.34
517.61	816.70
517.97	831.22
518.33	845.67
518.69	860.41
519.05	875.29
519.41	890.37
519.77	905.91
520.13	921.43
520.49	936.63
520.85	951.96
521.21	967.64
521.57	983.82
521.93	999.63
522.29	1016.01
522.65	1032.20
523.01	1048.38
523.37	1064.35
523.73	1080.54
524.09	1096.61
524.45	1112.88
524.81	1129.47
525.17	1146.28
525.53	1163.08
525.89	1179.94
526.25	1196.73
526.61	1213.16
526.97	1229.90
527.33	1246.35
527.68	1262.85
528.04	1279.39
528.40	1295.94
528.76	1313.03
529.12	1329.57
529.48	1346.37
529.84	1362.31
530.20	1378.91
530.56	1395.89
530.91	1413.28
531.27	1429.87
531.63	1446.23
531.99	1462.64
532.35	1478.49
532.71	1494.33
533.07	1510.55
533.42	1526.37
533.78	1542.46
534.14	1558.75
534.50	1574.08
534.86	1589.94
535.21	1605.07
535.57	1620.95
535.93	1636.44
536.29	1650.99
536.65	1665.95
537.00	1680.57
537.36	1695.73
537.72	1710.17
538.08	1724.51
538.44	1738.24
538.79	1752.09
539.15	1765.57
539.51	1779.32
539.87	1793.64
540.22	1807.17
540.58	1820.93
540.94	1834.21
541.29	1846.92
541.65	1859.42
542.01	1872.56
542.37	1884.70
542.72	1897.02
543.08	1908.64
543.44	1920.91
543.79	1932.16
544.15	1943.19
544.51	1954.75
544.87	1965.72
545.22	1976.46
545.58	1986.58
545.94	1996.18
546.29	2006.05
546.65	2016.07
547.01	2025.34
547.36	2033.99
547.72	2042.58
548.07	2050.24
548.43	2058.25
548.79	2066.34
549.14	2073.89
549.50	2081.05
549.86	2088.68
550.21	2095.97
550.57	2103.17
550.92	2109.70
551.28	2116.72
551.64	2123.68
551.99	2130.15
552.35	2136.28
552.70	2142.50
553.06	2148.45
553.41	2154.82
553.77	2160.69
554.13	2166.73
554.48	2172.82
554.84	2178.53
555.19	2183.76
555.55	2188.96
555.90	2193.52
556.26	2198.23
556.61	2202.85
556.97	2207.30
557.32	2211.39
557.68	2215.47
558.03	2219.69
558.39	2223.27
558.74	2228.03
559.10	2231.85
559.45	2235.48
559.81	2239.79
560.16	2243.71
560.52	2247.00
560.87	2250.44
561.23	2253.34
561.58	2256.17
561.94	2258.64
562.29	2260.76
562.64	2263.41
563.00	2265.89
563.35	2269.36
563.71	2272.40
564.06	2275.64
564.42	2278.33
564.77	2280.87
565.12	2283.19
565.48	2285.22
565.83	2287.19
566.19	2288.41
566.54	2289.36
566.89	2290.49
567.25	2291.10
567.60	2292.18
567.96	2293.88
568.31	2294.62
568.66	2295.58
569.02	2296.21
569.37	2296.59
569.72	2297.48
570.08	2297.59
570.43	2297.74
570.78	2297.21
571.14	2295.83
571.49	2294.51
571.84	2294.30
572.20	2293.32
572.55	2292.33
572.90	2290.74
573.26	2289.50
573.61	2287.70
573.96	2285.97
574.31	2283.02
574.67	2280.11
575.02	2276.73
575.37	2273.44
575.72	2269.81
576.08	2266.46
576.43	2263.24
576.78	2259.60
577.13	2256.59
577.49	2253.68
577.84	2250.23
578.19	2246.49
578.54	2242.95
578.90	2238.73
579.25	2233.19
579.60	2228.30
579.95	2223.29
580.30	2218.30
580.66	2213.12
581.01	2208.33
581.36	2203.58
581.71	2199.58
582.06	2195.25
582.42	2190.75
582.77	2185.51
583.12	2181.15
583.47	2176.54
583.82	2171.59
584.17	2166.38
584.53	2160.90
584.88	2155.28
585.23	2149.50
585.58	2144.12
585.93	2138.74
586.28	2134.13
586.63	2129.25
586.98	2124.25
587.34	2119.66
587.69	2114.87
588.04	2109.66
588.39	2104.07
588.74	2097.74
589.09	2091.57
589.44	2084.78
589.79	2078.78
590.14	2073.34
590.49	2066.63
590.84	2060.36
591.19	2054.33
591.54	2047.98
591.89	2040.64
592.25	2033.86
592.60	2026.78
592.95	2019.36
593.30	2012.06
593.65	2004.52
594.00	1997.57
594.35	1990.29
594.70	1982.31
595.05	1974.88
595.40	1967.72
595.75	1960.35
596.10	1954.01
596.45	1947.36
596.80	1941.26
597.15	1934.65
597.50	1927.44
597.85	1921.14
598.19	1914.47
598.54	1907.47
598.89	1900.85
599.24	1894.93
599.59	1888.16
599.94	1881.97
600.29	1875.59
600.64	1868.96
600.99	1861.45
601.34	1854.64
601.69	1847.77
602.04	1840.89
602.39	1833.79
602.74	1826.88
603.08	1819.94
603.43	1813.31
603.78	1805.97
604.13	1798.65
604.48	1791.34
604.83	1784.62
605.18	1777.69
605.53	1769.68
605.87	1761.69
606.22	1754.48
606.57	1746.65
606.92	1739.39
607.27	1732.30
607.62	1725.38
607.96	1718.15
608.31	1711.66
608.66	1703.95
609.01	1696.39
609.36	1688.87
609.70	1680.73
610.05	1672.62
610.40	1664.97
610.75	1656.52
611.10	1648.93
611.44	1640.52
611.79	1632.65
612.14	1623.86
612.49	1614.63
612.83	1606.28
613.18	1598.03
613.53	1589.88
613.88	1581.25
614.22	1572.99
614.57	1564.35
614.92	1556.33
615.27	1548.81
615.61	1540.45
615.96	1532.45
616.31	1524.76
616.65	1517.46
617.00	1510.07
617.35	1502.48
617.70	1494.19
618.04	1485.69
618.39	1477.35
618.74	1469.78
619.08	1461.41
619.43	1453.87
619.78	1447.00
620.12	1439.84
620.47	1432.30
620.82	1424.10
621.16	1416.79
621.51	1409.25
621.85	1401.66
622.20	1393.20
622.55	1384.77
622.89	1376.94
623.24	1369.37
623.59	1361.95
623.93	1354.36
624.28	1347.13
624.62	1339.55
624.97	1332.39
625.32	1325.80
625.66	1318.83
626.01	1311.66
626.35	1304.22
626.70	1296.46
627.04	1288.65
627.39	1280.84
627.73	1273.52
628.08	1266.55
628.43	1259.20
628.77	1251.76
629.12	1244.10
629.46	1236.88
629.81	1229.45
630.15	1222.22
630.50	1214.75
630.84	1206.46
631.19	1198.50
631.53	1190.98
631.88	1183.43
632.22	1175.82
632.57	1168.44
632.91	1160.93
633.26	1153.49
633.60	1146.16
633.95	1138.99
634.29	1132.02
634.64	1125.37
634.98	1117.96
635.32	1110.85
635.67	1104.30
636.01	1097.65
636.36	1090.83
636.70	1084.26
637.05	1077.68
637.39	1071.19
637.73	1064.63
638.08	1058.81
638.42	1052.76
638.77	1046.24
639.11	1039.65
639.45	1033.28
639.80	1026.52
640.14	1020.15
640.49	1013.59
640.83	1007.24
641.17	1001.00
641.52	994.50
641.86	987.93
642.20	982.12
642.55	975.89
642.89	969.35
643.23	962.80
643.58	957.01
643.92	950.83
644.26	944.74
644.61	938.64
644.95	932.59
645.29	926.00
645.64	919.24
645.98	912.93
646.32	907.14
646.66	901.03
647.01	895.33
647.35	889.51
647.69	883.71
648.04	878.12
648.38	872.34
648.72	866.41
649.06	860.39
649.41	854.45
649.75	848.37
650.09	842.41
650.43	836.67
650.78	830.53
651.12	824.59
651.46	818.91
651.80	813.17
652.14	807.81
652.49	802.42
652.83	797.30
653.17	791.59
653.51	785.84
653.85	780.53
654.20	774.83
654.54	768.82
654.88	763.06
655.22	757.24
655.56	751.54
655.90	746.10
656.25	740.85
656.59	735.51
656.93	730.49
657.27	725.29
657.61	719.82
657.95	714.75
658.29	709.60
658.64	704.36
658.98	698.99
659.32	693.53
659.66	688.34
660.00	683.04
660.34	678.10
660.68	673.13
661.02	668.10
661.36	663.43
661.70	658.97
662.05	654.63
662.39	650.26
662.73	645.83
663.07	641.49
663.41	637.10
663.75	632.56
664.09	627.95
664.43	623.55
664.77	619.43
665.11	615.20
665.45	611.15
665.79	607.06
666.13	602.98
666.47	598.93
666.81	594.69
667.15	590.56
667.49	586.62
667.83	582.83
668.17	578.85
668.51	574.74
668.85	570.71
669.19	566.82
669.53	562.98
669.87	559.05
670.21	555.33
670.55	551.67
670.89	548.25
671.23	544.82
671.57	541.27
671.91	537.77
672.25	534.22
672.58	530.65
672.92	527.25
673.26	524.11
673.60	520.90
673.94	517.86
674.28	514.98
674.62	512.09
674.96	508.98
675.30	506.02
675.64	503.06
675.97	500.27
676.31	497.41
676.65	494.49
676.99	491.82
677.33	488.92
677.67	486.05
678.01	483.02
678.34	480.04
678.68	477.16
679.02	474.29
679.36	471.51
679.70	468.75
680.04	465.95
680.37	463.01
680.71	460.19
681.05	457.53
681.39	454.76
681.73	452.04
682.06	449.48
682.40	446.95
682.74	444.45
683.08	441.91
683.42	439.27
683.75	436.77
684.09	434.22
684.43	431.78
684.77	429.33
685.10	426.98
685.44	424.66
685.78	422.41
686.12	420.16
686.45	417.91
686.79	415.61
687.13	413.45
687.46	411.32
687.80	409.19
688.14	407.00
688.48	404.90
688.81	402.66
689.15	400.53
689.49	398.40
689.82	396.31
690.16	394.25
690.50	392.29
690.83	390.29
691.17	388.30
691.51	386.34
691.84	384.46
692.18	382.50
692.52	380.51
692.85	378.58
693.19	376.67
693.52	374.82
693.86	373.03
694.20	371.23
694.53	369.41
694.87	367.53
695.21	365.72
695.54	363.93
695.88	362.22
696.21	360.45
696.55	358.77
696.88	357.06
697.22	355.38
697.56	353.75
697.89	352.10
698.23	350.46
698.56	348.88
698.90	347.35
699.23	345.72
699.57	344.15
699.90	342.59
700.24	341.05
700.58	339.49
700.91	338.00
701.25	336.52
701.58	335.13
701.92	333.78
702.25	332.42
702.59	331.03
702.92	329.68
703.26	328.42
703.59	327.14
703.93	325.96
704.26	324.69
704.60	323.39
704.93	322.17
705.26	320.90
705.60	319.71
705.93	318.50
706.27	317.47
706.60	316.43
706.94	315.35
707.27	314.24
707.61	313.21
707.94	312.22
708.27	311.15
708.61	310.14
708.94	309.14
709.28	308.18
709.61	307.20
709.94	306.29
710.28	305.24
710.61	304.28
710.95	303.19
711.28	302.33
711.61	301.40
711.95	300.46
712.28	299.54
712.61	298.57
712.95	297.62
713.28	296.76
713.61	295.87
713.95	294.98
714.28	294.14
714.61	293.27
714.95	292.39
715.28	291.53
715.61	290.63
715.95	289.78
716.28	288.91
716.61	288.10
716.95	287.24
717.28	286.50
717.61	285.66
717.94	284.91
718.28	284.05
718.61	283.35
718.94	282.63
719.27	281.96
719.61	281.29
719.94	280.63
720.27	279.90
720.60	279.25
720.94	278.62
721.27	278.05
721.60	277.48
721.93	276.84
722.27	276.30
722.60	275.71
722.93	275.14
723.26	274.61
723.59	274.03
723.93	273.48
724.26	272.93
724.59	272.40
724.92	271.91
725.25	271.44
725.59	270.92
725.92	270.41
726.25	269.90
726.58	269.41
726.91	268.93
727.24	268.45
727.57	267.95
727.91	267.43
728.24	266.94
728.57	266.40
728.90	265.97
729.23	265.50
729.56	265.08
729.89	264.60
730.22	264.10
730.55	263.64
730.89	263.20
731.22	262.75
731.55	262.30
731.88	261.86
732.21	261.40
732.54	260.96
732.87	260.50
733.20	260.10
733.53	259.73
733.86	259.33
734.19	258.97
734.52	258.62
734.85	258.35
735.18	257.94
735.51	257.63
735.84	257.25
736.17	256.88
736.50	256.48
736.83	256.25
737.16	255.94
737.49	255.61
737.82	255.24
738.15	254.90
738.48	254.59
738.81	254.28
739.14	254.00
739.47	253.67
739.80	253.39
740.13	253.11
740.46	252.75
740.79	252.43
741.12	252.12
741.45	251.81
741.78	251.42
742.11	251.14
742.44	250.81
742.77	250.52
743.10	250.22
743.43	249.92
743.75	249.55
744.08	249.38
744.41	249.14
744.74	248.88
745.07	248.63
745.40	248.38
745.73	248.12
746.06	247.82
746.39	247.57
746.71	247.29
747.04	247.00
747.37	246.75
747.70	246.51
748.03	246.25
748.36	246.05
748.68	245.82
749.01	245.58
749.34	245.36
749.67	245.14
750.00	244.88
750.33	244.73
750.65	244.51
750.98	244.16
751.31	243.92
751.64	243.74
751.97	243.56
752.29	243.36
752.62	243.13
752.95	242.94
753.28	242.73
753.60	242.51
753.93	242.33
754.26	242.13
754.59	241.92
754.91	241.70
755.24	241.47
755.57	241.25
755.90	241.04
756.22	240.82
756.55	240.62
756.88	240.45
757.20	240.20
757.53	240.02
757.86	239.86
758.19	239.70
758.51	239.51
758.84	239.29
759.17	239.11
759.49	238.94
759.82	238.83
760.15	238.70
760.47	238.60
760.80	238.43
761.13	238.31
761.45	238.12
761.78	237.99
762.11	237.80
762.43	237.65
762.76	237.53
763.08	237.41
763.41	237.24
763.74	237.13
764.06	237.01
764.39	236.85
764.71	236.70
765.04	236.54
765.37	236.43
765.69	236.30
766.02	236.15
766.34	236.02
766.67	235.86
767.00	235.72
767.32	235.64
767.65	235.55
767.97	235.45
768.30	235.35
768.62	235.24
768.95	235.15
769.27	235.04
769.60	234.95
769.92	234.83
770.25	234.73
770.57	234.57
770.90	234.46
771.22	234.37
771.55	234.29
771.87	234.22
772.20	234.12
772.52	234.12
772.85	234.18
773.17	234.13
773.50	234.02
773.82	233.93
774.15	233.76
774.47	233.64
774.80	233.55
775.12	233.49
775.45	233.36
775.77	233.30
776.09	233.26
776.42	233.18
776.74	233.14
777.07	233.06
777.39	233.00
777.72	232.95
778.04	232.89
778.36	232.82
778.69	232.75
779.01	232.65
779.33	232.49
779.66	232.31
779.98	232.23
780.31	232.14
780.63	232.13
780.95	232.08
781.28	232.05
781.60	231.97
781.92	231.90
782.25	231.87
782.57	231.76
782.89	231.68
783.22	231.60
783.54	231.51
783.86	231.47
784.19	231.41
784.51	231.36
784.83	231.29
785.16	231.21
785.48	231.14
785.80	231.11
786.12	231.06
786.45	230.99
786.77	230.92
787.09	230.90
