SpectraSuite Data File
++++++++++++++++++++++++++++++++++++
Date: Fri Feb 01 18:01:19 EST 2013
User: group
Dark Spectrum Present: No
Reference Spectrum Present: No
Number of Sampled Component Spectra: 1
Spectrometers: USB2E7196
Integration Time (usec): 35000 (USB2E7196)
Spectra Averaged: 100 (USB2E7196)
Boxcar Smoothing: 10 (USB2E7196)
Correct for Electrical Dark: No (USB2E7196)
Strobe/Lamp Enabled: No (USB2E7196)
Correct for Detector Non-linearity: No (USB2E7196)
Correct for Stray Light: No (USB2E7196)
Number of Pixels in Processed Spectrum: 2048
>>>>>Begin Processed Spectral Data<<<<<
339.09	0.00
339.48	212.99
339.86	213.89
340.24	215.65
340.63	218.02
341.01	219.82
341.39	219.85
341.78	221.16
342.16	222.45
342.54	222.79
342.93	211.38
343.31	222.08
343.69	222.63
344.07	223.14
344.46	223.57
344.84	223.92
345.22	224.17
345.60	224.40
345.99	224.59
346.37	224.73
346.75	224.85
347.13	224.94
347.52	225.00
347.90	225.08
348.28	225.10
348.66	225.13
349.05	225.16
349.43	225.22
349.81	225.26
350.19	225.32
350.57	225.41
350.96	225.51
351.34	225.57
351.72	225.64
352.10	225.71
352.48	225.78
352.87	225.83
353.25	225.89
353.63	225.98
354.01	226.01
354.39	226.09
354.77	226.16
355.15	226.25
355.54	226.29
355.92	226.32
356.30	226.38
356.68	226.51
357.06	226.57
357.44	226.65
357.82	226.71
358.20	226.77
358.58	226.83
358.97	226.86
359.35	226.95
359.73	227.03
360.11	227.11
360.49	227.16
360.87	227.21
361.25	227.27
361.63	227.33
362.01	227.42
362.39	227.43
362.77	227.47
363.15	227.47
363.53	227.49
363.91	227.50
364.29	227.50
364.67	227.43
365.05	227.45
365.43	227.47
365.81	227.47
366.19	227.52
366.57	227.55
366.95	227.55
367.33	227.52
367.71	227.51
368.09	227.50
368.47	227.48
368.85	227.46
369.23	227.48
369.61	227.40
369.99	227.41
370.37	227.40
370.75	227.41
371.13	227.38
371.51	227.35
371.89	227.34
372.27	227.35
372.65	227.31
373.03	227.25
373.41	227.18
373.78	227.16
374.16	227.07
374.54	226.99
374.92	226.92
375.30	226.88
375.68	226.79
376.06	226.75
376.44	226.70
376.82	226.64
377.19	226.54
377.57	226.51
377.95	226.39
378.33	226.34
378.71	226.25
379.09	226.18
379.47	226.13
379.84	226.04
380.22	225.95
380.60	225.88
380.98	225.85
381.36	225.74
381.73	225.64
382.11	225.57
382.49	225.53
382.87	225.47
383.25	225.41
383.62	225.48
384.00	225.42
384.38	225.38
384.76	225.35
385.13	225.32
385.51	225.27
385.89	225.23
386.27	225.16
386.64	225.13
387.02	225.07
387.40	225.04
387.78	225.04
388.15	224.99
388.53	224.94
388.91	224.87
389.29	224.86
389.66	224.88
390.04	224.86
390.42	224.82
390.79	224.81
391.17	224.80
391.55	224.69
391.92	224.65
392.30	224.63
392.68	224.62
393.05	224.61
393.43	224.63
393.81	224.62
394.18	224.62
394.56	224.61
394.94	224.67
395.31	224.66
395.69	224.69
396.06	224.72
396.44	224.82
396.82	224.83
397.19	224.93
397.57	224.95
397.95	225.02
398.32	225.04
398.70	225.09
399.07	225.15
399.45	225.20
399.82	225.26
400.20	225.33
400.58	225.37
400.95	225.44
401.33	225.52
401.70	225.65
402.08	225.78
402.45	225.86
402.83	225.96
403.20	226.10
403.58	226.23
403.95	226.41
404.33	226.50
404.71	226.67
405.08	226.83
405.46	226.98
405.83	227.13
406.21	227.32
406.58	227.53
406.96	227.71
407.33	227.94
407.70	228.15
408.08	228.48
408.45	228.79
408.83	229.08
409.20	229.34
409.58	229.61
409.95	229.90
410.33	230.27
410.70	230.57
411.08	230.96
411.45	231.32
411.82	231.69
412.20	232.13
412.57	232.68
412.95	233.12
413.32	233.66
413.69	234.19
414.07	234.76
414.44	235.37
414.82	236.01
415.19	236.72
415.56	237.47
415.94	238.21
416.31	239.05
416.68	239.88
417.06	240.82
417.43	241.75
417.81	242.82
418.18	243.86
418.55	245.02
418.93	246.18
419.30	247.42
419.67	248.71
420.04	250.00
420.42	251.30
420.79	252.85
421.16	254.41
421.54	256.02
421.91	257.66
422.28	259.39
422.66	261.20
423.03	262.94
423.40	264.76
423.77	266.62
424.15	268.56
424.52	270.59
424.89	272.81
425.26	274.92
425.64	276.83
426.01	278.98
426.38	281.22
426.75	283.45
427.13	285.72
427.50	288.18
427.87	290.71
428.24	293.30
428.61	295.70
428.99	298.31
429.36	301.17
429.73	303.98
430.10	306.70
430.47	309.50
430.85	312.37
431.22	315.39
431.59	318.61
431.96	321.61
432.33	324.94
432.70	328.13
433.08	331.87
433.45	335.45
433.82	338.96
434.19	342.84
434.56	346.61
434.93	350.24
435.30	353.72
435.68	357.66
436.05	361.45
436.42	365.25
436.79	368.65
437.16	372.29
437.53	376.08
437.90	379.85
438.27	383.54
438.64	387.33
439.01	390.84
439.38	393.87
439.75	396.79
440.13	400.13
440.50	403.30
440.87	405.85
441.24	408.52
441.61	411.49
441.98	413.52
442.35	415.98
442.72	418.50
443.09	420.92
443.46	422.25
443.83	423.07
444.20	423.68
444.57	424.83
444.94	425.21
445.31	425.67
445.68	426.09
446.05	426.24
446.42	425.76
446.79	425.22
447.16	424.68
447.53	424.30
447.90	422.78
448.27	421.18
448.64	419.01
449.01	417.42
449.37	414.69
449.74	412.10
450.11	409.09
450.48	405.73
450.85	402.36
451.22	399.49
451.59	396.71
451.96	394.14
452.33	390.58
452.70	387.40
453.07	383.58
453.43	379.72
453.80	375.93
454.17	372.32
454.54	368.87
454.91	365.15
455.28	361.49
455.65	358.11
456.02	354.76
456.38	351.85
456.75	348.29
457.12	345.25
457.49	342.26
457.86	339.29
458.23	336.77
458.59	334.01
458.96	331.15
459.33	328.70
459.70	326.13
460.07	324.09
460.43	321.75
460.80	319.58
461.17	317.63
461.54	315.59
461.91	313.65
462.27	311.65
462.64	309.94
463.01	308.05
463.38	306.29
463.74	304.48
464.11	302.92
464.48	301.52
464.85	300.05
465.21	298.83
465.58	297.60
465.95	296.11
466.32	294.85
466.68	293.62
467.05	292.39
467.42	291.20
467.78	289.95
468.15	288.78
468.52	287.81
468.88	286.62
469.25	285.56
469.62	284.73
469.98	283.83
470.35	282.98
470.72	282.23
471.08	281.32
471.45	280.61
471.82	279.84
472.18	279.01
472.55	278.38
472.92	277.70
473.28	277.07
473.65	276.46
474.02	275.81
474.38	275.33
474.75	274.86
475.11	274.35
475.48	273.95
475.85	273.63
476.21	273.28
476.58	273.01
476.94	272.80
477.31	272.47
477.67	272.23
478.04	272.03
478.41	271.87
478.77	271.87
479.14	271.73
479.50	271.70
479.87	271.69
480.23	271.71
480.60	271.73
480.96	271.72
481.33	271.86
481.69	272.04
482.06	272.16
482.42	272.27
482.79	272.50
483.15	272.78
483.52	273.13
483.88	273.43
484.25	273.81
484.61	274.17
484.98	274.58
485.34	275.09
485.71	275.68
486.07	276.27
486.44	276.80
486.80	277.48
487.17	278.17
487.53	278.99
487.90	279.85
488.26	280.81
488.62	281.87
488.99	282.90
489.35	283.96
489.72	285.15
490.08	286.39
490.44	287.69
490.81	289.10
491.17	290.48
491.54	292.07
491.90	293.67
492.26	295.41
492.63	297.26
492.99	299.12
493.36	301.10
493.72	303.22
494.08	305.47
494.45	307.82
494.81	310.31
495.17	312.87
495.54	315.59
495.90	318.39
496.26	321.34
496.63	324.41
496.99	327.72
497.35	331.13
497.72	334.73
498.08	338.44
498.44	342.28
498.80	346.40
499.17	350.65
499.53	355.09
499.89	359.71
500.26	364.45
500.62	369.38
500.98	374.61
501.34	379.94
501.71	385.56
502.07	391.33
502.43	397.32
502.79	403.48
503.16	409.90
503.52	416.53
503.88	423.33
504.24	430.34
504.60	437.61
504.97	445.19
505.33	452.95
505.69	461.10
506.05	469.38
506.41	477.77
506.78	486.44
507.14	495.45
507.50	504.80
507.86	514.48
508.22	524.29
508.59	534.13
508.95	544.43
509.31	554.90
509.67	565.71
510.03	576.69
510.39	587.99
510.75	599.54
511.12	611.21
511.48	623.27
511.84	635.60
512.20	647.96
512.56	660.76
512.92	673.83
513.28	687.15
513.64	700.60
514.00	714.35
514.37	728.35
514.73	742.38
515.09	756.36
515.45	770.61
515.81	785.23
516.17	800.30
516.53	815.58
516.89	830.97
517.25	846.32
517.61	861.91
517.97	877.72
518.33	893.34
518.69	909.36
519.05	925.64
519.41	942.14
519.77	959.10
520.13	975.90
520.49	992.69
520.85	1009.39
521.21	1026.57
521.57	1044.23
521.93	1061.37
522.29	1079.27
522.65	1097.11
523.01	1114.90
523.37	1132.52
523.73	1150.34
524.09	1168.04
524.45	1185.99
524.81	1204.33
525.17	1222.83
525.53	1241.36
525.89	1260.07
526.25	1278.80
526.61	1297.07
526.97	1315.56
527.33	1333.74
527.68	1352.14
528.04	1370.50
528.40	1388.99
528.76	1407.91
529.12	1426.32
529.48	1445.19
529.84	1463.10
530.20	1481.65
530.56	1500.64
530.91	1520.13
531.27	1538.92
531.63	1557.33
531.99	1575.92
532.35	1593.85
532.71	1611.73
533.07	1630.04
533.42	1647.98
533.78	1666.10
534.14	1684.44
534.50	1701.92
534.86	1719.93
535.21	1737.31
535.57	1755.35
535.93	1773.08
536.29	1790.02
536.65	1807.29
537.00	1824.29
537.36	1841.85
537.72	1858.55
538.08	1875.21
538.44	1891.07
538.79	1907.09
539.15	1922.78
539.51	1938.65
539.87	1955.16
540.22	1971.08
540.58	1986.99
540.94	2002.51
541.29	2017.49
541.65	2032.34
542.01	2047.76
542.37	2062.47
542.72	2077.02
543.08	2091.14
543.44	2105.86
543.79	2119.32
544.15	2132.54
544.51	2146.32
544.87	2159.48
545.22	2172.62
545.58	2184.99
545.94	2197.04
546.29	2209.13
546.65	2221.33
547.01	2232.79
547.36	2243.73
547.72	2254.46
548.07	2264.53
548.43	2274.72
548.79	2284.77
549.14	2294.26
549.50	2303.58
549.86	2313.14
550.21	2322.45
550.57	2331.50
550.92	2339.98
551.28	2349.02
551.64	2358.16
551.99	2366.61
552.35	2374.63
552.70	2382.55
553.06	2390.37
553.41	2398.60
553.77	2406.52
554.13	2414.43
554.48	2422.53
554.84	2429.93
555.19	2437.02
555.55	2444.07
555.90	2450.23
556.26	2457.04
556.61	2463.62
556.97	2469.78
557.32	2475.64
557.68	2481.61
558.03	2487.62
558.39	2492.96
558.74	2499.25
559.10	2504.63
559.45	2509.81
559.81	2515.72
560.16	2521.17
560.52	2525.99
560.87	2530.88
561.23	2534.87
561.58	2539.22
561.94	2543.01
562.29	2546.63
562.64	2550.81
563.00	2554.59
563.35	2559.48
563.71	2563.88
564.06	2568.36
564.42	2572.48
564.77	2576.27
565.12	2579.82
565.48	2582.96
565.83	2586.07
566.19	2588.60
566.54	2590.40
566.89	2592.69
567.25	2594.41
567.60	2596.58
567.96	2599.45
568.31	2601.24
568.66	2603.59
569.02	2605.07
569.37	2606.29
569.72	2608.08
570.08	2608.88
570.43	2609.67
570.78	2610.06
571.14	2609.10
571.49	2608.42
571.84	2608.85
572.20	2608.21
572.55	2607.59
572.90	2606.36
573.26	2605.35
573.61	2603.96
573.96	2602.92
574.31	2600.23
574.67	2597.38
575.02	2594.07
575.37	2590.67
575.72	2587.09
576.08	2583.53
576.43	2580.39
576.78	2576.89
577.13	2573.80
577.49	2570.69
577.84	2567.25
578.19	2563.39
578.54	2559.91
578.90	2555.57
579.25	2549.57
579.60	2544.55
579.95	2539.37
580.30	2534.17
580.66	2528.67
581.01	2523.38
581.36	2517.96
581.71	2513.67
582.06	2509.18
582.42	2504.42
582.77	2498.90
583.12	2494.02
583.47	2489.21
583.82	2483.75
584.17	2478.05
584.53	2472.06
584.88	2466.12
585.23	2459.93
585.58	2453.92
585.93	2447.90
586.28	2442.67
586.63	2437.23
586.98	2431.69
587.34	2426.43
587.69	2421.09
588.04	2415.40
588.39	2409.22
588.74	2402.02
589.09	2395.08
589.44	2387.36
589.79	2380.67
590.14	2374.34
590.49	2366.98
590.84	2359.70
591.19	2353.10
591.54	2345.80
591.89	2337.61
592.25	2329.89
592.60	2321.71
592.95	2313.24
593.30	2304.87
593.65	2296.36
594.00	2288.31
594.35	2279.95
594.70	2270.87
595.05	2262.79
595.40	2254.43
595.75	2245.76
596.10	2238.82
596.45	2231.00
596.80	2224.07
597.15	2216.52
597.50	2208.52
597.85	2200.99
598.19	2193.51
598.54	2185.33
598.89	2177.64
599.24	2170.80
599.59	2163.18
599.94	2156.12
600.29	2148.69
600.64	2141.12
600.99	2132.45
601.34	2124.61
601.69	2116.53
602.04	2108.59
602.39	2100.07
602.74	2092.29
603.08	2084.53
603.43	2076.74
603.78	2068.31
604.13	2059.85
604.48	2051.48
604.83	2043.44
605.18	2035.55
605.53	2026.22
605.87	2016.96
606.22	2008.68
606.57	1999.33
606.92	1990.71
607.27	1982.30
607.62	1974.27
607.96	1965.89
608.31	1958.35
608.66	1949.54
609.01	1940.81
609.36	1931.96
609.70	1922.46
610.05	1912.98
610.40	1903.88
610.75	1894.07
611.10	1885.12
611.44	1875.22
611.79	1865.60
612.14	1855.53
612.49	1844.60
612.83	1834.73
613.18	1825.13
613.53	1815.36
613.88	1805.39
614.22	1795.58
614.57	1785.34
614.92	1775.84
615.27	1766.97
615.61	1757.03
615.96	1747.50
616.31	1738.49
616.65	1729.74
617.00	1720.94
617.35	1711.84
617.70	1702.11
618.04	1692.14
618.39	1682.46
618.74	1673.60
619.08	1663.95
619.43	1654.88
619.78	1646.70
620.12	1638.22
620.47	1629.39
620.82	1619.87
621.16	1611.07
621.51	1602.13
621.85	1593.09
622.20	1583.10
622.55	1573.13
622.89	1563.76
623.24	1554.65
623.59	1545.84
623.93	1537.06
624.28	1528.50
624.62	1519.51
624.97	1511.14
625.32	1502.96
625.66	1494.62
626.01	1486.05
626.35	1477.41
626.70	1468.17
627.04	1459.21
627.39	1449.90
627.73	1441.09
628.08	1432.95
628.43	1424.53
628.77	1415.75
629.12	1407.03
629.46	1398.48
629.81	1389.71
630.15	1381.40
630.50	1372.75
630.84	1363.21
631.19	1353.80
631.53	1344.75
631.88	1335.97
632.22	1327.08
632.57	1318.54
632.91	1309.62
633.26	1300.95
633.60	1292.03
633.95	1283.67
634.29	1275.27
634.64	1267.57
634.98	1258.93
635.32	1250.51
635.67	1242.61
636.01	1234.98
636.36	1226.99
636.70	1219.43
637.05	1211.72
637.39	1203.94
637.73	1196.40
638.08	1189.41
638.42	1182.39
638.77	1174.95
639.11	1167.34
639.45	1159.75
639.80	1151.96
640.14	1144.58
640.49	1136.94
640.83	1129.68
641.17	1122.49
641.52	1115.18
641.86	1107.48
642.20	1100.70
642.55	1093.23
642.89	1085.70
643.23	1077.97
643.58	1071.21
643.92	1064.05
644.26	1056.99
644.61	1050.05
644.95	1043.09
645.29	1035.49
645.64	1027.66
645.98	1020.26
646.32	1013.29
646.66	1006.28
647.01	999.55
647.35	992.89
647.69	986.10
648.04	979.61
648.38	972.92
648.72	965.98
649.06	959.00
649.41	952.13
649.75	945.40
650.09	938.51
650.43	931.81
650.78	924.71
651.12	917.76
651.46	911.21
651.80	904.57
652.14	898.19
652.49	891.93
652.83	885.95
653.17	879.49
653.51	873.01
653.85	866.81
654.20	860.38
654.54	853.44
654.88	846.75
655.22	839.95
655.56	833.25
655.90	826.88
656.25	820.91
656.59	814.70
656.93	808.72
657.27	802.78
657.61	796.61
657.95	790.66
658.29	784.76
658.64	778.60
658.98	772.42
659.32	766.19
659.66	760.21
660.00	754.10
660.34	748.29
660.68	742.49
661.02	736.57
661.36	731.07
661.70	725.80
662.05	720.78
662.39	715.72
662.73	710.55
663.07	705.56
663.41	700.30
663.75	695.18
664.09	689.83
664.43	684.66
664.77	679.83
665.11	674.93
665.45	670.12
665.79	665.40
666.13	660.61
666.47	655.80
666.81	650.97
667.15	646.17
667.49	641.68
667.83	637.29
668.17	632.79
668.51	628.08
668.85	623.41
669.19	618.92
669.53	614.55
669.87	610.20
670.21	605.85
670.55	601.73
670.89	597.64
671.23	593.77
671.57	589.75
671.91	585.66
672.25	581.55
672.58	577.54
672.92	573.61
673.26	569.96
673.60	566.26
673.94	562.66
674.28	559.28
674.62	555.90
674.96	552.32
675.30	548.97
675.64	545.57
675.97	542.36
676.31	539.05
676.65	535.71
676.99	532.53
677.33	529.23
677.67	525.96
678.01	522.53
678.34	519.06
678.68	515.77
679.02	512.55
679.36	509.41
679.70	506.21
680.04	503.07
680.37	499.82
680.71	496.58
681.05	493.56
681.39	490.47
681.73	487.39
682.06	484.49
682.40	481.55
682.74	478.65
683.08	475.70
683.42	472.71
683.75	469.77
684.09	466.76
684.43	463.93
684.77	461.10
685.10	458.39
685.44	455.75
685.78	453.09
686.12	450.47
686.45	447.79
686.79	445.15
687.13	442.59
687.46	440.04
687.80	437.60
688.14	434.97
688.48	432.53
688.81	429.94
689.15	427.39
689.49	424.87
689.82	422.41
690.16	420.00
690.50	417.71
690.83	415.48
691.17	413.22
691.51	410.99
691.84	408.83
692.18	406.57
692.52	404.29
692.85	402.04
693.19	399.84
693.52	397.73
693.86	395.59
694.20	393.48
694.53	391.40
694.87	389.24
695.21	387.20
695.54	385.11
695.88	383.06
696.21	381.09
696.55	379.12
696.88	377.20
697.22	375.29
697.56	373.42
697.89	371.49
698.23	369.67
698.56	367.78
698.90	365.91
699.23	364.02
699.57	362.20
699.90	360.40
700.24	358.59
700.58	356.81
700.91	355.10
701.25	353.43
701.58	351.87
701.92	350.33
702.25	348.78
702.59	347.18
702.92	345.67
703.26	344.15
703.59	342.70
703.93	341.30
704.26	339.89
704.60	338.36
704.93	336.88
705.26	335.37
705.60	333.98
705.93	332.62
706.27	331.39
706.60	330.13
706.94	328.85
707.27	327.53
707.61	326.24
707.94	325.04
708.27	323.72
708.61	322.38
708.94	321.15
709.28	319.94
709.61	318.84
709.94	317.73
710.28	316.51
710.61	315.33
710.95	314.06
711.28	312.93
711.61	311.81
711.95	310.75
712.28	309.67
712.61	308.58
712.95	307.50
713.28	306.45
713.61	305.47
713.95	304.46
714.28	303.51
714.61	302.53
714.95	301.58
715.28	300.59
715.61	299.61
715.95	298.62
716.28	297.64
716.61	296.65
716.95	295.70
717.28	294.84
717.61	293.96
717.94	293.11
718.28	292.18
718.61	291.36
718.94	290.56
719.27	289.80
719.61	289.04
719.94	288.31
720.27	287.51
720.60	286.69
720.94	285.95
721.27	285.23
721.60	284.56
721.93	283.84
722.27	283.23
722.60	282.58
722.93	281.91
723.26	281.27
723.59	280.62
723.93	279.94
724.26	279.33
724.59	278.73
724.92	278.15
725.25	277.57
725.59	277.00
725.92	276.40
726.25	275.84
726.58	275.27
726.91	274.68
727.24	274.09
727.57	273.51
727.91	272.92
728.24	272.39
728.57	271.82
728.90	271.27
729.23	270.70
729.56	270.20
729.89	269.66
730.22	269.11
730.55	268.58
730.89	268.07
731.22	267.54
731.55	267.00
731.88	266.47
732.21	265.96
732.54	265.42
732.87	264.90
733.20	264.36
733.53	263.87
733.86	263.42
734.19	262.97
734.52	262.58
734.85	262.23
735.18	261.75
735.51	261.30
735.84	260.88
736.17	260.45
736.50	259.99
736.83	259.72
737.16	259.31
737.49	258.93
737.82	258.55
738.15	258.16
738.48	257.76
738.81	257.39
739.14	257.04
739.47	256.69
739.80	256.37
740.13	256.03
740.46	255.70
740.79	255.32
741.12	254.97
741.45	254.60
741.78	254.15
742.11	253.81
742.44	253.47
742.77	253.13
743.10	252.77
743.43	252.42
743.75	251.98
744.08	251.81
744.41	251.46
744.74	251.11
745.07	250.76
745.40	250.50
745.73	250.20
746.06	249.86
746.39	249.55
746.71	249.21
747.04	248.87
747.37	248.51
747.70	248.23
748.03	247.90
748.36	247.63
748.68	247.34
749.01	247.06
749.34	246.78
749.67	246.52
750.00	246.27
750.33	246.08
750.65	245.84
750.98	245.43
751.31	245.18
751.64	244.96
751.97	244.77
752.29	244.51
752.62	244.23
752.95	243.97
753.28	243.74
753.60	243.53
753.93	243.34
754.26	243.17
754.59	242.94
754.91	242.72
755.24	242.48
755.57	242.29
755.90	242.11
756.22	241.89
756.55	241.64
756.88	241.42
757.20	241.16
757.53	240.92
757.86	240.77
758.19	240.59
758.51	240.40
758.84	240.19
759.17	239.97
759.49	239.79
759.82	239.67
760.15	239.48
760.47	239.31
760.80	239.13
761.13	238.90
761.45	238.69
761.78	238.53
762.11	238.39
762.43	238.22
762.76	238.04
763.08	237.91
763.41	237.75
763.74	237.59
764.06	237.46
764.39	237.32
764.71	237.14
765.04	236.96
765.37	236.80
765.69	236.64
766.02	236.52
766.34	236.37
766.67	236.19
767.00	236.08
767.32	235.96
767.65	235.87
767.97	235.77
768.30	235.65
768.62	235.51
768.95	235.36
769.27	235.24
769.60	235.12
769.92	234.97
770.25	234.86
770.57	234.75
770.90	234.62
771.22	234.48
771.55	234.36
771.87	234.28
772.20	234.15
772.52	234.11
772.85	234.09
773.17	233.97
773.50	233.86
773.82	233.74
774.15	233.60
774.47	233.40
774.80	233.27
775.12	233.14
775.45	233.04
775.77	232.95
776.09	232.87
776.42	232.79
776.74	232.70
777.07	232.61
777.39	232.49
777.72	232.40
778.04	232.32
778.36	232.26
778.69	232.16
779.01	232.11
779.33	231.95
779.66	231.79
779.98	231.73
780.31	231.66
780.63	231.62
780.95	231.54
781.28	231.51
781.60	231.46
781.92	231.40
782.25	231.34
782.57	231.25
782.89	231.15
783.22	231.03
783.54	230.96
783.86	230.91
784.19	230.86
784.51	230.84
784.83	230.75
785.16	230.67
785.48	230.58
785.80	230.49
786.12	230.46
786.45	230.38
