SpectraSuite Data File
++++++++++++++++++++++++++++++++++++
Date: Fri Feb 01 15:01:31 EST 2013
User: group
Dark Spectrum Present: No
Reference Spectrum Present: No
Number of Sampled Component Spectra: 1
Spectrometers: USB2E7196
Integration Time (usec): 35000 (USB2E7196)
Spectra Averaged: 100 (USB2E7196)
Boxcar Smoothing: 10 (USB2E7196)
Correct for Electrical Dark: No (USB2E7196)
Strobe/Lamp Enabled: No (USB2E7196)
Correct for Detector Non-linearity: No (USB2E7196)
Correct for Stray Light: No (USB2E7196)
Number of Pixels in Processed Spectrum: 2048
>>>>>Begin Processed Spectral Data<<<<<
339.09	0.00
339.48	215.71
339.86	216.40
340.24	218.47
340.63	219.54
341.01	222.54
341.39	222.33
341.78	223.55
342.16	224.66
342.54	225.07
342.93	213.60
343.31	224.39
343.69	224.91
344.07	225.37
344.46	225.79
344.84	226.18
345.22	226.40
345.60	226.66
345.99	226.84
346.37	226.98
346.75	227.10
347.13	227.18
347.52	227.16
347.90	227.23
348.28	227.24
348.66	227.29
349.05	227.29
349.43	227.34
349.81	227.36
350.19	227.41
350.57	227.49
350.96	227.59
351.34	227.68
351.72	227.76
352.10	227.87
352.48	227.96
352.87	228.01
353.25	228.06
353.63	228.08
354.01	228.15
354.39	228.22
354.77	228.29
355.15	228.37
355.54	228.47
355.92	228.50
356.30	228.59
356.68	228.75
357.06	228.82
357.44	228.85
357.82	228.91
358.20	229.00
358.58	229.04
358.97	229.07
359.35	229.14
359.73	229.22
360.11	229.24
360.49	229.25
360.87	229.28
361.25	229.36
361.63	229.45
362.01	229.51
362.39	229.53
362.77	229.55
363.15	229.56
363.53	229.61
363.91	229.65
364.29	229.64
364.67	229.54
365.05	229.59
365.43	229.61
365.81	229.63
366.19	229.68
366.57	229.70
366.95	229.68
367.33	229.66
367.71	229.64
368.09	229.64
368.47	229.61
368.85	229.59
369.23	229.57
369.61	229.49
369.99	229.48
370.37	229.46
370.75	229.44
371.13	229.40
371.51	229.27
371.89	229.23
372.27	229.22
372.65	229.16
373.03	229.05
373.41	228.97
373.78	228.85
374.16	228.75
374.54	228.66
374.92	228.60
375.30	228.53
375.68	228.41
376.06	228.38
376.44	228.32
376.82	228.24
377.19	228.16
377.57	228.11
377.95	227.98
378.33	227.92
378.71	227.80
379.09	227.72
379.47	227.68
379.84	227.57
380.22	227.47
380.60	227.36
380.98	227.30
381.36	227.27
381.73	227.22
382.11	227.12
382.49	227.05
382.87	226.93
383.25	226.85
383.62	226.92
384.00	226.81
384.38	226.75
384.76	226.74
385.13	226.72
385.51	226.64
385.89	226.54
386.27	226.48
386.64	226.45
387.02	226.44
387.40	226.39
387.78	226.36
388.15	226.38
388.53	226.35
388.91	226.32
389.29	226.28
389.66	226.27
390.04	226.26
390.42	226.25
390.79	226.26
391.17	226.23
391.55	226.11
391.92	226.10
392.30	226.11
392.68	226.07
393.05	226.06
393.43	226.10
393.81	226.16
394.18	226.17
394.56	226.21
394.94	226.26
395.31	226.33
395.69	226.42
396.06	226.42
396.44	226.48
396.82	226.51
397.19	226.63
397.57	226.67
397.95	226.74
398.32	226.78
398.70	226.87
399.07	226.97
399.45	227.06
399.82	227.17
400.20	227.23
400.58	227.33
400.95	227.39
401.33	227.48
401.70	227.64
402.08	227.76
402.45	227.88
402.83	228.00
403.20	228.09
403.58	228.19
403.95	228.37
404.33	228.54
404.71	228.69
405.08	228.85
405.46	229.01
405.83	229.18
406.21	229.34
406.58	229.50
406.96	229.69
407.33	229.89
407.70	230.06
408.08	230.36
408.45	230.59
408.83	230.85
409.20	231.07
409.58	231.26
409.95	231.52
410.33	231.77
410.70	232.01
411.08	232.34
411.45	232.64
411.82	232.90
412.20	233.23
412.57	233.67
412.95	233.98
413.32	234.40
413.69	234.80
414.07	235.25
414.44	235.77
414.82	236.23
415.19	236.77
415.56	237.33
415.94	237.90
416.31	238.53
416.68	239.15
417.06	239.86
417.43	240.54
417.81	241.31
418.18	242.05
418.55	242.89
418.93	243.72
419.30	244.58
419.67	245.53
420.04	246.51
420.42	247.50
420.79	248.67
421.16	249.83
421.54	251.04
421.91	252.22
422.28	253.45
422.66	254.79
423.03	256.06
423.40	257.41
423.77	258.78
424.15	260.15
424.52	261.64
424.89	263.21
425.26	264.76
425.64	266.21
426.01	267.85
426.38	269.49
426.75	271.17
427.13	272.92
427.50	274.71
427.87	276.56
428.24	278.37
428.61	280.11
428.99	282.03
429.36	284.13
429.73	286.19
430.10	288.20
430.47	290.25
430.85	292.40
431.22	294.60
431.59	296.98
431.96	299.25
432.33	301.75
432.70	304.20
433.08	307.00
433.45	309.62
433.82	312.19
434.19	315.14
434.56	317.99
434.93	320.63
435.30	323.22
435.68	326.12
436.05	329.00
436.42	331.80
436.79	334.32
437.16	337.03
437.53	339.93
437.90	342.80
438.27	345.59
438.64	348.43
439.01	351.09
439.38	353.35
439.75	355.53
440.13	358.03
440.50	360.38
440.87	362.28
441.24	364.25
441.61	366.46
441.98	367.92
442.35	369.79
442.72	371.68
443.09	373.57
443.46	374.60
443.83	375.21
444.20	375.73
444.57	376.61
444.94	376.87
445.31	377.20
445.68	377.55
446.05	377.61
446.42	377.22
446.79	376.77
447.16	376.32
447.53	376.04
447.90	374.88
448.27	373.69
448.64	372.10
449.01	370.98
449.37	368.99
449.74	367.11
450.11	364.80
450.48	362.33
450.85	359.78
451.22	357.59
451.59	355.59
451.96	353.64
452.33	350.98
452.70	348.61
453.07	345.80
453.43	342.87
453.80	340.07
454.17	337.38
454.54	334.84
454.91	332.11
455.28	329.43
455.65	326.94
456.02	324.51
456.38	322.35
456.75	319.64
457.12	317.43
457.49	315.21
457.86	313.04
458.23	311.20
458.59	309.14
458.96	307.08
459.33	305.19
459.70	303.33
460.07	301.85
460.43	300.14
460.80	298.50
461.17	297.09
461.54	295.63
461.91	294.23
462.27	292.77
462.64	291.48
463.01	290.10
463.38	288.83
463.74	287.44
464.11	286.25
464.48	285.22
464.85	284.03
465.21	283.11
465.58	282.15
465.95	281.01
466.32	280.10
466.68	279.20
467.05	278.29
467.42	277.38
467.78	276.43
468.15	275.52
468.52	274.84
468.88	273.92
469.25	273.11
469.62	272.44
469.98	271.73
470.35	271.09
470.72	270.48
471.08	269.75
471.45	269.18
471.82	268.61
472.18	267.95
472.55	267.54
472.92	267.00
473.28	266.55
473.65	266.08
474.02	265.63
474.38	265.23
474.75	264.88
475.11	264.51
475.48	264.22
475.85	264.00
476.21	263.74
476.58	263.53
476.94	263.35
477.31	263.13
477.67	262.99
478.04	262.90
478.41	262.81
478.77	262.85
479.14	262.80
479.50	262.82
479.87	262.93
480.23	262.99
480.60	263.03
480.96	263.08
481.33	263.28
481.69	263.47
482.06	263.61
482.42	263.79
482.79	264.02
483.15	264.32
483.52	264.67
483.88	265.01
484.25	265.44
484.61	265.89
484.98	266.42
485.34	266.97
485.71	267.55
486.07	268.13
486.44	268.71
486.80	269.39
487.17	270.12
487.53	270.95
487.90	271.78
488.26	272.73
488.62	273.76
488.99	274.74
489.35	275.78
489.72	276.95
490.08	278.21
490.44	279.46
490.81	280.84
491.17	282.17
491.54	283.67
491.90	285.19
492.26	286.80
492.63	288.49
492.99	290.27
493.36	292.17
493.72	294.25
494.08	296.35
494.45	298.64
494.81	300.99
495.17	303.38
495.54	305.96
495.90	308.64
496.26	311.39
496.63	314.35
496.99	317.47
497.35	320.67
497.72	324.04
498.08	327.55
498.44	331.17
498.80	335.11
499.17	339.12
499.53	343.28
499.89	347.71
500.26	352.22
500.62	356.87
500.98	361.82
501.34	366.85
501.71	372.17
502.07	377.55
502.43	383.16
502.79	388.95
503.16	394.97
503.52	401.23
503.88	407.66
504.24	414.28
504.60	421.17
504.97	428.31
505.33	435.67
505.69	443.30
506.05	451.03
506.41	458.88
506.78	466.98
507.14	475.40
507.50	484.06
507.86	493.00
508.22	502.13
508.59	511.28
508.95	520.87
509.31	530.66
509.67	540.73
510.03	550.98
510.39	561.50
510.75	572.28
511.12	583.21
511.48	594.46
511.84	605.84
512.20	617.30
512.56	629.21
512.92	641.29
513.28	653.64
513.64	666.17
514.00	678.81
514.37	691.77
514.73	704.80
515.09	717.81
515.45	731.14
515.81	744.79
516.17	758.79
516.53	772.93
516.89	787.06
517.25	801.30
517.61	815.82
517.97	830.32
518.33	844.80
518.69	859.56
519.05	874.56
519.41	889.75
519.77	905.36
520.13	920.86
520.49	936.30
520.85	951.77
521.21	967.56
521.57	983.90
521.93	999.80
522.29	1016.30
522.65	1032.63
523.01	1048.94
523.37	1064.97
523.73	1081.22
524.09	1097.34
524.45	1113.67
524.81	1130.25
525.17	1147.19
525.53	1164.18
525.89	1181.10
526.25	1198.00
526.61	1214.49
526.97	1231.35
527.33	1247.97
527.68	1264.63
528.04	1281.25
528.40	1298.08
528.76	1315.28
529.12	1332.00
529.48	1348.91
529.84	1365.00
530.20	1381.82
530.56	1398.86
530.91	1416.44
531.27	1433.32
531.63	1449.87
531.99	1466.58
532.35	1482.70
532.71	1498.50
533.07	1514.78
533.42	1530.80
533.78	1546.92
534.14	1563.32
534.50	1578.63
534.86	1594.52
535.21	1609.80
535.57	1625.86
535.93	1641.28
536.29	1656.10
536.65	1671.18
537.00	1686.01
537.36	1701.43
537.72	1715.96
538.08	1730.50
538.44	1744.44
538.79	1758.53
539.15	1772.48
539.51	1786.31
539.87	1800.80
540.22	1814.65
540.58	1828.63
540.94	1842.17
541.29	1855.23
541.65	1868.03
542.01	1881.52
542.37	1893.79
542.72	1906.33
543.08	1918.15
543.44	1930.67
543.79	1941.89
544.15	1952.99
544.51	1964.63
544.87	1975.61
545.22	1986.57
545.58	1996.93
545.94	2006.63
546.29	2016.40
546.65	2026.09
547.01	2035.37
547.36	2044.26
547.72	2052.85
548.07	2060.77
548.43	2068.85
548.79	2076.79
549.14	2084.40
549.50	2091.80
549.86	2099.60
550.21	2106.94
550.57	2114.16
550.92	2120.62
551.28	2127.82
551.64	2134.93
551.99	2141.45
552.35	2147.52
552.70	2153.54
553.06	2159.40
553.41	2165.84
553.77	2171.84
554.13	2177.94
554.48	2184.02
554.84	2189.15
555.19	2194.40
555.55	2199.39
555.90	2203.79
556.26	2208.65
556.61	2213.25
556.97	2217.29
557.32	2221.44
557.68	2225.55
558.03	2229.72
558.39	2233.49
558.74	2237.93
559.10	2241.61
559.45	2245.19
559.81	2249.52
560.16	2253.36
560.52	2256.54
560.87	2259.75
561.23	2262.32
561.58	2265.25
561.94	2267.76
562.29	2270.21
562.64	2272.80
563.00	2275.42
563.35	2278.93
563.71	2281.92
564.06	2285.07
564.42	2288.07
564.77	2290.38
565.12	2292.42
565.48	2294.04
565.83	2295.69
566.19	2296.87
566.54	2297.75
566.89	2298.92
567.25	2299.35
567.60	2300.50
567.96	2301.99
568.31	2302.78
568.66	2303.84
569.02	2304.29
569.37	2304.52
569.72	2305.26
570.08	2305.26
570.43	2305.00
570.78	2304.07
571.14	2302.40
571.49	2300.80
571.84	2300.20
572.20	2298.82
572.55	2297.74
572.90	2296.12
573.26	2294.72
573.61	2293.00
573.96	2290.99
574.31	2287.73
574.67	2284.58
575.02	2280.81
575.37	2277.32
575.72	2273.38
576.08	2269.98
576.43	2266.59
576.78	2262.78
577.13	2259.56
577.49	2256.37
577.84	2252.86
578.19	2249.12
578.54	2245.41
578.90	2241.04
579.25	2235.50
579.60	2230.53
579.95	2225.39
580.30	2220.40
580.66	2215.12
581.01	2210.00
581.36	2204.98
581.71	2200.59
582.06	2196.05
582.42	2191.50
582.77	2186.13
583.12	2181.34
583.47	2176.23
583.82	2170.95
584.17	2165.54
584.53	2159.83
584.88	2153.96
585.23	2147.92
585.58	2142.31
585.93	2136.65
586.28	2131.91
586.63	2126.61
586.98	2121.48
587.34	2116.79
587.69	2111.67
588.04	2106.22
588.39	2100.54
588.74	2094.13
589.09	2087.99
589.44	2081.05
589.79	2074.93
590.14	2069.14
590.49	2062.56
590.84	2056.08
591.19	2049.89
591.54	2043.38
591.89	2035.75
592.25	2028.94
592.60	2021.65
592.95	2013.99
593.30	2006.66
593.65	1998.83
594.00	1991.64
594.35	1984.14
594.70	1975.93
595.05	1968.63
595.40	1961.29
595.75	1953.59
596.10	1947.15
596.45	1940.23
596.80	1933.94
597.15	1927.11
597.50	1919.96
597.85	1913.36
598.19	1906.77
598.54	1899.64
598.89	1893.04
599.24	1887.25
599.59	1880.38
599.94	1874.29
600.29	1867.92
600.64	1861.32
600.99	1853.87
601.34	1846.96
601.69	1840.00
602.04	1832.90
602.39	1825.51
602.74	1818.66
603.08	1811.89
603.43	1805.25
603.78	1797.95
604.13	1790.87
604.48	1783.54
604.83	1776.68
605.18	1769.64
605.53	1761.58
605.87	1753.58
606.22	1746.25
606.57	1738.24
606.92	1730.97
607.27	1723.59
607.62	1716.63
607.96	1709.34
608.31	1702.82
608.66	1695.21
609.01	1687.59
609.36	1680.18
609.70	1672.14
610.05	1664.05
610.40	1656.39
610.75	1648.05
611.10	1640.50
611.44	1632.12
611.79	1624.26
612.14	1615.60
612.49	1606.58
612.83	1598.26
613.18	1590.19
613.53	1581.98
613.88	1573.48
614.22	1565.20
614.57	1556.81
614.92	1548.79
615.27	1541.10
615.61	1532.76
615.96	1524.84
616.31	1517.33
616.65	1509.98
617.00	1502.45
617.35	1494.75
617.70	1486.42
618.04	1477.84
618.39	1469.55
618.74	1461.93
619.08	1453.59
619.43	1446.01
619.78	1439.12
620.12	1431.97
620.47	1424.43
620.82	1416.44
621.16	1409.06
621.51	1401.55
621.85	1393.90
622.20	1385.53
622.55	1377.25
622.89	1369.38
623.24	1361.85
623.59	1354.47
623.93	1346.98
624.28	1339.80
624.62	1332.33
624.97	1325.18
625.32	1318.55
625.66	1311.55
626.01	1304.26
626.35	1296.77
626.70	1289.07
627.04	1281.38
627.39	1273.65
627.73	1266.34
628.08	1259.47
628.43	1252.10
628.77	1244.76
629.12	1237.17
629.46	1229.95
629.81	1222.65
630.15	1215.52
630.50	1208.11
630.84	1200.09
631.19	1192.20
631.53	1184.73
631.88	1177.31
632.22	1169.77
632.57	1162.43
632.91	1154.95
633.26	1147.67
633.60	1140.43
633.95	1133.44
634.29	1126.46
634.64	1119.92
634.98	1112.62
635.32	1105.47
635.67	1099.11
636.01	1092.52
636.36	1085.81
636.70	1079.38
637.05	1072.85
637.39	1066.42
637.73	1059.91
638.08	1054.06
638.42	1048.15
638.77	1041.72
639.11	1035.09
639.45	1028.73
639.80	1022.15
640.14	1015.78
640.49	1009.29
640.83	1003.00
641.17	996.76
641.52	990.43
641.86	983.92
642.20	978.07
642.55	971.82
642.89	965.29
643.23	958.79
643.58	952.92
643.92	946.70
644.26	940.66
644.61	934.58
644.95	928.48
645.29	921.83
645.64	915.09
645.98	908.82
646.32	903.10
646.66	897.11
647.01	891.28
647.35	885.55
647.69	879.77
648.04	874.36
648.38	868.61
648.72	862.60
649.06	856.56
649.41	850.55
649.75	844.54
650.09	838.56
650.43	832.73
650.78	826.70
651.12	820.78
651.46	814.96
651.80	809.23
652.14	803.93
652.49	798.63
652.83	793.48
653.17	787.76
653.51	781.95
653.85	776.50
654.20	770.85
654.54	764.94
654.88	759.21
655.22	753.28
655.56	747.61
655.90	742.16
656.25	736.91
656.59	731.72
656.93	726.61
657.27	721.45
657.61	716.08
657.95	711.01
658.29	705.96
658.64	700.77
658.98	695.56
659.32	690.16
659.66	684.97
660.00	679.59
660.34	674.69
660.68	669.80
661.02	664.76
661.36	660.17
661.70	655.71
662.05	651.40
662.39	647.12
662.73	642.67
663.07	638.41
663.41	634.01
663.75	629.49
664.09	625.03
664.43	620.75
664.77	616.66
665.11	612.43
665.45	608.38
665.79	604.39
666.13	600.32
666.47	596.23
666.81	592.06
667.15	588.05
667.49	584.19
667.83	580.51
668.17	576.74
668.51	572.71
668.85	568.66
669.19	564.81
669.53	560.94
669.87	557.14
670.21	553.45
670.55	549.87
670.89	546.48
671.23	543.09
671.57	539.59
671.91	536.09
672.25	532.61
672.58	529.11
672.92	525.68
673.26	522.53
673.60	519.37
673.94	516.33
674.28	513.40
674.62	510.49
674.96	507.36
675.30	504.42
675.64	501.47
675.97	498.77
676.31	495.97
676.65	493.10
676.99	490.35
677.33	487.49
677.67	484.64
678.01	481.63
678.34	478.64
678.68	475.83
679.02	473.06
679.36	470.35
679.70	467.67
680.04	464.96
680.37	462.07
680.71	459.36
681.05	456.78
681.39	454.13
681.73	451.50
682.06	448.98
682.40	446.49
682.74	444.03
683.08	441.51
683.42	438.90
683.75	436.42
684.09	433.93
684.43	431.54
684.77	429.08
685.10	426.75
685.44	424.46
685.78	422.17
686.12	419.92
686.45	417.64
686.79	415.32
687.13	413.10
687.46	410.98
687.80	408.84
688.14	406.60
688.48	404.57
688.81	402.30
689.15	400.19
689.49	398.05
689.82	395.96
690.16	393.90
690.50	391.94
690.83	390.00
691.17	388.00
691.51	386.07
691.84	384.25
692.18	382.35
692.52	380.42
692.85	378.47
693.19	376.56
693.52	374.76
693.86	372.95
694.20	371.22
694.53	369.42
694.87	367.57
695.21	365.78
695.54	363.95
695.88	362.30
696.21	360.54
696.55	358.84
696.88	357.14
697.22	355.43
697.56	353.82
697.89	352.14
698.23	350.57
698.56	348.98
698.90	347.38
699.23	345.73
699.57	344.15
699.90	342.62
700.24	341.09
700.58	339.55
700.91	338.05
701.25	336.59
701.58	335.23
701.92	333.88
702.25	332.52
702.59	331.17
702.92	329.80
703.26	328.51
703.59	327.23
703.93	326.04
704.26	324.83
704.60	323.56
704.93	322.32
705.26	321.09
705.60	319.92
705.93	318.79
706.27	317.80
706.60	316.77
706.94	315.71
707.27	314.58
707.61	313.54
707.94	312.53
708.27	311.46
708.61	310.40
708.94	309.43
709.28	308.48
709.61	307.55
709.94	306.65
710.28	305.66
710.61	304.73
710.95	303.75
711.28	302.87
711.61	301.95
711.95	301.04
712.28	300.11
712.61	299.13
712.95	298.21
713.28	297.33
713.61	296.49
713.95	295.62
714.28	294.84
714.61	293.99
714.95	293.20
715.28	292.39
715.61	291.51
715.95	290.64
716.28	289.80
716.61	289.01
716.95	288.18
717.28	287.46
717.61	286.72
717.94	285.95
718.28	285.12
718.61	284.39
718.94	283.76
719.27	283.12
719.61	282.48
719.94	281.84
720.27	281.14
720.60	280.41
720.94	279.80
721.27	279.22
721.60	278.64
721.93	278.03
722.27	277.47
722.60	276.96
722.93	276.40
723.26	275.86
723.59	275.27
723.93	274.79
724.26	274.24
724.59	273.63
724.92	273.10
725.25	272.63
725.59	272.12
725.92	271.57
726.25	271.07
726.58	270.58
726.91	270.09
727.24	269.59
727.57	269.14
727.91	268.62
728.24	268.12
728.57	267.63
728.90	267.16
729.23	266.64
729.56	266.22
729.89	265.74
730.22	265.25
730.55	264.79
730.89	264.31
731.22	263.85
731.55	263.44
731.88	263.04
732.21	262.62
732.54	262.14
732.87	261.73
733.20	261.32
733.53	260.92
733.86	260.53
734.19	260.11
734.52	259.72
734.85	259.41
735.18	258.98
735.51	258.62
735.84	258.26
736.17	257.94
736.50	257.48
736.83	257.21
737.16	256.86
737.49	256.51
737.82	256.15
738.15	255.78
738.48	255.43
738.81	255.04
739.14	254.73
739.47	254.43
739.80	254.12
740.13	253.78
740.46	253.45
740.79	253.13
741.12	252.83
741.45	252.52
741.78	252.18
742.11	251.93
742.44	251.58
742.77	251.30
743.10	250.93
743.43	250.67
743.75	250.32
744.08	250.18
744.41	249.91
744.74	249.63
745.07	249.37
745.40	249.14
745.73	248.94
746.06	248.64
746.39	248.38
746.71	248.06
747.04	247.80
747.37	247.56
747.70	247.30
748.03	247.05
748.36	246.83
748.68	246.58
749.01	246.32
749.34	246.12
749.67	245.88
750.00	245.70
750.33	245.53
750.65	245.35
750.98	245.01
751.31	244.81
751.64	244.61
751.97	244.46
752.29	244.27
752.62	243.99
752.95	243.79
753.28	243.58
753.60	243.40
753.93	243.24
754.26	243.05
754.59	242.86
754.91	242.67
755.24	242.47
755.57	242.29
755.90	242.14
756.22	241.94
756.55	241.78
756.88	241.60
757.20	241.38
757.53	241.15
757.86	240.96
758.19	240.77
758.51	240.61
758.84	240.39
759.17	240.22
759.49	240.07
759.82	239.96
760.15	239.84
760.47	239.70
760.80	239.50
761.13	239.38
761.45	239.20
761.78	239.07
762.11	238.93
762.43	238.78
762.76	238.63
763.08	238.52
763.41	238.39
763.74	238.28
764.06	238.19
764.39	238.03
764.71	237.93
765.04	237.77
765.37	237.61
765.69	237.50
766.02	237.35
766.34	237.23
766.67	237.05
767.00	236.97
767.32	236.91
767.65	236.89
767.97	236.73
768.30	236.66
768.62	236.53
768.95	236.40
769.27	236.30
769.60	236.20
769.92	236.07
770.25	235.94
770.57	235.79
770.90	235.62
771.22	235.51
771.55	235.40
771.87	235.35
772.20	235.30
772.52	235.28
772.85	235.30
773.17	235.23
773.50	235.12
773.82	235.00
774.15	234.84
774.47	234.66
774.80	234.58
775.12	234.47
775.45	234.38
775.77	234.34
776.09	234.26
776.42	234.16
776.74	234.12
777.07	234.02
777.39	233.95
777.72	233.90
778.04	233.86
778.36	233.79
778.69	233.72
779.01	233.64
779.33	233.47
779.66	233.28
779.98	233.20
780.31	233.10
780.63	233.08
780.95	233.04
781.28	232.98
781.60	232.92
781.92	232.85
782.25	232.80
782.57	232.75
782.89	232.67
783.22	232.62
783.54	232.56
783.86	232.51
784.19	232.41
784.51	232.38
784.83	232.33
785.16	232.29
785.48	232.21
785.80	232.12
786.12	232.08
786.45	232.03
786.77	232.00
787.09	232.03
