SpectraSuite Data File
++++++++++++++++++++++++++++++++++++
Date: Fri Feb 01 15:09:38 EST 2013
User: group
Dark Spectrum Present: No
Reference Spectrum Present: No
Number of Sampled Component Spectra: 1
Spectrometers: USB2E7196
Integration Time (usec): 35000 (USB2E7196)
Spectra Averaged: 100 (USB2E7196)
Boxcar Smoothing: 10 (USB2E7196)
Correct for Electrical Dark: No (USB2E7196)
Strobe/Lamp Enabled: No (USB2E7196)
Correct for Detector Non-linearity: No (USB2E7196)
Correct for Stray Light: No (USB2E7196)
Number of Pixels in Processed Spectrum: 2048
>>>>>Begin Processed Spectral Data<<<<<
339.09	0.00
339.48	215.33
339.86	216.55
340.24	217.97
340.63	219.25
341.01	221.77
341.39	221.78
341.78	223.43
342.16	224.16
342.54	225.26
342.93	213.43
343.31	224.20
343.69	224.70
344.07	225.16
344.46	225.57
344.84	225.93
345.22	226.19
345.60	226.45
345.99	226.61
346.37	226.76
346.75	226.83
347.13	226.87
347.52	226.94
347.90	227.00
348.28	227.01
348.66	227.05
349.05	227.04
349.43	227.06
349.81	227.12
350.19	227.14
350.57	227.18
350.96	227.23
351.34	227.30
351.72	227.40
352.10	227.49
352.48	227.55
352.87	227.62
353.25	227.68
353.63	227.73
354.01	227.81
354.39	227.87
354.77	227.99
355.15	228.12
355.54	228.17
355.92	228.20
356.30	228.30
356.68	228.46
357.06	228.53
357.44	228.57
357.82	228.62
358.20	228.70
358.58	228.78
358.97	228.85
359.35	228.98
359.73	229.06
360.11	229.13
360.49	229.19
360.87	229.26
361.25	229.29
361.63	229.37
362.01	229.45
362.39	229.48
362.77	229.50
363.15	229.49
363.53	229.49
363.91	229.55
364.29	229.58
364.67	229.49
365.05	229.52
365.43	229.57
365.81	229.60
366.19	229.62
366.57	229.68
366.95	229.68
367.33	229.63
367.71	229.62
368.09	229.61
368.47	229.62
368.85	229.57
369.23	229.60
369.61	229.53
369.99	229.53
370.37	229.54
370.75	229.53
371.13	229.50
371.51	229.47
371.89	229.42
372.27	229.37
372.65	229.33
373.03	229.30
373.41	229.24
373.78	229.17
374.16	229.08
374.54	228.97
374.92	228.89
375.30	228.85
375.68	228.78
376.06	228.76
376.44	228.66
376.82	228.63
377.19	228.57
377.57	228.49
377.95	228.39
378.33	228.26
378.71	228.13
379.09	228.04
379.47	228.00
379.84	227.90
380.22	227.80
380.60	227.71
380.98	227.63
381.36	227.53
381.73	227.42
382.11	227.36
382.49	227.33
382.87	227.25
383.25	227.15
383.62	227.18
384.00	227.06
384.38	227.03
384.76	226.98
385.13	226.92
385.51	226.88
385.89	226.77
386.27	226.77
386.64	226.71
387.02	226.66
387.40	226.59
387.78	226.57
388.15	226.55
388.53	226.49
388.91	226.45
389.29	226.43
389.66	226.40
390.04	226.39
390.42	226.38
390.79	226.31
391.17	226.31
391.55	226.16
391.92	226.16
392.30	226.12
392.68	226.09
393.05	226.09
393.43	226.08
393.81	226.13
394.18	226.12
394.56	226.17
394.94	226.23
395.31	226.25
395.69	226.29
396.06	226.31
396.44	226.37
396.82	226.40
397.19	226.50
397.57	226.57
397.95	226.62
398.32	226.62
398.70	226.73
399.07	226.82
399.45	226.94
399.82	227.03
400.20	227.10
400.58	227.19
400.95	227.25
401.33	227.39
401.70	227.53
402.08	227.61
402.45	227.70
402.83	227.79
403.20	227.90
403.58	228.02
403.95	228.20
404.33	228.33
404.71	228.46
405.08	228.67
405.46	228.80
405.83	228.98
406.21	229.15
406.58	229.35
406.96	229.52
407.33	229.68
407.70	229.87
408.08	230.18
408.45	230.40
408.83	230.68
409.20	230.88
409.58	231.10
409.95	231.38
410.33	231.70
410.70	231.98
411.08	232.29
411.45	232.64
411.82	232.94
412.20	233.35
412.57	233.79
412.95	234.08
413.32	234.52
413.69	234.95
414.07	235.38
414.44	235.84
414.82	236.31
415.19	236.87
415.56	237.42
415.94	237.94
416.31	238.59
416.68	239.18
417.06	239.92
417.43	240.59
417.81	241.36
418.18	242.11
418.55	242.95
418.93	243.82
419.30	244.73
419.67	245.69
420.04	246.60
420.42	247.58
420.79	248.74
421.16	249.87
421.54	251.08
421.91	252.32
422.28	253.56
422.66	254.92
423.03	256.24
423.40	257.57
423.77	259.01
424.15	260.41
424.52	261.93
424.89	263.53
425.26	265.11
425.64	266.56
426.01	268.12
426.38	269.81
426.75	271.46
427.13	273.18
427.50	274.97
427.87	276.84
428.24	278.67
428.61	280.42
428.99	282.35
429.36	284.39
429.73	286.43
430.10	288.48
430.47	290.54
430.85	292.66
431.22	294.97
431.59	297.39
431.96	299.65
432.33	302.11
432.70	304.46
433.08	307.27
433.45	309.91
433.82	312.53
434.19	315.37
434.56	318.19
434.93	320.85
435.30	323.51
435.68	326.41
436.05	329.21
436.42	331.99
436.79	334.54
437.16	337.26
437.53	340.05
437.90	342.81
438.27	345.54
438.64	348.33
439.01	350.90
439.38	353.07
439.75	355.16
440.13	357.65
440.50	360.01
440.87	361.83
441.24	363.79
441.61	365.97
441.98	367.45
442.35	369.28
442.72	371.09
443.09	372.83
443.46	373.83
443.83	374.47
444.20	374.99
444.57	375.79
444.94	376.08
445.31	376.46
445.68	376.83
446.05	376.89
446.42	376.51
446.79	376.07
447.16	375.62
447.53	375.34
447.90	374.18
448.27	373.01
448.64	371.45
449.01	370.30
449.37	368.33
449.74	366.46
450.11	364.19
450.48	361.72
450.85	359.23
451.22	357.11
451.59	355.06
451.96	353.12
452.33	350.53
452.70	348.16
453.07	345.32
453.43	342.41
453.80	339.67
454.17	337.00
454.54	334.43
454.91	331.70
455.28	329.05
455.65	326.55
456.02	324.10
456.38	321.93
456.75	319.23
457.12	316.96
457.49	314.71
457.86	312.52
458.23	310.67
458.59	308.63
458.96	306.53
459.33	304.70
459.70	302.87
460.07	301.38
460.43	299.69
460.80	298.10
461.17	296.66
461.54	295.15
461.91	293.72
462.27	292.28
462.64	291.06
463.01	289.73
463.38	288.46
463.74	287.06
464.11	285.90
464.48	284.91
464.85	283.79
465.21	282.96
465.58	282.02
465.95	280.90
466.32	279.96
466.68	279.05
467.05	278.13
467.42	277.21
467.78	276.25
468.15	275.34
468.52	274.61
468.88	273.75
469.25	272.98
469.62	272.35
469.98	271.68
470.35	270.98
470.72	270.36
471.08	269.66
471.45	269.17
471.82	268.60
472.18	268.00
472.55	267.56
472.92	267.00
473.28	266.54
473.65	266.08
474.02	265.66
474.38	265.29
474.75	264.94
475.11	264.55
475.48	264.30
475.85	264.05
476.21	263.83
476.58	263.66
476.94	263.51
477.31	263.35
477.67	263.18
478.04	263.06
478.41	262.98
478.77	263.02
479.14	262.91
479.50	262.91
479.87	262.95
480.23	262.99
480.60	263.08
480.96	263.16
481.33	263.37
481.69	263.55
482.06	263.71
482.42	263.91
482.79	264.18
483.15	264.46
483.52	264.81
483.88	265.13
484.25	265.50
484.61	265.88
484.98	266.30
485.34	266.83
485.71	267.45
486.07	268.03
486.44	268.60
486.80	269.30
487.17	270.02
487.53	270.81
487.90	271.65
488.26	272.55
488.62	273.52
488.99	274.48
489.35	275.51
489.72	276.60
490.08	277.78
490.44	279.02
490.81	280.36
491.17	281.69
491.54	283.21
491.90	284.73
492.26	286.38
492.63	288.12
492.99	289.92
493.36	291.80
493.72	293.84
494.08	295.93
494.45	298.18
494.81	300.55
495.17	302.99
495.54	305.61
495.90	308.24
496.26	311.03
496.63	314.01
496.99	317.09
497.35	320.35
497.72	323.75
498.08	327.25
498.44	330.89
498.80	334.83
499.17	338.83
499.53	343.01
499.89	347.34
500.26	351.81
500.62	356.45
500.98	361.42
501.34	366.48
501.71	371.78
502.07	377.19
502.43	382.82
502.79	388.67
503.16	394.71
503.52	401.02
503.88	407.43
504.24	414.05
504.60	420.96
504.97	428.06
505.33	435.45
505.69	443.16
506.05	450.97
506.41	458.87
506.78	467.04
507.14	475.48
507.50	484.19
507.86	493.23
508.22	502.39
508.59	511.57
508.95	521.15
509.31	530.99
509.67	541.06
510.03	551.32
510.39	561.83
510.75	572.66
511.12	583.59
511.48	594.96
511.84	606.41
512.20	617.97
512.56	630.02
512.92	642.13
513.28	654.43
513.64	666.95
514.00	679.66
514.37	692.62
514.73	705.66
515.09	718.78
515.45	732.06
515.81	745.68
516.17	759.70
516.53	773.89
516.89	788.02
517.25	802.29
517.61	816.73
517.97	831.22
518.33	845.70
518.69	860.61
519.05	875.55
519.41	890.72
519.77	906.34
520.13	921.75
520.49	937.19
520.85	952.75
521.21	968.44
521.57	984.66
521.93	1000.45
522.29	1016.86
522.65	1033.18
523.01	1049.44
523.37	1065.62
523.73	1081.81
524.09	1097.92
524.45	1114.29
524.81	1130.92
525.17	1147.90
525.53	1164.83
525.89	1181.68
526.25	1198.45
526.61	1214.89
526.97	1231.73
527.33	1248.17
527.68	1264.84
528.04	1281.36
528.40	1298.07
528.76	1315.20
529.12	1331.86
529.48	1348.76
529.84	1364.93
530.20	1381.60
530.56	1398.84
530.91	1416.29
531.27	1433.22
531.63	1449.70
531.99	1466.30
532.35	1482.35
532.71	1498.23
533.07	1514.57
533.42	1530.48
533.78	1546.53
534.14	1562.82
534.50	1578.26
534.86	1594.19
535.21	1609.44
535.57	1625.57
535.93	1641.04
536.29	1655.92
536.65	1671.24
537.00	1686.26
537.36	1701.68
537.72	1716.35
538.08	1730.63
538.44	1744.43
538.79	1758.30
539.15	1772.18
539.51	1786.11
539.87	1800.59
540.22	1814.40
540.58	1828.32
540.94	1841.82
541.29	1854.88
541.65	1867.74
542.01	1880.99
542.37	1893.29
542.72	1905.84
543.08	1917.57
543.44	1930.12
543.79	1941.39
544.15	1952.28
544.51	1963.78
544.87	1974.65
545.22	1985.50
545.58	1995.82
545.94	2005.69
546.29	2015.59
546.65	2025.24
547.01	2034.55
547.36	2043.33
547.72	2051.96
548.07	2059.69
548.43	2067.98
548.79	2076.05
549.14	2083.65
549.50	2091.04
549.86	2098.99
550.21	2106.22
550.57	2113.45
550.92	2120.00
551.28	2127.11
551.64	2134.33
551.99	2140.97
552.35	2147.24
552.70	2153.37
553.06	2159.36
553.41	2165.73
553.77	2171.76
554.13	2177.92
554.48	2183.94
554.84	2189.24
555.19	2194.47
555.55	2199.53
555.90	2203.90
556.26	2208.66
556.61	2213.31
556.97	2217.27
557.32	2221.35
557.68	2225.51
558.03	2229.69
558.39	2233.35
558.74	2238.03
559.10	2241.71
559.45	2245.27
559.81	2249.58
560.16	2253.25
560.52	2256.55
560.87	2259.92
561.23	2262.54
561.58	2265.61
561.94	2268.16
562.29	2270.57
562.64	2273.10
563.00	2275.91
563.35	2279.33
563.71	2282.42
564.06	2285.57
564.42	2288.60
564.77	2290.88
565.12	2292.90
565.48	2294.69
565.83	2296.45
566.19	2297.47
566.54	2298.52
566.89	2299.52
567.25	2299.89
567.60	2301.27
567.96	2302.83
568.31	2303.51
568.66	2304.54
569.02	2304.94
569.37	2305.09
569.72	2305.75
570.08	2305.71
570.43	2305.48
570.78	2304.83
571.14	2303.32
571.49	2301.89
571.84	2301.35
572.20	2300.09
572.55	2299.12
572.90	2297.48
573.26	2295.92
573.61	2294.16
573.96	2292.18
574.31	2289.08
574.67	2285.95
575.02	2282.20
575.37	2278.55
575.72	2274.61
576.08	2271.15
576.43	2267.77
576.78	2263.98
577.13	2261.08
577.49	2258.08
577.84	2254.50
578.19	2250.61
578.54	2246.78
578.90	2242.42
579.25	2236.85
579.60	2231.79
579.95	2226.63
580.30	2221.57
580.66	2216.39
581.01	2211.39
581.36	2206.18
581.71	2201.95
582.06	2197.39
582.42	2192.64
582.77	2187.30
583.12	2182.65
583.47	2177.73
583.82	2172.38
584.17	2167.11
584.53	2161.27
584.88	2155.47
585.23	2149.46
585.58	2143.87
585.93	2138.42
586.28	2133.75
586.63	2128.64
586.98	2123.54
587.34	2118.81
587.69	2113.84
588.04	2108.50
588.39	2102.80
588.74	2096.36
589.09	2090.10
589.44	2083.24
589.79	2077.41
590.14	2071.75
590.49	2065.04
590.84	2058.68
591.19	2052.78
591.54	2046.31
591.89	2038.64
592.25	2031.81
592.60	2024.65
592.95	2016.96
593.30	2009.47
593.65	2001.65
594.00	1994.59
594.35	1987.26
594.70	1979.31
595.05	1971.95
595.40	1964.62
595.75	1956.99
596.10	1950.57
596.45	1943.70
596.80	1937.51
597.15	1930.62
597.50	1923.40
597.85	1916.99
598.19	1910.30
598.54	1903.11
598.89	1896.45
599.24	1890.62
599.59	1883.79
599.94	1877.57
600.29	1871.36
600.64	1864.84
600.99	1857.30
601.34	1850.24
601.69	1843.20
602.04	1836.06
602.39	1828.72
602.74	1821.80
603.08	1815.13
603.43	1808.44
603.78	1801.14
604.13	1793.91
604.48	1786.49
604.83	1779.74
605.18	1772.76
605.53	1764.56
605.87	1756.58
606.22	1749.24
606.57	1741.32
606.92	1734.01
607.27	1726.82
607.62	1719.75
607.96	1712.33
608.31	1705.57
608.66	1697.98
609.01	1690.42
609.36	1682.88
609.70	1674.76
610.05	1666.65
610.40	1658.76
610.75	1650.40
611.10	1642.76
611.44	1634.42
611.79	1626.53
612.14	1617.78
612.49	1608.58
612.83	1600.37
613.18	1592.19
613.53	1584.06
613.88	1575.45
614.22	1567.12
614.57	1558.51
614.92	1550.51
615.27	1542.93
615.61	1534.74
615.96	1526.83
616.31	1519.28
616.65	1511.90
617.00	1504.42
617.35	1496.86
617.70	1488.54
618.04	1480.05
618.39	1471.69
618.74	1464.13
619.08	1455.85
619.43	1448.30
619.78	1441.48
620.12	1434.24
620.47	1426.72
620.82	1418.65
621.16	1411.33
621.51	1403.81
621.85	1396.28
622.20	1387.80
622.55	1379.43
622.89	1371.67
623.24	1364.06
623.59	1356.82
623.93	1349.34
624.28	1342.14
624.62	1334.47
624.97	1327.38
625.32	1320.75
625.66	1313.86
626.01	1306.58
626.35	1299.15
626.70	1291.40
627.04	1283.66
627.39	1275.93
627.73	1268.47
628.08	1261.50
628.43	1254.16
628.77	1246.76
629.12	1239.20
629.46	1232.05
629.81	1224.76
630.15	1217.41
630.50	1210.10
630.84	1201.77
631.19	1193.83
631.53	1186.37
631.88	1178.92
632.22	1171.35
632.57	1164.07
632.91	1156.64
633.26	1149.16
633.60	1141.74
633.95	1134.79
634.29	1127.71
634.64	1121.08
634.98	1113.84
635.32	1106.77
635.67	1100.39
636.01	1093.81
636.36	1087.04
636.70	1080.49
637.05	1073.97
637.39	1067.58
637.73	1061.01
638.08	1055.22
638.42	1049.31
638.77	1042.85
639.11	1036.28
639.45	1029.99
639.80	1023.32
640.14	1016.82
640.49	1010.36
640.83	1004.16
641.17	997.77
641.52	991.58
641.86	985.24
642.20	979.45
642.55	973.25
642.89	966.69
643.23	960.25
643.58	954.43
643.92	948.23
644.26	942.11
644.61	936.11
644.95	930.07
645.29	923.45
645.64	916.74
645.98	910.50
646.32	904.62
646.66	898.56
647.01	892.69
647.35	887.06
647.69	881.33
648.04	875.82
648.38	870.08
648.72	864.01
649.06	857.91
649.41	852.02
649.75	845.91
650.09	839.90
650.43	833.98
650.78	827.81
651.12	821.88
651.46	816.20
651.80	810.40
652.14	805.02
652.49	799.71
652.83	794.51
653.17	788.75
653.51	783.07
653.85	777.66
654.20	772.07
654.54	766.06
654.88	760.33
655.22	754.44
655.56	748.79
655.90	743.37
656.25	738.09
656.59	732.70
656.93	727.59
657.27	722.44
657.61	717.11
657.95	712.01
658.29	706.97
658.64	701.71
658.98	696.47
659.32	691.07
659.66	685.82
660.00	680.51
660.34	675.59
660.68	670.73
661.02	665.68
661.36	661.03
661.70	656.59
662.05	652.20
662.39	647.93
662.73	643.51
663.07	639.18
663.41	634.81
663.75	630.30
664.09	625.79
664.43	621.47
664.77	617.34
665.11	613.17
665.45	609.03
665.79	604.99
666.13	600.98
666.47	596.85
666.81	592.68
667.15	588.56
667.49	584.69
667.83	580.89
668.17	577.04
668.51	572.91
668.85	568.92
669.19	565.11
669.53	561.26
669.87	557.40
670.21	553.70
670.55	550.02
670.89	546.68
671.23	543.28
671.57	539.77
671.91	536.20
672.25	532.71
672.58	529.26
672.92	525.88
673.26	522.67
673.60	519.61
673.94	516.53
674.28	513.68
674.62	510.79
674.96	507.68
675.30	504.74
675.64	501.88
675.97	499.13
676.31	496.28
676.65	493.35
676.99	490.65
677.33	487.78
677.67	485.00
678.01	481.96
678.34	479.02
678.68	476.17
679.02	473.40
679.36	470.70
679.70	468.01
680.04	465.27
680.37	462.36
680.71	459.59
681.05	457.03
681.39	454.35
681.73	451.71
682.06	449.20
682.40	446.70
682.74	444.20
683.08	441.64
683.42	439.07
683.75	436.62
684.09	434.08
684.43	431.64
684.77	429.17
685.10	426.87
685.44	424.59
685.78	422.32
686.12	420.10
686.45	417.86
686.79	415.56
687.13	413.38
687.46	411.27
687.80	409.12
688.14	406.88
688.48	404.87
688.81	402.58
689.15	400.45
689.49	398.32
689.82	396.24
690.16	394.12
690.50	392.19
690.83	390.26
691.17	388.30
691.51	386.36
691.84	384.50
692.18	382.56
692.52	380.59
692.85	378.67
693.19	376.77
693.52	374.94
693.86	373.16
694.20	371.41
694.53	369.62
694.87	367.78
695.21	366.00
695.54	364.17
695.88	362.51
696.21	360.80
696.55	359.09
696.88	357.42
697.22	355.83
697.56	354.19
697.89	352.49
698.23	350.89
698.56	349.27
698.90	347.67
699.23	346.00
699.57	344.40
699.90	342.88
700.24	341.34
700.58	339.77
700.91	338.22
701.25	336.68
701.58	335.30
701.92	333.94
702.25	332.53
702.59	331.15
702.92	329.82
703.26	328.52
703.59	327.26
703.93	326.11
704.26	324.84
704.60	323.57
704.93	322.31
705.26	321.05
705.60	319.93
705.93	318.83
706.27	317.80
706.60	316.74
706.94	315.63
707.27	314.51
707.61	313.44
707.94	312.42
708.27	311.38
708.61	310.31
708.94	309.30
709.28	308.36
709.61	307.38
709.94	306.42
710.28	305.41
710.61	304.43
710.95	303.32
711.28	302.43
711.61	301.47
711.95	300.60
712.28	299.69
712.61	298.69
712.95	297.75
713.28	296.92
713.61	296.09
713.95	295.21
714.28	294.40
714.61	293.57
714.95	292.72
715.28	291.87
715.61	291.04
715.95	290.18
716.28	289.33
716.61	288.53
716.95	287.72
717.28	287.01
717.61	286.28
717.94	285.59
718.28	284.78
718.61	284.11
718.94	283.43
719.27	282.78
719.61	282.15
719.94	281.51
720.27	280.79
720.60	280.12
720.94	279.50
721.27	278.94
721.60	278.36
721.93	277.80
722.27	277.29
722.60	276.69
722.93	276.15
723.26	275.63
723.59	275.09
723.93	274.57
724.26	274.02
724.59	273.46
724.92	272.95
725.25	272.49
725.59	271.93
725.92	271.40
726.25	270.93
726.58	270.46
726.91	269.95
727.24	269.47
727.57	269.03
727.91	268.58
728.24	268.13
728.57	267.65
728.90	267.20
729.23	266.70
729.56	266.31
729.89	265.87
730.22	265.38
730.55	264.89
730.89	264.43
731.22	263.99
731.55	263.56
731.88	263.09
732.21	262.64
732.54	262.21
732.87	261.81
733.20	261.37
733.53	261.01
733.86	260.62
734.19	260.20
734.52	259.77
734.85	259.43
735.18	259.00
735.51	258.64
735.84	258.24
736.17	257.87
736.50	257.43
736.83	257.17
737.16	256.85
737.49	256.47
737.82	256.10
738.15	255.75
738.48	255.40
738.81	255.11
739.14	254.79
739.47	254.45
739.80	254.13
740.13	253.85
740.46	253.48
740.79	253.14
741.12	252.87
741.45	252.57
741.78	252.24
742.11	251.91
742.44	251.58
742.77	251.31
743.10	251.01
743.43	250.71
743.75	250.32
744.08	250.16
744.41	249.93
744.74	249.65
745.07	249.38
745.40	249.15
745.73	248.90
746.06	248.62
746.39	248.40
746.71	248.10
747.04	247.80
747.37	247.53
747.70	247.31
748.03	247.01
748.36	246.79
748.68	246.51
749.01	246.27
749.34	246.07
749.67	245.82
750.00	245.59
750.33	245.45
750.65	245.25
750.98	244.90
751.31	244.65
751.64	244.44
751.97	244.23
752.29	243.99
752.62	243.70
752.95	243.49
753.28	243.28
753.60	243.06
753.93	242.88
754.26	242.69
754.59	242.46
754.91	242.28
755.24	242.09
755.57	241.94
755.90	241.76
756.22	241.54
756.55	241.37
756.88	241.21
757.20	240.96
757.53	240.76
757.86	240.60
758.19	240.45
758.51	240.31
758.84	240.17
759.17	239.99
759.49	239.88
759.82	239.76
760.15	239.61
760.47	239.51
760.80	239.32
761.13	239.16
761.45	239.03
761.78	238.86
762.11	238.71
762.43	238.53
762.76	238.39
763.08	238.25
763.41	238.14
763.74	238.00
764.06	237.88
764.39	237.70
764.71	237.59
765.04	237.48
765.37	237.37
765.69	237.20
766.02	237.09
766.34	236.96
766.67	236.83
767.00	236.73
767.32	236.66
767.65	236.63
767.97	236.54
768.30	236.45
768.62	236.39
768.95	236.27
769.27	236.19
769.60	236.08
769.92	235.99
770.25	235.83
770.57	235.71
770.90	235.62
771.22	235.54
771.55	235.43
771.87	235.32
772.20	235.20
772.52	235.23
772.85	235.25
773.17	235.14
773.50	235.03
773.82	234.92
774.15	234.81
774.47	234.66
774.80	234.58
775.12	234.49
775.45	234.37
775.77	234.30
776.09	234.21
776.42	234.15
776.74	234.10
777.07	234.03
777.39	233.94
777.72	233.85
778.04	233.80
778.36	233.74
778.69	233.65
779.01	233.58
779.33	233.39
779.66	233.22
779.98	233.16
780.31	233.09
780.63	233.05
780.95	232.97
781.28	232.91
781.60	232.81
781.92	232.71
782.25	232.64
782.57	232.55
782.89	232.47
783.22	232.37
783.54	232.25
783.86	232.20
784.19	232.13
784.51	232.14
784.83	232.05
785.16	231.97
785.48	231.93
785.80	231.85
786.12	231.82
786.45	231.75
786.77	231.71
787.09	231.65
