SpectraSuite Data File
++++++++++++++++++++++++++++++++++++
Date: Fri Feb 01 17:38:14 EST 2013
User: group
Dark Spectrum Present: No
Reference Spectrum Present: No
Number of Sampled Component Spectra: 1
Spectrometers: USB2E7196
Integration Time (usec): 35000 (USB2E7196)
Spectra Averaged: 100 (USB2E7196)
Boxcar Smoothing: 10 (USB2E7196)
Correct for Electrical Dark: No (USB2E7196)
Strobe/Lamp Enabled: No (USB2E7196)
Correct for Detector Non-linearity: No (USB2E7196)
Correct for Stray Light: No (USB2E7196)
Number of Pixels in Processed Spectrum: 2048
>>>>>Begin Processed Spectral Data<<<<<
339.09	0.00
339.48	212.92
339.86	214.06
340.24	215.51
340.63	217.68
341.01	220.12
341.39	219.88
341.78	220.98
342.16	222.43
342.54	222.94
342.93	211.33
343.31	222.01
343.69	222.56
344.07	223.06
344.46	223.51
344.84	223.86
345.22	224.10
345.60	224.35
345.99	224.53
346.37	224.65
346.75	224.73
347.13	224.78
347.52	224.85
347.90	224.91
348.28	224.89
348.66	224.96
349.05	224.97
349.43	224.99
349.81	225.06
350.19	225.13
350.57	225.16
350.96	225.25
351.34	225.32
351.72	225.41
352.10	225.46
352.48	225.52
352.87	225.59
353.25	225.65
353.63	225.71
354.01	225.80
354.39	225.87
354.77	225.96
355.15	226.08
355.54	226.12
355.92	226.18
356.30	226.28
356.68	226.43
357.06	226.52
357.44	226.58
357.82	226.62
358.20	226.70
358.58	226.76
358.97	226.79
359.35	226.89
359.73	226.97
360.11	227.04
360.49	227.07
360.87	227.11
361.25	227.16
361.63	227.23
362.01	227.26
362.39	227.29
362.77	227.33
363.15	227.33
363.53	227.36
363.91	227.36
364.29	227.37
364.67	227.29
365.05	227.32
365.43	227.36
365.81	227.38
366.19	227.40
366.57	227.46
366.95	227.47
367.33	227.43
367.71	227.39
368.09	227.38
368.47	227.37
368.85	227.36
369.23	227.38
369.61	227.33
369.99	227.33
370.37	227.32
370.75	227.33
371.13	227.31
371.51	227.24
371.89	227.22
372.27	227.23
372.65	227.20
373.03	227.12
373.41	227.06
373.78	227.01
374.16	226.92
374.54	226.81
374.92	226.73
375.30	226.69
375.68	226.62
376.06	226.58
376.44	226.51
376.82	226.44
377.19	226.35
377.57	226.29
377.95	226.20
378.33	226.15
378.71	226.05
379.09	226.00
379.47	225.97
379.84	225.90
380.22	225.83
380.60	225.72
380.98	225.67
381.36	225.65
381.73	225.61
382.11	225.56
382.49	225.52
382.87	225.44
383.25	225.38
383.62	225.46
384.00	225.40
384.38	225.37
384.76	225.36
385.13	225.36
385.51	225.29
385.89	225.27
386.27	225.21
386.64	225.19
387.02	225.11
387.40	225.05
387.78	225.03
388.15	224.98
388.53	224.93
388.91	224.88
389.29	224.82
389.66	224.80
390.04	224.78
390.42	224.75
390.79	224.77
391.17	224.75
391.55	224.61
391.92	224.56
392.30	224.54
392.68	224.52
393.05	224.48
393.43	224.49
393.81	224.46
394.18	224.44
394.56	224.44
394.94	224.48
395.31	224.49
395.69	224.54
396.06	224.55
396.44	224.62
396.82	224.65
397.19	224.75
397.57	224.77
397.95	224.78
398.32	224.80
398.70	224.84
399.07	224.87
399.45	224.93
399.82	225.01
400.20	225.04
400.58	225.11
400.95	225.14
401.33	225.26
401.70	225.37
402.08	225.47
402.45	225.53
402.83	225.66
403.20	225.75
403.58	225.82
403.95	225.95
404.33	226.08
404.71	226.20
405.08	226.37
405.46	226.49
405.83	226.66
406.21	226.84
406.58	226.99
406.96	227.17
407.33	227.36
407.70	227.58
408.08	227.87
408.45	228.08
408.83	228.30
409.20	228.49
409.58	228.73
409.95	228.99
410.33	229.27
410.70	229.49
411.08	229.79
411.45	230.12
411.82	230.43
412.20	230.78
412.57	231.18
412.95	231.46
413.32	231.88
413.69	232.28
414.07	232.73
414.44	233.23
414.82	233.74
415.19	234.28
415.56	234.85
415.94	235.41
416.31	236.07
416.68	236.78
417.06	237.47
417.43	238.17
417.81	239.00
418.18	239.84
418.55	240.69
418.93	241.59
419.30	242.48
419.67	243.48
420.04	244.47
420.42	245.51
420.79	246.77
421.16	247.98
421.54	249.24
421.91	250.48
422.28	251.77
422.66	253.14
423.03	254.52
423.40	255.89
423.77	257.35
424.15	258.85
424.52	260.37
424.89	262.09
425.26	263.71
425.64	265.21
426.01	266.83
426.38	268.57
426.75	270.32
427.13	272.13
427.50	273.95
427.87	275.91
428.24	277.84
428.61	279.67
428.99	281.66
429.36	283.84
429.73	285.98
430.10	288.10
430.47	290.23
430.85	292.42
431.22	294.78
431.59	297.28
431.96	299.63
432.33	302.19
432.70	304.68
433.08	307.57
433.45	310.30
433.82	313.02
434.19	316.04
434.56	318.97
434.93	321.72
435.30	324.53
435.68	327.49
436.05	330.47
436.42	333.38
436.79	336.04
437.16	338.82
437.53	341.81
437.90	344.78
438.27	347.66
438.64	350.60
439.01	353.27
439.38	355.59
439.75	357.87
440.13	360.49
440.50	362.93
440.87	364.87
441.24	366.93
441.61	369.18
441.98	370.71
442.35	372.59
442.72	374.58
443.09	376.47
443.46	377.60
443.83	378.21
444.20	378.75
444.57	379.60
444.94	379.96
445.31	380.35
445.68	380.70
446.05	380.83
446.42	380.48
446.79	380.04
447.16	379.61
447.53	379.27
447.90	378.14
448.27	376.94
448.64	375.32
449.01	374.17
449.37	372.14
449.74	370.22
450.11	367.93
450.48	365.41
450.85	362.73
451.22	360.50
451.59	358.40
451.96	356.38
452.33	353.69
452.70	351.24
453.07	348.26
453.43	345.20
453.80	342.29
454.17	339.52
454.54	336.92
454.91	334.04
455.28	331.19
455.65	328.54
456.02	326.00
456.38	323.75
456.75	320.97
457.12	318.59
457.49	316.27
457.86	314.01
458.23	312.01
458.59	309.88
458.96	307.71
459.33	305.77
459.70	303.81
460.07	302.21
460.43	300.41
460.80	298.73
461.17	297.25
461.54	295.70
461.91	294.18
462.27	292.69
462.64	291.38
463.01	289.98
463.38	288.62
463.74	287.16
464.11	285.93
464.48	284.88
464.85	283.73
465.21	282.83
465.58	281.86
465.95	280.70
466.32	279.75
466.68	278.79
467.05	277.86
467.42	276.94
467.78	275.98
468.15	275.06
468.52	274.35
468.88	273.47
469.25	272.66
469.62	272.03
469.98	271.31
470.35	270.66
470.72	270.06
471.08	269.36
471.45	268.81
471.82	268.25
472.18	267.60
472.55	267.16
472.92	266.58
473.28	266.07
473.65	265.64
474.02	265.22
474.38	264.86
474.75	264.52
475.11	264.13
475.48	263.85
475.85	263.64
476.21	263.46
476.58	263.26
476.94	263.07
477.31	262.89
477.67	262.73
478.04	262.64
478.41	262.61
478.77	262.72
479.14	262.66
479.50	262.68
479.87	262.76
480.23	262.87
480.60	262.95
480.96	263.05
481.33	263.26
481.69	263.46
482.06	263.63
482.42	263.82
482.79	264.12
483.15	264.47
483.52	264.86
483.88	265.17
484.25	265.56
484.61	266.00
484.98	266.46
485.34	267.02
485.71	267.59
486.07	268.17
486.44	268.67
486.80	269.39
487.17	270.11
487.53	270.92
487.90	271.76
488.26	272.72
488.62	273.71
488.99	274.67
489.35	275.66
489.72	276.77
490.08	277.99
490.44	279.23
490.81	280.49
491.17	281.82
491.54	283.29
491.90	284.79
492.26	286.46
492.63	288.20
492.99	289.99
493.36	291.89
493.72	293.92
494.08	296.06
494.45	298.24
494.81	300.59
495.17	302.98
495.54	305.50
495.90	308.17
496.26	310.91
496.63	313.84
496.99	317.01
497.35	320.23
497.72	323.60
498.08	327.07
498.44	330.72
498.80	334.57
499.17	338.59
499.53	342.69
499.89	346.99
500.26	351.34
500.62	355.93
500.98	360.86
501.34	365.85
501.71	371.05
502.07	376.44
502.43	381.93
502.79	387.66
503.16	393.62
503.52	399.74
503.88	406.03
504.24	412.52
504.60	419.26
504.97	426.26
505.33	433.47
505.69	441.02
506.05	448.64
506.41	456.34
506.78	464.31
507.14	472.65
507.50	481.15
507.86	490.02
508.22	499.01
508.59	508.01
508.95	517.33
509.31	526.93
509.67	536.76
510.03	546.82
510.39	557.15
510.75	567.59
511.12	578.20
511.48	589.25
511.84	600.49
512.20	611.64
512.56	623.25
512.92	635.05
513.28	647.11
513.64	659.31
514.00	671.76
514.37	684.34
514.73	696.98
515.09	709.70
515.45	722.62
515.81	735.75
516.17	749.29
516.53	763.03
516.89	776.82
517.25	790.57
517.61	804.55
517.97	818.51
518.33	832.60
518.69	846.95
519.05	861.43
519.41	876.06
519.77	891.14
520.13	906.10
520.49	921.04
520.85	935.79
521.21	950.86
521.57	966.49
521.93	981.69
522.29	997.48
522.65	1013.25
523.01	1028.90
523.37	1044.45
523.73	1060.13
524.09	1075.70
524.45	1091.34
524.81	1107.48
525.17	1123.67
525.53	1140.01
525.89	1156.27
526.25	1172.55
526.61	1188.38
526.97	1204.63
527.33	1220.68
527.68	1236.75
528.04	1252.65
528.40	1268.75
528.76	1285.39
529.12	1301.52
529.48	1317.95
529.84	1333.52
530.20	1349.59
530.56	1366.05
530.91	1382.94
531.27	1399.14
531.63	1415.20
531.99	1431.41
532.35	1446.91
532.71	1462.46
533.07	1478.33
533.42	1493.82
533.78	1509.49
534.14	1525.28
534.50	1540.16
534.86	1555.44
535.21	1570.22
535.57	1585.68
535.93	1600.79
536.29	1615.15
536.65	1629.76
537.00	1644.08
537.36	1659.06
537.72	1673.15
538.08	1687.21
538.44	1700.65
538.79	1714.34
539.15	1727.48
539.51	1740.86
539.87	1754.87
540.22	1768.22
540.58	1781.46
540.94	1794.38
541.29	1806.92
541.65	1819.55
542.01	1832.56
542.37	1844.80
542.72	1857.13
543.08	1868.88
543.44	1881.21
543.79	1892.49
544.15	1903.36
544.51	1914.87
544.87	1925.61
545.22	1936.53
545.58	1946.74
545.94	1956.71
546.29	1966.48
546.65	1976.44
547.01	1985.82
547.36	1994.49
547.72	2003.29
548.07	2011.61
548.43	2020.02
548.79	2028.06
549.14	2035.77
549.50	2043.18
549.86	2050.82
550.21	2058.10
550.57	2065.48
550.92	2072.27
551.28	2079.38
551.64	2086.63
551.99	2093.34
552.35	2099.98
552.70	2106.36
553.06	2112.68
553.41	2119.25
553.77	2125.43
554.13	2131.88
554.48	2138.22
554.84	2144.21
555.19	2149.50
555.55	2154.99
555.90	2159.81
556.26	2165.32
556.61	2170.36
556.97	2175.21
557.32	2179.88
557.68	2184.46
558.03	2188.92
558.39	2192.96
558.74	2197.91
559.10	2202.28
559.45	2206.38
559.81	2210.86
560.16	2214.96
560.52	2218.61
560.87	2222.20
561.23	2225.28
561.58	2228.39
561.94	2231.26
562.29	2233.79
562.64	2237.31
563.00	2240.03
563.35	2243.87
563.71	2247.38
564.06	2250.70
564.42	2254.05
564.77	2257.01
565.12	2259.94
565.48	2262.49
565.83	2264.83
566.19	2266.76
566.54	2267.91
566.89	2269.66
567.25	2270.92
567.60	2272.51
567.96	2274.79
568.31	2276.24
568.66	2277.95
569.02	2279.16
569.37	2280.10
569.72	2281.70
570.08	2282.23
570.43	2282.84
570.78	2282.96
571.14	2281.70
571.49	2280.89
571.84	2280.75
572.20	2280.05
572.55	2279.25
572.90	2277.96
573.26	2277.01
573.61	2275.49
573.96	2274.47
574.31	2271.88
574.67	2269.21
575.02	2266.20
575.37	2262.97
575.72	2259.61
576.08	2256.49
576.43	2253.41
576.78	2250.32
577.13	2247.30
577.49	2244.21
577.84	2241.13
578.19	2237.62
578.54	2234.60
578.90	2231.02
579.25	2225.87
579.60	2221.41
579.95	2217.14
580.30	2212.54
580.66	2207.67
581.01	2203.21
581.36	2198.51
581.71	2194.85
582.06	2190.92
582.42	2186.92
582.77	2182.13
583.12	2177.97
583.47	2173.81
583.82	2169.32
584.17	2164.39
584.53	2159.32
584.88	2154.29
585.23	2148.97
585.58	2143.68
585.93	2138.38
586.28	2133.61
586.63	2129.10
586.98	2124.21
587.34	2119.43
587.69	2114.83
588.04	2110.10
588.39	2104.68
588.74	2098.44
589.09	2092.45
589.44	2085.93
589.79	2079.90
590.14	2074.30
590.49	2067.84
590.84	2061.53
591.19	2055.69
591.54	2049.43
591.89	2042.49
592.25	2036.05
592.60	2028.94
592.95	2021.88
593.30	2014.77
593.65	2007.46
594.00	2000.35
594.35	1993.39
594.70	1985.43
595.05	1978.46
595.40	1971.14
595.75	1963.80
596.10	1957.92
596.45	1951.36
596.80	1945.36
597.15	1939.04
597.50	1932.63
597.85	1926.31
598.19	1919.93
598.54	1913.27
598.89	1906.76
599.24	1900.86
599.59	1894.41
599.94	1888.36
600.29	1882.10
600.64	1875.58
600.99	1868.47
601.34	1861.85
601.69	1854.90
602.04	1848.30
602.39	1841.05
602.74	1834.46
603.08	1827.97
603.43	1821.19
603.78	1813.99
604.13	1806.76
604.48	1799.64
604.83	1792.65
605.18	1785.93
605.53	1778.07
605.87	1770.04
606.22	1762.82
606.57	1754.82
606.92	1747.19
607.27	1740.24
607.62	1733.46
607.96	1726.43
608.31	1719.96
608.66	1712.53
609.01	1705.07
609.36	1697.55
609.70	1689.61
610.05	1681.61
610.40	1673.94
610.75	1665.76
611.10	1658.09
611.44	1649.59
611.79	1641.47
612.14	1632.87
612.49	1623.67
612.83	1615.09
613.18	1606.75
613.53	1598.63
613.88	1590.21
614.22	1581.99
614.57	1573.07
614.92	1564.76
615.27	1557.18
615.61	1548.88
615.96	1540.77
616.31	1533.03
616.65	1525.67
617.00	1518.05
617.35	1510.21
617.70	1501.94
618.04	1493.47
618.39	1485.06
618.74	1477.53
619.08	1469.20
619.43	1461.47
619.78	1454.49
620.12	1447.46
620.47	1439.96
620.82	1431.65
621.16	1424.04
621.51	1416.32
621.85	1408.64
622.20	1400.22
622.55	1391.73
622.89	1383.62
623.24	1375.79
623.59	1368.15
623.93	1360.56
624.28	1353.21
624.62	1345.66
624.97	1338.24
625.32	1331.15
625.66	1324.02
626.01	1316.68
626.35	1309.45
626.70	1301.56
627.04	1293.80
627.39	1285.83
627.73	1278.26
628.08	1271.22
628.43	1264.01
628.77	1256.72
629.12	1249.18
629.46	1241.84
629.81	1234.14
630.15	1226.74
630.50	1219.31
630.84	1211.26
631.19	1203.12
631.53	1195.46
631.88	1187.80
632.22	1180.15
632.57	1172.71
632.91	1165.14
633.26	1157.74
633.60	1150.01
633.95	1142.71
634.29	1135.35
634.64	1128.55
634.98	1121.22
635.32	1114.14
635.67	1107.34
636.01	1100.54
636.36	1093.81
636.70	1087.28
637.05	1080.70
637.39	1074.24
637.73	1067.76
638.08	1061.77
638.42	1055.80
638.77	1049.36
639.11	1042.77
639.45	1036.26
639.80	1029.76
640.14	1023.38
640.49	1016.84
640.83	1010.54
641.17	1004.41
641.52	998.18
641.86	991.71
642.20	985.81
642.55	979.20
642.89	972.75
643.23	966.12
643.58	960.16
643.92	953.94
644.26	948.07
644.61	941.98
644.95	935.92
645.29	929.34
645.64	922.62
645.98	916.18
646.32	910.12
646.66	904.13
647.01	898.22
647.35	892.49
647.69	886.53
648.04	880.97
648.38	875.23
648.72	869.33
649.06	863.29
649.41	857.31
649.75	851.51
650.09	845.54
650.43	839.70
650.78	833.59
651.12	827.65
651.46	821.82
651.80	816.24
652.14	810.75
652.49	805.35
652.83	800.14
653.17	794.67
653.51	789.11
653.85	783.66
654.20	778.01
654.54	772.03
654.88	766.27
655.22	760.33
655.56	754.53
655.90	748.95
656.25	743.78
656.59	738.42
656.93	733.31
657.27	728.20
657.61	722.76
657.95	717.62
658.29	712.52
658.64	707.19
658.98	701.74
659.32	696.25
659.66	691.10
660.00	685.83
660.34	680.85
660.68	675.89
661.02	670.83
661.36	666.14
661.70	661.55
662.05	657.26
662.39	652.99
662.73	648.54
663.07	644.11
663.41	639.59
663.75	635.12
664.09	630.54
664.43	626.11
664.77	622.03
665.11	617.84
665.45	613.57
665.79	609.46
666.13	605.39
666.47	601.27
666.81	597.11
667.15	592.94
667.49	588.95
667.83	585.04
668.17	581.17
668.51	577.13
668.85	573.08
669.19	569.09
669.53	565.25
669.87	561.33
670.21	557.65
670.55	553.94
670.89	550.51
671.23	547.10
671.57	543.53
671.91	540.02
672.25	536.39
672.58	532.95
672.92	529.52
673.26	526.27
673.60	523.08
673.94	519.99
674.28	517.01
674.62	514.07
674.96	511.05
675.30	508.09
675.64	505.16
675.97	502.32
676.31	499.48
676.65	496.46
676.99	493.71
677.33	490.83
677.67	488.04
678.01	485.09
678.34	482.13
678.68	479.21
679.02	476.42
679.36	473.60
679.70	470.86
680.04	468.08
680.37	465.20
680.71	462.45
681.05	459.74
681.39	457.05
681.73	454.32
682.06	451.73
682.40	449.15
682.74	446.60
683.08	444.00
683.42	441.38
683.75	438.92
684.09	436.33
684.43	433.82
684.77	431.34
685.10	428.88
685.44	426.51
685.78	424.19
686.12	421.82
686.45	419.52
686.79	417.25
687.13	415.10
687.46	412.88
687.80	410.66
688.14	408.38
688.48	406.30
688.81	404.11
689.15	401.92
689.49	399.71
689.82	397.58
690.16	395.44
690.50	393.45
690.83	391.50
691.17	389.49
691.51	387.57
691.84	385.68
692.18	383.78
692.52	381.84
692.85	379.89
693.19	377.96
693.52	376.13
693.86	374.21
694.20	372.38
694.53	370.61
694.87	368.75
695.21	366.96
695.54	365.08
695.88	363.26
696.21	361.52
696.55	359.87
696.88	358.20
697.22	356.60
697.56	354.97
697.89	353.28
698.23	351.74
698.56	350.13
698.90	348.57
699.23	346.92
699.57	345.34
699.90	343.83
700.24	342.32
700.58	340.79
700.91	339.32
701.25	337.81
701.58	336.43
701.92	335.03
702.25	333.66
702.59	332.31
702.92	331.02
703.26	329.72
703.59	328.45
703.93	327.20
704.26	325.99
704.60	324.66
704.93	323.39
705.26	322.11
705.60	320.83
705.93	319.65
706.27	318.56
706.60	317.47
706.94	316.33
707.27	315.19
707.61	314.09
707.94	313.04
708.27	311.98
708.61	310.85
708.94	309.81
709.28	308.82
709.61	307.79
709.94	306.80
710.28	305.71
710.61	304.66
710.95	303.50
711.28	302.52
711.61	301.55
711.95	300.64
712.28	299.65
712.61	298.71
712.95	297.72
713.28	296.78
713.61	295.87
713.95	294.98
714.28	294.13
714.61	293.27
714.95	292.38
715.28	291.50
715.61	290.59
715.95	289.75
716.28	288.87
716.61	288.01
716.95	287.13
717.28	286.38
717.61	285.59
717.94	284.90
718.28	284.07
718.61	283.33
718.94	282.56
719.27	281.87
719.61	281.16
719.94	280.50
720.27	279.80
720.60	279.14
720.94	278.48
721.27	277.86
721.60	277.24
721.93	276.64
722.27	276.05
722.60	275.51
722.93	274.92
723.26	274.36
723.59	273.77
723.93	273.21
724.26	272.66
724.59	272.04
724.92	271.46
725.25	270.97
725.59	270.43
725.92	269.92
726.25	269.42
726.58	268.95
726.91	268.44
727.24	267.95
727.57	267.43
727.91	266.91
728.24	266.39
728.57	265.93
728.90	265.46
729.23	264.92
729.56	264.47
729.89	264.00
730.22	263.51
730.55	263.05
730.89	262.60
731.22	262.16
731.55	261.75
731.88	261.32
732.21	260.91
732.54	260.47
732.87	260.05
733.20	259.63
733.53	259.21
733.86	258.81
734.19	258.43
734.52	258.08
734.85	257.76
735.18	257.39
735.51	257.02
735.84	256.63
736.17	256.32
736.50	255.92
736.83	255.70
737.16	255.37
737.49	255.07
737.82	254.74
738.15	254.39
738.48	254.12
738.81	253.81
739.14	253.47
739.47	253.17
739.80	252.84
740.13	252.52
740.46	252.22
740.79	251.93
741.12	251.61
741.45	251.27
741.78	250.95
742.11	250.63
742.44	250.30
742.77	250.02
743.10	249.71
743.43	249.40
743.75	248.96
744.08	248.79
744.41	248.50
744.74	248.24
745.07	247.95
745.40	247.68
745.73	247.43
746.06	247.16
746.39	246.92
746.71	246.66
747.04	246.39
747.37	246.11
747.70	245.84
748.03	245.57
748.36	245.35
748.68	245.09
749.01	244.87
749.34	244.61
749.67	244.41
750.00	244.18
750.33	244.00
750.65	243.83
750.98	243.48
751.31	243.23
751.64	243.03
751.97	242.86
752.29	242.62
752.62	242.35
752.95	242.09
753.28	241.85
753.60	241.63
753.93	241.45
754.26	241.26
754.59	241.02
754.91	240.81
755.24	240.58
755.57	240.36
755.90	240.16
756.22	239.94
756.55	239.69
756.88	239.46
757.20	239.20
757.53	238.96
757.86	238.78
758.19	238.62
758.51	238.40
758.84	238.16
759.17	237.96
759.49	237.82
759.82	237.70
760.15	237.53
760.47	237.37
760.80	237.17
761.13	237.01
761.45	236.88
761.78	236.70
762.11	236.55
762.43	236.37
762.76	236.19
763.08	236.05
763.41	235.92
763.74	235.77
764.06	235.65
764.39	235.50
764.71	235.35
765.04	235.19
765.37	235.09
765.69	234.98
766.02	234.87
766.34	234.75
766.67	234.58
767.00	234.48
767.32	234.43
767.65	234.40
767.97	234.28
768.30	234.16
768.62	234.08
768.95	233.96
769.27	233.91
769.60	233.84
769.92	233.73
770.25	233.61
770.57	233.53
770.90	233.45
771.22	233.38
771.55	233.26
771.87	233.22
772.20	233.11
772.52	233.14
772.85	233.16
773.17	233.06
773.50	232.97
773.82	232.87
774.15	232.72
774.47	232.55
774.80	232.47
775.12	232.38
775.45	232.29
775.77	232.23
776.09	232.13
776.42	232.06
776.74	232.08
777.07	232.01
777.39	231.92
777.72	231.84
778.04	231.82
778.36	231.78
778.69	231.72
779.01	231.66
779.33	231.49
779.66	231.31
779.98	231.21
780.31	231.17
780.63	231.16
780.95	231.14
781.28	231.09
781.60	231.02
781.92	230.95
782.25	230.93
782.57	230.90
782.89	230.86
783.22	230.75
783.54	230.64
783.86	230.61
784.19	230.58
784.51	230.55
784.83	230.44
785.16	230.36
785.48	230.29
785.80	230.21
786.12	230.16
786.45	230.12
786.77	230.12
787.09	230.04
