SpectraSuite Data File
++++++++++++++++++++++++++++++++++++
Date: Fri Feb 01 16:21:17 EST 2013
User: group
Dark Spectrum Present: No
Reference Spectrum Present: No
Number of Sampled Component Spectra: 1
Spectrometers: USB2E7196
Integration Time (usec): 35000 (USB2E7196)
Spectra Averaged: 100 (USB2E7196)
Boxcar Smoothing: 10 (USB2E7196)
Correct for Electrical Dark: No (USB2E7196)
Strobe/Lamp Enabled: No (USB2E7196)
Correct for Detector Non-linearity: No (USB2E7196)
Correct for Stray Light: No (USB2E7196)
Number of Pixels in Processed Spectrum: 2048
>>>>>Begin Processed Spectral Data<<<<<
339.09	0.00
339.48	213.90
339.86	215.69
340.24	216.64
340.63	218.06
341.01	220.81
341.39	221.13
341.78	222.52
342.16	223.65
342.54	223.64
342.93	212.40
343.31	223.13
343.69	223.67
344.07	224.11
344.46	224.56
344.84	224.95
345.22	225.21
345.60	225.44
345.99	225.62
346.37	225.75
346.75	225.86
347.13	225.94
347.52	225.98
347.90	226.04
348.28	226.09
348.66	226.13
349.05	226.08
349.43	226.14
349.81	226.17
350.19	226.21
350.57	226.26
350.96	226.35
351.34	226.47
351.72	226.54
352.10	226.64
352.48	226.72
352.87	226.78
353.25	226.85
353.63	226.95
354.01	227.01
354.39	227.11
354.77	227.17
355.15	227.28
355.54	227.36
355.92	227.42
356.30	227.50
356.68	227.60
357.06	227.72
357.44	227.78
357.82	227.82
358.20	227.90
358.58	227.96
358.97	228.01
359.35	228.06
359.73	228.15
360.11	228.22
360.49	228.25
360.87	228.31
361.25	228.39
361.63	228.45
362.01	228.51
362.39	228.52
362.77	228.62
363.15	228.64
363.53	228.65
363.91	228.67
364.29	228.68
364.67	228.62
365.05	228.61
365.43	228.65
365.81	228.69
366.19	228.75
366.57	228.80
366.95	228.79
367.33	228.77
367.71	228.76
368.09	228.77
368.47	228.76
368.85	228.72
369.23	228.70
369.61	228.64
369.99	228.62
370.37	228.59
370.75	228.56
371.13	228.49
371.51	228.46
371.89	228.42
372.27	228.40
372.65	228.39
373.03	228.37
373.41	228.29
373.78	228.22
374.16	228.10
374.54	228.02
374.92	227.96
375.30	227.90
375.68	227.83
376.06	227.77
376.44	227.72
376.82	227.66
377.19	227.57
377.57	227.50
377.95	227.42
378.33	227.36
378.71	227.24
379.09	227.19
379.47	227.14
379.84	227.07
380.22	227.00
380.60	226.89
380.98	226.83
381.36	226.77
381.73	226.70
382.11	226.65
382.49	226.59
382.87	226.49
383.25	226.43
383.62	226.48
384.00	226.40
384.38	226.35
384.76	226.32
385.13	226.31
385.51	226.25
385.89	226.20
386.27	226.16
386.64	226.13
387.02	226.10
387.40	226.04
387.78	226.01
388.15	225.94
388.53	225.94
388.91	225.87
389.29	225.82
389.66	225.81
390.04	225.78
390.42	225.77
390.79	225.75
391.17	225.74
391.55	225.61
391.92	225.59
392.30	225.56
392.68	225.50
393.05	225.50
393.43	225.49
393.81	225.45
394.18	225.44
394.56	225.42
394.94	225.44
395.31	225.47
395.69	225.47
396.06	225.53
396.44	225.54
396.82	225.58
397.19	225.68
397.57	225.71
397.95	225.75
398.32	225.77
398.70	225.85
399.07	225.90
399.45	225.93
399.82	225.99
400.20	226.04
400.58	226.13
400.95	226.13
401.33	226.23
401.70	226.39
402.08	226.49
402.45	226.58
402.83	226.69
403.20	226.76
403.58	226.87
403.95	227.00
404.33	227.15
404.71	227.27
405.08	227.42
405.46	227.53
405.83	227.68
406.21	227.86
406.58	228.03
406.96	228.19
407.33	228.36
407.70	228.58
408.08	228.90
408.45	229.10
408.83	229.35
409.20	229.57
409.58	229.76
409.95	230.03
410.33	230.30
410.70	230.56
411.08	230.87
411.45	231.19
411.82	231.45
412.20	231.79
412.57	232.19
412.95	232.48
413.32	232.91
413.69	233.33
414.07	233.76
414.44	234.21
414.82	234.71
415.19	235.30
415.56	235.86
415.94	236.33
416.31	236.99
416.68	237.62
417.06	238.33
417.43	239.03
417.81	239.78
418.18	240.55
418.55	241.39
418.93	242.28
419.30	243.14
419.67	244.10
420.04	245.06
420.42	246.08
420.79	247.29
421.16	248.42
421.54	249.59
421.91	250.75
422.28	252.02
422.66	253.32
423.03	254.64
423.40	255.99
423.77	257.44
424.15	258.88
424.52	260.33
424.89	261.93
425.26	263.47
425.64	264.89
426.01	266.51
426.38	268.14
426.75	269.79
427.13	271.52
427.50	273.33
427.87	275.18
428.24	277.03
428.61	278.72
428.99	280.65
429.36	282.77
429.73	284.86
430.10	286.86
430.47	288.92
430.85	291.03
431.22	293.22
431.59	295.57
431.96	297.77
432.33	300.28
432.70	302.68
433.08	305.48
433.45	308.15
433.82	310.75
434.19	313.65
434.56	316.47
434.93	319.11
435.30	321.75
435.68	324.67
436.05	327.48
436.42	330.30
436.79	332.80
437.16	335.48
437.53	338.28
437.90	341.09
438.27	343.79
438.64	346.60
439.01	349.15
439.38	351.40
439.75	353.58
440.13	356.09
440.50	358.36
440.87	360.17
441.24	362.04
441.61	364.23
441.98	365.69
442.35	367.42
442.72	369.29
443.09	371.06
443.46	372.02
443.83	372.59
444.20	373.08
444.57	373.90
444.94	374.15
445.31	374.47
445.68	374.77
446.05	374.84
446.42	374.45
446.79	374.04
447.16	373.59
447.53	373.24
447.90	372.05
448.27	370.90
448.64	369.32
449.01	368.21
449.37	366.15
449.74	364.25
450.11	362.05
450.48	359.57
450.85	357.00
451.22	354.83
451.59	352.84
451.96	350.88
452.33	348.30
452.70	345.95
453.07	343.12
453.43	340.27
453.80	337.55
454.17	334.90
454.54	332.34
454.91	329.60
455.28	326.96
455.65	324.49
456.02	322.07
456.38	319.95
456.75	317.30
457.12	315.09
457.49	312.89
457.86	310.74
458.23	308.88
458.59	306.87
458.96	304.80
459.33	302.92
459.70	301.10
460.07	299.60
460.43	297.90
460.80	296.32
461.17	294.88
461.54	293.41
461.91	291.98
462.27	290.59
462.64	289.38
463.01	288.03
463.38	286.74
463.74	285.40
464.11	284.27
464.48	283.29
464.85	282.21
465.21	281.37
465.58	280.45
465.95	279.37
466.32	278.52
466.68	277.64
467.05	276.82
467.42	275.95
467.78	275.06
468.15	274.20
468.52	273.57
468.88	272.74
469.25	271.96
469.62	271.34
469.98	270.65
470.35	270.01
470.72	269.42
471.08	268.77
471.45	268.24
471.82	267.70
472.18	267.09
472.55	266.65
472.92	266.12
473.28	265.66
473.65	265.27
474.02	264.81
474.38	264.46
474.75	264.14
475.11	263.78
475.48	263.51
475.85	263.27
476.21	263.01
476.58	262.80
476.94	262.65
477.31	262.52
477.67	262.40
478.04	262.28
478.41	262.22
478.77	262.28
479.14	262.20
479.50	262.22
479.87	262.31
480.23	262.41
480.60	262.48
480.96	262.58
481.33	262.76
481.69	262.95
482.06	263.12
482.42	263.27
482.79	263.57
483.15	263.90
483.52	264.27
483.88	264.65
484.25	265.06
484.61	265.50
484.98	265.94
485.34	266.52
485.71	267.10
486.07	267.72
486.44	268.29
486.80	268.98
487.17	269.70
487.53	270.50
487.90	271.34
488.26	272.26
488.62	273.26
488.99	274.25
489.35	275.31
489.72	276.45
490.08	277.70
490.44	278.90
490.81	280.21
491.17	281.56
491.54	283.07
491.90	284.60
492.26	286.28
492.63	288.00
492.99	289.73
493.36	291.61
493.72	293.69
494.08	295.80
494.45	298.08
494.81	300.40
495.17	302.80
495.54	305.32
495.90	308.01
496.26	310.85
496.63	313.80
496.99	316.96
497.35	320.25
497.72	323.67
498.08	327.20
498.44	330.90
498.80	334.84
499.17	338.83
499.53	343.05
499.89	347.36
500.26	351.88
500.62	356.56
500.98	361.55
501.34	366.63
501.71	371.99
502.07	377.44
502.43	383.10
502.79	389.00
503.16	395.15
503.52	401.44
503.88	407.86
504.24	414.54
504.60	421.40
504.97	428.49
505.33	435.84
505.69	443.56
506.05	451.37
506.41	459.29
506.78	467.49
507.14	475.97
507.50	484.71
507.86	493.78
508.22	503.02
508.59	512.18
508.95	521.70
509.31	531.48
509.67	541.58
510.03	551.88
510.39	562.44
510.75	573.23
511.12	584.12
511.48	595.42
511.84	606.87
512.20	618.41
512.56	630.41
512.92	642.54
513.28	654.85
513.64	667.33
514.00	680.00
514.37	692.89
514.73	705.94
515.09	719.04
515.45	732.33
515.81	745.88
516.17	759.89
516.53	774.05
516.89	788.20
517.25	802.31
517.61	816.75
517.97	831.19
518.33	845.58
518.69	860.34
519.05	875.19
519.41	890.32
519.77	905.76
520.13	921.13
520.49	936.51
520.85	951.96
521.21	967.64
521.57	983.94
521.93	999.62
522.29	1015.90
522.65	1032.06
523.01	1048.17
523.37	1064.18
523.73	1080.28
524.09	1096.26
524.45	1112.51
524.81	1129.18
525.17	1145.89
525.53	1162.64
525.89	1179.48
526.25	1196.31
526.61	1212.66
526.97	1229.31
527.33	1245.78
527.68	1262.46
528.04	1278.93
528.40	1295.42
528.76	1312.29
529.12	1328.69
529.48	1345.63
529.84	1361.52
530.20	1378.04
530.56	1395.05
530.91	1412.48
531.27	1429.27
531.63	1445.76
531.99	1462.24
532.35	1478.00
532.71	1493.91
533.07	1510.22
533.42	1526.05
533.78	1541.96
534.14	1558.25
534.50	1573.65
534.86	1589.49
535.21	1604.55
535.57	1620.29
535.93	1635.83
536.29	1650.60
536.65	1665.65
537.00	1680.20
537.36	1695.55
537.72	1710.05
538.08	1724.29
538.44	1737.90
538.79	1751.76
539.15	1765.31
539.51	1778.96
539.87	1793.38
540.22	1807.05
540.58	1820.81
540.94	1834.04
541.29	1846.88
541.65	1859.41
542.01	1872.48
542.37	1884.72
542.72	1897.07
543.08	1908.92
543.44	1921.09
543.79	1932.33
544.15	1943.30
544.51	1955.04
544.87	1965.88
545.22	1976.60
545.58	1986.83
545.94	1996.56
546.29	2006.30
546.65	2016.29
547.01	2025.58
547.36	2034.12
547.72	2042.39
548.07	2050.04
548.43	2058.26
548.79	2066.34
549.14	2073.93
549.50	2081.17
549.86	2088.78
550.21	2096.08
550.57	2103.18
550.92	2109.85
551.28	2116.95
551.64	2123.94
551.99	2130.29
552.35	2136.48
552.70	2142.60
553.06	2148.59
553.41	2154.95
553.77	2160.91
554.13	2166.89
554.48	2173.10
554.84	2178.56
555.19	2183.93
555.55	2189.08
555.90	2193.53
556.26	2198.40
556.61	2203.11
556.97	2207.33
557.32	2211.43
557.68	2215.43
558.03	2219.73
558.39	2223.35
558.74	2228.01
559.10	2231.88
559.45	2235.52
559.81	2239.78
560.16	2243.69
560.52	2246.95
560.87	2250.15
561.23	2252.79
561.58	2255.73
561.94	2258.18
562.29	2260.59
562.64	2263.26
563.00	2265.96
563.35	2269.59
563.71	2272.81
564.06	2275.91
564.42	2278.93
564.77	2281.46
565.12	2283.78
565.48	2285.65
565.83	2287.41
566.19	2288.60
566.54	2289.42
566.89	2290.63
567.25	2291.27
567.60	2292.65
567.96	2294.38
568.31	2295.51
568.66	2296.78
569.02	2297.42
569.37	2297.74
569.72	2298.75
570.08	2298.90
570.43	2298.89
570.78	2298.23
571.14	2296.51
571.49	2295.32
571.84	2294.97
572.20	2293.97
572.55	2292.89
572.90	2291.34
573.26	2290.07
573.61	2288.40
573.96	2286.73
574.31	2283.83
574.67	2281.05
575.02	2277.46
575.37	2274.11
575.72	2270.33
576.08	2266.96
576.43	2263.59
576.78	2259.97
577.13	2256.82
577.49	2253.77
577.84	2250.37
578.19	2246.67
578.54	2243.24
578.90	2239.01
579.25	2233.64
579.60	2228.64
579.95	2223.80
580.30	2218.88
580.66	2213.79
581.01	2208.90
581.36	2204.08
581.71	2199.99
582.06	2195.41
582.42	2191.03
582.77	2185.86
583.12	2181.41
583.47	2176.81
583.82	2171.93
584.17	2166.75
584.53	2161.27
584.88	2155.63
585.23	2149.93
585.58	2144.53
585.93	2139.07
586.28	2134.42
586.63	2129.32
586.98	2124.30
587.34	2119.63
587.69	2114.77
588.04	2109.54
588.39	2103.81
588.74	2097.47
589.09	2091.15
589.44	2084.39
589.79	2078.30
590.14	2072.76
590.49	2066.15
590.84	2059.78
591.19	2053.64
591.54	2047.18
591.89	2039.88
592.25	2033.16
592.60	2025.98
592.95	2018.46
593.30	2011.07
593.65	2003.58
594.00	1996.55
594.35	1989.38
594.70	1981.43
595.05	1974.36
595.40	1967.32
595.75	1959.92
596.10	1953.67
596.45	1947.16
596.80	1941.11
597.15	1934.54
597.50	1927.43
597.85	1920.94
598.19	1914.29
598.54	1907.26
598.89	1900.80
599.24	1894.90
599.59	1888.31
599.94	1882.12
600.29	1875.86
600.64	1869.50
600.99	1862.03
601.34	1855.34
601.69	1848.34
602.04	1841.52
602.39	1834.12
602.74	1827.21
603.08	1820.52
603.43	1813.97
603.78	1806.61
604.13	1799.37
604.48	1792.14
604.83	1785.28
605.18	1778.42
605.53	1770.40
605.87	1762.47
606.22	1755.24
606.57	1747.34
606.92	1739.99
607.27	1732.88
607.62	1725.85
607.96	1718.44
608.31	1711.86
608.66	1704.23
609.01	1696.81
609.36	1689.26
609.70	1681.26
610.05	1673.29
610.40	1665.55
610.75	1657.08
611.10	1649.47
611.44	1641.11
611.79	1633.03
612.14	1624.30
612.49	1615.12
612.83	1606.84
613.18	1598.72
613.53	1590.52
613.88	1581.95
614.22	1573.76
614.57	1565.08
614.92	1557.10
615.27	1549.51
615.61	1541.12
615.96	1532.98
616.31	1525.18
616.65	1517.80
617.00	1510.19
617.35	1502.43
617.70	1494.16
618.04	1485.72
618.39	1477.47
618.74	1469.83
619.08	1461.56
619.43	1454.00
619.78	1447.08
620.12	1439.78
620.47	1432.25
620.82	1424.07
621.16	1416.71
621.51	1408.96
621.85	1401.28
622.20	1392.65
622.55	1384.34
622.89	1376.50
623.24	1368.81
623.59	1361.48
623.93	1353.92
624.28	1346.72
624.62	1339.13
624.97	1332.06
625.32	1325.16
625.66	1318.19
626.01	1310.93
626.35	1303.47
626.70	1295.75
627.04	1287.92
627.39	1280.18
627.73	1272.75
628.08	1265.81
628.43	1258.45
628.77	1251.13
629.12	1243.61
629.46	1236.54
629.81	1229.05
630.15	1221.82
630.50	1214.54
630.84	1206.28
631.19	1198.34
631.53	1190.81
631.88	1183.23
632.22	1175.47
632.57	1168.18
632.91	1160.61
633.26	1153.12
633.60	1145.72
633.95	1138.56
634.29	1131.51
634.64	1124.80
634.98	1117.44
635.32	1110.29
635.67	1103.62
636.01	1096.94
636.36	1090.14
636.70	1083.54
637.05	1076.99
637.39	1070.48
637.73	1063.91
638.08	1058.05
638.42	1052.07
638.77	1045.57
639.11	1039.02
639.45	1032.58
639.80	1025.90
640.14	1019.43
640.49	1013.00
640.83	1006.77
641.17	1000.48
641.52	994.22
641.86	987.75
642.20	981.84
642.55	975.56
642.89	969.14
643.23	962.66
643.58	956.89
643.92	950.70
644.26	944.67
644.61	938.64
644.95	932.58
645.29	925.99
645.64	919.24
645.98	912.97
646.32	907.12
646.66	901.13
647.01	895.45
647.35	889.76
647.69	883.89
648.04	878.31
648.38	872.55
648.72	866.62
649.06	860.61
649.41	854.79
649.75	848.85
650.09	842.86
650.43	837.01
650.78	830.87
651.12	824.92
651.46	819.20
651.80	813.49
652.14	808.11
652.49	802.76
652.83	797.57
653.17	791.83
653.51	786.12
653.85	780.72
654.20	775.02
654.54	769.00
654.88	763.28
655.22	757.41
655.56	751.74
655.90	746.19
656.25	740.92
656.59	735.53
656.93	730.44
657.27	725.26
657.61	719.86
657.95	714.76
658.29	709.70
658.64	704.43
658.98	699.11
659.32	693.64
659.66	688.46
660.00	683.12
660.34	678.24
660.68	673.33
661.02	668.28
661.36	663.59
661.70	659.08
662.05	654.74
662.39	650.37
662.73	645.87
663.07	641.48
663.41	637.04
663.75	632.49
664.09	627.86
664.43	623.51
664.77	619.36
665.11	615.05
665.45	610.89
665.79	606.84
666.13	602.67
666.47	598.55
666.81	594.36
667.15	590.21
667.49	586.25
667.83	582.44
668.17	578.48
668.51	574.33
668.85	570.33
669.19	566.49
669.53	562.64
669.87	558.73
670.21	555.07
670.55	551.35
670.89	547.95
671.23	544.52
671.57	540.98
671.91	537.45
672.25	533.91
672.58	530.33
672.92	526.86
673.26	523.68
673.60	520.54
673.94	517.40
674.28	514.54
674.62	511.59
674.96	508.44
675.30	505.56
675.64	502.67
675.97	499.86
676.31	496.95
676.65	494.06
676.99	491.39
677.33	488.49
677.67	485.69
678.01	482.62
678.34	479.60
678.68	476.76
679.02	473.92
679.36	471.17
679.70	468.50
680.04	465.70
680.37	462.91
680.71	460.10
681.05	457.51
681.39	454.74
681.73	452.04
682.06	449.47
682.40	446.94
682.74	444.39
683.08	441.85
683.42	439.25
683.75	436.73
684.09	434.17
684.43	431.70
684.77	429.23
685.10	426.90
685.44	424.61
685.78	422.31
686.12	420.01
686.45	417.71
686.79	415.41
687.13	413.25
687.46	410.98
687.80	408.84
688.14	406.57
688.48	404.57
688.81	402.31
689.15	400.21
689.49	398.04
689.82	396.00
690.16	393.90
690.50	391.92
690.83	389.94
691.17	387.96
691.51	386.08
691.84	384.25
692.18	382.36
692.52	380.38
692.85	378.42
693.19	376.58
693.52	374.75
693.86	372.96
694.20	371.20
694.53	369.41
694.87	367.59
695.21	365.82
695.54	363.97
695.88	362.28
696.21	360.51
696.55	358.80
696.88	357.07
697.22	355.37
697.56	353.78
697.89	352.13
698.23	350.51
698.56	348.91
698.90	347.32
699.23	345.68
699.57	344.13
699.90	342.63
700.24	341.10
700.58	339.59
700.91	338.07
701.25	336.58
701.58	335.24
701.92	333.84
702.25	332.47
702.59	331.09
702.92	329.78
703.26	328.49
703.59	327.23
703.93	326.07
704.26	324.88
704.60	323.55
704.93	322.28
705.26	321.02
705.60	319.81
705.93	318.64
706.27	317.59
706.60	316.57
706.94	315.46
707.27	314.30
707.61	313.25
707.94	312.22
708.27	311.16
708.61	310.09
708.94	309.11
709.28	308.09
709.61	307.12
709.94	306.16
710.28	305.18
710.61	304.16
710.95	303.11
711.28	302.18
711.61	301.24
711.95	300.35
712.28	299.42
712.61	298.46
712.95	297.55
713.28	296.64
713.61	295.70
713.95	294.83
714.28	294.02
714.61	293.12
714.95	292.27
715.28	291.43
715.61	290.51
715.95	289.63
716.28	288.80
716.61	287.99
716.95	287.18
717.28	286.41
717.61	285.68
717.94	284.91
718.28	284.12
718.61	283.42
718.94	282.73
719.27	282.08
719.61	281.43
719.94	280.75
720.27	280.04
720.60	279.36
720.94	278.70
721.27	278.05
721.60	277.49
721.93	276.92
722.27	276.33
722.60	275.78
722.93	275.21
723.26	274.70
723.59	274.09
723.93	273.56
724.26	273.00
724.59	272.41
724.92	271.87
725.25	271.38
725.59	270.82
725.92	270.27
726.25	269.75
726.58	269.23
726.91	268.72
727.24	268.24
727.57	267.78
727.91	267.29
728.24	266.84
728.57	266.34
728.90	265.88
729.23	265.39
729.56	264.95
729.89	264.48
730.22	263.99
730.55	263.54
730.89	263.08
731.22	262.66
731.55	262.22
731.88	261.81
732.21	261.33
732.54	260.91
732.87	260.47
733.20	260.07
733.53	259.71
733.86	259.34
734.19	258.95
734.52	258.58
734.85	258.30
735.18	257.91
735.51	257.58
735.84	257.17
736.17	256.82
736.50	256.43
736.83	256.19
737.16	255.86
737.49	255.54
737.82	255.20
738.15	254.85
738.48	254.52
738.81	254.20
739.14	253.90
739.47	253.56
739.80	253.26
740.13	252.98
740.46	252.63
740.79	252.31
741.12	252.00
741.45	251.67
741.78	251.34
742.11	251.02
742.44	250.66
742.77	250.37
743.10	250.06
743.43	249.75
743.75	249.36
744.08	249.18
744.41	248.89
744.74	248.61
745.07	248.34
745.40	248.09
745.73	247.88
746.06	247.59
746.39	247.34
746.71	247.05
747.04	246.80
747.37	246.55
747.70	246.32
748.03	246.05
748.36	245.83
748.68	245.56
749.01	245.33
749.34	245.09
749.67	244.88
750.00	244.66
750.33	244.53
750.65	244.35
750.98	244.04
751.31	243.85
751.64	243.62
751.97	243.46
752.29	243.24
752.62	242.96
752.95	242.75
753.28	242.54
753.60	242.33
753.93	242.14
754.26	241.91
754.59	241.68
754.91	241.47
755.24	241.26
755.57	241.08
755.90	240.89
756.22	240.71
756.55	240.53
756.88	240.33
757.20	240.11
757.53	239.90
757.86	239.72
758.19	239.55
758.51	239.41
758.84	239.17
759.17	238.99
759.49	238.83
759.82	238.73
760.15	238.60
760.47	238.47
760.80	238.25
761.13	238.11
761.45	237.95
761.78	237.81
762.11	237.71
762.43	237.53
762.76	237.39
763.08	237.26
763.41	237.11
763.74	237.00
764.06	236.85
764.39	236.71
764.71	236.58
765.04	236.44
765.37	236.26
765.69	236.14
766.02	236.04
766.34	235.94
766.67	235.82
767.00	235.71
767.32	235.65
767.65	235.62
767.97	235.51
768.30	235.40
768.62	235.31
768.95	235.17
769.27	235.05
769.60	234.95
769.92	234.83
770.25	234.70
770.57	234.57
770.90	234.49
771.22	234.39
771.55	234.29
771.87	234.20
772.20	234.12
772.52	234.11
772.85	234.14
773.17	234.05
773.50	233.95
773.82	233.83
774.15	233.68
774.47	233.58
774.80	233.47
775.12	233.39
775.45	233.29
775.77	233.20
776.09	233.14
776.42	233.05
776.74	233.04
777.07	232.99
777.39	232.92
777.72	232.80
778.04	232.71
778.36	232.64
778.69	232.53
779.01	232.50
779.33	232.36
779.66	232.17
779.98	232.08
780.31	232.00
780.63	231.98
780.95	231.95
781.28	231.87
781.60	231.85
781.92	231.79
782.25	231.73
782.57	231.66
782.89	231.60
783.22	231.55
783.54	231.45
783.86	231.41
784.19	231.32
784.51	231.31
784.83	231.26
785.16	231.19
785.48	231.15
785.80	231.07
786.12	231.01
786.45	230.94
786.77	230.88
787.09	230.82
