SpectraSuite Data File
++++++++++++++++++++++++++++++++++++
Date: Fri Feb 01 15:26:24 EST 2013
User: group
Dark Spectrum Present: No
Reference Spectrum Present: No
Number of Sampled Component Spectra: 1
Spectrometers: USB2E7196
Integration Time (usec): 35000 (USB2E7196)
Spectra Averaged: 100 (USB2E7196)
Boxcar Smoothing: 10 (USB2E7196)
Correct for Electrical Dark: No (USB2E7196)
Strobe/Lamp Enabled: No (USB2E7196)
Correct for Detector Non-linearity: No (USB2E7196)
Correct for Stray Light: No (USB2E7196)
Number of Pixels in Processed Spectrum: 2048
>>>>>Begin Processed Spectral Data<<<<<
339.09	0.00
339.48	215.04
339.86	216.74
340.24	217.71
340.63	219.11
341.01	222.45
341.39	222.17
341.78	223.59
342.16	224.93
342.54	225.14
342.93	213.49
343.31	224.26
343.69	224.80
344.07	225.27
344.46	225.72
344.84	226.12
345.22	226.36
345.60	226.60
345.99	226.79
346.37	226.91
346.75	226.97
347.13	227.03
347.52	227.06
347.90	227.16
348.28	227.18
348.66	227.19
349.05	227.18
349.43	227.23
349.81	227.30
350.19	227.34
350.57	227.41
350.96	227.45
351.34	227.53
351.72	227.63
352.10	227.70
352.48	227.79
352.87	227.84
353.25	227.90
353.63	227.97
354.01	228.03
354.39	228.08
354.77	228.21
355.15	228.34
355.54	228.44
355.92	228.49
356.30	228.57
356.68	228.72
357.06	228.81
357.44	228.86
357.82	228.88
358.20	228.95
358.58	229.00
358.97	229.05
359.35	229.11
359.73	229.15
360.11	229.20
360.49	229.23
360.87	229.26
361.25	229.31
361.63	229.39
362.01	229.40
362.39	229.43
362.77	229.44
363.15	229.44
363.53	229.46
363.91	229.44
364.29	229.44
364.67	229.36
365.05	229.35
365.43	229.36
365.81	229.37
366.19	229.37
366.57	229.43
366.95	229.41
367.33	229.40
367.71	229.40
368.09	229.37
368.47	229.35
368.85	229.31
369.23	229.28
369.61	229.19
369.99	229.20
370.37	229.18
370.75	229.18
371.13	229.14
371.51	229.06
371.89	229.03
372.27	229.00
372.65	228.95
373.03	228.90
373.41	228.84
373.78	228.76
374.16	228.68
374.54	228.53
374.92	228.48
375.30	228.40
375.68	228.30
376.06	228.24
376.44	228.19
376.82	228.13
377.19	228.05
377.57	228.00
377.95	227.88
378.33	227.81
378.71	227.70
379.09	227.60
379.47	227.58
379.84	227.49
380.22	227.39
380.60	227.32
380.98	227.23
381.36	227.16
381.73	227.10
382.11	227.05
382.49	227.02
382.87	226.92
383.25	226.86
383.62	226.89
384.00	226.84
384.38	226.75
384.76	226.71
385.13	226.67
385.51	226.60
385.89	226.53
386.27	226.48
386.64	226.43
387.02	226.42
387.40	226.32
387.78	226.30
388.15	226.30
388.53	226.27
388.91	226.23
389.29	226.22
389.66	226.20
390.04	226.22
390.42	226.23
390.79	226.25
391.17	226.22
391.55	226.19
391.92	226.19
392.30	226.21
392.68	226.21
393.05	226.22
393.43	226.27
393.81	226.32
394.18	226.32
394.56	226.36
394.94	226.40
395.31	226.44
395.69	226.51
396.06	226.56
396.44	226.63
396.82	226.70
397.19	226.82
397.57	226.89
397.95	226.94
398.32	226.97
398.70	227.04
399.07	227.14
399.45	227.16
399.82	227.25
400.20	227.34
400.58	227.42
400.95	227.48
401.33	227.59
401.70	227.73
402.08	227.85
402.45	227.97
402.83	228.08
403.20	228.23
403.58	228.36
403.95	228.49
404.33	228.62
404.71	228.72
405.08	228.88
405.46	229.03
405.83	229.15
406.21	229.31
406.58	229.48
406.96	229.64
407.33	229.84
407.70	230.02
408.08	230.30
408.45	230.50
408.83	230.74
409.20	230.91
409.58	231.12
409.95	231.39
410.33	231.65
410.70	231.88
411.08	232.18
411.45	232.43
411.82	232.73
412.20	233.08
412.57	233.52
412.95	233.81
413.32	234.25
413.69	234.66
414.07	235.10
414.44	235.60
414.82	236.10
415.19	236.64
415.56	237.21
415.94	237.72
416.31	238.40
416.68	239.01
417.06	239.77
417.43	240.39
417.81	241.13
418.18	241.92
418.55	242.76
418.93	243.61
419.30	244.51
419.67	245.46
420.04	246.42
420.42	247.35
420.79	248.53
421.16	249.66
421.54	250.87
421.91	252.07
422.28	253.29
422.66	254.60
423.03	255.89
423.40	257.20
423.77	258.62
424.15	260.03
424.52	261.50
424.89	263.10
425.26	264.71
425.64	266.20
426.01	267.75
426.38	269.41
426.75	271.11
427.13	272.86
427.50	274.64
427.87	276.51
428.24	278.42
428.61	280.18
428.99	282.12
429.36	284.20
429.73	286.28
430.10	288.28
430.47	290.35
430.85	292.46
431.22	294.73
431.59	297.10
431.96	299.38
432.33	301.93
432.70	304.32
433.08	307.10
433.45	309.74
433.82	312.38
434.19	315.27
434.56	318.10
434.93	320.74
435.30	323.41
435.68	326.34
436.05	329.17
436.42	331.95
436.79	334.47
437.16	337.13
437.53	339.97
437.90	342.81
438.27	345.62
438.64	348.45
439.01	351.07
439.38	353.29
439.75	355.39
440.13	357.90
440.50	360.24
440.87	362.12
441.24	364.03
441.61	366.17
441.98	367.68
442.35	369.44
442.72	371.30
443.09	373.09
443.46	374.10
443.83	374.66
444.20	375.21
444.57	376.06
444.94	376.41
445.31	376.73
445.68	377.09
446.05	377.14
446.42	376.81
446.79	376.35
447.16	375.92
447.53	375.64
447.90	374.43
448.27	373.27
448.64	371.66
449.01	370.52
449.37	368.51
449.74	366.62
450.11	364.38
450.48	361.89
450.85	359.33
451.22	357.14
451.59	355.12
451.96	353.14
452.33	350.54
452.70	348.13
453.07	345.27
453.43	342.38
453.80	339.59
454.17	336.91
454.54	334.35
454.91	331.60
455.28	328.90
455.65	326.39
456.02	323.90
456.38	321.75
456.75	319.09
457.12	316.89
457.49	314.66
457.86	312.49
458.23	310.65
458.59	308.62
458.96	306.54
459.33	304.70
459.70	302.84
460.07	301.32
460.43	299.61
460.80	298.02
461.17	296.58
461.54	295.11
461.91	293.62
462.27	292.19
462.64	290.96
463.01	289.63
463.38	288.36
463.74	286.98
464.11	285.77
464.48	284.74
464.85	283.57
465.21	282.70
465.58	281.74
465.95	280.61
466.32	279.69
466.68	278.74
467.05	277.82
467.42	276.88
467.78	275.89
468.15	274.99
468.52	274.30
468.88	273.41
469.25	272.61
469.62	272.01
469.98	271.34
470.35	270.70
470.72	270.08
471.08	269.40
471.45	268.86
471.82	268.33
472.18	267.71
472.55	267.30
472.92	266.73
473.28	266.25
473.65	265.82
474.02	265.38
474.38	265.03
474.75	264.72
475.11	264.39
475.48	264.13
475.85	263.94
476.21	263.70
476.58	263.52
476.94	263.37
477.31	263.22
477.67	263.04
478.04	262.92
478.41	262.88
478.77	262.92
479.14	262.85
479.50	262.90
479.87	262.98
480.23	263.07
480.60	263.21
480.96	263.28
481.33	263.52
481.69	263.76
482.06	263.98
482.42	264.19
482.79	264.46
483.15	264.82
483.52	265.20
483.88	265.58
484.25	265.99
484.61	266.40
484.98	266.83
485.34	267.42
485.71	267.99
486.07	268.55
486.44	269.14
486.80	269.88
487.17	270.61
487.53	271.42
487.90	272.27
488.26	273.17
488.62	274.20
488.99	275.16
489.35	276.16
489.72	277.25
490.08	278.45
490.44	279.67
490.81	281.00
491.17	282.34
491.54	283.82
491.90	285.31
492.26	286.94
492.63	288.67
492.99	290.43
493.36	292.32
493.72	294.37
494.08	296.46
494.45	298.73
494.81	301.09
495.17	303.54
495.54	306.10
495.90	308.79
496.26	311.60
496.63	314.54
496.99	317.64
497.35	320.89
497.72	324.31
498.08	327.85
498.44	331.49
498.80	335.40
499.17	339.42
499.53	343.62
499.89	348.05
500.26	352.55
500.62	357.26
500.98	362.21
501.34	367.27
501.71	372.59
502.07	377.99
502.43	383.57
502.79	389.40
503.16	395.46
503.52	401.78
503.88	408.18
504.24	414.82
504.60	421.71
504.97	428.81
505.33	436.11
505.69	443.76
506.05	451.54
506.41	459.42
506.78	467.55
507.14	476.00
507.50	484.62
507.86	493.66
508.22	502.82
508.59	512.04
508.95	521.65
509.31	531.41
509.67	541.55
510.03	551.87
510.39	562.37
510.75	573.18
511.12	584.10
511.48	595.36
511.84	606.86
512.20	618.33
512.56	630.35
512.92	642.58
513.28	654.99
513.64	667.47
514.00	680.15
514.37	693.08
514.73	706.13
515.09	719.19
515.45	732.49
515.81	746.06
516.17	760.09
516.53	774.14
516.89	788.32
517.25	802.49
517.61	816.89
517.97	831.36
518.33	845.82
518.69	860.57
519.05	875.67
519.41	890.82
519.77	906.45
520.13	921.93
520.49	937.32
520.85	952.76
521.21	968.51
521.57	984.84
521.93	1000.68
522.29	1017.15
522.65	1033.53
523.01	1049.83
523.37	1066.05
523.73	1082.22
524.09	1098.35
524.45	1114.80
524.81	1131.52
525.17	1148.39
525.53	1165.28
525.89	1182.16
526.25	1199.01
526.61	1215.39
526.97	1232.09
527.33	1248.62
527.68	1265.25
528.04	1281.75
528.40	1298.42
528.76	1315.65
529.12	1332.18
529.48	1349.13
529.84	1365.26
530.20	1381.88
530.56	1398.92
530.91	1416.28
531.27	1433.12
531.63	1449.86
531.99	1466.50
532.35	1482.57
532.71	1498.49
533.07	1514.92
533.42	1530.94
533.78	1547.01
534.14	1563.29
534.50	1578.88
534.86	1594.89
535.21	1610.09
535.57	1626.15
535.93	1641.69
536.29	1656.46
536.65	1671.72
537.00	1686.69
537.36	1701.96
537.72	1716.52
538.08	1730.96
538.44	1744.85
538.79	1758.78
539.15	1772.40
539.51	1786.24
539.87	1800.54
540.22	1814.38
540.58	1828.28
540.94	1841.75
541.29	1854.70
541.65	1867.58
542.01	1880.77
542.37	1892.97
542.72	1905.47
543.08	1917.23
543.44	1929.80
543.79	1940.95
544.15	1951.98
544.51	1963.46
544.87	1974.42
545.22	1985.18
545.58	1995.52
545.94	2005.29
546.29	2015.29
546.65	2025.12
547.01	2034.33
547.36	2043.22
547.72	2051.76
548.07	2059.49
548.43	2067.69
548.79	2075.87
549.14	2083.35
549.50	2090.81
549.86	2098.73
550.21	2106.10
550.57	2113.28
550.92	2119.78
551.28	2127.01
551.64	2134.11
551.99	2140.63
552.35	2146.87
552.70	2153.14
553.06	2159.03
553.41	2165.47
553.77	2171.46
554.13	2177.60
554.48	2183.73
554.84	2189.04
555.19	2194.30
555.55	2199.40
555.90	2203.77
556.26	2208.63
556.61	2213.44
556.97	2217.59
557.32	2221.60
557.68	2225.74
558.03	2230.21
558.39	2233.93
558.74	2238.53
559.10	2242.42
559.45	2246.06
559.81	2250.44
560.16	2254.33
560.52	2257.62
560.87	2261.09
561.23	2263.75
561.58	2266.81
561.94	2269.29
562.29	2271.74
562.64	2274.42
563.00	2277.28
563.35	2280.76
563.71	2283.91
564.06	2287.02
564.42	2289.80
564.77	2292.33
565.12	2294.46
565.48	2296.17
565.83	2297.89
566.19	2299.17
566.54	2299.97
566.89	2301.14
567.25	2301.49
567.60	2302.75
567.96	2304.36
568.31	2304.90
568.66	2305.89
569.02	2306.35
569.37	2306.70
569.72	2307.42
570.08	2307.46
570.43	2307.19
570.78	2306.68
571.14	2305.06
571.49	2303.61
571.84	2303.32
572.20	2301.97
572.55	2301.02
572.90	2299.57
573.26	2298.19
573.61	2296.38
573.96	2294.52
574.31	2291.33
574.67	2288.38
575.02	2284.66
575.37	2281.30
575.72	2277.55
576.08	2274.18
576.43	2270.82
576.78	2267.16
577.13	2263.98
577.49	2260.86
577.84	2257.37
578.19	2253.43
578.54	2249.60
578.90	2245.33
579.25	2239.73
579.60	2234.78
579.95	2229.65
580.30	2224.39
580.66	2219.24
581.01	2214.31
581.36	2209.34
581.71	2205.12
582.06	2200.68
582.42	2196.11
582.77	2190.71
583.12	2186.03
583.47	2181.05
583.82	2175.80
584.17	2170.33
584.53	2164.62
584.88	2158.92
585.23	2153.09
585.58	2147.56
585.93	2142.07
586.28	2137.22
586.63	2131.99
586.98	2126.78
587.34	2121.91
587.69	2117.01
588.04	2111.62
588.39	2105.84
588.74	2099.38
589.09	2093.13
589.44	2086.31
589.79	2080.20
590.14	2074.58
590.49	2067.97
590.84	2061.56
591.19	2055.45
591.54	2049.01
591.89	2041.55
592.25	2034.65
592.60	2027.42
592.95	2019.76
593.30	2012.32
593.65	2004.68
594.00	1997.74
594.35	1990.45
594.70	1982.56
595.05	1975.15
595.40	1967.79
595.75	1960.14
596.10	1953.76
596.45	1947.05
596.80	1940.68
597.15	1933.97
597.50	1926.63
597.85	1920.13
598.19	1913.58
598.54	1906.51
598.89	1899.77
599.24	1893.93
599.59	1887.23
599.94	1880.92
600.29	1874.59
600.64	1867.98
600.99	1860.39
601.34	1853.27
601.69	1846.44
602.04	1839.29
602.39	1832.02
602.74	1825.16
603.08	1818.42
603.43	1811.60
603.78	1804.32
604.13	1797.09
604.48	1789.78
604.83	1782.97
605.18	1775.94
605.53	1767.82
605.87	1759.91
606.22	1752.71
606.57	1744.77
606.92	1737.36
607.27	1730.17
607.62	1723.28
607.96	1715.99
608.31	1709.39
608.66	1701.82
609.01	1694.16
609.36	1686.59
609.70	1678.44
610.05	1670.26
610.40	1662.56
610.75	1654.25
611.10	1646.50
611.44	1638.14
611.79	1630.12
612.14	1621.36
612.49	1612.27
612.83	1603.86
613.18	1595.60
613.53	1587.44
613.88	1578.83
614.22	1570.50
614.57	1562.02
614.92	1553.90
615.27	1546.24
615.61	1537.96
615.96	1530.06
616.31	1522.29
616.65	1514.92
617.00	1507.53
617.35	1499.88
617.70	1491.48
618.04	1482.96
618.39	1474.78
618.74	1467.16
619.08	1458.88
619.43	1451.34
619.78	1444.40
620.12	1437.20
620.47	1429.70
620.82	1421.59
621.16	1414.22
621.51	1406.64
621.85	1398.87
622.20	1390.38
622.55	1382.11
622.89	1374.19
623.24	1366.56
623.59	1359.36
623.93	1351.91
624.28	1344.54
624.62	1337.16
624.97	1330.03
625.32	1323.35
625.66	1316.28
626.01	1308.97
626.35	1301.44
626.70	1293.72
627.04	1285.95
627.39	1278.32
627.73	1270.88
628.08	1263.92
628.43	1256.63
628.77	1249.24
629.12	1241.66
629.46	1234.42
629.81	1227.04
630.15	1219.88
630.50	1212.38
630.84	1204.15
631.19	1196.27
631.53	1188.81
631.88	1181.13
632.22	1173.50
632.57	1166.21
632.91	1158.71
633.26	1151.34
633.60	1144.12
633.95	1137.14
634.29	1130.11
634.64	1123.45
634.98	1116.11
635.32	1109.00
635.67	1102.44
636.01	1095.91
636.36	1089.18
636.70	1082.72
637.05	1076.18
637.39	1069.71
637.73	1063.29
638.08	1057.33
638.42	1051.30
638.77	1044.91
639.11	1038.39
639.45	1032.00
639.80	1025.19
640.14	1018.75
640.49	1012.33
640.83	1005.99
641.17	999.74
641.52	993.40
641.86	986.93
642.20	981.10
642.55	974.84
642.89	968.28
643.23	961.73
643.58	955.93
643.92	949.72
644.26	943.53
644.61	937.58
644.95	931.46
645.29	924.96
645.64	918.25
645.98	911.84
646.32	906.03
646.66	900.09
647.01	894.34
647.35	888.69
647.69	882.86
648.04	877.38
648.38	871.55
648.72	865.56
649.06	859.43
649.41	853.47
649.75	847.41
650.09	841.44
650.43	835.63
650.78	829.45
651.12	823.50
651.46	817.87
651.80	812.06
652.14	806.79
652.49	801.33
652.83	796.09
653.17	790.39
653.51	784.59
653.85	779.15
654.20	773.53
654.54	767.42
654.88	761.61
655.22	755.76
655.56	750.00
655.90	744.60
656.25	739.38
656.59	734.13
656.93	729.07
657.27	723.89
657.61	718.41
657.95	713.33
658.29	708.28
658.64	703.04
658.98	697.79
659.32	692.24
659.66	687.05
660.00	681.71
660.34	676.88
660.68	672.02
661.02	666.96
661.36	662.26
661.70	657.81
662.05	653.49
662.39	649.05
662.73	644.68
663.07	640.27
663.41	635.80
663.75	631.26
664.09	626.65
664.43	622.40
664.77	618.31
665.11	614.03
665.45	609.85
665.79	605.78
666.13	601.61
666.47	597.54
666.81	593.41
667.15	589.34
667.49	585.38
667.83	581.52
668.17	577.65
668.51	573.63
668.85	569.61
669.19	565.74
669.53	561.91
669.87	557.99
670.21	554.32
670.55	550.72
670.89	547.36
671.23	544.01
671.57	540.44
671.91	536.95
672.25	533.56
672.58	530.08
672.92	526.69
673.26	523.59
673.60	520.52
673.94	517.41
674.28	514.56
674.62	511.62
674.96	508.55
675.30	505.64
675.64	502.74
675.97	500.03
676.31	497.22
676.65	494.40
676.99	491.71
677.33	488.82
677.67	485.99
678.01	482.95
678.34	479.96
678.68	477.08
679.02	474.27
679.36	471.49
679.70	468.77
680.04	465.95
680.37	463.05
680.71	460.27
681.05	457.62
681.39	454.92
681.73	452.31
682.06	449.77
682.40	447.17
682.74	444.66
683.08	442.10
683.42	439.49
683.75	436.92
684.09	434.35
684.43	431.92
684.77	429.49
685.10	427.15
685.44	424.85
685.78	422.59
686.12	420.33
686.45	418.06
686.79	415.79
687.13	413.66
687.46	411.54
687.80	409.39
688.14	407.23
688.48	405.12
688.81	402.83
689.15	400.71
689.49	398.61
689.82	396.51
690.16	394.36
690.50	392.34
690.83	390.39
691.17	388.43
691.51	386.52
691.84	384.68
692.18	382.72
692.52	380.71
692.85	378.81
693.19	376.91
693.52	375.08
693.86	373.33
694.20	371.54
694.53	369.70
694.87	367.86
695.21	366.07
695.54	364.23
695.88	362.56
696.21	360.84
696.55	359.16
696.88	357.47
697.22	355.91
697.56	354.36
697.89	352.69
698.23	351.07
698.56	349.46
698.90	347.89
699.23	346.25
699.57	344.69
699.90	343.14
700.24	341.60
700.58	340.08
700.91	338.55
701.25	337.11
701.58	335.77
701.92	334.38
702.25	332.99
702.59	331.66
702.92	330.32
703.26	329.03
703.59	327.76
703.93	326.57
704.26	325.34
704.60	324.03
704.93	322.81
705.26	321.56
705.60	320.41
705.93	319.24
706.27	318.25
706.60	317.27
706.94	316.19
707.27	315.06
707.61	314.01
707.94	313.01
708.27	311.89
708.61	310.79
708.94	309.78
709.28	308.82
709.61	307.83
709.94	306.90
710.28	305.88
710.61	304.89
710.95	303.83
711.28	302.94
711.61	301.97
711.95	301.01
712.28	300.08
712.61	299.07
712.95	298.11
713.28	297.22
713.61	296.30
713.95	295.39
714.28	294.59
714.61	293.70
714.95	292.84
715.28	291.97
715.61	291.15
715.95	290.32
716.28	289.46
716.61	288.68
716.95	287.86
717.28	287.10
717.61	286.33
717.94	285.59
718.28	284.76
718.61	284.09
718.94	283.49
719.27	282.84
719.61	282.22
719.94	281.59
720.27	280.87
720.60	280.20
720.94	279.60
721.27	279.00
721.60	278.45
721.93	277.86
722.27	277.30
722.60	276.75
722.93	276.17
723.26	275.65
723.59	275.07
723.93	274.54
724.26	274.03
724.59	273.52
724.92	272.99
725.25	272.51
725.59	272.02
725.92	271.46
726.25	270.92
726.58	270.42
726.91	269.89
727.24	269.43
727.57	268.99
727.91	268.50
728.24	268.01
728.57	267.51
728.90	267.08
729.23	266.63
729.56	266.18
729.89	265.70
730.22	265.24
730.55	264.74
730.89	264.27
731.22	263.79
731.55	263.29
731.88	262.86
732.21	262.38
732.54	261.88
732.87	261.45
733.20	261.09
733.53	260.69
733.86	260.34
734.19	259.93
734.52	259.51
734.85	259.16
735.18	258.75
735.51	258.41
735.84	258.02
736.17	257.63
736.50	257.22
736.83	256.97
737.16	256.62
737.49	256.33
737.82	256.00
738.15	255.69
738.48	255.37
738.81	255.05
739.14	254.76
739.47	254.49
739.80	254.15
740.13	253.84
740.46	253.51
740.79	253.17
741.12	252.85
741.45	252.53
741.78	252.18
742.11	251.90
742.44	251.53
742.77	251.25
743.10	250.96
743.43	250.67
743.75	250.30
744.08	250.12
744.41	249.84
744.74	249.56
745.07	249.28
745.40	249.05
745.73	248.82
746.06	248.55
746.39	248.27
746.71	248.03
747.04	247.75
747.37	247.50
747.70	247.28
748.03	247.05
748.36	246.85
748.68	246.63
749.01	246.37
749.34	246.15
749.67	245.89
750.00	245.66
750.33	245.50
750.65	245.28
750.98	244.98
751.31	244.75
751.64	244.53
751.97	244.36
752.29	244.15
752.62	243.88
752.95	243.65
753.28	243.46
753.60	243.27
753.93	243.13
754.26	242.94
754.59	242.72
754.91	242.50
755.24	242.32
755.57	242.17
755.90	242.00
756.22	241.84
756.55	241.68
756.88	241.54
757.20	241.32
757.53	241.14
757.86	240.98
758.19	240.83
758.51	240.69
758.84	240.49
759.17	240.29
759.49	240.16
759.82	240.09
760.15	239.92
760.47	239.78
760.80	239.63
761.13	239.49
761.45	239.37
761.78	239.25
762.11	239.12
762.43	238.96
762.76	238.78
763.08	238.65
763.41	238.54
763.74	238.39
764.06	238.25
764.39	238.13
764.71	237.98
765.04	237.84
765.37	237.73
765.69	237.60
766.02	237.50
766.34	237.37
766.67	237.23
767.00	237.14
767.32	237.03
767.65	236.97
767.97	236.86
768.30	236.71
768.62	236.59
768.95	236.47
769.27	236.35
769.60	236.29
769.92	236.16
770.25	236.06
770.57	235.95
770.90	235.85
771.22	235.76
771.55	235.67
771.87	235.58
772.20	235.47
772.52	235.45
772.85	235.46
773.17	235.36
773.50	235.22
773.82	235.09
774.15	234.96
774.47	234.78
774.80	234.68
775.12	234.60
775.45	234.53
775.77	234.44
776.09	234.35
776.42	234.25
776.74	234.18
777.07	234.08
777.39	234.02
777.72	233.92
778.04	233.86
778.36	233.74
778.69	233.68
779.01	233.58
779.33	233.45
779.66	233.23
779.98	233.13
780.31	233.06
780.63	233.05
780.95	233.00
781.28	232.92
781.60	232.84
781.92	232.75
782.25	232.67
782.57	232.61
782.89	232.54
783.22	232.49
783.54	232.38
783.86	232.28
784.19	232.20
784.51	232.16
784.83	232.04
785.16	231.98
785.48	231.91
785.80	231.88
786.12	231.81
786.45	231.81
786.77	231.79
787.09	231.77
