SpectraSuite Data File
++++++++++++++++++++++++++++++++++++
Date: Fri Feb 01 15:09:20 EST 2013
User: group
Dark Spectrum Present: No
Reference Spectrum Present: No
Number of Sampled Component Spectra: 1
Spectrometers: USB2E7196
Integration Time (usec): 35000 (USB2E7196)
Spectra Averaged: 100 (USB2E7196)
Boxcar Smoothing: 10 (USB2E7196)
Correct for Electrical Dark: No (USB2E7196)
Strobe/Lamp Enabled: No (USB2E7196)
Correct for Detector Non-linearity: No (USB2E7196)
Correct for Stray Light: No (USB2E7196)
Number of Pixels in Processed Spectrum: 2048
>>>>>Begin Processed Spectral Data<<<<<
339.09	0.00
339.48	215.29
339.86	217.27
340.24	218.21
340.63	219.78
341.01	221.89
341.39	222.49
341.78	223.88
342.16	224.15
342.54	225.07
342.93	213.67
343.31	224.50
343.69	225.04
344.07	225.47
344.46	225.90
344.84	226.28
345.22	226.57
345.60	226.80
345.99	226.99
346.37	227.15
346.75	227.25
347.13	227.30
347.52	227.37
347.90	227.44
348.28	227.46
348.66	227.54
349.05	227.53
349.43	227.61
349.81	227.68
350.19	227.71
350.57	227.77
350.96	227.81
351.34	227.85
351.72	227.95
352.10	228.02
352.48	228.06
352.87	228.09
353.25	228.12
353.63	228.20
354.01	228.24
354.39	228.33
354.77	228.42
355.15	228.51
355.54	228.56
355.92	228.59
356.30	228.66
356.68	228.78
357.06	228.86
357.44	228.88
357.82	228.93
358.20	229.02
358.58	229.05
358.97	229.12
359.35	229.21
359.73	229.27
360.11	229.35
360.49	229.42
360.87	229.46
361.25	229.52
361.63	229.61
362.01	229.68
362.39	229.70
362.77	229.71
363.15	229.74
363.53	229.76
363.91	229.82
364.29	229.84
364.67	229.79
365.05	229.79
365.43	229.79
365.81	229.79
366.19	229.76
366.57	229.80
366.95	229.78
367.33	229.75
367.71	229.75
368.09	229.74
368.47	229.68
368.85	229.67
369.23	229.65
369.61	229.56
369.99	229.51
370.37	229.45
370.75	229.48
371.13	229.39
371.51	229.32
371.89	229.24
372.27	229.18
372.65	229.10
373.03	229.02
373.41	228.97
373.78	228.90
374.16	228.80
374.54	228.72
374.92	228.64
375.30	228.57
375.68	228.45
376.06	228.39
376.44	228.36
376.82	228.29
377.19	228.22
377.57	228.11
377.95	228.01
378.33	227.96
378.71	227.81
379.09	227.77
379.47	227.71
379.84	227.62
380.22	227.54
380.60	227.46
380.98	227.41
381.36	227.33
381.73	227.26
382.11	227.19
382.49	227.10
382.87	227.03
383.25	226.93
383.62	227.01
384.00	226.92
384.38	226.87
384.76	226.82
385.13	226.81
385.51	226.78
385.89	226.72
386.27	226.65
386.64	226.62
387.02	226.56
387.40	226.49
387.78	226.47
388.15	226.46
388.53	226.37
388.91	226.32
389.29	226.29
389.66	226.27
390.04	226.28
390.42	226.27
390.79	226.23
391.17	226.27
391.55	226.13
391.92	226.11
392.30	226.06
392.68	226.06
393.05	226.04
393.43	226.04
393.81	226.07
394.18	226.09
394.56	226.11
394.94	226.18
395.31	226.23
395.69	226.26
396.06	226.27
396.44	226.36
396.82	226.39
397.19	226.50
397.57	226.53
397.95	226.59
398.32	226.64
398.70	226.73
399.07	226.80
399.45	226.85
399.82	226.91
400.20	227.03
400.58	227.13
400.95	227.18
401.33	227.31
401.70	227.47
402.08	227.59
402.45	227.70
402.83	227.81
403.20	227.93
403.58	228.06
403.95	228.22
404.33	228.36
404.71	228.52
405.08	228.70
405.46	228.86
405.83	229.02
406.21	229.22
406.58	229.40
406.96	229.56
407.33	229.76
407.70	229.98
408.08	230.26
408.45	230.48
408.83	230.76
409.20	230.97
409.58	231.17
409.95	231.44
410.33	231.72
410.70	231.97
411.08	232.29
411.45	232.64
411.82	232.95
412.20	233.31
412.57	233.76
412.95	234.07
413.32	234.49
413.69	234.89
414.07	235.31
414.44	235.79
414.82	236.28
415.19	236.84
415.56	237.40
415.94	237.94
416.31	238.59
416.68	239.19
417.06	239.92
417.43	240.60
417.81	241.36
418.18	242.15
418.55	243.01
418.93	243.83
419.30	244.72
419.67	245.67
420.04	246.60
420.42	247.61
420.79	248.80
421.16	249.94
421.54	251.16
421.91	252.38
422.28	253.61
422.66	254.94
423.03	256.24
423.40	257.56
423.77	258.97
424.15	260.36
424.52	261.84
424.89	263.45
425.26	264.97
425.64	266.37
426.01	267.92
426.38	269.56
426.75	271.26
427.13	272.95
427.50	274.73
427.87	276.60
428.24	278.42
428.61	280.14
428.99	282.05
429.36	284.16
429.73	286.21
430.10	288.24
430.47	290.30
430.85	292.38
431.22	294.67
431.59	297.02
431.96	299.30
432.33	301.80
432.70	304.15
433.08	307.00
433.45	309.68
433.82	312.31
434.19	315.22
434.56	318.06
434.93	320.72
435.30	323.35
435.68	326.27
436.05	329.08
436.42	331.86
436.79	334.40
437.16	337.10
437.53	339.97
437.90	342.78
438.27	345.50
438.64	348.40
439.01	350.96
439.38	353.24
439.75	355.39
440.13	357.87
440.50	360.31
440.87	362.16
441.24	364.12
441.61	366.35
441.98	367.82
442.35	369.63
442.72	371.55
443.09	373.35
443.46	374.33
443.83	374.92
444.20	375.48
444.57	376.32
444.94	376.62
445.31	376.91
445.68	377.26
446.05	377.38
446.42	376.98
446.79	376.55
447.16	376.11
447.53	375.83
447.90	374.70
448.27	373.47
448.64	371.88
449.01	370.72
449.37	368.73
449.74	366.86
450.11	364.62
450.48	362.09
450.85	359.58
451.22	357.49
451.59	355.51
451.96	353.56
452.33	350.98
452.70	348.65
453.07	345.91
453.43	343.01
453.80	340.22
454.17	337.56
454.54	335.07
454.91	332.33
455.28	329.63
455.65	327.10
456.02	324.67
456.38	322.52
456.75	319.87
457.12	317.59
457.49	315.35
457.86	313.20
458.23	311.35
458.59	309.34
458.96	307.22
459.33	305.34
459.70	303.45
460.07	301.90
460.43	300.12
460.80	298.43
461.17	296.98
461.54	295.51
461.91	294.11
462.27	292.61
462.64	291.38
463.01	290.02
463.38	288.75
463.74	287.38
464.11	286.19
464.48	285.19
464.85	284.07
465.21	283.20
465.58	282.23
465.95	281.12
466.32	280.18
466.68	279.26
467.05	278.36
467.42	277.43
467.78	276.51
468.15	275.65
468.52	274.96
468.88	274.11
469.25	273.32
469.62	272.67
469.98	271.96
470.35	271.25
470.72	270.57
471.08	269.88
471.45	269.29
471.82	268.71
472.18	268.06
472.55	267.58
472.92	267.02
473.28	266.53
473.65	266.05
474.02	265.57
474.38	265.22
474.75	264.87
475.11	264.54
475.48	264.28
475.85	264.02
476.21	263.78
476.58	263.59
476.94	263.41
477.31	263.21
477.67	263.06
478.04	262.96
478.41	262.94
478.77	262.96
479.14	262.88
479.50	262.91
479.87	262.95
480.23	263.06
480.60	263.08
480.96	263.17
481.33	263.37
481.69	263.52
482.06	263.69
482.42	263.88
482.79	264.12
483.15	264.39
483.52	264.74
483.88	265.11
484.25	265.50
484.61	265.92
484.98	266.35
485.34	266.90
485.71	267.49
486.07	268.07
486.44	268.66
486.80	269.40
487.17	270.12
487.53	270.92
487.90	271.77
488.26	272.73
488.62	273.72
488.99	274.71
489.35	275.81
489.72	276.93
490.08	278.12
490.44	279.38
490.81	280.71
491.17	282.11
491.54	283.59
491.90	285.13
492.26	286.78
492.63	288.52
492.99	290.28
493.36	292.19
493.72	294.24
494.08	296.30
494.45	298.54
494.81	300.92
495.17	303.40
495.54	305.96
495.90	308.64
496.26	311.44
496.63	314.38
496.99	317.47
497.35	320.71
497.72	324.11
498.08	327.55
498.44	331.24
498.80	335.15
499.17	339.14
499.53	343.26
499.89	347.64
500.26	352.15
500.62	356.87
500.98	361.79
501.34	366.89
501.71	372.20
502.07	377.63
502.43	383.24
502.79	389.04
503.16	395.08
503.52	401.37
503.88	407.79
504.24	414.45
504.60	421.35
504.97	428.50
505.33	435.87
505.69	443.64
506.05	451.40
506.41	459.22
506.78	467.39
507.14	475.89
507.50	484.59
507.86	493.61
508.22	502.74
508.59	511.93
508.95	521.47
509.31	531.27
509.67	541.38
510.03	551.58
510.39	562.13
510.75	572.91
511.12	583.86
511.48	595.16
511.84	606.58
512.20	618.07
512.56	630.02
512.92	642.10
513.28	654.38
513.64	666.88
514.00	679.67
514.37	692.51
514.73	705.49
515.09	718.58
515.45	731.83
515.81	745.40
516.17	759.41
516.53	773.63
516.89	787.82
517.25	802.04
517.61	816.45
517.97	830.78
518.33	845.21
518.69	859.92
519.05	874.90
519.41	890.06
519.77	905.58
520.13	920.98
520.49	936.45
520.85	951.95
521.21	967.69
521.57	983.92
521.93	999.87
522.29	1016.33
522.65	1032.59
523.01	1048.89
523.37	1064.96
523.73	1081.20
524.09	1097.16
524.45	1113.47
524.81	1130.08
525.17	1147.00
525.53	1164.00
525.89	1180.97
526.25	1197.80
526.61	1214.21
526.97	1231.03
527.33	1247.52
527.68	1264.26
528.04	1280.84
528.40	1297.53
528.76	1314.72
529.12	1331.30
529.48	1348.24
529.84	1364.42
530.20	1381.22
530.56	1398.36
530.91	1415.79
531.27	1432.50
531.63	1448.98
531.99	1465.65
532.35	1481.71
532.71	1497.65
533.07	1514.00
533.42	1529.96
533.78	1546.08
534.14	1562.48
534.50	1577.92
534.86	1593.95
535.21	1609.12
535.57	1625.10
535.93	1640.62
536.29	1655.41
536.65	1670.64
537.00	1685.43
537.36	1700.71
537.72	1715.15
538.08	1729.73
538.44	1743.74
538.79	1757.83
539.15	1771.81
539.51	1785.76
539.87	1800.33
540.22	1814.23
540.58	1828.16
540.94	1841.60
541.29	1854.87
541.65	1867.75
542.01	1881.10
542.37	1893.44
542.72	1905.99
543.08	1917.76
543.44	1930.15
543.79	1941.54
544.15	1952.58
544.51	1964.28
544.87	1975.31
545.22	1986.17
545.58	1996.29
545.94	2006.03
546.29	2015.97
546.65	2025.79
547.01	2034.93
547.36	2043.68
547.72	2052.16
548.07	2060.08
548.43	2068.34
548.79	2076.27
549.14	2083.73
549.50	2091.09
549.86	2098.94
550.21	2106.21
550.57	2113.41
550.92	2120.11
551.28	2127.18
551.64	2134.25
551.99	2140.84
552.35	2146.98
552.70	2153.18
553.06	2159.18
553.41	2165.55
553.77	2171.59
554.13	2177.73
554.48	2184.01
554.84	2189.28
555.19	2194.57
555.55	2199.57
555.90	2203.87
556.26	2208.64
556.61	2213.37
556.97	2217.49
557.32	2221.62
557.68	2225.81
558.03	2230.17
558.39	2233.97
558.74	2238.42
559.10	2242.25
559.45	2245.89
559.81	2250.19
560.16	2253.91
560.52	2257.18
560.87	2260.62
561.23	2263.19
561.58	2266.11
561.94	2268.50
562.29	2270.93
562.64	2273.51
563.00	2276.13
563.35	2279.70
563.71	2282.76
564.06	2285.76
564.42	2288.67
564.77	2291.02
565.12	2293.10
565.48	2294.84
565.83	2296.44
566.19	2297.71
566.54	2298.65
566.89	2299.68
567.25	2300.09
567.60	2301.45
567.96	2302.80
568.31	2303.48
568.66	2304.46
569.02	2304.82
569.37	2305.00
569.72	2305.70
570.08	2305.71
570.43	2305.51
570.78	2304.73
571.14	2303.11
571.49	2301.73
571.84	2301.22
572.20	2299.94
572.55	2298.90
572.90	2297.33
573.26	2295.91
573.61	2294.15
573.96	2292.02
574.31	2288.90
574.67	2285.73
575.02	2282.02
575.37	2278.64
575.72	2274.78
576.08	2271.47
576.43	2268.05
576.78	2264.34
577.13	2261.05
577.49	2257.99
577.84	2254.61
578.19	2250.80
578.54	2247.00
578.90	2242.80
579.25	2237.24
579.60	2232.11
579.95	2227.08
580.30	2222.05
580.66	2216.70
581.01	2211.62
581.36	2206.77
581.71	2202.46
582.06	2198.03
582.42	2193.35
582.77	2188.02
583.12	2183.26
583.47	2178.21
583.82	2173.05
584.17	2167.74
584.53	2162.13
584.88	2156.28
585.23	2150.31
585.58	2144.85
585.93	2139.31
586.28	2134.50
586.63	2129.17
586.98	2124.10
587.34	2119.28
587.69	2114.11
588.04	2108.84
588.39	2103.12
588.74	2096.53
589.09	2090.33
589.44	2083.47
589.79	2077.35
590.14	2071.64
590.49	2065.03
590.84	2058.71
591.19	2052.65
591.54	2046.06
591.89	2038.46
592.25	2031.49
592.60	2024.18
592.95	2016.41
593.30	2008.99
593.65	2001.04
594.00	1993.99
594.35	1986.62
594.70	1978.54
595.05	1971.28
595.40	1963.85
595.75	1956.14
596.10	1949.78
596.45	1942.81
596.80	1936.56
597.15	1929.84
597.50	1922.61
597.85	1916.12
598.19	1909.33
598.54	1902.17
598.89	1895.46
599.24	1889.75
599.59	1883.09
599.94	1876.90
600.29	1870.50
600.64	1863.81
600.99	1856.35
601.34	1849.44
601.69	1842.51
602.04	1835.42
602.39	1827.94
602.74	1821.08
603.08	1814.33
603.43	1807.54
603.78	1800.33
604.13	1793.16
604.48	1785.98
604.83	1779.20
605.18	1772.11
605.53	1763.98
605.87	1755.92
606.22	1748.62
606.57	1740.47
606.92	1733.14
607.27	1725.80
607.62	1718.94
607.96	1711.70
608.31	1705.05
608.66	1697.37
609.01	1689.72
609.36	1682.19
609.70	1674.28
610.05	1666.13
610.40	1658.44
610.75	1650.18
611.10	1642.48
611.44	1634.04
611.79	1625.96
612.14	1617.24
612.49	1608.23
612.83	1600.05
613.18	1592.01
613.53	1583.97
613.88	1575.49
614.22	1567.19
614.57	1558.60
614.92	1550.41
615.27	1542.83
615.61	1534.51
615.96	1526.58
616.31	1519.04
616.65	1511.66
617.00	1504.05
617.35	1496.55
617.70	1488.18
618.04	1479.63
618.39	1471.39
618.74	1463.83
619.08	1455.54
619.43	1447.91
619.78	1440.90
620.12	1433.59
620.47	1426.08
620.82	1417.94
621.16	1410.66
621.51	1403.08
621.85	1395.56
622.20	1387.20
622.55	1378.79
622.89	1371.05
623.24	1363.48
623.59	1356.07
623.93	1348.52
624.28	1341.31
624.62	1333.75
624.97	1326.69
625.32	1320.00
625.66	1312.98
626.01	1305.66
626.35	1298.18
626.70	1290.54
627.04	1282.98
627.39	1275.31
627.73	1267.80
628.08	1260.89
628.43	1253.46
628.77	1246.07
629.12	1238.64
629.46	1231.40
629.81	1224.21
630.15	1217.04
630.50	1209.69
630.84	1201.60
631.19	1193.84
631.53	1186.37
631.88	1178.83
632.22	1171.24
632.57	1164.04
632.91	1156.49
633.26	1149.22
633.60	1141.84
633.95	1134.88
634.29	1127.79
634.64	1121.10
634.98	1113.87
635.32	1106.78
635.67	1100.38
636.01	1093.84
636.36	1087.01
636.70	1080.57
637.05	1074.02
637.39	1067.62
637.73	1061.21
638.08	1055.40
638.42	1049.37
638.77	1043.02
639.11	1036.38
639.45	1030.05
639.80	1023.31
640.14	1016.97
640.49	1010.40
640.83	1004.21
641.17	997.96
641.52	991.63
641.86	985.33
642.20	979.51
642.55	973.24
642.89	966.68
643.23	960.23
643.58	954.41
643.92	948.26
644.26	942.10
644.61	936.08
644.95	929.99
645.29	923.29
645.64	916.53
645.98	910.15
646.32	904.37
646.66	898.38
647.01	892.58
647.35	886.92
647.69	881.12
648.04	875.59
648.38	869.76
648.72	863.74
649.06	857.58
649.41	851.70
649.75	845.66
650.09	839.69
650.43	833.85
650.78	827.70
651.12	821.74
651.46	816.03
651.80	810.24
652.14	804.85
652.49	799.48
652.83	794.33
653.17	788.70
653.51	782.98
653.85	777.57
654.20	771.96
654.54	766.03
654.88	760.35
655.22	754.48
655.56	748.82
655.90	743.41
656.25	738.19
656.59	732.85
656.93	727.87
657.27	722.74
657.61	717.28
657.95	712.21
658.29	707.10
658.64	701.90
658.98	696.55
659.32	691.11
659.66	685.95
660.00	680.70
660.34	675.75
660.68	670.86
661.02	665.76
661.36	661.08
661.70	656.55
662.05	652.19
662.39	647.90
662.73	643.47
663.07	639.10
663.41	634.68
663.75	630.15
664.09	625.56
664.43	621.22
664.77	617.17
665.11	612.95
665.45	608.88
665.79	604.82
666.13	600.75
666.47	596.63
666.81	592.52
667.15	588.40
667.49	584.57
667.83	580.78
668.17	576.92
668.51	572.89
668.85	568.90
669.19	565.02
669.53	561.18
669.87	557.30
670.21	553.66
670.55	550.07
670.89	546.69
671.23	543.28
671.57	539.82
671.91	536.30
672.25	532.83
672.58	529.38
672.92	526.03
673.26	522.90
673.60	519.83
673.94	516.71
674.28	513.87
674.62	510.89
674.96	507.84
675.30	504.98
675.64	502.08
675.97	499.29
676.31	496.50
676.65	493.58
676.99	490.89
677.33	488.00
677.67	485.22
678.01	482.19
678.34	479.23
678.68	476.36
679.02	473.57
679.36	470.84
679.70	468.15
680.04	465.39
680.37	462.53
680.71	459.80
681.05	457.24
681.39	454.50
681.73	451.92
682.06	449.39
682.40	446.86
682.74	444.41
683.08	441.91
683.42	439.29
683.75	436.85
684.09	434.34
684.43	431.93
684.77	429.47
685.10	427.15
685.44	424.87
685.78	422.61
686.12	420.39
686.45	418.15
686.79	415.83
687.13	413.63
687.46	411.52
687.80	409.33
688.14	407.09
688.48	405.05
688.81	402.73
689.15	400.62
689.49	398.46
689.82	396.31
690.16	394.25
690.50	392.28
690.83	390.34
691.17	388.33
691.51	386.39
691.84	384.51
692.18	382.55
692.52	380.55
692.85	378.61
693.19	376.73
693.52	374.91
693.86	373.09
694.20	371.32
694.53	369.48
694.87	367.64
695.21	365.88
695.54	364.05
695.88	362.40
696.21	360.61
696.55	358.95
696.88	357.26
697.22	355.64
697.56	354.02
697.89	352.34
698.23	350.76
698.56	349.17
698.90	347.56
699.23	345.94
699.57	344.40
699.90	342.81
700.24	341.23
700.58	339.66
700.91	338.15
701.25	336.66
701.58	335.26
701.92	333.87
702.25	332.46
702.59	331.11
702.92	329.75
703.26	328.47
703.59	327.17
703.93	326.00
704.26	324.75
704.60	323.51
704.93	322.29
705.26	321.03
705.60	319.87
705.93	318.74
706.27	317.75
706.60	316.72
706.94	315.68
707.27	314.60
707.61	313.56
707.94	312.54
708.27	311.51
708.61	310.48
708.94	309.53
709.28	308.59
709.61	307.63
709.94	306.70
710.28	305.69
710.61	304.74
710.95	303.68
711.28	302.75
711.61	301.79
711.95	300.82
712.28	299.94
712.61	298.98
712.95	298.09
713.28	297.24
713.61	296.39
713.95	295.52
714.28	294.69
714.61	293.87
714.95	293.04
715.28	292.21
715.61	291.32
715.95	290.50
716.28	289.67
716.61	288.85
716.95	288.08
717.28	287.35
717.61	286.61
717.94	285.88
718.28	285.11
718.61	284.41
718.94	283.77
719.27	283.10
719.61	282.48
719.94	281.81
720.27	281.07
720.60	280.35
720.94	279.70
721.27	279.11
721.60	278.55
721.93	277.98
722.27	277.43
722.60	276.89
722.93	276.28
723.26	275.71
723.59	275.14
723.93	274.58
724.26	274.06
724.59	273.49
724.92	272.95
725.25	272.39
725.59	271.88
725.92	271.37
726.25	270.86
726.58	270.34
726.91	269.82
727.24	269.35
727.57	268.91
727.91	268.43
728.24	267.94
728.57	267.44
728.90	266.98
729.23	266.49
729.56	266.06
729.89	265.62
730.22	265.10
730.55	264.66
730.89	264.19
731.22	263.70
731.55	263.25
731.88	262.85
732.21	262.45
732.54	261.99
732.87	261.54
733.20	261.13
733.53	260.74
733.86	260.38
734.19	259.96
734.52	259.58
734.85	259.23
735.18	258.83
735.51	258.40
735.84	258.00
736.17	257.62
736.50	257.20
736.83	256.97
737.16	256.64
737.49	256.27
737.82	255.93
738.15	255.61
738.48	255.26
738.81	254.89
739.14	254.56
739.47	254.24
739.80	253.92
740.13	253.60
740.46	253.25
740.79	252.89
741.12	252.58
741.45	252.27
741.78	251.92
742.11	251.63
742.44	251.36
742.77	251.08
743.10	250.75
743.43	250.48
743.75	250.09
744.08	249.97
744.41	249.67
744.74	249.40
745.07	249.10
745.40	248.88
745.73	248.65
746.06	248.40
746.39	248.14
746.71	247.88
747.04	247.62
747.37	247.38
747.70	247.15
748.03	246.95
748.36	246.71
748.68	246.50
749.01	246.30
749.34	246.06
749.67	245.83
750.00	245.66
750.33	245.52
750.65	245.30
750.98	244.99
751.31	244.81
751.64	244.61
751.97	244.51
752.29	244.31
752.62	244.12
752.95	243.93
753.28	243.74
753.60	243.57
753.93	243.44
754.26	243.25
754.59	243.05
754.91	242.85
755.24	242.69
755.57	242.50
755.90	242.29
756.22	242.13
756.55	241.96
756.88	241.78
757.20	241.51
757.53	241.34
757.86	241.20
758.19	241.06
758.51	240.92
758.84	240.71
759.17	240.54
759.49	240.39
759.82	240.28
760.15	240.16
760.47	239.98
760.80	239.77
761.13	239.66
761.45	239.54
761.78	239.43
762.11	239.30
762.43	239.17
762.76	239.02
763.08	238.91
763.41	238.80
763.74	238.68
764.06	238.57
764.39	238.44
764.71	238.28
765.04	238.17
765.37	238.03
765.69	237.91
766.02	237.77
766.34	237.62
766.67	237.48
767.00	237.34
767.32	237.27
767.65	237.23
767.97	237.11
768.30	236.96
768.62	236.80
768.95	236.67
769.27	236.55
769.60	236.46
769.92	236.32
770.25	236.15
770.57	235.99
770.90	235.88
771.22	235.75
771.55	235.63
771.87	235.50
772.20	235.40
772.52	235.37
772.85	235.38
773.17	235.27
773.50	235.15
773.82	235.04
774.15	234.93
774.47	234.78
774.80	234.65
775.12	234.58
775.45	234.48
775.77	234.37
776.09	234.28
776.42	234.20
776.74	234.15
777.07	234.07
777.39	234.00
777.72	233.91
778.04	233.87
778.36	233.77
778.69	233.71
779.01	233.60
779.33	233.43
779.66	233.25
779.98	233.16
780.31	233.09
780.63	233.09
780.95	233.02
781.28	232.93
781.60	232.84
781.92	232.76
782.25	232.71
782.57	232.68
782.89	232.63
783.22	232.53
783.54	232.42
783.86	232.39
784.19	232.32
784.51	232.27
784.83	232.21
785.16	232.18
785.48	232.09
785.80	232.05
786.12	232.00
786.45	231.94
786.77	231.91
787.09	231.89
