SpectraSuite Data File
++++++++++++++++++++++++++++++++++++
Date: Fri Feb 01 15:40:28 EST 2013
User: group
Dark Spectrum Present: No
Reference Spectrum Present: No
Number of Sampled Component Spectra: 1
Spectrometers: USB2E7196
Integration Time (usec): 35000 (USB2E7196)
Spectra Averaged: 100 (USB2E7196)
Boxcar Smoothing: 10 (USB2E7196)
Correct for Electrical Dark: No (USB2E7196)
Strobe/Lamp Enabled: No (USB2E7196)
Correct for Detector Non-linearity: No (USB2E7196)
Correct for Stray Light: No (USB2E7196)
Number of Pixels in Processed Spectrum: 2048
>>>>>Begin Processed Spectral Data<<<<<
339.09	0.00
339.48	214.80
339.86	216.25
340.24	217.78
340.63	218.86
341.01	221.66
341.39	221.68
341.78	223.00
342.16	224.72
342.54	224.76
342.93	213.22
343.31	224.01
343.69	224.54
344.07	224.99
344.46	225.41
344.84	225.83
345.22	226.08
345.60	226.33
345.99	226.52
346.37	226.61
346.75	226.74
347.13	226.79
347.52	226.88
347.90	226.97
348.28	226.99
348.66	227.01
349.05	227.03
349.43	227.09
349.81	227.16
350.19	227.23
350.57	227.29
350.96	227.35
351.34	227.44
351.72	227.52
352.10	227.68
352.48	227.77
352.87	227.80
353.25	227.88
353.63	227.95
354.01	228.03
354.39	228.15
354.77	228.19
355.15	228.32
355.54	228.36
355.92	228.37
356.30	228.46
356.68	228.62
357.06	228.68
357.44	228.73
357.82	228.80
358.20	228.90
358.58	228.98
358.97	229.04
359.35	229.09
359.73	229.18
360.11	229.20
360.49	229.25
360.87	229.29
361.25	229.36
361.63	229.45
362.01	229.47
362.39	229.51
362.77	229.54
363.15	229.55
363.53	229.59
363.91	229.63
364.29	229.63
364.67	229.55
365.05	229.58
365.43	229.57
365.81	229.57
366.19	229.59
366.57	229.58
366.95	229.59
367.33	229.56
367.71	229.53
368.09	229.53
368.47	229.50
368.85	229.47
369.23	229.45
369.61	229.37
369.99	229.38
370.37	229.33
370.75	229.37
371.13	229.29
371.51	229.20
371.89	229.14
372.27	229.11
372.65	229.05
373.03	228.98
373.41	228.93
373.78	228.87
374.16	228.77
374.54	228.68
374.92	228.65
375.30	228.60
375.68	228.50
376.06	228.44
376.44	228.36
376.82	228.30
377.19	228.21
377.57	228.15
377.95	228.08
378.33	228.03
378.71	227.88
379.09	227.84
379.47	227.77
379.84	227.67
380.22	227.61
380.60	227.50
380.98	227.43
381.36	227.37
381.73	227.30
382.11	227.24
382.49	227.18
382.87	227.08
383.25	227.02
383.62	227.11
384.00	227.02
384.38	226.96
384.76	226.93
385.13	226.92
385.51	226.88
385.89	226.82
386.27	226.74
386.64	226.71
387.02	226.68
387.40	226.68
387.78	226.68
388.15	226.64
388.53	226.64
388.91	226.61
389.29	226.57
389.66	226.53
390.04	226.49
390.42	226.48
390.79	226.43
391.17	226.45
391.55	226.36
391.92	226.38
392.30	226.41
392.68	226.41
393.05	226.38
393.43	226.37
393.81	226.36
394.18	226.38
394.56	226.40
394.94	226.42
395.31	226.45
395.69	226.49
396.06	226.52
396.44	226.56
396.82	226.61
397.19	226.68
397.57	226.72
397.95	226.78
398.32	226.82
398.70	226.92
399.07	226.99
399.45	227.03
399.82	227.07
400.20	227.11
400.58	227.18
400.95	227.25
401.33	227.34
401.70	227.48
402.08	227.59
402.45	227.70
402.83	227.81
403.20	227.93
403.58	228.05
403.95	228.21
404.33	228.32
404.71	228.44
405.08	228.64
405.46	228.79
405.83	228.95
406.21	229.08
406.58	229.24
406.96	229.39
407.33	229.56
407.70	229.77
408.08	229.99
408.45	230.22
408.83	230.44
409.20	230.65
409.58	230.83
409.95	231.05
410.33	231.31
410.70	231.53
411.08	231.80
411.45	232.09
411.82	232.38
412.20	232.75
412.57	233.14
412.95	233.42
413.32	233.81
413.69	234.21
414.07	234.67
414.44	235.16
414.82	235.60
415.19	236.13
415.56	236.66
415.94	237.27
416.31	237.90
416.68	238.52
417.06	239.25
417.43	239.92
417.81	240.69
418.18	241.47
418.55	242.35
418.93	243.23
419.30	244.12
419.67	245.04
420.04	246.00
420.42	246.99
420.79	248.17
421.16	249.33
421.54	250.55
421.91	251.77
422.28	253.00
422.66	254.36
423.03	255.70
423.40	257.04
423.77	258.42
424.15	259.85
424.52	261.37
424.89	262.97
425.26	264.55
425.64	266.00
426.01	267.57
426.38	269.21
426.75	270.89
427.13	272.58
427.50	274.39
427.87	276.26
428.24	278.10
428.61	279.81
428.99	281.78
429.36	283.84
429.73	285.89
430.10	287.90
430.47	289.96
430.85	292.08
431.22	294.32
431.59	296.68
431.96	298.95
432.33	301.39
432.70	303.74
433.08	306.57
433.45	309.20
433.82	311.84
434.19	314.76
434.56	317.57
434.93	320.26
435.30	322.85
435.68	325.70
436.05	328.53
436.42	331.37
436.79	333.89
437.16	336.63
437.53	339.48
437.90	342.33
438.27	345.10
438.64	347.94
439.01	350.51
439.38	352.77
439.75	354.95
440.13	357.48
440.50	359.85
440.87	361.69
441.24	363.65
441.61	365.86
441.98	367.34
442.35	369.14
442.72	371.01
443.09	372.83
443.46	373.87
443.83	374.47
444.20	374.94
444.57	375.77
444.94	376.05
445.31	376.34
445.68	376.67
446.05	376.71
446.42	376.29
446.79	375.94
447.16	375.48
447.53	375.13
447.90	373.97
448.27	372.82
448.64	371.23
449.01	370.09
449.37	368.08
449.74	366.17
450.11	363.88
450.48	361.40
450.85	358.89
451.22	356.77
451.59	354.78
451.96	352.84
452.33	350.25
452.70	347.85
453.07	345.04
453.43	342.11
453.80	339.39
454.17	336.70
454.54	334.13
454.91	331.41
455.28	328.72
455.65	326.20
456.02	323.75
456.38	321.62
456.75	318.98
457.12	316.71
457.49	314.52
457.86	312.38
458.23	310.54
458.59	308.50
458.96	306.39
459.33	304.52
459.70	302.66
460.07	301.14
460.43	299.43
460.80	297.83
461.17	296.41
461.54	294.87
461.91	293.48
462.27	292.02
462.64	290.73
463.01	289.40
463.38	288.10
463.74	286.74
464.11	285.57
464.48	284.54
464.85	283.44
465.21	282.54
465.58	281.61
465.95	280.49
466.32	279.58
466.68	278.68
467.05	277.79
467.42	276.93
467.78	276.03
468.15	275.15
468.52	274.46
468.88	273.63
469.25	272.85
469.62	272.22
469.98	271.54
470.35	270.98
470.72	270.34
471.08	269.70
471.45	269.13
471.82	268.60
472.18	267.99
472.55	267.53
472.92	267.03
473.28	266.59
473.65	266.17
474.02	265.74
474.38	265.36
474.75	265.05
475.11	264.71
475.48	264.42
475.85	264.19
476.21	263.98
476.58	263.79
476.94	263.63
477.31	263.43
477.67	263.29
478.04	263.16
478.41	263.14
478.77	263.20
479.14	263.15
479.50	263.14
479.87	263.22
480.23	263.29
480.60	263.33
480.96	263.40
481.33	263.59
481.69	263.78
482.06	263.97
482.42	264.16
482.79	264.40
483.15	264.71
483.52	265.11
483.88	265.44
484.25	265.81
484.61	266.28
484.98	266.77
485.34	267.32
485.71	267.91
486.07	268.52
486.44	269.07
486.80	269.75
487.17	270.47
487.53	271.27
487.90	272.12
488.26	273.09
488.62	274.08
488.99	275.00
489.35	276.05
489.72	277.19
490.08	278.37
490.44	279.60
490.81	280.91
491.17	282.24
491.54	283.77
491.90	285.32
492.26	286.96
492.63	288.68
492.99	290.45
493.36	292.33
493.72	294.37
494.08	296.45
494.45	298.70
494.81	301.07
495.17	303.48
495.54	306.02
495.90	308.67
496.26	311.48
496.63	314.47
496.99	317.56
497.35	320.81
497.72	324.20
498.08	327.69
498.44	331.37
498.80	335.29
499.17	339.29
499.53	343.47
499.89	347.83
500.26	352.33
500.62	357.02
500.98	361.98
501.34	367.05
501.71	372.41
502.07	377.84
502.43	383.43
502.79	389.26
503.16	395.36
503.52	401.69
503.88	408.10
504.24	414.75
504.60	421.69
504.97	428.81
505.33	436.11
505.69	443.84
506.05	451.63
506.41	459.51
506.78	467.69
507.14	476.17
507.50	484.90
507.86	493.90
508.22	503.10
508.59	512.27
508.95	521.84
509.31	531.65
509.67	541.75
510.03	552.06
510.39	562.62
510.75	573.43
511.12	584.35
511.48	595.68
511.84	607.10
512.20	618.56
512.56	630.47
512.92	642.70
513.28	655.03
513.64	667.50
514.00	680.24
514.37	693.12
514.73	706.10
515.09	719.13
515.45	732.45
515.81	746.03
516.17	760.09
516.53	774.18
516.89	788.38
517.25	802.54
517.61	817.00
517.97	831.45
518.33	845.84
518.69	860.67
519.05	875.62
519.41	890.78
519.77	906.40
520.13	921.93
520.49	937.29
520.85	952.74
521.21	968.56
521.57	984.82
521.93	1000.58
522.29	1016.99
522.65	1033.12
523.01	1049.37
523.37	1065.46
523.73	1081.69
524.09	1097.84
524.45	1114.15
524.81	1130.85
525.17	1147.71
525.53	1164.70
525.89	1181.64
526.25	1198.44
526.61	1214.90
526.97	1231.72
527.33	1248.24
527.68	1264.84
528.04	1281.44
528.40	1298.03
528.76	1315.11
529.12	1331.64
529.48	1348.61
529.84	1364.65
530.20	1381.47
530.56	1398.47
530.91	1415.86
531.27	1432.55
531.63	1448.97
531.99	1465.63
532.35	1481.62
532.71	1497.45
533.07	1513.61
533.42	1529.44
533.78	1545.51
534.14	1561.67
534.50	1576.95
534.86	1592.73
535.21	1607.99
535.57	1623.84
535.93	1639.42
536.29	1654.06
536.65	1669.20
537.00	1683.97
537.36	1699.29
537.72	1713.73
538.08	1728.06
538.44	1741.74
538.79	1755.76
539.15	1769.49
539.51	1783.20
539.87	1797.53
540.22	1811.23
540.58	1825.06
540.94	1838.48
541.29	1851.46
541.65	1864.19
542.01	1877.55
542.37	1890.02
542.72	1902.40
543.08	1914.14
543.44	1926.52
543.79	1937.87
544.15	1948.69
544.51	1960.33
544.87	1971.30
545.22	1982.13
545.58	1992.47
545.94	2002.29
546.29	2012.02
546.65	2021.98
547.01	2031.29
547.36	2039.90
547.72	2048.34
548.07	2056.23
548.43	2064.32
548.79	2072.24
549.14	2079.81
549.50	2087.11
549.86	2094.84
550.21	2102.21
550.57	2109.42
550.92	2115.89
551.28	2122.95
551.64	2130.14
551.99	2136.53
552.35	2142.74
552.70	2149.01
553.06	2155.04
553.41	2161.50
553.77	2167.66
554.13	2173.77
554.48	2179.94
554.84	2185.46
555.19	2190.82
555.55	2195.84
555.90	2200.42
556.26	2205.26
556.61	2210.09
556.97	2214.30
557.32	2218.22
557.68	2222.40
558.03	2226.73
558.39	2230.51
558.74	2235.15
559.10	2238.91
559.45	2242.68
559.81	2247.01
560.16	2250.83
560.52	2254.03
560.87	2257.45
561.23	2260.13
561.58	2263.01
561.94	2265.41
562.29	2267.84
562.64	2270.45
563.00	2273.09
563.35	2276.67
563.71	2279.72
564.06	2282.83
564.42	2285.58
564.77	2288.22
565.12	2290.39
565.48	2292.34
565.83	2294.14
566.19	2295.39
566.54	2296.39
566.89	2297.49
567.25	2297.98
567.60	2299.13
567.96	2300.71
568.31	2301.41
568.66	2302.34
569.02	2302.80
569.37	2303.13
569.72	2303.89
570.08	2304.12
570.43	2304.19
570.78	2303.47
571.14	2302.07
571.49	2300.74
571.84	2300.44
572.20	2299.16
572.55	2298.15
572.90	2296.52
573.26	2295.21
573.61	2293.53
573.96	2291.73
574.31	2288.76
574.67	2285.73
575.02	2282.20
575.37	2278.81
575.72	2275.02
576.08	2271.66
576.43	2268.29
576.78	2264.61
577.13	2261.49
577.49	2258.37
577.84	2254.79
578.19	2251.13
578.54	2247.31
578.90	2242.94
579.25	2237.40
579.60	2232.44
579.95	2227.36
580.30	2222.33
580.66	2216.99
581.01	2212.05
581.36	2207.16
581.71	2202.85
582.06	2198.48
582.42	2193.92
582.77	2188.72
583.12	2184.06
583.47	2179.30
583.82	2174.30
584.17	2168.98
584.53	2163.51
584.88	2157.82
585.23	2152.07
585.58	2146.45
585.93	2141.17
586.28	2136.52
586.63	2131.38
586.98	2126.44
587.34	2121.57
587.69	2116.56
588.04	2111.25
588.39	2105.55
588.74	2099.09
589.09	2093.05
589.44	2086.19
589.79	2080.20
590.14	2074.61
590.49	2067.98
590.84	2061.68
591.19	2055.62
591.54	2049.05
591.89	2041.51
592.25	2034.66
592.60	2027.39
592.95	2019.88
593.30	2012.33
593.65	2004.63
594.00	1997.69
594.35	1990.25
594.70	1982.24
595.05	1974.88
595.40	1967.70
595.75	1960.05
596.10	1953.68
596.45	1946.82
596.80	1940.65
597.15	1933.87
597.50	1926.58
597.85	1920.13
598.19	1913.24
598.54	1906.07
598.89	1899.56
599.24	1893.71
599.59	1886.98
599.94	1880.69
600.29	1874.24
600.64	1867.82
600.99	1860.38
601.34	1853.41
601.69	1846.42
602.04	1839.49
602.39	1832.20
602.74	1825.44
603.08	1818.72
603.43	1811.99
603.78	1804.65
604.13	1797.30
604.48	1790.11
604.83	1783.31
605.18	1776.27
605.53	1768.43
605.87	1760.50
606.22	1753.19
606.57	1745.26
606.92	1737.99
607.27	1730.78
607.62	1723.84
607.96	1716.33
608.31	1709.63
608.66	1702.07
609.01	1694.45
609.36	1686.91
609.70	1678.90
610.05	1670.72
610.40	1663.02
610.75	1654.75
611.10	1647.13
611.44	1638.71
611.79	1630.59
612.14	1621.95
612.49	1612.85
612.83	1604.45
613.18	1596.31
613.53	1588.16
613.88	1579.54
614.22	1571.25
614.57	1562.63
614.92	1554.63
615.27	1547.08
615.61	1538.76
615.96	1530.73
616.31	1523.24
616.65	1515.85
617.00	1508.41
617.35	1500.73
617.70	1492.47
618.04	1483.91
618.39	1475.67
618.74	1468.14
619.08	1459.94
619.43	1452.30
619.78	1445.49
620.12	1438.26
620.47	1430.69
620.82	1422.54
621.16	1415.26
621.51	1407.68
621.85	1400.19
622.20	1391.66
622.55	1383.29
622.89	1375.46
623.24	1367.91
623.59	1360.54
623.93	1353.13
624.28	1345.87
624.62	1338.32
624.97	1331.02
625.32	1324.31
625.66	1317.26
626.01	1310.09
626.35	1302.56
626.70	1294.82
627.04	1287.03
627.39	1279.28
627.73	1271.85
628.08	1265.02
628.43	1257.52
628.77	1250.03
629.12	1242.42
629.46	1235.20
629.81	1227.93
630.15	1220.74
630.50	1213.32
630.84	1205.01
631.19	1197.12
631.53	1189.54
631.88	1181.94
632.22	1174.35
632.57	1167.07
632.91	1159.47
633.26	1152.01
633.60	1144.76
633.95	1137.74
634.29	1130.68
634.64	1124.02
634.98	1116.73
635.32	1109.54
635.67	1103.14
636.01	1096.53
636.36	1089.67
636.70	1083.19
637.05	1076.55
637.39	1070.12
637.73	1063.51
638.08	1057.75
638.42	1051.60
638.77	1045.20
639.11	1038.61
639.45	1032.28
639.80	1025.58
640.14	1019.20
640.49	1012.70
640.83	1006.37
641.17	1000.00
641.52	993.70
641.86	987.29
642.20	981.47
642.55	975.14
642.89	968.53
643.23	962.02
643.58	956.31
643.92	950.13
644.26	944.08
644.61	937.97
644.95	932.00
645.29	925.33
645.64	918.64
645.98	912.37
646.32	906.55
646.66	900.51
647.01	894.74
647.35	889.06
647.69	883.22
648.04	877.67
648.38	871.93
648.72	865.90
649.06	859.81
649.41	853.92
649.75	847.94
650.09	842.02
650.43	836.24
650.78	830.06
651.12	824.10
651.46	818.34
651.80	812.61
652.14	807.22
652.49	801.83
652.83	796.68
653.17	790.83
653.51	785.08
653.85	779.71
654.20	774.02
654.54	767.97
654.88	762.31
655.22	756.44
655.56	750.82
655.90	745.41
656.25	740.16
656.59	734.74
656.93	729.67
657.27	724.54
657.61	719.12
657.95	714.05
658.29	708.98
658.64	703.80
658.98	698.48
659.32	692.96
659.66	687.79
660.00	682.46
660.34	677.63
660.68	672.79
661.02	667.79
661.36	663.09
661.70	658.61
662.05	654.17
662.39	649.81
662.73	645.31
663.07	640.96
663.41	636.57
663.75	632.09
664.09	627.52
664.43	623.18
664.77	619.05
665.11	614.76
665.45	610.65
665.79	606.57
666.13	602.54
666.47	598.51
666.81	594.37
667.15	590.24
667.49	586.31
667.83	582.56
668.17	578.60
668.51	574.56
668.85	570.54
669.19	566.71
669.53	562.87
669.87	558.98
670.21	555.27
670.55	551.61
670.89	548.17
671.23	544.73
671.57	541.19
671.91	537.67
672.25	534.21
672.58	530.66
672.92	527.24
673.26	524.03
673.60	520.82
673.94	517.68
674.28	514.81
674.62	511.89
674.96	508.74
675.30	505.80
675.64	502.79
675.97	500.07
676.31	497.19
676.65	494.26
676.99	491.53
677.33	488.62
677.67	485.76
678.01	482.73
678.34	479.81
678.68	476.92
679.02	474.09
679.36	471.31
679.70	468.60
680.04	465.88
680.37	462.95
680.71	460.16
681.05	457.57
681.39	454.85
681.73	452.15
682.06	449.61
682.40	447.07
682.74	444.59
683.08	442.02
683.42	439.44
683.75	436.97
684.09	434.40
684.43	431.95
684.77	429.50
685.10	427.15
685.44	424.82
685.78	422.53
686.12	420.27
686.45	417.98
686.79	415.68
687.13	413.46
687.46	411.38
687.80	409.27
688.14	407.04
688.48	404.98
688.81	402.76
689.15	400.62
689.49	398.51
689.82	396.45
690.16	394.33
690.50	392.37
690.83	390.41
691.17	388.47
691.51	386.58
691.84	384.78
692.18	382.89
692.52	380.89
692.85	378.97
693.19	377.17
693.52	375.34
693.86	373.58
694.20	371.78
694.53	369.99
694.87	368.12
695.21	366.38
695.54	364.52
695.88	362.84
696.21	361.08
696.55	359.39
696.88	357.70
697.22	356.07
697.56	354.47
697.89	352.82
698.23	351.17
698.56	349.57
698.90	347.97
699.23	346.30
699.57	344.79
699.90	343.22
700.24	341.66
700.58	340.16
700.91	338.61
701.25	337.15
701.58	335.74
701.92	334.39
702.25	333.00
702.59	331.68
702.92	330.32
703.26	329.04
703.59	327.76
703.93	326.58
704.26	325.34
704.60	324.07
704.93	322.81
705.26	321.62
705.60	320.45
705.93	319.29
706.27	318.26
706.60	317.19
706.94	316.17
707.27	315.03
707.61	313.99
707.94	313.00
708.27	311.95
708.61	310.90
708.94	309.91
709.28	308.94
709.61	307.99
709.94	307.07
710.28	306.05
710.61	305.07
710.95	303.98
711.28	303.09
711.61	302.14
711.95	301.19
712.28	300.15
712.61	299.14
712.95	298.21
713.28	297.30
713.61	296.41
713.95	295.52
714.28	294.66
714.61	293.75
714.95	292.86
715.28	292.01
715.61	291.16
715.95	290.27
716.28	289.38
716.61	288.54
716.95	287.69
717.28	286.97
717.61	286.19
717.94	285.45
718.28	284.64
718.61	283.89
718.94	283.21
719.27	282.64
719.61	282.00
719.94	281.31
720.27	280.62
720.60	279.93
720.94	279.25
721.27	278.67
721.60	278.08
721.93	277.52
722.27	276.96
722.60	276.39
722.93	275.83
723.26	275.34
723.59	274.77
723.93	274.24
724.26	273.69
724.59	273.16
724.92	272.64
725.25	272.11
725.59	271.62
725.92	271.13
726.25	270.60
726.58	270.13
726.91	269.63
727.24	269.17
727.57	268.70
727.91	268.21
728.24	267.74
728.57	267.26
728.90	266.80
729.23	266.29
729.56	265.85
729.89	265.39
730.22	264.86
730.55	264.41
730.89	263.92
731.22	263.47
731.55	263.01
731.88	262.58
732.21	262.16
732.54	261.69
732.87	261.23
733.20	260.85
733.53	260.46
733.86	260.12
734.19	259.69
734.52	259.32
734.85	259.02
735.18	258.59
735.51	258.25
735.84	257.89
736.17	257.51
736.50	257.12
736.83	256.87
737.16	256.54
737.49	256.19
737.82	255.85
738.15	255.53
738.48	255.20
738.81	254.92
739.14	254.62
739.47	254.33
739.80	254.05
740.13	253.77
740.46	253.41
740.79	253.09
741.12	252.78
741.45	252.43
741.78	252.12
742.11	251.87
742.44	251.55
742.77	251.27
743.10	251.00
743.43	250.73
743.75	250.34
744.08	250.22
744.41	249.97
744.74	249.71
745.07	249.43
745.40	249.21
745.73	248.94
746.06	248.66
746.39	248.40
746.71	248.10
747.04	247.83
747.37	247.57
747.70	247.31
748.03	247.08
748.36	246.88
748.68	246.60
749.01	246.32
749.34	246.07
749.67	245.83
750.00	245.63
750.33	245.47
750.65	245.30
750.98	244.91
751.31	244.71
751.64	244.53
751.97	244.37
752.29	244.12
752.62	243.85
752.95	243.64
753.28	243.42
753.60	243.26
753.93	243.09
754.26	242.90
754.59	242.67
754.91	242.45
755.24	242.25
755.57	242.07
755.90	241.90
756.22	241.72
756.55	241.54
756.88	241.32
757.20	241.05
757.53	240.86
757.86	240.73
758.19	240.53
758.51	240.34
758.84	240.16
759.17	239.97
759.49	239.83
759.82	239.70
760.15	239.57
760.47	239.39
760.80	239.22
761.13	239.06
761.45	238.94
761.78	238.81
762.11	238.69
762.43	238.56
762.76	238.41
763.08	238.31
763.41	238.16
763.74	238.05
764.06	237.95
764.39	237.77
764.71	237.60
765.04	237.49
765.37	237.33
765.69	237.19
766.02	237.05
766.34	236.92
766.67	236.78
767.00	236.65
767.32	236.59
767.65	236.53
767.97	236.43
768.30	236.31
768.62	236.18
768.95	236.06
769.27	235.92
769.60	235.85
769.92	235.68
770.25	235.56
770.57	235.43
770.90	235.33
771.22	235.24
771.55	235.13
771.87	235.03
772.20	234.93
772.52	234.88
772.85	234.94
773.17	234.83
773.50	234.71
773.82	234.63
774.15	234.51
774.47	234.35
774.80	234.27
775.12	234.17
775.45	234.11
775.77	234.00
776.09	233.96
776.42	233.87
776.74	233.85
777.07	233.77
777.39	233.66
777.72	233.56
778.04	233.54
778.36	233.48
778.69	233.40
779.01	233.34
779.33	233.22
779.66	233.01
779.98	232.97
780.31	232.94
780.63	232.88
780.95	232.84
781.28	232.77
781.60	232.71
781.92	232.63
782.25	232.58
782.57	232.55
782.89	232.45
783.22	232.35
783.54	232.26
783.86	232.23
784.19	232.20
784.51	232.20
784.83	232.10
785.16	232.05
785.48	231.98
785.80	231.96
786.12	231.88
786.45	231.85
786.77	231.81
787.09	231.75
