SpectraSuite Data File
++++++++++++++++++++++++++++++++++++
Date: Fri Feb 01 17:23:30 EST 2013
User: group
Dark Spectrum Present: No
Reference Spectrum Present: No
Number of Sampled Component Spectra: 1
Spectrometers: USB2E7196
Integration Time (usec): 35000 (USB2E7196)
Spectra Averaged: 100 (USB2E7196)
Boxcar Smoothing: 10 (USB2E7196)
Correct for Electrical Dark: No (USB2E7196)
Strobe/Lamp Enabled: No (USB2E7196)
Correct for Detector Non-linearity: No (USB2E7196)
Correct for Stray Light: No (USB2E7196)
Number of Pixels in Processed Spectrum: 2048
>>>>>Begin Processed Spectral Data<<<<<
339.09	0.00
339.48	212.41
339.86	214.27
340.24	215.02
340.63	217.29
341.01	219.68
341.39	219.39
341.78	221.29
342.16	222.14
342.54	222.73
342.93	211.10
343.31	221.76
343.69	222.28
344.07	222.75
344.46	223.20
344.84	223.58
345.22	223.82
345.60	224.10
345.99	224.25
346.37	224.40
346.75	224.51
347.13	224.61
347.52	224.66
347.90	224.73
348.28	224.78
348.66	224.86
349.05	224.84
349.43	224.92
349.81	224.96
350.19	225.03
350.57	225.11
350.96	225.18
351.34	225.26
351.72	225.40
352.10	225.47
352.48	225.55
352.87	225.61
353.25	225.69
353.63	225.73
354.01	225.82
354.39	225.89
354.77	225.99
355.15	226.10
355.54	226.15
355.92	226.21
356.30	226.29
356.68	226.41
357.06	226.51
357.44	226.58
357.82	226.63
358.20	226.68
358.58	226.71
358.97	226.80
359.35	226.90
359.73	226.96
360.11	227.04
360.49	227.09
360.87	227.13
361.25	227.18
361.63	227.27
362.01	227.34
362.39	227.36
362.77	227.39
363.15	227.40
363.53	227.44
363.91	227.44
364.29	227.45
364.67	227.35
365.05	227.38
365.43	227.37
365.81	227.43
366.19	227.47
366.57	227.52
366.95	227.53
367.33	227.52
367.71	227.52
368.09	227.52
368.47	227.50
368.85	227.51
369.23	227.49
369.61	227.44
369.99	227.43
370.37	227.42
370.75	227.42
371.13	227.36
371.51	227.32
371.89	227.28
372.27	227.24
372.65	227.22
373.03	227.13
373.41	227.06
373.78	226.99
374.16	226.88
374.54	226.79
374.92	226.73
375.30	226.68
375.68	226.61
376.06	226.56
376.44	226.52
376.82	226.44
377.19	226.37
377.57	226.29
377.95	226.17
378.33	226.08
378.71	225.95
379.09	225.91
379.47	225.85
379.84	225.80
380.22	225.74
380.60	225.66
380.98	225.63
381.36	225.61
381.73	225.53
382.11	225.49
382.49	225.45
382.87	225.35
383.25	225.26
383.62	225.31
384.00	225.23
384.38	225.17
384.76	225.14
385.13	225.14
385.51	225.09
385.89	225.03
386.27	225.03
386.64	225.01
387.02	224.95
387.40	224.89
387.78	224.87
388.15	224.82
388.53	224.77
388.91	224.71
389.29	224.68
389.66	224.66
390.04	224.64
390.42	224.62
390.79	224.61
391.17	224.60
391.55	224.45
391.92	224.44
392.30	224.44
392.68	224.40
393.05	224.36
393.43	224.39
393.81	224.42
394.18	224.36
394.56	224.35
394.94	224.36
395.31	224.39
395.69	224.42
396.06	224.44
396.44	224.48
396.82	224.50
397.19	224.58
397.57	224.58
397.95	224.60
398.32	224.62
398.70	224.68
399.07	224.75
399.45	224.82
399.82	224.87
400.20	224.93
400.58	225.01
400.95	225.04
401.33	225.12
401.70	225.25
402.08	225.33
402.45	225.45
402.83	225.56
403.20	225.65
403.58	225.73
403.95	225.84
404.33	225.97
404.71	226.07
405.08	226.21
405.46	226.39
405.83	226.54
406.21	226.67
406.58	226.83
406.96	226.98
407.33	227.16
407.70	227.39
408.08	227.61
408.45	227.81
408.83	228.03
409.20	228.26
409.58	228.45
409.95	228.71
410.33	228.97
410.70	229.23
411.08	229.53
411.45	229.87
411.82	230.19
412.20	230.53
412.57	231.01
412.95	231.32
413.32	231.70
413.69	232.10
414.07	232.57
414.44	233.02
414.82	233.50
415.19	234.07
415.56	234.62
415.94	235.20
416.31	235.87
416.68	236.55
417.06	237.29
417.43	237.97
417.81	238.77
418.18	239.54
418.55	240.40
418.93	241.31
419.30	242.22
419.67	243.17
420.04	244.17
420.42	245.17
420.79	246.40
421.16	247.61
421.54	248.87
421.91	250.11
422.28	251.44
422.66	252.80
423.03	254.15
423.40	255.53
423.77	257.00
424.15	258.45
424.52	259.99
424.89	261.61
425.26	263.23
425.64	264.77
426.01	266.45
426.38	268.16
426.75	269.89
427.13	271.66
427.50	273.54
427.87	275.51
428.24	277.43
428.61	279.25
428.99	281.23
429.36	283.42
429.73	285.57
430.10	287.68
430.47	289.85
430.85	292.04
431.22	294.37
431.59	296.81
431.96	299.17
432.33	301.72
432.70	304.22
433.08	307.15
433.45	309.89
433.82	312.59
434.19	315.59
434.56	318.49
434.93	321.27
435.30	324.00
435.68	327.00
436.05	329.96
436.42	332.84
436.79	335.46
437.16	338.23
437.53	341.16
437.90	344.04
438.27	346.87
438.64	349.82
439.01	352.49
439.38	354.81
439.75	357.05
440.13	359.58
440.50	361.97
440.87	363.85
441.24	365.85
441.61	368.10
441.98	369.66
442.35	371.53
442.72	373.47
443.09	375.36
443.46	376.40
443.83	377.02
444.20	377.58
444.57	378.49
444.94	378.82
445.31	379.18
445.68	379.56
446.05	379.71
446.42	379.29
446.79	378.92
447.16	378.49
447.53	378.17
447.90	377.04
448.27	375.89
448.64	374.30
449.01	373.11
449.37	371.08
449.74	369.13
450.11	366.86
450.48	364.29
450.85	361.67
451.22	359.45
451.59	357.39
451.96	355.37
452.33	352.66
452.70	350.23
453.07	347.30
453.43	344.32
453.80	341.44
454.17	338.67
454.54	335.96
454.91	333.16
455.28	330.41
455.65	327.88
456.02	325.32
456.38	323.09
456.75	320.33
457.12	318.02
457.49	315.71
457.86	313.43
458.23	311.50
458.59	309.39
458.96	307.19
459.33	305.24
459.70	303.32
460.07	301.74
460.43	299.95
460.80	298.27
461.17	296.77
461.54	295.19
461.91	293.70
462.27	292.27
462.64	290.94
463.01	289.53
463.38	288.14
463.74	286.76
464.11	285.54
464.48	284.47
464.85	283.32
465.21	282.42
465.58	281.50
465.95	280.37
466.32	279.44
466.68	278.52
467.05	277.59
467.42	276.67
467.78	275.72
468.15	274.81
468.52	274.16
468.88	273.31
469.25	272.52
469.62	271.94
469.98	271.24
470.35	270.61
470.72	270.01
471.08	269.38
471.45	268.79
471.82	268.26
472.18	267.67
472.55	267.24
472.92	266.71
473.28	266.21
473.65	265.76
474.02	265.31
474.38	264.96
474.75	264.64
475.11	264.28
475.48	264.04
475.85	263.84
476.21	263.58
476.58	263.40
476.94	263.26
477.31	263.07
477.67	262.91
478.04	262.80
478.41	262.77
478.77	262.80
479.14	262.74
479.50	262.75
479.87	262.78
480.23	262.85
480.60	262.94
480.96	263.07
481.33	263.29
481.69	263.47
482.06	263.67
482.42	263.87
482.79	264.11
483.15	264.38
483.52	264.76
483.88	265.12
484.25	265.47
484.61	265.88
484.98	266.33
485.34	266.90
485.71	267.49
486.07	268.03
486.44	268.58
486.80	269.33
487.17	270.08
487.53	270.93
487.90	271.79
488.26	272.70
488.62	273.67
488.99	274.60
489.35	275.66
489.72	276.76
490.08	277.94
490.44	279.20
490.81	280.57
491.17	281.87
491.54	283.30
491.90	284.87
492.26	286.53
492.63	288.22
492.99	289.93
493.36	291.81
493.72	293.87
494.08	295.97
494.45	298.17
494.81	300.45
495.17	302.86
495.54	305.37
495.90	308.00
496.26	310.75
496.63	313.70
496.99	316.74
497.35	319.97
497.72	323.39
498.08	326.86
498.44	330.50
498.80	334.42
499.17	338.41
499.53	342.55
499.89	346.84
500.26	351.32
500.62	356.03
500.98	360.99
501.34	366.00
501.71	371.24
502.07	376.61
502.43	382.14
502.79	387.84
503.16	393.85
503.52	400.05
503.88	406.34
504.24	412.91
504.60	419.72
504.97	426.76
505.33	433.92
505.69	441.55
506.05	449.17
506.41	456.95
506.78	465.07
507.14	473.30
507.50	481.85
507.86	490.70
508.22	499.74
508.59	508.72
508.95	518.11
509.31	527.74
509.67	537.67
510.03	547.88
510.39	558.32
510.75	568.87
511.12	579.67
511.48	590.72
511.84	601.94
512.20	613.23
512.56	624.93
512.92	636.83
513.28	648.93
513.64	661.21
514.00	673.69
514.37	686.33
514.73	699.18
515.09	711.94
515.45	725.01
515.81	738.24
516.17	751.96
516.53	765.81
516.89	779.70
517.25	793.58
517.61	807.66
517.97	821.69
518.33	835.83
518.69	850.20
519.05	864.89
519.41	879.73
519.77	894.84
520.13	909.86
520.49	925.01
520.85	939.96
521.21	955.15
521.57	970.97
521.93	986.32
522.29	1002.25
522.65	1018.12
523.01	1033.89
523.37	1049.52
523.73	1065.20
524.09	1080.87
524.45	1096.73
524.81	1112.89
525.17	1129.19
525.53	1145.72
525.89	1162.23
526.25	1178.77
526.61	1194.70
526.97	1211.03
527.33	1227.11
527.68	1243.24
528.04	1259.27
528.40	1275.43
528.76	1292.12
529.12	1308.31
529.48	1324.92
529.84	1340.53
530.20	1356.80
530.56	1373.30
530.91	1390.36
531.27	1406.86
531.63	1422.98
531.99	1439.24
532.35	1454.97
532.71	1470.59
533.07	1486.59
533.42	1502.11
533.78	1517.83
534.14	1533.66
534.50	1548.68
534.86	1564.18
535.21	1579.20
535.57	1594.69
535.93	1609.95
536.29	1624.43
536.65	1639.20
537.00	1653.55
537.36	1668.72
537.72	1682.96
538.08	1697.22
538.44	1710.76
538.79	1724.38
539.15	1737.67
539.51	1751.14
539.87	1765.26
540.22	1778.71
540.58	1792.09
540.94	1805.26
541.29	1817.76
541.65	1830.42
542.01	1843.40
542.37	1855.81
542.72	1868.08
543.08	1880.00
543.44	1892.32
543.79	1903.58
544.15	1914.44
544.51	1926.05
544.87	1936.90
545.22	1947.79
545.58	1958.03
545.94	1967.75
546.29	1977.72
546.65	1987.79
547.01	1997.27
547.36	2006.05
547.72	2014.74
548.07	2022.94
548.43	2031.15
548.79	2039.18
549.14	2047.03
549.50	2054.57
549.86	2062.13
550.21	2069.55
550.57	2076.74
550.92	2083.56
551.28	2090.86
551.64	2098.11
551.99	2104.68
552.35	2111.04
552.70	2117.44
553.06	2123.74
553.41	2130.36
553.77	2136.55
554.13	2142.80
554.48	2149.04
554.84	2154.83
555.19	2160.24
555.55	2165.62
555.90	2170.48
556.26	2175.96
556.61	2180.79
556.97	2185.52
557.32	2190.08
557.68	2194.51
558.03	2198.99
558.39	2202.98
558.74	2207.90
559.10	2212.19
559.45	2216.20
559.81	2220.89
560.16	2224.96
560.52	2228.36
560.87	2232.05
561.23	2234.98
561.58	2238.21
561.94	2241.17
562.29	2243.66
562.64	2246.96
563.00	2249.81
563.35	2253.66
563.71	2257.00
564.06	2260.63
564.42	2263.88
564.77	2266.78
565.12	2269.69
565.48	2272.22
565.83	2274.47
566.19	2276.17
566.54	2277.35
566.89	2279.06
567.25	2279.93
567.60	2281.61
567.96	2283.84
568.31	2285.14
568.66	2286.79
569.02	2287.76
569.37	2288.36
569.72	2289.79
570.08	2290.29
570.43	2290.70
570.78	2290.59
571.14	2289.51
571.49	2288.31
571.84	2288.13
572.20	2287.31
572.55	2286.56
572.90	2285.31
573.26	2284.36
573.61	2282.91
573.96	2281.67
574.31	2279.01
574.67	2276.48
575.02	2273.12
575.37	2269.99
575.72	2266.60
576.08	2263.29
576.43	2260.04
576.78	2257.02
577.13	2254.02
577.49	2251.04
577.84	2248.03
578.19	2244.38
578.54	2241.23
578.90	2237.71
579.25	2232.54
579.60	2228.12
579.95	2223.44
580.30	2218.54
580.66	2213.68
581.01	2209.03
581.36	2204.38
581.71	2200.57
582.06	2196.43
582.42	2192.41
582.77	2187.56
583.12	2183.34
583.47	2179.26
583.82	2175.08
584.17	2169.89
584.53	2164.63
584.88	2159.43
585.23	2153.97
585.58	2148.81
585.93	2143.34
586.28	2138.49
586.63	2133.78
586.98	2128.72
587.34	2124.14
587.69	2119.53
588.04	2114.54
588.39	2109.12
588.74	2102.72
589.09	2096.79
589.44	2090.35
589.79	2084.34
590.14	2078.93
590.49	2072.47
590.84	2066.06
591.19	2060.03
591.54	2053.75
591.89	2046.82
592.25	2040.23
592.60	2033.13
592.95	2025.97
593.30	2018.99
593.65	2011.68
594.00	2004.73
594.35	1997.71
594.70	1989.71
595.05	1982.89
595.40	1975.64
595.75	1968.33
596.10	1962.61
596.45	1956.07
596.80	1949.93
597.15	1943.60
597.50	1936.75
597.85	1930.37
598.19	1923.94
598.54	1917.14
598.89	1910.74
599.24	1904.90
599.59	1898.49
599.94	1892.27
600.29	1885.88
600.64	1879.19
600.99	1871.94
601.34	1865.30
601.69	1858.45
602.04	1851.88
602.39	1844.55
602.74	1837.99
603.08	1831.40
603.43	1824.49
603.78	1817.04
604.13	1809.91
604.48	1802.87
604.83	1796.04
605.18	1789.25
605.53	1781.39
605.87	1773.37
606.22	1766.19
606.57	1758.22
606.92	1750.59
607.27	1743.71
607.62	1736.88
607.96	1729.84
608.31	1723.49
608.66	1715.99
609.01	1708.58
609.36	1700.99
609.70	1693.01
610.05	1684.86
610.40	1677.12
610.75	1668.86
611.10	1661.20
611.44	1652.68
611.79	1644.46
612.14	1635.78
612.49	1626.56
612.83	1618.05
613.18	1609.85
613.53	1601.58
613.88	1593.10
614.22	1584.82
614.57	1575.78
614.92	1567.66
615.27	1560.08
615.61	1551.67
615.96	1543.44
616.31	1535.56
616.65	1528.13
617.00	1520.46
617.35	1512.60
617.70	1504.25
618.04	1495.63
618.39	1487.42
618.74	1479.86
619.08	1471.54
619.43	1463.79
619.78	1456.84
620.12	1449.58
620.47	1441.91
620.82	1433.54
621.16	1425.80
621.51	1418.17
621.85	1410.51
622.20	1401.93
622.55	1393.42
622.89	1385.30
623.24	1377.55
623.59	1370.01
623.93	1362.41
624.28	1355.09
624.62	1347.65
624.97	1340.40
625.32	1333.43
625.66	1326.34
626.01	1318.96
626.35	1311.50
626.70	1303.64
627.04	1295.81
627.39	1287.97
627.73	1280.47
628.08	1273.60
628.43	1266.43
628.77	1259.02
629.12	1251.44
629.46	1244.23
629.81	1236.57
630.15	1229.17
630.50	1221.59
630.84	1213.39
631.19	1205.20
631.53	1197.47
631.88	1189.71
632.22	1181.93
632.57	1174.58
632.91	1166.80
633.26	1159.34
633.60	1151.58
633.95	1144.38
634.29	1137.12
634.64	1130.29
634.98	1122.84
635.32	1115.58
635.67	1108.85
636.01	1102.09
636.36	1095.33
636.70	1088.64
637.05	1082.02
637.39	1075.52
637.73	1069.04
638.08	1063.15
638.42	1057.20
638.77	1050.77
639.11	1044.17
639.45	1037.79
639.80	1031.21
640.14	1024.94
640.49	1018.40
640.83	1012.27
641.17	1006.01
641.52	999.67
641.86	993.14
642.20	987.30
642.55	980.84
642.89	974.32
643.23	967.71
643.58	961.83
643.92	955.66
644.26	949.72
644.61	943.58
644.95	937.53
645.29	930.95
645.64	924.13
645.98	917.76
646.32	911.83
646.66	905.74
647.01	899.81
647.35	894.00
647.69	888.09
648.04	882.43
648.38	876.60
648.72	870.65
649.06	864.63
649.41	858.58
649.75	852.61
650.09	846.68
650.43	840.93
650.78	834.77
651.12	828.81
651.46	822.94
651.80	817.37
652.14	811.96
652.49	806.53
652.83	801.41
653.17	795.81
653.51	790.12
653.85	784.65
654.20	779.03
654.54	772.94
654.88	767.17
655.22	761.24
655.56	755.47
655.90	749.92
656.25	744.70
656.59	739.37
656.93	734.34
657.27	729.13
657.61	723.59
657.95	718.48
658.29	713.35
658.64	708.13
658.98	702.63
659.32	697.09
659.66	691.85
660.00	686.60
660.34	681.54
660.68	676.53
661.02	671.42
661.36	666.78
661.70	662.27
662.05	657.94
662.39	653.64
662.73	649.16
663.07	644.73
663.41	640.27
663.75	635.83
664.09	631.20
664.43	626.77
664.77	622.62
665.11	618.32
665.45	614.07
665.79	609.98
666.13	605.94
666.47	601.85
666.81	597.69
667.15	593.52
667.49	589.56
667.83	585.70
668.17	581.75
668.51	577.64
668.85	573.60
669.19	569.63
669.53	565.76
669.87	561.88
670.21	558.16
670.55	554.47
670.89	550.97
671.23	547.56
671.57	543.99
671.91	540.50
672.25	536.99
672.58	533.48
672.92	529.99
673.26	526.75
673.60	523.49
673.94	520.40
674.28	517.39
674.62	514.46
674.96	511.36
675.30	508.50
675.64	505.50
675.97	502.66
676.31	499.83
676.65	496.87
676.99	494.09
677.33	491.25
677.67	488.39
678.01	485.38
678.34	482.39
678.68	479.48
679.02	476.58
679.36	473.73
679.70	470.98
680.04	468.23
680.37	465.40
680.71	462.64
681.05	459.98
681.39	457.18
681.73	454.48
682.06	451.92
682.40	449.31
682.74	446.75
683.08	444.18
683.42	441.52
683.75	439.01
684.09	436.44
684.43	433.89
684.77	431.41
685.10	429.00
685.44	426.63
685.78	424.30
686.12	422.02
686.45	419.64
686.79	417.38
687.13	415.19
687.46	412.95
687.80	410.77
688.14	408.43
688.48	406.41
688.81	404.21
689.15	402.04
689.49	399.88
689.82	397.76
690.16	395.60
690.50	393.59
690.83	391.62
691.17	389.59
691.51	387.64
691.84	385.73
692.18	383.82
692.52	381.83
692.85	379.85
693.19	377.93
693.52	376.13
693.86	374.20
694.20	372.35
694.53	370.50
694.87	368.65
695.21	366.93
695.54	365.01
695.88	363.20
696.21	361.45
696.55	359.69
696.88	357.98
697.22	356.34
697.56	354.70
697.89	353.04
698.23	351.46
698.56	349.90
698.90	348.33
699.23	346.68
699.57	345.18
699.90	343.66
700.24	342.11
700.58	340.56
700.91	339.14
701.25	337.69
701.58	336.34
701.92	334.93
702.25	333.46
702.59	332.12
702.92	330.78
703.26	329.47
703.59	328.23
703.93	327.04
704.26	325.83
704.60	324.54
704.93	323.24
705.26	321.97
705.60	320.72
705.93	319.54
706.27	318.44
706.60	317.34
706.94	316.23
707.27	315.07
707.61	313.99
707.94	312.89
708.27	311.75
708.61	310.62
708.94	309.60
709.28	308.61
709.61	307.61
709.94	306.60
710.28	305.52
710.61	304.50
710.95	303.33
711.28	302.33
711.61	301.37
711.95	300.45
712.28	299.46
712.61	298.45
712.95	297.47
713.28	296.55
713.61	295.59
713.95	294.68
714.28	293.81
714.61	292.91
714.95	292.04
715.28	291.20
715.61	290.29
715.95	289.40
716.28	288.54
716.61	287.68
716.95	286.88
717.28	286.12
717.61	285.30
717.94	284.57
718.28	283.75
718.61	283.00
718.94	282.28
719.27	281.60
719.61	280.95
719.94	280.28
720.27	279.56
720.60	278.89
720.94	278.25
721.27	277.64
721.60	277.07
721.93	276.44
722.27	275.87
722.60	275.29
722.93	274.67
723.26	274.17
723.59	273.60
723.93	273.02
724.26	272.44
724.59	271.87
724.92	271.35
725.25	270.87
725.59	270.35
725.92	269.83
726.25	269.33
726.58	268.84
726.91	268.33
727.24	267.87
727.57	267.39
727.91	266.84
728.24	266.39
728.57	265.90
728.90	265.44
729.23	264.90
729.56	264.47
729.89	264.01
730.22	263.47
730.55	263.00
730.89	262.58
731.22	262.19
731.55	261.74
731.88	261.29
732.21	260.81
732.54	260.33
732.87	259.90
733.20	259.50
733.53	259.07
733.86	258.69
734.19	258.27
734.52	257.90
734.85	257.61
735.18	257.18
735.51	256.78
735.84	256.42
736.17	256.09
736.50	255.68
736.83	255.46
737.16	255.12
737.49	254.78
737.82	254.42
738.15	254.07
738.48	253.73
738.81	253.38
739.14	253.07
739.47	252.76
739.80	252.45
740.13	252.13
740.46	251.82
740.79	251.46
741.12	251.17
741.45	250.80
741.78	250.45
742.11	250.16
742.44	249.84
742.77	249.54
743.10	249.26
743.43	248.97
743.75	248.55
744.08	248.42
744.41	248.17
744.74	247.88
745.07	247.57
745.40	247.34
745.73	247.12
746.06	246.85
746.39	246.60
746.71	246.32
747.04	246.04
747.37	245.77
747.70	245.58
748.03	245.31
748.36	245.14
748.68	244.87
749.01	244.61
749.34	244.37
749.67	244.10
750.00	243.86
750.33	243.71
750.65	243.51
750.98	243.12
751.31	242.87
751.64	242.65
751.97	242.50
752.29	242.25
752.62	241.99
752.95	241.77
753.28	241.56
753.60	241.36
753.93	241.19
754.26	240.98
754.59	240.71
754.91	240.45
755.24	240.22
755.57	240.04
755.90	239.85
756.22	239.66
756.55	239.47
756.88	239.25
757.20	239.00
757.53	238.75
757.86	238.57
758.19	238.40
758.51	238.23
758.84	237.97
759.17	237.81
759.49	237.64
759.82	237.51
760.15	237.36
760.47	237.17
760.80	236.98
761.13	236.81
761.45	236.67
761.78	236.58
762.11	236.44
762.43	236.26
762.76	236.11
763.08	235.98
763.41	235.86
763.74	235.71
764.06	235.59
764.39	235.50
764.71	235.37
765.04	235.23
765.37	235.09
765.69	235.00
766.02	234.88
766.34	234.73
766.67	234.60
767.00	234.47
767.32	234.43
767.65	234.33
767.97	234.25
768.30	234.11
768.62	233.96
768.95	233.81
769.27	233.72
769.60	233.62
769.92	233.48
770.25	233.35
770.57	233.24
770.90	233.13
771.22	233.01
771.55	232.91
771.87	232.83
772.20	232.73
772.52	232.70
772.85	232.72
773.17	232.65
773.50	232.54
773.82	232.44
774.15	232.28
774.47	232.17
774.80	232.05
775.12	231.96
775.45	231.90
775.77	231.84
776.09	231.76
776.42	231.68
776.74	231.62
777.07	231.54
777.39	231.47
777.72	231.38
778.04	231.34
778.36	231.25
778.69	231.18
779.01	231.13
779.33	231.01
779.66	230.83
779.98	230.77
780.31	230.72
780.63	230.69
780.95	230.66
781.28	230.58
781.60	230.51
781.92	230.49
782.25	230.44
782.57	230.37
782.89	230.31
783.22	230.27
783.54	230.22
783.86	230.21
784.19	230.20
784.51	230.15
784.83	230.08
785.16	230.09
785.48	230.03
785.80	230.01
786.12	229.96
786.45	229.88
786.77	229.85
787.09	229.81
