SpectraSuite Data File
++++++++++++++++++++++++++++++++++++
Date: Fri Feb 01 16:15:48 EST 2013
User: group
Dark Spectrum Present: No
Reference Spectrum Present: No
Number of Sampled Component Spectra: 1
Spectrometers: USB2E7196
Integration Time (usec): 35000 (USB2E7196)
Spectra Averaged: 100 (USB2E7196)
Boxcar Smoothing: 10 (USB2E7196)
Correct for Electrical Dark: No (USB2E7196)
Strobe/Lamp Enabled: No (USB2E7196)
Correct for Detector Non-linearity: No (USB2E7196)
Correct for Stray Light: No (USB2E7196)
Number of Pixels in Processed Spectrum: 2048
>>>>>Begin Processed Spectral Data<<<<<
339.09	0.00
339.48	214.48
339.86	215.91
340.24	217.15
340.63	218.18
341.01	221.14
341.39	220.50
341.78	223.08
342.16	223.23
342.54	224.17
342.93	212.49
343.31	223.25
343.69	223.78
344.07	224.21
344.46	224.63
344.84	224.99
345.22	225.23
345.60	225.48
345.99	225.63
346.37	225.76
346.75	225.84
347.13	225.90
347.52	225.94
347.90	225.98
348.28	225.99
348.66	226.02
349.05	225.97
349.43	226.01
349.81	226.02
350.19	226.08
350.57	226.17
350.96	226.23
351.34	226.29
351.72	226.33
352.10	226.43
352.48	226.48
352.87	226.55
353.25	226.57
353.63	226.62
354.01	226.67
354.39	226.78
354.77	226.86
355.15	226.96
355.54	227.05
355.92	227.11
356.30	227.20
356.68	227.37
357.06	227.48
357.44	227.51
357.82	227.59
358.20	227.66
358.58	227.73
358.97	227.78
359.35	227.88
359.73	227.99
360.11	228.03
360.49	228.12
360.87	228.17
361.25	228.23
361.63	228.33
362.01	228.39
362.39	228.39
362.77	228.45
363.15	228.49
363.53	228.52
363.91	228.52
364.29	228.54
364.67	228.43
365.05	228.43
365.43	228.48
365.81	228.50
366.19	228.53
366.57	228.56
366.95	228.58
367.33	228.54
367.71	228.52
368.09	228.56
368.47	228.52
368.85	228.52
369.23	228.56
369.61	228.53
369.99	228.54
370.37	228.54
370.75	228.57
371.13	228.55
371.51	228.49
371.89	228.48
372.27	228.43
372.65	228.41
373.03	228.37
373.41	228.33
373.78	228.28
374.16	228.19
374.54	228.14
374.92	228.06
375.30	228.00
375.68	227.95
376.06	227.88
376.44	227.82
376.82	227.76
377.19	227.71
377.57	227.63
377.95	227.53
378.33	227.49
378.71	227.34
379.09	227.27
379.47	227.22
379.84	227.16
380.22	227.11
380.60	227.02
380.98	226.94
381.36	226.89
381.73	226.82
382.11	226.79
382.49	226.72
382.87	226.66
383.25	226.59
383.62	226.62
384.00	226.54
384.38	226.50
384.76	226.46
385.13	226.41
385.51	226.35
385.89	226.30
386.27	226.23
386.64	226.20
387.02	226.12
387.40	226.08
387.78	226.05
388.15	226.00
388.53	225.96
388.91	225.94
389.29	225.88
389.66	225.87
390.04	225.79
390.42	225.76
390.79	225.75
391.17	225.73
391.55	225.62
391.92	225.61
392.30	225.60
392.68	225.56
393.05	225.57
393.43	225.57
393.81	225.56
394.18	225.55
394.56	225.58
394.94	225.62
395.31	225.63
395.69	225.66
396.06	225.66
396.44	225.69
396.82	225.70
397.19	225.80
397.57	225.82
397.95	225.88
398.32	225.88
398.70	225.91
399.07	225.98
399.45	226.04
399.82	226.10
400.20	226.13
400.58	226.19
400.95	226.20
401.33	226.28
401.70	226.41
402.08	226.50
402.45	226.57
402.83	226.68
403.20	226.76
403.58	226.85
403.95	227.04
404.33	227.16
404.71	227.32
405.08	227.48
405.46	227.60
405.83	227.78
406.21	227.98
406.58	228.15
406.96	228.25
407.33	228.41
407.70	228.60
408.08	228.87
408.45	229.10
408.83	229.38
409.20	229.63
409.58	229.79
409.95	230.05
410.33	230.32
410.70	230.57
411.08	230.87
411.45	231.23
411.82	231.49
412.20	231.83
412.57	232.25
412.95	232.52
413.32	232.95
413.69	233.38
414.07	233.80
414.44	234.29
414.82	234.82
415.19	235.40
415.56	235.95
415.94	236.54
416.31	237.18
416.68	237.77
417.06	238.49
417.43	239.18
417.81	239.98
418.18	240.76
418.55	241.62
418.93	242.49
419.30	243.34
419.67	244.30
420.04	245.25
420.42	246.20
420.79	247.40
421.16	248.53
421.54	249.74
421.91	250.96
422.28	252.22
422.66	253.57
423.03	254.88
423.40	256.19
423.77	257.62
424.15	259.01
424.52	260.48
424.89	262.06
425.26	263.60
425.64	265.00
426.01	266.59
426.38	268.22
426.75	269.88
427.13	271.61
427.50	273.39
427.87	275.29
428.24	277.19
428.61	278.91
428.99	280.88
429.36	282.93
429.73	284.94
430.10	286.93
430.47	288.95
430.85	291.05
431.22	293.28
431.59	295.59
431.96	297.86
432.33	300.36
432.70	302.70
433.08	305.51
433.45	308.17
433.82	310.77
434.19	313.66
434.56	316.48
434.93	319.09
435.30	321.70
435.68	324.60
436.05	327.39
436.42	330.19
436.79	332.68
437.16	335.40
437.53	338.22
437.90	341.03
438.27	343.76
438.64	346.57
439.01	349.17
439.38	351.41
439.75	353.54
440.13	356.01
440.50	358.36
440.87	360.19
441.24	362.12
441.61	364.28
441.98	365.75
442.35	367.56
442.72	369.44
443.09	371.28
443.46	372.22
443.83	372.78
444.20	373.30
444.57	374.12
444.94	374.38
445.31	374.72
445.68	375.07
446.05	375.17
446.42	374.79
446.79	374.37
447.16	373.89
447.53	373.58
447.90	372.45
448.27	371.31
448.64	369.76
449.01	368.64
449.37	366.68
449.74	364.79
450.11	362.54
450.48	360.06
450.85	357.50
451.22	355.37
451.59	353.35
451.96	351.42
452.33	348.83
452.70	346.46
453.07	343.67
453.43	340.79
453.80	338.00
454.17	335.36
454.54	332.82
454.91	330.13
455.28	327.45
455.65	324.94
456.02	322.51
456.38	320.35
456.75	317.70
457.12	315.46
457.49	313.24
457.86	311.06
458.23	309.25
458.59	307.24
458.96	305.20
459.33	303.34
459.70	301.42
460.07	299.90
460.43	298.20
460.80	296.60
461.17	295.15
461.54	293.70
461.91	292.27
462.27	290.84
462.64	289.65
463.01	288.34
463.38	287.10
463.74	285.72
464.11	284.56
464.48	283.52
464.85	282.40
465.21	281.56
465.58	280.66
465.95	279.56
466.32	278.63
466.68	277.71
467.05	276.86
467.42	276.03
467.78	275.10
468.15	274.26
468.52	273.58
468.88	272.75
469.25	271.97
469.62	271.34
469.98	270.68
470.35	270.00
470.72	269.37
471.08	268.70
471.45	268.17
471.82	267.63
472.18	267.05
472.55	266.62
472.92	266.11
473.28	265.66
473.65	265.21
474.02	264.76
474.38	264.43
474.75	264.08
475.11	263.72
475.48	263.46
475.85	263.20
476.21	263.00
476.58	262.82
476.94	262.70
477.31	262.52
477.67	262.39
478.04	262.31
478.41	262.28
478.77	262.32
479.14	262.25
479.50	262.28
479.87	262.36
480.23	262.45
480.60	262.48
480.96	262.55
481.33	262.75
481.69	262.96
482.06	263.09
482.42	263.32
482.79	263.59
483.15	263.94
483.52	264.35
483.88	264.66
484.25	265.05
484.61	265.46
484.98	265.92
485.34	266.47
485.71	267.09
486.07	267.66
486.44	268.24
486.80	268.96
487.17	269.67
487.53	270.50
487.90	271.31
488.26	272.29
488.62	273.28
488.99	274.24
489.35	275.29
489.72	276.50
490.08	277.68
490.44	278.91
490.81	280.22
491.17	281.56
491.54	283.07
491.90	284.59
492.26	286.25
492.63	288.02
492.99	289.79
493.36	291.66
493.72	293.72
494.08	295.80
494.45	298.07
494.81	300.45
495.17	302.82
495.54	305.43
495.90	308.12
496.26	310.90
496.63	313.91
496.99	317.03
497.35	320.24
497.72	323.70
498.08	327.22
498.44	330.93
498.80	334.82
499.17	338.86
499.53	343.04
499.89	347.43
500.26	351.90
500.62	356.55
500.98	361.50
501.34	366.64
501.71	371.97
502.07	377.38
502.43	383.04
502.79	388.93
503.16	394.99
503.52	401.21
503.88	407.68
504.24	414.32
504.60	421.25
504.97	428.48
505.33	435.80
505.69	443.51
506.05	451.32
506.41	459.25
506.78	467.42
507.14	475.82
507.50	484.61
507.86	493.61
508.22	502.84
508.59	511.97
508.95	521.53
509.31	531.39
509.67	541.48
510.03	551.71
510.39	562.21
510.75	573.00
511.12	583.98
511.48	595.27
511.84	606.66
512.20	618.10
512.56	629.92
512.92	642.07
513.28	654.47
513.64	666.87
514.00	679.50
514.37	692.41
514.73	705.47
515.09	718.39
515.45	731.71
515.81	745.26
516.17	759.36
516.53	773.45
516.89	787.65
517.25	801.86
517.61	816.26
517.97	830.78
518.33	845.20
518.69	859.92
519.05	874.83
519.41	890.04
519.77	905.51
520.13	921.09
520.49	936.38
520.85	951.73
521.21	967.49
521.57	983.70
521.93	999.35
522.29	1015.64
522.65	1031.83
523.01	1047.98
523.37	1064.07
523.73	1080.11
524.09	1096.25
524.45	1112.42
524.81	1129.02
525.17	1145.74
525.53	1162.56
525.89	1179.38
526.25	1196.15
526.61	1212.54
526.97	1229.21
527.33	1245.77
527.68	1262.28
528.04	1278.76
528.40	1295.27
528.76	1312.24
529.12	1328.84
529.48	1345.79
529.84	1361.83
530.20	1378.36
530.56	1395.32
530.91	1412.56
531.27	1429.37
531.63	1445.67
531.99	1462.17
532.35	1477.95
532.71	1493.88
533.07	1510.11
533.42	1525.93
533.78	1542.01
534.14	1558.22
534.50	1573.53
534.86	1589.39
535.21	1604.44
535.57	1620.35
535.93	1635.75
536.29	1650.43
536.65	1665.43
537.00	1680.08
537.36	1695.26
537.72	1709.86
538.08	1724.26
538.44	1738.03
538.79	1751.80
539.15	1765.43
539.51	1779.04
539.87	1793.49
540.22	1807.13
540.58	1820.71
540.94	1833.93
541.29	1846.78
541.65	1859.39
542.01	1872.46
542.37	1884.64
542.72	1897.01
543.08	1908.57
543.44	1920.86
543.79	1932.12
544.15	1943.00
544.51	1954.59
544.87	1965.62
545.22	1976.33
545.58	1986.42
545.94	1996.22
546.29	2005.94
546.65	2015.74
547.01	2025.13
547.36	2033.60
547.72	2042.14
548.07	2049.90
548.43	2058.15
548.79	2066.10
549.14	2073.67
549.50	2081.05
549.86	2088.64
550.21	2095.90
550.57	2103.29
550.92	2109.89
551.28	2116.97
551.64	2124.14
551.99	2130.52
552.35	2136.61
552.70	2142.89
553.06	2148.98
553.41	2155.22
553.77	2161.28
554.13	2167.34
554.48	2173.39
554.84	2178.96
555.19	2184.25
555.55	2189.66
555.90	2194.11
556.26	2198.91
556.61	2203.52
556.97	2207.83
557.32	2212.06
557.68	2216.12
558.03	2220.19
558.39	2223.92
558.74	2228.54
559.10	2232.21
559.45	2235.89
559.81	2240.13
560.16	2243.88
560.52	2246.90
560.87	2250.29
561.23	2252.91
561.58	2255.87
561.94	2258.40
562.29	2260.74
562.64	2263.26
563.00	2265.75
563.35	2269.21
563.71	2272.35
564.06	2275.62
564.42	2278.50
564.77	2280.88
565.12	2283.35
565.48	2285.35
565.83	2287.23
566.19	2288.42
566.54	2289.32
566.89	2290.54
567.25	2291.16
567.60	2292.39
567.96	2294.17
568.31	2295.09
568.66	2296.28
569.02	2296.90
569.37	2297.36
569.72	2298.30
570.08	2298.58
570.43	2298.72
570.78	2298.22
571.14	2296.75
571.49	2295.38
571.84	2295.05
572.20	2294.05
572.55	2292.93
572.90	2291.46
573.26	2290.27
573.61	2288.74
573.96	2287.11
574.31	2284.22
574.67	2281.37
575.02	2277.89
575.37	2274.61
575.72	2270.88
576.08	2267.57
576.43	2264.27
576.78	2260.48
577.13	2257.35
577.49	2254.09
577.84	2250.63
578.19	2246.93
578.54	2243.37
578.90	2239.24
579.25	2233.63
579.60	2228.66
579.95	2223.59
580.30	2218.65
580.66	2213.37
581.01	2208.35
581.36	2203.38
581.71	2199.17
582.06	2194.77
582.42	2190.23
582.77	2185.00
583.12	2180.54
583.47	2175.90
583.82	2170.92
584.17	2165.82
584.53	2160.29
584.88	2154.88
585.23	2149.06
585.58	2143.71
585.93	2138.26
586.28	2133.52
586.63	2128.63
586.98	2123.67
587.34	2119.08
587.69	2114.10
588.04	2108.85
588.39	2103.24
588.74	2096.95
589.09	2090.92
589.44	2084.15
589.79	2078.21
590.14	2072.73
590.49	2066.12
590.84	2059.81
591.19	2053.82
591.54	2047.37
591.89	2040.12
592.25	2033.18
592.60	2026.03
592.95	2018.41
593.30	2011.20
593.65	2003.61
594.00	1996.49
594.35	1989.27
594.70	1981.26
595.05	1974.26
595.40	1967.03
595.75	1959.59
596.10	1953.39
596.45	1946.63
596.80	1940.48
597.15	1933.94
597.50	1926.77
597.85	1920.27
598.19	1913.67
598.54	1906.64
598.89	1900.00
599.24	1894.18
599.59	1887.75
599.94	1881.62
600.29	1875.38
600.64	1868.66
600.99	1861.37
601.34	1854.66
601.69	1847.82
602.04	1841.07
602.39	1833.60
602.74	1826.78
603.08	1820.06
603.43	1813.35
603.78	1806.10
604.13	1798.88
604.48	1791.49
604.83	1784.60
605.18	1777.74
605.53	1769.72
605.87	1761.79
606.22	1754.59
606.57	1746.57
606.92	1739.17
607.27	1731.87
607.62	1724.87
607.96	1717.65
608.31	1710.87
608.66	1703.28
609.01	1695.68
609.36	1688.09
609.70	1680.13
610.05	1672.19
610.40	1664.42
610.75	1656.04
611.10	1648.39
611.44	1640.02
611.79	1632.14
612.14	1623.55
612.49	1614.30
612.83	1605.84
613.18	1597.60
613.53	1589.50
613.88	1580.99
614.22	1572.70
614.57	1564.13
614.92	1555.99
615.27	1548.48
615.61	1540.25
615.96	1532.03
616.31	1524.23
616.65	1516.86
617.00	1509.25
617.35	1501.48
617.70	1493.22
618.04	1484.72
618.39	1476.47
618.74	1468.73
619.08	1460.35
619.43	1452.70
619.78	1445.86
620.12	1438.66
620.47	1431.14
620.82	1422.99
621.16	1415.49
621.51	1407.89
621.85	1400.23
622.20	1391.77
622.55	1383.47
622.89	1375.62
623.24	1368.07
623.59	1360.74
623.93	1353.19
624.28	1345.99
624.62	1338.53
624.97	1331.31
625.32	1324.65
625.66	1317.61
626.01	1310.54
626.35	1303.12
626.70	1295.47
627.04	1287.71
627.39	1279.84
627.73	1272.49
628.08	1265.53
628.43	1258.25
628.77	1250.86
629.12	1243.37
629.46	1236.18
629.81	1228.61
630.15	1221.43
630.50	1214.05
630.84	1205.86
631.19	1197.91
631.53	1190.29
631.88	1182.68
632.22	1175.15
632.57	1167.82
632.91	1160.29
633.26	1152.85
633.60	1145.51
633.95	1138.37
634.29	1131.31
634.64	1124.86
634.98	1117.41
635.32	1110.19
635.67	1103.64
636.01	1097.08
636.36	1090.19
636.70	1083.72
637.05	1077.12
637.39	1070.56
637.73	1064.05
638.08	1058.15
638.42	1052.16
638.77	1045.83
639.11	1039.23
639.45	1032.72
639.80	1025.98
640.14	1019.56
640.49	1013.07
640.83	1006.68
641.17	1000.44
641.52	994.03
641.86	987.47
642.20	981.64
642.55	975.35
642.89	968.82
643.23	962.15
643.58	956.50
643.92	950.31
644.26	944.24
644.61	938.21
644.95	932.21
645.29	925.63
645.64	918.89
645.98	912.48
646.32	906.66
646.66	900.67
647.01	894.88
647.35	889.08
647.69	883.13
648.04	877.66
648.38	871.81
648.72	865.99
649.06	859.98
649.41	854.19
649.75	848.25
650.09	842.33
650.43	836.55
650.78	830.37
651.12	824.39
651.46	818.73
651.80	812.96
652.14	807.53
652.49	802.11
652.83	796.97
653.17	791.25
653.51	785.51
653.85	780.18
654.20	774.53
654.54	768.58
654.88	762.83
655.22	756.91
655.56	751.20
655.90	745.64
656.25	740.31
656.59	734.88
656.93	729.84
657.27	724.72
657.61	719.31
657.95	714.17
658.29	709.07
658.64	703.73
658.98	698.46
659.32	693.06
659.66	687.90
660.00	682.57
660.34	677.64
660.68	672.77
661.02	667.64
661.36	662.92
661.70	658.44
662.05	654.09
662.39	649.78
662.73	645.38
663.07	641.03
663.41	636.60
663.75	632.13
664.09	627.54
664.43	623.20
664.77	619.01
665.11	614.77
665.45	610.66
665.79	606.64
666.13	602.47
666.47	598.35
666.81	594.15
667.15	590.04
667.49	586.13
667.83	582.28
668.17	578.37
668.51	574.27
668.85	570.28
669.19	566.45
669.53	562.56
669.87	558.64
670.21	554.93
670.55	551.33
670.89	547.94
671.23	544.47
671.57	540.85
671.91	537.37
672.25	533.89
672.58	530.34
672.92	526.97
673.26	523.79
673.60	520.61
673.94	517.58
674.28	514.67
674.62	511.76
674.96	508.66
675.30	505.80
675.64	502.82
675.97	500.00
676.31	497.17
676.65	494.26
676.99	491.58
677.33	488.76
677.67	485.93
678.01	482.81
678.34	479.87
678.68	477.01
679.02	474.18
679.36	471.40
679.70	468.72
680.04	465.94
680.37	463.10
680.71	460.27
681.05	457.61
681.39	454.88
681.73	452.20
682.06	449.64
682.40	447.05
682.74	444.58
683.08	442.05
683.42	439.41
683.75	436.89
684.09	434.33
684.43	431.82
684.77	429.31
685.10	427.00
685.44	424.67
685.78	422.37
686.12	420.10
686.45	417.77
686.79	415.50
687.13	413.29
687.46	411.15
687.80	409.03
688.14	406.80
688.48	404.74
688.81	402.48
689.15	400.35
689.49	398.20
689.82	396.12
690.16	394.02
690.50	392.12
690.83	390.18
691.17	388.18
691.51	386.28
691.84	384.43
692.18	382.45
692.52	380.49
692.85	378.53
693.19	376.67
693.52	374.84
693.86	373.06
694.20	371.26
694.53	369.42
694.87	367.57
695.21	365.80
695.54	363.94
695.88	362.21
696.21	360.46
696.55	358.75
696.88	357.03
697.22	355.37
697.56	353.72
697.89	352.07
698.23	350.47
698.56	348.83
698.90	347.26
699.23	345.63
699.57	344.10
699.90	342.59
700.24	341.03
700.58	339.52
700.91	338.01
701.25	336.59
701.58	335.26
701.92	333.88
702.25	332.50
702.59	331.16
702.92	329.82
703.26	328.56
703.59	327.30
703.93	326.14
704.26	324.89
704.60	323.62
704.93	322.33
705.26	321.10
705.60	319.94
705.93	318.77
706.27	317.75
706.60	316.70
706.94	315.62
707.27	314.49
707.61	313.43
707.94	312.38
708.27	311.30
708.61	310.18
708.94	309.16
709.28	308.17
709.61	307.23
709.94	306.28
710.28	305.25
710.61	304.27
710.95	303.20
711.28	302.29
711.61	301.31
711.95	300.42
712.28	299.49
712.61	298.52
712.95	297.62
713.28	296.75
713.61	295.80
713.95	294.93
714.28	294.09
714.61	293.24
714.95	292.39
715.28	291.51
715.61	290.64
715.95	289.81
716.28	288.96
716.61	288.09
716.95	287.26
717.28	286.53
717.61	285.79
717.94	285.04
718.28	284.24
718.61	283.53
718.94	282.84
719.27	282.19
719.61	281.53
719.94	280.85
720.27	280.12
720.60	279.49
720.94	278.86
721.27	278.27
721.60	277.66
721.93	277.02
722.27	276.48
722.60	275.91
722.93	275.33
723.26	274.79
723.59	274.25
723.93	273.71
724.26	273.15
724.59	272.56
724.92	272.06
725.25	271.58
725.59	271.06
725.92	270.52
726.25	269.94
726.58	269.45
726.91	268.95
727.24	268.46
727.57	267.99
727.91	267.45
728.24	266.98
728.57	266.50
728.90	266.07
729.23	265.57
729.56	265.14
729.89	264.67
730.22	264.20
730.55	263.72
730.89	263.28
731.22	262.82
731.55	262.37
731.88	261.91
732.21	261.47
732.54	261.06
732.87	260.60
733.20	260.25
733.53	259.84
733.86	259.45
734.19	259.02
734.52	258.65
734.85	258.33
735.18	257.90
735.51	257.51
735.84	257.15
736.17	256.81
736.50	256.41
736.83	256.18
737.16	255.84
737.49	255.54
737.82	255.20
738.15	254.88
738.48	254.59
738.81	254.29
739.14	253.95
739.47	253.65
739.80	253.39
740.13	253.08
740.46	252.75
740.79	252.44
741.12	252.16
741.45	251.81
741.78	251.50
742.11	251.24
742.44	250.91
742.77	250.64
743.10	250.32
743.43	250.03
743.75	249.66
744.08	249.54
744.41	249.22
744.74	248.97
745.07	248.68
745.40	248.43
745.73	248.19
746.06	247.93
746.39	247.66
746.71	247.36
747.04	247.06
747.37	246.86
747.70	246.62
748.03	246.36
748.36	246.15
748.68	245.89
749.01	245.62
749.34	245.44
749.67	245.20
750.00	244.99
750.33	244.81
750.65	244.61
750.98	244.24
751.31	244.04
751.64	243.80
751.97	243.63
752.29	243.43
752.62	243.18
752.95	243.00
753.28	242.73
753.60	242.54
753.93	242.33
754.26	242.11
754.59	241.86
754.91	241.67
755.24	241.46
755.57	241.28
755.90	241.11
756.22	240.91
756.55	240.70
756.88	240.53
757.20	240.31
757.53	240.08
757.86	239.88
758.19	239.73
758.51	239.55
758.84	239.33
759.17	239.13
759.49	238.96
759.82	238.81
760.15	238.72
760.47	238.59
760.80	238.46
761.13	238.31
761.45	238.20
761.78	238.02
762.11	237.87
762.43	237.73
762.76	237.59
763.08	237.43
763.41	237.27
763.74	237.11
764.06	236.98
764.39	236.86
764.71	236.75
765.04	236.63
765.37	236.50
765.69	236.37
766.02	236.25
766.34	236.12
766.67	235.94
767.00	235.81
767.32	235.72
767.65	235.68
767.97	235.56
768.30	235.45
768.62	235.36
768.95	235.25
769.27	235.13
769.60	235.03
769.92	234.93
770.25	234.82
770.57	234.71
770.90	234.59
771.22	234.46
771.55	234.38
771.87	234.27
772.20	234.18
772.52	234.18
772.85	234.20
773.17	234.11
773.50	234.06
773.82	233.96
774.15	233.79
774.47	233.63
774.80	233.51
775.12	233.40
775.45	233.32
775.77	233.28
776.09	233.20
776.42	233.12
776.74	233.07
777.07	233.00
777.39	232.96
777.72	232.88
778.04	232.84
778.36	232.78
778.69	232.71
779.01	232.66
779.33	232.50
779.66	232.31
779.98	232.21
780.31	232.14
780.63	232.11
780.95	232.11
781.28	232.01
781.60	231.91
781.92	231.89
782.25	231.81
782.57	231.71
782.89	231.64
783.22	231.56
783.54	231.47
783.86	231.46
784.19	231.37
784.51	231.35
784.83	231.26
785.16	231.21
785.48	231.12
785.80	231.02
786.12	230.98
786.45	230.94
786.77	230.93
787.09	230.88
