SpectraSuite Data File
++++++++++++++++++++++++++++++++++++
Date: Fri Feb 01 17:30:57 EST 2013
User: group
Dark Spectrum Present: No
Reference Spectrum Present: No
Number of Sampled Component Spectra: 1
Spectrometers: USB2E7196
Integration Time (usec): 35000 (USB2E7196)
Spectra Averaged: 100 (USB2E7196)
Boxcar Smoothing: 10 (USB2E7196)
Correct for Electrical Dark: No (USB2E7196)
Strobe/Lamp Enabled: No (USB2E7196)
Correct for Detector Non-linearity: No (USB2E7196)
Correct for Stray Light: No (USB2E7196)
Number of Pixels in Processed Spectrum: 2048
>>>>>Begin Processed Spectral Data<<<<<
339.09	0.00
339.48	213.09
339.86	214.90
340.24	215.88
340.63	216.90
341.01	220.26
341.39	219.50
341.78	221.08
342.16	222.72
342.54	222.83
342.93	211.42
343.31	222.12
343.69	222.65
344.07	223.11
344.46	223.51
344.84	223.89
345.22	224.10
345.60	224.35
345.99	224.53
346.37	224.63
346.75	224.70
347.13	224.80
347.52	224.84
347.90	224.91
348.28	224.93
348.66	224.94
349.05	224.95
349.43	225.02
349.81	225.07
350.19	225.07
350.57	225.12
350.96	225.19
351.34	225.28
351.72	225.36
352.10	225.43
352.48	225.51
352.87	225.55
353.25	225.61
353.63	225.69
354.01	225.75
354.39	225.84
354.77	225.95
355.15	226.02
355.54	226.07
355.92	226.11
356.30	226.21
356.68	226.35
357.06	226.41
357.44	226.44
357.82	226.49
358.20	226.59
358.58	226.65
358.97	226.69
359.35	226.74
359.73	226.82
360.11	226.88
360.49	226.92
360.87	226.98
361.25	227.04
361.63	227.11
362.01	227.15
362.39	227.13
362.77	227.19
363.15	227.19
363.53	227.22
363.91	227.23
364.29	227.22
364.67	227.11
365.05	227.12
365.43	227.13
365.81	227.14
366.19	227.14
366.57	227.19
366.95	227.18
367.33	227.15
367.71	227.14
368.09	227.12
368.47	227.12
368.85	227.09
369.23	227.08
369.61	227.00
369.99	227.02
370.37	227.02
370.75	227.06
371.13	227.02
371.51	226.97
371.89	226.95
372.27	226.89
372.65	226.88
373.03	226.83
373.41	226.76
373.78	226.71
374.16	226.61
374.54	226.50
374.92	226.45
375.30	226.39
375.68	226.30
376.06	226.25
376.44	226.16
376.82	226.10
377.19	226.06
377.57	226.02
377.95	225.94
378.33	225.89
378.71	225.73
379.09	225.70
379.47	225.67
379.84	225.60
380.22	225.56
380.60	225.49
380.98	225.45
381.36	225.40
381.73	225.36
382.11	225.32
382.49	225.26
382.87	225.17
383.25	225.12
383.62	225.18
384.00	225.09
384.38	225.04
384.76	225.05
385.13	225.00
385.51	224.94
385.89	224.89
386.27	224.81
386.64	224.78
387.02	224.72
387.40	224.66
387.78	224.63
388.15	224.61
388.53	224.54
388.91	224.48
389.29	224.47
389.66	224.44
390.04	224.42
390.42	224.42
390.79	224.43
391.17	224.44
391.55	224.31
391.92	224.30
392.30	224.30
392.68	224.26
393.05	224.28
393.43	224.27
393.81	224.24
394.18	224.24
394.56	224.23
394.94	224.23
395.31	224.26
395.69	224.29
396.06	224.28
396.44	224.35
396.82	224.38
397.19	224.45
397.57	224.47
397.95	224.50
398.32	224.49
398.70	224.53
399.07	224.61
399.45	224.66
399.82	224.72
400.20	224.77
400.58	224.84
400.95	224.86
401.33	224.96
401.70	225.12
402.08	225.22
402.45	225.31
402.83	225.40
403.20	225.46
403.58	225.55
403.95	225.68
404.33	225.76
404.71	225.88
405.08	226.04
405.46	226.17
405.83	226.33
406.21	226.51
406.58	226.68
406.96	226.85
407.33	227.05
407.70	227.25
408.08	227.52
408.45	227.74
408.83	227.97
409.20	228.17
409.58	228.35
409.95	228.60
410.33	228.87
410.70	229.15
411.08	229.46
411.45	229.78
411.82	230.07
412.20	230.43
412.57	230.89
412.95	231.20
413.32	231.61
413.69	232.01
414.07	232.44
414.44	232.91
414.82	233.36
415.19	233.94
415.56	234.51
415.94	235.12
416.31	235.80
416.68	236.43
417.06	237.19
417.43	237.91
417.81	238.71
418.18	239.55
418.55	240.43
418.93	241.39
419.30	242.35
419.67	243.38
420.04	244.38
420.42	245.38
420.79	246.65
421.16	247.87
421.54	249.11
421.91	250.40
422.28	251.71
422.66	253.13
423.03	254.48
423.40	255.87
423.77	257.33
424.15	258.80
424.52	260.37
424.89	262.04
425.26	263.66
425.64	265.18
426.01	266.85
426.38	268.59
426.75	270.29
427.13	272.10
427.50	273.98
427.87	275.97
428.24	277.96
428.61	279.79
428.99	281.81
429.36	284.01
429.73	286.17
430.10	288.31
430.47	290.48
430.85	292.66
431.22	294.98
431.59	297.45
431.96	299.79
432.33	302.38
432.70	304.87
433.08	307.82
433.45	310.57
433.82	313.26
434.19	316.25
434.56	319.19
434.93	321.91
435.30	324.65
435.68	327.67
436.05	330.58
436.42	333.44
436.79	336.08
437.16	338.86
437.53	341.78
437.90	344.72
438.27	347.54
438.64	350.50
439.01	353.25
439.38	355.55
439.75	357.78
440.13	360.37
440.50	362.80
440.87	364.72
441.24	366.76
441.61	369.03
441.98	370.57
442.35	372.49
442.72	374.48
443.09	376.38
443.46	377.38
443.83	378.00
444.20	378.55
444.57	379.45
444.94	379.81
445.31	380.23
445.68	380.58
446.05	380.70
446.42	380.34
446.79	379.91
447.16	379.47
447.53	379.18
447.90	378.03
448.27	376.86
448.64	375.22
449.01	374.05
449.37	372.04
449.74	370.14
450.11	367.78
450.48	365.20
450.85	362.53
451.22	360.33
451.59	358.23
451.96	356.26
452.33	353.50
452.70	351.05
453.07	348.06
453.43	345.07
453.80	342.17
454.17	339.40
454.54	336.78
454.91	333.99
455.28	331.19
455.65	328.58
456.02	326.04
456.38	323.78
456.75	321.00
457.12	318.59
457.49	316.27
457.86	314.02
458.23	312.16
458.59	310.05
458.96	307.92
459.33	306.00
459.70	304.03
460.07	302.46
460.43	300.68
460.80	298.98
461.17	297.47
461.54	295.89
461.91	294.37
462.27	292.85
462.64	291.55
463.01	290.16
463.38	288.82
463.74	287.39
464.11	286.17
464.48	285.12
464.85	284.00
465.21	283.09
465.58	282.15
465.95	280.94
466.32	280.00
466.68	279.05
467.05	278.12
467.42	277.24
467.78	276.31
468.15	275.40
468.52	274.73
468.88	273.84
469.25	273.10
469.62	272.46
469.98	271.76
470.35	271.07
470.72	270.50
471.08	269.83
471.45	269.29
471.82	268.75
472.18	268.14
472.55	267.71
472.92	267.12
473.28	266.60
473.65	266.13
474.02	265.66
474.38	265.29
474.75	264.96
475.11	264.57
475.48	264.27
475.85	264.02
476.21	263.76
476.58	263.57
476.94	263.39
477.31	263.23
477.67	263.07
478.04	262.97
478.41	262.86
478.77	262.90
479.14	262.78
479.50	262.80
479.87	262.85
480.23	262.91
480.60	263.02
480.96	263.14
481.33	263.38
481.69	263.57
482.06	263.76
482.42	263.97
482.79	264.28
483.15	264.59
483.52	264.94
483.88	265.31
484.25	265.66
484.61	266.08
484.98	266.50
485.34	267.04
485.71	267.60
486.07	268.20
486.44	268.73
486.80	269.47
487.17	270.17
487.53	270.99
487.90	271.85
488.26	272.75
488.62	273.74
488.99	274.69
489.35	275.69
489.72	276.81
490.08	278.00
490.44	279.21
490.81	280.58
491.17	281.94
491.54	283.41
491.90	284.96
492.26	286.57
492.63	288.30
492.99	290.09
493.36	291.99
493.72	294.03
494.08	296.15
494.45	298.36
494.81	300.70
495.17	303.12
495.54	305.67
495.90	308.36
496.26	311.11
496.63	314.03
496.99	317.14
497.35	320.39
497.72	323.75
498.08	327.22
498.44	330.79
498.80	334.69
499.17	338.73
499.53	342.84
499.89	347.22
500.26	351.70
500.62	356.30
500.98	361.16
501.34	366.16
501.71	371.40
502.07	376.77
502.43	382.31
502.79	388.05
503.16	394.06
503.52	400.25
503.88	406.58
504.24	413.12
504.60	419.86
504.97	426.80
505.33	433.98
505.69	441.58
506.05	449.22
506.41	456.92
506.78	464.86
507.14	473.13
507.50	481.67
507.86	490.50
508.22	499.51
508.59	508.55
508.95	517.87
509.31	527.46
509.67	537.31
510.03	547.41
510.39	557.71
510.75	568.24
511.12	578.85
511.48	589.85
511.84	601.10
512.20	612.37
512.56	624.04
512.92	635.95
513.28	647.94
513.64	660.12
514.00	672.52
514.37	685.21
514.73	697.98
515.09	710.68
515.45	723.58
515.81	736.81
516.17	750.42
516.53	764.23
516.89	778.03
517.25	791.89
517.61	805.89
517.97	819.90
518.33	833.89
518.69	848.29
519.05	862.84
519.41	877.55
519.77	892.59
520.13	907.60
520.49	922.53
520.85	937.44
521.21	952.70
521.57	968.41
521.93	983.62
522.29	999.35
522.65	1015.11
523.01	1030.81
523.37	1046.34
523.73	1061.99
524.09	1077.57
524.45	1093.38
524.81	1109.42
525.17	1125.67
525.53	1142.04
525.89	1158.39
526.25	1174.71
526.61	1190.59
526.97	1206.75
527.33	1222.81
527.68	1238.79
528.04	1254.78
528.40	1270.85
528.76	1287.37
529.12	1303.49
529.48	1319.98
529.84	1335.56
530.20	1351.64
530.56	1368.07
530.91	1385.01
531.27	1401.28
531.63	1417.31
531.99	1433.42
532.35	1449.01
532.71	1464.51
533.07	1480.48
533.42	1496.07
533.78	1511.72
534.14	1527.64
534.50	1542.65
534.86	1558.09
535.21	1572.99
535.57	1588.64
535.93	1603.91
536.29	1618.37
536.65	1633.07
537.00	1647.35
537.36	1662.51
537.72	1676.82
538.08	1691.10
538.44	1704.65
538.79	1718.35
539.15	1731.67
539.51	1745.13
539.87	1759.29
540.22	1772.72
540.58	1786.15
540.94	1799.08
541.29	1811.66
541.65	1824.16
542.01	1837.15
542.37	1849.37
542.72	1861.68
543.08	1873.32
543.44	1885.61
543.79	1896.84
544.15	1907.86
544.51	1919.42
544.87	1930.39
545.22	1941.30
545.58	1951.58
545.94	1961.40
546.29	1971.29
546.65	1981.28
547.01	1990.67
547.36	1999.39
547.72	2008.12
548.07	2016.33
548.43	2024.69
548.79	2032.80
549.14	2040.60
549.50	2048.01
549.86	2055.72
550.21	2063.18
550.57	2070.59
550.92	2077.40
551.28	2084.65
551.64	2091.90
551.99	2098.63
552.35	2105.09
552.70	2111.48
553.06	2117.69
553.41	2124.23
553.77	2130.55
554.13	2136.99
554.48	2143.52
554.84	2149.43
555.19	2154.82
555.55	2160.25
555.90	2165.15
556.26	2170.56
556.61	2175.57
556.97	2180.46
557.32	2185.04
557.68	2189.56
558.03	2193.94
558.39	2197.80
558.74	2202.65
559.10	2206.78
559.45	2210.88
559.81	2215.35
560.16	2219.39
560.52	2223.14
560.87	2226.99
561.23	2229.88
561.58	2233.01
561.94	2235.88
562.29	2238.46
562.64	2241.68
563.00	2244.41
563.35	2248.18
563.71	2251.46
564.06	2254.94
564.42	2258.19
564.77	2261.09
565.12	2264.06
565.48	2266.64
565.83	2269.01
566.19	2270.93
566.54	2272.29
566.89	2273.92
567.25	2275.03
567.60	2276.73
567.96	2278.65
568.31	2279.71
568.66	2281.47
569.02	2282.54
569.37	2283.31
569.72	2284.60
570.08	2285.33
570.43	2285.80
570.78	2285.79
571.14	2284.84
571.49	2283.94
571.84	2283.82
572.20	2283.20
572.55	2282.42
572.90	2281.06
573.26	2280.24
573.61	2278.83
573.96	2277.69
574.31	2275.16
574.67	2272.55
575.02	2269.25
575.37	2266.35
575.72	2263.15
576.08	2259.99
576.43	2256.99
576.78	2253.87
577.13	2251.03
577.49	2247.94
577.84	2244.90
578.19	2241.46
578.54	2238.26
578.90	2234.55
579.25	2229.56
579.60	2225.04
579.95	2220.34
580.30	2215.62
580.66	2210.73
581.01	2206.06
581.36	2201.42
581.71	2197.57
582.06	2193.45
582.42	2189.41
582.77	2184.53
583.12	2180.36
583.47	2176.22
583.82	2171.66
584.17	2166.52
584.53	2161.33
584.88	2156.20
585.23	2150.91
585.58	2145.63
585.93	2140.47
586.28	2135.73
586.63	2130.86
586.98	2125.98
587.34	2121.47
587.69	2116.99
588.04	2112.02
588.39	2106.71
588.74	2100.58
589.09	2094.70
589.44	2088.28
589.79	2082.35
590.14	2077.00
590.49	2070.62
590.84	2064.32
591.19	2058.47
591.54	2052.23
591.89	2045.31
592.25	2038.80
592.60	2031.69
592.95	2024.46
593.30	2017.42
593.65	2010.11
594.00	2003.27
594.35	1996.20
594.70	1988.33
595.05	1981.47
595.40	1974.35
595.75	1966.97
596.10	1960.89
596.45	1954.31
596.80	1948.19
597.15	1941.88
597.50	1935.16
597.85	1928.84
598.19	1922.25
598.54	1915.44
598.89	1908.86
599.24	1902.99
599.59	1896.66
599.94	1890.48
600.29	1884.29
600.64	1877.62
600.99	1870.31
601.34	1863.59
601.69	1856.63
602.04	1850.00
602.39	1842.65
602.74	1836.01
603.08	1829.36
603.43	1822.57
603.78	1815.34
604.13	1808.25
604.48	1801.18
604.83	1794.19
605.18	1787.46
605.53	1779.65
605.87	1771.72
606.22	1764.55
606.57	1756.56
606.92	1748.98
607.27	1741.97
607.62	1735.18
607.96	1727.96
608.31	1721.61
608.66	1714.04
609.01	1706.66
609.36	1698.99
609.70	1690.85
610.05	1682.73
610.40	1675.20
610.75	1667.02
611.10	1659.47
611.44	1650.95
611.79	1642.85
612.14	1634.17
612.49	1624.72
612.83	1616.20
613.18	1607.91
613.53	1599.80
613.88	1591.28
614.22	1583.00
614.57	1574.28
614.92	1566.13
615.27	1558.69
615.61	1550.15
615.96	1542.01
616.31	1534.11
616.65	1526.78
617.00	1519.21
617.35	1511.41
617.70	1502.92
618.04	1494.32
618.39	1485.86
618.74	1478.21
619.08	1469.85
619.43	1462.06
619.78	1455.05
620.12	1447.89
620.47	1440.31
620.82	1432.03
621.16	1424.48
621.51	1416.76
621.85	1409.00
622.20	1400.40
622.55	1391.85
622.89	1383.93
623.24	1376.26
623.59	1368.81
623.93	1361.24
624.28	1353.99
624.62	1346.40
624.97	1339.08
625.32	1332.06
625.66	1324.94
626.01	1317.74
626.35	1310.14
626.70	1302.31
627.04	1294.61
627.39	1286.58
627.73	1278.96
628.08	1271.99
628.43	1264.66
628.77	1257.30
629.12	1249.78
629.46	1242.44
629.81	1234.95
630.15	1227.63
630.50	1220.08
630.84	1211.99
631.19	1203.94
631.53	1196.26
631.88	1188.59
632.22	1180.95
632.57	1173.63
632.91	1165.94
633.26	1158.48
633.60	1151.02
633.95	1143.84
634.29	1136.65
634.64	1130.02
634.98	1122.72
635.32	1115.46
635.67	1108.73
636.01	1101.94
636.36	1095.00
636.70	1088.45
637.05	1081.70
637.39	1075.20
637.73	1068.74
638.08	1062.68
638.42	1056.51
638.77	1050.00
639.11	1043.46
639.45	1036.98
639.80	1030.28
640.14	1023.96
640.49	1017.35
640.83	1011.07
641.17	1004.83
641.52	998.48
641.86	991.92
642.20	986.03
642.55	979.61
642.89	973.07
643.23	966.44
643.58	960.65
643.92	954.40
644.26	948.37
644.61	942.23
644.95	936.23
645.29	929.63
645.64	922.88
645.98	916.62
646.32	910.61
646.66	904.60
647.01	898.78
647.35	892.96
647.69	887.04
648.04	881.38
648.38	875.57
648.72	869.61
649.06	863.57
649.41	857.64
649.75	851.80
650.09	845.93
650.43	840.22
650.78	834.11
651.12	828.18
651.46	822.44
651.80	816.78
652.14	811.36
652.49	806.00
652.83	800.83
653.17	795.18
653.51	789.57
653.85	784.18
654.20	778.55
654.54	772.57
654.88	766.82
655.22	760.97
655.56	755.23
655.90	749.73
656.25	744.49
656.59	739.14
656.93	734.04
657.27	728.89
657.61	723.39
657.95	718.33
658.29	713.18
658.64	707.84
658.98	702.52
659.32	696.91
659.66	691.75
660.00	686.42
660.34	681.42
660.68	676.42
661.02	671.31
661.36	666.56
661.70	662.01
662.05	657.63
662.39	653.25
662.73	648.76
663.07	644.38
663.41	639.97
663.75	635.40
664.09	630.79
664.43	626.36
664.77	622.28
665.11	617.96
665.45	613.79
665.79	609.74
666.13	605.48
666.47	601.46
666.81	597.18
667.15	593.06
667.49	589.06
667.83	585.19
668.17	581.28
668.51	577.21
668.85	573.17
669.19	569.29
669.53	565.47
669.87	561.63
670.21	557.89
670.55	554.15
670.89	550.67
671.23	547.23
671.57	543.62
671.91	540.04
672.25	536.47
672.58	532.94
672.92	529.49
673.26	526.32
673.60	523.08
673.94	520.01
674.28	517.05
674.62	514.10
674.96	510.99
675.30	508.02
675.64	505.09
675.97	502.26
676.31	499.33
676.65	496.33
676.99	493.55
677.33	490.61
677.67	487.77
678.01	484.77
678.34	481.82
678.68	478.93
679.02	476.12
679.36	473.28
679.70	470.54
680.04	467.78
680.37	464.90
680.71	462.05
681.05	459.40
681.39	456.66
681.73	453.97
682.06	451.46
682.40	448.88
682.74	446.32
683.08	443.76
683.42	441.16
683.75	438.70
684.09	436.14
684.43	433.70
684.77	431.24
685.10	428.84
685.44	426.49
685.78	424.19
686.12	421.84
686.45	419.60
686.79	417.31
687.13	415.13
687.46	412.94
687.80	410.81
688.14	408.54
688.48	406.47
688.81	404.27
689.15	402.03
689.49	399.86
689.82	397.77
690.16	395.62
690.50	393.65
690.83	391.69
691.17	389.69
691.51	387.76
691.84	385.92
692.18	383.98
692.52	381.98
692.85	380.03
693.19	378.11
693.52	376.24
693.86	374.42
694.20	372.60
694.53	370.82
694.87	368.91
695.21	367.15
695.54	365.31
695.88	363.53
696.21	361.87
696.55	360.17
696.88	358.43
697.22	356.77
697.56	355.17
697.89	353.50
698.23	351.91
698.56	350.31
698.90	348.73
699.23	347.07
699.57	345.53
699.90	343.96
700.24	342.46
700.58	340.92
700.91	339.37
701.25	337.93
701.58	336.52
701.92	335.20
702.25	333.77
702.59	332.36
702.92	331.01
703.26	329.64
703.59	328.33
703.93	327.15
704.26	325.93
704.60	324.58
704.93	323.26
705.26	321.96
705.60	320.70
705.93	319.48
706.27	318.40
706.60	317.32
706.94	316.23
707.27	315.04
707.61	313.90
707.94	312.86
708.27	311.72
708.61	310.57
708.94	309.47
709.28	308.44
709.61	307.49
709.94	306.50
710.28	305.47
710.61	304.48
710.95	303.33
711.28	302.39
711.61	301.42
711.95	300.50
712.28	299.55
712.61	298.55
712.95	297.60
713.28	296.69
713.61	295.74
713.95	294.81
714.28	293.93
714.61	293.10
714.95	292.21
715.28	291.38
715.61	290.49
715.95	289.63
716.28	288.77
716.61	287.92
716.95	287.08
717.28	286.29
717.61	285.52
717.94	284.79
718.28	283.94
718.61	283.20
718.94	282.47
719.27	281.80
719.61	281.14
719.94	280.44
720.27	279.70
720.60	279.05
720.94	278.39
721.27	277.84
721.60	277.23
721.93	276.65
722.27	276.05
722.60	275.55
722.93	275.03
723.26	274.51
723.59	273.96
723.93	273.41
724.26	272.85
724.59	272.29
724.92	271.73
725.25	271.26
725.59	270.71
725.92	270.20
726.25	269.69
726.58	269.18
726.91	268.69
727.24	268.25
727.57	267.77
727.91	267.31
728.24	266.78
728.57	266.26
728.90	265.80
729.23	265.31
729.56	264.84
729.89	264.33
730.22	263.81
730.55	263.31
730.89	262.87
731.22	262.41
731.55	261.94
731.88	261.49
732.21	261.03
732.54	260.61
732.87	260.18
733.20	259.73
733.53	259.33
733.86	258.95
734.19	258.53
734.52	258.12
734.85	257.79
735.18	257.39
735.51	257.04
735.84	256.64
736.17	256.28
736.50	255.88
736.83	255.64
737.16	255.32
737.49	255.00
737.82	254.65
738.15	254.36
738.48	254.04
738.81	253.74
739.14	253.41
739.47	253.10
739.80	252.80
740.13	252.48
740.46	252.13
740.79	251.78
741.12	251.44
741.45	251.13
741.78	250.78
742.11	250.47
742.44	250.14
742.77	249.83
743.10	249.52
743.43	249.22
743.75	248.82
744.08	248.63
744.41	248.31
744.74	248.04
745.07	247.71
745.40	247.47
745.73	247.22
746.06	246.92
746.39	246.66
746.71	246.36
747.04	246.11
747.37	245.85
747.70	245.60
748.03	245.38
748.36	245.13
748.68	244.86
749.01	244.62
749.34	244.37
749.67	244.15
750.00	243.89
750.33	243.74
750.65	243.53
750.98	243.16
751.31	242.95
751.64	242.74
751.97	242.58
752.29	242.33
752.62	242.02
752.95	241.81
753.28	241.57
753.60	241.35
753.93	241.19
754.26	240.99
754.59	240.75
754.91	240.52
755.24	240.32
755.57	240.10
755.90	239.90
756.22	239.72
756.55	239.51
756.88	239.28
757.20	239.02
757.53	238.81
757.86	238.65
758.19	238.45
758.51	238.27
758.84	238.09
759.17	237.94
759.49	237.82
759.82	237.70
760.15	237.57
760.47	237.40
760.80	237.21
761.13	237.07
761.45	236.91
761.78	236.79
762.11	236.65
762.43	236.55
762.76	236.40
763.08	236.27
763.41	236.16
763.74	236.09
764.06	235.94
764.39	235.83
764.71	235.68
765.04	235.54
765.37	235.39
765.69	235.20
766.02	235.05
766.34	234.90
766.67	234.76
767.00	234.66
767.32	234.60
767.65	234.55
767.97	234.44
768.30	234.35
768.62	234.22
768.95	234.06
769.27	233.93
769.60	233.85
769.92	233.74
770.25	233.61
770.57	233.49
770.90	233.38
771.22	233.24
771.55	233.16
771.87	233.08
772.20	233.00
772.52	233.01
772.85	233.01
773.17	232.93
773.50	232.84
773.82	232.73
774.15	232.57
774.47	232.39
774.80	232.28
775.12	232.19
775.45	232.11
775.77	232.07
776.09	231.98
776.42	231.90
776.74	231.86
777.07	231.74
777.39	231.66
777.72	231.57
778.04	231.53
778.36	231.49
778.69	231.42
779.01	231.36
779.33	231.17
779.66	231.02
779.98	230.93
780.31	230.87
780.63	230.81
780.95	230.79
781.28	230.72
781.60	230.69
781.92	230.60
782.25	230.54
782.57	230.48
782.89	230.45
783.22	230.37
783.54	230.28
783.86	230.26
784.19	230.18
784.51	230.17
784.83	230.09
785.16	229.99
785.48	229.96
785.80	229.90
786.12	229.90
786.45	229.83
786.77	229.83
787.09	229.76
