SpectraSuite Data File
++++++++++++++++++++++++++++++++++++
Date: Fri Feb 01 15:26:27 EST 2013
User: group
Dark Spectrum Present: No
Reference Spectrum Present: No
Number of Sampled Component Spectra: 1
Spectrometers: USB2E7196
Integration Time (usec): 35000 (USB2E7196)
Spectra Averaged: 100 (USB2E7196)
Boxcar Smoothing: 10 (USB2E7196)
Correct for Electrical Dark: No (USB2E7196)
Strobe/Lamp Enabled: No (USB2E7196)
Correct for Detector Non-linearity: No (USB2E7196)
Correct for Stray Light: No (USB2E7196)
Number of Pixels in Processed Spectrum: 2048
>>>>>Begin Processed Spectral Data<<<<<
339.09	0.00
339.48	215.48
339.86	216.57
340.24	217.88
340.63	219.03
341.01	222.41
341.39	222.29
341.78	223.12
342.16	224.79
342.54	224.95
342.93	213.51
343.31	224.27
343.69	224.79
344.07	225.26
344.46	225.68
344.84	226.05
345.22	226.29
345.60	226.49
345.99	226.70
346.37	226.81
346.75	226.88
347.13	226.94
347.52	227.02
347.90	227.11
348.28	227.16
348.66	227.24
349.05	227.22
349.43	227.23
349.81	227.22
350.19	227.29
350.57	227.35
350.96	227.43
351.34	227.53
351.72	227.65
352.10	227.74
352.48	227.83
352.87	227.93
353.25	227.99
353.63	228.13
354.01	228.19
354.39	228.28
354.77	228.39
355.15	228.49
355.54	228.55
355.92	228.59
356.30	228.67
356.68	228.78
357.06	228.88
357.44	228.96
357.82	229.04
358.20	229.09
358.58	229.18
358.97	229.28
359.35	229.35
359.73	229.37
360.11	229.45
360.49	229.51
360.87	229.55
361.25	229.60
361.63	229.64
362.01	229.69
362.39	229.71
362.77	229.76
363.15	229.79
363.53	229.82
363.91	229.85
364.29	229.88
364.67	229.79
365.05	229.79
365.43	229.81
365.81	229.82
366.19	229.87
366.57	229.90
366.95	229.84
367.33	229.84
367.71	229.85
368.09	229.84
368.47	229.79
368.85	229.75
369.23	229.76
369.61	229.67
369.99	229.67
370.37	229.65
370.75	229.67
371.13	229.58
371.51	229.52
371.89	229.46
372.27	229.37
372.65	229.37
373.03	229.30
373.41	229.25
373.78	229.19
374.16	229.04
374.54	228.94
374.92	228.90
375.30	228.80
375.68	228.71
376.06	228.63
376.44	228.55
376.82	228.48
377.19	228.40
377.57	228.35
377.95	228.25
378.33	228.15
378.71	228.01
379.09	227.98
379.47	227.92
379.84	227.82
380.22	227.78
380.60	227.64
380.98	227.58
381.36	227.50
381.73	227.38
382.11	227.36
382.49	227.29
382.87	227.18
383.25	227.15
383.62	227.20
384.00	227.09
384.38	227.06
384.76	227.06
385.13	227.03
385.51	226.97
385.89	226.92
386.27	226.88
386.64	226.86
387.02	226.79
387.40	226.72
387.78	226.73
388.15	226.67
388.53	226.63
388.91	226.58
389.29	226.51
389.66	226.53
390.04	226.49
390.42	226.47
390.79	226.47
391.17	226.44
391.55	226.35
391.92	226.35
392.30	226.34
392.68	226.32
393.05	226.32
393.43	226.34
393.81	226.33
394.18	226.33
394.56	226.34
394.94	226.41
395.31	226.42
395.69	226.48
396.06	226.53
396.44	226.62
396.82	226.67
397.19	226.78
397.57	226.82
397.95	226.89
398.32	226.93
398.70	226.99
399.07	227.07
399.45	227.13
399.82	227.23
400.20	227.32
400.58	227.39
400.95	227.41
401.33	227.51
401.70	227.67
402.08	227.79
402.45	227.88
402.83	227.97
403.20	228.14
403.58	228.23
403.95	228.35
404.33	228.51
404.71	228.64
405.08	228.83
405.46	228.97
405.83	229.11
406.21	229.26
406.58	229.45
406.96	229.62
407.33	229.81
407.70	230.01
408.08	230.26
408.45	230.49
408.83	230.76
409.20	230.98
409.58	231.16
409.95	231.43
410.33	231.70
410.70	231.96
411.08	232.23
411.45	232.54
411.82	232.82
412.20	233.15
412.57	233.60
412.95	233.86
413.32	234.28
413.69	234.70
414.07	235.14
414.44	235.61
414.82	236.07
415.19	236.61
415.56	237.16
415.94	237.70
416.31	238.33
416.68	238.95
417.06	239.67
417.43	240.34
417.81	241.09
418.18	241.87
418.55	242.71
418.93	243.56
419.30	244.44
419.67	245.40
420.04	246.34
420.42	247.27
420.79	248.49
421.16	249.65
421.54	250.86
421.91	252.09
422.28	253.34
422.66	254.64
423.03	255.94
423.40	257.28
423.77	258.68
424.15	260.05
424.52	261.55
424.89	263.15
425.26	264.72
425.64	266.18
426.01	267.77
426.38	269.40
426.75	271.07
427.13	272.81
427.50	274.62
427.87	276.51
428.24	278.41
428.61	280.11
428.99	282.02
429.36	284.11
429.73	286.15
430.10	288.19
430.47	290.31
430.85	292.41
431.22	294.61
431.59	297.01
431.96	299.30
432.33	301.76
432.70	304.16
433.08	306.96
433.45	309.61
433.82	312.24
434.19	315.15
434.56	318.01
434.93	320.67
435.30	323.29
435.68	326.19
436.05	329.03
436.42	331.84
436.79	334.39
437.16	337.03
437.53	339.90
437.90	342.68
438.27	345.46
438.64	348.27
439.01	350.91
439.38	353.19
439.75	355.38
440.13	357.87
440.50	360.23
440.87	362.05
441.24	364.05
441.61	366.20
441.98	367.68
442.35	369.47
442.72	371.35
443.09	373.17
443.46	374.18
443.83	374.79
444.20	375.29
444.57	376.15
444.94	376.51
445.31	376.81
445.68	377.17
446.05	377.19
446.42	376.89
446.79	376.47
447.16	376.01
447.53	375.67
447.90	374.54
448.27	373.39
448.64	371.86
449.01	370.68
449.37	368.72
449.74	366.84
450.11	364.58
450.48	362.08
450.85	359.52
451.22	357.38
451.59	355.34
451.96	353.44
452.33	350.82
452.70	348.44
453.07	345.62
453.43	342.72
453.80	339.98
454.17	337.25
454.54	334.66
454.91	331.93
455.28	329.26
455.65	326.73
456.02	324.20
456.38	322.04
456.75	319.35
457.12	317.10
457.49	314.86
457.86	312.69
458.23	310.80
458.59	308.75
458.96	306.62
459.33	304.73
459.70	302.85
460.07	301.32
460.43	299.64
460.80	298.00
461.17	296.58
461.54	295.06
461.91	293.61
462.27	292.16
462.64	290.90
463.01	289.54
463.38	288.27
463.74	286.91
464.11	285.71
464.48	284.75
464.85	283.61
465.21	282.72
465.58	281.80
465.95	280.70
466.32	279.84
466.68	278.93
467.05	278.03
467.42	277.16
467.78	276.21
468.15	275.29
468.52	274.63
468.88	273.73
469.25	272.97
469.62	272.32
469.98	271.65
470.35	271.04
470.72	270.40
471.08	269.72
471.45	269.16
471.82	268.61
472.18	267.96
472.55	267.49
472.92	266.98
473.28	266.51
473.65	266.09
474.02	265.59
474.38	265.25
474.75	264.90
475.11	264.54
475.48	264.32
475.85	264.06
476.21	263.82
476.58	263.65
476.94	263.47
477.31	263.34
477.67	263.16
478.04	263.05
478.41	262.99
478.77	263.04
479.14	263.00
479.50	263.02
479.87	263.08
480.23	263.17
480.60	263.23
480.96	263.31
481.33	263.51
481.69	263.73
482.06	263.93
482.42	264.13
482.79	264.38
483.15	264.64
483.52	265.04
483.88	265.40
484.25	265.77
484.61	266.21
484.98	266.68
485.34	267.27
485.71	267.80
486.07	268.44
486.44	269.00
486.80	269.71
487.17	270.46
487.53	271.30
487.90	272.16
488.26	273.14
488.62	274.10
488.99	275.12
489.35	276.14
489.72	277.25
490.08	278.45
490.44	279.71
490.81	281.08
491.17	282.43
491.54	283.90
491.90	285.41
492.26	287.03
492.63	288.74
492.99	290.54
493.36	292.50
493.72	294.52
494.08	296.63
494.45	298.90
494.81	301.23
495.17	303.60
495.54	306.15
495.90	308.81
496.26	311.63
496.63	314.56
496.99	317.70
497.35	320.93
497.72	324.38
498.08	327.87
498.44	331.51
498.80	335.44
499.17	339.45
499.53	343.59
499.89	348.02
500.26	352.59
500.62	357.25
500.98	362.20
501.34	367.31
501.71	372.63
502.07	378.01
502.43	383.69
502.79	389.57
503.16	395.59
503.52	401.88
503.88	408.32
504.24	414.96
504.60	421.84
504.97	428.96
505.33	436.24
505.69	443.85
506.05	451.60
506.41	459.50
506.78	467.70
507.14	476.26
507.50	484.99
507.86	493.91
508.22	503.07
508.59	512.25
508.95	521.83
509.31	531.68
509.67	541.80
510.03	552.01
510.39	562.59
510.75	573.50
511.12	584.39
511.48	595.64
511.84	607.12
512.20	618.63
512.56	630.67
512.92	642.85
513.28	655.28
513.64	667.86
514.00	680.56
514.37	693.47
514.73	706.47
515.09	719.51
515.45	732.88
515.81	746.53
516.17	760.56
516.53	774.68
516.89	788.88
517.25	803.07
517.61	817.57
517.97	832.00
518.33	846.44
518.69	861.23
519.05	876.30
519.41	891.42
519.77	907.02
520.13	922.47
520.49	937.85
520.85	953.35
521.21	968.99
521.57	985.26
521.93	1001.12
522.29	1017.59
522.65	1033.79
523.01	1049.97
523.37	1066.00
523.73	1082.21
524.09	1098.38
524.45	1114.69
524.81	1131.36
525.17	1148.31
525.53	1165.26
525.89	1182.15
526.25	1199.06
526.61	1215.47
526.97	1232.29
527.33	1248.73
527.68	1265.38
528.04	1281.92
528.40	1298.51
528.76	1315.64
529.12	1332.24
529.48	1349.18
529.84	1365.26
530.20	1382.05
530.56	1399.24
530.91	1416.75
531.27	1433.47
531.63	1449.92
531.99	1466.60
532.35	1482.72
532.71	1498.56
533.07	1514.89
533.42	1530.87
533.78	1546.95
534.14	1563.28
534.50	1578.54
534.86	1594.57
535.21	1609.84
535.57	1625.99
535.93	1641.64
536.29	1656.45
536.65	1671.73
537.00	1686.61
537.36	1702.05
537.72	1716.52
538.08	1730.93
538.44	1744.69
538.79	1758.80
539.15	1772.66
539.51	1786.46
539.87	1800.76
540.22	1814.55
540.58	1828.29
540.94	1841.67
541.29	1854.72
541.65	1867.54
542.01	1881.05
542.37	1893.31
542.72	1905.88
543.08	1917.62
543.44	1930.05
543.79	1941.31
544.15	1952.32
544.51	1963.92
544.87	1974.95
545.22	1985.86
545.58	1996.08
545.94	2006.01
546.29	2015.87
546.65	2025.67
547.01	2034.82
547.36	2043.67
547.72	2052.19
548.07	2060.22
548.43	2068.38
548.79	2076.43
549.14	2083.88
549.50	2091.28
549.86	2099.02
550.21	2106.15
550.57	2113.36
550.92	2119.95
551.28	2127.21
551.64	2134.13
551.99	2140.62
552.35	2146.73
552.70	2152.87
553.06	2158.91
553.41	2165.18
553.77	2171.14
554.13	2177.21
554.48	2183.35
554.84	2188.60
555.19	2194.06
555.55	2199.08
555.90	2203.55
556.26	2208.31
556.61	2213.13
556.97	2217.13
557.32	2221.30
557.68	2225.40
558.03	2229.62
558.39	2233.32
558.74	2237.75
559.10	2241.67
559.45	2245.16
559.81	2249.40
560.16	2253.29
560.52	2256.38
560.87	2259.84
561.23	2262.55
561.58	2265.58
561.94	2268.07
562.29	2270.61
562.64	2273.08
563.00	2275.72
563.35	2279.33
563.71	2282.50
564.06	2285.71
564.42	2288.63
564.77	2291.00
565.12	2293.31
565.48	2295.18
565.83	2296.98
566.19	2298.26
566.54	2299.18
566.89	2300.41
567.25	2300.90
567.60	2302.27
567.96	2304.12
568.31	2304.91
568.66	2305.84
569.02	2306.34
569.37	2306.67
569.72	2307.43
570.08	2307.51
570.43	2307.58
570.78	2306.84
571.14	2305.30
571.49	2303.94
571.84	2303.64
572.20	2302.56
572.55	2301.54
572.90	2299.99
573.26	2298.49
573.61	2296.81
573.96	2294.92
574.31	2291.87
574.67	2288.67
575.02	2284.87
575.37	2281.39
575.72	2277.49
576.08	2274.19
576.43	2270.79
576.78	2267.09
577.13	2263.86
577.49	2260.89
577.84	2257.25
578.19	2253.44
578.54	2249.61
578.90	2245.12
579.25	2239.45
579.60	2234.34
579.95	2229.27
580.30	2224.19
580.66	2219.08
581.01	2214.11
581.36	2209.19
581.71	2204.93
582.06	2200.54
582.42	2196.01
582.77	2190.57
583.12	2185.92
583.47	2180.97
583.82	2175.87
584.17	2170.46
584.53	2164.77
584.88	2158.89
585.23	2152.88
585.58	2147.50
585.93	2141.92
586.28	2137.16
586.63	2132.08
586.98	2126.92
587.34	2122.14
587.69	2117.17
588.04	2111.79
588.39	2105.97
588.74	2099.39
589.09	2093.13
589.44	2086.33
589.79	2080.12
590.14	2074.44
590.49	2067.76
590.84	2061.36
591.19	2055.27
591.54	2048.88
591.89	2041.50
592.25	2034.62
592.60	2027.47
592.95	2019.67
593.30	2012.38
593.65	2004.72
594.00	1997.58
594.35	1990.36
594.70	1982.21
595.05	1974.83
595.40	1967.33
595.75	1959.75
596.10	1953.51
596.45	1946.79
596.80	1940.59
597.15	1933.87
597.50	1926.72
597.85	1920.24
598.19	1913.61
598.54	1906.56
598.89	1899.76
599.24	1893.86
599.59	1887.17
599.94	1880.93
600.29	1874.56
600.64	1868.03
600.99	1860.56
601.34	1853.64
601.69	1846.63
602.04	1839.64
602.39	1832.30
602.74	1825.57
603.08	1818.94
603.43	1812.18
603.78	1804.79
604.13	1797.45
604.48	1790.23
604.83	1783.45
605.18	1776.40
605.53	1768.31
605.87	1760.12
606.22	1752.88
606.57	1744.86
606.92	1737.52
607.27	1730.24
607.62	1723.34
607.96	1715.84
608.31	1709.15
608.66	1701.42
609.01	1693.75
609.36	1686.25
609.70	1678.19
610.05	1670.02
610.40	1662.12
610.75	1653.72
611.10	1645.99
611.44	1637.61
611.79	1629.56
612.14	1620.80
612.49	1611.80
612.83	1603.57
613.18	1595.45
613.53	1587.40
613.88	1578.88
614.22	1570.59
614.57	1562.07
614.92	1553.99
615.27	1546.47
615.61	1538.12
615.96	1530.23
616.31	1522.73
616.65	1515.37
617.00	1507.84
617.35	1500.29
617.70	1491.95
618.04	1483.54
618.39	1475.38
618.74	1467.77
619.08	1459.47
619.43	1451.90
619.78	1444.88
620.12	1437.64
620.47	1429.94
620.82	1421.82
621.16	1414.48
621.51	1406.86
621.85	1399.18
622.20	1390.63
622.55	1382.31
622.89	1374.56
623.24	1366.91
623.59	1359.42
623.93	1351.81
624.28	1344.62
624.62	1337.07
624.97	1329.88
625.32	1323.14
625.66	1316.05
626.01	1308.79
626.35	1301.32
626.70	1293.58
627.04	1285.75
627.39	1277.98
627.73	1270.64
628.08	1263.54
628.43	1256.09
628.77	1248.62
629.12	1241.02
629.46	1233.78
629.81	1226.31
630.15	1219.10
630.50	1211.72
630.84	1203.60
631.19	1195.74
631.53	1188.18
631.88	1180.58
632.22	1173.10
632.57	1165.75
632.91	1158.30
633.26	1150.97
633.60	1143.79
633.95	1136.80
634.29	1129.95
634.64	1123.23
634.98	1115.96
635.32	1108.94
635.67	1102.51
636.01	1095.98
636.36	1089.27
636.70	1082.85
637.05	1076.43
637.39	1069.96
637.73	1063.49
638.08	1057.70
638.42	1051.64
638.77	1045.20
639.11	1038.67
639.45	1032.31
639.80	1025.61
640.14	1019.19
640.49	1012.66
640.83	1006.33
641.17	1000.04
641.52	993.64
641.86	987.23
642.20	981.50
642.55	975.22
642.89	968.68
643.23	962.18
643.58	956.36
643.92	950.12
644.26	943.98
644.61	937.96
644.95	931.84
645.29	925.08
645.64	918.32
645.98	912.00
646.32	906.13
646.66	900.09
647.01	894.33
647.35	888.62
647.69	882.82
648.04	877.25
648.38	871.44
648.72	865.47
649.06	859.41
649.41	853.43
649.75	847.39
650.09	841.44
650.43	835.52
650.78	829.49
651.12	823.53
651.46	817.84
651.80	812.05
652.14	806.72
652.49	801.41
652.83	796.30
653.17	790.57
653.51	784.83
653.85	779.46
654.20	773.84
654.54	767.84
654.88	762.07
655.22	756.16
655.56	750.50
655.90	745.03
656.25	739.80
656.59	734.52
656.93	729.44
657.27	724.29
657.61	718.94
657.95	713.77
658.29	708.69
658.64	703.41
658.98	698.15
659.32	692.69
659.66	687.45
660.00	682.15
660.34	677.22
660.68	672.37
661.02	667.29
661.36	662.53
661.70	658.01
662.05	653.67
662.39	649.30
662.73	644.83
663.07	640.49
663.41	636.05
663.75	631.52
664.09	627.02
664.43	622.63
664.77	618.56
665.11	614.34
665.45	610.22
665.79	606.10
666.13	601.90
666.47	597.83
666.81	593.69
667.15	589.58
667.49	585.74
667.83	581.89
668.17	577.92
668.51	573.85
668.85	569.88
669.19	566.00
669.53	562.20
669.87	558.30
670.21	554.62
670.55	550.99
670.89	547.53
671.23	544.03
671.57	540.53
671.91	536.89
672.25	533.41
672.58	529.90
672.92	526.54
673.26	523.43
673.60	520.32
673.94	517.23
674.28	514.30
674.62	511.36
674.96	508.27
675.30	505.36
675.64	502.46
675.97	499.70
676.31	496.81
676.65	493.88
676.99	491.18
677.33	488.19
677.67	485.39
678.01	482.40
678.34	479.43
678.68	476.54
679.02	473.80
679.36	471.01
679.70	468.32
680.04	465.57
680.37	462.65
680.71	459.87
681.05	457.26
681.39	454.54
681.73	451.92
682.06	449.37
682.40	446.88
682.74	444.36
683.08	441.80
683.42	439.26
683.75	436.77
684.09	434.27
684.43	431.96
684.77	429.49
685.10	427.17
685.44	424.94
685.78	422.71
686.12	420.48
686.45	418.22
686.79	415.94
687.13	413.78
687.46	411.68
687.80	409.49
688.14	407.31
688.48	405.25
688.81	402.97
689.15	400.83
689.49	398.66
689.82	396.61
690.16	394.57
690.50	392.61
690.83	390.66
691.17	388.68
691.51	386.75
691.84	384.88
692.18	382.96
692.52	380.94
692.85	378.98
693.19	377.12
693.52	375.30
693.86	373.53
694.20	371.75
694.53	369.94
694.87	368.13
695.21	366.35
695.54	364.54
695.88	362.83
696.21	361.14
696.55	359.51
696.88	357.85
697.22	356.17
697.56	354.53
697.89	352.87
698.23	351.30
698.56	349.69
698.90	348.11
699.23	346.42
699.57	344.84
699.90	343.32
700.24	341.75
700.58	340.23
700.91	338.69
701.25	337.26
701.58	335.91
701.92	334.58
702.25	333.22
702.59	331.85
702.92	330.53
703.26	329.24
703.59	327.92
703.93	326.71
704.26	325.50
704.60	324.24
704.93	322.96
705.26	321.71
705.60	320.50
705.93	319.35
706.27	318.33
706.60	317.33
706.94	316.27
707.27	315.16
707.61	314.10
707.94	313.12
708.27	311.99
708.61	310.90
708.94	309.87
709.28	308.92
709.61	307.98
709.94	307.01
710.28	305.98
710.61	305.03
710.95	303.97
711.28	303.04
711.61	302.09
711.95	301.21
712.28	300.23
712.61	299.27
712.95	298.33
713.28	297.45
713.61	296.53
713.95	295.63
714.28	294.83
714.61	293.93
714.95	293.06
715.28	292.25
715.61	291.36
715.95	290.52
716.28	289.64
716.61	288.78
716.95	287.97
717.28	287.24
717.61	286.45
717.94	285.68
718.28	284.88
718.61	284.17
718.94	283.46
719.27	282.82
719.61	282.15
719.94	281.49
720.27	280.78
720.60	280.14
720.94	279.49
721.27	278.82
721.60	278.28
721.93	277.67
722.27	277.07
722.60	276.52
722.93	275.91
723.26	275.37
723.59	274.83
723.93	274.28
724.26	273.74
724.59	273.22
724.92	272.70
725.25	272.21
725.59	271.68
725.92	271.20
726.25	270.66
726.58	270.16
726.91	269.64
727.24	269.19
727.57	268.73
727.91	268.26
728.24	267.80
728.57	267.28
728.90	266.84
729.23	266.37
729.56	265.97
729.89	265.53
730.22	265.05
730.55	264.58
730.89	264.15
731.22	263.70
731.55	263.22
731.88	262.83
732.21	262.39
732.54	261.97
732.87	261.48
733.20	261.11
733.53	260.76
733.86	260.41
734.19	259.99
734.52	259.60
734.85	259.26
735.18	258.87
735.51	258.54
735.84	258.16
736.17	257.80
736.50	257.38
736.83	257.14
737.16	256.81
737.49	256.50
737.82	256.16
738.15	255.83
738.48	255.53
738.81	255.21
739.14	254.88
739.47	254.58
739.80	254.32
740.13	254.03
740.46	253.70
740.79	253.35
741.12	253.04
741.45	252.73
741.78	252.42
742.11	252.12
742.44	251.76
742.77	251.50
743.10	251.20
743.43	250.92
743.75	250.54
744.08	250.38
744.41	250.11
744.74	249.85
745.07	249.56
745.40	249.32
745.73	249.09
746.06	248.82
746.39	248.55
746.71	248.30
747.04	248.02
747.37	247.74
747.70	247.51
748.03	247.27
748.36	247.05
748.68	246.78
749.01	246.53
749.34	246.37
749.67	246.12
750.00	245.93
750.33	245.75
750.65	245.54
750.98	245.18
751.31	244.98
751.64	244.77
751.97	244.61
752.29	244.37
752.62	244.09
752.95	243.88
753.28	243.68
753.60	243.47
753.93	243.30
754.26	243.14
754.59	242.88
754.91	242.69
755.24	242.53
755.57	242.33
755.90	242.17
756.22	241.92
756.55	241.75
756.88	241.53
757.20	241.32
757.53	241.11
757.86	240.94
758.19	240.76
758.51	240.55
758.84	240.35
759.17	240.18
759.49	239.99
759.82	239.87
760.15	239.68
760.47	239.52
760.80	239.29
761.13	239.17
761.45	239.04
761.78	238.89
762.11	238.71
762.43	238.57
762.76	238.43
763.08	238.30
763.41	238.17
763.74	238.06
764.06	237.86
764.39	237.78
764.71	237.65
765.04	237.52
765.37	237.40
765.69	237.26
766.02	237.14
766.34	237.05
766.67	236.91
767.00	236.80
767.32	236.71
767.65	236.71
767.97	236.58
768.30	236.50
768.62	236.39
768.95	236.25
769.27	236.13
769.60	236.03
769.92	235.95
770.25	235.83
770.57	235.71
770.90	235.63
771.22	235.53
771.55	235.46
771.87	235.38
772.20	235.28
772.52	235.25
772.85	235.30
773.17	235.21
773.50	235.11
773.82	235.04
774.15	234.92
774.47	234.77
774.80	234.68
775.12	234.59
775.45	234.53
775.77	234.46
776.09	234.41
776.42	234.33
776.74	234.27
777.07	234.15
777.39	234.07
777.72	233.96
778.04	233.87
778.36	233.75
778.69	233.67
779.01	233.61
779.33	233.48
779.66	233.28
779.98	233.20
780.31	233.12
780.63	233.11
780.95	233.09
781.28	233.04
781.60	232.96
781.92	232.88
782.25	232.81
782.57	232.76
782.89	232.67
783.22	232.63
783.54	232.55
783.86	232.55
784.19	232.49
784.51	232.48
784.83	232.43
785.16	232.43
785.48	232.39
785.80	232.35
786.12	232.30
786.45	232.27
786.77	232.22
787.09	232.20
