SpectraSuite Data File
++++++++++++++++++++++++++++++++++++
Date: Fri Feb 01 16:24:23 EST 2013
User: group
Dark Spectrum Present: No
Reference Spectrum Present: No
Number of Sampled Component Spectra: 1
Spectrometers: USB2E7196
Integration Time (usec): 35000 (USB2E7196)
Spectra Averaged: 100 (USB2E7196)
Boxcar Smoothing: 10 (USB2E7196)
Correct for Electrical Dark: No (USB2E7196)
Strobe/Lamp Enabled: No (USB2E7196)
Correct for Detector Non-linearity: No (USB2E7196)
Correct for Stray Light: No (USB2E7196)
Number of Pixels in Processed Spectrum: 2048
>>>>>Begin Processed Spectral Data<<<<<
339.09	0.00
339.48	214.23
339.86	215.88
340.24	216.52
340.63	218.26
341.01	221.36
341.39	221.17
341.78	222.47
342.16	223.41
342.54	224.49
342.93	212.54
343.31	223.26
343.69	223.78
344.07	224.23
344.46	224.69
344.84	225.07
345.22	225.28
345.60	225.52
345.99	225.70
346.37	225.83
346.75	225.89
347.13	225.93
347.52	225.95
347.90	226.00
348.28	226.00
348.66	226.04
349.05	226.05
349.43	226.11
349.81	226.16
350.19	226.22
350.57	226.27
350.96	226.33
351.34	226.42
351.72	226.50
352.10	226.60
352.48	226.64
352.87	226.70
353.25	226.79
353.63	226.85
354.01	226.93
354.39	227.01
354.77	227.11
355.15	227.22
355.54	227.31
355.92	227.36
356.30	227.42
356.68	227.55
357.06	227.62
357.44	227.65
357.82	227.69
358.20	227.74
358.58	227.82
358.97	227.90
359.35	227.97
359.73	228.05
360.11	228.09
360.49	228.18
360.87	228.25
361.25	228.29
361.63	228.37
362.01	228.38
362.39	228.41
362.77	228.47
363.15	228.51
363.53	228.56
363.91	228.58
364.29	228.64
364.67	228.57
365.05	228.62
365.43	228.63
365.81	228.64
366.19	228.72
366.57	228.71
366.95	228.69
367.33	228.67
367.71	228.65
368.09	228.64
368.47	228.62
368.85	228.56
369.23	228.57
369.61	228.54
369.99	228.58
370.37	228.57
370.75	228.53
371.13	228.45
371.51	228.39
371.89	228.34
372.27	228.27
372.65	228.22
373.03	228.16
373.41	228.13
373.78	228.08
374.16	227.96
374.54	227.89
374.92	227.81
375.30	227.76
375.68	227.72
376.06	227.65
376.44	227.59
376.82	227.54
377.19	227.46
377.57	227.37
377.95	227.25
378.33	227.17
378.71	227.07
379.09	227.04
379.47	226.99
379.84	226.91
380.22	226.82
380.60	226.75
380.98	226.69
381.36	226.61
381.73	226.52
382.11	226.48
382.49	226.43
382.87	226.36
383.25	226.31
383.62	226.35
384.00	226.29
384.38	226.24
384.76	226.18
385.13	226.17
385.51	226.10
385.89	226.03
386.27	225.98
386.64	225.94
387.02	225.89
387.40	225.83
387.78	225.82
388.15	225.79
388.53	225.77
388.91	225.74
389.29	225.71
389.66	225.69
390.04	225.65
390.42	225.67
390.79	225.65
391.17	225.65
391.55	225.52
391.92	225.51
392.30	225.50
392.68	225.51
393.05	225.47
393.43	225.46
393.81	225.49
394.18	225.47
394.56	225.48
394.94	225.49
395.31	225.51
395.69	225.55
396.06	225.60
396.44	225.64
396.82	225.65
397.19	225.73
397.57	225.78
397.95	225.83
398.32	225.83
398.70	225.93
399.07	225.98
399.45	226.04
399.82	226.11
400.20	226.19
400.58	226.26
400.95	226.32
401.33	226.44
401.70	226.60
402.08	226.69
402.45	226.81
402.83	226.93
403.20	226.99
403.58	227.10
403.95	227.22
404.33	227.34
404.71	227.46
405.08	227.67
405.46	227.78
405.83	227.91
406.21	228.08
406.58	228.27
406.96	228.44
407.33	228.63
407.70	228.83
408.08	229.08
408.45	229.30
408.83	229.52
409.20	229.71
409.58	229.88
409.95	230.14
410.33	230.42
410.70	230.66
411.08	231.00
411.45	231.30
411.82	231.57
412.20	231.92
412.57	232.36
412.95	232.62
413.32	233.03
413.69	233.44
414.07	233.86
414.44	234.28
414.82	234.76
415.19	235.31
415.56	235.84
415.94	236.37
416.31	237.01
416.68	237.65
417.06	238.37
417.43	239.08
417.81	239.82
418.18	240.59
418.55	241.47
418.93	242.33
419.30	243.25
419.67	244.19
420.04	245.12
420.42	246.06
420.79	247.24
421.16	248.38
421.54	249.62
421.91	250.82
422.28	252.07
422.66	253.38
423.03	254.65
423.40	255.99
423.77	257.41
424.15	258.78
424.52	260.25
424.89	261.87
425.26	263.40
425.64	264.87
426.01	266.44
426.38	268.07
426.75	269.73
427.13	271.42
427.50	273.20
427.87	275.06
428.24	276.93
428.61	278.65
428.99	280.57
429.36	282.63
429.73	284.71
430.10	286.72
430.47	288.76
430.85	290.89
431.22	293.18
431.59	295.54
431.96	297.81
432.33	300.29
432.70	302.63
433.08	305.41
433.45	308.01
433.82	310.60
434.19	313.44
434.56	316.25
434.93	318.85
435.30	321.48
435.68	324.41
436.05	327.23
436.42	329.98
436.79	332.45
437.16	335.12
437.53	337.90
437.90	340.69
438.27	343.45
438.64	346.26
439.01	348.80
439.38	351.01
439.75	353.12
440.13	355.58
440.50	357.91
440.87	359.76
441.24	361.69
441.61	363.83
441.98	365.36
442.35	367.15
442.72	369.02
443.09	370.83
443.46	371.82
443.83	372.42
444.20	372.94
444.57	373.82
444.94	374.09
445.31	374.43
445.68	374.76
446.05	374.84
446.42	374.44
446.79	373.99
447.16	373.56
447.53	373.28
447.90	372.12
448.27	370.98
448.64	369.41
449.01	368.30
449.37	366.37
449.74	364.44
450.11	362.18
450.48	359.71
450.85	357.18
451.22	355.01
451.59	352.99
451.96	351.09
452.33	348.51
452.70	346.18
453.07	343.39
453.43	340.53
453.80	337.76
454.17	335.13
454.54	332.60
454.91	329.91
455.28	327.24
455.65	324.77
456.02	322.34
456.38	320.17
456.75	317.49
457.12	315.26
457.49	313.09
457.86	310.93
458.23	309.10
458.59	307.11
458.96	305.09
459.33	303.24
459.70	301.36
460.07	299.86
460.43	298.14
460.80	296.54
461.17	295.10
461.54	293.62
461.91	292.18
462.27	290.76
462.64	289.50
463.01	288.13
463.38	286.85
463.74	285.50
464.11	284.37
464.48	283.38
464.85	282.27
465.21	281.41
465.58	280.52
465.95	279.42
466.32	278.52
466.68	277.59
467.05	276.69
467.42	275.83
467.78	274.90
468.15	274.04
468.52	273.37
468.88	272.52
469.25	271.75
469.62	271.17
469.98	270.51
470.35	269.90
470.72	269.31
471.08	268.64
471.45	268.10
471.82	267.53
472.18	266.95
472.55	266.54
472.92	266.00
473.28	265.55
473.65	265.13
474.02	264.66
474.38	264.27
474.75	263.98
475.11	263.66
475.48	263.41
475.85	263.20
476.21	262.97
476.58	262.80
476.94	262.65
477.31	262.47
477.67	262.33
478.04	262.23
478.41	262.20
478.77	262.28
479.14	262.23
479.50	262.31
479.87	262.38
480.23	262.47
480.60	262.55
480.96	262.64
481.33	262.87
481.69	263.09
482.06	263.31
482.42	263.51
482.79	263.75
483.15	264.12
483.52	264.50
483.88	264.88
484.25	265.29
484.61	265.71
484.98	266.17
485.34	266.70
485.71	267.30
486.07	267.91
486.44	268.46
486.80	269.18
487.17	269.87
487.53	270.69
487.90	271.54
488.26	272.46
488.62	273.49
488.99	274.45
489.35	275.51
489.72	276.67
490.08	277.89
490.44	279.17
490.81	280.47
491.17	281.82
491.54	283.28
491.90	284.81
492.26	286.47
492.63	288.19
492.99	290.00
493.36	291.87
493.72	293.94
494.08	296.07
494.45	298.33
494.81	300.70
495.17	303.14
495.54	305.71
495.90	308.42
496.26	311.21
496.63	314.18
496.99	317.31
497.35	320.56
497.72	323.96
498.08	327.49
498.44	331.19
498.80	335.16
499.17	339.21
499.53	343.38
499.89	347.73
500.26	352.25
500.62	356.92
500.98	361.88
501.34	366.96
501.71	372.33
502.07	377.79
502.43	383.43
502.79	389.25
503.16	395.33
503.52	401.59
503.88	408.01
504.24	414.59
504.60	421.47
504.97	428.61
505.33	435.92
505.69	443.59
506.05	451.38
506.41	459.26
506.78	467.38
507.14	475.83
507.50	484.53
507.86	493.59
508.22	502.81
508.59	512.03
508.95	521.58
509.31	531.33
509.67	541.41
510.03	551.71
510.39	562.22
510.75	573.02
511.12	583.99
511.48	595.30
511.84	606.77
512.20	618.28
512.56	630.27
512.92	642.42
513.28	654.81
513.64	667.24
514.00	679.91
514.37	692.88
514.73	705.95
515.09	719.02
515.45	732.26
515.81	745.80
516.17	759.77
516.53	773.92
516.89	788.09
517.25	802.31
517.61	816.69
517.97	831.20
518.33	845.60
518.69	860.25
519.05	875.17
519.41	890.32
519.77	905.85
520.13	921.20
520.49	936.56
520.85	951.90
521.21	967.51
521.57	983.79
521.93	999.41
522.29	1015.73
522.65	1031.90
523.01	1048.09
523.37	1063.93
523.73	1080.07
524.09	1096.10
524.45	1112.35
524.81	1128.86
525.17	1145.59
525.53	1162.42
525.89	1179.31
526.25	1196.14
526.61	1212.51
526.97	1229.14
527.33	1245.50
527.68	1262.04
528.04	1278.45
528.40	1295.01
528.76	1312.06
529.12	1328.49
529.48	1345.38
529.84	1361.28
530.20	1377.80
530.56	1394.73
530.91	1412.27
531.27	1428.88
531.63	1445.29
531.99	1461.74
532.35	1477.59
532.71	1493.34
533.07	1509.48
533.42	1525.22
533.78	1541.19
534.14	1557.35
534.50	1572.70
534.86	1588.47
535.21	1603.63
535.57	1619.39
535.93	1634.70
536.29	1649.42
536.65	1664.40
537.00	1679.05
537.36	1694.28
537.72	1708.80
538.08	1723.01
538.44	1736.52
538.79	1750.36
539.15	1763.83
539.51	1777.60
539.87	1791.79
540.22	1805.44
540.58	1819.11
540.94	1832.35
541.29	1845.14
541.65	1857.67
542.01	1870.85
542.37	1883.07
542.72	1895.34
543.08	1907.11
543.44	1919.51
543.79	1930.58
544.15	1941.48
544.51	1953.05
544.87	1964.14
545.22	1974.88
545.58	1985.21
545.94	1994.99
546.29	2004.85
546.65	2014.68
547.01	2023.70
547.36	2032.39
547.72	2040.91
548.07	2048.79
548.43	2056.87
548.79	2064.84
549.14	2072.45
549.50	2079.64
549.86	2087.26
550.21	2094.55
550.57	2101.64
550.92	2108.12
551.28	2115.11
551.64	2122.09
551.99	2128.43
552.35	2134.48
552.70	2140.48
553.06	2146.39
553.41	2152.75
553.77	2158.77
554.13	2164.84
554.48	2171.16
554.84	2176.68
555.19	2181.83
555.55	2187.00
555.90	2191.54
556.26	2196.33
556.61	2200.92
556.97	2205.28
557.32	2209.50
557.68	2213.66
558.03	2217.99
558.39	2221.79
558.74	2226.53
559.10	2230.41
559.45	2234.23
559.81	2238.36
560.16	2242.37
560.52	2245.68
560.87	2249.02
561.23	2251.59
561.58	2254.52
561.94	2257.04
562.29	2259.41
562.64	2262.14
563.00	2264.63
563.35	2268.13
563.71	2271.34
564.06	2274.71
564.42	2277.58
564.77	2280.04
565.12	2282.35
565.48	2284.30
565.83	2286.11
566.19	2287.46
566.54	2288.40
566.89	2289.51
567.25	2290.23
567.60	2291.47
567.96	2293.10
568.31	2294.15
568.66	2295.31
569.02	2295.95
569.37	2296.24
569.72	2297.21
570.08	2297.54
570.43	2297.68
570.78	2297.15
571.14	2295.67
571.49	2294.29
571.84	2293.91
572.20	2292.91
572.55	2291.85
572.90	2290.38
573.26	2288.95
573.61	2287.33
573.96	2285.65
574.31	2282.83
574.67	2279.97
575.02	2276.41
575.37	2273.11
575.72	2269.17
576.08	2265.92
576.43	2262.68
576.78	2259.07
577.13	2255.79
577.49	2252.56
577.84	2249.08
578.19	2245.43
578.54	2241.81
578.90	2237.57
579.25	2232.15
579.60	2227.13
579.95	2222.12
580.30	2217.13
580.66	2212.11
581.01	2207.19
581.36	2202.39
581.71	2198.22
582.06	2193.75
582.42	2189.40
582.77	2184.21
583.12	2179.85
583.47	2175.16
583.82	2170.11
584.17	2164.92
584.53	2159.53
584.88	2154.02
585.23	2148.39
585.58	2142.92
585.93	2137.48
586.28	2132.82
586.63	2127.78
586.98	2122.92
587.34	2118.37
587.69	2113.49
588.04	2108.27
588.39	2102.64
588.74	2096.19
589.09	2089.95
589.44	2083.14
589.79	2077.13
590.14	2071.54
590.49	2064.98
590.84	2058.55
591.19	2052.67
591.54	2046.21
591.89	2038.89
592.25	2032.31
592.60	2025.11
592.95	2017.67
593.30	2010.36
593.65	2002.79
594.00	1995.91
594.35	1988.62
594.70	1980.61
595.05	1973.47
595.40	1966.17
595.75	1958.66
596.10	1952.55
596.45	1946.02
596.80	1939.96
597.15	1933.36
597.50	1926.34
597.85	1919.89
598.19	1913.25
598.54	1906.09
598.89	1899.52
599.24	1893.69
599.59	1886.87
599.94	1880.76
600.29	1874.30
600.64	1867.79
600.99	1860.37
601.34	1853.52
601.69	1846.57
602.04	1839.83
602.39	1832.48
602.74	1825.67
603.08	1818.93
603.43	1812.13
603.78	1804.76
604.13	1797.53
604.48	1790.22
604.83	1783.44
605.18	1776.51
605.53	1768.66
605.87	1760.66
606.22	1753.47
606.57	1745.57
606.92	1738.23
607.27	1731.13
607.62	1724.30
607.96	1717.15
608.31	1710.60
608.66	1702.96
609.01	1695.43
609.36	1687.79
609.70	1679.86
610.05	1671.97
610.40	1664.38
610.75	1656.07
611.10	1648.41
611.44	1640.04
611.79	1632.07
612.14	1623.22
612.49	1614.02
612.83	1605.70
613.18	1597.79
613.53	1589.69
613.88	1581.12
614.22	1572.91
614.57	1564.18
614.92	1556.19
615.27	1548.56
615.61	1540.19
615.96	1532.15
616.31	1524.52
616.65	1517.10
617.00	1509.58
617.35	1501.82
617.70	1493.45
618.04	1484.95
618.39	1476.79
618.74	1469.10
619.08	1460.81
619.43	1453.30
619.78	1446.45
620.12	1439.20
620.47	1431.54
620.82	1423.39
621.16	1415.86
621.51	1408.23
621.85	1400.57
622.20	1392.08
622.55	1383.70
622.89	1375.93
623.24	1368.18
623.59	1360.78
623.93	1353.30
624.28	1346.01
624.62	1338.53
624.97	1331.31
625.32	1324.59
625.66	1317.49
626.01	1310.44
626.35	1303.06
626.70	1295.32
627.04	1287.59
627.39	1279.67
627.73	1272.28
628.08	1265.30
628.43	1257.96
628.77	1250.57
629.12	1243.05
629.46	1235.77
629.81	1228.36
630.15	1221.16
630.50	1213.90
630.84	1205.69
631.19	1197.71
631.53	1190.15
631.88	1182.49
632.22	1174.96
632.57	1167.71
632.91	1160.16
633.26	1152.67
633.60	1145.21
633.95	1138.09
634.29	1131.11
634.64	1124.59
634.98	1117.18
635.32	1110.02
635.67	1103.48
636.01	1096.81
636.36	1089.96
636.70	1083.41
637.05	1076.82
637.39	1070.27
637.73	1063.71
638.08	1057.79
638.42	1051.83
638.77	1045.41
639.11	1038.87
639.45	1032.47
639.80	1025.78
640.14	1019.36
640.49	1012.89
640.83	1006.62
641.17	1000.36
641.52	993.95
641.86	987.40
642.20	981.58
642.55	975.37
642.89	968.99
643.23	962.53
643.58	956.75
643.92	950.57
644.26	944.52
644.61	938.56
644.95	932.54
645.29	925.92
645.64	919.17
645.98	912.78
646.32	906.99
646.66	900.95
647.01	895.16
647.35	889.48
647.69	883.58
648.04	878.09
648.38	872.31
648.72	866.36
649.06	860.36
649.41	854.50
649.75	848.43
650.09	842.49
650.43	836.68
650.78	830.59
651.12	824.63
651.46	818.93
651.80	813.11
652.14	807.80
652.49	802.53
652.83	797.28
653.17	791.70
653.51	785.93
653.85	780.43
654.20	774.74
654.54	768.72
654.88	762.95
655.22	756.98
655.56	751.34
655.90	745.84
656.25	740.56
656.59	735.18
656.93	730.16
657.27	725.08
657.61	719.59
657.95	714.46
658.29	709.37
658.64	704.11
658.98	698.80
659.32	693.23
659.66	687.99
660.00	682.75
660.34	677.72
660.68	672.83
661.02	667.82
661.36	663.08
661.70	658.61
662.05	654.33
662.39	650.02
662.73	645.46
663.07	641.06
663.41	636.63
663.75	632.11
664.09	627.52
664.43	623.01
664.77	618.92
665.11	614.62
665.45	610.53
665.79	606.42
666.13	602.34
666.47	598.26
666.81	594.04
667.15	589.88
667.49	586.02
667.83	582.15
668.17	578.22
668.51	574.11
668.85	570.14
669.19	566.29
669.53	562.41
669.87	558.56
670.21	554.92
670.55	551.31
670.89	547.91
671.23	544.49
671.57	540.99
671.91	537.43
672.25	533.96
672.58	530.38
672.92	526.96
673.26	523.78
673.60	520.61
673.94	517.55
674.28	514.68
674.62	511.66
674.96	508.56
675.30	505.65
675.64	502.78
675.97	499.99
676.31	497.10
676.65	494.20
676.99	491.52
677.33	488.56
677.67	485.73
678.01	482.61
678.34	479.58
678.68	476.71
679.02	473.94
679.36	471.16
679.70	468.45
680.04	465.70
680.37	462.82
680.71	460.01
681.05	457.41
681.39	454.64
681.73	452.02
682.06	449.51
682.40	446.98
682.74	444.45
683.08	441.87
683.42	439.25
683.75	436.76
684.09	434.15
684.43	431.70
684.77	429.21
685.10	426.94
685.44	424.69
685.78	422.40
686.12	420.15
686.45	417.85
686.79	415.58
687.13	413.38
687.46	411.23
687.80	409.07
688.14	406.87
688.48	404.84
688.81	402.61
689.15	400.46
689.49	398.32
689.82	396.25
690.16	394.16
690.50	392.22
690.83	390.29
691.17	388.33
691.51	386.47
691.84	384.59
692.18	382.64
692.52	380.60
692.85	378.66
693.19	376.76
693.52	374.92
693.86	373.06
694.20	371.31
694.53	369.52
694.87	367.71
695.21	365.86
695.54	364.03
695.88	362.28
696.21	360.58
696.55	358.88
696.88	357.20
697.22	355.53
697.56	353.91
697.89	352.24
698.23	350.66
698.56	349.06
698.90	347.48
699.23	345.85
699.57	344.32
699.90	342.79
700.24	341.22
700.58	339.71
700.91	338.25
701.25	336.80
701.58	335.40
701.92	334.02
702.25	332.66
702.59	331.27
702.92	329.90
703.26	328.58
703.59	327.32
703.93	326.09
704.26	324.88
704.60	323.55
704.93	322.25
705.26	320.99
705.60	319.80
705.93	318.68
706.27	317.64
706.60	316.55
706.94	315.47
707.27	314.37
707.61	313.31
707.94	312.26
708.27	311.10
708.61	310.01
708.94	309.01
709.28	308.03
709.61	307.05
709.94	306.12
710.28	305.08
710.61	304.09
710.95	303.04
711.28	302.07
711.61	301.11
711.95	300.21
712.28	299.24
712.61	298.21
712.95	297.25
713.28	296.39
713.61	295.51
713.95	294.60
714.28	293.78
714.61	292.89
714.95	292.00
715.28	291.15
715.61	290.30
715.95	289.42
716.28	288.59
716.61	287.78
716.95	286.94
717.28	286.17
717.61	285.40
717.94	284.64
718.28	283.84
718.61	283.14
718.94	282.42
719.27	281.76
719.61	281.16
719.94	280.52
720.27	279.79
720.60	279.11
720.94	278.48
721.27	277.89
721.60	277.36
721.93	276.82
722.27	276.29
722.60	275.72
722.93	275.14
723.26	274.61
723.59	274.02
723.93	273.52
724.26	273.01
724.59	272.44
724.92	271.93
725.25	271.46
725.59	270.94
725.92	270.42
726.25	269.91
726.58	269.39
726.91	268.87
727.24	268.41
727.57	267.95
727.91	267.44
728.24	266.90
728.57	266.37
728.90	265.91
729.23	265.44
729.56	265.02
729.89	264.56
730.22	264.09
730.55	263.67
730.89	263.21
731.22	262.75
731.55	262.36
731.88	261.92
732.21	261.48
732.54	261.03
732.87	260.62
733.20	260.23
733.53	259.84
733.86	259.50
734.19	259.11
734.52	258.73
734.85	258.42
735.18	258.07
735.51	257.70
735.84	257.30
736.17	256.94
736.50	256.55
736.83	256.35
737.16	255.98
737.49	255.62
737.82	255.26
738.15	254.90
738.48	254.52
738.81	254.17
739.14	253.84
739.47	253.55
739.80	253.23
740.13	252.91
740.46	252.60
740.79	252.23
741.12	251.92
741.45	251.60
741.78	251.25
742.11	250.95
742.44	250.63
742.77	250.36
743.10	250.04
743.43	249.72
743.75	249.35
744.08	249.20
744.41	248.90
744.74	248.63
745.07	248.34
745.40	248.10
745.73	247.89
746.06	247.60
746.39	247.34
746.71	247.10
747.04	246.82
747.37	246.54
747.70	246.31
748.03	246.04
748.36	245.78
748.68	245.54
749.01	245.31
749.34	245.11
749.67	244.88
750.00	244.68
750.33	244.54
750.65	244.28
750.98	243.93
751.31	243.73
751.64	243.51
751.97	243.38
752.29	243.16
752.62	242.91
752.95	242.69
753.28	242.46
753.60	242.25
753.93	242.09
754.26	241.91
754.59	241.69
754.91	241.51
755.24	241.35
755.57	241.15
755.90	240.95
756.22	240.75
756.55	240.57
756.88	240.35
757.20	240.14
757.53	239.96
757.86	239.81
758.19	239.66
758.51	239.53
758.84	239.30
759.17	239.17
759.49	239.03
759.82	238.95
760.15	238.81
760.47	238.67
760.80	238.51
761.13	238.36
761.45	238.22
761.78	238.09
762.11	237.92
762.43	237.80
762.76	237.66
763.08	237.57
763.41	237.43
763.74	237.31
764.06	237.17
764.39	237.06
764.71	236.93
765.04	236.80
765.37	236.65
765.69	236.53
766.02	236.39
766.34	236.23
766.67	236.05
767.00	235.97
767.32	235.90
767.65	235.85
767.97	235.73
768.30	235.59
768.62	235.46
768.95	235.38
769.27	235.27
769.60	235.15
769.92	235.03
770.25	234.89
770.57	234.79
770.90	234.69
771.22	234.55
771.55	234.42
771.87	234.31
772.20	234.24
772.52	234.22
772.85	234.26
773.17	234.19
773.50	234.07
773.82	233.95
774.15	233.82
774.47	233.63
774.80	233.51
775.12	233.46
775.45	233.39
775.77	233.28
776.09	233.19
776.42	233.10
776.74	233.00
777.07	232.92
777.39	232.82
777.72	232.73
778.04	232.70
778.36	232.65
778.69	232.58
779.01	232.47
779.33	232.32
779.66	232.10
779.98	232.04
780.31	232.01
780.63	231.98
780.95	231.90
781.28	231.87
781.60	231.81
781.92	231.72
782.25	231.64
782.57	231.54
782.89	231.47
783.22	231.37
783.54	231.31
783.86	231.26
784.19	231.18
784.51	231.16
784.83	231.05
785.16	230.97
785.48	230.88
785.80	230.83
786.12	230.78
786.45	230.72
786.77	230.66
787.09	230.59
