SpectraSuite Data File
++++++++++++++++++++++++++++++++++++
Date: Fri Feb 01 16:26:09 EST 2013
User: group
Dark Spectrum Present: No
Reference Spectrum Present: No
Number of Sampled Component Spectra: 1
Spectrometers: USB2E7196
Integration Time (usec): 35000 (USB2E7196)
Spectra Averaged: 100 (USB2E7196)
Boxcar Smoothing: 10 (USB2E7196)
Correct for Electrical Dark: No (USB2E7196)
Strobe/Lamp Enabled: No (USB2E7196)
Correct for Detector Non-linearity: No (USB2E7196)
Correct for Stray Light: No (USB2E7196)
Number of Pixels in Processed Spectrum: 2048
>>>>>Begin Processed Spectral Data<<<<<
339.09	0.00
339.48	214.01
339.86	216.12
340.24	216.67
340.63	218.85
341.01	220.62
341.39	220.98
341.78	222.58
342.16	223.08
342.54	224.57
342.93	212.46
343.31	223.22
343.69	223.73
344.07	224.16
344.46	224.60
344.84	224.94
345.22	225.18
345.60	225.39
345.99	225.56
346.37	225.70
346.75	225.78
347.13	225.82
347.52	225.87
347.90	225.95
348.28	225.97
348.66	226.01
349.05	226.01
349.43	226.07
349.81	226.09
350.19	226.12
350.57	226.21
350.96	226.31
351.34	226.36
351.72	226.46
352.10	226.57
352.48	226.63
352.87	226.67
353.25	226.75
353.63	226.84
354.01	226.91
354.39	226.96
354.77	227.05
355.15	227.18
355.54	227.22
355.92	227.22
356.30	227.28
356.68	227.39
357.06	227.45
357.44	227.48
357.82	227.57
358.20	227.64
358.58	227.68
358.97	227.71
359.35	227.80
359.73	227.90
360.11	227.95
360.49	228.00
360.87	228.06
361.25	228.11
361.63	228.21
362.01	228.24
362.39	228.31
362.77	228.32
363.15	228.32
363.53	228.37
363.91	228.39
364.29	228.43
364.67	228.32
365.05	228.36
365.43	228.40
365.81	228.42
366.19	228.47
366.57	228.49
366.95	228.50
367.33	228.44
367.71	228.43
368.09	228.43
368.47	228.40
368.85	228.41
369.23	228.40
369.61	228.33
369.99	228.34
370.37	228.28
370.75	228.32
371.13	228.29
371.51	228.22
371.89	228.23
372.27	228.23
372.65	228.23
373.03	228.17
373.41	228.12
373.78	228.03
374.16	227.95
374.54	227.86
374.92	227.81
375.30	227.77
375.68	227.69
376.06	227.66
376.44	227.57
376.82	227.50
377.19	227.42
377.57	227.34
377.95	227.25
378.33	227.21
378.71	227.06
379.09	227.00
379.47	226.96
379.84	226.89
380.22	226.78
380.60	226.69
380.98	226.60
381.36	226.49
381.73	226.45
382.11	226.40
382.49	226.36
382.87	226.29
383.25	226.24
383.62	226.27
384.00	226.20
384.38	226.18
384.76	226.13
385.13	226.15
385.51	226.12
385.89	226.06
386.27	226.01
386.64	225.99
387.02	225.93
387.40	225.85
387.78	225.79
388.15	225.75
388.53	225.69
388.91	225.66
389.29	225.68
389.66	225.64
390.04	225.58
390.42	225.54
390.79	225.53
391.17	225.49
391.55	225.37
391.92	225.37
392.30	225.38
392.68	225.38
393.05	225.33
393.43	225.32
393.81	225.31
394.18	225.31
394.56	225.29
394.94	225.32
395.31	225.33
395.69	225.35
396.06	225.42
396.44	225.48
396.82	225.51
397.19	225.60
397.57	225.64
397.95	225.68
398.32	225.72
398.70	225.77
399.07	225.85
399.45	225.92
399.82	225.94
400.20	225.97
400.58	226.04
400.95	226.08
401.33	226.19
401.70	226.36
402.08	226.44
402.45	226.57
402.83	226.68
403.20	226.82
403.58	226.95
403.95	227.08
404.33	227.19
404.71	227.33
405.08	227.45
405.46	227.58
405.83	227.74
406.21	227.89
406.58	228.06
406.96	228.21
407.33	228.36
407.70	228.52
408.08	228.79
408.45	229.01
408.83	229.27
409.20	229.45
409.58	229.62
409.95	229.87
410.33	230.13
410.70	230.38
411.08	230.65
411.45	230.93
411.82	231.20
412.20	231.58
412.57	231.98
412.95	232.28
413.32	232.69
413.69	233.10
414.07	233.50
414.44	233.95
414.82	234.40
415.19	234.95
415.56	235.50
415.94	236.06
416.31	236.68
416.68	237.30
417.06	238.03
417.43	238.70
417.81	239.50
418.18	240.29
418.55	241.13
418.93	241.99
419.30	242.91
419.67	243.85
420.04	244.78
420.42	245.79
420.79	246.98
421.16	248.14
421.54	249.34
421.91	250.58
422.28	251.89
422.66	253.27
423.03	254.58
423.40	255.98
423.77	257.35
424.15	258.77
424.52	260.27
424.89	261.91
425.26	263.50
425.64	264.91
426.01	266.49
426.38	268.13
426.75	269.82
427.13	271.54
427.50	273.35
427.87	275.26
428.24	277.09
428.61	278.83
428.99	280.77
429.36	282.86
429.73	284.91
430.10	286.87
430.47	288.93
430.85	291.06
431.22	293.25
431.59	295.64
431.96	297.86
432.33	300.28
432.70	302.57
433.08	305.34
433.45	308.00
433.82	310.63
434.19	313.50
434.56	316.35
434.93	319.01
435.30	321.61
435.68	324.46
436.05	327.32
436.42	330.11
436.79	332.63
437.16	335.29
437.53	338.12
437.90	340.94
438.27	343.65
438.64	346.42
439.01	349.04
439.38	351.27
439.75	353.42
440.13	355.92
440.50	358.34
440.87	360.16
441.24	362.07
441.61	364.18
441.98	365.67
442.35	367.39
442.72	369.23
443.09	371.04
443.46	372.00
443.83	372.55
444.20	373.08
444.57	373.86
444.94	374.16
445.31	374.48
445.68	374.82
446.05	374.85
446.42	374.47
446.79	374.04
447.16	373.57
447.53	373.32
447.90	372.18
448.27	371.02
448.64	369.44
449.01	368.31
449.37	366.37
449.74	364.47
450.11	362.26
450.48	359.81
450.85	357.24
451.22	355.16
451.59	353.15
451.96	351.22
452.33	348.66
452.70	346.32
453.07	343.53
453.43	340.63
453.80	337.92
454.17	335.29
454.54	332.75
454.91	330.08
455.28	327.36
455.65	324.88
456.02	322.42
456.38	320.32
456.75	317.66
457.12	315.41
457.49	313.20
457.86	311.08
458.23	309.22
458.59	307.20
458.96	305.13
459.33	303.32
459.70	301.41
460.07	299.91
460.43	298.19
460.80	296.58
461.17	295.18
461.54	293.68
461.91	292.26
462.27	290.83
462.64	289.58
463.01	288.25
463.38	286.97
463.74	285.60
464.11	284.44
464.48	283.44
464.85	282.34
465.21	281.49
465.58	280.55
465.95	279.45
466.32	278.54
466.68	277.63
467.05	276.70
467.42	275.83
467.78	274.91
468.15	274.06
468.52	273.37
468.88	272.49
469.25	271.72
469.62	271.09
469.98	270.41
470.35	269.77
470.72	269.19
471.08	268.55
471.45	268.02
471.82	267.45
472.18	266.83
472.55	266.43
472.92	265.93
473.28	265.47
473.65	265.03
474.02	264.62
474.38	264.24
474.75	263.93
475.11	263.57
475.48	263.31
475.85	263.08
476.21	262.89
476.58	262.71
476.94	262.56
477.31	262.40
477.67	262.24
478.04	262.13
478.41	262.07
478.77	262.10
479.14	262.02
479.50	262.07
479.87	262.17
480.23	262.21
480.60	262.28
480.96	262.37
481.33	262.58
481.69	262.79
482.06	263.02
482.42	263.24
482.79	263.52
483.15	263.88
483.52	264.26
483.88	264.62
484.25	265.01
484.61	265.44
484.98	265.92
485.34	266.48
485.71	267.08
486.07	267.65
486.44	268.24
486.80	268.95
487.17	269.68
487.53	270.51
487.90	271.39
488.26	272.29
488.62	273.26
488.99	274.24
489.35	275.25
489.72	276.34
490.08	277.55
490.44	278.80
490.81	280.12
491.17	281.49
491.54	282.98
491.90	284.52
492.26	286.20
492.63	287.93
492.99	289.73
493.36	291.61
493.72	293.69
494.08	295.78
494.45	298.02
494.81	300.37
495.17	302.79
495.54	305.31
495.90	308.01
496.26	310.87
496.63	313.81
496.99	316.97
497.35	320.21
497.72	323.65
498.08	327.20
498.44	330.83
498.80	334.76
499.17	338.80
499.53	343.01
499.89	347.37
500.26	351.85
500.62	356.56
500.98	361.54
501.34	366.58
501.71	371.93
502.07	377.45
502.43	383.13
502.79	388.92
503.16	395.02
503.52	401.37
503.88	407.72
504.24	414.32
504.60	421.16
504.97	428.34
505.33	435.63
505.69	443.29
506.05	451.07
506.41	458.94
506.78	467.10
507.14	475.54
507.50	484.21
507.86	493.28
508.22	502.48
508.59	511.68
508.95	521.32
509.31	531.15
509.67	541.14
510.03	551.39
510.39	561.99
510.75	572.82
511.12	583.69
511.48	595.09
511.84	606.64
512.20	618.22
512.56	630.14
512.92	642.32
513.28	654.64
513.64	667.16
514.00	679.86
514.37	692.76
514.73	705.73
515.09	718.81
515.45	731.99
515.81	745.59
516.17	759.57
516.53	773.66
516.89	787.83
517.25	802.05
517.61	816.42
517.97	830.87
518.33	845.19
518.69	859.89
519.05	874.81
519.41	889.92
519.77	905.42
520.13	920.84
520.49	936.23
520.85	951.65
521.21	967.29
521.57	983.50
521.93	999.18
522.29	1015.52
522.65	1031.71
523.01	1047.92
523.37	1063.81
523.73	1080.03
524.09	1095.99
524.45	1112.21
524.81	1128.78
525.17	1145.43
525.53	1162.29
525.89	1179.18
526.25	1196.03
526.61	1212.31
526.97	1228.95
527.33	1245.27
527.68	1261.81
528.04	1278.14
528.40	1294.72
528.76	1311.65
529.12	1328.23
529.48	1345.07
529.84	1361.12
530.20	1377.72
530.56	1394.65
530.91	1412.05
531.27	1428.60
531.63	1444.99
531.99	1461.42
532.35	1477.17
532.71	1493.12
533.07	1509.18
533.42	1524.92
533.78	1540.85
534.14	1557.01
534.50	1572.28
534.86	1588.12
535.21	1603.13
535.57	1618.97
535.93	1634.36
536.29	1649.10
536.65	1663.95
537.00	1678.55
537.36	1693.69
537.72	1708.06
538.08	1722.46
538.44	1736.07
538.79	1749.89
539.15	1763.39
539.51	1777.07
539.87	1791.52
540.22	1805.11
540.58	1818.78
540.94	1832.09
541.29	1844.98
541.65	1857.60
542.01	1870.71
542.37	1883.02
542.72	1895.31
543.08	1906.94
543.44	1919.30
543.79	1930.47
544.15	1941.37
544.51	1953.02
544.87	1963.95
545.22	1974.71
545.58	1984.79
545.94	1994.59
546.29	2004.42
546.65	2014.26
547.01	2023.44
547.36	2031.97
547.72	2040.43
548.07	2048.08
548.43	2056.19
548.79	2064.05
549.14	2071.57
549.50	2078.76
549.86	2086.33
550.21	2093.72
550.57	2101.01
550.92	2107.35
551.28	2114.45
551.64	2121.54
551.99	2127.99
552.35	2134.14
552.70	2140.29
553.06	2146.34
553.41	2152.59
553.77	2158.54
554.13	2164.70
554.48	2170.87
554.84	2176.38
555.19	2181.61
555.55	2186.91
555.90	2191.24
556.26	2196.06
556.61	2200.67
556.97	2205.12
557.32	2209.28
557.68	2213.39
558.03	2217.55
558.39	2221.27
558.74	2225.95
559.10	2229.77
559.45	2233.36
559.81	2237.75
560.16	2241.67
560.52	2244.88
560.87	2248.23
561.23	2250.83
561.58	2253.83
561.94	2256.29
562.29	2258.59
562.64	2261.23
563.00	2263.81
563.35	2267.66
563.71	2270.85
564.06	2274.19
564.42	2277.03
564.77	2279.41
565.12	2281.78
565.48	2283.81
565.83	2285.89
566.19	2287.10
566.54	2288.05
566.89	2289.27
567.25	2289.74
567.60	2290.98
567.96	2292.69
568.31	2293.64
568.66	2294.90
569.02	2295.35
569.37	2295.96
569.72	2296.88
570.08	2297.15
570.43	2297.18
570.78	2296.43
571.14	2294.93
571.49	2293.54
571.84	2293.23
572.20	2292.30
572.55	2291.23
572.90	2289.76
573.26	2288.41
573.61	2286.82
573.96	2285.17
574.31	2282.15
574.67	2279.20
575.02	2275.61
575.37	2272.28
575.72	2268.52
576.08	2265.18
576.43	2261.94
576.78	2258.20
577.13	2255.05
577.49	2251.92
577.84	2248.50
578.19	2244.87
578.54	2241.34
578.90	2237.22
579.25	2231.72
579.60	2226.76
579.95	2221.81
580.30	2216.75
580.66	2211.57
581.01	2206.69
581.36	2201.72
581.71	2197.73
582.06	2193.23
582.42	2188.78
582.77	2183.68
583.12	2179.16
583.47	2174.56
583.82	2169.72
584.17	2164.33
584.53	2158.87
584.88	2153.17
585.23	2147.54
585.58	2142.11
585.93	2136.73
586.28	2132.09
586.63	2127.20
586.98	2122.24
587.34	2117.52
587.69	2112.71
588.04	2107.47
588.39	2101.85
588.74	2095.65
589.09	2089.56
589.44	2082.97
589.79	2077.08
590.14	2071.48
590.49	2064.92
590.84	2058.47
591.19	2052.45
591.54	2046.17
591.89	2038.92
592.25	2032.27
592.60	2025.12
592.95	2017.63
593.30	2010.30
593.65	2002.69
594.00	1995.66
594.35	1988.40
594.70	1980.44
595.05	1973.27
595.40	1965.99
595.75	1958.43
596.10	1952.13
596.45	1945.55
596.80	1939.53
597.15	1932.92
597.50	1925.75
597.85	1919.47
598.19	1912.93
598.54	1905.79
598.89	1899.18
599.24	1893.32
599.59	1886.84
599.94	1880.72
600.29	1874.31
600.64	1867.76
600.99	1860.40
601.34	1853.55
601.69	1846.64
602.04	1839.89
602.39	1832.58
602.74	1825.87
603.08	1819.10
603.43	1812.34
603.78	1804.83
604.13	1797.66
604.48	1790.34
604.83	1783.54
605.18	1776.56
605.53	1768.52
605.87	1760.69
606.22	1753.53
606.57	1745.68
606.92	1738.29
607.27	1731.10
607.62	1724.21
607.96	1716.92
608.31	1710.38
608.66	1702.83
609.01	1695.41
609.36	1687.89
609.70	1679.85
610.05	1671.83
610.40	1664.25
610.75	1655.95
611.10	1648.35
611.44	1639.85
611.79	1631.96
612.14	1623.35
612.49	1614.19
612.83	1605.90
613.18	1597.69
613.53	1589.66
613.88	1581.10
614.22	1572.85
614.57	1564.28
614.92	1556.21
615.27	1548.76
615.61	1540.30
615.96	1532.25
616.31	1524.53
616.65	1517.16
617.00	1509.62
617.35	1501.91
617.70	1493.54
618.04	1485.00
618.39	1476.79
618.74	1469.27
619.08	1460.92
619.43	1453.30
619.78	1446.48
620.12	1439.18
620.47	1431.63
620.82	1423.31
621.16	1415.83
621.51	1408.32
621.85	1400.65
622.20	1392.27
622.55	1383.93
622.89	1376.11
623.24	1368.44
623.59	1361.12
623.93	1353.57
624.28	1346.42
624.62	1338.92
624.97	1331.80
625.32	1325.16
625.66	1318.10
626.01	1310.88
626.35	1303.47
626.70	1295.69
627.04	1287.93
627.39	1280.27
627.73	1272.88
628.08	1265.92
628.43	1258.65
628.77	1251.24
629.12	1243.66
629.46	1236.47
629.81	1228.95
630.15	1221.73
630.50	1214.33
630.84	1206.04
631.19	1198.11
631.53	1190.50
631.88	1182.93
632.22	1175.30
632.57	1167.89
632.91	1160.38
633.26	1152.82
633.60	1145.39
633.95	1138.22
634.29	1131.18
634.64	1124.53
634.98	1117.17
635.32	1110.10
635.67	1103.50
636.01	1096.86
636.36	1089.99
636.70	1083.40
637.05	1076.74
637.39	1070.32
637.73	1063.77
638.08	1057.89
638.42	1051.84
638.77	1045.41
639.11	1038.75
639.45	1032.31
639.80	1025.64
640.14	1019.31
640.49	1012.83
640.83	1006.58
641.17	1000.35
641.52	993.93
641.86	987.40
642.20	981.49
642.55	975.24
642.89	968.84
643.23	962.23
643.58	956.53
643.92	950.27
644.26	944.26
644.61	938.10
644.95	932.07
645.29	925.42
645.64	918.69
645.98	912.31
646.32	906.56
646.66	900.58
647.01	894.78
647.35	888.97
647.69	883.21
648.04	877.64
648.38	871.91
648.72	865.90
649.06	859.85
649.41	854.07
649.75	848.08
650.09	842.07
650.43	836.28
650.78	830.16
651.12	824.28
651.46	818.54
651.80	812.82
652.14	807.50
652.49	802.18
652.83	797.00
653.17	791.31
653.51	785.53
653.85	780.11
654.20	774.52
654.54	768.50
654.88	762.66
655.22	756.74
655.56	751.01
655.90	745.61
656.25	740.41
656.59	734.98
656.93	729.95
657.27	724.80
657.61	719.34
657.95	714.28
658.29	709.23
658.64	704.02
658.98	698.72
659.32	693.20
659.66	688.04
660.00	682.77
660.34	677.85
660.68	672.93
661.02	667.89
661.36	663.11
661.70	658.60
662.05	654.31
662.39	650.00
662.73	645.57
663.07	641.20
663.41	636.72
663.75	632.24
664.09	627.59
664.43	623.19
664.77	619.16
665.11	614.89
665.45	610.75
665.79	606.65
666.13	602.54
666.47	598.51
666.81	594.30
667.15	590.15
667.49	586.25
667.83	582.46
668.17	578.52
668.51	574.52
668.85	570.54
669.19	566.69
669.53	562.83
669.87	558.93
670.21	555.15
670.55	551.47
670.89	548.11
671.23	544.67
671.57	541.12
671.91	537.49
672.25	533.91
672.58	530.34
672.92	526.84
673.26	523.64
673.60	520.44
673.94	517.29
674.28	514.36
674.62	511.41
674.96	508.27
675.30	505.31
675.64	502.36
675.97	499.50
676.31	496.65
676.65	493.71
676.99	490.97
677.33	488.17
677.67	485.42
678.01	482.34
678.34	479.34
678.68	476.49
679.02	473.72
679.36	470.94
679.70	468.26
680.04	465.58
680.37	462.73
680.71	459.94
681.05	457.36
681.39	454.62
681.73	451.90
682.06	449.35
682.40	446.85
682.74	444.30
683.08	441.82
683.42	439.14
683.75	436.67
684.09	434.08
684.43	431.65
684.77	429.12
685.10	426.77
685.44	424.49
685.78	422.16
686.12	419.88
686.45	417.62
686.79	415.29
687.13	413.07
687.46	410.95
687.80	408.84
688.14	406.62
688.48	404.55
688.81	402.34
689.15	400.22
689.49	398.06
689.82	396.04
690.16	393.96
690.50	392.07
690.83	390.11
691.17	388.20
691.51	386.26
691.84	384.42
692.18	382.44
692.52	380.42
692.85	378.53
693.19	376.69
693.52	374.89
693.86	373.09
694.20	371.34
694.53	369.45
694.87	367.57
695.21	365.81
695.54	364.05
695.88	362.32
696.21	360.59
696.55	358.91
696.88	357.19
697.22	355.52
697.56	353.87
697.89	352.25
698.23	350.65
698.56	349.04
698.90	347.48
699.23	345.89
699.57	344.36
699.90	342.76
700.24	341.22
700.58	339.67
700.91	338.16
701.25	336.71
701.58	335.39
701.92	334.01
702.25	332.61
702.59	331.19
702.92	329.91
703.26	328.62
703.59	327.36
703.93	326.16
704.26	324.92
704.60	323.65
704.93	322.35
705.26	321.10
705.60	319.91
705.93	318.73
706.27	317.72
706.60	316.67
706.94	315.63
707.27	314.50
707.61	313.45
707.94	312.44
708.27	311.33
708.61	310.25
708.94	309.28
709.28	308.27
709.61	307.34
709.94	306.35
710.28	305.32
710.61	304.33
710.95	303.27
711.28	302.33
711.61	301.36
711.95	300.46
712.28	299.49
712.61	298.50
712.95	297.53
713.28	296.62
713.61	295.75
713.95	294.85
714.28	294.00
714.61	293.13
714.95	292.24
715.28	291.34
715.61	290.47
715.95	289.56
716.28	288.74
716.61	287.90
716.95	287.09
717.28	286.37
717.61	285.61
717.94	284.86
718.28	284.08
718.61	283.35
718.94	282.61
719.27	281.92
719.61	281.27
719.94	280.62
720.27	279.92
720.60	279.20
720.94	278.56
721.27	277.94
721.60	277.34
721.93	276.73
722.27	276.22
722.60	275.65
722.93	275.08
723.26	274.50
723.59	273.97
723.93	273.43
724.26	272.83
724.59	272.25
724.92	271.70
725.25	271.17
725.59	270.63
725.92	270.11
726.25	269.60
726.58	269.10
726.91	268.60
727.24	268.09
727.57	267.62
727.91	267.11
728.24	266.64
728.57	266.16
728.90	265.71
729.23	265.22
729.56	264.78
729.89	264.31
730.22	263.85
730.55	263.35
730.89	262.88
731.22	262.46
731.55	262.05
731.88	261.63
732.21	261.22
732.54	260.77
732.87	260.38
733.20	260.00
733.53	259.61
733.86	259.24
734.19	258.85
734.52	258.48
734.85	258.18
735.18	257.73
735.51	257.37
735.84	257.01
736.17	256.68
736.50	256.31
736.83	256.09
737.16	255.76
737.49	255.42
737.82	255.10
738.15	254.76
738.48	254.41
738.81	254.08
739.14	253.75
739.47	253.48
739.80	253.17
740.13	252.87
740.46	252.58
740.79	252.24
741.12	251.93
741.45	251.61
741.78	251.28
742.11	251.03
742.44	250.72
742.77	250.46
743.10	250.16
743.43	249.86
743.75	249.47
744.08	249.31
744.41	249.04
744.74	248.76
745.07	248.47
745.40	248.23
745.73	248.01
746.06	247.75
746.39	247.48
746.71	247.17
747.04	246.90
747.37	246.65
747.70	246.42
748.03	246.19
748.36	245.98
748.68	245.72
749.01	245.49
749.34	245.23
749.67	244.98
750.00	244.73
750.33	244.59
750.65	244.40
750.98	244.05
751.31	243.83
751.64	243.61
751.97	243.48
752.29	243.27
752.62	243.00
752.95	242.78
753.28	242.54
753.60	242.35
753.93	242.19
754.26	241.98
754.59	241.79
754.91	241.57
755.24	241.36
755.57	241.18
755.90	241.00
756.22	240.81
756.55	240.62
756.88	240.43
757.20	240.17
757.53	239.93
757.86	239.78
758.19	239.62
758.51	239.47
758.84	239.23
759.17	239.06
759.49	238.91
759.82	238.78
760.15	238.63
760.47	238.52
760.80	238.32
761.13	238.15
761.45	237.97
761.78	237.83
762.11	237.68
762.43	237.54
762.76	237.40
763.08	237.26
763.41	237.15
763.74	237.04
764.06	236.91
764.39	236.81
764.71	236.66
765.04	236.51
765.37	236.36
765.69	236.22
766.02	236.07
766.34	235.94
766.67	235.78
767.00	235.67
767.32	235.58
767.65	235.54
767.97	235.46
768.30	235.38
768.62	235.22
768.95	235.10
769.27	234.98
769.60	234.88
769.92	234.75
770.25	234.60
770.57	234.45
770.90	234.35
771.22	234.24
771.55	234.15
771.87	234.08
772.20	233.99
772.52	234.00
772.85	234.05
773.17	233.94
773.50	233.88
773.82	233.78
774.15	233.62
774.47	233.47
774.80	233.36
775.12	233.25
775.45	233.19
775.77	233.14
776.09	233.05
776.42	232.96
776.74	232.94
777.07	232.88
777.39	232.82
777.72	232.76
778.04	232.71
778.36	232.66
778.69	232.60
779.01	232.53
779.33	232.39
779.66	232.19
779.98	232.10
780.31	231.99
780.63	232.00
780.95	231.97
781.28	231.92
781.60	231.84
781.92	231.77
782.25	231.73
782.57	231.69
782.89	231.63
783.22	231.57
783.54	231.47
783.86	231.44
784.19	231.40
784.51	231.41
784.83	231.36
785.16	231.28
785.48	231.23
785.80	231.16
786.12	231.11
786.45	231.10
786.77	231.10
787.09	231.08
