SpectraSuite Data File
++++++++++++++++++++++++++++++++++++
Date: Fri Feb 01 17:02:58 EST 2013
User: group
Dark Spectrum Present: No
Reference Spectrum Present: No
Number of Sampled Component Spectra: 1
Spectrometers: USB2E7196
Integration Time (usec): 35000 (USB2E7196)
Spectra Averaged: 100 (USB2E7196)
Boxcar Smoothing: 10 (USB2E7196)
Correct for Electrical Dark: No (USB2E7196)
Strobe/Lamp Enabled: No (USB2E7196)
Correct for Detector Non-linearity: No (USB2E7196)
Correct for Stray Light: No (USB2E7196)
Number of Pixels in Processed Spectrum: 2048
>>>>>Begin Processed Spectral Data<<<<<
339.09	0.00
339.48	213.39
339.86	214.33
340.24	216.37
340.63	217.87
341.01	220.26
341.39	219.50
341.78	221.74
342.16	222.93
342.54	223.67
342.93	211.62
343.31	222.31
343.69	222.88
344.07	223.34
344.46	223.77
344.84	224.11
345.22	224.35
345.60	224.64
345.99	224.77
346.37	224.87
346.75	224.92
347.13	225.00
347.52	225.04
347.90	225.12
348.28	225.20
348.66	225.19
349.05	225.20
349.43	225.26
349.81	225.32
350.19	225.35
350.57	225.39
350.96	225.48
351.34	225.57
351.72	225.59
352.10	225.73
352.48	225.81
352.87	225.87
353.25	225.96
353.63	226.00
354.01	226.09
354.39	226.19
354.77	226.30
355.15	226.40
355.54	226.47
355.92	226.52
356.30	226.57
356.68	226.76
357.06	226.85
357.44	226.88
357.82	226.94
358.20	227.05
358.58	227.11
358.97	227.19
359.35	227.25
359.73	227.35
360.11	227.39
360.49	227.40
360.87	227.46
361.25	227.49
361.63	227.60
362.01	227.68
362.39	227.70
362.77	227.76
363.15	227.78
363.53	227.82
363.91	227.86
364.29	227.88
364.67	227.79
365.05	227.83
365.43	227.85
365.81	227.89
366.19	227.93
366.57	227.94
366.95	227.93
367.33	227.93
367.71	227.92
368.09	227.92
368.47	227.94
368.85	227.94
369.23	227.97
369.61	227.87
369.99	227.84
370.37	227.83
370.75	227.84
371.13	227.80
371.51	227.74
371.89	227.71
372.27	227.67
372.65	227.66
373.03	227.61
373.41	227.57
373.78	227.54
374.16	227.43
374.54	227.38
374.92	227.32
375.30	227.23
375.68	227.16
376.06	227.11
376.44	227.02
376.82	226.98
377.19	226.91
377.57	226.85
377.95	226.79
378.33	226.74
378.71	226.61
379.09	226.56
379.47	226.52
379.84	226.44
380.22	226.38
380.60	226.28
380.98	226.20
381.36	226.13
381.73	226.05
382.11	226.00
382.49	225.94
382.87	225.86
383.25	225.80
383.62	225.88
384.00	225.82
384.38	225.79
384.76	225.72
385.13	225.68
385.51	225.66
385.89	225.61
386.27	225.56
386.64	225.54
387.02	225.49
387.40	225.42
387.78	225.38
388.15	225.33
388.53	225.27
388.91	225.21
389.29	225.16
389.66	225.13
390.04	225.10
390.42	225.07
390.79	225.05
391.17	225.03
391.55	224.89
391.92	224.86
392.30	224.88
392.68	224.84
393.05	224.83
393.43	224.81
393.81	224.80
394.18	224.78
394.56	224.75
394.94	224.76
395.31	224.79
395.69	224.82
396.06	224.85
396.44	224.88
396.82	224.92
397.19	224.98
397.57	225.02
397.95	225.08
398.32	225.08
398.70	225.14
399.07	225.20
399.45	225.21
399.82	225.26
400.20	225.27
400.58	225.35
400.95	225.35
401.33	225.45
401.70	225.58
402.08	225.63
402.45	225.72
402.83	225.85
403.20	225.95
403.58	226.02
403.95	226.16
404.33	226.30
404.71	226.43
405.08	226.61
405.46	226.73
405.83	226.87
406.21	227.01
406.58	227.18
406.96	227.37
407.33	227.58
407.70	227.80
408.08	228.07
408.45	228.27
408.83	228.51
409.20	228.70
409.58	228.90
409.95	229.19
410.33	229.44
410.70	229.66
411.08	229.97
411.45	230.28
411.82	230.53
412.20	230.87
412.57	231.24
412.95	231.53
413.32	231.89
413.69	232.29
414.07	232.75
414.44	233.23
414.82	233.66
415.19	234.18
415.56	234.68
415.94	235.22
416.31	235.86
416.68	236.51
417.06	237.21
417.43	237.90
417.81	238.69
418.18	239.45
418.55	240.30
418.93	241.13
419.30	242.02
419.67	243.00
420.04	243.98
420.42	245.00
420.79	246.17
421.16	247.34
421.54	248.52
421.91	249.73
422.28	250.92
422.66	252.29
423.03	253.60
423.40	254.95
423.77	256.34
424.15	257.76
424.52	259.24
424.89	260.89
425.26	262.45
425.64	263.89
426.01	265.54
426.38	267.21
426.75	268.90
427.13	270.66
427.50	272.46
427.87	274.35
428.24	276.19
428.61	277.93
428.99	279.89
429.36	282.00
429.73	284.04
430.10	286.10
430.47	288.10
430.85	290.21
431.22	292.43
431.59	294.83
431.96	297.07
432.33	299.51
432.70	301.85
433.08	304.61
433.45	307.19
433.82	309.73
434.19	312.58
434.56	315.37
434.93	317.99
435.30	320.59
435.68	323.45
436.05	326.25
436.42	329.05
436.79	331.54
437.16	334.20
437.53	337.04
437.90	339.82
438.27	342.53
438.64	345.35
439.01	347.91
439.38	350.11
439.75	352.24
440.13	354.72
440.50	357.00
440.87	358.80
441.24	360.70
441.61	362.86
441.98	364.33
442.35	366.10
442.72	367.91
443.09	369.73
443.46	370.64
443.83	371.23
444.20	371.71
444.57	372.54
444.94	372.87
445.31	373.16
445.68	373.52
446.05	373.64
446.42	373.25
446.79	372.82
447.16	372.38
447.53	372.07
447.90	370.91
448.27	369.82
448.64	368.27
449.01	367.14
449.37	365.17
449.74	363.27
450.11	361.07
450.48	358.61
450.85	356.07
451.22	354.00
451.59	352.01
451.96	350.10
452.33	347.50
452.70	345.10
453.07	342.33
453.43	339.41
453.80	336.68
454.17	334.03
454.54	331.52
454.91	328.84
455.28	326.21
455.65	323.80
456.02	321.35
456.38	319.22
456.75	316.61
457.12	314.40
457.49	312.20
457.86	310.05
458.23	308.22
458.59	306.18
458.96	304.13
459.33	302.25
459.70	300.37
460.07	298.89
460.43	297.17
460.80	295.56
461.17	294.16
461.54	292.66
461.91	291.26
462.27	289.84
462.64	288.60
463.01	287.24
463.38	285.89
463.74	284.51
464.11	283.39
464.48	282.36
464.85	281.26
465.21	280.44
465.58	279.49
465.95	278.42
466.32	277.55
466.68	276.67
467.05	275.82
467.42	274.95
467.78	274.04
468.15	273.22
468.52	272.63
468.88	271.78
469.25	271.04
469.62	270.41
469.98	269.74
470.35	269.16
470.72	268.56
471.08	267.96
471.45	267.41
471.82	266.84
472.18	266.25
472.55	265.83
472.92	265.30
473.28	264.87
473.65	264.43
474.02	264.01
474.38	263.63
474.75	263.29
475.11	262.98
475.48	262.74
475.85	262.51
476.21	262.24
476.58	262.08
476.94	261.95
477.31	261.82
477.67	261.68
478.04	261.56
478.41	261.52
478.77	261.60
479.14	261.57
479.50	261.62
479.87	261.71
480.23	261.80
480.60	261.90
480.96	262.04
481.33	262.27
481.69	262.46
482.06	262.68
482.42	262.91
482.79	263.18
483.15	263.49
483.52	263.90
483.88	264.26
484.25	264.69
484.61	265.11
484.98	265.54
485.34	266.12
485.71	266.68
486.07	267.34
486.44	267.87
486.80	268.61
487.17	269.34
487.53	270.18
487.90	270.98
488.26	271.92
488.62	272.88
488.99	273.85
489.35	274.90
489.72	276.03
490.08	277.23
490.44	278.46
490.81	279.82
491.17	281.14
491.54	282.61
491.90	284.12
492.26	285.77
492.63	287.51
492.99	289.31
493.36	291.19
493.72	293.20
494.08	295.32
494.45	297.53
494.81	299.91
495.17	302.31
495.54	304.92
495.90	307.59
496.26	310.39
496.63	313.36
496.99	316.45
497.35	319.70
497.72	323.07
498.08	326.58
498.44	330.19
498.80	334.08
499.17	338.12
499.53	342.24
499.89	346.57
500.26	351.04
500.62	355.67
500.98	360.59
501.34	365.64
501.71	370.92
502.07	376.32
502.43	381.86
502.79	387.65
503.16	393.71
503.52	399.98
503.88	406.34
504.24	412.90
504.60	419.72
504.97	426.74
505.33	434.01
505.69	441.67
506.05	449.42
506.41	457.25
506.78	465.32
507.14	473.73
507.50	482.27
507.86	491.21
508.22	500.29
508.59	509.45
508.95	518.91
509.31	528.58
509.67	538.62
510.03	548.77
510.39	559.23
510.75	569.78
511.12	580.52
511.48	591.72
511.84	603.03
512.20	614.38
512.56	626.22
512.92	638.23
513.28	650.41
513.64	662.72
514.00	675.26
514.37	688.01
514.73	700.81
515.09	713.72
515.45	726.79
515.81	740.17
516.17	753.85
516.53	767.70
516.89	781.66
517.25	795.55
517.61	809.68
517.97	823.85
518.33	838.06
518.69	852.62
519.05	867.23
519.41	882.10
519.77	897.28
520.13	912.40
520.49	927.52
520.85	942.57
521.21	957.89
521.57	973.73
521.93	989.17
522.29	1005.23
522.65	1021.27
523.01	1037.18
523.37	1053.03
523.73	1068.97
524.09	1084.84
524.45	1100.75
524.81	1117.13
525.17	1133.60
525.53	1150.08
525.89	1166.61
526.25	1183.10
526.61	1199.15
526.97	1215.50
527.33	1231.80
527.68	1248.08
528.04	1264.21
528.40	1280.47
528.76	1297.21
529.12	1313.42
529.48	1329.90
529.84	1345.59
530.20	1361.75
530.56	1378.26
530.91	1395.19
531.27	1411.59
531.63	1427.60
531.99	1443.88
532.35	1459.57
532.71	1475.21
533.07	1491.07
533.42	1506.67
533.78	1522.34
534.14	1538.23
534.50	1553.32
534.86	1568.69
535.21	1583.49
535.57	1598.96
535.93	1614.08
536.29	1628.45
536.65	1643.13
537.00	1657.50
537.36	1672.53
537.72	1686.70
538.08	1700.87
538.44	1714.40
538.79	1727.93
539.15	1741.21
539.51	1754.64
539.87	1768.61
540.22	1781.94
540.58	1795.36
540.94	1808.23
541.29	1820.79
541.65	1833.19
542.01	1845.98
542.37	1858.16
542.72	1870.30
543.08	1881.89
543.44	1894.14
543.79	1905.26
544.15	1916.11
544.51	1927.57
544.87	1938.29
545.22	1948.87
545.58	1959.02
545.94	1968.54
546.29	1978.27
546.65	1988.08
547.01	1997.17
547.36	2005.54
547.72	2013.95
548.07	2021.92
548.43	2029.91
548.79	2037.63
549.14	2045.25
549.50	2052.45
549.86	2059.84
550.21	2067.11
550.57	2074.07
550.92	2080.51
551.28	2087.52
551.64	2094.41
551.99	2100.77
552.35	2106.80
552.70	2113.06
553.06	2119.01
553.41	2125.25
553.77	2131.17
554.13	2137.16
554.48	2143.22
554.84	2148.98
555.19	2154.04
555.55	2159.09
555.90	2163.85
556.26	2168.99
556.61	2173.50
556.97	2178.05
557.32	2182.41
557.68	2186.53
558.03	2190.82
558.39	2194.48
558.74	2199.15
559.10	2203.20
559.45	2206.97
559.81	2211.21
560.16	2214.94
560.52	2218.14
560.87	2221.61
561.23	2224.26
561.58	2227.16
561.94	2229.76
562.29	2231.98
562.64	2235.01
563.00	2237.80
563.35	2241.33
563.71	2244.43
564.06	2247.73
564.42	2250.64
564.77	2253.29
565.12	2255.79
565.48	2257.95
565.83	2259.98
566.19	2261.37
566.54	2262.17
566.89	2263.48
567.25	2264.40
567.60	2265.87
567.96	2267.73
568.31	2268.73
568.66	2270.18
569.02	2271.04
569.37	2271.53
569.72	2272.72
570.08	2273.03
570.43	2273.12
570.78	2272.64
571.14	2271.46
571.49	2270.38
571.84	2270.18
572.20	2269.16
572.55	2268.30
572.90	2266.85
573.26	2265.64
573.61	2264.16
573.96	2262.87
574.31	2260.22
574.67	2257.44
575.02	2254.03
575.37	2250.80
575.72	2247.30
576.08	2243.95
576.43	2240.81
576.78	2237.48
577.13	2234.26
577.49	2231.13
577.84	2227.92
578.19	2224.42
578.54	2221.06
578.90	2217.12
579.25	2211.87
579.60	2207.30
579.95	2202.54
580.30	2197.85
580.66	2192.97
581.01	2188.12
581.36	2183.49
581.71	2179.56
582.06	2175.33
582.42	2171.15
582.77	2166.19
583.12	2161.86
583.47	2157.63
583.82	2153.06
584.17	2148.11
584.53	2143.03
584.88	2137.78
585.23	2132.34
585.58	2126.93
585.93	2121.58
586.28	2116.86
586.63	2111.95
586.98	2107.01
587.34	2102.45
587.69	2097.78
588.04	2092.83
588.39	2087.43
588.74	2080.93
589.09	2074.80
589.44	2068.24
589.79	2062.27
590.14	2056.81
590.49	2050.44
590.84	2044.17
591.19	2038.19
591.54	2031.85
591.89	2024.66
592.25	2018.22
592.60	2011.13
592.95	2003.99
593.30	1996.93
593.65	1989.57
594.00	1982.72
594.35	1975.55
594.70	1967.67
595.05	1960.77
595.40	1953.56
595.75	1946.25
596.10	1940.47
596.45	1934.03
596.80	1928.11
597.15	1921.66
597.50	1914.93
597.85	1908.65
598.19	1902.06
598.54	1895.29
598.89	1888.80
599.24	1882.94
599.59	1876.38
599.94	1870.23
600.29	1863.98
600.64	1857.46
600.99	1850.37
601.34	1843.73
601.69	1836.81
602.04	1830.24
602.39	1823.02
602.74	1816.40
603.08	1809.79
603.43	1803.17
603.78	1795.99
604.13	1788.78
604.48	1781.87
604.83	1775.02
605.18	1768.26
605.53	1760.49
605.87	1752.36
606.22	1745.07
606.57	1737.26
606.92	1729.87
607.27	1723.07
607.62	1716.36
607.96	1709.25
608.31	1702.72
608.66	1695.20
609.01	1687.93
609.36	1680.35
609.70	1672.29
610.05	1664.32
610.40	1656.77
610.75	1648.44
611.10	1640.96
611.44	1632.63
611.79	1624.60
612.14	1616.07
612.49	1606.89
612.83	1598.44
613.18	1590.53
613.53	1582.64
613.88	1574.26
614.22	1566.15
614.57	1557.38
614.92	1549.31
615.27	1541.81
615.61	1533.55
615.96	1525.57
616.31	1517.93
616.65	1510.62
617.00	1503.10
617.35	1495.47
617.70	1487.26
618.04	1478.94
618.39	1470.63
618.74	1463.17
619.08	1454.85
619.43	1447.14
619.78	1440.30
620.12	1433.39
620.47	1425.82
620.82	1417.65
621.16	1410.30
621.51	1402.63
621.85	1395.03
622.20	1386.51
622.55	1378.14
622.89	1370.26
623.24	1362.63
623.59	1355.20
623.93	1347.72
624.28	1340.61
624.62	1333.20
624.97	1326.06
625.32	1319.15
625.66	1312.18
626.01	1305.09
626.35	1297.84
626.70	1290.26
627.04	1282.54
627.39	1274.68
627.73	1267.39
628.08	1260.50
628.43	1253.21
628.77	1245.90
629.12	1238.44
629.46	1231.34
629.81	1223.86
630.15	1216.60
630.50	1209.31
630.84	1201.23
631.19	1193.27
631.53	1185.76
631.88	1178.10
632.22	1170.47
632.57	1163.14
632.91	1155.61
633.26	1148.21
633.60	1140.81
633.95	1133.59
634.29	1126.45
634.64	1119.73
634.98	1112.32
635.32	1105.20
635.67	1098.62
636.01	1092.06
636.36	1085.29
636.70	1078.81
637.05	1072.28
637.39	1065.88
637.73	1059.36
638.08	1053.44
638.42	1047.45
638.77	1041.04
639.11	1034.63
639.45	1028.33
639.80	1021.78
640.14	1015.43
640.49	1008.96
640.83	1002.62
641.17	996.44
641.52	990.25
641.86	983.84
642.20	978.07
642.55	971.73
642.89	965.22
643.23	958.63
643.58	952.90
643.92	946.76
644.26	940.84
644.61	934.86
644.95	928.83
645.29	922.39
645.64	915.72
645.98	909.44
646.32	903.49
646.66	897.42
647.01	891.69
647.35	885.99
647.69	880.08
648.04	874.51
648.38	868.81
648.72	862.94
649.06	857.02
649.41	851.15
649.75	845.32
650.09	839.54
650.43	833.80
650.78	827.72
651.12	821.75
651.46	816.04
651.80	810.30
652.14	805.02
652.49	799.67
652.83	794.53
653.17	788.92
653.51	783.28
653.85	777.90
654.20	772.30
654.54	766.32
654.88	760.66
655.22	754.83
655.56	749.12
655.90	743.61
656.25	738.34
656.59	733.04
656.93	727.90
657.27	722.73
657.61	717.37
657.95	712.26
658.29	707.26
658.64	701.96
658.98	696.62
659.32	691.05
659.66	685.89
660.00	680.64
660.34	675.63
660.68	670.73
661.02	665.74
661.36	661.07
661.70	656.59
662.05	652.24
662.39	647.98
662.73	643.53
663.07	639.25
663.41	634.85
663.75	630.38
664.09	625.87
664.43	621.48
664.77	617.35
665.11	613.11
665.45	608.93
665.79	604.89
666.13	600.89
666.47	596.79
666.81	592.59
667.15	588.44
667.49	584.53
667.83	580.73
668.17	576.77
668.51	572.65
668.85	568.67
669.19	564.76
669.53	560.92
669.87	557.09
670.21	553.28
670.55	549.64
670.89	546.22
671.23	542.76
671.57	539.24
671.91	535.81
672.25	532.32
672.58	528.85
672.92	525.44
673.26	522.20
673.60	519.15
673.94	516.05
674.28	513.17
674.62	510.22
674.96	507.12
675.30	504.24
675.64	501.38
675.97	498.56
676.31	495.72
676.65	492.79
676.99	490.06
677.33	487.25
677.67	484.42
678.01	481.39
678.34	478.47
678.68	475.56
679.02	472.74
679.36	469.96
679.70	467.27
680.04	464.47
680.37	461.65
680.71	458.84
681.05	456.22
681.39	453.48
681.73	450.85
682.06	448.32
682.40	445.76
682.74	443.18
683.08	440.68
683.42	438.09
683.75	435.60
684.09	433.05
684.43	430.58
684.77	428.12
685.10	425.71
685.44	423.43
685.78	421.21
686.12	418.91
686.45	416.59
686.79	414.29
687.13	412.12
687.46	409.98
687.80	407.84
688.14	405.63
688.48	403.60
688.81	401.38
689.15	399.22
689.49	397.09
689.82	395.02
690.16	392.91
690.50	390.98
690.83	389.08
691.17	387.08
691.51	385.18
691.84	383.40
692.18	381.63
692.52	379.65
692.85	377.67
693.19	375.77
693.52	373.94
693.86	372.10
694.20	370.35
694.53	368.54
694.87	366.73
695.21	364.96
695.54	363.15
695.88	361.40
696.21	359.77
696.55	358.09
696.88	356.41
697.22	354.77
697.56	353.11
697.89	351.46
698.23	349.92
698.56	348.29
698.90	346.67
699.23	344.96
699.57	343.41
699.90	341.90
700.24	340.38
700.58	338.92
700.91	337.44
701.25	336.02
701.58	334.63
701.92	333.20
702.25	331.79
702.59	330.45
702.92	329.15
703.26	327.76
703.59	326.52
703.93	325.33
704.26	324.09
704.60	322.85
704.93	321.55
705.26	320.29
705.60	319.12
705.93	317.94
706.27	316.88
706.60	315.81
706.94	314.72
707.27	313.62
707.61	312.53
707.94	311.50
708.27	310.40
708.61	309.35
708.94	308.40
709.28	307.44
709.61	306.46
709.94	305.47
710.28	304.46
710.61	303.43
710.95	302.35
711.28	301.46
711.61	300.46
711.95	299.53
712.28	298.57
712.61	297.60
712.95	296.67
713.28	295.76
713.61	294.86
713.95	293.99
714.28	293.14
714.61	292.29
714.95	291.46
715.28	290.57
715.61	289.68
715.95	288.80
716.28	287.91
716.61	287.04
716.95	286.24
717.28	285.47
717.61	284.73
717.94	283.97
718.28	283.13
718.61	282.39
718.94	281.67
719.27	281.03
719.61	280.38
719.94	279.69
720.27	278.99
720.60	278.33
720.94	277.71
721.27	277.11
721.60	276.53
721.93	275.91
722.27	275.36
722.60	274.82
722.93	274.24
723.26	273.74
723.59	273.19
723.93	272.61
724.26	272.06
724.59	271.47
724.92	270.98
725.25	270.50
725.59	269.92
725.92	269.44
726.25	268.91
726.58	268.40
726.91	267.93
727.24	267.46
727.57	266.98
727.91	266.49
728.24	266.01
728.57	265.49
728.90	265.07
729.23	264.57
729.56	264.14
729.89	263.66
730.22	263.20
730.55	262.70
730.89	262.29
731.22	261.89
731.55	261.46
731.88	261.04
732.21	260.60
732.54	260.23
732.87	259.85
733.20	259.44
733.53	259.07
733.86	258.69
734.19	258.32
734.52	257.95
734.85	257.63
735.18	257.23
735.51	256.88
735.84	256.46
736.17	256.12
736.50	255.72
736.83	255.53
737.16	255.18
737.49	254.87
737.82	254.50
738.15	254.17
738.48	253.84
738.81	253.53
739.14	253.22
739.47	252.87
739.80	252.55
740.13	252.24
740.46	251.93
740.79	251.61
741.12	251.29
741.45	250.99
741.78	250.61
742.11	250.33
742.44	249.99
742.77	249.72
743.10	249.42
743.43	249.13
743.75	248.72
744.08	248.59
744.41	248.34
744.74	248.07
745.07	247.75
745.40	247.52
745.73	247.29
746.06	246.98
746.39	246.73
746.71	246.46
747.04	246.21
747.37	245.93
747.70	245.68
748.03	245.41
748.36	245.19
748.68	244.96
749.01	244.71
749.34	244.48
749.67	244.26
750.00	244.02
750.33	243.85
750.65	243.65
750.98	243.30
751.31	243.10
751.64	242.91
751.97	242.81
752.29	242.56
752.62	242.31
752.95	242.13
753.28	241.94
753.60	241.74
753.93	241.52
754.26	241.31
754.59	241.08
754.91	240.84
755.24	240.66
755.57	240.46
755.90	240.30
756.22	240.11
756.55	239.90
756.88	239.70
757.20	239.46
757.53	239.26
757.86	239.08
758.19	238.89
758.51	238.68
758.84	238.41
759.17	238.26
759.49	238.07
759.82	237.96
760.15	237.83
760.47	237.70
760.80	237.53
761.13	237.39
761.45	237.22
761.78	237.14
762.11	236.96
762.43	236.80
762.76	236.62
763.08	236.51
763.41	236.35
763.74	236.22
764.06	236.08
764.39	235.96
764.71	235.80
765.04	235.67
765.37	235.58
765.69	235.46
766.02	235.33
766.34	235.20
766.67	235.04
767.00	234.92
767.32	234.86
767.65	234.82
767.97	234.72
768.30	234.62
768.62	234.50
768.95	234.39
769.27	234.28
769.60	234.20
769.92	234.04
770.25	233.96
770.57	233.83
770.90	233.73
771.22	233.63
771.55	233.53
771.87	233.42
772.20	233.34
772.52	233.33
772.85	233.36
773.17	233.27
773.50	233.16
773.82	233.09
774.15	232.93
774.47	232.79
774.80	232.72
775.12	232.65
775.45	232.55
775.77	232.48
776.09	232.42
776.42	232.31
776.74	232.30
777.07	232.19
777.39	232.15
777.72	232.05
778.04	231.97
778.36	231.90
778.69	231.88
779.01	231.77
779.33	231.63
779.66	231.45
779.98	231.36
780.31	231.30
780.63	231.21
780.95	231.15
781.28	231.09
781.60	230.99
781.92	230.95
782.25	230.92
782.57	230.84
782.89	230.75
783.22	230.72
783.54	230.62
783.86	230.57
784.19	230.51
784.51	230.48
784.83	230.43
785.16	230.37
785.48	230.30
785.80	230.26
786.12	230.22
786.45	230.16
786.77	230.13
787.09	230.07
