SpectraSuite Data File
++++++++++++++++++++++++++++++++++++
Date: Fri Feb 01 17:48:58 EST 2013
User: group
Dark Spectrum Present: No
Reference Spectrum Present: No
Number of Sampled Component Spectra: 1
Spectrometers: USB2E7196
Integration Time (usec): 35000 (USB2E7196)
Spectra Averaged: 100 (USB2E7196)
Boxcar Smoothing: 10 (USB2E7196)
Correct for Electrical Dark: No (USB2E7196)
Strobe/Lamp Enabled: No (USB2E7196)
Correct for Detector Non-linearity: No (USB2E7196)
Correct for Stray Light: No (USB2E7196)
Number of Pixels in Processed Spectrum: 2048
>>>>>Begin Processed Spectral Data<<<<<
339.09	0.00
339.48	212.48
339.86	213.61
340.24	215.48
340.63	216.81
341.01	219.36
341.39	219.82
341.78	220.54
342.16	221.43
342.54	222.69
342.93	210.89
343.31	221.55
343.69	222.06
344.07	222.55
344.46	222.98
344.84	223.36
345.22	223.59
345.60	223.84
345.99	224.04
346.37	224.17
346.75	224.27
347.13	224.37
347.52	224.43
347.90	224.53
348.28	224.60
348.66	224.61
349.05	224.62
349.43	224.69
349.81	224.77
350.19	224.81
350.57	224.88
350.96	224.94
351.34	225.03
351.72	225.14
352.10	225.22
352.48	225.30
352.87	225.38
353.25	225.46
353.63	225.51
354.01	225.57
354.39	225.68
354.77	225.77
355.15	225.85
355.54	225.90
355.92	225.91
356.30	225.96
356.68	226.10
357.06	226.18
357.44	226.20
357.82	226.26
358.20	226.34
358.58	226.41
358.97	226.52
359.35	226.61
359.73	226.67
360.11	226.73
360.49	226.79
360.87	226.81
361.25	226.88
361.63	226.95
362.01	227.01
362.39	227.02
362.77	227.04
363.15	227.07
363.53	227.09
363.91	227.10
364.29	227.13
364.67	227.03
365.05	227.04
365.43	227.08
365.81	227.08
366.19	227.13
366.57	227.18
366.95	227.18
367.33	227.15
367.71	227.17
368.09	227.19
368.47	227.19
368.85	227.19
369.23	227.19
369.61	227.13
369.99	227.13
370.37	227.13
370.75	227.17
371.13	227.09
371.51	227.07
371.89	227.07
372.27	227.06
372.65	227.06
373.03	227.01
373.41	226.94
373.78	226.90
374.16	226.80
374.54	226.72
374.92	226.66
375.30	226.62
375.68	226.54
376.06	226.50
376.44	226.42
376.82	226.36
377.19	226.29
377.57	226.28
377.95	226.19
378.33	226.11
378.71	226.01
379.09	225.97
379.47	225.91
379.84	225.85
380.22	225.75
380.60	225.67
380.98	225.62
381.36	225.58
381.73	225.51
382.11	225.47
382.49	225.42
382.87	225.31
383.25	225.24
383.62	225.31
384.00	225.22
384.38	225.15
384.76	225.14
385.13	225.12
385.51	225.03
385.89	224.99
386.27	224.95
386.64	224.94
387.02	224.91
387.40	224.84
387.78	224.80
388.15	224.79
388.53	224.73
388.91	224.71
389.29	224.69
389.66	224.67
390.04	224.62
390.42	224.57
390.79	224.56
391.17	224.54
391.55	224.38
391.92	224.38
392.30	224.39
392.68	224.35
393.05	224.30
393.43	224.30
393.81	224.30
394.18	224.29
394.56	224.27
394.94	224.31
395.31	224.36
395.69	224.40
396.06	224.43
396.44	224.48
396.82	224.50
397.19	224.58
397.57	224.60
397.95	224.65
398.32	224.70
398.70	224.79
399.07	224.86
399.45	224.92
399.82	224.98
400.20	225.02
400.58	225.10
400.95	225.17
401.33	225.26
401.70	225.41
402.08	225.50
402.45	225.60
402.83	225.68
403.20	225.77
403.58	225.89
403.95	226.02
404.33	226.13
404.71	226.28
405.08	226.46
405.46	226.62
405.83	226.78
406.21	226.94
406.58	227.11
406.96	227.32
407.33	227.51
407.70	227.76
408.08	228.04
408.45	228.30
408.83	228.57
409.20	228.82
409.58	229.06
409.95	229.39
410.33	229.71
410.70	230.00
411.08	230.41
411.45	230.79
411.82	231.16
412.20	231.62
412.57	232.13
412.95	232.54
413.32	233.04
413.69	233.57
414.07	234.13
414.44	234.73
414.82	235.31
415.19	236.04
415.56	236.72
415.94	237.46
416.31	238.28
416.68	239.09
417.06	240.01
417.43	240.88
417.81	241.87
418.18	242.89
418.55	244.02
418.93	245.10
419.30	246.30
419.67	247.52
420.04	248.74
420.42	250.02
420.79	251.50
421.16	252.99
421.54	254.52
421.91	256.13
422.28	257.75
422.66	259.48
423.03	261.17
423.40	262.90
423.77	264.71
424.15	266.56
424.52	268.48
424.89	270.61
425.26	272.62
425.64	274.50
426.01	276.54
426.38	278.70
426.75	280.90
427.13	283.14
427.50	285.50
427.87	287.96
428.24	290.38
428.61	292.69
428.99	295.21
429.36	297.96
429.73	300.66
430.10	303.27
430.47	305.97
430.85	308.72
431.22	311.65
431.59	314.72
431.96	317.65
432.33	320.90
432.70	323.97
433.08	327.66
433.45	331.08
433.82	334.48
434.19	338.24
434.56	341.88
434.93	345.33
435.30	348.69
435.68	352.48
436.05	356.16
436.42	359.80
436.79	363.06
437.16	366.56
437.53	370.18
437.90	373.86
438.27	377.38
438.64	381.05
439.01	384.37
439.38	387.31
439.75	390.15
440.13	393.36
440.50	396.43
440.87	398.80
441.24	401.32
441.61	404.16
441.98	406.07
442.35	408.41
442.72	410.78
443.09	413.12
443.46	414.42
443.83	415.21
444.20	415.88
444.57	416.98
444.94	417.36
445.31	417.90
445.68	418.31
446.05	418.45
446.42	417.93
446.79	417.46
447.16	416.90
447.53	416.51
447.90	415.05
448.27	413.53
448.64	411.47
449.01	410.00
449.37	407.44
449.74	404.97
450.11	402.03
450.48	398.84
450.85	395.61
451.22	392.78
451.59	390.12
451.96	387.58
452.33	384.25
452.70	381.20
453.07	377.45
453.43	373.74
453.80	370.16
454.17	366.72
454.54	363.38
454.91	359.86
455.28	356.33
455.65	353.12
456.02	349.88
456.38	347.10
456.75	343.61
457.12	340.68
457.49	337.79
457.86	334.99
458.23	332.54
458.59	329.87
458.96	327.17
459.33	324.76
459.70	322.33
460.07	320.38
460.43	318.10
460.80	316.01
461.17	314.11
461.54	312.18
461.91	310.33
462.27	308.45
462.64	306.81
463.01	305.04
463.38	303.30
463.74	301.54
464.11	300.03
464.48	298.74
464.85	297.27
465.21	296.16
465.58	294.93
465.95	293.55
466.32	292.38
466.68	291.21
467.05	290.05
467.42	288.87
467.78	287.61
468.15	286.48
468.52	285.59
468.88	284.47
469.25	283.42
469.62	282.58
469.98	281.68
470.35	280.87
470.72	280.09
471.08	279.22
471.45	278.48
471.82	277.74
472.18	276.89
472.55	276.31
472.92	275.63
473.28	275.03
473.65	274.41
474.02	273.78
474.38	273.28
474.75	272.85
475.11	272.37
475.48	271.99
475.85	271.67
476.21	271.34
476.58	271.06
476.94	270.85
477.31	270.58
477.67	270.31
478.04	270.09
478.41	269.96
478.77	269.93
479.14	269.80
479.50	269.75
479.87	269.82
480.23	269.86
480.60	269.84
480.96	269.84
481.33	269.98
481.69	270.13
482.06	270.26
482.42	270.39
482.79	270.63
483.15	270.91
483.52	271.23
483.88	271.54
484.25	271.87
484.61	272.24
484.98	272.69
485.34	273.28
485.71	273.86
486.07	274.45
486.44	274.96
486.80	275.70
487.17	276.40
487.53	277.19
487.90	278.03
488.26	278.99
488.62	280.07
488.99	281.09
489.35	282.14
489.72	283.32
490.08	284.55
490.44	285.81
490.81	287.20
491.17	288.58
491.54	290.14
491.90	291.75
492.26	293.49
492.63	295.31
492.99	297.13
493.36	299.07
493.72	301.21
494.08	303.47
494.45	305.80
494.81	308.31
495.17	310.87
495.54	313.55
495.90	316.36
496.26	319.27
496.63	322.36
496.99	325.64
497.35	329.01
497.72	332.57
498.08	336.24
498.44	340.11
498.80	344.24
499.17	348.53
499.53	352.90
499.89	357.45
500.26	362.16
500.62	367.07
500.98	372.29
501.34	377.61
501.71	383.21
502.07	388.95
502.43	394.85
502.79	400.98
503.16	407.41
503.52	414.03
503.88	420.73
504.24	427.69
504.60	434.96
504.97	442.52
505.33	450.21
505.69	458.36
506.05	466.57
506.41	474.86
506.78	483.40
507.14	492.35
507.50	501.55
507.86	511.04
508.22	520.83
508.59	530.56
508.95	540.65
509.31	550.97
509.67	561.54
510.03	572.34
510.39	583.51
510.75	594.82
511.12	606.34
511.48	618.35
511.84	630.45
512.20	642.58
512.56	655.24
512.92	668.17
513.28	681.32
513.64	694.53
514.00	708.11
514.37	721.91
514.73	735.75
515.09	749.59
515.45	763.72
515.81	778.09
516.17	793.01
516.53	808.11
516.89	823.34
517.25	838.55
517.61	854.06
517.97	869.40
518.33	884.81
518.69	900.58
519.05	916.50
519.41	932.75
519.77	949.39
520.13	965.95
520.49	982.49
520.85	998.87
521.21	1015.71
521.57	1033.11
521.93	1049.95
522.29	1067.45
522.65	1084.98
523.01	1102.46
523.37	1119.75
523.73	1137.15
524.09	1154.39
524.45	1171.81
524.81	1189.80
525.17	1207.83
525.53	1226.22
525.89	1244.63
526.25	1262.96
526.61	1280.87
526.97	1299.18
527.33	1317.09
527.68	1335.12
528.04	1353.08
528.40	1371.19
528.76	1389.80
529.12	1407.94
529.48	1426.46
529.84	1444.14
530.20	1462.29
530.56	1480.87
530.91	1499.95
531.27	1518.39
531.63	1536.63
531.99	1554.97
532.35	1572.66
532.71	1590.34
533.07	1608.23
533.42	1625.79
533.78	1643.58
534.14	1661.55
534.50	1678.48
534.86	1696.20
535.21	1713.14
535.57	1730.72
535.93	1748.01
536.29	1764.63
536.65	1781.38
537.00	1797.84
537.36	1814.97
537.72	1831.34
538.08	1847.72
538.44	1863.44
538.79	1879.26
539.15	1894.77
539.51	1910.44
539.87	1926.54
540.22	1942.01
540.58	1957.83
540.94	1973.00
541.29	1987.74
541.65	2002.33
542.01	2017.48
542.37	2031.72
542.72	2046.00
543.08	2059.94
543.44	2074.28
543.79	2087.38
544.15	2100.34
544.51	2114.03
544.87	2126.94
545.22	2139.67
545.58	2151.84
545.94	2163.40
546.29	2174.99
546.65	2186.73
547.01	2197.79
547.36	2208.29
547.72	2218.65
548.07	2228.22
548.43	2238.17
548.79	2247.83
549.14	2257.17
549.50	2266.17
549.86	2275.46
550.21	2284.40
550.57	2293.28
550.92	2301.54
551.28	2310.34
551.64	2319.14
551.99	2327.30
552.35	2335.07
552.70	2342.85
553.06	2350.38
553.41	2358.32
553.77	2365.92
554.13	2373.43
554.48	2381.28
554.84	2388.57
555.19	2395.28
555.55	2402.07
555.90	2408.02
556.26	2414.55
556.61	2420.82
556.97	2426.70
557.32	2432.37
557.68	2438.02
558.03	2443.60
558.39	2448.68
558.74	2454.81
559.10	2460.16
559.45	2465.23
559.81	2470.76
560.16	2475.95
560.52	2480.53
560.87	2485.24
561.23	2489.17
561.58	2493.33
561.94	2497.00
562.29	2500.36
562.64	2504.57
563.00	2508.19
563.35	2512.86
563.71	2517.28
564.06	2521.69
564.42	2525.87
564.77	2529.63
565.12	2533.17
565.48	2536.23
565.83	2539.17
566.19	2541.41
566.54	2543.08
566.89	2545.18
567.25	2546.76
567.60	2549.06
567.96	2551.81
568.31	2553.48
568.66	2555.58
569.02	2557.06
569.37	2558.05
569.72	2559.86
570.08	2560.56
570.43	2561.31
570.78	2561.54
571.14	2560.32
571.49	2559.41
571.84	2559.50
572.20	2558.97
572.55	2558.42
572.90	2557.26
573.26	2556.34
573.61	2554.96
573.96	2553.83
574.31	2551.10
574.67	2548.45
575.02	2544.87
575.37	2541.28
575.72	2537.66
576.08	2534.30
576.43	2531.06
576.78	2527.64
577.13	2524.43
577.49	2521.43
577.84	2518.04
578.19	2514.17
578.54	2510.75
578.90	2506.60
579.25	2500.87
579.60	2495.66
579.95	2490.34
580.30	2485.07
580.66	2479.64
581.01	2474.39
581.36	2469.07
581.71	2464.76
582.06	2460.14
582.42	2455.61
582.77	2450.36
583.12	2445.62
583.47	2440.85
583.82	2435.68
584.17	2430.09
584.53	2424.31
584.88	2418.47
585.23	2412.27
585.58	2406.48
585.93	2400.59
586.28	2395.43
586.63	2389.92
586.98	2384.39
587.34	2379.25
587.69	2373.91
588.04	2368.35
588.39	2362.42
588.74	2355.34
589.09	2348.77
589.44	2341.46
589.79	2334.80
590.14	2328.55
590.49	2321.31
590.84	2314.18
591.19	2307.56
591.54	2300.39
591.89	2292.27
592.25	2284.71
592.60	2276.77
592.95	2268.51
593.30	2260.42
593.65	2251.91
594.00	2244.23
594.35	2236.37
594.70	2227.47
595.05	2219.76
595.40	2211.60
595.75	2203.12
596.10	2196.39
596.45	2188.76
596.80	2181.77
597.15	2174.42
597.50	2166.64
597.85	2159.38
598.19	2151.94
598.54	2143.99
598.89	2136.57
599.24	2130.00
599.59	2122.54
599.94	2115.56
600.29	2108.39
600.64	2100.76
600.99	2092.60
601.34	2084.78
601.69	2076.65
602.04	2069.05
602.39	2060.61
602.74	2052.90
603.08	2045.28
603.43	2037.40
603.78	2029.02
604.13	2020.69
604.48	2012.44
604.83	2004.67
605.18	1996.88
605.53	1987.87
605.87	1978.72
606.22	1970.47
606.57	1961.26
606.92	1952.78
607.27	1944.60
607.62	1936.74
607.96	1928.63
608.31	1921.00
608.66	1912.38
609.01	1903.90
609.36	1895.14
609.70	1885.95
610.05	1876.81
610.40	1868.06
610.75	1858.65
611.10	1850.02
611.44	1840.43
611.79	1831.20
612.14	1821.02
612.49	1810.65
612.83	1800.98
613.18	1791.67
613.53	1782.40
613.88	1772.78
614.22	1763.21
614.57	1753.22
614.92	1743.87
615.27	1735.15
615.61	1725.52
615.96	1716.18
616.31	1707.32
616.65	1698.88
617.00	1690.25
617.35	1681.36
617.70	1671.81
618.04	1662.13
618.39	1652.45
618.74	1643.80
619.08	1634.24
619.43	1625.58
619.78	1617.40
620.12	1609.23
620.47	1600.50
620.82	1590.93
621.16	1582.13
621.51	1573.32
621.85	1564.46
622.20	1554.77
622.55	1545.07
622.89	1536.07
623.24	1527.29
623.59	1518.62
623.93	1510.03
624.28	1501.67
624.62	1492.92
624.97	1484.52
625.32	1476.56
625.66	1468.50
626.01	1460.25
626.35	1451.71
626.70	1442.81
627.04	1433.96
627.39	1424.78
627.73	1416.36
628.08	1408.48
628.43	1400.23
628.77	1391.85
629.12	1383.29
629.46	1374.95
629.81	1366.23
630.15	1357.78
630.50	1349.35
630.84	1340.07
631.19	1330.81
631.53	1322.03
631.88	1313.35
632.22	1304.65
632.57	1296.11
632.91	1287.43
633.26	1278.85
633.60	1270.27
633.95	1262.01
634.29	1253.87
634.64	1246.14
634.98	1237.71
635.32	1229.59
635.67	1221.91
636.01	1214.29
636.36	1206.46
636.70	1198.97
637.05	1191.59
637.39	1184.21
637.73	1176.76
638.08	1169.90
638.42	1163.07
638.77	1155.78
639.11	1148.31
639.45	1140.87
639.80	1133.36
640.14	1126.02
640.49	1118.59
640.83	1111.42
641.17	1104.29
641.52	1096.96
641.86	1089.59
642.20	1082.88
642.55	1075.55
642.89	1068.21
643.23	1060.76
643.58	1054.19
643.92	1047.08
644.26	1040.30
644.61	1033.26
644.95	1026.32
645.29	1018.82
645.64	1011.05
645.98	1003.74
646.32	996.92
646.66	990.17
647.01	983.66
647.35	977.19
647.69	970.49
648.04	964.19
648.38	957.68
648.72	950.99
649.06	944.11
649.41	937.42
649.75	930.66
650.09	923.90
650.43	917.27
650.78	910.24
651.12	903.49
651.46	896.82
651.80	890.46
652.14	884.37
652.49	878.31
652.83	872.54
653.17	866.13
653.51	859.75
653.85	853.61
654.20	847.12
654.54	840.32
654.88	833.73
655.22	827.04
655.56	820.54
655.90	814.29
656.25	808.41
656.59	802.26
656.93	796.45
657.27	790.62
657.61	784.47
657.95	778.72
658.29	772.98
658.64	767.03
658.98	761.02
659.32	754.74
659.66	748.89
660.00	742.86
660.34	737.22
660.68	731.62
661.02	725.94
661.36	720.59
661.70	715.51
662.05	710.62
662.39	705.75
662.73	700.66
663.07	695.69
663.41	690.65
663.75	685.58
664.09	680.41
664.43	675.44
664.77	670.76
665.11	665.94
665.45	661.28
665.79	656.69
666.13	652.00
666.47	647.40
666.81	642.72
667.15	638.05
667.49	633.62
667.83	629.24
668.17	624.74
668.51	620.18
668.85	615.51
669.19	611.12
669.53	606.77
669.87	602.45
670.21	598.23
670.55	594.09
670.89	590.25
671.23	586.34
671.57	582.31
671.91	578.32
672.25	574.33
672.58	570.34
672.92	566.47
673.26	562.80
673.60	559.22
673.94	555.69
674.28	552.36
674.62	549.04
674.96	545.54
675.30	542.26
675.64	538.93
675.97	535.80
676.31	532.55
676.65	529.27
676.99	526.22
677.33	523.01
677.67	519.83
678.01	516.44
678.34	513.14
678.68	509.90
679.02	506.73
679.36	503.58
679.70	500.50
680.04	497.43
680.37	494.26
680.71	491.08
681.05	488.10
681.39	485.02
681.73	482.07
682.06	479.26
682.40	476.38
682.74	473.44
683.08	470.57
683.42	467.63
683.75	464.81
684.09	461.84
684.43	459.03
684.77	456.29
685.10	453.50
685.44	450.85
685.78	448.26
686.12	445.68
686.45	443.05
686.79	440.39
687.13	437.81
687.46	435.33
687.80	432.86
688.14	430.30
688.48	427.98
688.81	425.41
689.15	422.91
689.49	420.48
689.82	418.13
690.16	415.72
690.50	413.53
690.83	411.24
691.17	408.95
691.51	406.77
691.84	404.65
692.18	402.52
692.52	400.30
692.85	398.12
693.19	396.01
693.52	393.95
693.86	391.90
694.20	389.89
694.53	387.86
694.87	385.71
695.21	383.67
695.54	381.56
695.88	379.59
696.21	377.65
696.55	375.75
696.88	373.89
697.22	372.01
697.56	370.10
697.89	368.24
698.23	366.46
698.56	364.62
698.90	362.78
699.23	360.93
699.57	359.12
699.90	357.33
700.24	355.54
700.58	353.81
700.91	352.10
701.25	350.40
701.58	348.85
701.92	347.39
702.25	345.84
702.59	344.29
702.92	342.80
703.26	341.30
703.59	339.86
703.93	338.46
704.26	337.11
704.60	335.64
704.93	334.18
705.26	332.76
705.60	331.40
705.93	330.07
706.27	328.86
706.60	327.61
706.94	326.38
707.27	325.05
707.61	323.83
707.94	322.67
708.27	321.43
708.61	320.16
708.94	318.94
709.28	317.83
709.61	316.73
709.94	315.61
710.28	314.43
710.61	313.23
710.95	312.05
711.28	310.96
711.61	309.88
711.95	308.83
712.28	307.73
712.61	306.62
712.95	305.56
713.28	304.56
713.61	303.59
713.95	302.59
714.28	301.63
714.61	300.62
714.95	299.65
715.28	298.73
715.61	297.71
715.95	296.76
716.28	295.77
716.61	294.78
716.95	293.82
717.28	292.99
717.61	292.16
717.94	291.26
718.28	290.32
718.61	289.46
718.94	288.67
719.27	287.93
719.61	287.25
719.94	286.49
720.27	285.65
720.60	284.83
720.94	284.11
721.27	283.48
721.60	282.85
721.93	282.19
722.27	281.53
722.60	280.94
722.93	280.28
723.26	279.66
723.59	279.05
723.93	278.45
724.26	277.76
724.59	277.11
724.92	276.55
725.25	276.00
725.59	275.44
725.92	274.85
726.25	274.26
726.58	273.65
726.91	273.08
727.24	272.61
727.57	272.09
727.91	271.51
728.24	270.92
728.57	270.35
728.90	269.83
729.23	269.32
729.56	268.82
729.89	268.28
730.22	267.72
730.55	267.21
730.89	266.67
731.22	266.20
731.55	265.73
731.88	265.24
732.21	264.75
732.54	264.27
732.87	263.83
733.20	263.38
733.53	262.94
733.86	262.52
734.19	262.04
734.52	261.64
734.85	261.28
735.18	260.84
735.51	260.46
735.84	259.99
736.17	259.55
736.50	259.07
736.83	258.84
737.16	258.47
737.49	258.08
737.82	257.75
738.15	257.37
738.48	256.98
738.81	256.61
739.14	256.22
739.47	255.82
739.80	255.45
740.13	255.09
740.46	254.74
740.79	254.36
741.12	254.04
741.45	253.69
741.78	253.32
742.11	253.00
742.44	252.62
742.77	252.34
743.10	252.00
743.43	251.69
743.75	251.24
744.08	251.04
744.41	250.73
744.74	250.38
745.07	250.07
745.40	249.76
745.73	249.48
746.06	249.19
746.39	248.93
746.71	248.63
747.04	248.30
747.37	247.98
747.70	247.71
748.03	247.43
748.36	247.14
748.68	246.86
749.01	246.55
749.34	246.31
749.67	246.01
750.00	245.78
750.33	245.59
750.65	245.36
750.98	244.98
751.31	244.73
751.64	244.49
751.97	244.26
752.29	244.00
752.62	243.74
752.95	243.47
753.28	243.23
753.60	243.02
753.93	242.81
754.26	242.57
754.59	242.31
754.91	242.05
755.24	241.82
755.57	241.58
755.90	241.36
756.22	241.09
756.55	240.86
756.88	240.63
757.20	240.37
757.53	240.11
757.86	239.92
758.19	239.74
758.51	239.55
758.84	239.32
759.17	239.15
759.49	238.99
759.82	238.87
760.15	238.67
760.47	238.50
760.80	238.31
761.13	238.19
761.45	238.02
761.78	237.85
762.11	237.67
762.43	237.52
762.76	237.38
763.08	237.24
763.41	237.06
763.74	236.90
764.06	236.70
764.39	236.54
764.71	236.37
765.04	236.23
765.37	236.04
765.69	235.90
766.02	235.75
766.34	235.53
766.67	235.36
767.00	235.25
767.32	235.16
767.65	235.10
767.97	234.92
768.30	234.78
768.62	234.63
768.95	234.52
769.27	234.38
769.60	234.27
769.92	234.16
770.25	234.06
770.57	233.97
770.90	233.90
771.22	233.80
771.55	233.67
771.87	233.57
772.20	233.50
772.52	233.48
772.85	233.47
773.17	233.39
773.50	233.27
773.82	233.17
774.15	233.03
774.47	232.88
774.80	232.79
775.12	232.73
775.45	232.67
775.77	232.61
776.09	232.53
776.42	232.44
776.74	232.41
777.07	232.32
777.39	232.23
777.72	232.16
778.04	232.13
778.36	232.06
778.69	231.97
779.01	231.91
779.33	231.76
779.66	231.61
779.98	231.56
780.31	231.48
780.63	231.42
780.95	231.36
781.28	231.29
781.60	231.23
781.92	231.17
782.25	231.10
782.57	231.05
782.89	230.98
783.22	230.91
783.54	230.79
783.86	230.76
784.19	230.69
784.51	230.64
784.83	230.52
785.16	230.51
785.48	230.47
785.80	230.41
786.12	230.35
786.45	230.30
786.77	230.25
