SpectraSuite Data File
++++++++++++++++++++++++++++++++++++
Date: Fri Feb 01 15:26:20 EST 2013
User: group
Dark Spectrum Present: No
Reference Spectrum Present: No
Number of Sampled Component Spectra: 1
Spectrometers: USB2E7196
Integration Time (usec): 35000 (USB2E7196)
Spectra Averaged: 100 (USB2E7196)
Boxcar Smoothing: 10 (USB2E7196)
Correct for Electrical Dark: No (USB2E7196)
Strobe/Lamp Enabled: No (USB2E7196)
Correct for Detector Non-linearity: No (USB2E7196)
Correct for Stray Light: No (USB2E7196)
Number of Pixels in Processed Spectrum: 2048
>>>>>Begin Processed Spectral Data<<<<<
339.09	0.00
339.48	214.72
339.86	216.18
340.24	217.79
340.63	219.19
341.01	221.86
341.39	220.89
341.78	223.59
342.16	224.38
342.54	224.91
342.93	213.13
343.31	223.89
343.69	224.41
344.07	224.87
344.46	225.30
344.84	225.68
345.22	225.88
345.60	226.15
345.99	226.30
346.37	226.42
346.75	226.51
347.13	226.57
347.52	226.64
347.90	226.74
348.28	226.80
348.66	226.80
349.05	226.80
349.43	226.81
349.81	226.88
350.19	226.94
350.57	227.04
350.96	227.09
351.34	227.16
351.72	227.27
352.10	227.37
352.48	227.44
352.87	227.51
353.25	227.58
353.63	227.64
354.01	227.74
354.39	227.79
354.77	227.85
355.15	227.94
355.54	227.97
355.92	227.98
356.30	228.04
356.68	228.20
357.06	228.29
357.44	228.35
357.82	228.40
358.20	228.47
358.58	228.53
358.97	228.60
359.35	228.67
359.73	228.76
360.11	228.82
360.49	228.86
360.87	228.87
361.25	228.98
361.63	229.06
362.01	229.11
362.39	229.17
362.77	229.27
363.15	229.31
363.53	229.36
363.91	229.39
364.29	229.40
364.67	229.34
365.05	229.34
365.43	229.38
365.81	229.41
366.19	229.44
366.57	229.46
366.95	229.44
367.33	229.43
367.71	229.40
368.09	229.41
368.47	229.41
368.85	229.44
369.23	229.40
369.61	229.36
369.99	229.35
370.37	229.32
370.75	229.31
371.13	229.24
371.51	229.20
371.89	229.19
372.27	229.14
372.65	229.08
373.03	229.00
373.41	228.91
373.78	228.86
374.16	228.78
374.54	228.72
374.92	228.65
375.30	228.59
375.68	228.49
376.06	228.44
376.44	228.34
376.82	228.24
377.19	228.18
377.57	228.11
377.95	227.98
378.33	227.91
378.71	227.78
379.09	227.73
379.47	227.66
379.84	227.58
380.22	227.50
380.60	227.41
380.98	227.36
381.36	227.33
381.73	227.22
382.11	227.17
382.49	227.09
382.87	227.04
383.25	226.96
383.62	227.05
384.00	226.93
384.38	226.89
384.76	226.87
385.13	226.85
385.51	226.79
385.89	226.76
386.27	226.70
386.64	226.68
387.02	226.66
387.40	226.63
387.78	226.59
388.15	226.58
388.53	226.55
388.91	226.51
389.29	226.46
389.66	226.48
390.04	226.46
390.42	226.49
390.79	226.49
391.17	226.50
391.55	226.37
391.92	226.41
392.30	226.40
392.68	226.41
393.05	226.40
393.43	226.43
393.81	226.45
394.18	226.46
394.56	226.48
394.94	226.49
395.31	226.50
395.69	226.56
396.06	226.59
396.44	226.66
396.82	226.74
397.19	226.82
397.57	226.83
397.95	226.89
398.32	226.89
398.70	226.93
399.07	227.03
399.45	227.10
399.82	227.15
400.20	227.24
400.58	227.30
400.95	227.35
401.33	227.44
401.70	227.57
402.08	227.68
402.45	227.76
402.83	227.87
403.20	227.97
403.58	228.09
403.95	228.23
404.33	228.38
404.71	228.50
405.08	228.71
405.46	228.88
405.83	229.01
406.21	229.15
406.58	229.32
406.96	229.47
407.33	229.64
407.70	229.86
408.08	230.12
408.45	230.36
408.83	230.59
409.20	230.82
409.58	231.02
409.95	231.31
410.33	231.59
410.70	231.83
411.08	232.15
411.45	232.44
411.82	232.76
412.20	233.12
412.57	233.53
412.95	233.84
413.32	234.23
413.69	234.66
414.07	235.13
414.44	235.59
414.82	236.06
415.19	236.62
415.56	237.16
415.94	237.69
416.31	238.33
416.68	238.98
417.06	239.68
417.43	240.37
417.81	241.14
418.18	241.90
418.55	242.75
418.93	243.61
419.30	244.51
419.67	245.42
420.04	246.34
420.42	247.35
420.79	248.50
421.16	249.68
421.54	250.86
421.91	252.07
422.28	253.34
422.66	254.70
423.03	255.99
423.40	257.30
423.77	258.69
424.15	260.11
424.52	261.58
424.89	263.20
425.26	264.72
425.64	266.13
426.01	267.78
426.38	269.42
426.75	271.09
427.13	272.81
427.50	274.61
427.87	276.50
428.24	278.34
428.61	280.09
428.99	281.99
429.36	284.08
429.73	286.17
430.10	288.17
430.47	290.21
430.85	292.31
431.22	294.59
431.59	296.98
431.96	299.23
432.33	301.73
432.70	304.12
433.08	306.98
433.45	309.63
433.82	312.25
434.19	315.20
434.56	318.02
434.93	320.69
435.30	323.30
435.68	326.25
436.05	329.12
436.42	331.92
436.79	334.46
437.16	337.15
437.53	339.97
437.90	342.79
438.27	345.55
438.64	348.42
439.01	351.06
439.38	353.29
439.75	355.44
440.13	357.93
440.50	360.28
440.87	362.14
441.24	364.13
441.61	366.25
441.98	367.71
442.35	369.50
442.72	371.35
443.09	373.19
443.46	374.13
443.83	374.69
444.20	375.23
444.57	376.03
444.94	376.35
445.31	376.70
445.68	377.02
446.05	377.06
446.42	376.67
446.79	376.20
447.16	375.76
447.53	375.45
447.90	374.24
448.27	373.04
448.64	371.49
449.01	370.30
449.37	368.33
449.74	366.43
450.11	364.18
450.48	361.70
450.85	359.13
451.22	356.98
451.59	354.96
451.96	352.98
452.33	350.38
452.70	347.99
453.07	345.15
453.43	342.30
453.80	339.56
454.17	336.86
454.54	334.31
454.91	331.60
455.28	328.90
455.65	326.43
456.02	323.97
456.38	321.75
456.75	319.06
457.12	316.79
457.49	314.55
457.86	312.39
458.23	310.55
458.59	308.53
458.96	306.46
459.33	304.60
459.70	302.73
460.07	301.23
460.43	299.53
460.80	297.89
461.17	296.43
461.54	294.94
461.91	293.49
462.27	292.01
462.64	290.78
463.01	289.45
463.38	288.18
463.74	286.78
464.11	285.61
464.48	284.59
464.85	283.47
465.21	282.60
465.58	281.64
465.95	280.55
466.32	279.60
466.68	278.70
467.05	277.79
467.42	276.87
467.78	275.93
468.15	275.03
468.52	274.35
468.88	273.46
469.25	272.67
469.62	272.05
469.98	271.41
470.35	270.71
470.72	270.13
471.08	269.48
471.45	268.98
471.82	268.44
472.18	267.85
472.55	267.44
472.92	266.91
473.28	266.45
473.65	265.98
474.02	265.55
474.38	265.16
474.75	264.84
475.11	264.48
475.48	264.23
475.85	264.01
476.21	263.80
476.58	263.66
476.94	263.50
477.31	263.32
477.67	263.15
478.04	263.10
478.41	262.99
478.77	263.02
479.14	262.97
479.50	262.97
479.87	263.06
480.23	263.12
480.60	263.18
480.96	263.32
481.33	263.53
481.69	263.73
482.06	263.92
482.42	264.13
482.79	264.47
483.15	264.77
483.52	265.14
483.88	265.50
484.25	265.87
484.61	266.33
484.98	266.81
485.34	267.39
485.71	267.95
486.07	268.55
486.44	269.09
486.80	269.82
487.17	270.56
487.53	271.35
487.90	272.22
488.26	273.18
488.62	274.18
488.99	275.13
489.35	276.21
489.72	277.36
490.08	278.53
490.44	279.75
490.81	281.05
491.17	282.40
491.54	283.89
491.90	285.42
492.26	287.06
492.63	288.74
492.99	290.53
493.36	292.43
493.72	294.48
494.08	296.58
494.45	298.81
494.81	301.14
495.17	303.57
495.54	306.11
495.90	308.77
496.26	311.51
496.63	314.49
496.99	317.59
497.35	320.79
497.72	324.21
498.08	327.69
498.44	331.39
498.80	335.34
499.17	339.31
499.53	343.52
499.89	347.85
500.26	352.34
500.62	357.01
500.98	361.99
501.34	367.07
501.71	372.44
502.07	377.84
502.43	383.45
502.79	389.25
503.16	395.33
503.52	401.56
503.88	408.00
504.24	414.68
504.60	421.53
504.97	428.68
505.33	436.01
505.69	443.69
506.05	451.48
506.41	459.35
506.78	467.55
507.14	475.97
507.50	484.70
507.86	493.76
508.22	502.92
508.59	512.04
508.95	521.72
509.31	531.51
509.67	541.66
510.03	552.04
510.39	562.69
510.75	573.45
511.12	584.40
511.48	595.73
511.84	607.13
512.20	618.73
512.56	630.70
512.92	642.83
513.28	655.21
513.64	667.71
514.00	680.41
514.37	693.38
514.73	706.47
515.09	719.63
515.45	732.93
515.81	746.57
516.17	760.64
516.53	774.72
516.89	788.87
517.25	803.08
517.61	817.49
517.97	831.85
518.33	846.36
518.69	861.24
519.05	876.22
519.41	891.45
519.77	906.92
520.13	922.42
520.49	937.85
520.85	953.29
521.21	969.06
521.57	985.38
521.93	1001.19
522.29	1017.57
522.65	1033.81
523.01	1050.08
523.37	1066.20
523.73	1082.45
524.09	1098.55
524.45	1114.98
524.81	1131.73
525.17	1148.58
525.53	1165.68
525.89	1182.53
526.25	1199.44
526.61	1215.88
526.97	1232.71
527.33	1249.25
527.68	1265.98
528.04	1282.54
528.40	1299.30
528.76	1316.42
529.12	1333.00
529.48	1349.99
529.84	1366.21
530.20	1382.91
530.56	1400.02
530.91	1417.47
531.27	1434.25
531.63	1450.85
531.99	1467.38
532.35	1483.30
532.71	1499.20
533.07	1515.47
533.42	1531.50
533.78	1547.41
534.14	1563.69
534.50	1578.96
534.86	1594.98
535.21	1610.15
535.57	1626.14
535.93	1641.59
536.29	1656.40
536.65	1671.58
537.00	1686.40
537.36	1701.76
537.72	1716.37
538.08	1730.80
538.44	1744.68
538.79	1758.71
539.15	1772.40
539.51	1786.30
539.87	1800.78
540.22	1814.61
540.58	1828.53
540.94	1842.00
541.29	1855.05
541.65	1867.91
542.01	1881.41
542.37	1893.80
542.72	1906.24
543.08	1918.10
543.44	1930.54
543.79	1941.83
544.15	1952.85
544.51	1964.40
544.87	1975.29
545.22	1986.20
545.58	1996.49
545.94	2006.28
546.29	2016.12
546.65	2025.96
547.01	2035.28
547.36	2044.05
547.72	2052.59
548.07	2060.27
548.43	2068.46
548.79	2076.57
549.14	2084.09
549.50	2091.23
549.86	2098.93
550.21	2106.18
550.57	2113.42
550.92	2120.09
551.28	2127.15
551.64	2134.18
551.99	2140.68
552.35	2146.81
552.70	2152.81
553.06	2158.74
553.41	2165.00
553.77	2171.07
554.13	2177.17
554.48	2183.24
554.84	2188.46
555.19	2193.80
555.55	2198.89
555.90	2203.24
556.26	2208.09
556.61	2212.84
556.97	2217.12
557.32	2221.13
557.68	2225.34
558.03	2229.54
558.39	2233.27
558.74	2237.91
559.10	2241.75
559.45	2245.42
559.81	2249.81
560.16	2253.77
560.52	2257.00
560.87	2260.41
561.23	2262.93
561.58	2265.81
561.94	2268.35
562.29	2270.85
562.64	2273.65
563.00	2276.37
563.35	2280.02
563.71	2282.98
564.06	2286.10
564.42	2289.03
564.77	2291.54
565.12	2293.74
565.48	2295.58
565.83	2297.29
566.19	2298.56
566.54	2299.52
566.89	2300.62
567.25	2301.16
567.60	2302.26
567.96	2303.88
568.31	2304.78
568.66	2305.96
569.02	2306.51
569.37	2306.84
569.72	2307.62
570.08	2307.55
570.43	2307.54
570.78	2306.78
571.14	2305.44
571.49	2304.10
571.84	2303.76
572.20	2302.68
572.55	2301.55
572.90	2300.00
573.26	2298.60
573.61	2296.86
573.96	2295.03
574.31	2292.07
574.67	2288.92
575.02	2285.33
575.37	2281.96
575.72	2278.03
576.08	2274.61
576.43	2271.26
576.78	2267.47
577.13	2264.30
577.49	2261.09
577.84	2257.56
578.19	2253.79
578.54	2250.00
578.90	2245.83
579.25	2240.11
579.60	2235.01
579.95	2230.03
580.30	2224.98
580.66	2219.77
581.01	2214.70
581.36	2209.69
581.71	2205.46
582.06	2201.01
582.42	2196.47
582.77	2191.04
583.12	2186.42
583.47	2181.53
583.82	2176.35
584.17	2171.06
584.53	2165.54
584.88	2159.82
585.23	2153.93
585.58	2148.17
585.93	2142.61
586.28	2137.57
586.63	2132.36
586.98	2127.12
587.34	2122.37
587.69	2117.36
588.04	2111.95
588.39	2106.27
588.74	2099.79
589.09	2093.58
589.44	2086.70
589.79	2080.66
590.14	2075.03
590.49	2068.35
590.84	2062.05
591.19	2055.96
591.54	2049.43
591.89	2041.74
592.25	2034.86
592.60	2027.56
592.95	2020.06
593.30	2012.59
593.65	2005.07
594.00	1998.07
594.35	1990.87
594.70	1982.79
595.05	1975.45
595.40	1968.11
595.75	1960.48
596.10	1954.11
596.45	1947.12
596.80	1940.75
597.15	1933.95
597.50	1926.73
597.85	1920.40
598.19	1913.47
598.54	1906.41
598.89	1899.63
599.24	1893.80
599.59	1887.04
599.94	1880.76
600.29	1874.44
600.64	1867.87
600.99	1860.43
601.34	1853.48
601.69	1846.42
602.04	1839.42
602.39	1832.01
602.74	1825.15
603.08	1818.44
603.43	1811.73
603.78	1804.57
604.13	1797.38
604.48	1790.09
604.83	1783.33
605.18	1776.07
605.53	1768.18
605.87	1760.17
606.22	1752.97
606.57	1744.98
606.92	1737.73
607.27	1730.52
607.62	1723.54
607.96	1716.16
608.31	1709.30
608.66	1701.70
609.01	1694.20
609.36	1686.58
609.70	1678.55
610.05	1670.48
610.40	1662.72
610.75	1654.31
611.10	1646.51
611.44	1638.26
611.79	1630.30
612.14	1621.55
612.49	1612.55
612.83	1604.14
613.18	1596.08
613.53	1588.00
613.88	1579.50
614.22	1571.16
614.57	1562.67
614.92	1554.63
615.27	1547.04
615.61	1538.76
615.96	1530.76
616.31	1523.15
616.65	1515.82
617.00	1508.33
617.35	1500.70
617.70	1492.30
618.04	1483.80
618.39	1475.60
618.74	1467.90
619.08	1459.56
619.43	1452.02
619.78	1445.10
620.12	1437.92
620.47	1430.37
620.82	1422.20
621.16	1414.78
621.51	1407.26
621.85	1399.59
622.20	1391.13
622.55	1382.88
622.89	1375.15
623.24	1367.52
623.59	1360.18
623.93	1352.55
624.28	1345.25
624.62	1337.71
624.97	1330.57
625.32	1323.88
625.66	1316.88
626.01	1309.64
626.35	1302.21
626.70	1294.42
627.04	1286.65
627.39	1278.93
627.73	1271.45
628.08	1264.45
628.43	1257.16
628.77	1249.66
629.12	1242.03
629.46	1234.81
629.81	1227.40
630.15	1220.12
630.50	1212.71
630.84	1204.37
631.19	1196.53
631.53	1189.12
631.88	1181.59
632.22	1174.04
632.57	1166.74
632.91	1159.16
633.26	1151.71
633.60	1144.34
633.95	1137.31
634.29	1130.36
634.64	1123.67
634.98	1116.23
635.32	1109.17
635.67	1102.55
636.01	1095.97
636.36	1089.18
636.70	1082.65
637.05	1076.03
637.39	1069.54
637.73	1062.96
638.08	1057.15
638.42	1051.18
638.77	1044.62
639.11	1037.98
639.45	1031.58
639.80	1024.82
640.14	1018.40
640.49	1011.87
640.83	1005.51
641.17	999.18
641.52	992.76
641.86	986.26
642.20	980.48
642.55	974.15
642.89	967.65
643.23	961.08
643.58	955.26
643.92	949.03
644.26	943.03
644.61	937.03
644.95	931.06
645.29	924.35
645.64	917.61
645.98	911.34
646.32	905.44
646.66	899.41
647.01	893.66
647.35	888.03
647.69	882.27
648.04	876.79
648.38	870.95
648.72	864.89
649.06	858.88
649.41	852.98
649.75	846.92
650.09	841.01
650.43	835.28
650.78	829.22
651.12	823.31
651.46	817.58
651.80	811.74
652.14	806.36
652.49	801.05
652.83	795.84
653.17	790.20
653.51	784.56
653.85	779.16
654.20	773.52
654.54	767.50
654.88	761.76
655.22	755.89
655.56	750.35
655.90	744.94
656.25	739.71
656.59	734.39
656.93	729.41
657.27	724.20
657.61	718.77
657.95	713.66
658.29	708.61
658.64	703.39
658.98	698.13
659.32	692.67
659.66	687.51
660.00	682.23
660.34	677.29
660.68	672.39
661.02	667.37
661.36	662.70
661.70	658.24
662.05	653.91
662.39	649.60
662.73	645.17
663.07	640.84
663.41	636.37
663.75	631.90
664.09	627.31
664.43	622.98
664.77	618.87
665.11	614.64
665.45	610.53
665.79	606.46
666.13	602.37
666.47	598.30
666.81	594.03
667.15	589.94
667.49	585.99
667.83	582.21
668.17	578.29
668.51	574.19
668.85	570.17
669.19	566.36
669.53	562.46
669.87	558.54
670.21	554.87
670.55	551.25
670.89	547.73
671.23	544.28
671.57	540.78
671.91	537.26
672.25	533.77
672.58	530.26
672.92	526.87
673.26	523.74
673.60	520.60
673.94	517.56
674.28	514.71
674.62	511.77
674.96	508.63
675.30	505.68
675.64	502.82
675.97	500.01
676.31	497.08
676.65	494.20
676.99	491.49
677.33	488.62
677.67	485.84
678.01	482.86
678.34	479.88
678.68	477.01
679.02	474.15
679.36	471.40
679.70	468.68
680.04	465.87
680.37	462.91
680.71	460.12
681.05	457.48
681.39	454.71
681.73	452.10
682.06	449.56
682.40	447.00
682.74	444.42
683.08	441.89
683.42	439.30
683.75	436.79
684.09	434.22
684.43	431.78
684.77	429.24
685.10	426.86
685.44	424.61
685.78	422.28
686.12	420.05
686.45	417.81
686.79	415.45
687.13	413.25
687.46	411.10
687.80	408.98
688.14	406.84
688.48	404.78
688.81	402.50
689.15	400.41
689.49	398.27
689.82	396.21
690.16	394.16
690.50	392.24
690.83	390.26
691.17	388.29
691.51	386.33
691.84	384.51
692.18	382.64
692.52	380.61
692.85	378.73
693.19	376.90
693.52	375.06
693.86	373.34
694.20	371.59
694.53	369.82
694.87	367.94
695.21	366.13
695.54	364.35
695.88	362.65
696.21	360.90
696.55	359.25
696.88	357.57
697.22	355.94
697.56	354.31
697.89	352.71
698.23	351.14
698.56	349.53
698.90	347.93
699.23	346.32
699.57	344.82
699.90	343.28
700.24	341.73
700.58	340.20
700.91	338.71
701.25	337.24
701.58	335.87
701.92	334.56
702.25	333.22
702.59	331.86
702.92	330.57
703.26	329.28
703.59	327.98
703.93	326.80
704.26	325.56
704.60	324.25
704.93	323.03
705.26	321.79
705.60	320.67
705.93	319.56
706.27	318.52
706.60	317.49
706.94	316.43
707.27	315.27
707.61	314.19
707.94	313.15
708.27	312.09
708.61	311.04
708.94	310.06
709.28	309.09
709.61	308.17
709.94	307.23
710.28	306.23
710.61	305.33
710.95	304.29
711.28	303.37
711.61	302.42
711.95	301.50
712.28	300.53
712.61	299.52
712.95	298.60
713.28	297.74
713.61	296.82
713.95	295.91
714.28	295.10
714.61	294.28
714.95	293.40
715.28	292.53
715.61	291.63
715.95	290.72
716.28	289.84
716.61	288.97
716.95	288.13
717.28	287.37
717.61	286.52
717.94	285.75
718.28	284.92
718.61	284.23
718.94	283.45
719.27	282.80
719.61	282.15
719.94	281.45
720.27	280.73
720.60	280.06
720.94	279.44
721.27	278.85
721.60	278.23
721.93	277.66
722.27	277.09
722.60	276.55
722.93	275.99
723.26	275.43
723.59	274.86
723.93	274.28
724.26	273.76
724.59	273.20
724.92	272.68
725.25	272.20
725.59	271.66
725.92	271.19
726.25	270.68
726.58	270.17
726.91	269.66
727.24	269.14
727.57	268.64
727.91	268.16
728.24	267.67
728.57	267.17
728.90	266.70
729.23	266.22
729.56	265.79
729.89	265.35
730.22	264.87
730.55	264.42
730.89	264.02
731.22	263.55
731.55	263.16
731.88	262.73
732.21	262.26
732.54	261.86
732.87	261.42
733.20	261.03
733.53	260.66
733.86	260.26
734.19	259.89
734.52	259.53
734.85	259.19
735.18	258.76
735.51	258.43
735.84	258.07
736.17	257.70
736.50	257.32
736.83	257.08
737.16	256.77
737.49	256.42
737.82	256.07
738.15	255.76
738.48	255.43
738.81	255.12
739.14	254.81
739.47	254.48
739.80	254.17
740.13	253.88
740.46	253.55
740.79	253.26
741.12	252.97
741.45	252.65
741.78	252.33
742.11	252.03
742.44	251.73
742.77	251.46
743.10	251.18
743.43	250.87
743.75	250.47
744.08	250.33
744.41	250.07
744.74	249.77
745.07	249.50
745.40	249.25
745.73	249.01
746.06	248.74
746.39	248.47
746.71	248.22
747.04	247.97
747.37	247.73
747.70	247.49
748.03	247.25
748.36	247.07
748.68	246.82
749.01	246.59
749.34	246.35
749.67	246.10
750.00	245.90
750.33	245.73
750.65	245.53
750.98	245.19
751.31	244.96
751.64	244.81
751.97	244.62
752.29	244.42
752.62	244.16
752.95	243.96
753.28	243.78
753.60	243.58
753.93	243.39
754.26	243.20
754.59	243.00
754.91	242.81
755.24	242.61
755.57	242.41
755.90	242.24
756.22	242.05
756.55	241.87
756.88	241.65
757.20	241.39
757.53	241.18
757.86	240.99
758.19	240.87
758.51	240.68
758.84	240.48
759.17	240.29
759.49	240.12
759.82	240.03
760.15	239.87
760.47	239.69
760.80	239.50
761.13	239.37
761.45	239.21
761.78	239.03
762.11	238.89
762.43	238.77
762.76	238.61
763.08	238.49
763.41	238.36
763.74	238.25
764.06	238.16
764.39	238.04
764.71	237.88
765.04	237.70
765.37	237.53
765.69	237.41
766.02	237.29
766.34	237.15
766.67	236.97
767.00	236.84
767.32	236.78
767.65	236.71
767.97	236.58
768.30	236.47
768.62	236.35
768.95	236.17
769.27	236.03
769.60	235.95
769.92	235.81
770.25	235.67
770.57	235.54
770.90	235.40
771.22	235.27
771.55	235.19
771.87	235.12
772.20	235.00
772.52	235.00
772.85	235.01
773.17	234.94
773.50	234.84
773.82	234.77
774.15	234.64
774.47	234.47
774.80	234.37
775.12	234.26
775.45	234.19
775.77	234.12
776.09	234.08
776.42	233.96
776.74	233.87
777.07	233.79
777.39	233.71
777.72	233.65
778.04	233.62
778.36	233.55
778.69	233.46
779.01	233.40
779.33	233.23
779.66	233.04
779.98	232.97
780.31	232.91
780.63	232.88
780.95	232.86
781.28	232.82
781.60	232.76
781.92	232.70
782.25	232.64
782.57	232.59
782.89	232.50
783.22	232.47
783.54	232.40
783.86	232.35
784.19	232.27
784.51	232.21
784.83	232.15
785.16	232.11
785.48	232.07
785.80	232.06
786.12	232.01
786.45	231.99
786.77	231.93
787.09	231.89
