SpectraSuite Data File
++++++++++++++++++++++++++++++++++++
Date: Fri Feb 01 16:09:43 EST 2013
User: group
Dark Spectrum Present: No
Reference Spectrum Present: No
Number of Sampled Component Spectra: 1
Spectrometers: USB2E7196
Integration Time (usec): 35000 (USB2E7196)
Spectra Averaged: 100 (USB2E7196)
Boxcar Smoothing: 10 (USB2E7196)
Correct for Electrical Dark: No (USB2E7196)
Strobe/Lamp Enabled: No (USB2E7196)
Correct for Detector Non-linearity: No (USB2E7196)
Correct for Stray Light: No (USB2E7196)
Number of Pixels in Processed Spectrum: 2048
>>>>>Begin Processed Spectral Data<<<<<
339.09	0.00
339.48	214.54
339.86	216.68
340.24	216.82
340.63	218.61
341.01	221.35
341.39	221.44
341.78	222.59
342.16	223.77
342.54	225.04
342.93	212.96
343.31	223.74
343.69	224.29
344.07	224.74
344.46	225.21
344.84	225.62
345.22	225.88
345.60	226.13
345.99	226.35
346.37	226.46
346.75	226.56
347.13	226.63
347.52	226.71
347.90	226.80
348.28	226.86
348.66	226.90
349.05	226.86
349.43	226.87
349.81	226.93
350.19	226.93
350.57	226.98
350.96	227.04
351.34	227.09
351.72	227.19
352.10	227.28
352.48	227.32
352.87	227.36
353.25	227.40
353.63	227.47
354.01	227.52
354.39	227.63
354.77	227.66
355.15	227.77
355.54	227.84
355.92	227.88
356.30	227.94
356.68	228.07
357.06	228.16
357.44	228.24
357.82	228.29
358.20	228.38
358.58	228.44
358.97	228.52
359.35	228.60
359.73	228.67
360.11	228.70
360.49	228.78
360.87	228.84
361.25	228.91
361.63	228.97
362.01	229.04
362.39	229.03
362.77	229.09
363.15	229.10
363.53	229.13
363.91	229.14
364.29	229.12
364.67	229.04
365.05	229.03
365.43	229.03
365.81	229.04
366.19	229.10
366.57	229.12
366.95	229.08
367.33	229.06
367.71	229.03
368.09	229.05
368.47	229.00
368.85	228.95
369.23	228.93
369.61	228.91
369.99	228.92
370.37	228.94
370.75	228.94
371.13	228.89
371.51	228.81
371.89	228.79
372.27	228.77
372.65	228.76
373.03	228.72
373.41	228.63
373.78	228.57
374.16	228.42
374.54	228.33
374.92	228.31
375.30	228.26
375.68	228.18
376.06	228.09
376.44	228.04
376.82	227.96
377.19	227.90
377.57	227.82
377.95	227.70
378.33	227.61
378.71	227.49
379.09	227.40
379.47	227.36
379.84	227.30
380.22	227.22
380.60	227.14
380.98	227.07
381.36	227.01
381.73	226.94
382.11	226.90
382.49	226.83
382.87	226.72
383.25	226.64
383.62	226.71
384.00	226.65
384.38	226.62
384.76	226.58
385.13	226.55
385.51	226.48
385.89	226.40
386.27	226.35
386.64	226.33
387.02	226.31
387.40	226.27
387.78	226.21
388.15	226.20
388.53	226.16
388.91	226.10
389.29	226.07
389.66	226.05
390.04	226.02
390.42	226.04
390.79	226.02
391.17	226.00
391.55	225.86
391.92	225.83
392.30	225.81
392.68	225.81
393.05	225.81
393.43	225.84
393.81	225.85
394.18	225.81
394.56	225.81
394.94	225.85
395.31	225.86
395.69	225.90
396.06	225.93
396.44	225.95
396.82	226.03
397.19	226.11
397.57	226.14
397.95	226.20
398.32	226.20
398.70	226.28
399.07	226.37
399.45	226.41
399.82	226.49
400.20	226.58
400.58	226.63
400.95	226.67
401.33	226.71
401.70	226.87
402.08	227.01
402.45	227.14
402.83	227.25
403.20	227.35
403.58	227.48
403.95	227.57
404.33	227.71
404.71	227.81
405.08	228.00
405.46	228.12
405.83	228.26
406.21	228.41
406.58	228.58
406.96	228.72
407.33	228.92
407.70	229.11
408.08	229.36
408.45	229.57
408.83	229.79
409.20	230.04
409.58	230.21
409.95	230.48
410.33	230.71
410.70	230.94
411.08	231.21
411.45	231.50
411.82	231.84
412.20	232.16
412.57	232.56
412.95	232.88
413.32	233.29
413.69	233.69
414.07	234.14
414.44	234.62
414.82	235.10
415.19	235.64
415.56	236.19
415.94	236.71
416.31	237.36
416.68	237.97
417.06	238.67
417.43	239.35
417.81	240.09
418.18	240.85
418.55	241.71
418.93	242.60
419.30	243.50
419.67	244.44
420.04	245.45
420.42	246.45
420.79	247.60
421.16	248.75
421.54	249.94
421.91	251.13
422.28	252.37
422.66	253.73
423.03	255.01
423.40	256.35
423.77	257.80
424.15	259.22
424.52	260.71
424.89	262.31
425.26	263.88
425.64	265.31
426.01	266.92
426.38	268.55
426.75	270.24
427.13	271.96
427.50	273.76
427.87	275.63
428.24	277.50
428.61	279.25
428.99	281.22
429.36	283.32
429.73	285.39
430.10	287.43
430.47	289.45
430.85	291.58
431.22	293.83
431.59	296.18
431.96	298.41
432.33	300.93
432.70	303.31
433.08	306.09
433.45	308.76
433.82	311.38
434.19	314.33
434.56	317.14
434.93	319.79
435.30	322.38
435.68	325.28
436.05	328.11
436.42	330.91
436.79	333.39
437.16	336.09
437.53	338.97
437.90	341.77
438.27	344.51
438.64	347.34
439.01	349.89
439.38	352.13
439.75	354.29
440.13	356.79
440.50	359.10
440.87	360.97
441.24	362.86
441.61	365.03
441.98	366.43
442.35	368.22
442.72	370.09
443.09	371.88
443.46	372.84
443.83	373.45
444.20	373.94
444.57	374.77
444.94	375.03
445.31	375.27
445.68	375.64
446.05	375.70
446.42	375.32
446.79	374.94
447.16	374.53
447.53	374.23
447.90	373.01
448.27	371.83
448.64	370.28
449.01	369.15
449.37	367.16
449.74	365.28
450.11	363.00
450.48	360.52
450.85	357.99
451.22	355.87
451.59	353.78
451.96	351.83
452.33	349.20
452.70	346.89
453.07	344.09
453.43	341.16
453.80	338.41
454.17	335.71
454.54	333.20
454.91	330.45
455.28	327.77
455.65	325.35
456.02	322.94
456.38	320.74
456.75	318.07
457.12	315.82
457.49	313.61
457.86	311.44
458.23	309.59
458.59	307.60
458.96	305.52
459.33	303.72
459.70	301.86
460.07	300.39
460.43	298.64
460.80	297.05
461.17	295.62
461.54	294.11
461.91	292.71
462.27	291.25
462.64	290.01
463.01	288.66
463.38	287.36
463.74	286.01
464.11	284.85
464.48	283.83
464.85	282.74
465.21	281.89
465.58	281.02
465.95	279.92
466.32	279.00
466.68	278.10
467.05	277.19
467.42	276.31
467.78	275.41
468.15	274.53
468.52	273.85
468.88	273.03
469.25	272.30
469.62	271.68
469.98	271.01
470.35	270.35
470.72	269.76
471.08	269.10
471.45	268.57
471.82	268.05
472.18	267.47
472.55	267.04
472.92	266.54
473.28	266.05
473.65	265.60
474.02	265.14
474.38	264.75
474.75	264.43
475.11	264.07
475.48	263.82
475.85	263.59
476.21	263.40
476.58	263.19
476.94	263.03
477.31	262.87
477.67	262.72
478.04	262.60
478.41	262.58
478.77	262.67
479.14	262.60
479.50	262.62
479.87	262.72
480.23	262.79
480.60	262.87
480.96	262.99
481.33	263.18
481.69	263.42
482.06	263.66
482.42	263.85
482.79	264.14
483.15	264.45
483.52	264.86
483.88	265.22
484.25	265.62
484.61	266.05
484.98	266.48
485.34	267.11
485.71	267.74
486.07	268.31
486.44	268.86
486.80	269.59
487.17	270.33
487.53	271.13
487.90	272.00
488.26	272.91
488.62	273.86
488.99	274.86
489.35	275.84
489.72	276.97
490.08	278.18
490.44	279.40
490.81	280.73
491.17	282.09
491.54	283.53
491.90	285.10
492.26	286.73
492.63	288.46
492.99	290.18
493.36	292.07
493.72	294.11
494.08	296.23
494.45	298.46
494.81	300.83
495.17	303.23
495.54	305.84
495.90	308.54
496.26	311.37
496.63	314.35
496.99	317.50
497.35	320.75
497.72	324.17
498.08	327.72
498.44	331.42
498.80	335.39
499.17	339.50
499.53	343.69
499.89	348.08
500.26	352.61
500.62	357.35
500.98	362.32
501.34	367.42
501.71	372.71
502.07	378.13
502.43	383.76
502.79	389.60
503.16	395.63
503.52	401.89
503.88	408.34
504.24	414.98
504.60	421.87
504.97	429.04
505.33	436.32
505.69	444.01
506.05	451.78
506.41	459.64
506.78	467.77
507.14	476.22
507.50	485.00
507.86	494.06
508.22	503.18
508.59	512.41
508.95	521.99
509.31	531.83
509.67	541.97
510.03	552.27
510.39	562.82
510.75	573.62
511.12	584.63
511.48	595.93
511.84	607.36
512.20	618.92
512.56	630.87
512.92	643.13
513.28	655.55
513.64	668.03
514.00	680.72
514.37	693.68
514.73	706.73
515.09	719.71
515.45	732.99
515.81	746.63
516.17	760.59
516.53	774.76
516.89	788.95
517.25	803.16
517.61	817.57
517.97	832.02
518.33	846.43
518.69	861.20
519.05	876.14
519.41	891.29
519.77	906.87
520.13	922.29
520.49	937.66
520.85	952.99
521.21	968.72
521.57	984.91
521.93	1000.70
522.29	1017.05
522.65	1033.23
523.01	1049.40
523.37	1065.35
523.73	1081.45
524.09	1097.50
524.45	1113.72
524.81	1130.25
525.17	1146.97
525.53	1163.80
525.89	1180.66
526.25	1197.37
526.61	1213.62
526.97	1230.34
527.33	1246.68
527.68	1263.23
528.04	1279.65
528.40	1296.26
528.76	1313.23
529.12	1329.81
529.48	1346.58
529.84	1362.60
530.20	1379.20
530.56	1396.07
530.91	1413.52
531.27	1430.22
531.63	1446.64
531.99	1463.21
532.35	1479.10
532.71	1495.04
533.07	1511.24
533.42	1527.11
533.78	1543.14
534.14	1559.53
534.50	1574.86
534.86	1590.61
535.21	1605.78
535.57	1621.59
535.93	1636.97
536.29	1651.67
536.65	1666.63
537.00	1681.34
537.36	1696.52
537.72	1710.92
538.08	1725.39
538.44	1739.01
538.79	1752.87
539.15	1766.40
539.51	1780.14
539.87	1794.49
540.22	1808.16
540.58	1821.88
540.94	1835.05
541.29	1847.74
541.65	1860.29
542.01	1873.35
542.37	1885.60
542.72	1897.88
543.08	1909.62
543.44	1921.87
543.79	1933.01
544.15	1944.03
544.51	1955.55
544.87	1966.43
545.22	1977.27
545.58	1987.51
545.94	1997.27
546.29	2007.18
546.65	2017.13
547.01	2026.37
547.36	2035.02
547.72	2043.42
548.07	2051.39
548.43	2059.50
548.79	2067.55
549.14	2075.05
549.50	2082.40
549.86	2090.14
550.21	2097.43
550.57	2104.66
550.92	2111.30
551.28	2118.51
551.64	2125.42
551.99	2131.95
552.35	2138.06
552.70	2144.28
553.06	2150.24
553.41	2156.62
553.77	2162.49
554.13	2168.49
554.48	2174.50
554.84	2179.98
555.19	2185.13
555.55	2190.12
555.90	2194.63
556.26	2199.64
556.61	2204.34
556.97	2208.84
557.32	2212.94
557.68	2217.14
558.03	2221.48
558.39	2225.17
558.74	2229.75
559.10	2233.72
559.45	2237.35
559.81	2241.68
560.16	2245.40
560.52	2248.45
560.87	2251.85
561.23	2254.56
561.58	2257.36
561.94	2259.89
562.29	2262.21
562.64	2265.05
563.00	2267.70
563.35	2271.21
563.71	2274.16
564.06	2277.55
564.42	2280.28
564.77	2283.04
565.12	2285.40
565.48	2287.12
565.83	2289.07
566.19	2290.40
566.54	2291.25
566.89	2292.33
567.25	2293.03
567.60	2294.42
567.96	2296.25
568.31	2297.10
568.66	2298.29
569.02	2298.91
569.37	2299.20
569.72	2300.14
570.08	2300.39
570.43	2300.34
570.78	2299.95
571.14	2298.44
571.49	2296.90
571.84	2296.52
572.20	2295.26
572.55	2294.04
572.90	2292.48
573.26	2291.00
573.61	2289.14
573.96	2287.50
574.31	2284.57
574.67	2281.59
575.02	2277.88
575.37	2274.43
575.72	2270.60
576.08	2267.26
576.43	2263.88
576.78	2260.53
577.13	2257.27
577.49	2254.02
577.84	2250.68
578.19	2246.73
578.54	2243.25
578.90	2239.25
579.25	2233.69
579.60	2228.79
579.95	2223.99
580.30	2219.15
580.66	2214.03
581.01	2209.20
581.36	2204.36
581.71	2200.30
582.06	2195.86
582.42	2191.48
582.77	2186.26
583.12	2181.73
583.47	2177.08
583.82	2172.29
584.17	2166.90
584.53	2161.49
584.88	2155.88
585.23	2150.19
585.58	2144.86
585.93	2139.43
586.28	2134.53
586.63	2129.59
586.98	2124.49
587.34	2119.66
587.69	2114.73
588.04	2109.57
588.39	2103.96
588.74	2097.38
589.09	2091.24
589.44	2084.63
589.79	2078.54
590.14	2073.06
590.49	2066.56
590.84	2060.07
591.19	2053.99
591.54	2047.53
591.89	2040.18
592.25	2033.55
592.60	2026.42
592.95	2018.84
593.30	2011.57
593.65	2003.97
594.00	1996.88
594.35	1989.56
594.70	1981.57
595.05	1974.46
595.40	1967.18
595.75	1959.68
596.10	1953.52
596.45	1946.95
596.80	1940.81
597.15	1934.38
597.50	1927.28
597.85	1920.79
598.19	1914.18
598.54	1907.28
598.89	1900.73
599.24	1894.88
599.59	1888.16
599.94	1881.83
600.29	1875.50
600.64	1868.75
600.99	1861.42
601.34	1854.58
601.69	1847.70
602.04	1840.88
602.39	1833.51
602.74	1826.83
603.08	1820.04
603.43	1813.27
603.78	1805.83
604.13	1798.56
604.48	1791.16
604.83	1784.28
605.18	1777.49
605.53	1769.60
605.87	1761.43
606.22	1754.22
606.57	1746.12
606.92	1738.71
607.27	1731.67
607.62	1724.95
607.96	1717.74
608.31	1711.29
608.66	1703.68
609.01	1696.13
609.36	1688.51
609.70	1680.46
610.05	1672.38
610.40	1664.80
610.75	1656.53
611.10	1648.83
611.44	1640.32
611.79	1632.32
612.14	1623.70
612.49	1614.34
612.83	1605.95
613.18	1597.92
613.53	1589.72
613.88	1581.36
614.22	1573.19
614.57	1564.46
614.92	1556.35
615.27	1548.86
615.61	1540.36
615.96	1532.34
616.31	1524.66
616.65	1517.32
617.00	1509.86
617.35	1502.07
617.70	1493.75
618.04	1485.27
618.39	1477.06
618.74	1469.43
619.08	1461.24
619.43	1453.55
619.78	1446.86
620.12	1439.66
620.47	1432.17
620.82	1424.01
621.16	1416.61
621.51	1408.95
621.85	1401.36
622.20	1392.75
622.55	1384.36
622.89	1376.57
623.24	1368.87
623.59	1361.49
623.93	1353.91
624.28	1346.74
624.62	1339.21
624.97	1331.99
625.32	1325.27
625.66	1318.20
626.01	1311.03
626.35	1303.61
626.70	1295.84
627.04	1288.03
627.39	1280.19
627.73	1272.64
628.08	1265.74
628.43	1258.40
628.77	1251.04
629.12	1243.38
629.46	1236.26
629.81	1228.79
630.15	1221.53
630.50	1214.23
630.84	1206.18
631.19	1198.30
631.53	1190.63
631.88	1183.00
632.22	1175.48
632.57	1168.05
632.91	1160.54
633.26	1153.11
633.60	1145.53
633.95	1138.39
634.29	1131.22
634.64	1124.55
634.98	1117.25
635.32	1110.14
635.67	1103.54
636.01	1096.85
636.36	1090.18
636.70	1083.59
637.05	1077.01
637.39	1070.45
637.73	1064.01
638.08	1057.96
638.42	1051.96
638.77	1045.55
639.11	1039.16
639.45	1032.71
639.80	1026.11
640.14	1019.69
640.49	1013.26
640.83	1007.04
641.17	1000.90
641.52	994.61
641.86	988.09
642.20	982.28
642.55	975.82
642.89	969.41
643.23	962.87
643.58	957.01
643.92	950.86
644.26	944.88
644.61	938.93
644.95	932.90
645.29	926.35
645.64	919.62
645.98	913.26
646.32	907.30
646.66	901.22
647.01	895.40
647.35	889.73
647.69	883.78
648.04	878.22
648.38	872.42
648.72	866.46
649.06	860.42
649.41	854.53
649.75	848.62
650.09	842.56
650.43	836.75
650.78	830.63
651.12	824.64
651.46	818.81
651.80	813.08
652.14	807.64
652.49	802.32
652.83	797.15
653.17	791.52
653.51	785.81
653.85	780.35
654.20	774.68
654.54	768.69
654.88	762.96
655.22	757.08
655.56	751.41
655.90	745.91
656.25	740.73
656.59	735.32
656.93	730.18
657.27	725.08
657.61	719.72
657.95	714.65
658.29	709.55
658.64	704.37
658.98	699.00
659.32	693.48
659.66	688.27
660.00	682.86
660.34	677.82
660.68	672.91
661.02	667.93
661.36	663.25
661.70	658.70
662.05	654.36
662.39	650.06
662.73	645.54
663.07	641.22
663.41	636.79
663.75	632.32
664.09	627.74
664.43	623.29
664.77	619.19
665.11	614.90
665.45	610.79
665.79	606.73
666.13	602.61
666.47	598.57
666.81	594.35
667.15	590.35
667.49	586.45
667.83	582.60
668.17	578.63
668.51	574.61
668.85	570.54
669.19	566.75
669.53	562.91
669.87	559.06
670.21	555.33
670.55	551.68
670.89	548.24
671.23	544.90
671.57	541.40
671.91	537.81
672.25	534.27
672.58	530.77
672.92	527.33
673.26	524.13
673.60	520.99
673.94	517.92
674.28	514.97
674.62	512.08
674.96	509.03
675.30	506.16
675.64	503.20
675.97	500.44
676.31	497.52
676.65	494.60
676.99	491.86
677.33	489.03
677.67	486.27
678.01	483.23
678.34	480.23
678.68	477.40
679.02	474.62
679.36	471.88
679.70	469.14
680.04	466.39
680.37	463.56
680.71	460.71
681.05	458.05
681.39	455.34
681.73	452.65
682.06	450.10
682.40	447.55
682.74	444.97
683.08	442.41
683.42	439.80
683.75	437.32
684.09	434.76
684.43	432.25
684.77	429.76
685.10	427.41
685.44	425.04
685.78	422.72
686.12	420.38
686.45	418.14
686.79	415.84
687.13	413.60
687.46	411.41
687.80	409.23
688.14	406.99
688.48	404.95
688.81	402.73
689.15	400.59
689.49	398.38
689.82	396.32
690.16	394.25
690.50	392.31
690.83	390.34
691.17	388.34
691.51	386.42
691.84	384.51
692.18	382.62
692.52	380.69
692.85	378.75
693.19	376.92
693.52	374.98
693.86	373.14
694.20	371.34
694.53	369.57
694.87	367.76
695.21	366.02
695.54	364.14
695.88	362.37
696.21	360.61
696.55	358.98
696.88	357.31
697.22	355.62
697.56	353.97
697.89	352.31
698.23	350.77
698.56	349.18
698.90	347.61
699.23	345.96
699.57	344.39
699.90	342.82
700.24	341.30
700.58	339.83
700.91	338.36
701.25	336.95
701.58	335.58
701.92	334.22
702.25	332.84
702.59	331.49
702.92	330.18
703.26	328.89
703.59	327.60
703.93	326.39
704.26	325.21
704.60	323.93
704.93	322.65
705.26	321.37
705.60	320.18
705.93	319.05
706.27	318.01
706.60	316.97
706.94	315.90
707.27	314.78
707.61	313.73
707.94	312.65
708.27	311.57
708.61	310.52
708.94	309.53
709.28	308.54
709.61	307.59
709.94	306.68
710.28	305.67
710.61	304.67
710.95	303.59
711.28	302.67
711.61	301.72
711.95	300.84
712.28	299.91
712.61	298.95
712.95	298.01
713.28	297.11
713.61	296.19
713.95	295.31
714.28	294.45
714.61	293.59
714.95	292.80
715.28	291.94
715.61	291.04
715.95	290.17
716.28	289.33
716.61	288.48
716.95	287.64
717.28	286.90
717.61	286.16
717.94	285.44
718.28	284.61
718.61	283.88
718.94	283.20
719.27	282.55
719.61	281.88
719.94	281.18
720.27	280.44
720.60	279.81
720.94	279.19
721.27	278.57
721.60	277.97
721.93	277.38
722.27	276.82
722.60	276.23
722.93	275.66
723.26	275.12
723.59	274.59
723.93	274.02
724.26	273.44
724.59	272.88
724.92	272.39
725.25	271.91
725.59	271.40
725.92	270.84
726.25	270.31
726.58	269.84
726.91	269.37
727.24	268.92
727.57	268.42
727.91	267.91
728.24	267.45
728.57	266.93
728.90	266.42
729.23	265.92
729.56	265.52
729.89	265.00
730.22	264.51
730.55	264.03
730.89	263.57
731.22	263.09
731.55	262.64
731.88	262.15
732.21	261.70
732.54	261.25
732.87	260.83
733.20	260.41
733.53	259.98
733.86	259.59
734.19	259.18
734.52	258.79
734.85	258.47
735.18	258.03
735.51	257.68
735.84	257.33
736.17	256.99
736.50	256.56
736.83	256.35
737.16	256.00
737.49	255.65
737.82	255.28
738.15	254.99
738.48	254.62
738.81	254.31
739.14	253.96
739.47	253.64
739.80	253.31
740.13	253.02
740.46	252.67
740.79	252.35
741.12	252.06
741.45	251.75
741.78	251.43
742.11	251.19
742.44	250.84
742.77	250.53
743.10	250.26
743.43	249.96
743.75	249.58
744.08	249.42
744.41	249.15
744.74	248.90
745.07	248.60
745.40	248.35
745.73	248.17
746.06	247.89
746.39	247.63
746.71	247.40
747.04	247.09
747.37	246.85
747.70	246.61
748.03	246.35
748.36	246.14
748.68	245.86
749.01	245.60
749.34	245.42
749.67	245.21
750.00	244.96
750.33	244.84
750.65	244.64
750.98	244.29
751.31	244.08
751.64	243.88
751.97	243.74
752.29	243.56
752.62	243.28
752.95	243.12
753.28	242.93
753.60	242.72
753.93	242.59
754.26	242.40
754.59	242.18
754.91	242.00
755.24	241.80
755.57	241.63
755.90	241.48
756.22	241.27
756.55	241.09
756.88	240.93
757.20	240.70
757.53	240.52
757.86	240.39
758.19	240.25
758.51	240.09
758.84	239.90
759.17	239.75
759.49	239.61
759.82	239.46
760.15	239.31
760.47	239.18
760.80	239.00
761.13	238.90
761.45	238.78
761.78	238.65
762.11	238.50
762.43	238.36
762.76	238.18
763.08	238.08
763.41	237.93
763.74	237.77
764.06	237.62
764.39	237.49
764.71	237.35
765.04	237.21
765.37	237.05
765.69	236.92
766.02	236.76
766.34	236.65
766.67	236.50
767.00	236.40
767.32	236.30
767.65	236.24
767.97	236.11
768.30	235.96
768.62	235.81
768.95	235.68
769.27	235.57
769.60	235.49
769.92	235.36
770.25	235.25
770.57	235.14
770.90	235.02
771.22	234.89
771.55	234.77
771.87	234.64
772.20	234.57
772.52	234.55
772.85	234.59
773.17	234.46
773.50	234.35
773.82	234.23
774.15	234.05
774.47	233.91
774.80	233.79
775.12	233.71
775.45	233.62
775.77	233.54
776.09	233.43
776.42	233.33
776.74	233.28
777.07	233.21
777.39	233.09
777.72	233.02
778.04	232.95
778.36	232.87
778.69	232.79
779.01	232.70
779.33	232.52
779.66	232.30
779.98	232.23
780.31	232.17
780.63	232.12
780.95	232.10
781.28	232.03
781.60	231.97
781.92	231.92
782.25	231.88
782.57	231.79
782.89	231.73
783.22	231.64
783.54	231.53
783.86	231.48
784.19	231.44
784.51	231.41
784.83	231.34
785.16	231.27
785.48	231.24
785.80	231.22
786.12	231.17
786.45	231.12
786.77	231.10
787.09	231.04
