SpectraSuite Data File
++++++++++++++++++++++++++++++++++++
Date: Fri Feb 01 16:33:10 EST 2013
User: group
Dark Spectrum Present: No
Reference Spectrum Present: No
Number of Sampled Component Spectra: 1
Spectrometers: USB2E7196
Integration Time (usec): 35000 (USB2E7196)
Spectra Averaged: 100 (USB2E7196)
Boxcar Smoothing: 10 (USB2E7196)
Correct for Electrical Dark: No (USB2E7196)
Strobe/Lamp Enabled: No (USB2E7196)
Correct for Detector Non-linearity: No (USB2E7196)
Correct for Stray Light: No (USB2E7196)
Number of Pixels in Processed Spectrum: 2048
>>>>>Begin Processed Spectral Data<<<<<
339.09	0.00
339.48	213.68
339.86	215.06
340.24	216.91
340.63	218.05
341.01	221.14
341.39	221.47
341.78	222.22
342.16	223.41
342.54	223.70
342.93	212.35
343.31	223.07
343.69	223.61
344.07	224.09
344.46	224.54
344.84	224.93
345.22	225.15
345.60	225.35
345.99	225.55
346.37	225.67
346.75	225.79
347.13	225.85
347.52	225.88
347.90	225.99
348.28	226.04
348.66	226.07
349.05	226.06
349.43	226.08
349.81	226.14
350.19	226.21
350.57	226.28
350.96	226.36
351.34	226.45
351.72	226.58
352.10	226.69
352.48	226.73
352.87	226.82
353.25	226.91
353.63	226.98
354.01	227.02
354.39	227.10
354.77	227.18
355.15	227.30
355.54	227.36
355.92	227.38
356.30	227.43
356.68	227.59
357.06	227.66
357.44	227.71
357.82	227.75
358.20	227.84
358.58	227.84
358.97	227.89
359.35	227.97
359.73	228.03
360.11	228.05
360.49	228.09
360.87	228.11
361.25	228.15
361.63	228.20
362.01	228.26
362.39	228.32
362.77	228.35
363.15	228.38
363.53	228.42
363.91	228.46
364.29	228.50
364.67	228.42
365.05	228.45
365.43	228.46
365.81	228.50
366.19	228.53
366.57	228.58
366.95	228.58
367.33	228.56
367.71	228.53
368.09	228.55
368.47	228.55
368.85	228.54
369.23	228.50
369.61	228.48
369.99	228.47
370.37	228.40
370.75	228.40
371.13	228.33
371.51	228.25
371.89	228.20
372.27	228.13
372.65	228.07
373.03	227.99
373.41	227.95
373.78	227.85
374.16	227.74
374.54	227.67
374.92	227.59
375.30	227.53
375.68	227.45
376.06	227.40
376.44	227.32
376.82	227.23
377.19	227.21
377.57	227.13
377.95	227.02
378.33	227.00
378.71	226.87
379.09	226.80
379.47	226.76
379.84	226.66
380.22	226.60
380.60	226.53
380.98	226.46
381.36	226.40
381.73	226.35
382.11	226.30
382.49	226.26
382.87	226.20
383.25	226.14
383.62	226.17
384.00	226.10
384.38	226.07
384.76	226.06
385.13	226.01
385.51	226.00
385.89	225.97
386.27	225.93
386.64	225.89
387.02	225.83
387.40	225.78
387.78	225.74
388.15	225.70
388.53	225.68
388.91	225.68
389.29	225.63
389.66	225.63
390.04	225.59
390.42	225.57
390.79	225.55
391.17	225.55
391.55	225.42
391.92	225.39
392.30	225.40
392.68	225.38
393.05	225.40
393.43	225.38
393.81	225.36
394.18	225.37
394.56	225.39
394.94	225.45
395.31	225.47
395.69	225.54
396.06	225.59
396.44	225.61
396.82	225.62
397.19	225.72
397.57	225.73
397.95	225.77
398.32	225.79
398.70	225.85
399.07	225.91
399.45	225.94
399.82	226.03
400.20	226.07
400.58	226.11
400.95	226.12
401.33	226.25
401.70	226.38
402.08	226.48
402.45	226.56
402.83	226.64
403.20	226.74
403.58	226.83
403.95	226.94
404.33	227.08
404.71	227.21
405.08	227.39
405.46	227.53
405.83	227.69
406.21	227.84
406.58	228.01
406.96	228.17
407.33	228.40
407.70	228.58
408.08	228.83
408.45	229.03
408.83	229.31
409.20	229.47
409.58	229.68
409.95	229.90
410.33	230.15
410.70	230.40
411.08	230.68
411.45	230.98
411.82	231.29
412.20	231.64
412.57	232.06
412.95	232.37
413.32	232.79
413.69	233.17
414.07	233.60
414.44	234.08
414.82	234.54
415.19	235.07
415.56	235.63
415.94	236.16
416.31	236.83
416.68	237.41
417.06	238.15
417.43	238.79
417.81	239.53
418.18	240.34
418.55	241.22
418.93	242.13
419.30	243.00
419.67	243.92
420.04	244.88
420.42	245.89
420.79	247.05
421.16	248.21
421.54	249.45
421.91	250.67
422.28	251.90
422.66	253.27
423.03	254.58
423.40	255.90
423.77	257.35
424.15	258.75
424.52	260.23
424.89	261.86
425.26	263.46
425.64	264.93
426.01	266.51
426.38	268.14
426.75	269.77
427.13	271.53
427.50	273.32
427.87	275.16
428.24	276.99
428.61	278.70
428.99	280.61
429.36	282.64
429.73	284.67
430.10	286.65
430.47	288.66
430.85	290.75
431.22	292.95
431.59	295.27
431.96	297.54
432.33	300.06
432.70	302.39
433.08	305.10
433.45	307.74
433.82	310.32
434.19	313.18
434.56	316.00
434.93	318.62
435.30	321.23
435.68	324.11
436.05	326.90
436.42	329.68
436.79	332.19
437.16	334.93
437.53	337.78
437.90	340.62
438.27	343.38
438.64	346.18
439.01	348.77
439.38	350.99
439.75	353.14
440.13	355.59
440.50	357.90
440.87	359.77
441.24	361.69
441.61	363.84
441.98	365.33
442.35	367.10
442.72	368.94
443.09	370.75
443.46	371.74
443.83	372.33
444.20	372.88
444.57	373.68
444.94	373.91
445.31	374.20
445.68	374.52
446.05	374.56
446.42	374.16
446.79	373.75
447.16	373.30
447.53	372.96
447.90	371.78
448.27	370.62
448.64	369.05
449.01	367.87
449.37	365.91
449.74	364.02
450.11	361.78
450.48	359.30
450.85	356.78
451.22	354.62
451.59	352.65
451.96	350.66
452.33	348.10
452.70	345.76
453.07	342.95
453.43	340.10
453.80	337.34
454.17	334.69
454.54	332.16
454.91	329.48
455.28	326.81
455.65	324.34
456.02	321.89
456.38	319.79
456.75	317.20
457.12	314.92
457.49	312.71
457.86	310.52
458.23	308.71
458.59	306.68
458.96	304.63
459.33	302.73
459.70	300.92
460.07	299.43
460.43	297.74
460.80	296.17
461.17	294.71
461.54	293.27
461.91	291.84
462.27	290.43
462.64	289.17
463.01	287.86
463.38	286.61
463.74	285.25
464.11	284.06
464.48	283.06
464.85	281.97
465.21	281.12
465.58	280.26
465.95	279.15
466.32	278.24
466.68	277.35
467.05	276.49
467.42	275.61
467.78	274.67
468.15	273.82
468.52	273.11
468.88	272.26
469.25	271.47
469.62	270.89
469.98	270.23
470.35	269.60
470.72	269.01
471.08	268.35
471.45	267.83
471.82	267.31
472.18	266.69
472.55	266.28
472.92	265.78
473.28	265.31
473.65	264.89
474.02	264.48
474.38	264.13
474.75	263.79
475.11	263.47
475.48	263.22
475.85	263.03
476.21	262.87
476.58	262.70
476.94	262.58
477.31	262.41
477.67	262.25
478.04	262.14
478.41	262.08
478.77	262.09
479.14	262.06
479.50	262.08
479.87	262.17
480.23	262.25
480.60	262.29
480.96	262.40
481.33	262.59
481.69	262.78
482.06	262.95
482.42	263.15
482.79	263.37
483.15	263.68
483.52	264.03
483.88	264.32
484.25	264.70
484.61	265.09
484.98	265.50
485.34	266.03
485.71	266.60
486.07	267.22
486.44	267.80
486.80	268.50
487.17	269.20
487.53	270.00
487.90	270.83
488.26	271.78
488.62	272.76
488.99	273.70
489.35	274.76
489.72	275.92
490.08	277.11
490.44	278.38
490.81	279.69
491.17	281.04
491.54	282.55
491.90	284.08
492.26	285.74
492.63	287.47
492.99	289.29
493.36	291.20
493.72	293.16
494.08	295.28
494.45	297.52
494.81	299.89
495.17	302.31
495.54	304.89
495.90	307.59
496.26	310.43
496.63	313.44
496.99	316.55
497.35	319.81
497.72	323.25
498.08	326.76
498.44	330.45
498.80	334.39
499.17	338.43
499.53	342.68
499.89	347.09
500.26	351.64
500.62	356.30
500.98	361.31
501.34	366.48
501.71	371.83
502.07	377.33
502.43	382.99
502.79	388.86
503.16	394.92
503.52	401.25
503.88	407.66
504.24	414.34
504.60	421.20
504.97	428.39
505.33	435.74
505.69	443.47
506.05	451.30
506.41	459.22
506.78	467.40
507.14	475.89
507.50	484.56
507.86	493.61
508.22	502.80
508.59	511.99
508.95	521.57
509.31	531.41
509.67	541.47
510.03	551.78
510.39	562.41
510.75	573.28
511.12	584.19
511.48	595.49
511.84	606.91
512.20	618.51
512.56	630.46
512.92	642.60
513.28	654.93
513.64	667.36
514.00	680.00
514.37	692.87
514.73	705.86
515.09	718.99
515.45	732.26
515.81	745.91
516.17	759.91
516.53	773.97
516.89	788.13
517.25	802.26
517.61	816.62
517.97	830.97
518.33	845.33
518.69	860.04
519.05	875.02
519.41	890.18
519.77	905.62
520.13	921.00
520.49	936.32
520.85	951.75
521.21	967.43
521.57	983.69
521.93	999.43
522.29	1015.76
522.65	1031.89
523.01	1047.97
523.37	1063.88
523.73	1079.93
524.09	1095.99
524.45	1112.13
524.81	1128.77
525.17	1145.44
525.53	1162.31
525.89	1179.11
526.25	1195.91
526.61	1212.11
526.97	1228.72
527.33	1245.14
527.68	1261.64
528.04	1277.97
528.40	1294.33
528.76	1311.41
529.12	1327.77
529.48	1344.45
529.84	1360.34
530.20	1376.89
530.56	1393.79
530.91	1411.10
531.27	1427.78
531.63	1444.07
531.99	1460.71
532.35	1476.55
532.71	1492.46
533.07	1508.57
533.42	1524.26
533.78	1540.17
534.14	1556.43
534.50	1571.66
534.86	1587.42
535.21	1602.46
535.57	1618.27
535.93	1633.61
536.29	1648.11
536.65	1663.14
537.00	1677.85
537.36	1692.98
537.72	1707.35
538.08	1721.67
538.44	1735.23
538.79	1748.88
539.15	1762.29
539.51	1775.71
539.87	1789.78
540.22	1803.23
540.58	1816.75
540.94	1830.07
541.29	1842.62
541.65	1855.12
542.01	1868.15
542.37	1880.13
542.72	1892.31
543.08	1904.01
543.44	1916.33
543.79	1927.39
544.15	1938.28
544.51	1949.84
544.87	1960.80
545.22	1971.57
545.58	1981.78
545.94	1991.59
546.29	2001.49
546.65	2011.48
547.01	2020.88
547.36	2029.64
547.72	2038.20
548.07	2046.19
548.43	2054.22
548.79	2062.29
549.14	2069.82
549.50	2077.08
549.86	2084.93
550.21	2092.34
550.57	2099.56
550.92	2106.18
551.28	2113.32
551.64	2120.44
551.99	2126.78
552.35	2132.87
552.70	2139.19
553.06	2145.19
553.41	2151.48
553.77	2157.52
554.13	2163.60
554.48	2169.59
554.84	2175.18
555.19	2180.45
555.55	2185.55
555.90	2190.20
556.26	2195.33
556.61	2199.96
556.97	2204.44
557.32	2208.58
557.68	2212.69
558.03	2216.92
558.39	2220.56
558.74	2225.22
559.10	2229.01
559.45	2232.75
559.81	2237.04
560.16	2240.70
560.52	2243.88
560.87	2247.36
561.23	2249.90
561.58	2252.76
561.94	2255.21
562.29	2257.47
562.64	2260.12
563.00	2262.63
563.35	2266.15
563.71	2269.11
564.06	2272.36
564.42	2275.17
564.77	2277.87
565.12	2280.24
565.48	2282.19
565.83	2284.10
566.19	2285.51
566.54	2286.44
566.89	2287.67
567.25	2288.34
567.60	2289.68
567.96	2291.38
568.31	2292.17
568.66	2293.43
569.02	2294.06
569.37	2294.48
569.72	2295.53
570.08	2295.87
570.43	2296.06
570.78	2295.51
571.14	2294.07
571.49	2292.87
571.84	2292.67
572.20	2291.41
572.55	2290.41
572.90	2288.95
573.26	2287.77
573.61	2286.06
573.96	2284.51
574.31	2281.52
574.67	2278.56
575.02	2274.95
575.37	2271.68
575.72	2267.93
576.08	2264.47
576.43	2261.36
576.78	2257.68
577.13	2254.38
577.49	2251.18
577.84	2247.83
578.19	2244.01
578.54	2240.37
578.90	2236.23
579.25	2230.72
579.60	2225.90
579.95	2220.92
580.30	2215.79
580.66	2210.65
581.01	2205.67
581.36	2200.69
581.71	2196.60
582.06	2192.17
582.42	2187.71
582.77	2182.56
583.12	2178.19
583.47	2173.74
583.82	2168.87
584.17	2163.85
584.53	2158.38
584.88	2152.70
585.23	2146.90
585.58	2141.51
585.93	2136.14
586.28	2131.35
586.63	2126.32
586.98	2121.36
587.34	2116.68
587.69	2111.96
588.04	2106.66
588.39	2101.07
588.74	2094.75
589.09	2088.69
589.44	2082.25
589.79	2076.23
590.14	2070.61
590.49	2064.11
590.84	2057.64
591.19	2051.62
591.54	2045.21
591.89	2038.02
592.25	2031.49
592.60	2024.34
592.95	2016.84
593.30	2009.54
593.65	2002.04
594.00	1995.08
594.35	1987.78
594.70	1979.97
595.05	1972.91
595.40	1965.72
595.75	1958.36
596.10	1952.19
596.45	1945.63
596.80	1939.28
597.15	1932.89
597.50	1925.93
597.85	1919.54
598.19	1913.05
598.54	1905.91
598.89	1899.32
599.24	1893.50
599.59	1886.85
599.94	1880.70
600.29	1874.42
600.64	1867.92
600.99	1860.43
601.34	1853.70
601.69	1846.85
602.04	1839.93
602.39	1832.66
602.74	1825.91
603.08	1819.28
603.43	1812.59
603.78	1805.26
604.13	1798.17
604.48	1790.99
604.83	1784.08
605.18	1777.08
605.53	1769.08
605.87	1761.16
606.22	1753.92
606.57	1745.81
606.92	1738.35
607.27	1731.19
607.62	1724.33
607.96	1717.03
608.31	1710.63
608.66	1702.97
609.01	1695.32
609.36	1687.77
609.70	1679.61
610.05	1671.51
610.40	1663.86
610.75	1655.27
611.10	1647.55
611.44	1638.96
611.79	1630.80
612.14	1622.18
612.49	1613.01
612.83	1604.65
613.18	1596.43
613.53	1588.24
613.88	1579.87
614.22	1571.68
614.57	1563.06
614.92	1555.06
615.27	1547.57
615.61	1539.16
615.96	1531.24
616.31	1523.59
616.65	1516.15
617.00	1508.58
617.35	1500.90
617.70	1492.51
618.04	1484.24
618.39	1476.07
618.74	1468.59
619.08	1460.40
619.43	1452.77
619.78	1445.94
620.12	1438.82
620.47	1431.38
620.82	1423.27
621.16	1415.87
621.51	1408.29
621.85	1400.73
622.20	1392.27
622.55	1383.89
622.89	1376.10
623.24	1368.24
623.59	1360.80
623.93	1353.38
624.28	1346.30
624.62	1338.94
624.97	1331.73
625.32	1324.89
625.66	1317.89
626.01	1310.80
626.35	1303.37
626.70	1295.63
627.04	1287.91
627.39	1280.05
627.73	1272.60
628.08	1265.72
628.43	1258.41
628.77	1251.02
629.12	1243.43
629.46	1236.21
629.81	1228.73
630.15	1221.57
630.50	1214.30
630.84	1206.12
631.19	1198.14
631.53	1190.54
631.88	1182.82
632.22	1175.26
632.57	1167.90
632.91	1160.31
633.26	1152.77
633.60	1145.27
633.95	1138.18
634.29	1131.04
634.64	1124.42
634.98	1117.13
635.32	1109.96
635.67	1103.36
636.01	1096.73
636.36	1089.93
636.70	1083.40
637.05	1076.94
637.39	1070.42
637.73	1063.83
638.08	1058.04
638.42	1052.12
638.77	1045.68
639.11	1039.21
639.45	1032.77
639.80	1026.24
640.14	1019.92
640.49	1013.54
640.83	1007.23
641.17	1000.99
641.52	994.72
641.86	988.18
642.20	982.23
642.55	975.88
642.89	969.44
643.23	962.94
643.58	957.20
643.92	950.96
644.26	944.86
644.61	938.70
644.95	932.77
645.29	926.19
645.64	919.44
645.98	913.20
646.32	907.28
646.66	901.23
647.01	895.43
647.35	889.66
647.69	883.74
648.04	878.22
648.38	872.39
648.72	866.42
649.06	860.37
649.41	854.55
649.75	848.68
650.09	842.72
650.43	836.91
650.78	830.71
651.12	824.76
651.46	818.97
651.80	813.28
652.14	807.90
652.49	802.52
652.83	797.29
653.17	791.58
653.51	785.92
653.85	780.56
654.20	774.85
654.54	768.84
654.88	763.13
655.22	757.27
655.56	751.66
655.90	746.13
656.25	740.87
656.59	735.54
656.93	730.47
657.27	725.29
657.61	719.83
657.95	714.73
658.29	709.66
658.64	704.50
658.98	699.13
659.32	693.59
659.66	688.39
660.00	683.11
660.34	678.14
660.68	673.20
661.02	668.10
661.36	663.43
661.70	658.94
662.05	654.57
662.39	650.25
662.73	645.69
663.07	641.36
663.41	636.95
663.75	632.45
664.09	627.80
664.43	623.37
664.77	619.29
665.11	615.02
665.45	610.82
665.79	606.68
666.13	602.61
666.47	598.54
666.81	594.42
667.15	590.28
667.49	586.38
667.83	582.48
668.17	578.55
668.51	574.46
668.85	570.38
669.19	566.49
669.53	562.68
669.87	558.91
670.21	555.27
670.55	551.59
670.89	548.11
671.23	544.68
671.57	541.21
671.91	537.65
672.25	534.08
672.58	530.66
672.92	527.22
673.26	524.05
673.60	520.90
673.94	517.74
674.28	514.84
674.62	511.85
674.96	508.77
675.30	505.85
675.64	502.89
675.97	500.13
676.31	497.24
676.65	494.26
676.99	491.48
677.33	488.48
677.67	485.67
678.01	482.63
678.34	479.68
678.68	476.78
679.02	473.95
679.36	471.30
679.70	468.52
680.04	465.80
680.37	462.86
680.71	460.05
681.05	457.42
681.39	454.64
681.73	451.96
682.06	449.44
682.40	446.92
682.74	444.40
683.08	441.82
683.42	439.19
683.75	436.68
684.09	434.07
684.43	431.62
684.77	429.15
685.10	426.80
685.44	424.45
685.78	422.17
686.12	419.86
686.45	417.44
686.79	415.11
687.13	412.86
687.46	410.75
687.80	408.60
688.14	406.34
688.48	404.33
688.81	402.12
689.15	399.92
689.49	397.73
689.82	395.71
690.16	393.62
690.50	391.66
690.83	389.76
691.17	387.80
691.51	385.92
691.84	384.07
692.18	382.11
692.52	380.13
692.85	378.15
693.19	376.30
693.52	374.52
693.86	372.74
694.20	371.03
694.53	369.22
694.87	367.38
695.21	365.62
695.54	363.79
695.88	362.08
696.21	360.38
696.55	358.71
696.88	356.97
697.22	355.34
697.56	353.70
697.89	352.02
698.23	350.46
698.56	348.86
698.90	347.29
699.23	345.68
699.57	344.15
699.90	342.59
700.24	341.05
700.58	339.55
700.91	338.09
701.25	336.59
701.58	335.20
701.92	333.81
702.25	332.41
702.59	331.04
702.92	329.68
703.26	328.36
703.59	327.10
703.93	325.93
704.26	324.67
704.60	323.37
704.93	322.11
705.26	320.85
705.60	319.64
705.93	318.47
706.27	317.43
706.60	316.36
706.94	315.28
707.27	314.12
707.61	313.01
707.94	311.95
708.27	310.87
708.61	309.82
708.94	308.82
709.28	307.84
709.61	306.87
709.94	305.91
710.28	304.90
710.61	303.86
710.95	302.78
711.28	301.86
711.61	300.94
711.95	299.99
712.28	299.02
712.61	298.04
712.95	297.10
713.28	296.20
713.61	295.31
713.95	294.44
714.28	293.65
714.61	292.79
714.95	291.95
715.28	291.08
715.61	290.18
715.95	289.32
716.28	288.47
716.61	287.63
716.95	286.82
717.28	286.09
717.61	285.35
717.94	284.59
718.28	283.77
718.61	283.04
718.94	282.35
719.27	281.73
719.61	281.09
719.94	280.45
720.27	279.76
720.60	279.13
720.94	278.49
721.27	277.86
721.60	277.32
721.93	276.72
722.27	276.18
722.60	275.66
722.93	275.09
723.26	274.57
723.59	274.04
723.93	273.49
724.26	272.94
724.59	272.39
724.92	271.92
725.25	271.45
725.59	270.94
725.92	270.48
726.25	269.93
726.58	269.43
726.91	268.93
727.24	268.44
727.57	267.94
727.91	267.47
728.24	267.02
728.57	266.51
728.90	266.04
729.23	265.53
729.56	265.08
729.89	264.62
730.22	264.15
730.55	263.69
730.89	263.22
731.22	262.78
731.55	262.35
731.88	261.91
732.21	261.47
732.54	261.06
732.87	260.61
733.20	260.24
733.53	259.83
733.86	259.46
734.19	259.09
734.52	258.70
734.85	258.39
735.18	258.02
735.51	257.67
735.84	257.33
736.17	257.01
736.50	256.61
736.83	256.39
737.16	256.03
737.49	255.67
737.82	255.37
738.15	255.04
738.48	254.71
738.81	254.39
739.14	254.08
739.47	253.74
739.80	253.42
740.13	253.09
740.46	252.79
740.79	252.43
741.12	252.10
741.45	251.79
741.78	251.43
742.11	251.08
742.44	250.74
742.77	250.43
743.10	250.11
743.43	249.83
743.75	249.42
744.08	249.26
744.41	249.00
744.74	248.70
745.07	248.41
745.40	248.15
745.73	247.88
746.06	247.59
746.39	247.33
746.71	247.07
747.04	246.78
747.37	246.53
747.70	246.31
748.03	246.06
748.36	245.84
748.68	245.56
749.01	245.30
749.34	245.08
749.67	244.82
750.00	244.60
750.33	244.41
750.65	244.19
750.98	243.87
751.31	243.63
751.64	243.43
751.97	243.28
752.29	243.04
752.62	242.78
752.95	242.54
753.28	242.29
753.60	242.08
753.93	241.92
754.26	241.73
754.59	241.50
754.91	241.27
755.24	241.04
755.57	240.86
755.90	240.70
756.22	240.47
756.55	240.27
756.88	240.07
757.20	239.82
757.53	239.65
757.86	239.46
758.19	239.32
758.51	239.12
758.84	238.91
759.17	238.71
759.49	238.56
759.82	238.43
760.15	238.32
760.47	238.16
760.80	237.98
761.13	237.82
761.45	237.64
761.78	237.53
762.11	237.39
762.43	237.25
762.76	237.09
763.08	237.01
763.41	236.91
763.74	236.81
764.06	236.69
764.39	236.57
764.71	236.45
765.04	236.28
765.37	236.20
765.69	236.06
766.02	235.97
766.34	235.86
766.67	235.75
767.00	235.67
767.32	235.64
767.65	235.56
767.97	235.47
768.30	235.38
768.62	235.25
768.95	235.15
769.27	235.05
769.60	234.95
769.92	234.80
770.25	234.68
770.57	234.54
770.90	234.43
771.22	234.32
771.55	234.20
771.87	234.11
772.20	233.97
772.52	233.95
772.85	233.97
773.17	233.90
773.50	233.81
773.82	233.70
774.15	233.57
774.47	233.50
774.80	233.41
775.12	233.35
775.45	233.29
775.77	233.21
776.09	233.14
776.42	233.12
776.74	233.09
777.07	233.04
777.39	232.95
777.72	232.89
778.04	232.81
778.36	232.77
778.69	232.75
779.01	232.73
779.33	232.57
779.66	232.38
779.98	232.29
780.31	232.21
780.63	232.18
780.95	232.09
781.28	231.96
781.60	231.87
781.92	231.83
782.25	231.75
782.57	231.67
782.89	231.61
783.22	231.51
783.54	231.44
783.86	231.38
784.19	231.36
784.51	231.33
784.83	231.25
785.16	231.18
785.48	231.10
785.80	231.05
786.12	231.02
786.45	230.97
786.77	230.93
787.09	230.86
