SpectraSuite Data File
++++++++++++++++++++++++++++++++++++
Date: Fri Feb 01 15:38:43 EST 2013
User: group
Dark Spectrum Present: No
Reference Spectrum Present: No
Number of Sampled Component Spectra: 1
Spectrometers: USB2E7196
Integration Time (usec): 35000 (USB2E7196)
Spectra Averaged: 100 (USB2E7196)
Boxcar Smoothing: 10 (USB2E7196)
Correct for Electrical Dark: No (USB2E7196)
Strobe/Lamp Enabled: No (USB2E7196)
Correct for Detector Non-linearity: No (USB2E7196)
Correct for Stray Light: No (USB2E7196)
Number of Pixels in Processed Spectrum: 2048
>>>>>Begin Processed Spectral Data<<<<<
339.09	0.00
339.48	214.55
339.86	216.18
340.24	217.48
340.63	219.29
341.01	222.15
341.39	222.15
341.78	223.26
342.16	223.58
342.54	225.40
342.93	213.29
343.31	224.06
343.69	224.61
344.07	225.10
344.46	225.54
344.84	225.90
345.22	226.12
345.60	226.39
345.99	226.58
346.37	226.74
346.75	226.82
347.13	226.93
347.52	226.97
347.90	227.02
348.28	227.07
348.66	227.15
349.05	227.13
349.43	227.20
349.81	227.24
350.19	227.27
350.57	227.33
350.96	227.40
351.34	227.50
351.72	227.58
352.10	227.70
352.48	227.78
352.87	227.87
353.25	227.94
353.63	227.98
354.01	228.05
354.39	228.14
354.77	228.20
355.15	228.27
355.54	228.35
355.92	228.43
356.30	228.50
356.68	228.59
357.06	228.68
357.44	228.72
357.82	228.79
358.20	228.87
358.58	228.94
358.97	229.01
359.35	229.08
359.73	229.17
360.11	229.20
360.49	229.24
360.87	229.32
361.25	229.39
361.63	229.46
362.01	229.48
362.39	229.52
362.77	229.58
363.15	229.61
363.53	229.65
363.91	229.67
364.29	229.69
364.67	229.63
365.05	229.62
365.43	229.67
365.81	229.68
366.19	229.72
366.57	229.75
366.95	229.70
367.33	229.70
367.71	229.67
368.09	229.65
368.47	229.63
368.85	229.56
369.23	229.53
369.61	229.47
369.99	229.46
370.37	229.40
370.75	229.44
371.13	229.37
371.51	229.29
371.89	229.22
372.27	229.17
372.65	229.10
373.03	229.05
373.41	228.96
373.78	228.88
374.16	228.76
374.54	228.67
374.92	228.65
375.30	228.54
375.68	228.43
376.06	228.38
376.44	228.33
376.82	228.25
377.19	228.17
377.57	228.09
377.95	228.00
378.33	227.91
378.71	227.74
379.09	227.69
379.47	227.63
379.84	227.55
380.22	227.47
380.60	227.35
380.98	227.30
381.36	227.24
381.73	227.15
382.11	227.10
382.49	227.04
382.87	226.96
383.25	226.92
383.62	226.98
384.00	226.88
384.38	226.82
384.76	226.81
385.13	226.79
385.51	226.74
385.89	226.71
386.27	226.67
386.64	226.65
387.02	226.59
387.40	226.52
387.78	226.53
388.15	226.50
388.53	226.48
388.91	226.42
389.29	226.37
389.66	226.38
390.04	226.36
390.42	226.30
390.79	226.27
391.17	226.27
391.55	226.16
391.92	226.17
392.30	226.18
392.68	226.16
393.05	226.17
393.43	226.20
393.81	226.19
394.18	226.20
394.56	226.22
394.94	226.27
395.31	226.30
395.69	226.34
396.06	226.39
396.44	226.44
396.82	226.49
397.19	226.61
397.57	226.64
397.95	226.72
398.32	226.77
398.70	226.86
399.07	226.92
399.45	226.98
399.82	227.02
400.20	227.09
400.58	227.17
400.95	227.22
401.33	227.30
401.70	227.45
402.08	227.55
402.45	227.66
402.83	227.78
403.20	227.92
403.58	228.01
403.95	228.13
404.33	228.30
404.71	228.41
405.08	228.56
405.46	228.69
405.83	228.83
406.21	229.02
406.58	229.16
406.96	229.34
407.33	229.57
407.70	229.79
408.08	230.07
408.45	230.28
408.83	230.50
409.20	230.70
409.58	230.87
409.95	231.13
410.33	231.41
410.70	231.64
411.08	231.91
411.45	232.22
411.82	232.49
412.20	232.85
412.57	233.26
412.95	233.54
413.32	233.98
413.69	234.39
414.07	234.82
414.44	235.31
414.82	235.79
415.19	236.28
415.56	236.80
415.94	237.35
416.31	237.99
416.68	238.64
417.06	239.37
417.43	240.07
417.81	240.84
418.18	241.57
418.55	242.40
418.93	243.28
419.30	244.19
419.67	245.11
420.04	246.06
420.42	247.06
420.79	248.23
421.16	249.35
421.54	250.53
421.91	251.71
422.28	252.95
422.66	254.30
423.03	255.62
423.40	256.98
423.77	258.37
424.15	259.77
424.52	261.25
424.89	262.85
425.26	264.37
425.64	265.80
426.01	267.43
426.38	269.08
426.75	270.74
427.13	272.46
427.50	274.29
427.87	276.14
428.24	277.96
428.61	279.71
428.99	281.68
429.36	283.78
429.73	285.89
430.10	287.89
430.47	289.93
430.85	292.01
431.22	294.20
431.59	296.56
431.96	298.79
432.33	301.28
432.70	303.68
433.08	306.48
433.45	309.12
433.82	311.72
434.19	314.65
434.56	317.47
434.93	320.14
435.30	322.79
435.68	325.70
436.05	328.54
436.42	331.36
436.79	333.84
437.16	336.54
437.53	339.35
437.90	342.13
438.27	344.84
438.64	347.71
439.01	350.33
439.38	352.60
439.75	354.78
440.13	357.22
440.50	359.49
440.87	361.33
441.24	363.28
441.61	365.45
441.98	366.98
442.35	368.75
442.72	370.60
443.09	372.35
443.46	373.34
443.83	373.97
444.20	374.49
444.57	375.33
444.94	375.58
445.31	375.95
445.68	376.38
446.05	376.46
446.42	376.04
446.79	375.63
447.16	375.21
447.53	374.89
447.90	373.79
448.27	372.68
448.64	371.17
449.01	370.00
449.37	368.02
449.74	366.05
450.11	363.84
450.48	361.34
450.85	358.82
451.22	356.65
451.59	354.59
451.96	352.61
452.33	350.03
452.70	347.73
453.07	344.90
453.43	341.95
453.80	339.16
454.17	336.51
454.54	333.97
454.91	331.19
455.28	328.50
455.65	325.98
456.02	323.53
456.38	321.32
456.75	318.69
457.12	316.43
457.49	314.19
457.86	312.05
458.23	310.21
458.59	308.17
458.96	306.10
459.33	304.23
459.70	302.37
460.07	300.86
460.43	299.10
460.80	297.47
461.17	296.08
461.54	294.61
461.91	293.17
462.27	291.71
462.64	290.49
463.01	289.18
463.38	287.88
463.74	286.51
464.11	285.35
464.48	284.31
464.85	283.22
465.21	282.35
465.58	281.38
465.95	280.29
466.32	279.35
466.68	278.43
467.05	277.53
467.42	276.65
467.78	275.75
468.15	274.89
468.52	274.24
468.88	273.34
469.25	272.57
469.62	271.96
469.98	271.28
470.35	270.62
470.72	270.00
471.08	269.33
471.45	268.77
471.82	268.25
472.18	267.69
472.55	267.27
472.92	266.77
473.28	266.33
473.65	265.87
474.02	265.46
474.38	265.09
474.75	264.78
475.11	264.43
475.48	264.09
475.85	263.85
476.21	263.59
476.58	263.44
476.94	263.32
477.31	263.15
477.67	263.04
478.04	262.90
478.41	262.88
478.77	262.93
479.14	262.89
479.50	262.92
479.87	262.99
480.23	263.05
480.60	263.10
480.96	263.19
481.33	263.40
481.69	263.59
482.06	263.80
482.42	264.00
482.79	264.27
483.15	264.62
483.52	265.03
483.88	265.36
484.25	265.76
484.61	266.15
484.98	266.59
485.34	267.08
485.71	267.70
486.07	268.28
486.44	268.88
486.80	269.60
487.17	270.34
487.53	271.13
487.90	271.99
488.26	272.92
488.62	273.90
488.99	274.86
489.35	275.92
489.72	277.04
490.08	278.25
490.44	279.49
490.81	280.80
491.17	282.13
491.54	283.65
491.90	285.23
492.26	286.89
492.63	288.65
492.99	290.48
493.36	292.38
493.72	294.41
494.08	296.47
494.45	298.70
494.81	301.06
495.17	303.51
495.54	306.03
495.90	308.74
496.26	311.51
496.63	314.50
496.99	317.62
497.35	320.87
497.72	324.27
498.08	327.81
498.44	331.48
498.80	335.45
499.17	339.46
499.53	343.54
499.89	347.90
500.26	352.39
500.62	357.09
500.98	362.03
501.34	367.10
501.71	372.45
502.07	377.94
502.43	383.55
502.79	389.36
503.16	395.50
503.52	401.80
503.88	408.23
504.24	414.83
504.60	421.74
504.97	428.90
505.33	436.24
505.69	443.97
506.05	451.81
506.41	459.61
506.78	467.75
507.14	476.24
507.50	484.95
507.86	493.96
508.22	503.11
508.59	512.36
508.95	521.90
509.31	531.73
509.67	541.82
510.03	552.09
510.39	562.65
510.75	573.39
511.12	584.35
511.48	595.63
511.84	607.09
512.20	618.58
512.56	630.58
512.92	642.75
513.28	655.04
513.64	667.50
514.00	680.21
514.37	693.17
514.73	706.20
515.09	719.26
515.45	732.52
515.81	746.10
516.17	760.08
516.53	774.26
516.89	788.41
517.25	802.57
517.61	817.00
517.97	831.42
518.33	845.93
518.69	860.71
519.05	875.74
519.41	890.91
519.77	906.44
520.13	921.84
520.49	937.24
520.85	952.68
521.21	968.43
521.57	984.69
521.93	1000.47
522.29	1016.85
522.65	1033.14
523.01	1049.46
523.37	1065.50
523.73	1081.67
524.09	1097.76
524.45	1114.05
524.81	1130.68
525.17	1147.51
525.53	1164.48
525.89	1181.34
526.25	1198.09
526.61	1214.49
526.97	1231.24
527.33	1247.66
527.68	1264.18
528.04	1280.72
528.40	1297.41
528.76	1314.48
529.12	1331.15
529.48	1348.05
529.84	1364.18
530.20	1380.83
530.56	1397.86
530.91	1415.33
531.27	1432.17
531.63	1448.79
531.99	1465.42
532.35	1481.47
532.71	1497.38
533.07	1513.64
533.42	1529.53
533.78	1545.67
534.14	1561.85
534.50	1577.26
534.86	1593.28
535.21	1608.58
535.57	1624.65
535.93	1640.04
536.29	1654.75
536.65	1669.76
537.00	1684.53
537.36	1699.78
537.72	1714.28
538.08	1728.68
538.44	1742.58
538.79	1756.45
539.15	1770.06
539.51	1783.73
539.87	1798.06
540.22	1811.83
540.58	1825.53
540.94	1838.92
541.29	1851.83
541.65	1864.74
542.01	1877.92
542.37	1890.31
542.72	1902.82
543.08	1914.46
543.44	1927.04
543.79	1938.21
544.15	1949.24
544.51	1960.82
544.87	1971.93
545.22	1982.73
545.58	1993.08
545.94	2002.78
546.29	2012.58
546.65	2022.32
547.01	2031.73
547.36	2040.51
547.72	2048.88
548.07	2056.73
548.43	2065.03
548.79	2073.04
549.14	2080.39
549.50	2087.88
549.86	2095.51
550.21	2102.82
550.57	2109.93
550.92	2116.48
551.28	2123.70
551.64	2130.78
551.99	2137.42
552.35	2143.43
552.70	2149.63
553.06	2155.45
553.41	2161.80
553.77	2167.93
554.13	2174.10
554.48	2180.27
554.84	2185.70
555.19	2191.16
555.55	2196.33
555.90	2200.58
556.26	2205.44
556.61	2210.37
556.97	2214.55
557.32	2218.63
557.68	2222.65
558.03	2227.01
558.39	2230.64
558.74	2235.30
559.10	2239.18
559.45	2242.79
559.81	2247.18
560.16	2251.05
560.52	2254.32
560.87	2257.66
561.23	2260.31
561.58	2263.33
561.94	2265.69
562.29	2268.06
562.64	2270.63
563.00	2273.30
563.35	2276.93
563.71	2280.05
564.06	2283.19
564.42	2285.91
564.77	2288.53
565.12	2290.81
565.48	2292.60
565.83	2294.38
566.19	2295.49
566.54	2296.24
566.89	2297.27
567.25	2297.75
567.60	2299.07
567.96	2300.73
568.31	2301.63
568.66	2302.63
569.02	2303.04
569.37	2303.43
569.72	2304.24
570.08	2304.39
570.43	2304.43
570.78	2303.73
571.14	2302.25
571.49	2300.85
571.84	2300.65
572.20	2299.39
572.55	2298.36
572.90	2296.83
573.26	2295.43
573.61	2293.69
573.96	2291.99
574.31	2288.97
574.67	2285.94
575.02	2282.14
575.37	2278.73
575.72	2274.75
576.08	2271.55
576.43	2268.30
576.78	2264.52
577.13	2261.32
577.49	2258.28
577.84	2254.76
578.19	2251.02
578.54	2247.27
578.90	2243.02
579.25	2237.37
579.60	2232.36
579.95	2227.23
580.30	2222.23
580.66	2217.05
581.01	2212.18
581.36	2207.25
581.71	2203.07
582.06	2198.64
582.42	2194.21
582.77	2188.87
583.12	2184.35
583.47	2179.44
583.82	2174.40
584.17	2169.12
584.53	2163.56
584.88	2157.87
585.23	2152.03
585.58	2146.49
585.93	2141.03
586.28	2136.29
586.63	2131.25
586.98	2126.12
587.34	2121.51
587.69	2116.63
588.04	2111.34
588.39	2105.75
588.74	2099.14
589.09	2092.99
589.44	2086.06
589.79	2079.99
590.14	2074.50
590.49	2068.07
590.84	2061.73
591.19	2055.52
591.54	2048.99
591.89	2041.46
592.25	2034.56
592.60	2027.34
592.95	2019.75
593.30	2012.40
593.65	2004.67
594.00	1997.61
594.35	1990.37
594.70	1982.29
595.05	1974.92
595.40	1967.65
595.75	1959.99
596.10	1953.85
596.45	1947.02
596.80	1941.02
597.15	1934.32
597.50	1927.00
597.85	1920.55
598.19	1913.82
598.54	1906.78
598.89	1900.31
599.24	1894.59
599.59	1887.75
599.94	1881.59
600.29	1875.23
600.64	1868.62
600.99	1861.26
601.34	1854.31
601.69	1847.25
602.04	1840.23
602.39	1832.80
602.74	1825.96
603.08	1819.25
603.43	1812.61
603.78	1805.40
604.13	1798.06
604.48	1790.72
604.83	1784.00
605.18	1776.73
605.53	1768.75
605.87	1760.67
606.22	1753.35
606.57	1745.33
606.92	1738.11
607.27	1730.83
607.62	1723.83
607.96	1716.52
608.31	1709.81
608.66	1702.19
609.01	1694.63
609.36	1687.16
609.70	1679.28
610.05	1671.19
610.40	1663.50
610.75	1654.94
611.10	1647.25
611.44	1638.83
611.79	1630.94
612.14	1622.16
612.49	1613.03
612.83	1604.63
613.18	1596.53
613.53	1588.49
613.88	1579.95
614.22	1571.61
614.57	1563.09
614.92	1555.18
615.27	1547.58
615.61	1539.21
615.96	1531.23
616.31	1523.62
616.65	1516.20
617.00	1508.57
617.35	1500.90
617.70	1492.49
618.04	1484.11
618.39	1475.83
618.74	1468.28
619.08	1459.92
619.43	1452.36
619.78	1445.50
620.12	1438.26
620.47	1430.66
620.82	1422.38
621.16	1414.90
621.51	1407.31
621.85	1399.57
622.20	1391.02
622.55	1382.61
622.89	1374.70
623.24	1367.01
623.59	1359.66
623.93	1352.25
624.28	1344.99
624.62	1337.45
624.97	1330.27
625.32	1323.58
625.66	1316.63
626.01	1309.36
626.35	1301.89
626.70	1294.05
627.04	1286.22
627.39	1278.46
627.73	1271.11
628.08	1264.30
628.43	1257.04
628.77	1249.59
629.12	1242.03
629.46	1234.77
629.81	1227.49
630.15	1220.32
630.50	1212.87
630.84	1204.66
631.19	1196.65
631.53	1189.20
631.88	1181.66
632.22	1174.12
632.57	1166.80
632.91	1159.24
633.26	1151.84
633.60	1144.53
633.95	1137.52
634.29	1130.64
634.64	1124.07
634.98	1116.69
635.32	1109.48
635.67	1102.95
636.01	1096.37
636.36	1089.67
636.70	1083.17
637.05	1076.55
637.39	1070.02
637.73	1063.53
638.08	1057.70
638.42	1051.77
638.77	1045.29
639.11	1038.75
639.45	1032.25
639.80	1025.60
640.14	1019.14
640.49	1012.63
640.83	1006.29
641.17	999.97
641.52	993.53
641.86	987.14
642.20	981.34
642.55	975.08
642.89	968.50
643.23	961.97
643.58	956.10
643.92	949.94
644.26	943.78
644.61	937.83
644.95	931.85
645.29	925.25
645.64	918.48
645.98	912.14
646.32	906.21
646.66	900.28
647.01	894.35
647.35	888.72
647.69	882.89
648.04	877.39
648.38	871.68
648.72	865.68
649.06	859.53
649.41	853.66
649.75	847.65
650.09	841.77
650.43	836.03
650.78	829.88
651.12	823.83
651.46	818.18
651.80	812.48
652.14	807.15
652.49	801.78
652.83	796.53
653.17	790.83
653.51	785.13
653.85	779.71
654.20	774.13
654.54	768.02
654.88	762.28
655.22	756.32
655.56	750.69
655.90	745.33
656.25	740.14
656.59	734.82
656.93	729.76
657.27	724.59
657.61	719.19
657.95	714.21
658.29	709.23
658.64	703.94
658.98	698.59
659.32	693.11
659.66	687.91
660.00	682.63
660.34	677.65
660.68	672.74
661.02	667.70
661.36	662.98
661.70	658.42
662.05	654.04
662.39	649.76
662.73	645.23
663.07	640.86
663.41	636.38
663.75	631.79
664.09	627.20
664.43	622.83
664.77	618.67
665.11	614.34
665.45	610.17
665.79	606.11
666.13	602.01
666.47	597.90
666.81	593.77
667.15	589.67
667.49	585.84
667.83	582.09
668.17	578.19
668.51	574.17
668.85	570.23
669.19	566.41
669.53	562.58
669.87	558.71
670.21	554.95
670.55	551.29
670.89	547.90
671.23	544.51
671.57	541.05
671.91	537.48
672.25	534.00
672.58	530.46
672.92	527.12
673.26	523.95
673.60	520.82
673.94	517.63
674.28	514.74
674.62	511.82
674.96	508.67
675.30	505.70
675.64	502.74
675.97	500.01
676.31	497.13
676.65	494.18
676.99	491.46
677.33	488.66
677.67	485.86
678.01	482.73
678.34	479.70
678.68	476.84
679.02	474.02
679.36	471.27
679.70	468.59
680.04	465.80
680.37	462.92
680.71	460.12
681.05	457.57
681.39	454.88
681.73	452.20
682.06	449.69
682.40	447.18
682.74	444.69
683.08	442.16
683.42	439.58
683.75	437.16
684.09	434.66
684.43	432.19
684.77	429.73
685.10	427.51
685.44	425.27
685.78	422.90
686.12	420.68
686.45	418.40
686.79	416.10
687.13	413.88
687.46	411.74
687.80	409.58
688.14	407.37
688.48	405.31
688.81	403.03
689.15	400.87
689.49	398.75
689.82	396.64
690.16	394.54
690.50	392.56
690.83	390.59
691.17	388.59
691.51	386.66
691.84	384.82
692.18	382.87
692.52	380.84
692.85	378.94
693.19	377.06
693.52	375.23
693.86	373.40
694.20	371.66
694.53	369.85
694.87	368.04
695.21	366.25
695.54	364.43
695.88	362.76
696.21	361.01
696.55	359.32
696.88	357.65
697.22	355.98
697.56	354.36
697.89	352.74
698.23	351.16
698.56	349.55
698.90	347.90
699.23	346.26
699.57	344.71
699.90	343.19
700.24	341.64
700.58	340.09
700.91	338.63
701.25	337.18
701.58	335.83
701.92	334.45
702.25	333.05
702.59	331.67
702.92	330.34
703.26	329.04
703.59	327.74
703.93	326.53
704.26	325.29
704.60	324.00
704.93	322.68
705.26	321.39
705.60	320.22
705.93	319.08
706.27	318.01
706.60	316.96
706.94	315.85
707.27	314.75
707.61	313.67
707.94	312.65
708.27	311.57
708.61	310.46
708.94	309.46
709.28	308.48
709.61	307.50
709.94	306.55
710.28	305.56
710.61	304.61
710.95	303.53
711.28	302.62
711.61	301.70
711.95	300.78
712.28	299.85
712.61	298.89
712.95	297.98
713.28	297.09
713.61	296.24
713.95	295.32
714.28	294.46
714.61	293.60
714.95	292.79
715.28	291.93
715.61	291.09
715.95	290.22
716.28	289.34
716.61	288.53
716.95	287.68
717.28	286.94
717.61	286.15
717.94	285.45
718.28	284.66
718.61	283.94
718.94	283.29
719.27	282.61
719.61	281.96
719.94	281.29
720.27	280.61
720.60	279.91
720.94	279.31
721.27	278.74
721.60	278.20
721.93	277.56
722.27	277.03
722.60	276.45
722.93	275.89
723.26	275.39
723.59	274.85
723.93	274.33
724.26	273.77
724.59	273.22
724.92	272.70
725.25	272.19
725.59	271.64
725.92	271.10
726.25	270.64
726.58	270.16
726.91	269.72
727.24	269.27
727.57	268.81
727.91	268.31
728.24	267.86
728.57	267.35
728.90	266.93
729.23	266.41
729.56	266.01
729.89	265.53
730.22	265.03
730.55	264.55
730.89	264.13
731.22	263.71
731.55	263.24
731.88	262.82
732.21	262.43
732.54	262.01
732.87	261.58
733.20	261.18
733.53	260.79
733.86	260.38
734.19	259.95
734.52	259.59
734.85	259.25
735.18	258.83
735.51	258.47
735.84	258.05
736.17	257.71
736.50	257.29
736.83	257.08
737.16	256.76
737.49	256.43
737.82	256.06
738.15	255.72
738.48	255.42
738.81	255.09
739.14	254.73
739.47	254.41
739.80	254.10
740.13	253.77
740.46	253.42
740.79	253.09
741.12	252.77
741.45	252.43
741.78	252.08
742.11	251.82
742.44	251.51
742.77	251.22
743.10	250.93
743.43	250.63
743.75	250.24
744.08	250.09
744.41	249.78
744.74	249.53
745.07	249.21
745.40	248.97
745.73	248.68
746.06	248.42
746.39	248.13
746.71	247.85
747.04	247.58
747.37	247.34
747.70	247.09
748.03	246.83
748.36	246.60
748.68	246.37
749.01	246.12
749.34	245.88
749.67	245.64
750.00	245.42
750.33	245.24
750.65	245.01
750.98	244.66
751.31	244.47
751.64	244.26
751.97	244.09
752.29	243.88
752.62	243.68
752.95	243.43
753.28	243.23
753.60	243.06
753.93	242.87
754.26	242.68
754.59	242.43
754.91	242.21
755.24	242.03
755.57	241.86
755.90	241.62
756.22	241.42
756.55	241.22
756.88	241.02
757.20	240.81
757.53	240.65
757.86	240.48
758.19	240.31
758.51	240.15
758.84	239.98
759.17	239.78
759.49	239.66
759.82	239.57
760.15	239.45
760.47	239.29
760.80	239.11
761.13	238.94
761.45	238.81
761.78	238.69
762.11	238.53
762.43	238.41
762.76	238.32
763.08	238.21
763.41	238.09
763.74	237.97
764.06	237.84
764.39	237.73
764.71	237.59
765.04	237.46
765.37	237.34
765.69	237.18
766.02	237.08
766.34	236.93
766.67	236.79
767.00	236.68
767.32	236.60
767.65	236.58
767.97	236.49
768.30	236.40
768.62	236.30
768.95	236.19
769.27	236.06
769.60	235.96
769.92	235.85
770.25	235.71
770.57	235.63
770.90	235.56
771.22	235.41
771.55	235.34
771.87	235.24
772.20	235.14
772.52	235.12
772.85	235.13
773.17	235.05
773.50	234.97
773.82	234.88
774.15	234.75
774.47	234.60
774.80	234.47
775.12	234.36
775.45	234.29
775.77	234.22
776.09	234.16
776.42	234.06
776.74	233.98
777.07	233.93
777.39	233.81
777.72	233.66
778.04	233.63
778.36	233.54
778.69	233.46
779.01	233.36
779.33	233.22
779.66	233.04
779.98	232.95
780.31	232.84
780.63	232.81
780.95	232.73
781.28	232.62
781.60	232.57
781.92	232.51
782.25	232.42
782.57	232.33
782.89	232.23
783.22	232.17
783.54	232.10
783.86	232.03
784.19	231.94
784.51	231.90
784.83	231.80
785.16	231.70
785.48	231.63
785.80	231.58
786.12	231.52
786.45	231.46
786.77	231.40
787.09	231.33
