SpectraSuite Data File
++++++++++++++++++++++++++++++++++++
Date: Fri Feb 01 16:27:04 EST 2013
User: group
Dark Spectrum Present: No
Reference Spectrum Present: No
Number of Sampled Component Spectra: 1
Spectrometers: USB2E7196
Integration Time (usec): 35000 (USB2E7196)
Spectra Averaged: 100 (USB2E7196)
Boxcar Smoothing: 10 (USB2E7196)
Correct for Electrical Dark: No (USB2E7196)
Strobe/Lamp Enabled: No (USB2E7196)
Correct for Detector Non-linearity: No (USB2E7196)
Correct for Stray Light: No (USB2E7196)
Number of Pixels in Processed Spectrum: 2048
>>>>>Begin Processed Spectral Data<<<<<
339.09	0.00
339.48	213.77
339.86	214.82
340.24	217.12
340.63	217.99
341.01	220.89
341.39	220.61
341.78	222.52
342.16	223.15
342.54	223.99
342.93	212.21
343.31	222.93
343.69	223.47
344.07	223.95
344.46	224.36
344.84	224.74
345.22	224.99
345.60	225.26
345.99	225.45
346.37	225.57
346.75	225.66
347.13	225.75
347.52	225.82
347.90	225.92
348.28	225.93
348.66	226.01
349.05	226.00
349.43	226.06
349.81	226.11
350.19	226.16
350.57	226.17
350.96	226.25
351.34	226.33
351.72	226.42
352.10	226.54
352.48	226.61
352.87	226.67
353.25	226.73
353.63	226.79
354.01	226.86
354.39	226.93
354.77	227.04
355.15	227.12
355.54	227.13
355.92	227.16
356.30	227.26
356.68	227.36
357.06	227.43
357.44	227.52
357.82	227.57
358.20	227.64
358.58	227.74
358.97	227.79
359.35	227.86
359.73	227.94
360.11	227.98
360.49	228.03
360.87	228.09
361.25	228.13
361.63	228.19
362.01	228.21
362.39	228.24
362.77	228.28
363.15	228.32
363.53	228.37
363.91	228.41
364.29	228.45
364.67	228.39
365.05	228.42
365.43	228.41
365.81	228.43
366.19	228.46
366.57	228.48
366.95	228.45
367.33	228.44
367.71	228.42
368.09	228.47
368.47	228.49
368.85	228.45
369.23	228.48
369.61	228.43
369.99	228.42
370.37	228.41
370.75	228.40
371.13	228.36
371.51	228.34
371.89	228.27
372.27	228.24
372.65	228.20
373.03	228.15
373.41	228.11
373.78	228.07
374.16	227.95
374.54	227.87
374.92	227.86
375.30	227.83
375.68	227.74
376.06	227.65
376.44	227.59
376.82	227.54
377.19	227.45
377.57	227.39
377.95	227.30
378.33	227.23
378.71	227.12
379.09	227.05
379.47	226.99
379.84	226.94
380.22	226.83
380.60	226.75
380.98	226.68
381.36	226.64
381.73	226.59
382.11	226.57
382.49	226.51
382.87	226.43
383.25	226.37
383.62	226.45
384.00	226.39
384.38	226.30
384.76	226.27
385.13	226.28
385.51	226.22
385.89	226.15
386.27	226.12
386.64	226.08
387.02	226.05
387.40	225.98
387.78	225.94
388.15	225.94
388.53	225.90
388.91	225.84
389.29	225.80
389.66	225.77
390.04	225.72
390.42	225.71
390.79	225.66
391.17	225.63
391.55	225.50
391.92	225.51
392.30	225.51
392.68	225.48
393.05	225.41
393.43	225.40
393.81	225.43
394.18	225.42
394.56	225.45
394.94	225.47
395.31	225.51
395.69	225.56
396.06	225.59
396.44	225.63
396.82	225.68
397.19	225.76
397.57	225.80
397.95	225.87
398.32	225.92
398.70	225.98
399.07	226.07
399.45	226.13
399.82	226.19
400.20	226.24
400.58	226.33
400.95	226.42
401.33	226.57
401.70	226.69
402.08	226.80
402.45	226.91
402.83	227.01
403.20	227.11
403.58	227.19
403.95	227.32
404.33	227.45
404.71	227.60
405.08	227.76
405.46	227.87
405.83	228.02
406.21	228.13
406.58	228.32
406.96	228.47
407.33	228.64
407.70	228.79
408.08	229.07
408.45	229.27
408.83	229.50
409.20	229.68
409.58	229.89
409.95	230.15
410.33	230.39
410.70	230.66
411.08	230.95
411.45	231.27
411.82	231.58
412.20	231.93
412.57	232.31
412.95	232.60
413.32	233.03
413.69	233.41
414.07	233.87
414.44	234.36
414.82	234.84
415.19	235.37
415.56	235.94
415.94	236.49
416.31	237.15
416.68	237.77
417.06	238.50
417.43	239.19
417.81	239.93
418.18	240.72
418.55	241.58
418.93	242.46
419.30	243.35
419.67	244.28
420.04	245.24
420.42	246.24
420.79	247.45
421.16	248.56
421.54	249.77
421.91	250.96
422.28	252.16
422.66	253.47
423.03	254.79
423.40	256.14
423.77	257.56
424.15	258.97
424.52	260.46
424.89	262.03
425.26	263.54
425.64	265.00
426.01	266.57
426.38	268.16
426.75	269.82
427.13	271.54
427.50	273.35
427.87	275.21
428.24	277.04
428.61	278.75
428.99	280.71
429.36	282.78
429.73	284.85
430.10	286.89
430.47	288.93
430.85	291.05
431.22	293.23
431.59	295.55
431.96	297.73
432.33	300.17
432.70	302.55
433.08	305.32
433.45	307.95
433.82	310.54
434.19	313.41
434.56	316.18
434.93	318.86
435.30	321.44
435.68	324.26
436.05	327.07
436.42	329.86
436.79	332.35
437.16	335.07
437.53	337.91
437.90	340.68
438.27	343.41
438.64	346.20
439.01	348.79
439.38	350.98
439.75	353.16
440.13	355.65
440.50	357.95
440.87	359.80
441.24	361.75
441.61	363.92
441.98	365.42
442.35	367.28
442.72	369.12
443.09	370.88
443.46	371.91
443.83	372.52
444.20	373.03
444.57	373.86
444.94	374.09
445.31	374.35
445.68	374.70
446.05	374.74
446.42	374.39
446.79	374.00
447.16	373.61
447.53	373.32
447.90	372.16
448.27	371.02
448.64	369.47
449.01	368.30
449.37	366.34
449.74	364.47
450.11	362.17
450.48	359.67
450.85	357.21
451.22	355.06
451.59	353.03
451.96	351.06
452.33	348.49
452.70	346.13
453.07	343.40
453.43	340.51
453.80	337.79
454.17	335.11
454.54	332.56
454.91	329.82
455.28	327.13
455.65	324.64
456.02	322.23
456.38	320.07
456.75	317.45
457.12	315.25
457.49	313.04
457.86	310.90
458.23	309.05
458.59	307.02
458.96	304.97
459.33	303.17
459.70	301.34
460.07	299.88
460.43	298.21
460.80	296.58
461.17	295.16
461.54	293.73
461.91	292.33
462.27	290.91
462.64	289.67
463.01	288.36
463.38	287.11
463.74	285.75
464.11	284.59
464.48	283.57
464.85	282.42
465.21	281.53
465.58	280.60
465.95	279.54
466.32	278.62
466.68	277.71
467.05	276.82
467.42	275.92
467.78	274.93
468.15	274.09
468.52	273.46
468.88	272.62
469.25	271.80
469.62	271.18
469.98	270.51
470.35	269.89
470.72	269.28
471.08	268.62
471.45	268.08
471.82	267.55
472.18	266.95
472.55	266.55
472.92	266.05
473.28	265.58
473.65	265.13
474.02	264.69
474.38	264.32
474.75	264.01
475.11	263.69
475.48	263.46
475.85	263.18
476.21	262.96
476.58	262.78
476.94	262.68
477.31	262.48
477.67	262.35
478.04	262.25
478.41	262.23
478.77	262.30
479.14	262.22
479.50	262.25
479.87	262.31
480.23	262.42
480.60	262.49
480.96	262.64
481.33	262.85
481.69	263.06
482.06	263.30
482.42	263.53
482.79	263.77
483.15	264.07
483.52	264.50
483.88	264.83
484.25	265.21
484.61	265.62
484.98	266.12
485.34	266.68
485.71	267.29
486.07	267.88
486.44	268.38
486.80	269.12
487.17	269.87
487.53	270.69
487.90	271.52
488.26	272.50
488.62	273.47
488.99	274.45
489.35	275.48
489.72	276.57
490.08	277.75
490.44	279.00
490.81	280.35
491.17	281.67
491.54	283.17
491.90	284.70
492.26	286.38
492.63	288.07
492.99	289.84
493.36	291.74
493.72	293.75
494.08	295.91
494.45	298.19
494.81	300.55
495.17	303.00
495.54	305.58
495.90	308.25
496.26	311.08
496.63	314.02
496.99	317.19
497.35	320.50
497.72	323.91
498.08	327.46
498.44	331.16
498.80	335.10
499.17	339.11
499.53	343.29
499.89	347.64
500.26	352.18
500.62	356.87
500.98	361.83
501.34	366.94
501.71	372.28
502.07	377.71
502.43	383.36
502.79	389.18
503.16	395.21
503.52	401.47
503.88	407.91
504.24	414.56
504.60	421.39
504.97	428.51
505.33	435.78
505.69	443.42
506.05	451.20
506.41	459.12
506.78	467.38
507.14	475.88
507.50	484.64
507.86	493.63
508.22	502.80
508.59	511.99
508.95	521.62
509.31	531.41
509.67	541.54
510.03	551.75
510.39	562.32
510.75	573.15
511.12	584.09
511.48	595.34
511.84	606.72
512.20	618.24
512.56	630.16
512.92	642.38
513.28	654.80
513.64	667.29
514.00	679.96
514.37	692.76
514.73	705.82
515.09	718.90
515.45	732.25
515.81	745.94
516.17	759.98
516.53	774.06
516.89	788.23
517.25	802.27
517.61	816.69
517.97	831.13
518.33	845.57
518.69	860.28
519.05	875.29
519.41	890.42
519.77	905.90
520.13	921.28
520.49	936.68
520.85	952.04
521.21	967.62
521.57	983.85
521.93	999.58
522.29	1015.90
522.65	1032.01
523.01	1048.27
523.37	1064.19
523.73	1080.24
524.09	1096.28
524.45	1112.55
524.81	1129.23
525.17	1145.90
525.53	1162.76
525.89	1179.48
526.25	1196.31
526.61	1212.63
526.97	1229.39
527.33	1245.77
527.68	1262.34
528.04	1278.72
528.40	1295.11
528.76	1312.13
529.12	1328.58
529.48	1345.33
529.84	1361.23
530.20	1377.84
530.56	1394.69
530.91	1411.91
531.27	1428.52
531.63	1444.89
531.99	1461.33
532.35	1477.27
532.71	1493.11
533.07	1509.21
533.42	1525.20
533.78	1541.09
534.14	1557.30
534.50	1572.50
534.86	1588.30
535.21	1603.40
535.57	1619.14
535.93	1634.65
536.29	1649.42
536.65	1664.41
537.00	1679.15
537.36	1694.36
537.72	1708.57
538.08	1722.81
538.44	1736.52
538.79	1750.31
539.15	1763.84
539.51	1777.50
539.87	1791.73
540.22	1805.38
540.58	1818.95
540.94	1832.09
541.29	1844.88
541.65	1857.30
542.01	1870.48
542.37	1882.76
542.72	1895.11
543.08	1906.80
543.44	1919.04
543.79	1930.19
544.15	1941.02
544.51	1952.56
544.87	1963.50
545.22	1974.25
545.58	1984.36
545.94	1994.03
546.29	2003.82
546.65	2013.72
547.01	2022.96
547.36	2031.55
547.72	2040.00
548.07	2047.80
548.43	2055.77
548.79	2063.68
549.14	2071.29
549.50	2078.48
549.86	2086.06
550.21	2093.28
550.57	2100.33
550.92	2106.93
551.28	2113.79
551.64	2120.82
551.99	2127.29
552.35	2133.49
552.70	2139.76
553.06	2145.70
553.41	2152.08
553.77	2158.10
554.13	2164.03
554.48	2170.11
554.84	2175.56
555.19	2180.83
555.55	2186.06
555.90	2190.55
556.26	2195.59
556.61	2200.21
556.97	2204.53
557.32	2208.78
557.68	2212.84
558.03	2217.26
558.39	2220.94
558.74	2225.74
559.10	2229.63
559.45	2233.34
559.81	2237.43
560.16	2241.20
560.52	2244.44
560.87	2247.85
561.23	2250.63
561.58	2253.57
561.94	2256.03
562.29	2258.30
562.64	2260.87
563.00	2263.38
563.35	2266.92
563.71	2270.03
564.06	2273.30
564.42	2276.21
564.77	2278.60
565.12	2281.12
565.48	2283.06
565.83	2284.87
566.19	2286.11
566.54	2287.15
566.89	2288.37
567.25	2289.10
567.60	2290.39
567.96	2292.37
568.31	2293.27
568.66	2294.37
569.02	2295.11
569.37	2295.49
569.72	2296.54
570.08	2296.84
570.43	2297.13
570.78	2296.66
571.14	2295.02
571.49	2293.71
571.84	2293.47
572.20	2292.37
572.55	2291.27
572.90	2289.80
573.26	2288.57
573.61	2286.88
573.96	2285.13
574.31	2282.15
574.67	2279.17
575.02	2275.68
575.37	2272.22
575.72	2268.45
576.08	2265.22
576.43	2261.87
576.78	2258.38
577.13	2255.17
577.49	2252.12
577.84	2248.47
578.19	2244.83
578.54	2241.39
578.90	2237.24
579.25	2231.62
579.60	2226.78
579.95	2221.89
580.30	2216.86
580.66	2211.69
581.01	2206.88
581.36	2201.97
581.71	2197.79
582.06	2193.46
582.42	2189.05
582.77	2183.85
583.12	2179.32
583.47	2174.51
583.82	2169.59
584.17	2164.22
584.53	2158.74
584.88	2153.18
585.23	2147.65
585.58	2142.20
585.93	2136.83
586.28	2132.25
586.63	2127.26
586.98	2122.28
587.34	2117.53
587.69	2112.66
588.04	2107.44
588.39	2101.80
588.74	2095.48
589.09	2089.32
589.44	2082.61
589.79	2076.56
590.14	2071.00
590.49	2064.49
590.84	2058.24
591.19	2052.23
591.54	2045.91
591.89	2038.67
592.25	2031.94
592.60	2024.79
592.95	2017.23
593.30	2009.84
593.65	2002.29
594.00	1995.37
594.35	1988.15
594.70	1980.24
595.05	1973.19
595.40	1966.01
595.75	1958.49
596.10	1952.41
596.45	1945.77
596.80	1939.67
597.15	1933.25
597.50	1926.20
597.85	1919.95
598.19	1913.43
598.54	1906.34
598.89	1899.85
599.24	1893.92
599.59	1887.29
599.94	1881.05
600.29	1874.93
600.64	1868.40
600.99	1861.02
601.34	1854.28
601.69	1847.34
602.04	1840.55
602.39	1833.27
602.74	1826.57
603.08	1819.95
603.43	1813.12
603.78	1805.92
604.13	1798.69
604.48	1791.36
604.83	1784.45
605.18	1777.46
605.53	1769.36
605.87	1761.49
606.22	1754.29
606.57	1746.47
606.92	1739.19
607.27	1732.07
607.62	1725.04
607.96	1717.82
608.31	1711.11
608.66	1703.46
609.01	1696.02
609.36	1688.45
609.70	1680.35
610.05	1672.24
610.40	1664.51
610.75	1656.24
611.10	1648.56
611.44	1640.10
611.79	1632.04
612.14	1623.47
612.49	1614.23
612.83	1605.88
613.18	1597.71
613.53	1589.60
613.88	1581.05
614.22	1572.74
614.57	1564.18
614.92	1556.05
615.27	1548.37
615.61	1540.16
615.96	1532.24
616.31	1524.51
616.65	1517.13
617.00	1509.54
617.35	1501.86
617.70	1493.61
618.04	1485.07
618.39	1476.89
618.74	1469.32
619.08	1461.08
619.43	1453.40
619.78	1446.56
620.12	1439.38
620.47	1431.96
620.82	1423.74
621.16	1416.30
621.51	1408.67
621.85	1401.03
622.20	1392.60
622.55	1384.29
622.89	1376.36
623.24	1368.64
623.59	1361.16
623.93	1353.59
624.28	1346.47
624.62	1338.90
624.97	1331.70
625.32	1324.98
625.66	1317.95
626.01	1310.83
626.35	1303.49
626.70	1295.80
627.04	1288.10
627.39	1280.36
627.73	1272.91
628.08	1265.99
628.43	1258.69
628.77	1251.31
629.12	1243.73
629.46	1236.58
629.81	1229.17
630.15	1222.00
630.50	1214.62
630.84	1206.43
631.19	1198.45
631.53	1190.84
631.88	1183.35
632.22	1175.71
632.57	1168.24
632.91	1160.61
633.26	1153.09
633.60	1145.50
633.95	1138.40
634.29	1131.27
634.64	1124.59
634.98	1117.15
635.32	1109.97
635.67	1103.29
636.01	1096.63
636.36	1089.75
636.70	1083.16
637.05	1076.64
637.39	1070.14
637.73	1063.53
638.08	1057.72
638.42	1051.73
638.77	1045.31
639.11	1038.63
639.45	1032.27
639.80	1025.68
640.14	1019.27
640.49	1012.79
640.83	1006.61
641.17	1000.29
641.52	993.91
641.86	987.35
642.20	981.46
642.55	975.17
642.89	968.70
643.23	962.22
643.58	956.53
643.92	950.39
644.26	944.24
644.61	938.13
644.95	932.17
645.29	925.58
645.64	918.86
645.98	912.52
646.32	906.76
646.66	900.74
647.01	894.98
647.35	889.29
647.69	883.42
648.04	877.83
648.38	872.07
648.72	866.14
649.06	860.15
649.41	854.37
649.75	848.45
650.09	842.53
650.43	836.67
650.78	830.49
651.12	824.52
651.46	818.85
651.80	813.13
652.14	807.73
652.49	802.35
652.83	797.12
653.17	791.47
653.51	785.69
653.85	780.21
654.20	774.61
654.54	768.59
654.88	762.88
655.22	757.00
655.56	751.30
655.90	745.96
656.25	740.73
656.59	735.34
656.93	730.23
657.27	725.09
657.61	719.69
657.95	714.65
658.29	709.59
658.64	704.37
658.98	699.11
659.32	693.69
659.66	688.48
660.00	683.19
660.34	678.15
660.68	673.32
661.02	668.37
661.36	663.56
661.70	659.06
662.05	654.65
662.39	650.36
662.73	646.00
663.07	641.51
663.41	637.09
663.75	632.60
664.09	628.00
664.43	623.64
664.77	619.52
665.11	615.23
665.45	611.08
665.79	606.97
666.13	602.79
666.47	598.69
666.81	594.55
667.15	590.47
667.49	586.59
667.83	582.74
668.17	578.81
668.51	574.73
668.85	570.70
669.19	566.81
669.53	562.92
669.87	559.00
670.21	555.28
670.55	551.58
670.89	548.15
671.23	544.73
671.57	541.13
671.91	537.56
672.25	533.99
672.58	530.41
672.92	526.93
673.26	523.82
673.60	520.56
673.94	517.40
674.28	514.44
674.62	511.51
674.96	508.42
675.30	505.45
675.64	502.53
675.97	499.76
676.31	496.92
676.65	494.01
676.99	491.28
677.33	488.38
677.67	485.53
678.01	482.42
678.34	479.42
678.68	476.55
679.02	473.75
679.36	470.94
679.70	468.25
680.04	465.51
680.37	462.56
680.71	459.81
681.05	457.21
681.39	454.48
681.73	451.81
682.06	449.23
682.40	446.66
682.74	444.10
683.08	441.54
683.42	438.93
683.75	436.41
684.09	433.81
684.43	431.38
684.77	428.92
685.10	426.54
685.44	424.21
685.78	421.95
686.12	419.67
686.45	417.46
686.79	415.15
687.13	412.95
687.46	410.84
687.80	408.63
688.14	406.42
688.48	404.37
688.81	402.14
689.15	399.95
689.49	397.79
689.82	395.73
690.16	393.65
690.50	391.72
690.83	389.84
691.17	387.92
691.51	385.99
691.84	384.16
692.18	382.27
692.52	380.34
692.85	378.40
693.19	376.60
693.52	374.74
693.86	372.94
694.20	371.20
694.53	369.40
694.87	367.61
695.21	365.83
695.54	364.02
695.88	362.33
696.21	360.66
696.55	358.99
696.88	357.33
697.22	355.71
697.56	354.08
697.89	352.39
698.23	350.80
698.56	349.24
698.90	347.65
699.23	346.01
699.57	344.48
699.90	342.92
700.24	341.35
700.58	339.83
700.91	338.33
701.25	336.90
701.58	335.52
701.92	334.14
702.25	332.76
702.59	331.41
702.92	330.06
703.26	328.77
703.59	327.50
703.93	326.33
704.26	325.08
704.60	323.80
704.93	322.51
705.26	321.24
705.60	320.07
705.93	318.93
706.27	317.87
706.60	316.74
706.94	315.71
707.27	314.58
707.61	313.53
707.94	312.46
708.27	311.30
708.61	310.20
708.94	309.20
709.28	308.26
709.61	307.31
709.94	306.37
710.28	305.32
710.61	304.34
710.95	303.25
711.28	302.33
711.61	301.42
711.95	300.53
712.28	299.57
712.61	298.54
712.95	297.56
713.28	296.70
713.61	295.82
713.95	294.89
714.28	294.01
714.61	293.13
714.95	292.31
715.28	291.48
715.61	290.58
715.95	289.70
716.28	288.80
716.61	287.87
716.95	287.03
717.28	286.29
717.61	285.52
717.94	284.74
718.28	283.90
718.61	283.16
718.94	282.46
719.27	281.80
719.61	281.15
719.94	280.46
720.27	279.72
720.60	279.03
720.94	278.39
721.27	277.79
721.60	277.20
721.93	276.55
722.27	275.99
722.60	275.49
722.93	274.90
723.26	274.39
723.59	273.85
723.93	273.26
724.26	272.67
724.59	272.09
724.92	271.60
725.25	271.11
725.59	270.52
725.92	269.99
726.25	269.44
726.58	268.97
726.91	268.47
727.24	268.01
727.57	267.60
727.91	267.09
728.24	266.62
728.57	266.12
728.90	265.68
729.23	265.19
729.56	264.73
729.89	264.27
730.22	263.78
730.55	263.31
730.89	262.92
731.22	262.48
731.55	262.06
731.88	261.61
732.21	261.16
732.54	260.74
732.87	260.29
733.20	259.95
733.53	259.52
733.86	259.18
734.19	258.78
734.52	258.36
734.85	258.06
735.18	257.67
735.51	257.34
735.84	256.99
736.17	256.62
736.50	256.18
736.83	255.96
737.16	255.62
737.49	255.31
737.82	254.94
738.15	254.60
738.48	254.30
738.81	253.99
739.14	253.74
739.47	253.41
739.80	253.12
740.13	252.82
740.46	252.52
740.79	252.19
741.12	251.89
741.45	251.61
741.78	251.28
742.11	250.98
742.44	250.63
742.77	250.37
743.10	250.07
743.43	249.85
743.75	249.47
744.08	249.32
744.41	249.09
744.74	248.84
745.07	248.58
745.40	248.34
745.73	248.12
746.06	247.82
746.39	247.58
746.71	247.33
747.04	247.04
747.37	246.81
747.70	246.56
748.03	246.34
748.36	246.10
748.68	245.87
749.01	245.63
749.34	245.44
749.67	245.19
750.00	245.02
750.33	244.84
750.65	244.61
750.98	244.29
751.31	244.07
751.64	243.88
751.97	243.69
752.29	243.41
752.62	243.13
752.95	242.94
753.28	242.72
753.60	242.54
753.93	242.36
754.26	242.16
754.59	241.93
754.91	241.70
755.24	241.51
755.57	241.31
755.90	241.13
756.22	240.93
756.55	240.74
756.88	240.49
757.20	240.27
757.53	240.07
757.86	239.90
758.19	239.71
758.51	239.54
758.84	239.36
759.17	239.22
759.49	239.05
759.82	238.92
760.15	238.78
760.47	238.57
760.80	238.35
761.13	238.22
761.45	238.08
761.78	237.94
762.11	237.79
762.43	237.60
762.76	237.45
763.08	237.28
763.41	237.14
763.74	237.02
764.06	236.85
764.39	236.74
764.71	236.57
765.04	236.39
765.37	236.23
765.69	236.11
766.02	235.97
766.34	235.83
766.67	235.63
767.00	235.50
767.32	235.45
767.65	235.43
767.97	235.30
768.30	235.16
768.62	235.03
768.95	234.90
769.27	234.82
769.60	234.69
769.92	234.58
770.25	234.45
770.57	234.31
770.90	234.21
771.22	234.08
771.55	234.02
771.87	233.95
772.20	233.85
772.52	233.82
772.85	233.85
773.17	233.78
773.50	233.72
773.82	233.60
774.15	233.49
774.47	233.34
774.80	233.25
775.12	233.16
775.45	233.09
775.77	233.01
776.09	232.91
776.42	232.85
776.74	232.80
777.07	232.70
777.39	232.63
777.72	232.54
778.04	232.49
778.36	232.39
778.69	232.33
779.01	232.26
779.33	232.11
779.66	231.94
779.98	231.87
780.31	231.81
780.63	231.78
780.95	231.72
781.28	231.66
781.60	231.60
781.92	231.55
782.25	231.47
782.57	231.44
782.89	231.37
783.22	231.31
783.54	231.27
783.86	231.27
784.19	231.24
784.51	231.22
784.83	231.17
785.16	231.13
785.48	231.08
785.80	231.04
786.12	231.00
786.45	230.93
786.77	230.91
787.09	230.85
