SpectraSuite Data File
++++++++++++++++++++++++++++++++++++
Date: Fri Feb 01 16:33:48 EST 2013
User: group
Dark Spectrum Present: No
Reference Spectrum Present: No
Number of Sampled Component Spectra: 1
Spectrometers: USB2E7196
Integration Time (usec): 35000 (USB2E7196)
Spectra Averaged: 100 (USB2E7196)
Boxcar Smoothing: 10 (USB2E7196)
Correct for Electrical Dark: No (USB2E7196)
Strobe/Lamp Enabled: No (USB2E7196)
Correct for Detector Non-linearity: No (USB2E7196)
Correct for Stray Light: No (USB2E7196)
Number of Pixels in Processed Spectrum: 2048
>>>>>Begin Processed Spectral Data<<<<<
339.09	0.00
339.48	214.11
339.86	215.73
340.24	216.59
340.63	218.50
341.01	221.28
341.39	221.17
341.78	222.29
342.16	223.36
342.54	223.51
342.93	212.41
343.31	223.14
343.69	223.66
344.07	224.12
344.46	224.55
344.84	224.91
345.22	225.12
345.60	225.36
345.99	225.53
346.37	225.64
346.75	225.74
347.13	225.79
347.52	225.84
347.90	225.93
348.28	225.96
348.66	225.99
349.05	226.03
349.43	226.08
349.81	226.13
350.19	226.16
350.57	226.23
350.96	226.29
351.34	226.35
351.72	226.45
352.10	226.55
352.48	226.61
352.87	226.68
353.25	226.76
353.63	226.83
354.01	226.92
354.39	227.01
354.77	227.11
355.15	227.21
355.54	227.29
355.92	227.32
356.30	227.37
356.68	227.52
357.06	227.54
357.44	227.59
357.82	227.66
358.20	227.73
358.58	227.80
358.97	227.85
359.35	227.97
359.73	228.05
360.11	228.10
360.49	228.17
360.87	228.23
361.25	228.34
361.63	228.43
362.01	228.49
362.39	228.52
362.77	228.56
363.15	228.58
363.53	228.61
363.91	228.66
364.29	228.71
364.67	228.63
365.05	228.68
365.43	228.71
365.81	228.76
366.19	228.79
366.57	228.81
366.95	228.80
367.33	228.74
367.71	228.76
368.09	228.75
368.47	228.75
368.85	228.74
369.23	228.71
369.61	228.62
369.99	228.63
370.37	228.64
370.75	228.65
371.13	228.64
371.51	228.58
371.89	228.56
372.27	228.50
372.65	228.47
373.03	228.40
373.41	228.33
373.78	228.25
374.16	228.16
374.54	228.08
374.92	228.00
375.30	227.96
375.68	227.85
376.06	227.80
376.44	227.73
376.82	227.64
377.19	227.56
377.57	227.49
377.95	227.35
378.33	227.24
378.71	227.12
379.09	227.05
379.47	226.99
379.84	226.88
380.22	226.80
380.60	226.73
380.98	226.69
381.36	226.61
381.73	226.54
382.11	226.47
382.49	226.41
382.87	226.35
383.25	226.27
383.62	226.30
384.00	226.21
384.38	226.14
384.76	226.09
385.13	226.06
385.51	226.01
385.89	225.97
386.27	225.93
386.64	225.91
387.02	225.80
387.40	225.74
387.78	225.69
388.15	225.65
388.53	225.58
388.91	225.54
389.29	225.50
389.66	225.47
390.04	225.45
390.42	225.45
390.79	225.43
391.17	225.41
391.55	225.33
391.92	225.31
392.30	225.32
392.68	225.30
393.05	225.30
393.43	225.31
393.81	225.31
394.18	225.29
394.56	225.29
394.94	225.33
395.31	225.37
395.69	225.42
396.06	225.49
396.44	225.55
396.82	225.59
397.19	225.67
397.57	225.72
397.95	225.79
398.32	225.77
398.70	225.82
399.07	225.94
399.45	225.96
399.82	226.03
400.20	226.09
400.58	226.16
400.95	226.22
401.33	226.31
401.70	226.50
402.08	226.61
402.45	226.70
402.83	226.86
403.20	226.95
403.58	227.04
403.95	227.14
404.33	227.27
404.71	227.38
405.08	227.56
405.46	227.71
405.83	227.81
406.21	228.01
406.58	228.20
406.96	228.32
407.33	228.53
407.70	228.71
408.08	229.01
408.45	229.22
408.83	229.43
409.20	229.64
409.58	229.81
409.95	230.05
410.33	230.34
410.70	230.55
411.08	230.86
411.45	231.17
411.82	231.46
412.20	231.81
412.57	232.23
412.95	232.52
413.32	232.91
413.69	233.32
414.07	233.77
414.44	234.21
414.82	234.69
415.19	235.23
415.56	235.82
415.94	236.33
416.31	236.97
416.68	237.63
417.06	238.34
417.43	239.03
417.81	239.78
418.18	240.56
418.55	241.39
418.93	242.27
419.30	243.15
419.67	244.08
420.04	245.02
420.42	246.02
420.79	247.21
421.16	248.39
421.54	249.60
421.91	250.79
422.28	252.08
422.66	253.41
423.03	254.71
423.40	256.02
423.77	257.42
424.15	258.81
424.52	260.27
424.89	261.88
425.26	263.40
425.64	264.90
426.01	266.50
426.38	268.13
426.75	269.78
427.13	271.50
427.50	273.32
427.87	275.23
428.24	277.06
428.61	278.77
428.99	280.66
429.36	282.70
429.73	284.73
430.10	286.72
430.47	288.77
430.85	290.87
431.22	293.11
431.59	295.46
431.96	297.70
432.33	300.12
432.70	302.48
433.08	305.25
433.45	307.82
433.82	310.35
434.19	313.21
434.56	315.98
434.93	318.61
435.30	321.18
435.68	324.00
436.05	326.79
436.42	329.56
436.79	332.05
437.16	334.76
437.53	337.58
437.90	340.32
438.27	343.03
438.64	345.83
439.01	348.36
439.38	350.59
439.75	352.76
440.13	355.27
440.50	357.56
440.87	359.46
441.24	361.39
441.61	363.61
441.98	365.10
442.35	366.89
442.72	368.72
443.09	370.50
443.46	371.50
443.83	372.06
444.20	372.56
444.57	373.41
444.94	373.66
445.31	374.00
445.68	374.38
446.05	374.41
446.42	374.03
446.79	373.66
447.16	373.21
447.53	372.88
447.90	371.69
448.27	370.50
448.64	368.87
449.01	367.76
449.37	365.73
449.74	363.81
450.11	361.59
450.48	359.17
450.85	356.68
451.22	354.54
451.59	352.58
451.96	350.67
452.33	348.07
452.70	345.77
453.07	343.00
453.43	340.11
453.80	337.37
454.17	334.70
454.54	332.14
454.91	329.44
455.28	326.79
455.65	324.36
456.02	321.96
456.38	319.88
456.75	317.21
457.12	315.01
457.49	312.84
457.86	310.66
458.23	308.78
458.59	306.77
458.96	304.72
459.33	302.90
459.70	301.06
460.07	299.56
460.43	297.84
460.80	296.18
461.17	294.76
461.54	293.30
461.91	291.87
462.27	290.48
462.64	289.21
463.01	287.88
463.38	286.59
463.74	285.24
464.11	284.05
464.48	283.02
464.85	281.92
465.21	281.07
465.58	280.18
465.95	279.11
466.32	278.19
466.68	277.30
467.05	276.39
467.42	275.49
467.78	274.56
468.15	273.70
468.52	273.04
468.88	272.23
469.25	271.47
469.62	270.89
469.98	270.19
470.35	269.58
470.72	268.95
471.08	268.32
471.45	267.82
471.82	267.31
472.18	266.74
472.55	266.30
472.92	265.76
473.28	265.30
473.65	264.88
474.02	264.44
474.38	264.07
474.75	263.79
475.11	263.41
475.48	263.18
475.85	262.99
476.21	262.78
476.58	262.60
476.94	262.43
477.31	262.22
477.67	262.10
478.04	262.00
478.41	261.98
478.77	262.02
479.14	261.94
479.50	261.94
479.87	262.05
480.23	262.11
480.60	262.18
480.96	262.29
481.33	262.48
481.69	262.67
482.06	262.87
482.42	263.07
482.79	263.36
483.15	263.67
483.52	264.03
483.88	264.35
484.25	264.68
484.61	265.14
484.98	265.65
485.34	266.22
485.71	266.81
486.07	267.38
486.44	267.95
486.80	268.65
487.17	269.39
487.53	270.19
487.90	271.08
488.26	272.02
488.62	273.01
488.99	274.00
489.35	275.01
489.72	276.15
490.08	277.33
490.44	278.62
490.81	279.99
491.17	281.31
491.54	282.86
491.90	284.48
492.26	286.13
492.63	287.84
492.99	289.64
493.36	291.56
493.72	293.70
494.08	295.80
494.45	298.05
494.81	300.43
495.17	302.86
495.54	305.44
495.90	308.17
496.26	311.04
496.63	314.00
496.99	317.21
497.35	320.52
497.72	323.94
498.08	327.45
498.44	331.10
498.80	335.10
499.17	339.13
499.53	343.30
499.89	347.71
500.26	352.26
500.62	356.98
500.98	361.94
501.34	366.96
501.71	372.30
502.07	377.81
502.43	383.47
502.79	389.28
503.16	395.34
503.52	401.64
503.88	407.99
504.24	414.68
504.60	421.56
504.97	428.67
505.33	435.98
505.69	443.71
506.05	451.54
506.41	459.45
506.78	467.66
507.14	476.16
507.50	484.81
507.86	493.76
508.22	502.92
508.59	512.21
508.95	521.79
509.31	531.62
509.67	541.72
510.03	552.01
510.39	562.58
510.75	573.36
511.12	584.26
511.48	595.59
511.84	607.01
512.20	618.51
512.56	630.50
512.92	642.67
513.28	654.98
513.64	667.37
514.00	680.03
514.37	692.91
514.73	705.92
515.09	718.91
515.45	732.14
515.81	745.66
516.17	759.59
516.53	773.70
516.89	787.78
517.25	801.89
517.61	816.25
517.97	830.76
518.33	845.16
518.69	859.94
519.05	874.87
519.41	890.03
519.77	905.47
520.13	920.88
520.49	936.29
520.85	951.65
521.21	967.37
521.57	983.49
521.93	999.20
522.29	1015.44
522.65	1031.73
523.01	1047.94
523.37	1063.91
523.73	1080.02
524.09	1096.05
524.45	1112.33
524.81	1128.89
525.17	1145.67
525.53	1162.41
525.89	1179.27
526.25	1196.05
526.61	1212.43
526.97	1229.11
527.33	1245.55
527.68	1261.91
528.04	1278.28
528.40	1294.79
528.76	1311.72
529.12	1328.20
529.48	1345.04
529.84	1360.96
530.20	1377.44
530.56	1394.28
530.91	1411.64
531.27	1428.19
531.63	1444.63
531.99	1461.19
532.35	1476.93
532.71	1492.75
533.07	1508.91
533.42	1524.67
533.78	1540.62
534.14	1556.70
534.50	1571.88
534.86	1587.66
535.21	1602.90
535.57	1618.64
535.93	1633.93
536.29	1648.61
536.65	1663.63
537.00	1678.03
537.36	1693.27
537.72	1707.66
538.08	1721.98
538.44	1735.56
538.79	1749.38
539.15	1762.65
539.51	1776.15
539.87	1790.45
540.22	1803.86
540.58	1817.31
540.94	1830.20
541.29	1842.76
541.65	1855.32
542.01	1868.35
542.37	1880.39
542.72	1892.55
543.08	1904.07
543.44	1916.26
543.79	1927.31
544.15	1938.00
544.51	1949.69
544.87	1960.42
545.22	1971.26
545.58	1981.31
545.94	1991.23
546.29	2001.03
546.65	2010.98
547.01	2020.36
547.36	2028.97
547.72	2037.31
548.07	2045.21
548.43	2053.59
548.79	2061.56
549.14	2069.16
549.50	2076.48
549.86	2084.25
550.21	2091.54
550.57	2098.98
550.92	2105.75
551.28	2112.83
551.64	2119.96
551.99	2126.22
552.35	2132.41
552.70	2138.46
553.06	2144.62
553.41	2150.79
553.77	2156.71
554.13	2162.72
554.48	2168.74
554.84	2174.21
555.19	2179.64
555.55	2184.82
555.90	2189.26
556.26	2194.25
556.61	2198.90
556.97	2203.29
557.32	2207.28
557.68	2211.43
558.03	2215.59
558.39	2219.12
558.74	2223.78
559.10	2227.79
559.45	2231.63
559.81	2235.91
560.16	2239.80
560.52	2243.01
560.87	2246.31
561.23	2249.09
561.58	2251.98
561.94	2254.48
562.29	2256.83
562.64	2259.61
563.00	2262.12
563.35	2265.75
563.71	2268.89
564.06	2272.07
564.42	2274.80
564.77	2277.45
565.12	2279.86
565.48	2281.79
565.83	2283.73
566.19	2285.08
566.54	2285.98
566.89	2287.28
567.25	2288.06
567.60	2289.38
567.96	2291.05
568.31	2291.99
568.66	2293.17
569.02	2293.97
569.37	2294.26
569.72	2295.38
570.08	2295.70
570.43	2295.85
570.78	2295.34
571.14	2293.88
571.49	2292.60
571.84	2292.41
572.20	2291.45
572.55	2290.39
572.90	2288.82
573.26	2287.51
573.61	2285.77
573.96	2284.09
574.31	2281.07
574.67	2278.09
575.02	2274.49
575.37	2271.08
575.72	2267.28
576.08	2263.84
576.43	2260.41
576.78	2256.98
577.13	2253.63
577.49	2250.29
577.84	2246.86
578.19	2243.06
578.54	2239.49
578.90	2235.39
579.25	2229.89
579.60	2225.08
579.95	2220.19
580.30	2215.23
580.66	2210.23
581.01	2205.36
581.36	2200.46
581.71	2196.41
582.06	2192.10
582.42	2187.67
582.77	2182.44
583.12	2178.13
583.47	2173.62
583.82	2168.79
584.17	2163.51
584.53	2158.09
584.88	2152.58
585.23	2147.02
585.58	2141.49
585.93	2136.06
586.28	2131.21
586.63	2126.31
586.98	2121.27
587.34	2116.55
587.69	2111.77
588.04	2106.59
588.39	2101.11
588.74	2094.62
589.09	2088.54
589.44	2081.83
589.79	2075.84
590.14	2070.53
590.49	2064.01
590.84	2057.57
591.19	2051.48
591.54	2045.10
591.89	2037.96
592.25	2031.35
592.60	2024.14
592.95	2016.83
593.30	2009.55
593.65	2001.98
594.00	1994.86
594.35	1987.62
594.70	1979.66
595.05	1972.55
595.40	1965.33
595.75	1957.79
596.10	1951.84
596.45	1945.11
596.80	1938.99
597.15	1932.53
597.50	1925.58
597.85	1919.10
598.19	1912.64
598.54	1905.73
598.89	1899.15
599.24	1893.27
599.59	1886.67
599.94	1880.52
600.29	1874.19
600.64	1867.45
600.99	1860.24
601.34	1853.48
601.69	1846.40
602.04	1839.61
602.39	1832.23
602.74	1825.41
603.08	1818.75
603.43	1812.00
603.78	1804.79
604.13	1797.55
604.48	1790.30
604.83	1783.34
605.18	1776.53
605.53	1768.54
605.87	1760.37
606.22	1753.05
606.57	1744.98
606.92	1737.51
607.27	1730.29
607.62	1723.41
607.96	1716.29
608.31	1709.68
608.66	1702.07
609.01	1694.63
609.36	1686.93
609.70	1679.00
610.05	1670.97
610.40	1663.19
610.75	1654.79
611.10	1647.04
611.44	1638.57
611.79	1630.54
612.14	1621.80
612.49	1612.49
612.83	1604.01
613.18	1596.00
613.53	1588.06
613.88	1579.58
614.22	1571.29
614.57	1562.62
614.92	1554.63
615.27	1547.29
615.61	1538.91
615.96	1530.91
616.31	1523.25
616.65	1516.08
617.00	1508.46
617.35	1500.86
617.70	1492.73
618.04	1484.22
618.39	1475.95
618.74	1468.37
619.08	1460.07
619.43	1452.46
619.78	1445.63
620.12	1438.60
620.47	1431.14
620.82	1422.89
621.16	1415.46
621.51	1408.01
621.85	1400.48
622.20	1392.03
622.55	1383.56
622.89	1375.84
623.24	1368.21
623.59	1360.74
623.93	1353.20
624.28	1346.07
624.62	1338.42
624.97	1331.15
625.32	1324.48
625.66	1317.50
626.01	1310.42
626.35	1303.07
626.70	1295.36
627.04	1287.62
627.39	1279.75
627.73	1272.33
628.08	1265.37
628.43	1258.21
628.77	1250.92
629.12	1243.40
629.46	1236.17
629.81	1228.70
630.15	1221.46
630.50	1214.13
630.84	1206.09
631.19	1198.12
631.53	1190.46
631.88	1182.97
632.22	1175.40
632.57	1167.90
632.91	1160.38
633.26	1152.88
633.60	1145.37
633.95	1138.30
634.29	1131.20
634.64	1124.58
634.98	1117.32
635.32	1110.22
635.67	1103.46
636.01	1096.65
636.36	1089.96
636.70	1083.31
637.05	1076.70
637.39	1070.18
637.73	1063.63
638.08	1057.65
638.42	1051.61
638.77	1045.28
639.11	1038.72
639.45	1032.35
639.80	1025.86
640.14	1019.52
640.49	1013.05
640.83	1006.82
641.17	1000.66
641.52	994.38
641.86	987.86
642.20	981.98
642.55	975.66
642.89	969.26
643.23	962.70
643.58	956.90
643.92	950.83
644.26	944.89
644.61	938.83
644.95	932.89
645.29	926.32
645.64	919.61
645.98	913.22
646.32	907.35
646.66	901.29
647.01	895.47
647.35	889.75
647.69	883.84
648.04	878.33
648.38	872.47
648.72	866.45
649.06	860.41
649.41	854.45
649.75	848.45
650.09	842.56
650.43	836.84
650.78	830.58
651.12	824.53
651.46	818.77
651.80	813.02
652.14	807.59
652.49	802.24
652.83	797.11
653.17	791.50
653.51	785.82
653.85	780.33
654.20	774.72
654.54	768.69
654.88	762.96
655.22	757.07
655.56	751.31
655.90	745.81
656.25	740.60
656.59	735.29
656.93	730.25
657.27	725.11
657.61	719.70
657.95	714.65
658.29	709.65
658.64	704.36
658.98	698.98
659.32	693.52
659.66	688.29
660.00	682.96
660.34	677.96
660.68	673.04
661.02	668.02
661.36	663.27
661.70	658.78
662.05	654.48
662.39	650.16
662.73	645.67
663.07	641.38
663.41	636.92
663.75	632.40
664.09	627.78
664.43	623.34
664.77	619.19
665.11	614.95
665.45	610.77
665.79	606.71
666.13	602.58
666.47	598.41
666.81	594.26
667.15	590.13
667.49	586.18
667.83	582.28
668.17	578.33
668.51	574.28
668.85	570.29
669.19	566.35
669.53	562.51
669.87	558.71
670.21	554.94
670.55	551.23
670.89	547.80
671.23	544.37
671.57	540.81
671.91	537.26
672.25	533.66
672.58	530.16
672.92	526.73
673.26	523.63
673.60	520.46
673.94	517.30
674.28	514.33
674.62	511.42
674.96	508.31
675.30	505.40
675.64	502.44
675.97	499.62
676.31	496.78
676.65	493.80
676.99	491.04
677.33	488.24
677.67	485.45
678.01	482.42
678.34	479.47
678.68	476.63
679.02	473.81
679.36	471.04
679.70	468.33
680.04	465.62
680.37	462.81
680.71	460.05
681.05	457.48
681.39	454.82
681.73	452.18
682.06	449.68
682.40	447.19
682.74	444.68
683.08	442.11
683.42	439.52
683.75	437.00
684.09	434.42
684.43	431.93
684.77	429.48
685.10	427.08
685.44	424.76
685.78	422.49
686.12	420.24
686.45	418.00
686.79	415.70
687.13	413.46
687.46	411.26
687.80	409.07
688.14	406.87
688.48	404.76
688.81	402.53
689.15	400.36
689.49	398.17
689.82	396.07
690.16	393.95
690.50	391.98
690.83	390.06
691.17	388.11
691.51	386.22
691.84	384.33
692.18	382.46
692.52	380.49
692.85	378.55
693.19	376.68
693.52	374.82
693.86	372.96
694.20	371.20
694.53	369.38
694.87	367.57
695.21	365.73
695.54	363.90
695.88	362.12
696.21	360.43
696.55	358.79
696.88	357.13
697.22	355.47
697.56	353.85
697.89	352.23
698.23	350.65
698.56	349.00
698.90	347.46
699.23	345.79
699.57	344.26
699.90	342.66
700.24	341.10
700.58	339.61
700.91	338.19
701.25	336.69
701.58	335.28
701.92	333.91
702.25	332.55
702.59	331.21
702.92	329.91
703.26	328.57
703.59	327.24
703.93	326.02
704.26	324.80
704.60	323.50
704.93	322.22
705.26	320.94
705.60	319.72
705.93	318.53
706.27	317.56
706.60	316.50
706.94	315.44
707.27	314.27
707.61	313.15
707.94	312.09
708.27	311.02
708.61	309.97
708.94	309.00
709.28	308.01
709.61	307.07
709.94	306.12
710.28	305.08
710.61	304.08
710.95	303.00
711.28	302.06
711.61	301.12
711.95	300.20
712.28	299.24
712.61	298.27
712.95	297.35
713.28	296.40
713.61	295.49
713.95	294.65
714.28	293.85
714.61	293.01
714.95	292.15
715.28	291.31
715.61	290.39
715.95	289.47
716.28	288.64
716.61	287.79
716.95	286.91
717.28	286.17
717.61	285.42
717.94	284.69
718.28	283.89
718.61	283.13
718.94	282.44
719.27	281.86
719.61	281.25
719.94	280.62
720.27	279.89
720.60	279.23
720.94	278.57
721.27	277.98
721.60	277.41
721.93	276.80
722.27	276.21
722.60	275.68
722.93	275.12
723.26	274.53
723.59	273.95
723.93	273.42
724.26	272.87
724.59	272.28
724.92	271.74
725.25	271.24
725.59	270.76
725.92	270.25
726.25	269.68
726.58	269.19
726.91	268.64
727.24	268.16
727.57	267.66
727.91	267.16
728.24	266.68
728.57	266.20
728.90	265.75
729.23	265.27
729.56	264.82
729.89	264.35
730.22	263.89
730.55	263.42
730.89	263.00
731.22	262.56
731.55	262.14
731.88	261.69
732.21	261.22
732.54	260.75
732.87	260.31
733.20	259.89
733.53	259.49
733.86	259.11
734.19	258.71
734.52	258.37
734.85	258.05
735.18	257.61
735.51	257.21
735.84	256.86
736.17	256.51
736.50	256.12
736.83	255.91
737.16	255.59
737.49	255.26
737.82	254.94
738.15	254.60
738.48	254.27
738.81	253.98
739.14	253.65
739.47	253.36
739.80	253.09
740.13	252.80
740.46	252.50
740.79	252.21
741.12	251.89
741.45	251.55
741.78	251.20
742.11	250.95
742.44	250.62
742.77	250.30
743.10	249.99
743.43	249.72
743.75	249.34
744.08	249.20
744.41	248.92
744.74	248.61
745.07	248.35
745.40	248.15
745.73	247.90
746.06	247.66
746.39	247.39
746.71	247.10
747.04	246.82
747.37	246.56
747.70	246.29
748.03	246.04
748.36	245.79
748.68	245.52
749.01	245.28
749.34	245.05
749.67	244.85
750.00	244.65
750.33	244.45
750.65	244.28
750.98	243.90
751.31	243.70
751.64	243.53
751.97	243.37
752.29	243.10
752.62	242.86
752.95	242.66
753.28	242.44
753.60	242.24
753.93	242.06
754.26	241.88
754.59	241.63
754.91	241.45
755.24	241.26
755.57	241.06
755.90	240.87
756.22	240.70
756.55	240.48
756.88	240.29
757.20	240.06
757.53	239.79
757.86	239.63
758.19	239.45
758.51	239.23
758.84	239.01
759.17	238.86
759.49	238.71
759.82	238.62
760.15	238.47
760.47	238.32
760.80	238.12
761.13	237.98
761.45	237.86
761.78	237.71
762.11	237.59
762.43	237.47
762.76	237.31
763.08	237.17
763.41	237.05
763.74	236.89
764.06	236.76
764.39	236.66
764.71	236.51
765.04	236.38
765.37	236.25
765.69	236.11
766.02	235.98
766.34	235.86
766.67	235.66
767.00	235.57
767.32	235.48
767.65	235.45
767.97	235.31
768.30	235.20
768.62	235.08
768.95	234.96
769.27	234.86
769.60	234.78
769.92	234.68
770.25	234.58
770.57	234.47
770.90	234.38
771.22	234.25
771.55	234.17
771.87	234.07
772.20	233.99
772.52	234.00
772.85	233.99
773.17	233.91
773.50	233.82
773.82	233.72
774.15	233.58
774.47	233.46
774.80	233.38
775.12	233.29
775.45	233.21
775.77	233.15
776.09	233.07
776.42	233.00
776.74	232.93
777.07	232.86
777.39	232.79
777.72	232.70
778.04	232.65
778.36	232.58
778.69	232.48
779.01	232.44
779.33	232.28
779.66	232.10
779.98	232.01
780.31	231.98
780.63	231.93
780.95	231.89
781.28	231.78
781.60	231.71
781.92	231.63
782.25	231.56
782.57	231.50
782.89	231.43
783.22	231.36
783.54	231.28
783.86	231.20
784.19	231.16
784.51	231.12
784.83	231.08
785.16	231.01
785.48	230.97
785.80	230.89
786.12	230.85
786.45	230.85
786.77	230.81
787.09	230.73
