SpectraSuite Data File
++++++++++++++++++++++++++++++++++++
Date: Fri Feb 01 18:14:13 EST 2013
User: group
Dark Spectrum Present: No
Reference Spectrum Present: No
Number of Sampled Component Spectra: 1
Spectrometers: USB2E7196
Integration Time (usec): 35000 (USB2E7196)
Spectra Averaged: 100 (USB2E7196)
Boxcar Smoothing: 10 (USB2E7196)
Correct for Electrical Dark: No (USB2E7196)
Strobe/Lamp Enabled: No (USB2E7196)
Correct for Detector Non-linearity: No (USB2E7196)
Correct for Stray Light: No (USB2E7196)
Number of Pixels in Processed Spectrum: 2048
>>>>>Begin Processed Spectral Data<<<<<
339.09	0.00
339.48	213.10
339.86	214.29
340.24	215.97
340.63	218.45
341.01	220.09
341.39	219.89
341.78	221.93
342.16	222.65
342.54	223.11
342.93	211.63
343.31	222.33
343.69	222.88
344.07	223.37
344.46	223.80
344.84	224.11
345.22	224.39
345.60	224.65
345.99	224.82
346.37	224.94
346.75	225.01
347.13	225.10
347.52	225.15
347.90	225.19
348.28	225.17
348.66	225.20
349.05	225.26
349.43	225.30
349.81	225.30
350.19	225.34
350.57	225.40
350.96	225.49
351.34	225.59
351.72	225.67
352.10	225.77
352.48	225.85
352.87	225.92
353.25	225.94
353.63	225.97
354.01	226.03
354.39	226.14
354.77	226.25
355.15	226.35
355.54	226.41
355.92	226.47
356.30	226.55
356.68	226.67
357.06	226.72
357.44	226.76
357.82	226.87
358.20	226.94
358.58	226.96
358.97	227.02
359.35	227.08
359.73	227.14
360.11	227.20
360.49	227.24
360.87	227.30
361.25	227.37
361.63	227.49
362.01	227.56
362.39	227.55
362.77	227.58
363.15	227.58
363.53	227.61
363.91	227.66
364.29	227.72
364.67	227.67
365.05	227.72
365.43	227.74
365.81	227.72
366.19	227.77
366.57	227.84
366.95	227.88
367.33	227.87
367.71	227.88
368.09	227.91
368.47	227.91
368.85	227.88
369.23	227.86
369.61	227.82
369.99	227.82
370.37	227.86
370.75	227.88
371.13	227.86
371.51	227.83
371.89	227.79
372.27	227.76
372.65	227.74
373.03	227.67
373.41	227.63
373.78	227.61
374.16	227.54
374.54	227.48
374.92	227.38
375.30	227.34
375.68	227.22
376.06	227.13
376.44	227.09
376.82	227.06
377.19	227.02
377.57	226.92
377.95	226.80
378.33	226.68
378.71	226.57
379.09	226.51
379.47	226.43
379.84	226.37
380.22	226.30
380.60	226.22
380.98	226.16
381.36	226.11
381.73	226.04
382.11	226.00
382.49	225.92
382.87	225.83
383.25	225.78
383.62	225.91
384.00	225.86
384.38	225.80
384.76	225.75
385.13	225.74
385.51	225.73
385.89	225.69
386.27	225.66
386.64	225.65
387.02	225.60
387.40	225.57
387.78	225.54
388.15	225.51
388.53	225.48
388.91	225.46
389.29	225.40
389.66	225.38
390.04	225.35
390.42	225.36
390.79	225.43
391.17	225.41
391.55	225.29
391.92	225.26
392.30	225.24
392.68	225.25
393.05	225.24
393.43	225.24
393.81	225.26
394.18	225.25
394.56	225.26
394.94	225.30
395.31	225.34
395.69	225.41
396.06	225.44
396.44	225.45
396.82	225.46
397.19	225.55
397.57	225.58
397.95	225.60
398.32	225.62
398.70	225.62
399.07	225.70
399.45	225.71
399.82	225.78
400.20	225.85
400.58	225.90
400.95	225.95
401.33	226.01
401.70	226.16
402.08	226.25
402.45	226.33
402.83	226.44
403.20	226.55
403.58	226.63
403.95	226.74
404.33	226.87
404.71	227.00
405.08	227.19
405.46	227.33
405.83	227.52
406.21	227.69
406.58	227.89
406.96	228.08
407.33	228.29
407.70	228.52
408.08	228.80
408.45	229.06
408.83	229.32
409.20	229.60
409.58	229.85
409.95	230.16
410.33	230.52
410.70	230.86
411.08	231.23
411.45	231.64
411.82	232.05
412.20	232.51
412.57	233.03
412.95	233.44
413.32	233.99
413.69	234.54
414.07	235.12
414.44	235.75
414.82	236.41
415.19	237.16
415.56	237.91
415.94	238.71
416.31	239.61
416.68	240.49
417.06	241.47
417.43	242.41
417.81	243.53
418.18	244.61
418.55	245.76
418.93	246.96
419.30	248.19
419.67	249.53
420.04	250.90
420.42	252.35
420.79	253.98
421.16	255.61
421.54	257.25
421.91	258.95
422.28	260.72
422.66	262.56
423.03	264.39
423.40	266.28
423.77	268.23
424.15	270.26
424.52	272.37
424.89	274.64
425.26	276.88
425.64	278.92
426.01	281.17
426.38	283.53
426.75	285.89
427.13	288.29
427.50	290.78
427.87	293.43
428.24	296.08
428.61	298.62
428.99	301.35
429.36	304.32
429.73	307.21
430.10	310.07
430.47	312.97
430.85	315.97
431.22	319.12
431.59	322.42
431.96	325.54
432.33	329.02
432.70	332.37
433.08	336.27
433.45	339.95
433.82	343.65
434.19	347.66
434.56	351.63
434.93	355.45
435.30	359.23
435.68	363.25
436.05	367.28
436.42	371.18
436.79	374.75
437.16	378.55
437.53	382.59
437.90	386.51
438.27	390.39
438.64	394.43
439.01	398.05
439.38	401.27
439.75	404.39
440.13	407.89
440.50	411.22
440.87	413.88
441.24	416.63
441.61	419.66
441.98	421.83
442.35	424.39
442.72	426.98
443.09	429.49
443.46	430.96
443.83	431.72
444.20	432.46
444.57	433.67
444.94	434.08
445.31	434.57
445.68	435.08
446.05	435.20
446.42	434.58
446.79	434.03
447.16	433.49
447.53	433.03
447.90	431.41
448.27	429.75
448.64	427.51
449.01	425.91
449.37	423.13
449.74	420.43
450.11	417.24
450.48	413.76
450.85	410.19
451.22	407.11
451.59	404.24
451.96	401.51
452.33	397.81
452.70	394.49
453.07	390.50
453.43	386.39
453.80	382.50
454.17	378.77
454.54	375.14
454.91	371.22
455.28	367.39
455.65	363.85
456.02	360.33
456.38	357.29
456.75	353.53
457.12	350.37
457.49	347.22
457.86	344.16
458.23	341.49
458.59	338.55
458.96	335.59
459.33	332.96
459.70	330.30
460.07	328.10
460.43	325.66
460.80	323.34
461.17	321.29
461.54	319.15
461.91	317.12
462.27	315.07
462.64	313.30
463.01	311.39
463.38	309.55
463.74	307.67
464.11	306.01
464.48	304.53
464.85	302.93
465.21	301.66
465.58	300.30
465.95	298.73
466.32	297.47
466.68	296.19
467.05	294.90
467.42	293.61
467.78	292.35
468.15	291.11
468.52	290.14
468.88	288.93
469.25	287.79
469.62	286.86
469.98	285.88
470.35	284.97
470.72	284.11
471.08	283.18
471.45	282.40
471.82	281.60
472.18	280.72
472.55	280.08
472.92	279.37
473.28	278.72
473.65	278.07
474.02	277.44
474.38	276.90
474.75	276.44
475.11	275.95
475.48	275.48
475.85	275.08
476.21	274.74
476.58	274.43
476.94	274.23
477.31	273.96
477.67	273.73
478.04	273.50
478.41	273.34
478.77	273.28
479.14	273.11
479.50	273.07
479.87	273.12
480.23	273.12
480.60	273.10
480.96	273.14
481.33	273.30
481.69	273.45
482.06	273.60
482.42	273.73
482.79	273.91
483.15	274.24
483.52	274.61
483.88	274.92
484.25	275.29
484.61	275.65
484.98	276.12
485.34	276.70
485.71	277.29
486.07	277.88
486.44	278.47
486.80	279.21
487.17	279.96
487.53	280.79
487.90	281.67
488.26	282.67
488.62	283.72
488.99	284.73
489.35	285.82
489.72	287.04
490.08	288.34
490.44	289.68
490.81	291.08
491.17	292.54
491.54	294.13
491.90	295.78
492.26	297.56
492.63	299.38
492.99	301.25
493.36	303.29
493.72	305.49
494.08	307.72
494.45	310.12
494.81	312.62
495.17	315.20
495.54	317.98
495.90	320.85
496.26	323.80
496.63	327.01
496.99	330.33
497.35	333.82
497.72	337.44
498.08	341.23
498.44	345.20
498.80	349.35
499.17	353.68
499.53	358.13
499.89	362.80
500.26	367.64
500.62	372.61
500.98	377.89
501.34	383.34
501.71	389.07
502.07	394.89
502.43	400.94
502.79	407.19
503.16	413.65
503.52	420.39
503.88	427.32
504.24	434.41
504.60	441.83
504.97	449.45
505.33	457.36
505.69	465.68
506.05	474.01
506.41	482.52
506.78	491.31
507.14	500.45
507.50	509.90
507.86	519.61
508.22	529.56
508.59	539.56
508.95	549.94
509.31	560.53
509.67	571.52
510.03	582.67
510.39	594.18
510.75	605.95
511.12	617.76
511.48	630.01
511.84	642.49
512.20	655.01
512.56	668.04
512.92	681.26
513.28	694.71
513.64	708.39
514.00	722.33
514.37	736.52
514.73	750.75
515.09	764.99
515.45	779.49
515.81	794.40
516.17	809.68
516.53	825.21
516.89	840.89
517.25	856.35
517.61	872.17
517.97	888.05
518.33	903.94
518.69	920.20
519.05	936.65
519.41	953.35
519.77	970.45
520.13	987.58
520.49	1004.70
520.85	1021.74
521.21	1039.14
521.57	1057.11
521.93	1074.55
522.29	1092.80
522.65	1110.90
523.01	1129.06
523.37	1147.03
523.73	1165.13
524.09	1183.08
524.45	1201.24
524.81	1219.96
525.17	1238.70
525.53	1257.68
525.89	1276.67
526.25	1295.68
526.61	1314.21
526.97	1333.19
527.33	1351.90
527.68	1370.62
528.04	1389.26
528.40	1408.02
528.76	1427.29
529.12	1446.07
529.48	1465.24
529.84	1483.49
530.20	1502.48
530.56	1521.84
530.91	1541.61
531.27	1560.80
531.63	1579.77
531.99	1598.76
532.35	1617.14
532.71	1635.51
533.07	1654.25
533.42	1672.57
533.78	1691.09
534.14	1709.79
534.50	1727.55
534.86	1745.95
535.21	1763.67
535.57	1782.06
535.93	1800.13
536.29	1817.52
536.65	1835.17
537.00	1852.49
537.36	1870.42
537.72	1887.45
538.08	1904.44
538.44	1920.74
538.79	1937.15
539.15	1953.27
539.51	1969.56
539.87	1986.52
540.22	2002.89
540.58	2019.23
540.94	2035.22
541.29	2050.61
541.65	2065.99
542.01	2081.87
542.37	2096.70
542.72	2111.74
543.08	2126.19
543.44	2141.33
543.79	2155.10
544.15	2168.66
544.51	2183.07
544.87	2196.65
545.22	2210.10
545.58	2222.90
545.94	2235.27
546.29	2247.62
546.65	2259.96
547.01	2271.83
547.36	2283.04
547.72	2294.10
548.07	2304.34
548.43	2314.71
548.79	2325.14
549.14	2335.02
549.50	2344.61
549.86	2354.66
550.21	2364.27
550.57	2373.63
550.92	2382.43
551.28	2391.71
551.64	2401.05
551.99	2409.62
552.35	2417.95
552.70	2426.34
553.06	2434.40
553.41	2442.87
553.77	2450.95
554.13	2459.22
554.48	2467.51
554.84	2475.17
555.19	2482.33
555.55	2489.60
555.90	2496.22
556.26	2503.24
556.61	2509.94
556.97	2516.38
557.32	2522.41
557.68	2528.35
558.03	2534.59
558.39	2539.98
558.74	2546.55
559.10	2552.16
559.45	2557.47
559.81	2563.44
560.16	2568.91
560.52	2573.90
560.87	2578.86
561.23	2583.12
561.58	2587.56
561.94	2591.49
562.29	2595.11
562.64	2599.44
563.00	2603.34
563.35	2608.44
563.71	2613.13
564.06	2617.90
564.42	2622.10
564.77	2626.13
565.12	2629.92
565.48	2633.19
565.83	2636.38
566.19	2639.05
566.54	2640.92
566.89	2643.36
567.25	2645.20
567.60	2647.44
567.96	2650.46
568.31	2652.55
568.66	2654.86
569.02	2656.43
569.37	2657.64
569.72	2659.56
570.08	2660.61
570.43	2661.48
570.78	2661.57
571.14	2660.59
571.49	2659.72
571.84	2660.09
572.20	2659.62
572.55	2659.05
572.90	2657.93
573.26	2657.09
573.61	2655.68
573.96	2654.62
574.31	2651.94
574.67	2649.15
575.02	2645.83
575.37	2642.37
575.72	2638.64
576.08	2635.17
576.43	2631.92
576.78	2628.57
577.13	2625.44
577.49	2622.29
577.84	2619.04
578.19	2615.11
578.54	2611.39
578.90	2607.16
579.25	2601.25
579.60	2596.00
579.95	2590.67
580.30	2585.28
580.66	2579.75
581.01	2574.34
581.36	2569.01
581.71	2564.52
582.06	2559.67
582.42	2554.99
582.77	2549.31
583.12	2544.30
583.47	2539.42
583.82	2534.12
584.17	2528.11
584.53	2521.96
584.88	2515.69
585.23	2509.26
585.58	2503.26
585.93	2497.22
586.28	2491.77
586.63	2486.09
586.98	2480.44
587.34	2475.26
587.69	2469.78
588.04	2464.02
588.39	2457.62
588.74	2450.23
589.09	2443.25
589.44	2435.59
589.79	2428.37
590.14	2422.01
590.49	2414.46
590.84	2407.06
591.19	2400.17
591.54	2392.77
591.89	2384.61
592.25	2376.79
592.60	2368.33
592.95	2359.64
593.30	2350.97
593.65	2342.13
594.00	2333.84
594.35	2325.19
594.70	2315.78
595.05	2307.56
595.40	2298.94
595.75	2290.23
596.10	2283.22
596.45	2275.26
596.80	2268.14
597.15	2260.72
597.50	2252.60
597.85	2244.93
598.19	2237.19
598.54	2228.88
598.89	2220.98
599.24	2213.92
599.59	2206.31
599.94	2199.06
600.29	2191.57
600.64	2183.80
600.99	2175.25
601.34	2167.28
601.69	2159.14
602.04	2151.08
602.39	2142.31
602.74	2134.19
603.08	2126.24
603.43	2117.97
603.78	2109.40
604.13	2100.66
604.48	2091.98
604.83	2083.60
605.18	2075.56
605.53	2066.10
605.87	2056.35
606.22	2047.67
606.57	2038.15
606.92	2029.07
607.27	2020.37
607.62	2012.08
607.96	2003.53
608.31	1995.45
608.66	1986.36
609.01	1977.40
609.36	1968.28
609.70	1958.69
610.05	1949.05
610.40	1939.80
610.75	1929.92
611.10	1920.72
611.44	1910.51
611.79	1900.78
612.14	1890.24
612.49	1879.14
612.83	1869.02
613.18	1859.40
613.53	1849.71
613.88	1839.24
614.22	1829.38
614.57	1819.08
614.92	1809.45
615.27	1800.38
615.61	1790.58
615.96	1780.89
616.31	1771.45
616.65	1762.49
617.00	1753.30
617.35	1743.95
617.70	1733.97
618.04	1723.83
618.39	1713.74
618.74	1704.69
619.08	1694.68
619.43	1685.63
619.78	1677.18
620.12	1668.49
620.47	1659.52
620.82	1649.74
621.16	1640.82
621.51	1631.52
621.85	1622.17
622.20	1611.95
622.55	1601.74
622.89	1592.18
623.24	1582.84
623.59	1573.99
623.93	1564.92
624.28	1556.33
624.62	1547.44
624.97	1538.71
625.32	1530.40
625.66	1521.95
626.01	1513.32
626.35	1504.41
626.70	1494.92
627.04	1485.72
627.39	1476.23
627.73	1467.14
628.08	1458.74
628.43	1450.12
628.77	1441.32
629.12	1432.31
629.46	1423.66
629.81	1414.60
630.15	1405.80
630.50	1397.01
630.84	1387.10
631.19	1377.57
631.53	1368.42
631.88	1359.18
632.22	1350.08
632.57	1341.26
632.91	1332.17
633.26	1323.33
633.60	1314.39
633.95	1305.92
634.29	1297.32
634.64	1289.40
634.98	1280.63
635.32	1272.18
635.67	1264.14
636.01	1256.10
636.36	1248.05
636.70	1240.15
637.05	1232.36
637.39	1224.59
637.73	1216.81
638.08	1209.76
638.42	1202.59
638.77	1194.88
639.11	1187.07
639.45	1179.35
639.80	1171.38
640.14	1163.89
640.49	1156.10
640.83	1148.63
641.17	1141.27
641.52	1133.77
641.86	1125.96
642.20	1118.95
642.55	1111.22
642.89	1103.53
643.23	1095.83
643.58	1088.94
643.92	1081.58
644.26	1074.49
644.61	1067.32
644.95	1060.19
645.29	1052.36
645.64	1044.36
645.98	1036.78
646.32	1029.73
646.66	1022.64
647.01	1015.87
647.35	1008.98
647.69	1001.94
648.04	995.39
648.38	988.52
648.72	981.53
649.06	974.47
649.41	967.40
649.75	960.44
650.09	953.37
650.43	946.53
650.78	939.31
651.12	932.23
651.46	925.28
651.80	918.61
652.14	912.22
652.49	906.00
652.83	899.94
653.17	893.26
653.51	886.61
653.85	880.12
654.20	873.43
654.54	866.36
654.88	859.61
655.22	852.55
655.56	845.78
655.90	839.22
656.25	833.00
656.59	826.67
656.93	820.69
657.27	814.69
657.61	808.22
657.95	802.10
658.29	796.12
658.64	789.99
658.98	783.61
659.32	777.16
659.66	770.97
660.00	764.72
660.34	758.80
660.68	752.95
661.02	747.04
661.36	741.42
661.70	736.11
662.05	730.99
662.39	725.97
662.73	720.70
663.07	715.48
663.41	710.17
663.75	704.94
664.09	699.49
664.43	694.24
664.77	689.41
665.11	684.36
665.45	679.52
665.79	674.71
666.13	669.85
666.47	664.95
666.81	660.08
667.15	655.19
667.49	650.66
667.83	646.16
668.17	641.48
668.51	636.71
668.85	631.98
669.19	627.34
669.53	622.78
669.87	618.22
670.21	613.92
670.55	609.61
670.89	605.52
671.23	601.50
671.57	597.31
671.91	593.16
672.25	589.07
672.58	584.87
672.92	580.79
673.26	577.04
673.60	573.38
673.94	569.68
674.28	566.14
674.62	562.64
674.96	558.99
675.30	555.55
675.64	552.09
675.97	548.75
676.31	545.42
676.65	541.94
676.99	538.78
677.33	535.40
677.67	532.05
678.01	528.53
678.34	525.08
678.68	521.77
679.02	518.45
679.36	515.17
679.70	511.94
680.04	508.66
680.37	505.29
680.71	501.97
681.05	498.92
681.39	495.83
681.73	492.71
682.06	489.73
682.40	486.80
682.74	483.84
683.08	480.87
683.42	477.84
683.75	474.95
684.09	471.92
684.43	468.99
684.77	466.22
685.10	463.43
685.44	460.66
685.78	457.90
686.12	455.15
686.45	452.44
686.79	449.80
687.13	447.24
687.46	444.69
687.80	442.10
688.14	439.39
688.48	436.91
688.81	434.26
689.15	431.70
689.49	429.18
689.82	426.69
690.16	424.19
690.50	421.84
690.83	419.55
691.17	417.19
691.51	414.92
691.84	412.67
692.18	410.41
692.52	408.05
692.85	405.75
693.19	403.57
693.52	401.38
693.86	399.19
694.20	397.07
694.53	394.94
694.87	392.79
695.21	390.71
695.54	388.52
695.88	386.45
696.21	384.41
696.55	382.36
696.88	380.34
697.22	378.38
697.56	376.48
697.89	374.53
698.23	372.61
698.56	370.75
698.90	368.85
699.23	366.88
699.57	365.06
699.90	363.25
700.24	361.41
700.58	359.63
700.91	357.85
701.25	356.12
701.58	354.53
701.92	352.94
702.25	351.31
702.59	349.71
702.92	348.20
703.26	346.68
703.59	345.21
703.93	343.82
704.26	342.39
704.60	340.87
704.93	339.34
705.26	337.87
705.60	336.42
705.93	335.09
706.27	333.82
706.60	332.60
706.94	331.31
707.27	329.99
707.61	328.71
707.94	327.48
708.27	326.20
708.61	324.90
708.94	323.68
709.28	322.50
709.61	321.34
709.94	320.17
710.28	318.95
710.61	317.74
710.95	316.47
711.28	315.31
711.61	314.11
711.95	313.01
712.28	311.91
712.61	310.77
712.95	309.60
713.28	308.58
713.61	307.53
713.95	306.52
714.28	305.52
714.61	304.52
714.95	303.50
715.28	302.49
715.61	301.44
715.95	300.41
716.28	299.36
716.61	298.36
716.95	297.35
717.28	296.42
717.61	295.52
717.94	294.62
718.28	293.69
718.61	292.86
718.94	292.03
719.27	291.24
719.61	290.48
719.94	289.70
720.27	288.82
720.60	287.94
720.94	287.12
721.27	286.41
721.60	285.71
721.93	285.02
722.27	284.37
722.60	283.71
722.93	283.03
723.26	282.39
723.59	281.70
723.93	281.02
724.26	280.36
724.59	279.71
724.92	279.08
725.25	278.46
725.59	277.85
725.92	277.24
726.25	276.63
726.58	276.02
726.91	275.42
727.24	274.85
727.57	274.30
727.91	273.74
728.24	273.15
728.57	272.56
728.90	271.98
729.23	271.37
729.56	270.85
729.89	270.33
730.22	269.77
730.55	269.24
730.89	268.75
731.22	268.26
731.55	267.75
731.88	267.25
732.21	266.74
732.54	266.18
732.87	265.68
733.20	265.23
733.53	264.75
733.86	264.32
734.19	263.85
734.52	263.41
734.85	263.05
735.18	262.58
735.51	262.15
735.84	261.75
736.17	261.33
736.50	260.85
736.83	260.52
737.16	260.11
737.49	259.74
737.82	259.32
738.15	258.90
738.48	258.46
738.81	258.06
739.14	257.72
739.47	257.39
739.80	257.02
740.13	256.65
740.46	256.29
740.79	255.92
741.12	255.58
741.45	255.20
741.78	254.84
742.11	254.50
742.44	254.12
742.77	253.77
743.10	253.41
743.43	253.09
743.75	252.65
744.08	252.49
744.41	252.16
744.74	251.90
745.07	251.58
745.40	251.31
745.73	251.06
746.06	250.71
746.39	250.41
746.71	250.08
747.04	249.73
747.37	249.40
747.70	249.13
748.03	248.84
748.36	248.56
748.68	248.22
749.01	247.93
749.34	247.67
749.67	247.41
750.00	247.20
750.33	246.97
750.65	246.71
750.98	246.29
751.31	246.05
751.64	245.78
751.97	245.58
752.29	245.31
752.62	245.04
752.95	244.77
753.28	244.52
753.60	244.29
753.93	244.10
754.26	243.89
754.59	243.61
754.91	243.36
755.24	243.14
755.57	242.89
755.90	242.67
756.22	242.46
756.55	242.19
756.88	241.94
757.20	241.67
757.53	241.45
757.86	241.24
758.19	241.04
758.51	240.81
758.84	240.56
759.17	240.39
759.49	240.18
759.82	240.03
760.15	239.85
760.47	239.72
760.80	239.49
761.13	239.33
761.45	239.17
761.78	239.00
762.11	238.85
762.43	238.73
762.76	238.58
763.08	238.41
763.41	238.27
763.74	238.10
764.06	237.95
764.39	237.79
764.71	237.61
765.04	237.44
765.37	237.29
765.69	237.17
766.02	237.00
766.34	236.86
766.67	236.71
767.00	236.58
767.32	236.48
767.65	236.40
767.97	236.21
768.30	236.10
768.62	235.95
768.95	235.78
769.27	235.65
769.60	235.53
769.92	235.40
770.25	235.26
770.57	235.13
770.90	234.99
771.22	234.90
771.55	234.80
771.87	234.71
772.20	234.59
772.52	234.56
772.85	234.54
773.17	234.43
773.50	234.29
773.82	234.16
774.15	233.99
774.47	233.86
774.80	233.81
775.12	233.68
775.45	233.62
775.77	233.56
776.09	233.46
776.42	233.38
776.74	233.31
777.07	233.21
777.39	233.11
777.72	233.03
778.04	232.92
778.36	232.82
778.69	232.74
779.01	232.67
779.33	232.49
779.66	232.33
779.98	232.24
780.31	232.17
780.63	232.14
780.95	232.08
781.28	231.98
781.60	231.88
781.92	231.82
782.25	231.74
782.57	231.68
782.89	231.60
783.22	231.53
783.54	231.47
783.86	231.45
784.19	231.40
784.51	231.38
784.83	231.33
785.16	231.29
785.48	231.24
785.80	231.17
786.12	231.09
786.45	231.03
