SpectraSuite Data File
++++++++++++++++++++++++++++++++++++
Date: Fri Feb 01 18:16:08 EST 2013
User: group
Dark Spectrum Present: No
Reference Spectrum Present: No
Number of Sampled Component Spectra: 1
Spectrometers: USB2E7196
Integration Time (usec): 35000 (USB2E7196)
Spectra Averaged: 100 (USB2E7196)
Boxcar Smoothing: 10 (USB2E7196)
Correct for Electrical Dark: No (USB2E7196)
Strobe/Lamp Enabled: No (USB2E7196)
Correct for Detector Non-linearity: No (USB2E7196)
Correct for Stray Light: No (USB2E7196)
Number of Pixels in Processed Spectrum: 2048
>>>>>Begin Processed Spectral Data<<<<<
339.09	0.00
339.48	212.49
339.86	214.35
340.24	215.74
340.63	217.11
341.01	219.93
341.39	219.73
341.78	220.91
342.16	222.54
342.54	222.38
342.93	211.34
343.31	222.03
343.69	222.60
344.07	223.05
344.46	223.46
344.84	223.83
345.22	224.09
345.60	224.36
345.99	224.59
346.37	224.76
346.75	224.92
347.13	225.04
347.52	225.13
347.90	225.23
348.28	225.30
348.66	225.31
349.05	225.29
349.43	225.35
349.81	225.42
350.19	225.46
350.57	225.54
350.96	225.62
351.34	225.73
351.72	225.83
352.10	225.96
352.48	226.05
352.87	226.12
353.25	226.17
353.63	226.24
354.01	226.29
354.39	226.33
354.77	226.40
355.15	226.51
355.54	226.56
355.92	226.60
356.30	226.67
356.68	226.80
357.06	226.89
357.44	226.95
357.82	227.00
358.20	227.09
358.58	227.16
358.97	227.24
359.35	227.32
359.73	227.37
360.11	227.40
360.49	227.44
360.87	227.51
361.25	227.58
361.63	227.67
362.01	227.75
362.39	227.80
362.77	227.82
363.15	227.83
363.53	227.87
363.91	227.87
364.29	227.89
364.67	227.86
365.05	227.86
365.43	227.88
365.81	227.89
366.19	227.93
366.57	227.98
366.95	228.00
367.33	227.98
367.71	227.98
368.09	228.01
368.47	228.00
368.85	228.00
369.23	227.98
369.61	227.90
369.99	227.86
370.37	227.84
370.75	227.84
371.13	227.78
371.51	227.70
371.89	227.71
372.27	227.67
372.65	227.61
373.03	227.57
373.41	227.49
373.78	227.47
374.16	227.34
374.54	227.23
374.92	227.16
375.30	227.07
375.68	227.04
376.06	227.02
376.44	226.97
376.82	226.91
377.19	226.86
377.57	226.81
377.95	226.76
378.33	226.68
378.71	226.58
379.09	226.56
379.47	226.54
379.84	226.43
380.22	226.35
380.60	226.29
380.98	226.25
381.36	226.19
381.73	226.13
382.11	226.10
382.49	226.05
382.87	225.98
383.25	225.95
383.62	225.95
384.00	225.85
384.38	225.79
384.76	225.74
385.13	225.69
385.51	225.64
385.89	225.55
386.27	225.51
386.64	225.45
387.02	225.39
387.40	225.35
387.78	225.32
388.15	225.28
388.53	225.25
388.91	225.20
389.29	225.16
389.66	225.13
390.04	225.10
390.42	225.10
390.79	225.05
391.17	225.02
391.55	224.92
391.92	224.91
392.30	224.94
392.68	224.89
393.05	224.88
393.43	224.89
393.81	224.91
394.18	224.91
394.56	224.91
394.94	224.93
395.31	224.94
395.69	225.01
396.06	225.07
396.44	225.11
396.82	225.14
397.19	225.22
397.57	225.20
397.95	225.26
398.32	225.27
398.70	225.34
399.07	225.43
399.45	225.50
399.82	225.57
400.20	225.61
400.58	225.72
400.95	225.78
401.33	225.88
401.70	226.02
402.08	226.11
402.45	226.24
402.83	226.37
403.20	226.52
403.58	226.63
403.95	226.77
404.33	226.91
404.71	227.08
405.08	227.27
405.46	227.46
405.83	227.63
406.21	227.81
406.58	228.03
406.96	228.23
407.33	228.46
407.70	228.70
408.08	229.02
408.45	229.27
408.83	229.56
409.20	229.83
409.58	230.08
409.95	230.41
410.33	230.75
410.70	231.09
411.08	231.45
411.45	231.86
411.82	232.26
412.20	232.74
412.57	233.25
412.95	233.70
413.32	234.26
413.69	234.82
414.07	235.42
414.44	236.07
414.82	236.74
415.19	237.51
415.56	238.27
415.94	239.05
416.31	239.95
416.68	240.83
417.06	241.80
417.43	242.78
417.81	243.87
418.18	244.97
418.55	246.17
418.93	247.39
419.30	248.65
419.67	249.97
420.04	251.32
420.42	252.73
420.79	254.34
421.16	255.96
421.54	257.61
421.91	259.34
422.28	261.13
422.66	262.97
423.03	264.72
423.40	266.61
423.77	268.62
424.15	270.63
424.52	272.76
424.89	275.06
425.26	277.27
425.64	279.27
426.01	281.51
426.38	283.83
426.75	286.17
427.13	288.61
427.50	291.12
427.87	293.73
428.24	296.36
428.61	298.87
428.99	301.59
429.36	304.61
429.73	307.47
430.10	310.26
430.47	313.18
430.85	316.23
431.22	319.36
431.59	322.63
431.96	325.77
432.33	329.23
432.70	332.50
433.08	336.42
433.45	340.12
433.82	343.81
434.19	347.89
434.56	351.86
434.93	355.56
435.30	359.25
435.68	363.32
436.05	367.35
436.42	371.29
436.79	374.80
437.16	378.57
437.53	382.63
437.90	386.58
438.27	390.43
438.64	394.39
439.01	398.05
439.38	401.27
439.75	404.35
440.13	407.92
440.50	411.27
440.87	413.88
441.24	416.68
441.61	419.72
441.98	421.78
442.35	424.35
442.72	427.01
443.09	429.56
443.46	430.98
443.83	431.76
444.20	432.46
444.57	433.70
444.94	434.14
445.31	434.57
445.68	435.04
446.05	435.14
446.42	434.57
446.79	433.96
447.16	433.38
447.53	432.94
447.90	431.24
448.27	429.58
448.64	427.33
449.01	425.75
449.37	422.96
449.74	420.32
450.11	417.13
450.48	413.61
450.85	410.05
451.22	407.02
451.59	404.19
451.96	401.48
452.33	397.81
452.70	394.49
453.07	390.54
453.43	386.53
453.80	382.65
454.17	378.88
454.54	375.33
454.91	371.43
455.28	367.65
455.65	364.16
456.02	360.64
456.38	357.61
456.75	353.87
457.12	350.70
457.49	347.53
457.86	344.45
458.23	341.85
458.59	338.96
458.96	335.99
459.33	333.39
459.70	330.72
460.07	328.56
460.43	326.08
460.80	323.77
461.17	321.72
461.54	319.58
461.91	317.59
462.27	315.53
462.64	313.72
463.01	311.78
463.38	309.95
463.74	308.08
464.11	306.42
464.48	304.87
464.85	303.27
465.21	302.01
465.58	300.67
465.95	299.13
466.32	297.88
466.68	296.62
467.05	295.31
467.42	294.04
467.78	292.73
468.15	291.48
468.52	290.48
468.88	289.25
469.25	288.17
469.62	287.25
469.98	286.28
470.35	285.39
470.72	284.51
471.08	283.59
471.45	282.77
471.82	281.98
472.18	281.15
472.55	280.52
472.92	279.80
473.28	279.17
473.65	278.48
474.02	277.78
474.38	277.21
474.75	276.72
475.11	276.19
475.48	275.77
475.85	275.40
476.21	275.06
476.58	274.75
476.94	274.51
477.31	274.19
477.67	273.91
478.04	273.68
478.41	273.55
478.77	273.48
479.14	273.32
479.50	273.24
479.87	273.20
480.23	273.17
480.60	273.13
480.96	273.12
481.33	273.26
481.69	273.38
482.06	273.53
482.42	273.62
482.79	273.86
483.15	274.08
483.52	274.42
483.88	274.68
484.25	275.02
484.61	275.39
484.98	275.87
485.34	276.39
485.71	277.00
486.07	277.61
486.44	278.20
486.80	278.93
487.17	279.68
487.53	280.53
487.90	281.40
488.26	282.39
488.62	283.37
488.99	284.40
489.35	285.47
489.72	286.61
490.08	287.90
490.44	289.13
490.81	290.55
491.17	292.01
491.54	293.58
491.90	295.18
492.26	296.92
492.63	298.73
492.99	300.63
493.36	302.63
493.72	304.81
494.08	307.04
494.45	309.46
494.81	311.98
495.17	314.62
495.54	317.36
495.90	320.24
496.26	323.29
496.63	326.43
496.99	329.79
497.35	333.32
497.72	336.97
498.08	340.79
498.44	344.74
498.80	348.92
499.17	353.32
499.53	357.85
499.89	362.56
500.26	367.39
500.62	372.49
500.98	377.84
501.34	383.30
501.71	389.00
502.07	394.80
502.43	400.84
502.79	407.07
503.16	413.67
503.52	420.48
503.88	427.38
504.24	434.58
504.60	442.06
504.97	449.76
505.33	457.67
505.69	466.04
506.05	474.42
506.41	482.93
506.78	491.75
507.14	500.89
507.50	510.32
507.86	520.12
508.22	530.03
508.59	539.95
508.95	550.30
509.31	560.92
509.67	571.89
510.03	583.06
510.39	594.59
510.75	606.34
511.12	618.18
511.48	630.50
511.84	642.89
512.20	655.36
512.56	668.38
512.92	681.64
513.28	695.07
513.64	708.74
514.00	722.72
514.37	736.78
514.73	751.04
515.09	765.27
515.45	779.84
515.81	794.72
516.17	810.18
516.53	825.82
516.89	841.52
517.25	857.08
517.61	872.95
517.97	888.81
518.33	904.68
518.69	920.96
519.05	937.49
519.41	954.38
519.77	971.68
520.13	988.76
520.49	1005.75
520.85	1022.88
521.21	1040.22
521.57	1058.23
521.93	1075.68
522.29	1093.98
522.65	1112.15
523.01	1130.18
523.37	1148.11
523.73	1166.17
524.09	1183.98
524.45	1202.09
524.81	1220.81
525.17	1239.55
525.53	1258.52
525.89	1277.47
526.25	1296.36
526.61	1314.71
526.97	1333.50
527.33	1351.98
527.68	1370.62
528.04	1389.18
528.40	1407.97
528.76	1427.33
529.12	1446.05
529.48	1465.42
529.84	1483.57
530.20	1502.53
530.56	1521.82
530.91	1541.77
531.27	1560.81
531.63	1579.67
531.99	1598.67
532.35	1617.01
532.71	1635.38
533.07	1654.07
533.42	1672.51
533.78	1691.09
534.14	1709.97
534.50	1727.75
534.86	1746.17
535.21	1763.97
535.57	1782.57
535.93	1800.63
536.29	1817.92
536.65	1835.64
537.00	1852.86
537.36	1870.89
537.72	1887.90
538.08	1904.96
538.44	1921.21
538.79	1937.81
539.15	1954.00
539.51	1970.37
539.87	1987.28
540.22	2003.65
540.58	2020.10
540.94	2035.91
541.29	2051.42
541.65	2066.65
542.01	2082.56
542.37	2097.67
542.72	2112.70
543.08	2127.13
543.44	2142.27
543.79	2156.09
544.15	2169.62
544.51	2183.77
544.87	2197.28
545.22	2210.70
545.58	2223.44
545.94	2235.62
546.29	2247.94
546.65	2260.43
547.01	2272.31
547.36	2283.58
547.72	2294.46
548.07	2304.65
548.43	2315.34
548.79	2325.68
549.14	2335.65
549.50	2345.37
549.86	2355.23
550.21	2364.90
550.57	2374.42
550.92	2383.14
551.28	2392.55
551.64	2401.94
551.99	2410.75
552.35	2418.97
552.70	2427.31
553.06	2435.45
553.41	2444.00
553.77	2452.28
554.13	2460.53
554.48	2468.85
554.84	2476.56
555.19	2483.83
555.55	2491.10
555.90	2497.44
556.26	2504.53
556.61	2511.28
556.97	2517.46
557.32	2523.46
557.68	2529.53
558.03	2535.61
558.39	2541.13
558.74	2547.74
559.10	2553.46
559.45	2558.81
559.81	2564.78
560.16	2570.30
560.52	2575.34
560.87	2580.41
561.23	2584.45
561.58	2588.99
561.94	2592.96
562.29	2596.64
562.64	2601.01
563.00	2605.00
563.35	2610.09
563.71	2614.52
564.06	2619.14
564.42	2623.48
564.77	2627.37
565.12	2631.08
565.48	2634.32
565.83	2637.61
566.19	2640.15
566.54	2641.94
566.89	2644.48
567.25	2646.51
567.60	2649.12
567.96	2652.04
568.31	2653.85
568.66	2656.16
569.02	2657.75
569.37	2659.05
569.72	2660.88
570.08	2661.78
570.43	2662.58
570.78	2662.79
571.14	2662.01
571.49	2661.18
571.84	2661.62
572.20	2661.29
572.55	2660.69
572.90	2659.60
573.26	2658.74
573.61	2657.31
573.96	2656.22
574.31	2653.38
574.67	2650.48
575.02	2646.91
575.37	2643.62
575.72	2640.13
576.08	2636.70
576.43	2633.45
576.78	2629.87
577.13	2626.70
577.49	2623.69
577.84	2620.38
578.19	2616.45
578.54	2612.66
578.90	2608.43
579.25	2602.40
579.60	2597.08
579.95	2591.75
580.30	2586.47
580.66	2580.67
581.01	2575.34
581.36	2569.93
581.71	2565.47
582.06	2560.62
582.42	2555.71
582.77	2550.04
583.12	2545.02
583.47	2540.01
583.82	2534.56
584.17	2528.66
584.53	2522.74
584.88	2516.54
585.23	2510.19
585.58	2504.13
585.93	2498.07
586.28	2492.68
586.63	2487.05
586.98	2481.45
587.34	2476.08
587.69	2470.71
588.04	2464.94
588.39	2458.62
588.74	2451.28
589.09	2444.27
589.44	2436.54
589.79	2429.68
590.14	2423.15
590.49	2415.53
590.84	2408.14
591.19	2401.28
591.54	2393.98
591.89	2385.54
592.25	2377.66
592.60	2369.15
592.95	2360.54
593.30	2352.00
593.65	2343.29
594.00	2335.06
594.35	2326.48
594.70	2317.22
595.05	2308.84
595.40	2300.24
595.75	2291.43
596.10	2284.26
596.45	2276.29
596.80	2269.20
597.15	2261.56
597.50	2253.46
597.85	2245.84
598.19	2238.15
598.54	2229.84
598.89	2221.90
599.24	2214.93
599.59	2207.11
599.94	2199.92
600.29	2192.24
600.64	2184.51
600.99	2175.74
601.34	2167.73
601.69	2159.61
602.04	2151.59
602.39	2142.70
602.74	2134.58
603.08	2126.50
603.43	2118.43
603.78	2109.78
604.13	2101.13
604.48	2092.35
604.83	2084.03
605.18	2075.84
605.53	2066.28
605.87	2056.57
606.22	2047.97
606.57	2038.38
606.92	2029.49
607.27	2020.84
607.62	2012.64
607.96	2003.93
608.31	1996.04
608.66	1986.89
609.01	1977.85
609.36	1968.78
609.70	1959.16
610.05	1949.59
610.40	1940.46
610.75	1930.51
611.10	1921.44
611.44	1911.38
611.79	1901.84
612.14	1891.39
612.49	1880.38
612.83	1870.22
613.18	1860.38
613.53	1850.60
613.88	1840.41
614.22	1830.49
614.57	1820.13
614.92	1810.61
615.27	1801.52
615.61	1791.52
615.96	1781.95
616.31	1772.62
616.65	1763.66
617.00	1754.62
617.35	1745.36
617.70	1735.25
618.04	1725.00
618.39	1715.01
618.74	1705.72
619.08	1695.73
619.43	1686.62
619.78	1678.20
620.12	1669.67
620.47	1660.52
620.82	1650.66
621.16	1641.67
621.51	1632.58
621.85	1623.44
622.20	1613.09
622.55	1602.92
622.89	1593.33
623.24	1583.94
623.59	1574.97
623.93	1565.83
624.28	1557.14
624.62	1548.01
624.97	1539.36
625.32	1531.17
625.66	1522.83
626.01	1514.32
626.35	1505.38
626.70	1495.99
627.04	1486.68
627.39	1477.17
627.73	1468.29
628.08	1459.90
628.43	1451.08
628.77	1442.18
629.12	1432.97
629.46	1424.36
629.81	1415.31
630.15	1406.61
630.50	1397.68
630.84	1387.79
631.19	1378.18
631.53	1369.00
631.88	1359.88
632.22	1350.78
632.57	1342.02
632.91	1332.82
633.26	1323.94
633.60	1314.95
633.95	1306.40
634.29	1297.91
634.64	1289.92
634.98	1281.16
635.32	1272.55
635.67	1264.58
636.01	1256.60
636.36	1248.59
636.70	1240.74
637.05	1233.07
637.39	1225.25
637.73	1217.52
638.08	1210.51
638.42	1203.35
638.77	1195.66
639.11	1187.80
639.45	1180.12
639.80	1172.12
640.14	1164.49
640.49	1156.61
640.83	1149.16
641.17	1141.68
641.52	1134.12
641.86	1126.38
642.20	1119.48
642.55	1111.93
642.89	1104.27
643.23	1096.43
643.58	1089.52
643.92	1082.07
644.26	1074.82
644.61	1067.64
644.95	1060.54
645.29	1052.73
645.64	1044.76
645.98	1037.27
646.32	1030.28
646.66	1023.09
647.01	1016.21
647.35	1009.36
647.69	1002.32
648.04	995.71
648.38	988.93
648.72	981.93
649.06	974.81
649.41	967.76
649.75	960.74
650.09	953.67
650.43	946.84
650.78	939.51
651.12	932.47
651.46	925.67
651.80	918.87
652.14	912.44
652.49	906.09
652.83	899.96
653.17	893.24
653.51	886.53
653.85	880.19
654.20	873.58
654.54	866.48
654.88	859.74
655.22	852.75
655.56	845.85
655.90	839.28
656.25	833.14
656.59	826.75
656.93	820.73
657.27	814.65
657.61	808.24
657.95	802.18
658.29	796.17
658.64	789.96
658.98	783.73
659.32	777.22
659.66	771.01
660.00	764.75
660.34	758.91
660.68	753.05
661.02	747.05
661.36	741.40
661.70	736.05
662.05	730.91
662.39	725.80
662.73	720.56
663.07	715.43
663.41	710.03
663.75	704.78
664.09	699.31
664.43	694.04
664.77	689.15
665.11	684.11
665.45	679.23
665.79	674.41
666.13	669.54
666.47	664.68
666.81	659.84
667.15	654.95
667.49	650.32
667.83	645.84
668.17	641.29
668.51	636.49
668.85	631.74
669.19	627.26
669.53	622.78
669.87	618.24
670.21	613.81
670.55	609.51
670.89	605.46
671.23	601.40
671.57	597.31
671.91	593.09
672.25	588.92
672.58	584.74
672.92	580.61
673.26	576.82
673.60	573.12
673.94	569.41
674.28	566.05
674.62	562.56
674.96	558.92
675.30	555.46
675.64	552.04
675.97	548.81
676.31	545.39
676.65	541.88
676.99	538.70
677.33	535.39
677.67	532.15
678.01	528.60
678.34	525.18
678.68	521.77
679.02	518.48
679.36	515.25
679.70	512.12
680.04	508.98
680.37	505.61
680.71	502.33
681.05	499.27
681.39	496.03
681.73	492.91
682.06	489.88
682.40	486.86
682.74	483.89
683.08	480.83
683.42	477.75
683.75	474.80
684.09	471.80
684.43	468.88
684.77	465.94
685.10	463.09
685.44	460.39
685.78	457.68
686.12	455.01
686.45	452.32
686.79	449.56
687.13	446.93
687.46	444.42
687.80	441.93
688.14	439.29
688.48	436.86
688.81	434.19
689.15	431.66
689.49	429.10
689.82	426.60
690.16	424.14
690.50	421.84
690.83	419.58
691.17	417.22
691.51	414.98
691.84	412.78
692.18	410.58
692.52	408.16
692.85	405.92
693.19	403.73
693.52	401.51
693.86	399.36
694.20	397.24
694.53	395.07
694.87	392.83
695.21	390.73
695.54	388.54
695.88	386.52
696.21	384.51
696.55	382.50
696.88	380.49
697.22	378.52
697.56	376.59
697.89	374.61
698.23	372.72
698.56	370.78
698.90	368.90
699.23	366.93
699.57	365.14
699.90	363.25
700.24	361.45
700.58	359.70
700.91	357.95
701.25	356.17
701.58	354.57
701.92	352.96
702.25	351.30
702.59	349.71
702.92	348.14
703.26	346.58
703.59	345.10
703.93	343.67
704.26	342.22
704.60	340.64
704.93	339.12
705.26	337.67
705.60	336.27
705.93	334.90
706.27	333.68
706.60	332.41
706.94	331.12
707.27	329.73
707.61	328.43
707.94	327.17
708.27	325.92
708.61	324.60
708.94	323.41
709.28	322.30
709.61	321.11
709.94	319.96
710.28	318.73
710.61	317.51
710.95	316.29
711.28	315.15
711.61	314.05
711.95	312.98
712.28	311.83
712.61	310.67
712.95	309.52
713.28	308.44
713.61	307.39
713.95	306.33
714.28	305.32
714.61	304.29
714.95	303.28
715.28	302.27
715.61	301.25
715.95	300.22
716.28	299.17
716.61	298.16
716.95	297.17
717.28	296.29
717.61	295.41
717.94	294.50
718.28	293.55
718.61	292.66
718.94	291.82
719.27	291.06
719.61	290.28
719.94	289.52
720.27	288.67
720.60	287.89
720.94	287.18
721.27	286.46
721.60	285.78
721.93	285.06
722.27	284.42
722.60	283.78
722.93	283.12
723.26	282.44
723.59	281.81
723.93	281.13
724.26	280.46
724.59	279.79
724.92	279.22
725.25	278.65
725.59	278.03
725.92	277.41
726.25	276.74
726.58	276.15
726.91	275.56
727.24	275.00
727.57	274.41
727.91	273.79
728.24	273.27
728.57	272.72
728.90	272.17
729.23	271.57
729.56	271.02
729.89	270.45
730.22	269.89
730.55	269.34
730.89	268.84
731.22	268.35
731.55	267.87
731.88	267.31
732.21	266.79
732.54	266.28
732.87	265.79
733.20	265.33
733.53	264.90
733.86	264.42
734.19	263.95
734.52	263.48
734.85	263.07
735.18	262.58
735.51	262.09
735.84	261.65
736.17	261.22
736.50	260.74
736.83	260.47
737.16	260.05
737.49	259.65
737.82	259.21
738.15	258.79
738.48	258.38
738.81	258.00
739.14	257.62
739.47	257.28
739.80	256.92
740.13	256.53
740.46	256.14
740.79	255.79
741.12	255.41
741.45	255.07
741.78	254.69
742.11	254.35
742.44	253.99
742.77	253.67
743.10	253.32
743.43	253.01
743.75	252.53
744.08	252.35
744.41	252.04
744.74	251.74
745.07	251.44
745.40	251.11
745.73	250.84
746.06	250.51
746.39	250.19
746.71	249.87
747.04	249.56
747.37	249.22
747.70	248.93
748.03	248.65
748.36	248.37
748.68	248.10
749.01	247.77
749.34	247.51
749.67	247.24
750.00	247.00
750.33	246.76
750.65	246.51
750.98	246.14
751.31	245.85
751.64	245.60
751.97	245.39
752.29	245.13
752.62	244.80
752.95	244.55
753.28	244.31
753.60	244.07
753.93	243.86
754.26	243.67
754.59	243.41
754.91	243.18
755.24	242.95
755.57	242.70
755.90	242.49
756.22	242.27
756.55	242.03
756.88	241.78
757.20	241.55
757.53	241.35
757.86	241.13
758.19	240.97
758.51	240.73
758.84	240.49
759.17	240.32
759.49	240.17
759.82	239.96
760.15	239.79
760.47	239.60
760.80	239.41
761.13	239.26
761.45	239.10
761.78	238.91
762.11	238.75
762.43	238.58
762.76	238.43
763.08	238.29
763.41	238.15
763.74	238.01
764.06	237.86
764.39	237.70
764.71	237.57
765.04	237.39
765.37	237.27
765.69	237.09
766.02	236.91
766.34	236.76
766.67	236.65
767.00	236.56
767.32	236.47
767.65	236.40
767.97	236.25
768.30	236.12
768.62	235.97
768.95	235.78
769.27	235.68
769.60	235.56
769.92	235.41
770.25	235.24
770.57	235.10
770.90	234.94
771.22	234.81
771.55	234.67
771.87	234.56
772.20	234.47
772.52	234.44
772.85	234.47
773.17	234.34
773.50	234.22
773.82	234.05
774.15	233.90
774.47	233.73
774.80	233.62
775.12	233.52
775.45	233.44
775.77	233.39
776.09	233.28
776.42	233.17
776.74	233.10
777.07	233.01
777.39	232.91
777.72	232.83
778.04	232.77
778.36	232.69
778.69	232.62
779.01	232.54
779.33	232.39
779.66	232.20
779.98	232.11
780.31	232.03
780.63	231.99
780.95	231.94
781.28	231.87
781.60	231.82
781.92	231.74
782.25	231.66
782.57	231.57
782.89	231.48
783.22	231.41
783.54	231.35
783.86	231.30
784.19	231.23
784.51	231.19
784.83	231.13
785.16	231.05
785.48	230.99
785.80	230.91
786.12	230.84
786.45	230.78
