SpectraSuite Data File
++++++++++++++++++++++++++++++++++++
Date: Fri Feb 01 16:25:25 EST 2013
User: group
Dark Spectrum Present: No
Reference Spectrum Present: No
Number of Sampled Component Spectra: 1
Spectrometers: USB2E7196
Integration Time (usec): 35000 (USB2E7196)
Spectra Averaged: 100 (USB2E7196)
Boxcar Smoothing: 10 (USB2E7196)
Correct for Electrical Dark: No (USB2E7196)
Strobe/Lamp Enabled: No (USB2E7196)
Correct for Detector Non-linearity: No (USB2E7196)
Correct for Stray Light: No (USB2E7196)
Number of Pixels in Processed Spectrum: 2048
>>>>>Begin Processed Spectral Data<<<<<
339.09	0.00
339.48	214.10
339.86	216.06
340.24	216.87
340.63	218.12
341.01	221.27
341.39	221.28
341.78	222.20
342.16	223.39
342.54	223.98
342.93	212.52
343.31	223.31
343.69	223.83
344.07	224.26
344.46	224.70
344.84	225.10
345.22	225.30
345.60	225.55
345.99	225.73
346.37	225.85
346.75	225.95
347.13	225.98
347.52	226.02
347.90	226.06
348.28	226.06
348.66	226.07
349.05	226.04
349.43	226.12
349.81	226.16
350.19	226.14
350.57	226.21
350.96	226.28
351.34	226.30
351.72	226.40
352.10	226.46
352.48	226.51
352.87	226.55
353.25	226.64
353.63	226.68
354.01	226.73
354.39	226.82
354.77	226.86
355.15	226.97
355.54	227.02
355.92	227.07
356.30	227.14
356.68	227.29
357.06	227.38
357.44	227.39
357.82	227.45
358.20	227.56
358.58	227.58
358.97	227.65
359.35	227.75
359.73	227.82
360.11	227.91
360.49	227.96
360.87	228.02
361.25	228.04
361.63	228.12
362.01	228.19
362.39	228.22
362.77	228.30
363.15	228.32
363.53	228.37
363.91	228.43
364.29	228.47
364.67	228.38
365.05	228.39
365.43	228.43
365.81	228.48
366.19	228.51
366.57	228.59
366.95	228.60
367.33	228.55
367.71	228.51
368.09	228.53
368.47	228.53
368.85	228.53
369.23	228.57
369.61	228.55
369.99	228.56
370.37	228.56
370.75	228.57
371.13	228.50
371.51	228.43
371.89	228.39
372.27	228.35
372.65	228.33
373.03	228.29
373.41	228.23
373.78	228.12
374.16	228.02
374.54	227.92
374.92	227.86
375.30	227.80
375.68	227.75
376.06	227.68
376.44	227.61
376.82	227.50
377.19	227.42
377.57	227.38
377.95	227.28
378.33	227.18
378.71	227.07
379.09	227.03
379.47	226.99
379.84	226.91
380.22	226.85
380.60	226.76
380.98	226.68
381.36	226.63
381.73	226.63
382.11	226.60
382.49	226.52
382.87	226.43
383.25	226.37
383.62	226.42
384.00	226.35
384.38	226.31
384.76	226.28
385.13	226.28
385.51	226.15
385.89	226.08
386.27	226.04
386.64	226.03
387.02	226.00
387.40	225.94
387.78	225.91
388.15	225.87
388.53	225.86
388.91	225.80
389.29	225.77
389.66	225.73
390.04	225.68
390.42	225.69
390.79	225.66
391.17	225.67
391.55	225.57
391.92	225.54
392.30	225.53
392.68	225.52
393.05	225.52
393.43	225.56
393.81	225.60
394.18	225.56
394.56	225.50
394.94	225.54
395.31	225.57
395.69	225.64
396.06	225.66
396.44	225.69
396.82	225.75
397.19	225.82
397.57	225.82
397.95	225.89
398.32	225.91
398.70	225.99
399.07	226.04
399.45	226.10
399.82	226.16
400.20	226.22
400.58	226.26
400.95	226.26
401.33	226.36
401.70	226.48
402.08	226.60
402.45	226.71
402.83	226.81
403.20	226.91
403.58	226.97
403.95	227.11
404.33	227.24
404.71	227.33
405.08	227.51
405.46	227.68
405.83	227.79
406.21	227.96
406.58	228.12
406.96	228.29
407.33	228.47
407.70	228.67
408.08	228.97
408.45	229.21
408.83	229.42
409.20	229.62
409.58	229.80
409.95	230.04
410.33	230.34
410.70	230.58
411.08	230.84
411.45	231.17
411.82	231.47
412.20	231.85
412.57	232.29
412.95	232.57
413.32	232.96
413.69	233.38
414.07	233.86
414.44	234.32
414.82	234.79
415.19	235.31
415.56	235.85
415.94	236.39
416.31	237.00
416.68	237.67
417.06	238.40
417.43	239.12
417.81	239.89
418.18	240.69
418.55	241.53
418.93	242.43
419.30	243.34
419.67	244.27
420.04	245.21
420.42	246.19
420.79	247.37
421.16	248.51
421.54	249.73
421.91	250.90
422.28	252.19
422.66	253.55
423.03	254.85
423.40	256.20
423.77	257.55
424.15	259.00
424.52	260.47
424.89	262.05
425.26	263.59
425.64	265.05
426.01	266.61
426.38	268.27
426.75	269.95
427.13	271.67
427.50	273.46
427.87	275.28
428.24	277.13
428.61	278.85
428.99	280.80
429.36	282.90
429.73	284.97
430.10	286.92
430.47	288.96
430.85	291.07
431.22	293.30
431.59	295.70
431.96	297.92
432.33	300.38
432.70	302.75
433.08	305.55
433.45	308.18
433.82	310.77
434.19	313.58
434.56	316.36
434.93	318.98
435.30	321.59
435.68	324.49
436.05	327.29
436.42	330.04
436.79	332.53
437.16	335.13
437.53	337.91
437.90	340.72
438.27	343.43
438.64	346.23
439.01	348.77
439.38	350.97
439.75	353.12
440.13	355.62
440.50	357.91
440.87	359.69
441.24	361.65
441.61	363.80
441.98	365.35
442.35	367.12
442.72	368.94
443.09	370.73
443.46	371.71
443.83	372.29
444.20	372.85
444.57	373.67
444.94	373.99
445.31	374.39
445.68	374.76
446.05	374.85
446.42	374.47
446.79	374.08
447.16	373.66
447.53	373.31
447.90	372.13
448.27	370.94
448.64	369.39
449.01	368.23
449.37	366.27
449.74	364.34
450.11	362.10
450.48	359.66
450.85	357.19
451.22	355.06
451.59	353.11
451.96	351.18
452.33	348.56
452.70	346.22
453.07	343.36
453.43	340.49
453.80	337.75
454.17	335.12
454.54	332.57
454.91	329.86
455.28	327.24
455.65	324.78
456.02	322.40
456.38	320.26
456.75	317.60
457.12	315.37
457.49	313.17
457.86	311.01
458.23	309.17
458.59	307.11
458.96	305.06
459.33	303.18
459.70	301.31
460.07	299.82
460.43	298.13
460.80	296.52
461.17	295.09
461.54	293.62
461.91	292.17
462.27	290.76
462.64	289.51
463.01	288.13
463.38	286.85
463.74	285.50
464.11	284.37
464.48	283.37
464.85	282.25
465.21	281.42
465.58	280.52
465.95	279.45
466.32	278.53
466.68	277.63
467.05	276.75
467.42	275.86
467.78	274.98
468.15	274.12
468.52	273.48
468.88	272.59
469.25	271.83
469.62	271.21
469.98	270.53
470.35	269.91
470.72	269.37
471.08	268.71
471.45	268.15
471.82	267.60
472.18	266.99
472.55	266.56
472.92	266.00
473.28	265.57
473.65	265.14
474.02	264.73
474.38	264.37
474.75	264.06
475.11	263.73
475.48	263.46
475.85	263.22
476.21	262.96
476.58	262.81
476.94	262.63
477.31	262.49
477.67	262.33
478.04	262.22
478.41	262.14
478.77	262.20
479.14	262.16
479.50	262.20
479.87	262.30
480.23	262.39
480.60	262.45
480.96	262.53
481.33	262.71
481.69	262.92
482.06	263.09
482.42	263.28
482.79	263.51
483.15	263.82
483.52	264.21
483.88	264.59
484.25	264.97
484.61	265.39
484.98	265.83
485.34	266.39
485.71	267.01
486.07	267.59
486.44	268.15
486.80	268.82
487.17	269.51
487.53	270.31
487.90	271.13
488.26	272.08
488.62	273.02
488.99	274.00
489.35	275.01
489.72	276.14
490.08	277.35
490.44	278.62
490.81	279.95
491.17	281.30
491.54	282.77
491.90	284.29
492.26	285.95
492.63	287.71
492.99	289.47
493.36	291.34
493.72	293.40
494.08	295.50
494.45	297.77
494.81	300.18
495.17	302.65
495.54	305.24
495.90	307.92
496.26	310.76
496.63	313.72
496.99	316.85
497.35	320.13
497.72	323.59
498.08	327.12
498.44	330.77
498.80	334.66
499.17	338.72
499.53	342.92
499.89	347.33
500.26	351.85
500.62	356.56
500.98	361.53
501.34	366.65
501.71	372.05
502.07	377.50
502.43	383.11
502.79	388.87
503.16	394.98
503.52	401.27
503.88	407.69
504.24	414.38
504.60	421.26
504.97	428.46
505.33	435.72
505.69	443.45
506.05	451.22
506.41	459.18
506.78	467.34
507.14	475.82
507.50	484.53
507.86	493.57
508.22	502.78
508.59	512.03
508.95	521.57
509.31	531.37
509.67	541.49
510.03	551.73
510.39	562.35
510.75	573.17
511.12	584.10
511.48	595.40
511.84	606.84
512.20	618.37
512.56	630.27
512.92	642.47
513.28	654.86
513.64	667.35
514.00	680.00
514.37	692.91
514.73	705.99
515.09	719.03
515.45	732.30
515.81	745.85
516.17	759.80
516.53	773.96
516.89	788.09
517.25	802.16
517.61	816.55
517.97	830.95
518.33	845.37
518.69	860.18
519.05	875.21
519.41	890.32
519.77	905.88
520.13	921.34
520.49	936.70
520.85	952.05
521.21	967.74
521.57	983.94
521.93	999.68
522.29	1015.96
522.65	1032.08
523.01	1048.20
523.37	1064.19
523.73	1080.27
524.09	1096.31
524.45	1112.49
524.81	1129.13
525.17	1145.90
525.53	1162.74
525.89	1179.56
526.25	1196.26
526.61	1212.50
526.97	1229.12
527.33	1245.47
527.68	1261.86
528.04	1278.13
528.40	1294.53
528.76	1311.54
529.12	1328.09
529.48	1344.82
529.84	1360.79
530.20	1377.40
530.56	1394.35
530.91	1411.70
531.27	1428.31
531.63	1444.64
531.99	1461.16
532.35	1476.98
532.71	1492.82
533.07	1508.96
533.42	1524.74
533.78	1540.71
534.14	1556.89
534.50	1572.16
534.86	1588.02
535.21	1603.28
535.57	1619.17
535.93	1634.58
536.29	1649.26
536.65	1664.05
537.00	1678.78
537.36	1693.93
537.72	1708.44
538.08	1722.81
538.44	1736.51
538.79	1750.40
539.15	1763.95
539.51	1777.63
539.87	1792.00
540.22	1805.69
540.58	1819.38
540.94	1832.55
541.29	1845.31
541.65	1857.94
542.01	1870.96
542.37	1883.09
542.72	1895.32
543.08	1907.01
543.44	1919.29
543.79	1930.51
544.15	1941.70
544.51	1953.23
544.87	1964.18
545.22	1974.84
545.58	1984.90
545.94	1994.49
546.29	2004.31
546.65	2014.22
547.01	2023.38
547.36	2031.94
547.72	2040.25
548.07	2048.01
548.43	2056.17
548.79	2064.11
549.14	2071.54
549.50	2078.84
549.86	2086.67
550.21	2093.97
550.57	2101.20
550.92	2107.84
551.28	2114.72
551.64	2121.59
551.99	2128.06
552.35	2134.16
552.70	2140.22
553.06	2146.11
553.41	2152.47
553.77	2158.41
554.13	2164.44
554.48	2170.68
554.84	2176.22
555.19	2181.49
555.55	2186.73
555.90	2191.12
556.26	2196.11
556.61	2200.98
556.97	2205.24
557.32	2209.27
557.68	2213.30
558.03	2217.66
558.39	2221.33
558.74	2226.04
559.10	2229.92
559.45	2233.51
559.81	2237.80
560.16	2241.67
560.52	2244.92
560.87	2248.29
561.23	2251.01
561.58	2254.05
561.94	2256.58
562.29	2258.93
562.64	2261.77
563.00	2264.35
563.35	2267.90
563.71	2271.01
564.06	2274.10
564.42	2277.16
564.77	2279.67
565.12	2282.06
565.48	2283.88
565.83	2285.78
566.19	2287.11
566.54	2288.04
566.89	2289.26
567.25	2289.66
567.60	2291.00
567.96	2293.02
568.31	2293.90
568.66	2295.17
569.02	2295.71
569.37	2296.03
569.72	2296.98
570.08	2297.03
570.43	2297.14
570.78	2296.66
571.14	2295.10
571.49	2293.81
571.84	2293.53
572.20	2292.46
572.55	2291.45
572.90	2289.95
573.26	2288.73
573.61	2287.12
573.96	2285.53
574.31	2282.62
574.67	2279.91
575.02	2276.35
575.37	2272.82
575.72	2269.18
576.08	2265.84
576.43	2262.54
576.78	2258.92
577.13	2255.89
577.49	2252.79
577.84	2249.32
578.19	2245.58
578.54	2242.15
578.90	2238.09
579.25	2232.63
579.60	2227.67
579.95	2222.71
580.30	2217.72
580.66	2212.52
581.01	2207.56
581.36	2202.60
581.71	2198.55
582.06	2194.11
582.42	2189.73
582.77	2184.57
583.12	2180.08
583.47	2175.33
583.82	2170.37
584.17	2165.17
584.53	2159.58
584.88	2154.19
585.23	2148.41
585.58	2143.04
585.93	2137.41
586.28	2132.61
586.63	2127.49
586.98	2122.46
587.34	2117.81
587.69	2113.01
588.04	2107.79
588.39	2102.13
588.74	2095.78
589.09	2089.68
589.44	2082.84
589.79	2076.86
590.14	2071.37
590.49	2064.83
590.84	2058.53
591.19	2052.47
591.54	2045.98
591.89	2038.63
592.25	2031.81
592.60	2024.59
592.95	2017.07
593.30	2009.78
593.65	2002.27
594.00	1995.29
594.35	1988.10
594.70	1980.11
595.05	1972.93
595.40	1965.78
595.75	1958.33
596.10	1952.16
596.45	1945.46
596.80	1939.53
597.15	1933.03
597.50	1925.83
597.85	1919.31
598.19	1912.62
598.54	1905.62
598.89	1899.12
599.24	1893.29
599.59	1886.59
599.94	1880.53
600.29	1874.21
600.64	1867.78
600.99	1860.43
601.34	1853.71
601.69	1846.78
602.04	1839.98
602.39	1832.61
602.74	1825.67
603.08	1818.94
603.43	1812.17
603.78	1804.85
604.13	1797.73
604.48	1790.53
604.83	1783.81
605.18	1776.91
605.53	1769.00
605.87	1760.97
606.22	1753.65
606.57	1745.82
606.92	1738.59
607.27	1731.35
607.62	1724.44
607.96	1717.16
608.31	1710.59
608.66	1702.94
609.01	1695.49
609.36	1687.93
609.70	1680.10
610.05	1672.14
610.40	1664.52
610.75	1656.27
611.10	1648.67
611.44	1640.17
611.79	1632.07
612.14	1623.35
612.49	1614.27
612.83	1605.87
613.18	1597.83
613.53	1589.75
613.88	1581.15
614.22	1572.87
614.57	1564.42
614.92	1556.48
615.27	1548.96
615.61	1540.48
615.96	1532.44
616.31	1524.76
616.65	1517.36
617.00	1509.77
617.35	1502.03
617.70	1493.76
618.04	1485.30
618.39	1477.06
618.74	1469.44
619.08	1461.13
619.43	1453.56
619.78	1446.68
620.12	1439.46
620.47	1431.86
620.82	1423.73
621.16	1416.33
621.51	1408.74
621.85	1400.93
622.20	1392.34
622.55	1383.90
622.89	1376.14
623.24	1368.53
623.59	1361.04
623.93	1353.43
624.28	1346.09
624.62	1338.65
624.97	1331.41
625.32	1324.55
625.66	1317.47
626.01	1310.28
626.35	1302.84
626.70	1295.05
627.04	1287.30
627.39	1279.52
627.73	1272.21
628.08	1265.19
628.43	1257.90
628.77	1250.46
629.12	1243.08
629.46	1235.94
629.81	1228.50
630.15	1221.26
630.50	1213.86
630.84	1205.70
631.19	1197.86
631.53	1190.31
631.88	1182.77
632.22	1175.16
632.57	1167.95
632.91	1160.40
633.26	1152.88
633.60	1145.47
633.95	1138.38
634.29	1131.36
634.64	1124.73
634.98	1117.29
635.32	1110.24
635.67	1103.60
636.01	1096.94
636.36	1090.04
636.70	1083.46
637.05	1076.88
637.39	1070.31
637.73	1063.70
638.08	1057.83
638.42	1051.85
638.77	1045.45
639.11	1038.88
639.45	1032.51
639.80	1025.78
640.14	1019.36
640.49	1012.94
640.83	1006.63
641.17	1000.30
641.52	993.89
641.86	987.35
642.20	981.59
642.55	975.23
642.89	968.75
643.23	962.21
643.58	956.49
643.92	950.28
644.26	944.27
644.61	938.29
644.95	932.34
645.29	925.72
645.64	918.96
645.98	912.60
646.32	906.72
646.66	900.68
647.01	894.89
647.35	889.14
647.69	883.28
648.04	877.77
648.38	872.00
648.72	866.01
649.06	860.07
649.41	854.05
649.75	848.17
650.09	842.27
650.43	836.55
650.78	830.41
651.12	824.57
651.46	818.83
651.80	813.10
652.14	807.68
652.49	802.36
652.83	797.17
653.17	791.53
653.51	785.82
653.85	780.39
654.20	774.72
654.54	768.77
654.88	763.00
655.22	757.07
655.56	751.42
655.90	745.97
656.25	740.73
656.59	735.42
656.93	730.28
657.27	725.08
657.61	719.53
657.95	714.39
658.29	709.26
658.64	704.04
658.98	698.72
659.32	693.26
659.66	688.08
660.00	682.79
660.34	677.79
660.68	672.88
661.02	667.87
661.36	663.14
661.70	658.63
662.05	654.31
662.39	650.06
662.73	645.58
663.07	641.21
663.41	636.75
663.75	632.25
664.09	627.70
664.43	623.33
664.77	619.26
665.11	614.94
665.45	610.78
665.79	606.64
666.13	602.52
666.47	598.46
666.81	594.24
667.15	590.08
667.49	586.21
667.83	582.34
668.17	578.40
668.51	574.38
668.85	570.36
669.19	566.50
669.53	562.57
669.87	558.71
670.21	555.01
670.55	551.35
670.89	547.93
671.23	544.45
671.57	540.90
671.91	537.35
672.25	533.88
672.58	530.35
672.92	526.99
673.26	523.78
673.60	520.62
673.94	517.51
674.28	514.61
674.62	511.62
674.96	508.49
675.30	505.57
675.64	502.57
675.97	499.77
676.31	496.87
676.65	493.95
676.99	491.18
677.33	488.30
677.67	485.50
678.01	482.49
678.34	479.54
678.68	476.64
679.02	473.83
679.36	471.09
679.70	468.34
680.04	465.57
680.37	462.71
680.71	459.89
681.05	457.29
681.39	454.55
681.73	451.90
682.06	449.40
682.40	446.83
682.74	444.32
683.08	441.75
683.42	439.19
683.75	436.72
684.09	434.22
684.43	431.73
684.77	429.25
685.10	426.86
685.44	424.59
685.78	422.34
686.12	420.11
686.45	417.81
686.79	415.58
687.13	413.37
687.46	411.24
687.80	409.11
688.14	406.88
688.48	404.83
688.81	402.60
689.15	400.45
689.49	398.35
689.82	396.28
690.16	394.20
690.50	392.21
690.83	390.27
691.17	388.29
691.51	386.36
691.84	384.52
692.18	382.58
692.52	380.52
692.85	378.57
693.19	376.65
693.52	374.81
693.86	372.96
694.20	371.18
694.53	369.40
694.87	367.56
695.21	365.77
695.54	363.95
695.88	362.19
696.21	360.46
696.55	358.75
696.88	357.06
697.22	355.38
697.56	353.77
697.89	352.10
698.23	350.52
698.56	348.94
698.90	347.36
699.23	345.76
699.57	344.28
699.90	342.75
700.24	341.24
700.58	339.72
700.91	338.20
701.25	336.79
701.58	335.42
701.92	334.03
702.25	332.61
702.59	331.26
702.92	329.97
703.26	328.66
703.59	327.35
703.93	326.19
704.26	324.98
704.60	323.69
704.93	322.44
705.26	321.15
705.60	319.96
705.93	318.77
706.27	317.68
706.60	316.59
706.94	315.52
707.27	314.35
707.61	313.31
707.94	312.25
708.27	311.10
708.61	309.97
708.94	308.96
709.28	307.99
709.61	307.04
709.94	306.07
710.28	305.07
710.61	304.09
710.95	302.97
711.28	302.05
711.61	301.10
711.95	300.17
712.28	299.24
712.61	298.24
712.95	297.34
713.28	296.42
713.61	295.54
713.95	294.61
714.28	293.80
714.61	292.88
714.95	292.10
715.28	291.26
715.61	290.38
715.95	289.54
716.28	288.68
716.61	287.89
716.95	287.05
717.28	286.31
717.61	285.54
717.94	284.81
718.28	284.00
718.61	283.30
718.94	282.60
719.27	281.93
719.61	281.32
719.94	280.64
720.27	279.97
720.60	279.31
720.94	278.69
721.27	278.07
721.60	277.51
721.93	276.88
722.27	276.34
722.60	275.79
722.93	275.20
723.26	274.65
723.59	274.09
723.93	273.58
724.26	272.99
724.59	272.45
724.92	271.89
725.25	271.40
725.59	270.87
725.92	270.34
726.25	269.84
726.58	269.31
726.91	268.83
727.24	268.37
727.57	267.85
727.91	267.36
728.24	266.93
728.57	266.40
728.90	265.91
729.23	265.42
729.56	265.03
729.89	264.56
730.22	264.09
730.55	263.60
730.89	263.14
731.22	262.72
731.55	262.30
731.88	261.88
732.21	261.46
732.54	261.04
732.87	260.62
733.20	260.21
733.53	259.82
733.86	259.40
734.19	258.97
734.52	258.61
734.85	258.29
735.18	257.85
735.51	257.56
735.84	257.22
736.17	256.94
736.50	256.51
736.83	256.30
737.16	256.00
737.49	255.66
737.82	255.32
738.15	254.97
738.48	254.62
738.81	254.31
739.14	253.97
739.47	253.65
739.80	253.34
740.13	253.05
740.46	252.73
740.79	252.44
741.12	252.15
741.45	251.83
741.78	251.50
742.11	251.24
742.44	250.91
742.77	250.60
743.10	250.24
743.43	249.95
743.75	249.57
744.08	249.40
744.41	249.10
744.74	248.84
745.07	248.59
745.40	248.32
745.73	248.09
746.06	247.82
746.39	247.57
746.71	247.30
747.04	247.03
747.37	246.78
747.70	246.51
748.03	246.28
748.36	246.04
748.68	245.78
749.01	245.50
749.34	245.27
749.67	245.05
750.00	244.82
750.33	244.67
750.65	244.40
750.98	244.05
751.31	243.89
751.64	243.67
751.97	243.49
752.29	243.30
752.62	243.04
752.95	242.83
753.28	242.60
753.60	242.40
753.93	242.21
754.26	242.01
754.59	241.83
754.91	241.59
755.24	241.42
755.57	241.24
755.90	241.08
756.22	240.90
756.55	240.69
756.88	240.53
757.20	240.31
757.53	240.15
757.86	239.98
758.19	239.81
758.51	239.61
758.84	239.40
759.17	239.21
759.49	239.06
759.82	238.94
760.15	238.79
760.47	238.68
760.80	238.52
761.13	238.40
761.45	238.20
761.78	238.04
762.11	237.88
762.43	237.72
762.76	237.55
763.08	237.40
763.41	237.27
763.74	237.12
764.06	236.96
764.39	236.81
764.71	236.67
765.04	236.50
765.37	236.40
765.69	236.26
766.02	236.15
766.34	236.01
766.67	235.87
767.00	235.76
767.32	235.63
767.65	235.56
767.97	235.41
768.30	235.30
768.62	235.21
768.95	235.10
769.27	235.01
769.60	234.91
769.92	234.81
770.25	234.66
770.57	234.53
770.90	234.40
771.22	234.30
771.55	234.20
771.87	234.11
772.20	233.98
772.52	233.99
772.85	234.00
773.17	233.91
773.50	233.81
773.82	233.70
774.15	233.58
774.47	233.43
774.80	233.35
775.12	233.28
775.45	233.19
775.77	233.11
776.09	233.04
776.42	232.94
776.74	232.86
777.07	232.80
777.39	232.76
777.72	232.68
778.04	232.61
778.36	232.57
778.69	232.51
779.01	232.45
779.33	232.29
779.66	232.12
779.98	232.03
780.31	231.98
780.63	231.96
780.95	231.93
781.28	231.87
781.60	231.80
781.92	231.75
782.25	231.71
782.57	231.65
782.89	231.58
783.22	231.52
783.54	231.48
783.86	231.44
784.19	231.34
784.51	231.32
784.83	231.26
785.16	231.16
785.48	231.11
785.80	231.10
786.12	231.05
786.45	231.04
786.77	231.05
787.09	230.97
