SpectraSuite Data File
++++++++++++++++++++++++++++++++++++
Date: Fri Feb 01 15:30:11 EST 2013
User: group
Dark Spectrum Present: No
Reference Spectrum Present: No
Number of Sampled Component Spectra: 1
Spectrometers: USB2E7196
Integration Time (usec): 35000 (USB2E7196)
Spectra Averaged: 100 (USB2E7196)
Boxcar Smoothing: 10 (USB2E7196)
Correct for Electrical Dark: No (USB2E7196)
Strobe/Lamp Enabled: No (USB2E7196)
Correct for Detector Non-linearity: No (USB2E7196)
Correct for Stray Light: No (USB2E7196)
Number of Pixels in Processed Spectrum: 2048
>>>>>Begin Processed Spectral Data<<<<<
339.09	0.00
339.48	215.47
339.86	217.01
340.24	218.23
340.63	219.28
341.01	222.28
341.39	222.27
341.78	223.34
342.16	224.77
342.54	225.32
342.93	213.68
343.31	224.47
343.69	224.99
344.07	225.45
344.46	225.89
344.84	226.31
345.22	226.56
345.60	226.84
345.99	227.04
346.37	227.18
346.75	227.28
347.13	227.34
347.52	227.40
347.90	227.47
348.28	227.50
348.66	227.55
349.05	227.56
349.43	227.57
349.81	227.63
350.19	227.68
350.57	227.74
350.96	227.85
351.34	227.91
351.72	227.99
352.10	228.07
352.48	228.11
352.87	228.15
353.25	228.19
353.63	228.25
354.01	228.30
354.39	228.35
354.77	228.42
355.15	228.49
355.54	228.53
355.92	228.56
356.30	228.66
356.68	228.78
357.06	228.83
357.44	228.89
357.82	228.92
358.20	229.01
358.58	229.04
358.97	229.07
359.35	229.17
359.73	229.23
360.11	229.29
360.49	229.35
360.87	229.36
361.25	229.43
361.63	229.48
362.01	229.51
362.39	229.55
362.77	229.57
363.15	229.62
363.53	229.65
363.91	229.67
364.29	229.65
364.67	229.59
365.05	229.62
365.43	229.64
365.81	229.65
366.19	229.67
366.57	229.72
366.95	229.69
367.33	229.63
367.71	229.64
368.09	229.62
368.47	229.60
368.85	229.60
369.23	229.58
369.61	229.49
369.99	229.47
370.37	229.44
370.75	229.47
371.13	229.39
371.51	229.31
371.89	229.28
372.27	229.25
372.65	229.19
373.03	229.13
373.41	229.05
373.78	228.97
374.16	228.89
374.54	228.81
374.92	228.74
375.30	228.73
375.68	228.62
376.06	228.58
376.44	228.49
376.82	228.42
377.19	228.34
377.57	228.27
377.95	228.22
378.33	228.14
378.71	228.01
379.09	227.97
379.47	227.90
379.84	227.79
380.22	227.71
380.60	227.64
380.98	227.56
381.36	227.48
381.73	227.43
382.11	227.34
382.49	227.25
382.87	227.18
383.25	227.08
383.62	227.15
384.00	227.07
384.38	227.01
384.76	226.98
385.13	226.97
385.51	226.91
385.89	226.83
386.27	226.77
386.64	226.71
387.02	226.62
387.40	226.57
387.78	226.52
388.15	226.49
388.53	226.46
388.91	226.42
389.29	226.37
389.66	226.34
390.04	226.30
390.42	226.28
390.79	226.25
391.17	226.23
391.55	226.10
391.92	226.08
392.30	226.10
392.68	226.06
393.05	226.04
393.43	226.05
393.81	226.10
394.18	226.09
394.56	226.12
394.94	226.19
395.31	226.23
395.69	226.32
396.06	226.37
396.44	226.41
396.82	226.45
397.19	226.56
397.57	226.59
397.95	226.67
398.32	226.73
398.70	226.82
399.07	226.90
399.45	226.98
399.82	227.05
400.20	227.14
400.58	227.22
400.95	227.25
401.33	227.35
401.70	227.51
402.08	227.62
402.45	227.72
402.83	227.81
403.20	227.92
403.58	228.02
403.95	228.14
404.33	228.27
404.71	228.38
405.08	228.58
405.46	228.75
405.83	228.92
406.21	229.04
406.58	229.19
406.96	229.38
407.33	229.56
407.70	229.75
408.08	229.98
408.45	230.23
408.83	230.51
409.20	230.75
409.58	230.90
409.95	231.19
410.33	231.46
410.70	231.73
411.08	232.03
411.45	232.32
411.82	232.63
412.20	232.97
412.57	233.43
412.95	233.69
413.32	234.13
413.69	234.56
414.07	235.05
414.44	235.55
414.82	236.01
415.19	236.57
415.56	237.14
415.94	237.70
416.31	238.34
416.68	238.98
417.06	239.67
417.43	240.34
417.81	241.09
418.18	241.93
418.55	242.76
418.93	243.61
419.30	244.52
419.67	245.50
420.04	246.47
420.42	247.44
420.79	248.66
421.16	249.80
421.54	250.95
421.91	252.13
422.28	253.39
422.66	254.72
423.03	256.00
423.40	257.38
423.77	258.82
424.15	260.22
424.52	261.71
424.89	263.32
425.26	264.91
425.64	266.35
426.01	267.92
426.38	269.60
426.75	271.30
427.13	273.05
427.50	274.82
427.87	276.72
428.24	278.62
428.61	280.36
428.99	282.28
429.36	284.40
429.73	286.48
430.10	288.47
430.47	290.54
430.85	292.67
431.22	294.87
431.59	297.23
431.96	299.51
432.33	302.00
432.70	304.32
433.08	307.09
433.45	309.76
433.82	312.34
434.19	315.22
434.56	318.03
434.93	320.62
435.30	323.22
435.68	326.09
436.05	328.88
436.42	331.68
436.79	334.20
437.16	336.94
437.53	339.77
437.90	342.65
438.27	345.37
438.64	348.20
439.01	350.78
439.38	353.04
439.75	355.21
440.13	357.66
440.50	360.07
440.87	361.96
441.24	363.90
441.61	366.06
441.98	367.55
442.35	369.32
442.72	371.16
443.09	372.99
443.46	373.99
443.83	374.58
444.20	375.10
444.57	375.93
444.94	376.13
445.31	376.46
445.68	376.75
446.05	376.82
446.42	376.41
446.79	375.98
447.16	375.46
447.53	375.11
447.90	373.96
448.27	372.77
448.64	371.15
449.01	370.02
449.37	368.06
449.74	366.18
450.11	363.97
450.48	361.52
450.85	358.96
451.22	356.83
451.59	354.82
451.96	352.87
452.33	350.30
452.70	347.96
453.07	345.15
453.43	342.23
453.80	339.46
454.17	336.81
454.54	334.32
454.91	331.61
455.28	328.93
455.65	326.44
456.02	324.01
456.38	321.89
456.75	319.22
457.12	316.98
457.49	314.74
457.86	312.55
458.23	310.72
458.59	308.69
458.96	306.58
459.33	304.73
459.70	302.87
460.07	301.32
460.43	299.61
460.80	297.96
461.17	296.55
461.54	295.09
461.91	293.68
462.27	292.20
462.64	291.01
463.01	289.66
463.38	288.37
463.74	287.01
464.11	285.86
464.48	284.85
464.85	283.72
465.21	282.85
465.58	281.97
465.95	280.90
466.32	280.00
466.68	279.10
467.05	278.18
467.42	277.28
467.78	276.36
468.15	275.50
468.52	274.87
468.88	273.99
469.25	273.22
469.62	272.57
469.98	271.86
470.35	271.22
470.72	270.60
471.08	269.96
471.45	269.44
471.82	268.87
472.18	268.23
472.55	267.78
472.92	267.27
473.28	266.78
473.65	266.33
474.02	265.88
474.38	265.53
474.75	265.20
475.11	264.84
475.48	264.55
475.85	264.29
476.21	264.06
476.58	263.89
476.94	263.75
477.31	263.56
477.67	263.44
478.04	263.27
478.41	263.20
478.77	263.18
479.14	263.09
479.50	263.09
479.87	263.16
480.23	263.26
480.60	263.30
480.96	263.37
481.33	263.55
481.69	263.75
482.06	263.92
482.42	264.09
482.79	264.35
483.15	264.68
483.52	265.09
483.88	265.39
484.25	265.77
484.61	266.14
484.98	266.59
485.34	267.16
485.71	267.76
486.07	268.39
486.44	268.97
486.80	269.64
487.17	270.34
487.53	271.18
487.90	272.00
488.26	272.92
488.62	273.89
488.99	274.85
489.35	275.89
489.72	276.98
490.08	278.19
490.44	279.41
490.81	280.70
491.17	282.03
491.54	283.53
491.90	285.05
492.26	286.72
492.63	288.46
492.99	290.24
493.36	292.12
493.72	294.16
494.08	296.27
494.45	298.54
494.81	300.92
495.17	303.32
495.54	305.92
495.90	308.61
496.26	311.43
496.63	314.39
496.99	317.48
497.35	320.76
497.72	324.18
498.08	327.72
498.44	331.45
498.80	335.34
499.17	339.38
499.53	343.54
499.89	347.88
500.26	352.39
500.62	357.01
500.98	362.02
501.34	367.11
501.71	372.46
502.07	377.91
502.43	383.56
502.79	389.39
503.16	395.42
503.52	401.69
503.88	408.05
504.24	414.72
504.60	421.60
504.97	428.77
505.33	436.08
505.69	443.76
506.05	451.52
506.41	459.39
506.78	467.61
507.14	476.02
507.50	484.80
507.86	493.85
508.22	503.08
508.59	512.30
508.95	521.87
509.31	531.69
509.67	541.78
510.03	552.06
510.39	562.64
510.75	573.49
511.12	584.46
511.48	595.81
511.84	607.25
512.20	618.85
512.56	630.78
512.92	642.90
513.28	655.23
513.64	667.78
514.00	680.55
514.37	693.43
514.73	706.57
515.09	719.58
515.45	732.86
515.81	746.50
516.17	760.51
516.53	774.66
516.89	788.84
517.25	803.04
517.61	817.50
517.97	832.02
518.33	846.49
518.69	861.35
519.05	876.42
519.41	891.64
519.77	907.19
520.13	922.78
520.49	938.30
520.85	953.78
521.21	969.54
521.57	985.83
521.93	1001.74
522.29	1018.21
522.65	1034.41
523.01	1050.67
523.37	1066.74
523.73	1082.87
524.09	1099.00
524.45	1115.44
524.81	1132.07
525.17	1148.94
525.53	1165.79
525.89	1182.71
526.25	1199.56
526.61	1215.94
526.97	1232.74
527.33	1249.31
527.68	1265.91
528.04	1282.45
528.40	1299.15
528.76	1316.25
529.12	1332.85
529.48	1349.74
529.84	1365.79
530.20	1382.50
530.56	1399.59
530.91	1417.02
531.27	1433.89
531.63	1450.41
531.99	1466.99
532.35	1483.08
532.71	1498.98
533.07	1515.32
533.42	1531.19
533.78	1547.21
534.14	1563.59
534.50	1578.93
534.86	1594.80
535.21	1609.97
535.57	1625.97
535.93	1641.42
536.29	1656.16
536.65	1671.41
537.00	1686.24
537.36	1701.62
537.72	1716.25
538.08	1730.80
538.44	1744.77
538.79	1758.81
539.15	1772.60
539.51	1786.47
539.87	1800.94
540.22	1814.76
540.58	1828.74
540.94	1842.26
541.29	1855.33
541.65	1868.00
542.01	1881.35
542.37	1893.87
542.72	1906.36
543.08	1918.07
543.44	1930.66
543.79	1942.00
544.15	1953.03
544.51	1964.64
544.87	1975.67
545.22	1986.67
545.58	1996.91
545.94	2006.62
546.29	2016.54
546.65	2026.33
547.01	2035.51
547.36	2044.21
547.72	2052.69
548.07	2060.47
548.43	2068.66
548.79	2076.71
549.14	2084.57
549.50	2092.05
549.86	2099.79
550.21	2107.06
550.57	2114.34
550.92	2120.89
551.28	2128.03
551.64	2135.06
551.99	2141.60
552.35	2147.73
552.70	2153.75
553.06	2159.70
553.41	2166.16
553.77	2172.07
554.13	2178.29
554.48	2184.49
554.84	2189.83
555.19	2195.20
555.55	2200.21
555.90	2204.72
556.26	2209.49
556.61	2213.97
556.97	2218.11
557.32	2222.15
557.68	2226.32
558.03	2230.72
558.39	2234.49
558.74	2239.06
559.10	2242.92
559.45	2246.60
559.81	2250.97
560.16	2254.88
560.52	2258.19
560.87	2261.64
561.23	2264.33
561.58	2267.18
561.94	2269.66
562.29	2272.24
562.64	2274.81
563.00	2277.56
563.35	2281.07
563.71	2284.35
564.06	2287.56
564.42	2290.28
564.77	2292.76
565.12	2295.00
565.48	2296.67
565.83	2298.30
566.19	2299.59
566.54	2300.52
566.89	2301.71
567.25	2302.25
567.60	2303.61
567.96	2305.18
568.31	2305.78
568.66	2306.77
569.02	2307.44
569.37	2307.88
569.72	2308.54
570.08	2308.68
570.43	2308.57
570.78	2307.76
571.14	2305.99
571.49	2304.63
571.84	2304.46
572.20	2303.13
572.55	2302.04
572.90	2300.61
573.26	2299.31
573.61	2297.61
573.96	2295.71
574.31	2292.57
574.67	2289.45
575.02	2285.68
575.37	2282.30
575.72	2278.45
576.08	2275.22
576.43	2271.75
576.78	2267.76
577.13	2264.65
577.49	2261.60
577.84	2258.17
578.19	2254.39
578.54	2250.67
578.90	2246.35
579.25	2240.66
579.60	2235.78
579.95	2230.86
580.30	2225.83
580.66	2220.54
581.01	2215.53
581.36	2210.47
581.71	2206.26
582.06	2201.63
582.42	2197.19
582.77	2191.69
583.12	2187.09
583.47	2182.21
583.82	2177.06
584.17	2171.68
584.53	2166.07
584.88	2160.29
585.23	2154.41
585.58	2148.95
585.93	2143.39
586.28	2138.62
586.63	2133.53
586.98	2128.36
587.34	2123.56
587.69	2118.50
588.04	2113.20
588.39	2107.43
588.74	2100.98
589.09	2094.69
589.44	2088.04
589.79	2081.92
590.14	2076.41
590.49	2069.87
590.84	2063.48
591.19	2057.35
591.54	2050.96
591.89	2043.46
592.25	2036.45
592.60	2029.23
592.95	2021.62
593.30	2014.44
593.65	2006.65
594.00	1999.49
594.35	1992.30
594.70	1984.08
595.05	1976.89
595.40	1969.61
595.75	1962.07
596.10	1955.72
596.45	1948.85
596.80	1942.58
597.15	1935.81
597.50	1928.54
597.85	1922.05
598.19	1915.27
598.54	1908.17
598.89	1901.57
599.24	1895.62
599.59	1888.96
599.94	1882.70
600.29	1876.23
600.64	1869.57
600.99	1862.09
601.34	1855.18
601.69	1848.00
602.04	1841.14
602.39	1833.60
602.74	1826.68
603.08	1819.95
603.43	1813.28
603.78	1806.00
604.13	1798.64
604.48	1791.33
604.83	1784.59
605.18	1777.56
605.53	1769.48
605.87	1761.36
606.22	1754.18
606.57	1746.26
606.92	1738.92
607.27	1731.58
607.62	1724.72
607.96	1717.42
608.31	1710.84
608.66	1703.20
609.01	1695.64
609.36	1688.07
609.70	1680.03
610.05	1671.84
610.40	1664.12
610.75	1655.79
611.10	1648.19
611.44	1639.89
611.79	1631.86
612.14	1623.05
612.49	1613.92
612.83	1605.57
613.18	1597.52
613.53	1589.40
613.88	1580.85
614.22	1572.44
614.57	1563.91
614.92	1555.83
615.27	1548.20
615.61	1539.81
615.96	1531.79
616.31	1524.22
616.65	1516.80
617.00	1509.27
617.35	1501.56
617.70	1493.07
618.04	1484.44
618.39	1476.15
618.74	1468.62
619.08	1460.34
619.43	1452.80
619.78	1445.74
620.12	1438.58
620.47	1431.04
620.82	1422.72
621.16	1415.27
621.51	1407.76
621.85	1400.15
622.20	1391.53
622.55	1383.17
622.89	1375.35
623.24	1367.83
623.59	1360.37
623.93	1352.84
624.28	1345.64
624.62	1338.24
624.97	1331.17
625.32	1324.53
625.66	1317.48
626.01	1310.09
626.35	1302.57
626.70	1294.76
627.04	1287.03
627.39	1279.26
627.73	1271.80
628.08	1264.92
628.43	1257.66
628.77	1250.28
629.12	1242.70
629.46	1235.61
629.81	1228.21
630.15	1220.97
630.50	1213.49
630.84	1205.29
631.19	1197.38
631.53	1189.87
631.88	1182.31
632.22	1174.65
632.57	1167.41
632.91	1159.91
633.26	1152.56
633.60	1145.26
633.95	1138.27
634.29	1131.37
634.64	1124.71
634.98	1117.36
635.32	1110.15
635.67	1103.55
636.01	1097.01
636.36	1090.29
636.70	1083.74
637.05	1077.13
637.39	1070.65
637.73	1064.11
638.08	1058.31
638.42	1052.38
638.77	1045.88
639.11	1039.30
639.45	1032.99
639.80	1026.24
640.14	1019.75
640.49	1013.26
640.83	1007.07
641.17	1000.78
641.52	994.43
641.86	988.11
642.20	982.26
642.55	976.07
642.89	969.62
643.23	963.04
643.58	957.15
643.92	950.98
644.26	944.92
644.61	938.92
644.95	932.87
645.29	926.18
645.64	919.46
645.98	913.12
646.32	907.30
646.66	901.21
647.01	895.40
647.35	889.72
647.69	883.88
648.04	878.21
648.38	872.33
648.72	866.27
649.06	860.11
649.41	854.24
649.75	848.16
650.09	842.20
650.43	836.35
650.78	830.22
651.12	824.19
651.46	818.44
651.80	812.68
652.14	807.31
652.49	801.98
652.83	796.69
653.17	791.07
653.51	785.29
653.85	779.92
654.20	774.24
654.54	768.23
654.88	762.54
655.22	756.66
655.56	751.05
655.90	745.56
656.25	740.25
656.59	734.94
656.93	729.91
657.27	724.69
657.61	719.25
657.95	714.14
658.29	709.11
658.64	703.89
658.98	698.64
659.32	693.19
659.66	688.01
660.00	682.72
660.34	677.69
660.68	672.78
661.02	667.70
661.36	662.99
661.70	658.49
662.05	654.07
662.39	649.66
662.73	645.15
663.07	640.81
663.41	636.33
663.75	631.83
664.09	627.25
664.43	622.85
664.77	618.79
665.11	614.54
665.45	610.45
665.79	606.36
666.13	602.17
666.47	598.04
666.81	593.82
667.15	589.73
667.49	585.88
667.83	582.06
668.17	578.18
668.51	574.10
668.85	570.07
669.19	566.27
669.53	562.47
669.87	558.62
670.21	554.93
670.55	551.26
670.89	547.80
671.23	544.40
671.57	540.93
671.91	537.38
672.25	533.98
672.58	530.49
672.92	527.15
673.26	524.03
673.60	520.87
673.94	517.77
674.28	514.87
674.62	511.92
674.96	508.83
675.30	505.90
675.64	503.01
675.97	500.31
676.31	497.42
676.65	494.49
676.99	491.82
677.33	488.93
677.67	486.16
678.01	483.13
678.34	480.10
678.68	477.25
679.02	474.42
679.36	471.58
679.70	468.80
680.04	465.97
680.37	463.07
680.71	460.38
681.05	457.80
681.39	455.10
681.73	452.44
682.06	449.94
682.40	447.41
682.74	444.85
683.08	442.30
683.42	439.71
683.75	437.21
684.09	434.65
684.43	432.13
684.77	429.69
685.10	427.36
685.44	425.10
685.78	422.78
686.12	420.53
686.45	418.27
686.79	415.97
687.13	413.79
687.46	411.63
687.80	409.41
688.14	407.15
688.48	405.08
688.81	402.85
689.15	400.66
689.49	398.51
689.82	396.46
690.16	394.36
690.50	392.41
690.83	390.48
691.17	388.50
691.51	386.66
691.84	384.81
692.18	382.87
692.52	380.89
692.85	378.97
693.19	377.11
693.52	375.29
693.86	373.50
694.20	371.70
694.53	369.88
694.87	368.02
695.21	366.21
695.54	364.36
695.88	362.64
696.21	360.89
696.55	359.20
696.88	357.53
697.22	355.89
697.56	354.26
697.89	352.61
698.23	351.01
698.56	349.39
698.90	347.79
699.23	346.17
699.57	344.61
699.90	343.07
700.24	341.50
700.58	339.95
700.91	338.46
701.25	337.03
701.58	335.66
701.92	334.30
702.25	332.97
702.59	331.62
702.92	330.30
703.26	329.02
703.59	327.72
703.93	326.57
704.26	325.32
704.60	324.02
704.93	322.76
705.26	321.49
705.60	320.32
705.93	319.16
706.27	318.14
706.60	317.09
706.94	316.02
707.27	314.89
707.61	313.83
707.94	312.82
708.27	311.74
708.61	310.69
708.94	309.68
709.28	308.71
709.61	307.76
709.94	306.78
710.28	305.76
710.61	304.78
710.95	303.67
711.28	302.75
711.61	301.83
711.95	300.89
712.28	300.00
712.61	299.00
712.95	298.06
713.28	297.15
713.61	296.25
713.95	295.36
714.28	294.55
714.61	293.75
714.95	292.90
715.28	292.05
715.61	291.15
715.95	290.34
716.28	289.48
716.61	288.63
716.95	287.82
717.28	287.11
717.61	286.35
717.94	285.62
718.28	284.82
718.61	284.08
718.94	283.40
719.27	282.72
719.61	282.07
719.94	281.43
720.27	280.78
720.60	280.14
720.94	279.54
721.27	278.95
721.60	278.31
721.93	277.71
722.27	277.17
722.60	276.67
722.93	276.08
723.26	275.55
723.59	275.05
723.93	274.55
724.26	274.03
724.59	273.50
724.92	272.97
725.25	272.46
725.59	271.96
725.92	271.46
726.25	270.97
726.58	270.52
726.91	270.01
727.24	269.51
727.57	269.06
727.91	268.52
728.24	268.08
728.57	267.62
728.90	267.19
729.23	266.68
729.56	266.28
729.89	265.82
730.22	265.35
730.55	264.86
730.89	264.39
731.22	263.89
731.55	263.47
731.88	263.03
732.21	262.60
732.54	262.14
732.87	261.67
733.20	261.27
733.53	260.89
733.86	260.51
734.19	260.11
734.52	259.70
734.85	259.43
735.18	258.98
735.51	258.63
735.84	258.25
736.17	257.89
736.50	257.46
736.83	257.21
737.16	256.84
737.49	256.52
737.82	256.18
738.15	255.87
738.48	255.52
738.81	255.20
739.14	254.89
739.47	254.59
739.80	254.33
740.13	254.00
740.46	253.65
740.79	253.32
741.12	253.02
741.45	252.71
741.78	252.35
742.11	252.05
742.44	251.70
742.77	251.42
743.10	251.11
743.43	250.80
743.75	250.45
744.08	250.33
744.41	250.04
744.74	249.77
745.07	249.48
745.40	249.22
745.73	249.01
746.06	248.74
746.39	248.49
746.71	248.22
747.04	247.96
747.37	247.68
747.70	247.41
748.03	247.17
748.36	246.99
748.68	246.72
749.01	246.47
749.34	246.24
749.67	246.02
750.00	245.81
750.33	245.67
750.65	245.43
750.98	245.07
751.31	244.84
751.64	244.63
751.97	244.44
752.29	244.26
752.62	243.97
752.95	243.75
753.28	243.55
753.60	243.38
753.93	243.21
754.26	243.02
754.59	242.80
754.91	242.59
755.24	242.37
755.57	242.19
755.90	242.00
756.22	241.81
756.55	241.56
756.88	241.39
757.20	241.12
757.53	240.92
757.86	240.77
758.19	240.63
758.51	240.49
758.84	240.31
759.17	240.10
759.49	239.99
759.82	239.89
760.15	239.73
760.47	239.56
760.80	239.37
761.13	239.26
761.45	239.13
761.78	239.01
762.11	238.87
762.43	238.73
762.76	238.60
763.08	238.52
763.41	238.43
763.74	238.29
764.06	238.16
764.39	238.05
764.71	237.90
765.04	237.75
765.37	237.63
765.69	237.50
766.02	237.38
766.34	237.21
766.67	237.05
767.00	236.96
767.32	236.86
767.65	236.79
767.97	236.69
768.30	236.56
768.62	236.43
768.95	236.29
769.27	236.19
769.60	236.10
769.92	235.95
770.25	235.85
770.57	235.72
770.90	235.66
771.22	235.53
771.55	235.43
771.87	235.35
772.20	235.23
772.52	235.21
772.85	235.23
773.17	235.16
773.50	235.06
773.82	234.95
774.15	234.84
774.47	234.69
774.80	234.59
775.12	234.55
775.45	234.46
775.77	234.37
776.09	234.32
776.42	234.24
776.74	234.17
777.07	234.08
777.39	234.01
777.72	233.92
778.04	233.86
778.36	233.78
778.69	233.73
779.01	233.68
779.33	233.52
779.66	233.37
779.98	233.27
780.31	233.21
780.63	233.18
780.95	233.08
781.28	233.02
781.60	232.91
781.92	232.81
782.25	232.73
782.57	232.66
782.89	232.55
783.22	232.49
783.54	232.43
783.86	232.39
784.19	232.33
784.51	232.30
784.83	232.21
785.16	232.12
785.48	232.06
785.80	231.99
786.12	231.95
786.45	231.91
786.77	231.88
787.09	231.83
