SpectraSuite Data File
++++++++++++++++++++++++++++++++++++
Date: Fri Feb 01 17:47:34 EST 2013
User: group
Dark Spectrum Present: No
Reference Spectrum Present: No
Number of Sampled Component Spectra: 1
Spectrometers: USB2E7196
Integration Time (usec): 35000 (USB2E7196)
Spectra Averaged: 100 (USB2E7196)
Boxcar Smoothing: 10 (USB2E7196)
Correct for Electrical Dark: No (USB2E7196)
Strobe/Lamp Enabled: No (USB2E7196)
Correct for Detector Non-linearity: No (USB2E7196)
Correct for Stray Light: No (USB2E7196)
Number of Pixels in Processed Spectrum: 2048
>>>>>Begin Processed Spectral Data<<<<<
339.09	0.00
339.48	213.19
339.86	214.63
340.24	215.54
340.63	217.22
341.01	220.11
341.39	220.07
341.78	220.88
342.16	222.55
342.54	222.70
342.93	211.24
343.31	221.92
343.69	222.43
344.07	222.88
344.46	223.28
344.84	223.63
345.22	223.84
345.60	224.08
345.99	224.29
346.37	224.40
346.75	224.48
347.13	224.54
347.52	224.57
347.90	224.64
348.28	224.72
348.66	224.78
349.05	224.75
349.43	224.79
349.81	224.83
350.19	224.85
350.57	224.89
350.96	224.95
351.34	225.02
351.72	225.14
352.10	225.23
352.48	225.32
352.87	225.42
353.25	225.48
353.63	225.53
354.01	225.56
354.39	225.65
354.77	225.74
355.15	225.90
355.54	225.96
355.92	226.03
356.30	226.09
356.68	226.22
357.06	226.31
357.44	226.36
357.82	226.44
358.20	226.54
358.58	226.63
358.97	226.70
359.35	226.80
359.73	226.87
360.11	226.91
360.49	226.99
360.87	227.02
361.25	227.13
361.63	227.23
362.01	227.29
362.39	227.30
362.77	227.35
363.15	227.33
363.53	227.40
363.91	227.40
364.29	227.41
364.67	227.34
365.05	227.37
365.43	227.41
365.81	227.45
366.19	227.48
366.57	227.53
366.95	227.55
367.33	227.48
367.71	227.46
368.09	227.47
368.47	227.44
368.85	227.43
369.23	227.40
369.61	227.31
369.99	227.33
370.37	227.34
370.75	227.35
371.13	227.32
371.51	227.28
371.89	227.27
372.27	227.26
372.65	227.21
373.03	227.16
373.41	227.09
373.78	227.01
374.16	226.89
374.54	226.79
374.92	226.70
375.30	226.67
375.68	226.61
376.06	226.56
376.44	226.49
376.82	226.43
377.19	226.37
377.57	226.35
377.95	226.24
378.33	226.15
378.71	226.04
379.09	225.98
379.47	225.88
379.84	225.81
380.22	225.73
380.60	225.67
380.98	225.62
381.36	225.57
381.73	225.52
382.11	225.53
382.49	225.46
382.87	225.41
383.25	225.35
383.62	225.40
384.00	225.32
384.38	225.28
384.76	225.24
385.13	225.24
385.51	225.16
385.89	225.12
386.27	225.11
386.64	225.10
387.02	225.04
387.40	224.98
387.78	224.94
388.15	224.91
388.53	224.87
388.91	224.83
389.29	224.81
389.66	224.80
390.04	224.74
390.42	224.78
390.79	224.77
391.17	224.76
391.55	224.59
391.92	224.57
392.30	224.56
392.68	224.55
393.05	224.50
393.43	224.51
393.81	224.51
394.18	224.49
394.56	224.49
394.94	224.51
395.31	224.55
395.69	224.59
396.06	224.62
396.44	224.65
396.82	224.66
397.19	224.73
397.57	224.76
397.95	224.81
398.32	224.80
398.70	224.83
399.07	224.87
399.45	224.96
399.82	225.02
400.20	225.09
400.58	225.14
400.95	225.18
401.33	225.28
401.70	225.41
402.08	225.49
402.45	225.58
402.83	225.67
403.20	225.78
403.58	225.89
403.95	226.02
404.33	226.19
404.71	226.34
405.08	226.54
405.46	226.65
405.83	226.83
406.21	227.02
406.58	227.17
406.96	227.40
407.33	227.60
407.70	227.80
408.08	228.09
408.45	228.34
408.83	228.63
409.20	228.86
409.58	229.11
409.95	229.42
410.33	229.77
410.70	230.10
411.08	230.47
411.45	230.84
411.82	231.22
412.20	231.63
412.57	232.11
412.95	232.47
413.32	232.96
413.69	233.46
414.07	233.96
414.44	234.59
414.82	235.17
415.19	235.87
415.56	236.60
415.94	237.29
416.31	238.11
416.68	238.91
417.06	239.84
417.43	240.71
417.81	241.67
418.18	242.65
418.55	243.72
418.93	244.82
419.30	246.00
419.67	247.20
420.04	248.46
420.42	249.75
420.79	251.26
421.16	252.75
421.54	254.25
421.91	255.82
422.28	257.44
422.66	259.14
423.03	260.75
423.40	262.48
423.77	264.33
424.15	266.15
424.52	268.05
424.89	270.09
425.26	272.08
425.64	273.98
426.01	276.03
426.38	278.15
426.75	280.30
427.13	282.48
427.50	284.76
427.87	287.11
428.24	289.54
428.61	291.81
428.99	294.30
429.36	297.05
429.73	299.71
430.10	302.33
430.47	305.00
430.85	307.78
431.22	310.64
431.59	313.67
431.96	316.56
432.33	319.77
432.70	322.83
433.08	326.43
433.45	329.83
433.82	333.20
434.19	336.89
434.56	340.52
434.93	343.94
435.30	347.33
435.68	351.07
436.05	354.72
436.42	358.34
436.79	361.59
437.16	365.02
437.53	368.70
437.90	372.26
438.27	375.75
438.64	379.39
439.01	382.76
439.38	385.64
439.75	388.44
440.13	391.64
440.50	394.65
440.87	397.07
441.24	399.55
441.61	402.32
441.98	404.28
442.35	406.60
442.72	408.95
443.09	411.26
443.46	412.56
443.83	413.31
444.20	413.95
444.57	415.03
444.94	415.37
445.31	415.80
445.68	416.24
446.05	416.42
446.42	415.96
446.79	415.42
447.16	414.88
447.53	414.46
447.90	413.00
448.27	411.50
448.64	409.43
449.01	407.97
449.37	405.40
449.74	402.90
450.11	399.99
450.48	396.87
450.85	393.66
451.22	390.94
451.59	388.37
451.96	385.92
452.33	382.60
452.70	379.60
453.07	375.98
453.43	372.30
453.80	368.72
454.17	365.27
454.54	361.99
454.91	358.44
455.28	355.03
455.65	351.81
456.02	348.61
456.38	345.85
456.75	342.41
457.12	339.53
457.49	336.70
457.86	333.90
458.23	331.47
458.59	328.82
458.96	326.09
459.33	323.63
459.70	321.16
460.07	319.17
460.43	316.93
460.80	314.80
461.17	312.92
461.54	310.93
461.91	309.00
462.27	307.10
462.64	305.50
463.01	303.72
463.38	301.98
463.74	300.27
464.11	298.78
464.48	297.47
464.85	296.02
465.21	294.90
465.58	293.71
465.95	292.28
466.32	291.09
466.68	289.94
467.05	288.80
467.42	287.67
467.78	286.45
468.15	285.35
468.52	284.48
468.88	283.39
469.25	282.41
469.62	281.59
469.98	280.73
470.35	279.90
470.72	279.16
471.08	278.34
471.45	277.63
471.82	276.89
472.18	276.05
472.55	275.49
472.92	274.81
473.28	274.21
473.65	273.66
474.02	273.09
474.38	272.58
474.75	272.13
475.11	271.66
475.48	271.32
475.85	270.99
476.21	270.65
476.58	270.40
476.94	270.18
477.31	269.99
477.67	269.78
478.04	269.60
478.41	269.46
478.77	269.46
479.14	269.32
479.50	269.30
479.87	269.35
480.23	269.37
480.60	269.40
480.96	269.44
481.33	269.64
481.69	269.78
482.06	269.94
482.42	270.08
482.79	270.29
483.15	270.56
483.52	270.91
483.88	271.27
484.25	271.63
484.61	272.06
484.98	272.49
485.34	273.03
485.71	273.61
486.07	274.19
486.44	274.75
486.80	275.47
487.17	276.21
487.53	277.09
487.90	277.98
488.26	278.90
488.62	279.92
488.99	280.87
489.35	281.93
489.72	283.10
490.08	284.36
490.44	285.67
490.81	287.05
491.17	288.49
491.54	290.02
491.90	291.63
492.26	293.30
492.63	295.08
492.99	296.93
493.36	298.89
493.72	301.05
494.08	303.27
494.45	305.63
494.81	308.07
495.17	310.55
495.54	313.20
495.90	316.02
496.26	318.93
496.63	322.03
496.99	325.31
497.35	328.71
497.72	332.21
498.08	335.84
498.44	339.68
498.80	343.70
499.17	347.91
499.53	352.26
499.89	356.83
500.26	361.57
500.62	366.46
500.98	371.64
501.34	376.93
501.71	382.52
502.07	388.22
502.43	394.09
502.79	400.22
503.16	406.58
503.52	413.13
503.88	419.87
504.24	426.81
504.60	434.00
504.97	441.47
505.33	449.20
505.69	457.32
506.05	465.46
506.41	473.76
506.78	482.38
507.14	491.25
507.50	500.36
507.86	509.85
508.22	519.54
508.59	529.28
508.95	539.32
509.31	549.57
509.67	560.18
510.03	570.96
510.39	582.07
510.75	593.40
511.12	604.94
511.48	616.84
511.84	628.96
512.20	641.09
512.56	653.61
512.92	666.40
513.28	679.51
513.64	692.66
514.00	706.15
514.37	719.81
514.73	733.60
515.09	747.45
515.45	761.50
515.81	775.87
516.17	790.58
516.53	805.58
516.89	820.67
517.25	835.74
517.61	851.15
517.97	866.51
518.33	881.82
518.69	897.53
519.05	913.49
519.41	929.55
519.77	946.09
520.13	962.66
520.49	979.16
520.85	995.57
521.21	1012.30
521.57	1029.72
521.93	1046.56
522.29	1064.11
522.65	1081.58
523.01	1098.97
523.37	1116.21
523.73	1133.66
524.09	1150.99
524.45	1168.47
524.81	1186.42
525.17	1204.54
525.53	1222.76
525.89	1240.98
526.25	1259.23
526.61	1276.95
526.97	1295.04
527.33	1312.88
527.68	1330.72
528.04	1348.57
528.40	1366.47
528.76	1384.95
529.12	1402.87
529.48	1421.35
529.84	1438.81
530.20	1456.87
530.56	1475.28
530.91	1494.23
531.27	1512.65
531.63	1530.63
531.99	1548.87
532.35	1566.43
532.71	1583.93
533.07	1601.77
533.42	1619.39
533.78	1637.07
534.14	1654.97
534.50	1671.94
534.86	1689.50
535.21	1706.46
535.57	1724.05
535.93	1741.29
536.29	1757.95
536.65	1774.63
537.00	1790.95
537.36	1807.95
537.72	1824.12
538.08	1840.41
538.44	1855.83
538.79	1871.43
539.15	1886.75
539.51	1902.12
539.87	1918.01
540.22	1933.28
540.58	1948.79
540.94	1963.75
541.29	1978.26
541.65	1992.73
542.01	2007.87
542.37	2022.06
542.72	2036.36
543.08	2049.97
543.44	2064.33
543.79	2077.22
544.15	2090.00
544.51	2103.48
544.87	2116.21
545.22	2128.88
545.58	2140.90
545.94	2152.42
546.29	2163.90
546.65	2175.75
547.01	2186.77
547.36	2197.37
547.72	2207.63
548.07	2217.13
548.43	2227.01
548.79	2236.67
549.14	2245.98
549.50	2254.69
549.86	2263.97
550.21	2272.77
550.57	2281.65
550.92	2289.55
551.28	2298.28
551.64	2307.08
551.99	2315.21
552.35	2323.10
552.70	2330.82
553.06	2338.28
553.41	2346.45
553.77	2353.98
554.13	2361.44
554.48	2369.29
554.84	2376.57
555.19	2383.38
555.55	2390.13
555.90	2396.26
556.26	2402.71
556.61	2408.69
556.97	2414.75
557.32	2420.29
557.68	2425.71
558.03	2431.25
558.39	2436.38
558.74	2442.42
559.10	2447.69
559.45	2452.58
559.81	2458.05
560.16	2463.17
560.52	2467.75
560.87	2472.37
561.23	2476.26
561.58	2480.34
561.94	2483.93
562.29	2487.02
562.64	2491.10
563.00	2494.71
563.35	2499.32
563.71	2503.59
564.06	2508.10
564.42	2512.15
564.77	2515.87
565.12	2519.57
565.48	2522.64
565.83	2525.65
566.19	2528.15
566.54	2529.72
566.89	2531.89
567.25	2533.60
567.60	2535.92
567.96	2538.63
568.31	2540.17
568.66	2542.33
569.02	2543.88
569.37	2544.92
569.72	2546.81
570.08	2547.55
570.43	2548.37
570.78	2548.50
571.14	2547.56
571.49	2546.57
571.84	2546.67
572.20	2546.08
572.55	2545.32
572.90	2544.08
573.26	2543.16
573.61	2541.67
573.96	2540.69
574.31	2537.97
574.67	2534.98
575.02	2531.37
575.37	2528.02
575.72	2524.47
576.08	2521.01
576.43	2517.68
576.78	2514.31
577.13	2511.07
577.49	2507.83
577.84	2504.52
578.19	2500.57
578.54	2497.03
578.90	2492.93
579.25	2487.21
579.60	2482.02
579.95	2476.83
580.30	2471.68
580.66	2466.23
581.01	2461.09
581.36	2455.78
581.71	2451.68
582.06	2447.34
582.42	2442.69
582.77	2437.17
583.12	2432.41
583.47	2427.65
583.82	2422.56
584.17	2416.96
584.53	2411.17
584.88	2405.37
585.23	2399.34
585.58	2393.52
585.93	2387.58
586.28	2382.36
586.63	2377.01
586.98	2371.58
587.34	2366.61
587.69	2361.27
588.04	2355.83
588.39	2349.79
588.74	2342.66
589.09	2335.80
589.44	2328.30
589.79	2321.70
590.14	2315.58
590.49	2308.30
590.84	2301.17
591.19	2294.47
591.54	2287.27
591.89	2279.36
592.25	2271.98
592.60	2263.85
592.95	2255.74
593.30	2247.68
593.65	2239.26
594.00	2231.35
594.35	2223.35
594.70	2214.38
595.05	2206.61
595.40	2198.29
595.75	2189.91
596.10	2183.13
596.45	2175.68
596.80	2168.92
597.15	2161.76
597.50	2154.02
597.85	2146.82
598.19	2139.39
598.54	2131.71
598.89	2124.44
599.24	2117.77
599.59	2110.43
599.94	2103.43
600.29	2096.22
600.64	2088.82
600.99	2080.66
601.34	2073.11
601.69	2065.26
602.04	2057.61
602.39	2049.31
602.74	2041.69
603.08	2034.02
603.43	2026.37
603.78	2018.02
604.13	2009.90
604.48	2001.67
604.83	1994.02
605.18	1986.38
605.53	1977.58
605.87	1968.35
606.22	1960.03
606.57	1951.00
606.92	1942.36
607.27	1934.26
607.62	1926.49
607.96	1918.26
608.31	1910.74
608.66	1902.15
609.01	1893.50
609.36	1885.02
609.70	1875.92
610.05	1866.77
610.40	1858.08
610.75	1848.63
611.10	1840.04
611.44	1830.28
611.79	1821.09
612.14	1811.11
612.49	1800.46
612.83	1790.86
613.18	1781.47
613.53	1772.18
613.88	1762.48
614.22	1753.18
614.57	1743.30
614.92	1734.17
615.27	1725.60
615.61	1716.16
615.96	1706.96
616.31	1698.29
616.65	1689.80
617.00	1681.17
617.35	1672.34
617.70	1662.88
618.04	1653.15
618.39	1643.58
618.74	1634.91
619.08	1625.37
619.43	1616.55
619.78	1608.59
620.12	1600.36
620.47	1591.86
620.82	1582.50
621.16	1573.87
621.51	1565.20
621.85	1556.46
622.20	1546.64
622.55	1537.04
622.89	1527.99
623.24	1519.20
623.59	1510.68
623.93	1502.10
624.28	1493.72
624.62	1485.15
624.97	1476.82
625.32	1469.02
625.66	1461.01
626.01	1452.84
626.35	1444.44
626.70	1435.57
627.04	1426.78
627.39	1417.80
627.73	1409.34
628.08	1401.48
628.43	1393.20
628.77	1384.79
629.12	1376.22
629.46	1368.03
629.81	1359.45
630.15	1351.09
630.50	1342.60
630.84	1333.29
631.19	1324.12
631.53	1315.45
631.88	1306.81
632.22	1298.18
632.57	1289.86
632.91	1281.16
633.26	1272.65
633.60	1264.18
633.95	1256.08
634.29	1247.95
634.64	1240.30
634.98	1231.89
635.32	1223.69
635.67	1216.12
636.01	1208.43
636.36	1200.70
636.70	1193.09
637.05	1185.63
637.39	1178.26
637.73	1170.85
638.08	1164.04
638.42	1157.22
638.77	1150.08
639.11	1142.64
639.45	1135.36
639.80	1127.87
640.14	1120.66
640.49	1113.32
640.83	1106.24
641.17	1099.26
641.52	1092.21
641.86	1084.85
642.20	1078.20
642.55	1070.99
642.89	1063.64
643.23	1056.11
643.58	1049.53
643.92	1042.62
644.26	1035.84
644.61	1028.96
644.95	1022.16
645.29	1014.79
645.64	1007.12
645.98	999.74
646.32	993.02
646.66	986.21
647.01	979.53
647.35	973.05
647.69	966.31
648.04	959.84
648.38	953.24
648.72	946.48
649.06	939.71
649.41	933.00
649.75	926.40
650.09	919.81
650.43	913.43
650.78	906.56
651.12	899.76
651.46	893.15
651.80	886.77
652.14	880.66
652.49	874.68
652.83	868.85
653.17	862.61
653.51	856.30
653.85	850.18
654.20	843.92
654.54	837.18
654.88	830.73
655.22	824.06
655.56	817.58
655.90	811.36
656.25	805.44
656.59	799.41
656.93	793.54
657.27	787.71
657.61	781.54
657.95	775.76
658.29	770.05
658.64	764.15
658.98	758.10
659.32	751.86
659.66	745.91
660.00	739.98
660.34	734.29
660.68	728.68
661.02	722.99
661.36	717.65
661.70	712.57
662.05	707.66
662.39	702.97
662.73	697.94
663.07	692.97
663.41	687.95
663.75	682.90
664.09	677.77
664.43	672.78
664.77	668.16
665.11	663.36
665.45	658.66
665.79	654.12
666.13	649.52
666.47	644.94
666.81	640.34
667.15	635.67
667.49	631.30
667.83	626.94
668.17	622.52
668.51	617.91
668.85	613.35
669.19	609.02
669.53	604.63
669.87	600.31
670.21	596.14
670.55	591.98
670.89	588.08
671.23	584.24
671.57	580.25
671.91	576.28
672.25	572.32
672.58	568.42
672.92	564.47
673.26	560.89
673.60	557.40
673.94	553.85
674.28	550.57
674.62	547.24
674.96	543.77
675.30	540.49
675.64	537.26
675.97	534.14
676.31	530.91
676.65	527.62
676.99	524.59
677.33	521.41
677.67	518.33
678.01	514.96
678.34	511.58
678.68	508.36
679.02	505.16
679.36	502.04
679.70	498.96
680.04	495.96
680.37	492.70
680.71	489.51
681.05	486.54
681.39	483.46
681.73	480.51
682.06	477.72
682.40	474.80
682.74	471.89
683.08	468.96
683.42	465.98
683.75	463.17
684.09	460.26
684.43	457.44
684.77	454.62
685.10	451.96
685.44	449.36
685.78	446.77
686.12	444.21
686.45	441.56
686.79	438.97
687.13	436.46
687.46	433.99
687.80	431.55
688.14	429.01
688.48	426.69
688.81	424.18
689.15	421.66
689.49	419.21
689.82	416.86
690.16	414.51
690.50	412.35
690.83	410.17
691.17	407.91
691.51	405.77
691.84	403.72
692.18	401.52
692.52	399.32
692.85	397.10
693.19	394.98
693.52	392.96
693.86	390.91
694.20	388.90
694.53	386.88
694.87	384.73
695.21	382.71
695.54	380.67
695.88	378.67
696.21	376.76
696.55	374.90
696.88	372.97
697.22	371.06
697.56	369.17
697.89	367.27
698.23	365.44
698.56	363.61
698.90	361.79
699.23	359.98
699.57	358.21
699.90	356.46
700.24	354.72
700.58	352.98
700.91	351.29
701.25	349.65
701.58	348.09
701.92	346.59
702.25	345.06
702.59	343.51
702.92	342.05
703.26	340.57
703.59	339.17
703.93	337.82
704.26	336.49
704.60	335.06
704.93	333.62
705.26	332.20
705.60	330.84
705.93	329.50
706.27	328.31
706.60	327.11
706.94	325.90
707.27	324.62
707.61	323.41
707.94	322.26
708.27	321.01
708.61	319.80
708.94	318.63
709.28	317.53
709.61	316.44
709.94	315.32
710.28	314.15
710.61	312.98
710.95	311.78
711.28	310.72
711.61	309.66
711.95	308.63
712.28	307.59
712.61	306.53
712.95	305.50
713.28	304.46
713.61	303.43
713.95	302.43
714.28	301.49
714.61	300.50
714.95	299.52
715.28	298.60
715.61	297.60
715.95	296.67
716.28	295.68
716.61	294.72
716.95	293.81
717.28	292.99
717.61	292.12
717.94	291.32
718.28	290.43
718.61	289.62
718.94	288.85
719.27	288.14
719.61	287.40
719.94	286.61
720.27	285.81
720.60	285.08
720.94	284.36
721.27	283.70
721.60	283.01
721.93	282.35
722.27	281.70
722.60	281.09
722.93	280.41
723.26	279.82
723.59	279.19
723.93	278.56
724.26	277.92
724.59	277.33
724.92	276.71
725.25	276.13
725.59	275.52
725.92	274.93
726.25	274.31
726.58	273.72
726.91	273.19
727.24	272.68
727.57	272.14
727.91	271.53
728.24	270.97
728.57	270.44
728.90	269.92
729.23	269.37
729.56	268.89
729.89	268.38
730.22	267.83
730.55	267.28
730.89	266.78
731.22	266.24
731.55	265.72
731.88	265.25
732.21	264.76
732.54	264.29
732.87	263.78
733.20	263.34
733.53	262.93
733.86	262.50
734.19	262.05
734.52	261.64
734.85	261.26
735.18	260.82
735.51	260.43
735.84	259.97
736.17	259.53
736.50	259.04
736.83	258.77
737.16	258.40
737.49	258.03
737.82	257.64
738.15	257.28
738.48	256.90
738.81	256.49
739.14	256.10
739.47	255.72
739.80	255.39
740.13	255.00
740.46	254.60
740.79	254.17
741.12	253.82
741.45	253.46
741.78	253.11
742.11	252.80
742.44	252.39
742.77	252.10
743.10	251.80
743.43	251.49
743.75	251.07
744.08	250.84
744.41	250.54
744.74	250.22
745.07	249.90
745.40	249.59
745.73	249.35
746.06	249.07
746.39	248.77
746.71	248.45
747.04	248.13
747.37	247.84
747.70	247.59
748.03	247.28
748.36	247.00
748.68	246.73
749.01	246.42
749.34	246.16
749.67	245.88
750.00	245.61
750.33	245.40
750.65	245.14
750.98	244.80
751.31	244.55
751.64	244.30
751.97	244.12
752.29	243.89
752.62	243.59
752.95	243.33
753.28	243.09
753.60	242.89
753.93	242.73
754.26	242.52
754.59	242.26
754.91	242.03
755.24	241.83
755.57	241.64
755.90	241.43
756.22	241.23
756.55	241.01
756.88	240.80
757.20	240.56
757.53	240.34
757.86	240.15
758.19	239.96
758.51	239.80
758.84	239.56
759.17	239.38
759.49	239.20
759.82	239.08
760.15	238.92
760.47	238.74
760.80	238.52
761.13	238.38
761.45	238.19
761.78	238.05
762.11	237.83
762.43	237.63
762.76	237.47
763.08	237.33
763.41	237.18
763.74	237.01
764.06	236.86
764.39	236.73
764.71	236.55
765.04	236.41
765.37	236.24
765.69	236.07
766.02	235.93
766.34	235.83
766.67	235.64
767.00	235.50
767.32	235.41
767.65	235.37
767.97	235.23
768.30	235.15
768.62	235.01
768.95	234.91
769.27	234.81
769.60	234.72
769.92	234.59
770.25	234.46
770.57	234.31
770.90	234.17
771.22	234.02
771.55	233.93
771.87	233.84
772.20	233.72
772.52	233.74
772.85	233.75
773.17	233.64
773.50	233.55
773.82	233.45
774.15	233.30
774.47	233.12
774.80	233.02
775.12	232.91
775.45	232.83
775.77	232.74
776.09	232.66
776.42	232.57
776.74	232.49
777.07	232.43
777.39	232.37
777.72	232.31
778.04	232.25
778.36	232.17
778.69	232.12
779.01	232.05
779.33	231.87
779.66	231.66
779.98	231.56
780.31	231.46
780.63	231.43
780.95	231.37
781.28	231.30
781.60	231.23
781.92	231.18
782.25	231.09
782.57	231.02
782.89	230.93
783.22	230.85
783.54	230.78
783.86	230.69
784.19	230.64
784.51	230.61
784.83	230.53
785.16	230.47
785.48	230.36
785.80	230.29
786.12	230.23
786.45	230.19
786.77	230.14
