SpectraSuite Data File
++++++++++++++++++++++++++++++++++++
Date: Fri Feb 01 15:31:56 EST 2013
User: group
Dark Spectrum Present: No
Reference Spectrum Present: No
Number of Sampled Component Spectra: 1
Spectrometers: USB2E7196
Integration Time (usec): 35000 (USB2E7196)
Spectra Averaged: 100 (USB2E7196)
Boxcar Smoothing: 10 (USB2E7196)
Correct for Electrical Dark: No (USB2E7196)
Strobe/Lamp Enabled: No (USB2E7196)
Correct for Detector Non-linearity: No (USB2E7196)
Correct for Stray Light: No (USB2E7196)
Number of Pixels in Processed Spectrum: 2048
>>>>>Begin Processed Spectral Data<<<<<
339.09	0.00
339.48	215.25
339.86	216.86
340.24	218.19
340.63	219.60
341.01	222.06
341.39	221.87
341.78	223.35
342.16	224.31
342.54	224.91
342.93	213.46
343.31	224.24
343.69	224.79
344.07	225.24
344.46	225.63
344.84	225.99
345.22	226.22
345.60	226.47
345.99	226.64
346.37	226.77
346.75	226.88
347.13	226.96
347.52	227.03
347.90	227.09
348.28	227.13
348.66	227.16
349.05	227.17
349.43	227.19
349.81	227.23
350.19	227.27
350.57	227.34
350.96	227.40
351.34	227.47
351.72	227.53
352.10	227.61
352.48	227.71
352.87	227.75
353.25	227.83
353.63	227.91
354.01	227.97
354.39	228.04
354.77	228.10
355.15	228.18
355.54	228.19
355.92	228.23
356.30	228.29
356.68	228.40
357.06	228.48
357.44	228.54
357.82	228.61
358.20	228.65
358.58	228.70
358.97	228.77
359.35	228.85
359.73	228.93
360.11	229.00
360.49	229.05
360.87	229.10
361.25	229.14
361.63	229.19
362.01	229.24
362.39	229.27
362.77	229.33
363.15	229.39
363.53	229.46
363.91	229.50
364.29	229.51
364.67	229.44
365.05	229.44
365.43	229.45
365.81	229.46
366.19	229.47
366.57	229.50
366.95	229.49
367.33	229.44
367.71	229.42
368.09	229.39
368.47	229.39
368.85	229.37
369.23	229.38
369.61	229.33
369.99	229.34
370.37	229.32
370.75	229.31
371.13	229.20
371.51	229.12
371.89	229.11
372.27	229.08
372.65	229.04
373.03	229.01
373.41	228.94
373.78	228.87
374.16	228.82
374.54	228.72
374.92	228.66
375.30	228.61
375.68	228.54
376.06	228.47
376.44	228.39
376.82	228.36
377.19	228.28
377.57	228.22
377.95	228.13
378.33	228.06
378.71	227.93
379.09	227.90
379.47	227.87
379.84	227.76
380.22	227.68
380.60	227.61
380.98	227.54
381.36	227.48
381.73	227.37
382.11	227.32
382.49	227.28
382.87	227.19
383.25	227.14
383.62	227.18
384.00	227.11
384.38	227.03
384.76	226.97
385.13	226.97
385.51	226.93
385.89	226.86
386.27	226.83
386.64	226.80
387.02	226.75
387.40	226.71
387.78	226.70
388.15	226.66
388.53	226.60
388.91	226.55
389.29	226.52
389.66	226.53
390.04	226.44
390.42	226.43
390.79	226.44
391.17	226.42
391.55	226.26
391.92	226.28
392.30	226.30
392.68	226.25
393.05	226.23
393.43	226.23
393.81	226.25
394.18	226.23
394.56	226.25
394.94	226.29
395.31	226.29
395.69	226.35
396.06	226.40
396.44	226.48
396.82	226.54
397.19	226.65
397.57	226.68
397.95	226.80
398.32	226.81
398.70	226.88
399.07	226.96
399.45	227.06
399.82	227.15
400.20	227.24
400.58	227.34
400.95	227.36
401.33	227.48
401.70	227.65
402.08	227.74
402.45	227.83
402.83	227.95
403.20	228.05
403.58	228.12
403.95	228.21
404.33	228.34
404.71	228.42
405.08	228.61
405.46	228.78
405.83	228.93
406.21	229.10
406.58	229.23
406.96	229.41
407.33	229.58
407.70	229.74
408.08	229.98
408.45	230.18
408.83	230.42
409.20	230.62
409.58	230.78
409.95	231.03
410.33	231.27
410.70	231.51
411.08	231.82
411.45	232.14
411.82	232.43
412.20	232.78
412.57	233.22
412.95	233.52
413.32	233.89
413.69	234.29
414.07	234.71
414.44	235.20
414.82	235.65
415.19	236.20
415.56	236.75
415.94	237.27
416.31	237.92
416.68	238.54
417.06	239.25
417.43	239.89
417.81	240.69
418.18	241.45
418.55	242.32
418.93	243.14
419.30	244.06
419.67	245.04
420.04	246.00
420.42	246.99
420.79	248.14
421.16	249.28
421.54	250.45
421.91	251.67
422.28	252.90
422.66	254.23
423.03	255.55
423.40	256.89
423.77	258.33
424.15	259.79
424.52	261.26
424.89	262.88
425.26	264.43
425.64	265.90
426.01	267.54
426.38	269.19
426.75	270.90
427.13	272.59
427.50	274.37
427.87	276.25
428.24	278.11
428.61	279.86
428.99	281.83
429.36	283.95
429.73	286.04
430.10	288.10
430.47	290.22
430.85	292.35
431.22	294.59
431.59	296.98
431.96	299.21
432.33	301.73
432.70	304.13
433.08	307.00
433.45	309.62
433.82	312.23
434.19	315.17
434.56	318.04
434.93	320.73
435.30	323.37
435.68	326.28
436.05	329.11
436.42	331.93
436.79	334.45
437.16	337.14
437.53	340.00
437.90	342.74
438.27	345.43
438.64	348.24
439.01	350.84
439.38	353.06
439.75	355.24
440.13	357.72
440.50	360.06
440.87	361.86
441.24	363.81
441.61	365.96
441.98	367.41
442.35	369.16
442.72	371.01
443.09	372.81
443.46	373.82
443.83	374.43
444.20	374.93
444.57	375.76
444.94	376.02
445.31	376.35
445.68	376.76
446.05	376.88
446.42	376.49
446.79	376.08
447.16	375.65
447.53	375.27
447.90	374.10
448.27	372.96
448.64	371.38
449.01	370.23
449.37	368.29
449.74	366.36
450.11	364.13
450.48	361.65
450.85	359.11
451.22	356.93
451.59	354.91
451.96	352.92
452.33	350.35
452.70	348.02
453.07	345.18
453.43	342.28
453.80	339.46
454.17	336.79
454.54	334.23
454.91	331.51
455.28	328.90
455.65	326.42
456.02	323.91
456.38	321.73
456.75	319.10
457.12	316.82
457.49	314.59
457.86	312.42
458.23	310.56
458.59	308.49
458.96	306.41
459.33	304.51
459.70	302.62
460.07	301.09
460.43	299.39
460.80	297.79
461.17	296.36
461.54	294.90
461.91	293.48
462.27	292.02
462.64	290.77
463.01	289.39
463.38	288.08
463.74	286.74
464.11	285.60
464.48	284.54
464.85	283.43
465.21	282.56
465.58	281.60
465.95	280.52
466.32	279.64
466.68	278.70
467.05	277.87
467.42	277.00
467.78	276.06
468.15	275.15
468.52	274.47
468.88	273.60
469.25	272.80
469.62	272.20
469.98	271.52
470.35	270.86
470.72	270.23
471.08	269.56
471.45	269.01
471.82	268.46
472.18	267.88
472.55	267.42
472.92	266.91
473.28	266.45
473.65	266.00
474.02	265.57
474.38	265.20
474.75	264.86
475.11	264.54
475.48	264.26
475.85	264.05
476.21	263.82
476.58	263.67
476.94	263.54
477.31	263.33
477.67	263.22
478.04	263.11
478.41	263.07
478.77	263.11
479.14	263.07
479.50	263.08
479.87	263.15
480.23	263.25
480.60	263.32
480.96	263.42
481.33	263.60
481.69	263.78
482.06	264.02
482.42	264.19
482.79	264.41
483.15	264.76
483.52	265.12
483.88	265.44
484.25	265.79
484.61	266.21
484.98	266.68
485.34	267.20
485.71	267.79
486.07	268.37
486.44	268.96
486.80	269.64
487.17	270.38
487.53	271.20
487.90	272.07
488.26	272.99
488.62	273.97
488.99	274.95
489.35	276.00
489.72	277.10
490.08	278.33
490.44	279.59
490.81	280.91
491.17	282.25
491.54	283.76
491.90	285.29
492.26	286.91
492.63	288.60
492.99	290.41
493.36	292.29
493.72	294.38
494.08	296.51
494.45	298.75
494.81	301.09
495.17	303.50
495.54	306.01
495.90	308.68
496.26	311.46
496.63	314.42
496.99	317.50
497.35	320.73
497.72	324.14
498.08	327.67
498.44	331.33
498.80	335.26
499.17	339.30
499.53	343.48
499.89	347.91
500.26	352.47
500.62	357.08
500.98	362.09
501.34	367.16
501.71	372.50
502.07	377.97
502.43	383.60
502.79	389.43
503.16	395.59
503.52	401.86
503.88	408.26
504.24	414.93
504.60	421.86
504.97	429.05
505.33	436.37
505.69	444.06
506.05	451.84
506.41	459.72
506.78	467.90
507.14	476.33
507.50	485.09
507.86	494.05
508.22	503.22
508.59	512.42
508.95	522.07
509.31	531.85
509.67	541.94
510.03	552.25
510.39	562.86
510.75	573.58
511.12	584.56
511.48	595.89
511.84	607.31
512.20	618.89
512.56	630.84
512.92	643.02
513.28	655.34
513.64	667.80
514.00	680.57
514.37	693.50
514.73	706.62
515.09	719.66
515.45	733.00
515.81	746.64
516.17	760.62
516.53	774.73
516.89	788.95
517.25	803.18
517.61	817.73
517.97	832.16
518.33	846.66
518.69	861.50
519.05	876.52
519.41	891.71
519.77	907.24
520.13	922.68
520.49	938.11
520.85	953.58
521.21	969.37
521.57	985.62
521.93	1001.42
522.29	1017.86
522.65	1034.07
523.01	1050.44
523.37	1066.57
523.73	1082.81
524.09	1098.85
524.45	1115.17
524.81	1131.85
525.17	1148.59
525.53	1165.51
525.89	1182.40
526.25	1199.18
526.61	1215.63
526.97	1232.43
527.33	1248.89
527.68	1265.66
528.04	1282.30
528.40	1299.03
528.76	1316.13
529.12	1332.83
529.48	1349.77
529.84	1365.79
530.20	1382.45
530.56	1399.51
530.91	1416.98
531.27	1433.79
531.63	1450.34
531.99	1466.99
532.35	1483.04
532.71	1499.10
533.07	1515.40
533.42	1531.39
533.78	1547.56
534.14	1563.94
534.50	1579.44
534.86	1595.46
535.21	1610.55
535.57	1626.44
535.93	1641.93
536.29	1656.75
536.65	1671.81
537.00	1686.78
537.36	1702.22
537.72	1716.86
538.08	1731.21
538.44	1744.95
538.79	1758.80
539.15	1772.67
539.51	1786.53
539.87	1800.91
540.22	1814.56
540.58	1828.45
540.94	1841.96
541.29	1854.91
541.65	1867.59
542.01	1880.83
542.37	1893.11
542.72	1905.67
543.08	1917.33
543.44	1929.86
543.79	1941.08
544.15	1952.16
544.51	1963.65
544.87	1974.68
545.22	1985.40
545.58	1995.74
545.94	2005.49
546.29	2015.44
546.65	2025.25
547.01	2034.41
547.36	2043.03
547.72	2051.54
548.07	2059.46
548.43	2067.44
548.79	2075.66
549.14	2083.19
549.50	2090.55
549.86	2098.24
550.21	2105.52
550.57	2112.84
550.92	2119.36
551.28	2126.56
551.64	2133.56
551.99	2140.06
552.35	2146.13
552.70	2152.39
553.06	2158.29
553.41	2164.77
553.77	2170.85
554.13	2176.91
554.48	2183.15
554.84	2188.65
555.19	2193.96
555.55	2198.96
555.90	2203.58
556.26	2208.27
556.61	2213.09
556.97	2217.29
557.32	2221.49
557.68	2225.66
558.03	2229.91
558.39	2233.75
558.74	2238.39
559.10	2242.31
559.45	2246.04
559.81	2250.32
560.16	2254.15
560.52	2257.42
560.87	2260.92
561.23	2263.52
561.58	2266.47
561.94	2268.92
562.29	2271.32
562.64	2273.89
563.00	2276.69
563.35	2280.32
563.71	2283.48
564.06	2286.50
564.42	2289.31
564.77	2291.80
565.12	2294.02
565.48	2295.93
565.83	2297.52
566.19	2298.71
566.54	2299.58
566.89	2300.64
567.25	2301.19
567.60	2302.61
567.96	2304.22
568.31	2304.92
568.66	2306.00
569.02	2306.53
569.37	2306.84
569.72	2307.54
570.08	2307.69
570.43	2307.45
570.78	2306.60
571.14	2305.03
571.49	2303.73
571.84	2303.45
572.20	2302.15
572.55	2301.08
572.90	2299.48
573.26	2298.13
573.61	2296.38
573.96	2294.49
574.31	2291.43
574.67	2288.22
575.02	2284.41
575.37	2280.99
575.72	2277.07
576.08	2273.74
576.43	2270.39
576.78	2266.71
577.13	2263.57
577.49	2260.44
577.84	2257.03
578.19	2253.32
578.54	2249.44
578.90	2245.16
579.25	2239.48
579.60	2234.51
579.95	2229.56
580.30	2224.48
580.66	2219.26
581.01	2214.27
581.36	2209.23
581.71	2204.96
582.06	2200.64
582.42	2196.04
582.77	2190.67
583.12	2186.05
583.47	2181.21
583.82	2175.98
584.17	2170.59
584.53	2165.08
584.88	2159.41
585.23	2153.47
585.58	2147.76
585.93	2142.27
586.28	2137.49
586.63	2132.40
586.98	2127.38
587.34	2122.43
587.69	2117.56
588.04	2112.25
588.39	2106.59
588.74	2100.21
589.09	2094.11
589.44	2087.20
589.79	2081.24
590.14	2075.57
590.49	2069.02
590.84	2062.61
591.19	2056.63
591.54	2050.08
591.89	2042.57
592.25	2035.65
592.60	2028.44
592.95	2021.01
593.30	2013.67
593.65	2005.86
594.00	1998.73
594.35	1991.41
594.70	1983.38
595.05	1975.99
595.40	1968.74
595.75	1961.17
596.10	1954.83
596.45	1947.86
596.80	1941.69
597.15	1934.96
597.50	1927.88
597.85	1921.47
598.19	1914.70
598.54	1907.49
598.89	1900.93
599.24	1894.94
599.59	1888.24
599.94	1882.03
600.29	1875.59
600.64	1869.03
600.99	1861.68
601.34	1854.76
601.69	1847.74
602.04	1840.67
602.39	1833.28
602.74	1826.34
603.08	1819.60
603.43	1812.90
603.78	1805.73
604.13	1798.41
604.48	1791.07
604.83	1784.23
605.18	1777.08
605.53	1769.13
605.87	1761.18
606.22	1753.83
606.57	1745.90
606.92	1738.60
607.27	1731.41
607.62	1724.39
607.96	1717.05
608.31	1710.29
608.66	1702.59
609.01	1694.92
609.36	1687.37
609.70	1679.33
610.05	1671.02
610.40	1663.20
610.75	1654.83
611.10	1647.11
611.44	1638.84
611.79	1630.84
612.14	1621.97
612.49	1612.85
612.83	1604.41
613.18	1596.28
613.53	1588.22
613.88	1579.73
614.22	1571.44
614.57	1562.78
614.92	1554.84
615.27	1547.14
615.61	1538.84
615.96	1531.00
616.31	1523.42
616.65	1516.09
617.00	1508.57
617.35	1501.00
617.70	1492.55
618.04	1484.02
618.39	1475.71
618.74	1468.12
619.08	1459.69
619.43	1452.27
619.78	1445.27
620.12	1438.07
620.47	1430.53
620.82	1422.35
621.16	1415.03
621.51	1407.40
621.85	1399.82
622.20	1391.26
622.55	1383.01
622.89	1375.20
623.24	1367.61
623.59	1360.26
623.93	1352.87
624.28	1345.66
624.62	1338.13
624.97	1331.08
625.32	1324.37
625.66	1317.41
626.01	1310.10
626.35	1302.75
626.70	1294.90
627.04	1287.17
627.39	1279.40
627.73	1271.98
628.08	1265.01
628.43	1257.53
628.77	1250.14
629.12	1242.53
629.46	1235.27
629.81	1227.92
630.15	1220.61
630.50	1213.13
630.84	1204.85
631.19	1196.85
631.53	1189.44
631.88	1182.00
632.22	1174.39
632.57	1167.09
632.91	1159.50
633.26	1152.10
633.60	1144.79
633.95	1137.84
634.29	1130.83
634.64	1124.19
634.98	1116.81
635.32	1109.69
635.67	1103.22
636.01	1096.61
636.36	1089.81
636.70	1083.35
637.05	1076.77
637.39	1070.39
637.73	1063.86
638.08	1058.05
638.42	1052.02
638.77	1045.54
639.11	1038.88
639.45	1032.50
639.80	1025.74
640.14	1019.35
640.49	1012.84
640.83	1006.58
641.17	1000.22
641.52	993.97
641.86	987.63
642.20	981.77
642.55	975.53
642.89	968.93
643.23	962.33
643.58	956.52
643.92	950.32
644.26	944.23
644.61	938.21
644.95	932.17
645.29	925.56
645.64	918.81
645.98	912.48
646.32	906.70
646.66	900.70
647.01	895.00
647.35	889.23
647.69	883.36
648.04	877.78
648.38	871.96
648.72	865.90
649.06	859.75
649.41	853.83
649.75	847.71
650.09	841.88
650.43	836.09
650.78	829.94
651.12	824.01
651.46	818.20
651.80	812.43
652.14	807.08
652.49	801.70
652.83	796.48
653.17	790.72
653.51	784.93
653.85	779.49
654.20	773.78
654.54	767.84
654.88	762.14
655.22	756.22
655.56	750.58
655.90	745.08
656.25	739.83
656.59	734.53
656.93	729.51
657.27	724.24
657.61	718.81
657.95	713.70
658.29	708.56
658.64	703.36
658.98	698.03
659.32	692.49
659.66	687.28
660.00	682.04
660.34	677.14
660.68	672.28
661.02	667.26
661.36	662.57
661.70	658.06
662.05	653.72
662.39	649.39
662.73	644.95
663.07	640.62
663.41	636.14
663.75	631.58
664.09	627.08
664.43	622.75
664.77	618.67
665.11	614.40
665.45	610.33
665.79	606.26
666.13	602.17
666.47	598.12
666.81	593.97
667.15	589.83
667.49	585.92
667.83	582.11
668.17	578.16
668.51	574.04
668.85	570.00
669.19	566.08
669.53	562.18
669.87	558.30
670.21	554.65
670.55	551.02
670.89	547.67
671.23	544.20
671.57	540.73
671.91	537.21
672.25	533.81
672.58	530.28
672.92	526.91
673.26	523.79
673.60	520.70
673.94	517.60
674.28	514.69
674.62	511.74
674.96	508.63
675.30	505.72
675.64	502.82
675.97	500.12
676.31	497.37
676.65	494.47
676.99	491.74
677.33	488.86
677.67	486.06
678.01	483.03
678.34	480.12
678.68	477.18
679.02	474.36
679.36	471.60
679.70	468.97
680.04	466.21
680.37	463.30
680.71	460.49
681.05	457.92
681.39	455.19
681.73	452.57
682.06	450.09
682.40	447.58
682.74	445.05
683.08	442.46
683.42	439.81
683.75	437.36
684.09	434.86
684.43	432.40
684.77	429.89
685.10	427.55
685.44	425.27
685.78	422.98
686.12	420.78
686.45	418.47
686.79	416.15
687.13	413.98
687.46	411.86
687.80	409.72
688.14	407.47
688.48	405.43
688.81	403.15
689.15	400.98
689.49	398.85
689.82	396.82
690.16	394.74
690.50	392.83
690.83	390.92
691.17	388.96
691.51	387.07
691.84	385.25
692.18	383.29
692.52	381.27
692.85	379.37
693.19	377.46
693.52	375.63
693.86	373.81
694.20	371.99
694.53	370.18
694.87	368.31
695.21	366.51
695.54	364.70
695.88	363.01
696.21	361.29
696.55	359.60
696.88	357.88
697.22	356.23
697.56	354.55
697.89	352.89
698.23	351.23
698.56	349.61
698.90	348.02
699.23	346.38
699.57	344.78
699.90	343.22
700.24	341.64
700.58	340.12
700.91	338.63
701.25	337.18
701.58	335.79
701.92	334.39
702.25	333.06
702.59	331.71
702.92	330.31
703.26	328.96
703.59	327.69
703.93	326.50
704.26	325.27
704.60	323.97
704.93	322.68
705.26	321.45
705.60	320.25
705.93	319.06
706.27	318.02
706.60	317.02
706.94	315.94
707.27	314.81
707.61	313.71
707.94	312.64
708.27	311.55
708.61	310.46
708.94	309.45
709.28	308.41
709.61	307.44
709.94	306.52
710.28	305.53
710.61	304.52
710.95	303.47
711.28	302.55
711.61	301.63
711.95	300.71
712.28	299.75
712.61	298.79
712.95	297.89
713.28	297.01
713.61	296.11
713.95	295.21
714.28	294.38
714.61	293.51
714.95	292.70
715.28	291.86
715.61	290.99
715.95	290.18
716.28	289.34
716.61	288.52
716.95	287.72
717.28	286.96
717.61	286.21
717.94	285.50
718.28	284.71
718.61	284.05
718.94	283.39
719.27	282.77
719.61	282.13
719.94	281.47
720.27	280.78
720.60	280.11
720.94	279.50
721.27	278.91
721.60	278.38
721.93	277.79
722.27	277.25
722.60	276.74
722.93	276.16
723.26	275.63
723.59	275.06
723.93	274.50
724.26	273.96
724.59	273.40
724.92	272.87
725.25	272.37
725.59	271.79
725.92	271.29
726.25	270.77
726.58	270.25
726.91	269.78
727.24	269.31
727.57	268.80
727.91	268.32
728.24	267.86
728.57	267.39
728.90	266.94
729.23	266.43
729.56	265.99
729.89	265.58
730.22	265.09
730.55	264.63
730.89	264.20
731.22	263.77
731.55	263.33
731.88	262.90
732.21	262.47
732.54	262.03
732.87	261.62
733.20	261.21
733.53	260.82
733.86	260.42
734.19	260.01
734.52	259.65
734.85	259.34
735.18	258.94
735.51	258.58
735.84	258.21
736.17	257.87
736.50	257.46
736.83	257.18
737.16	256.84
737.49	256.51
737.82	256.12
738.15	255.76
738.48	255.45
738.81	255.09
739.14	254.75
739.47	254.42
739.80	254.09
740.13	253.76
740.46	253.47
740.79	253.15
741.12	252.84
741.45	252.50
741.78	252.16
742.11	251.86
742.44	251.47
742.77	251.16
743.10	250.83
743.43	250.53
743.75	250.13
744.08	250.00
744.41	249.73
744.74	249.46
745.07	249.17
745.40	248.90
745.73	248.62
746.06	248.36
746.39	248.12
746.71	247.81
747.04	247.54
747.37	247.25
747.70	246.98
748.03	246.72
748.36	246.51
748.68	246.22
749.01	245.95
749.34	245.71
749.67	245.47
750.00	245.28
750.33	245.15
750.65	244.93
750.98	244.53
751.31	244.29
751.64	244.10
751.97	243.98
752.29	243.74
752.62	243.51
752.95	243.30
753.28	243.08
753.60	242.93
753.93	242.77
754.26	242.57
754.59	242.37
754.91	242.17
755.24	241.99
755.57	241.85
755.90	241.74
756.22	241.57
756.55	241.39
756.88	241.19
757.20	240.97
757.53	240.77
757.86	240.65
758.19	240.54
758.51	240.40
758.84	240.22
759.17	240.10
759.49	239.97
759.82	239.86
760.15	239.71
760.47	239.56
760.80	239.40
761.13	239.28
761.45	239.14
761.78	239.03
762.11	238.90
762.43	238.73
762.76	238.54
763.08	238.47
763.41	238.31
763.74	238.19
764.06	238.04
764.39	237.93
764.71	237.77
765.04	237.66
765.37	237.53
765.69	237.39
766.02	237.25
766.34	237.11
766.67	236.96
767.00	236.88
767.32	236.83
767.65	236.76
767.97	236.62
768.30	236.52
768.62	236.38
768.95	236.26
769.27	236.17
769.60	236.09
769.92	235.92
770.25	235.83
770.57	235.69
770.90	235.58
771.22	235.47
771.55	235.41
771.87	235.29
772.20	235.14
772.52	235.11
772.85	235.12
773.17	235.02
773.50	234.92
773.82	234.79
774.15	234.62
774.47	234.48
774.80	234.36
775.12	234.30
775.45	234.21
775.77	234.11
776.09	234.03
776.42	233.92
776.74	233.86
777.07	233.77
777.39	233.68
777.72	233.60
778.04	233.54
778.36	233.43
778.69	233.34
779.01	233.29
779.33	233.12
779.66	232.93
779.98	232.86
780.31	232.79
780.63	232.75
780.95	232.69
781.28	232.62
781.60	232.57
781.92	232.50
782.25	232.44
782.57	232.36
782.89	232.28
783.22	232.23
783.54	232.17
783.86	232.14
784.19	232.09
784.51	232.04
784.83	231.97
785.16	231.92
785.48	231.87
785.80	231.78
786.12	231.77
786.45	231.73
786.77	231.70
787.09	231.62
