SpectraSuite Data File
++++++++++++++++++++++++++++++++++++
Date: Fri Feb 01 16:05:36 EST 2013
User: group
Dark Spectrum Present: No
Reference Spectrum Present: No
Number of Sampled Component Spectra: 1
Spectrometers: USB2E7196
Integration Time (usec): 35000 (USB2E7196)
Spectra Averaged: 100 (USB2E7196)
Boxcar Smoothing: 10 (USB2E7196)
Correct for Electrical Dark: No (USB2E7196)
Strobe/Lamp Enabled: No (USB2E7196)
Correct for Detector Non-linearity: No (USB2E7196)
Correct for Stray Light: No (USB2E7196)
Number of Pixels in Processed Spectrum: 2048
>>>>>Begin Processed Spectral Data<<<<<
339.09	0.00
339.48	214.41
339.86	216.05
340.24	217.86
340.63	218.22
341.01	222.13
341.39	221.91
341.78	223.49
342.16	224.13
342.54	224.59
342.93	213.07
343.31	223.85
343.69	224.40
344.07	224.83
344.46	225.25
344.84	225.67
345.22	225.87
345.60	226.15
345.99	226.32
346.37	226.46
346.75	226.55
347.13	226.61
347.52	226.67
347.90	226.76
348.28	226.77
348.66	226.82
349.05	226.79
349.43	226.82
349.81	226.84
350.19	226.90
350.57	226.93
350.96	226.99
351.34	227.05
351.72	227.15
352.10	227.28
352.48	227.34
352.87	227.36
353.25	227.44
353.63	227.43
354.01	227.48
354.39	227.53
354.77	227.59
355.15	227.66
355.54	227.70
355.92	227.71
356.30	227.80
356.68	227.94
357.06	228.00
357.44	228.06
357.82	228.12
358.20	228.21
358.58	228.27
358.97	228.35
359.35	228.44
359.73	228.52
360.11	228.54
360.49	228.60
360.87	228.67
361.25	228.71
361.63	228.81
362.01	228.84
362.39	228.89
362.77	228.94
363.15	228.98
363.53	229.02
363.91	229.07
364.29	229.07
364.67	228.97
365.05	228.98
365.43	229.03
365.81	229.03
366.19	229.04
366.57	229.04
366.95	229.03
367.33	228.98
367.71	228.95
368.09	228.95
368.47	228.93
368.85	228.92
369.23	228.94
369.61	228.90
369.99	228.91
370.37	228.87
370.75	228.85
371.13	228.81
371.51	228.76
371.89	228.74
372.27	228.69
372.65	228.65
373.03	228.66
373.41	228.56
373.78	228.51
374.16	228.43
374.54	228.38
374.92	228.31
375.30	228.27
375.68	228.20
376.06	228.14
376.44	228.07
376.82	227.99
377.19	227.88
377.57	227.81
377.95	227.72
378.33	227.68
378.71	227.59
379.09	227.54
379.47	227.47
379.84	227.40
380.22	227.33
380.60	227.28
380.98	227.17
381.36	227.14
381.73	227.08
382.11	227.06
382.49	227.01
382.87	226.94
383.25	226.89
383.62	226.94
384.00	226.87
384.38	226.80
384.76	226.79
385.13	226.75
385.51	226.68
385.89	226.63
386.27	226.55
386.64	226.52
387.02	226.45
387.40	226.40
387.78	226.36
388.15	226.33
388.53	226.27
388.91	226.22
389.29	226.16
389.66	226.18
390.04	226.13
390.42	226.13
390.79	226.13
391.17	226.10
391.55	225.96
391.92	225.96
392.30	226.00
392.68	225.98
393.05	226.00
393.43	226.01
393.81	226.02
394.18	226.05
394.56	226.06
394.94	226.10
395.31	226.12
395.69	226.16
396.06	226.23
396.44	226.29
396.82	226.34
397.19	226.45
397.57	226.46
397.95	226.49
398.32	226.49
398.70	226.56
399.07	226.64
399.45	226.70
399.82	226.76
400.20	226.80
400.58	226.86
400.95	226.87
401.33	226.99
401.70	227.13
402.08	227.20
402.45	227.29
402.83	227.39
403.20	227.52
403.58	227.62
403.95	227.72
404.33	227.84
404.71	227.98
405.08	228.12
405.46	228.24
405.83	228.41
406.21	228.56
406.58	228.71
406.96	228.87
407.33	229.06
407.70	229.24
408.08	229.49
408.45	229.73
408.83	230.01
409.20	230.19
409.58	230.36
409.95	230.62
410.33	230.90
410.70	231.17
411.08	231.46
411.45	231.75
411.82	232.06
412.20	232.44
412.57	232.86
412.95	233.13
413.32	233.55
413.69	233.95
414.07	234.36
414.44	234.83
414.82	235.30
415.19	235.85
415.56	236.42
415.94	236.99
416.31	237.63
416.68	238.21
417.06	238.94
417.43	239.65
417.81	240.42
418.18	241.19
418.55	242.02
418.93	242.87
419.30	243.76
419.67	244.72
420.04	245.65
420.42	246.60
420.79	247.80
421.16	248.94
421.54	250.13
421.91	251.37
422.28	252.61
422.66	253.93
423.03	255.23
423.40	256.54
423.77	257.93
424.15	259.35
424.52	260.84
424.89	262.45
425.26	263.96
425.64	265.39
426.01	266.99
426.38	268.66
426.75	270.34
427.13	272.05
427.50	273.85
427.87	275.69
428.24	277.58
428.61	279.32
428.99	281.24
429.36	283.37
429.73	285.46
430.10	287.47
430.47	289.55
430.85	291.66
431.22	293.92
431.59	296.30
431.96	298.55
432.33	301.03
432.70	303.40
433.08	306.25
433.45	308.93
433.82	311.53
434.19	314.44
434.56	317.24
434.93	319.92
435.30	322.55
435.68	325.48
436.05	328.27
436.42	331.07
436.79	333.63
437.16	336.32
437.53	339.15
437.90	341.99
438.27	344.67
438.64	347.49
439.01	350.05
439.38	352.28
439.75	354.46
440.13	356.97
440.50	359.31
440.87	361.13
441.24	363.07
441.61	365.21
441.98	366.69
442.35	368.55
442.72	370.43
443.09	372.21
443.46	373.19
443.83	373.79
444.20	374.29
444.57	375.10
444.94	375.38
445.31	375.70
445.68	376.08
446.05	376.23
446.42	375.87
446.79	375.47
447.16	375.04
447.53	374.69
447.90	373.53
448.27	372.40
448.64	370.84
449.01	369.64
449.37	367.68
449.74	365.77
450.11	363.51
450.48	361.01
450.85	358.48
451.22	356.35
451.59	354.30
451.96	352.36
452.33	349.78
452.70	347.42
453.07	344.60
453.43	341.65
453.80	338.87
454.17	336.17
454.54	333.67
454.91	330.96
455.28	328.31
455.65	325.84
456.02	323.39
456.38	321.23
456.75	318.56
457.12	316.34
457.49	314.09
457.86	311.92
458.23	310.04
458.59	308.04
458.96	305.96
459.33	304.13
459.70	302.29
460.07	300.77
460.43	299.05
460.80	297.43
461.17	296.01
461.54	294.52
461.91	293.11
462.27	291.59
462.64	290.31
463.01	288.93
463.38	287.61
463.74	286.23
464.11	285.04
464.48	284.04
464.85	282.97
465.21	282.11
465.58	281.18
465.95	280.08
466.32	279.15
466.68	278.23
467.05	277.31
467.42	276.39
467.78	275.49
468.15	274.59
468.52	273.94
468.88	273.08
469.25	272.31
469.62	271.70
469.98	271.04
470.35	270.43
470.72	269.83
471.08	269.16
471.45	268.59
471.82	268.09
472.18	267.50
472.55	266.99
472.92	266.48
473.28	266.01
473.65	265.58
474.02	265.12
474.38	264.77
474.75	264.49
475.11	264.17
475.48	263.89
475.85	263.69
476.21	263.42
476.58	263.26
476.94	263.10
477.31	262.93
477.67	262.78
478.04	262.67
478.41	262.62
478.77	262.69
479.14	262.63
479.50	262.60
479.87	262.66
480.23	262.75
480.60	262.82
480.96	262.96
481.33	263.16
481.69	263.37
482.06	263.57
482.42	263.79
482.79	264.03
483.15	264.36
483.52	264.74
483.88	265.11
484.25	265.50
484.61	265.94
484.98	266.39
485.34	266.99
485.71	267.55
486.07	268.21
486.44	268.77
486.80	269.52
487.17	270.31
487.53	271.17
487.90	272.02
488.26	272.95
488.62	273.91
488.99	274.89
489.35	275.96
489.72	277.08
490.08	278.29
490.44	279.55
490.81	280.87
491.17	282.23
491.54	283.73
491.90	285.27
492.26	286.94
492.63	288.68
492.99	290.48
493.36	292.42
493.72	294.47
494.08	296.58
494.45	298.85
494.81	301.20
495.17	303.61
495.54	306.21
495.90	308.95
496.26	311.75
496.63	314.70
496.99	317.85
497.35	321.11
497.72	324.51
498.08	328.05
498.44	331.75
498.80	335.66
499.17	339.70
499.53	343.89
499.89	348.29
500.26	352.80
500.62	357.44
500.98	362.41
501.34	367.42
501.71	372.77
502.07	378.20
502.43	383.80
502.79	389.64
503.16	395.71
503.52	401.97
503.88	408.38
504.24	415.08
504.60	421.98
504.97	429.18
505.33	436.53
505.69	444.24
506.05	452.04
506.41	459.92
506.78	468.15
507.14	476.58
507.50	485.21
507.86	494.27
508.22	503.51
508.59	512.76
508.95	522.37
509.31	532.15
509.67	542.27
510.03	552.66
510.39	563.25
510.75	574.04
511.12	584.92
511.48	596.24
511.84	607.74
512.20	619.21
512.56	631.10
512.92	643.28
513.28	655.63
513.64	668.04
514.00	680.80
514.37	693.73
514.73	706.80
515.09	719.87
515.45	733.18
515.81	746.76
516.17	760.70
516.53	774.80
516.89	789.08
517.25	803.16
517.61	817.49
517.97	831.93
518.33	846.38
518.69	861.20
519.05	876.11
519.41	891.21
519.77	906.69
520.13	922.15
520.49	937.45
520.85	952.77
521.21	968.59
521.57	984.77
521.93	1000.47
522.29	1016.88
522.65	1033.06
523.01	1049.20
523.37	1065.15
523.73	1081.19
524.09	1097.25
524.45	1113.52
524.81	1130.24
525.17	1146.99
525.53	1163.83
525.89	1180.62
526.25	1197.43
526.61	1213.83
526.97	1230.60
527.33	1247.11
527.68	1263.70
528.04	1280.21
528.40	1296.89
528.76	1313.81
529.12	1330.44
529.48	1347.31
529.84	1363.25
530.20	1379.90
530.56	1396.83
530.91	1414.32
531.27	1431.07
531.63	1447.56
531.99	1464.01
532.35	1479.85
532.71	1495.79
533.07	1512.06
533.42	1528.01
533.78	1544.07
534.14	1560.36
534.50	1575.57
534.86	1591.35
535.21	1606.50
535.57	1622.25
535.93	1637.46
536.29	1652.20
536.65	1667.19
537.00	1681.82
537.36	1696.99
537.72	1711.45
538.08	1725.94
538.44	1739.59
538.79	1753.42
539.15	1767.03
539.51	1780.85
539.87	1795.14
540.22	1808.72
540.58	1822.37
540.94	1835.44
541.29	1848.16
541.65	1860.71
542.01	1874.00
542.37	1886.32
542.72	1898.74
543.08	1910.54
543.44	1923.05
543.79	1934.23
544.15	1945.17
544.51	1956.75
544.87	1967.73
545.22	1978.51
545.58	1988.66
545.94	1998.43
546.29	2008.43
546.65	2018.29
547.01	2027.35
547.36	2036.02
547.72	2044.52
548.07	2052.38
548.43	2060.75
548.79	2068.78
549.14	2076.26
549.50	2083.46
549.86	2091.11
550.21	2098.33
550.57	2105.60
550.92	2112.28
551.28	2119.43
551.64	2126.48
551.99	2133.03
552.35	2139.07
552.70	2145.27
553.06	2151.24
553.41	2157.61
553.77	2163.49
554.13	2169.39
554.48	2175.47
554.84	2181.04
555.19	2186.33
555.55	2191.58
555.90	2195.93
556.26	2200.85
556.61	2205.52
556.97	2209.93
557.32	2214.01
557.68	2218.17
558.03	2222.34
558.39	2225.90
558.74	2230.43
559.10	2234.31
559.45	2237.96
559.81	2242.35
560.16	2246.12
560.52	2249.31
560.87	2252.70
561.23	2255.46
561.58	2258.49
561.94	2261.03
562.29	2263.27
562.64	2265.95
563.00	2268.55
563.35	2272.22
563.71	2275.37
564.06	2278.83
564.42	2281.48
564.77	2283.98
565.12	2286.35
565.48	2288.29
565.83	2290.39
566.19	2291.76
566.54	2292.69
566.89	2293.83
567.25	2294.47
567.60	2295.84
567.96	2297.49
568.31	2298.23
568.66	2299.33
569.02	2300.01
569.37	2300.33
569.72	2301.37
570.08	2301.54
570.43	2301.52
570.78	2300.80
571.14	2299.29
571.49	2297.76
571.84	2297.57
572.20	2296.52
572.55	2295.35
572.90	2293.79
573.26	2292.30
573.61	2290.43
573.96	2288.63
574.31	2285.75
574.67	2282.81
575.02	2279.15
575.37	2275.85
575.72	2272.12
576.08	2268.73
576.43	2265.44
576.78	2261.94
577.13	2258.57
577.49	2255.41
577.84	2251.91
578.19	2248.22
578.54	2244.63
578.90	2240.57
579.25	2235.14
579.60	2230.26
579.95	2225.34
580.30	2220.25
580.66	2214.86
581.01	2210.04
581.36	2205.20
581.71	2201.03
582.06	2196.59
582.42	2192.08
582.77	2186.90
583.12	2182.43
583.47	2177.79
583.82	2172.80
584.17	2167.55
584.53	2162.20
584.88	2156.66
585.23	2150.90
585.58	2145.40
585.93	2139.83
586.28	2134.96
586.63	2129.88
586.98	2124.82
587.34	2120.02
587.69	2115.33
588.04	2110.25
588.39	2104.69
588.74	2098.20
589.09	2092.06
589.44	2085.31
589.79	2079.37
590.14	2073.75
590.49	2067.19
590.84	2060.83
591.19	2054.62
591.54	2048.20
591.89	2040.82
592.25	2034.06
592.60	2026.82
592.95	2019.34
593.30	2012.05
593.65	2004.45
594.00	1997.30
594.35	1989.99
594.70	1982.00
595.05	1974.80
595.40	1967.51
595.75	1960.03
596.10	1953.88
596.45	1947.03
596.80	1940.89
597.15	1934.29
597.50	1927.24
597.85	1920.77
598.19	1914.13
598.54	1907.08
598.89	1900.39
599.24	1894.54
599.59	1887.80
599.94	1881.56
600.29	1875.20
600.64	1868.49
600.99	1861.13
601.34	1854.35
601.69	1847.38
602.04	1840.53
602.39	1833.20
602.74	1826.39
603.08	1819.68
603.43	1812.96
603.78	1805.74
604.13	1798.46
604.48	1791.21
604.83	1784.31
605.18	1777.41
605.53	1769.43
605.87	1761.45
606.22	1754.17
606.57	1746.20
606.92	1738.84
607.27	1731.77
607.62	1724.84
607.96	1717.87
608.31	1711.37
608.66	1703.75
609.01	1696.28
609.36	1688.73
609.70	1680.72
610.05	1672.73
610.40	1664.92
610.75	1656.54
611.10	1648.92
611.44	1640.51
611.79	1632.47
612.14	1623.77
612.49	1614.52
612.83	1606.13
613.18	1598.14
613.53	1590.09
613.88	1581.52
614.22	1573.24
614.57	1564.67
614.92	1556.67
615.27	1549.05
615.61	1540.64
615.96	1532.58
616.31	1524.90
616.65	1517.47
617.00	1509.81
617.35	1502.12
617.70	1493.83
618.04	1485.27
618.39	1476.96
618.74	1469.35
619.08	1461.02
619.43	1453.49
619.78	1446.52
620.12	1439.36
620.47	1431.76
620.82	1423.59
621.16	1416.15
621.51	1408.57
621.85	1400.90
622.20	1392.37
622.55	1383.91
622.89	1376.11
623.24	1368.58
623.59	1361.07
623.93	1353.51
624.28	1346.27
624.62	1338.84
624.97	1331.69
625.32	1325.00
625.66	1317.98
626.01	1310.80
626.35	1303.46
626.70	1295.63
627.04	1287.94
627.39	1280.08
627.73	1272.67
628.08	1265.75
628.43	1258.52
628.77	1251.22
629.12	1243.65
629.46	1236.53
629.81	1229.12
630.15	1221.79
630.50	1214.36
630.84	1206.28
631.19	1198.33
631.53	1190.79
631.88	1183.09
632.22	1175.43
632.57	1168.11
632.91	1160.56
633.26	1153.15
633.60	1145.66
633.95	1138.57
634.29	1131.57
634.64	1124.82
634.98	1117.45
635.32	1110.24
635.67	1103.57
636.01	1096.93
636.36	1090.18
636.70	1083.56
637.05	1076.96
637.39	1070.49
637.73	1063.95
638.08	1058.00
638.42	1052.09
638.77	1045.75
639.11	1039.25
639.45	1032.85
639.80	1026.15
640.14	1019.77
640.49	1013.34
640.83	1007.06
641.17	1000.83
641.52	994.50
641.86	988.14
642.20	982.28
642.55	975.96
642.89	969.56
643.23	962.92
643.58	957.16
643.92	951.03
644.26	945.04
644.61	939.05
644.95	933.02
645.29	926.44
645.64	919.65
645.98	913.25
646.32	907.41
646.66	901.40
647.01	895.65
647.35	889.85
647.69	883.95
648.04	878.35
648.38	872.46
648.72	866.42
649.06	860.26
649.41	854.34
649.75	848.47
650.09	842.50
650.43	836.74
650.78	830.50
651.12	824.54
651.46	818.78
651.80	812.95
652.14	807.50
652.49	802.23
652.83	797.05
653.17	791.39
653.51	785.60
653.85	780.16
654.20	774.45
654.54	768.49
654.88	762.71
655.22	756.86
655.56	751.22
655.90	745.74
656.25	740.57
656.59	735.29
656.93	730.09
657.27	724.91
657.61	719.53
657.95	714.47
658.29	709.40
658.64	704.12
658.98	698.90
659.32	693.47
659.66	688.27
660.00	683.03
660.34	678.07
660.68	673.21
661.02	668.21
661.36	663.54
661.70	659.08
662.05	654.77
662.39	650.46
662.73	646.00
663.07	641.62
663.41	637.16
663.75	632.65
664.09	628.18
664.43	623.78
664.77	619.67
665.11	615.39
665.45	611.24
665.79	607.20
666.13	603.07
666.47	598.96
666.81	594.69
667.15	590.54
667.49	586.64
667.83	582.79
668.17	578.82
668.51	574.75
668.85	570.70
669.19	566.79
669.53	563.01
669.87	559.16
670.21	555.51
670.55	551.87
670.89	548.47
671.23	545.04
671.57	541.53
671.91	537.96
672.25	534.45
672.58	530.93
672.92	527.45
673.26	524.26
673.60	521.22
673.94	518.20
674.28	515.36
674.62	512.39
674.96	509.28
675.30	506.41
675.64	503.46
675.97	500.74
676.31	497.92
676.65	494.98
676.99	492.29
677.33	489.39
677.67	486.58
678.01	483.51
678.34	480.50
678.68	477.60
679.02	474.78
679.36	472.04
679.70	469.26
680.04	466.47
680.37	463.54
680.71	460.68
681.05	458.03
681.39	455.20
681.73	452.52
682.06	449.96
682.40	447.40
682.74	444.88
683.08	442.27
683.42	439.63
683.75	437.09
684.09	434.54
684.43	432.09
684.77	429.66
685.10	427.31
685.44	425.04
685.78	422.77
686.12	420.51
686.45	418.18
686.79	415.92
687.13	413.75
687.46	411.60
687.80	409.45
688.14	407.22
688.48	405.19
688.81	402.94
689.15	400.80
689.49	398.64
689.82	396.51
690.16	394.45
690.50	392.51
690.83	390.64
691.17	388.62
691.51	386.71
691.84	384.83
692.18	382.90
692.52	380.87
692.85	378.93
693.19	377.08
693.52	375.27
693.86	373.45
694.20	371.72
694.53	369.93
694.87	368.06
695.21	366.29
695.54	364.48
695.88	362.77
696.21	361.04
696.55	359.34
696.88	357.66
697.22	355.96
697.56	354.27
697.89	352.57
698.23	350.95
698.56	349.36
698.90	347.78
699.23	346.16
699.57	344.60
699.90	343.04
700.24	341.46
700.58	339.90
700.91	338.40
701.25	336.93
701.58	335.58
701.92	334.22
702.25	332.82
702.59	331.43
702.92	330.12
703.26	328.84
703.59	327.58
703.93	326.39
704.26	325.16
704.60	323.93
704.93	322.62
705.26	321.39
705.60	320.19
705.93	319.00
706.27	317.95
706.60	316.94
706.94	315.91
707.27	314.80
707.61	313.73
707.94	312.70
708.27	311.59
708.61	310.49
708.94	309.48
709.28	308.53
709.61	307.58
709.94	306.65
710.28	305.57
710.61	304.59
710.95	303.51
711.28	302.63
711.61	301.65
711.95	300.77
712.28	299.81
712.61	298.86
712.95	297.92
713.28	297.07
713.61	296.12
713.95	295.19
714.28	294.33
714.61	293.52
714.95	292.68
715.28	291.83
715.61	290.96
715.95	290.12
716.28	289.22
716.61	288.41
716.95	287.58
717.28	286.90
717.61	286.11
717.94	285.38
718.28	284.52
718.61	283.85
718.94	283.17
719.27	282.51
719.61	281.85
719.94	281.21
720.27	280.44
720.60	279.79
720.94	279.15
721.27	278.58
721.60	278.01
721.93	277.42
722.27	276.88
722.60	276.33
722.93	275.77
723.26	275.22
723.59	274.66
723.93	274.08
724.26	273.51
724.59	272.96
724.92	272.44
725.25	271.99
725.59	271.47
725.92	270.96
726.25	270.45
726.58	269.96
726.91	269.47
727.24	269.02
727.57	268.55
727.91	268.07
728.24	267.60
728.57	267.10
728.90	266.67
729.23	266.16
729.56	265.72
729.89	265.25
730.22	264.78
730.55	264.36
730.89	263.94
731.22	263.48
731.55	263.05
731.88	262.63
732.21	262.18
732.54	261.75
732.87	261.31
733.20	260.89
733.53	260.48
733.86	260.13
734.19	259.70
734.52	259.34
734.85	259.04
735.18	258.60
735.51	258.24
735.84	257.84
736.17	257.51
736.50	257.10
736.83	256.84
737.16	256.49
737.49	256.11
737.82	255.77
738.15	255.46
738.48	255.13
738.81	254.78
739.14	254.51
739.47	254.18
739.80	253.86
740.13	253.57
740.46	253.24
740.79	252.91
741.12	252.67
741.45	252.35
741.78	252.00
742.11	251.75
742.44	251.40
742.77	251.11
743.10	250.81
743.43	250.49
743.75	250.14
744.08	250.00
744.41	249.71
744.74	249.39
745.07	249.09
745.40	248.86
745.73	248.62
746.06	248.30
746.39	248.02
746.71	247.75
747.04	247.44
747.37	247.19
747.70	246.92
748.03	246.61
748.36	246.39
748.68	246.13
749.01	245.89
749.34	245.70
749.67	245.44
750.00	245.19
750.33	245.05
750.65	244.81
750.98	244.47
751.31	244.24
751.64	244.03
751.97	243.88
752.29	243.62
752.62	243.38
752.95	243.14
753.28	242.93
753.60	242.74
753.93	242.61
754.26	242.39
754.59	242.17
754.91	241.98
755.24	241.76
755.57	241.59
755.90	241.40
756.22	241.20
756.55	241.05
756.88	240.87
757.20	240.65
757.53	240.48
757.86	240.29
758.19	240.12
758.51	239.97
758.84	239.77
759.17	239.63
759.49	239.47
759.82	239.39
760.15	239.24
760.47	239.12
760.80	238.95
761.13	238.84
761.45	238.68
761.78	238.53
762.11	238.39
762.43	238.23
762.76	238.07
763.08	237.92
763.41	237.81
763.74	237.71
764.06	237.55
764.39	237.39
764.71	237.28
765.04	237.18
765.37	237.03
765.69	236.91
766.02	236.78
766.34	236.65
766.67	236.50
767.00	236.38
767.32	236.27
767.65	236.20
767.97	236.07
768.30	235.98
768.62	235.87
768.95	235.74
769.27	235.64
769.60	235.54
769.92	235.45
770.25	235.33
770.57	235.17
770.90	235.04
771.22	234.96
771.55	234.87
771.87	234.77
772.20	234.70
772.52	234.65
772.85	234.68
773.17	234.62
773.50	234.51
773.82	234.44
774.15	234.33
774.47	234.16
774.80	234.06
775.12	233.97
775.45	233.89
775.77	233.81
776.09	233.74
776.42	233.68
776.74	233.63
777.07	233.55
777.39	233.50
777.72	233.42
778.04	233.35
778.36	233.26
778.69	233.20
779.01	233.14
779.33	233.00
779.66	232.83
779.98	232.71
780.31	232.65
780.63	232.60
780.95	232.58
781.28	232.55
781.60	232.50
781.92	232.43
782.25	232.37
782.57	232.32
782.89	232.25
783.22	232.16
783.54	232.08
783.86	232.01
784.19	231.97
784.51	231.97
784.83	231.92
785.16	231.87
785.48	231.82
785.80	231.76
786.12	231.73
786.45	231.68
786.77	231.67
787.09	231.62
