SpectraSuite Data File
++++++++++++++++++++++++++++++++++++
Date: Fri Feb 01 15:15:09 EST 2013
User: group
Dark Spectrum Present: No
Reference Spectrum Present: No
Number of Sampled Component Spectra: 1
Spectrometers: USB2E7196
Integration Time (usec): 35000 (USB2E7196)
Spectra Averaged: 100 (USB2E7196)
Boxcar Smoothing: 10 (USB2E7196)
Correct for Electrical Dark: No (USB2E7196)
Strobe/Lamp Enabled: No (USB2E7196)
Correct for Detector Non-linearity: No (USB2E7196)
Correct for Stray Light: No (USB2E7196)
Number of Pixels in Processed Spectrum: 2048
>>>>>Begin Processed Spectral Data<<<<<
339.09	0.00
339.48	215.22
339.86	216.45
340.24	218.33
340.63	219.59
341.01	221.90
341.39	222.10
341.78	223.33
342.16	224.44
342.54	225.23
342.93	213.34
343.31	224.12
343.69	224.64
344.07	225.12
344.46	225.51
344.84	225.88
345.22	226.10
345.60	226.34
345.99	226.52
346.37	226.67
346.75	226.77
347.13	226.82
347.52	226.89
347.90	226.97
348.28	226.99
348.66	227.03
349.05	227.06
349.43	227.11
349.81	227.14
350.19	227.21
350.57	227.29
350.96	227.38
351.34	227.48
351.72	227.61
352.10	227.69
352.48	227.79
352.87	227.85
353.25	227.94
353.63	228.01
354.01	228.07
354.39	228.14
354.77	228.21
355.15	228.34
355.54	228.41
355.92	228.42
356.30	228.53
356.68	228.68
357.06	228.75
357.44	228.82
357.82	228.88
358.20	228.95
358.58	228.99
358.97	229.06
359.35	229.11
359.73	229.16
360.11	229.23
360.49	229.28
360.87	229.30
361.25	229.38
361.63	229.46
362.01	229.54
362.39	229.56
362.77	229.59
363.15	229.60
363.53	229.62
363.91	229.66
364.29	229.66
364.67	229.59
365.05	229.59
365.43	229.62
365.81	229.63
366.19	229.64
366.57	229.66
366.95	229.64
367.33	229.59
367.71	229.55
368.09	229.52
368.47	229.48
368.85	229.49
369.23	229.48
369.61	229.41
369.99	229.37
370.37	229.35
370.75	229.36
371.13	229.30
371.51	229.24
371.89	229.21
372.27	229.19
372.65	229.16
373.03	229.10
373.41	229.02
373.78	228.94
374.16	228.84
374.54	228.75
374.92	228.68
375.30	228.62
375.68	228.55
376.06	228.49
376.44	228.38
376.82	228.31
377.19	228.21
377.57	228.14
377.95	228.04
378.33	227.94
378.71	227.81
379.09	227.73
379.47	227.68
379.84	227.56
380.22	227.46
380.60	227.35
380.98	227.25
381.36	227.13
381.73	227.06
382.11	227.02
382.49	226.97
382.87	226.87
383.25	226.80
383.62	226.87
384.00	226.79
384.38	226.76
384.76	226.72
385.13	226.66
385.51	226.60
385.89	226.54
386.27	226.50
386.64	226.43
387.02	226.38
387.40	226.33
387.78	226.29
388.15	226.23
388.53	226.19
388.91	226.19
389.29	226.21
389.66	226.20
390.04	226.18
390.42	226.17
390.79	226.17
391.17	226.18
391.55	226.04
391.92	226.05
392.30	226.06
392.68	226.03
393.05	226.04
393.43	226.08
393.81	226.10
394.18	226.12
394.56	226.18
394.94	226.23
395.31	226.28
395.69	226.38
396.06	226.46
396.44	226.53
396.82	226.61
397.19	226.69
397.57	226.74
397.95	226.79
398.32	226.83
398.70	226.96
399.07	227.06
399.45	227.11
399.82	227.19
400.20	227.29
400.58	227.38
400.95	227.45
401.33	227.57
401.70	227.75
402.08	227.87
402.45	227.96
402.83	228.08
403.20	228.17
403.58	228.26
403.95	228.40
404.33	228.53
404.71	228.62
405.08	228.81
405.46	228.98
405.83	229.14
406.21	229.32
406.58	229.48
406.96	229.64
407.33	229.87
407.70	230.08
408.08	230.37
408.45	230.60
408.83	230.84
409.20	231.07
409.58	231.24
409.95	231.53
410.33	231.83
410.70	232.09
411.08	232.41
411.45	232.72
411.82	233.01
412.20	233.36
412.57	233.77
412.95	234.04
413.32	234.44
413.69	234.84
414.07	235.27
414.44	235.70
414.82	236.17
415.19	236.73
415.56	237.28
415.94	237.84
416.31	238.46
416.68	239.13
417.06	239.84
417.43	240.52
417.81	241.21
418.18	242.01
418.55	242.85
418.93	243.70
419.30	244.61
419.67	245.55
420.04	246.51
420.42	247.52
420.79	248.68
421.16	249.85
421.54	251.06
421.91	252.27
422.28	253.54
422.66	254.85
423.03	256.13
423.40	257.43
423.77	258.81
424.15	260.22
424.52	261.67
424.89	263.26
425.26	264.85
425.64	266.33
426.01	267.88
426.38	269.54
426.75	271.23
427.13	272.94
427.50	274.79
427.87	276.70
428.24	278.57
428.61	280.32
428.99	282.26
429.36	284.34
429.73	286.41
430.10	288.44
430.47	290.52
430.85	292.63
431.22	294.89
431.59	297.26
431.96	299.54
432.33	302.03
432.70	304.40
433.08	307.18
433.45	309.81
433.82	312.40
434.19	315.28
434.56	318.12
434.93	320.80
435.30	323.36
435.68	326.18
436.05	329.02
436.42	331.87
436.79	334.40
437.16	337.11
437.53	339.94
437.90	342.77
438.27	345.51
438.64	348.36
439.01	350.93
439.38	353.18
439.75	355.38
440.13	357.84
440.50	360.19
440.87	361.99
441.24	363.98
441.61	366.18
441.98	367.69
442.35	369.49
442.72	371.30
443.09	373.17
443.46	374.22
443.83	374.81
444.20	375.25
444.57	376.06
444.94	376.34
445.31	376.72
445.68	377.08
446.05	377.20
446.42	376.77
446.79	376.33
447.16	375.86
447.53	375.50
447.90	374.39
448.27	373.24
448.64	371.72
449.01	370.54
449.37	368.55
449.74	366.63
450.11	364.34
450.48	361.86
450.85	359.32
451.22	357.19
451.59	355.19
451.96	353.28
452.33	350.67
452.70	348.31
453.07	345.45
453.43	342.54
453.80	339.73
454.17	337.05
454.54	334.52
454.91	331.81
455.28	329.15
455.65	326.64
456.02	324.18
456.38	322.03
456.75	319.37
457.12	317.13
457.49	314.90
457.86	312.74
458.23	310.91
458.59	308.81
458.96	306.74
459.33	304.86
459.70	303.00
460.07	301.48
460.43	299.79
460.80	298.14
461.17	296.68
461.54	295.20
461.91	293.82
462.27	292.37
462.64	291.16
463.01	289.80
463.38	288.47
463.74	287.10
464.11	285.91
464.48	284.87
464.85	283.71
465.21	282.84
465.58	281.91
465.95	280.80
466.32	279.94
466.68	278.97
467.05	278.05
467.42	277.14
467.78	276.21
468.15	275.30
468.52	274.61
468.88	273.74
469.25	272.95
469.62	272.30
469.98	271.62
470.35	270.92
470.72	270.27
471.08	269.63
471.45	269.05
471.82	268.48
472.18	267.86
472.55	267.45
472.92	266.91
473.28	266.45
473.65	266.00
474.02	265.52
474.38	265.12
474.75	264.79
475.11	264.43
475.48	264.20
475.85	263.94
476.21	263.73
476.58	263.53
476.94	263.36
477.31	263.17
477.67	263.05
478.04	262.97
478.41	262.95
478.77	262.97
479.14	262.90
479.50	262.90
479.87	262.99
480.23	263.08
480.60	263.14
480.96	263.20
481.33	263.36
481.69	263.55
482.06	263.77
482.42	263.98
482.79	264.23
483.15	264.52
483.52	264.89
483.88	265.23
484.25	265.63
484.61	266.05
484.98	266.50
485.34	267.00
485.71	267.57
486.07	268.13
486.44	268.68
486.80	269.39
487.17	270.13
487.53	270.91
487.90	271.74
488.26	272.70
488.62	273.71
488.99	274.71
489.35	275.75
489.72	276.86
490.08	278.08
490.44	279.33
490.81	280.69
491.17	282.05
491.54	283.51
491.90	285.01
492.26	286.64
492.63	288.38
492.99	290.14
493.36	292.02
493.72	294.08
494.08	296.16
494.45	298.40
494.81	300.77
495.17	303.23
495.54	305.81
495.90	308.50
496.26	311.26
496.63	314.22
496.99	317.30
497.35	320.61
497.72	323.99
498.08	327.51
498.44	331.18
498.80	335.10
499.17	339.13
499.53	343.33
499.89	347.74
500.26	352.24
500.62	356.97
500.98	361.93
501.34	367.03
501.71	372.40
502.07	377.82
502.43	383.42
502.79	389.21
503.16	395.23
503.52	401.51
503.88	407.98
504.24	414.61
504.60	421.53
504.97	428.59
505.33	435.93
505.69	443.56
506.05	451.31
506.41	459.19
506.78	467.39
507.14	475.80
507.50	484.53
507.86	493.56
508.22	502.71
508.59	511.95
508.95	521.49
509.31	531.28
509.67	541.39
510.03	551.67
510.39	562.22
510.75	573.13
511.12	584.02
511.48	595.32
511.84	606.79
512.20	618.33
512.56	630.35
512.92	642.51
513.28	654.89
513.64	667.44
514.00	680.18
514.37	693.10
514.73	706.17
515.09	719.17
515.45	732.42
515.81	745.98
516.17	759.98
516.53	774.11
516.89	788.34
517.25	802.55
517.61	816.95
517.97	831.45
518.33	845.81
518.69	860.63
519.05	875.63
519.41	890.76
519.77	906.36
520.13	921.76
520.49	937.19
520.85	952.72
521.21	968.38
521.57	984.63
521.93	1000.36
522.29	1016.81
522.65	1033.11
523.01	1049.33
523.37	1065.53
523.73	1081.83
524.09	1097.96
524.45	1114.37
524.81	1131.11
525.17	1148.05
525.53	1165.00
525.89	1181.85
526.25	1198.67
526.61	1215.11
526.97	1231.88
527.33	1248.36
527.68	1265.05
528.04	1281.52
528.40	1298.14
528.76	1315.24
529.12	1331.83
529.48	1348.87
529.84	1365.04
530.20	1381.68
530.56	1398.90
530.91	1416.19
531.27	1432.91
531.63	1449.46
531.99	1466.00
532.35	1482.06
532.71	1498.01
533.07	1514.41
533.42	1530.47
533.78	1546.70
534.14	1563.01
534.50	1578.54
534.86	1594.49
535.21	1609.73
535.57	1625.91
535.93	1641.38
536.29	1656.33
536.65	1671.55
537.00	1686.51
537.36	1701.94
537.72	1716.63
538.08	1731.07
538.44	1745.12
538.79	1759.03
539.15	1772.91
539.51	1786.72
539.87	1801.07
540.22	1814.92
540.58	1828.66
540.94	1842.10
541.29	1855.03
541.65	1867.77
542.01	1881.09
542.37	1893.40
542.72	1905.91
543.08	1917.59
543.44	1930.06
543.79	1941.34
544.15	1952.41
544.51	1963.82
544.87	1974.81
545.22	1985.63
545.58	1995.81
545.94	2005.54
546.29	2015.47
546.65	2025.21
547.01	2034.52
547.36	2043.42
547.72	2051.94
548.07	2059.86
548.43	2068.21
548.79	2076.26
549.14	2083.84
549.50	2091.12
549.86	2098.92
550.21	2106.29
550.57	2113.51
550.92	2120.14
551.28	2127.26
551.64	2134.32
551.99	2141.06
552.35	2147.11
552.70	2153.23
553.06	2159.43
553.41	2165.79
553.77	2171.77
554.13	2177.97
554.48	2184.07
554.84	2189.24
555.19	2194.52
555.55	2199.67
555.90	2203.87
556.26	2208.66
556.61	2213.45
556.97	2217.65
557.32	2221.74
557.68	2225.91
558.03	2230.17
558.39	2234.02
558.74	2238.40
559.10	2242.10
559.45	2245.59
559.81	2250.01
560.16	2253.81
560.52	2256.91
560.87	2260.33
561.23	2262.99
561.58	2265.90
561.94	2268.49
562.29	2271.05
562.64	2273.54
563.00	2276.05
563.35	2279.58
563.71	2282.77
564.06	2285.81
564.42	2288.78
564.77	2291.20
565.12	2293.27
565.48	2295.07
565.83	2296.67
566.19	2298.15
566.54	2299.20
566.89	2300.28
567.25	2300.63
567.60	2302.03
567.96	2303.51
568.31	2304.19
568.66	2305.20
569.02	2305.69
569.37	2305.95
569.72	2306.53
570.08	2306.56
570.43	2306.58
570.78	2305.73
571.14	2304.03
571.49	2302.66
571.84	2302.26
572.20	2301.06
572.55	2299.96
572.90	2298.30
573.26	2296.88
573.61	2295.14
573.96	2293.24
574.31	2290.21
574.67	2287.11
575.02	2283.32
575.37	2279.98
575.72	2276.10
576.08	2272.68
576.43	2269.25
576.78	2265.35
577.13	2262.23
577.49	2259.24
577.84	2255.60
578.19	2251.96
578.54	2248.24
578.90	2243.95
579.25	2238.30
579.60	2233.29
579.95	2228.20
580.30	2223.22
580.66	2218.04
581.01	2212.97
581.36	2207.99
581.71	2203.54
582.06	2199.18
582.42	2194.50
582.77	2189.28
583.12	2184.62
583.47	2179.64
583.82	2174.45
584.17	2169.21
584.53	2163.69
584.88	2157.91
585.23	2151.90
585.58	2146.46
585.93	2140.92
586.28	2136.16
586.63	2131.02
586.98	2125.87
587.34	2121.20
587.69	2116.15
588.04	2110.76
588.39	2104.84
588.74	2098.12
589.09	2092.07
589.44	2085.03
589.79	2079.04
590.14	2073.15
590.49	2066.46
590.84	2060.09
591.19	2054.04
591.54	2047.46
591.89	2039.79
592.25	2032.93
592.60	2025.83
592.95	2018.08
593.30	2010.73
593.65	2002.94
594.00	1995.77
594.35	1988.44
594.70	1980.22
595.05	1973.01
595.40	1965.76
595.75	1958.19
596.10	1951.97
596.45	1945.06
596.80	1938.85
597.15	1932.06
597.50	1924.84
597.85	1918.45
598.19	1911.78
598.54	1904.66
598.89	1897.91
599.24	1892.00
599.59	1885.08
599.94	1878.84
600.29	1872.49
600.64	1865.87
600.99	1858.22
601.34	1851.18
601.69	1844.15
602.04	1837.14
602.39	1829.68
602.74	1822.66
603.08	1815.89
603.43	1809.10
603.78	1801.81
604.13	1794.58
604.48	1787.28
604.83	1780.53
605.18	1773.46
605.53	1765.46
605.87	1757.40
606.22	1750.25
606.57	1742.45
606.92	1735.32
607.27	1728.03
607.62	1720.94
607.96	1713.56
608.31	1707.03
608.66	1699.44
609.01	1691.91
609.36	1684.31
609.70	1676.34
610.05	1668.20
610.40	1660.49
610.75	1652.23
611.10	1644.56
611.44	1636.09
611.79	1628.16
612.14	1619.47
612.49	1610.35
612.83	1602.03
613.18	1593.93
613.53	1585.79
613.88	1577.18
614.22	1568.77
614.57	1560.24
614.92	1552.32
615.27	1544.77
615.61	1536.51
615.96	1528.53
616.31	1520.90
616.65	1513.59
617.00	1506.00
617.35	1498.38
617.70	1490.00
618.04	1481.41
618.39	1473.23
618.74	1465.79
619.08	1457.48
619.43	1449.84
619.78	1442.87
620.12	1435.69
620.47	1428.18
620.82	1420.07
621.16	1412.74
621.51	1405.19
621.85	1397.58
622.20	1389.00
622.55	1380.70
622.89	1372.76
623.24	1365.25
623.59	1357.90
623.93	1350.49
624.28	1343.24
624.62	1335.80
624.97	1328.79
625.32	1322.11
625.66	1315.06
626.01	1307.69
626.35	1300.27
626.70	1292.52
627.04	1284.85
627.39	1277.10
627.73	1269.69
628.08	1262.75
628.43	1255.46
628.77	1248.13
629.12	1240.50
629.46	1233.35
629.81	1225.92
630.15	1218.85
630.50	1211.45
630.84	1203.16
631.19	1195.32
631.53	1187.93
631.88	1180.33
632.22	1172.60
632.57	1165.35
632.91	1157.76
633.26	1150.48
633.60	1143.21
633.95	1136.22
634.29	1129.25
634.64	1122.60
634.98	1115.16
635.32	1108.04
635.67	1101.48
636.01	1094.79
636.36	1088.03
636.70	1081.55
637.05	1075.03
637.39	1068.53
637.73	1062.01
638.08	1056.24
638.42	1050.13
638.77	1043.59
639.11	1037.04
639.45	1030.84
639.80	1024.10
640.14	1017.66
640.49	1011.12
640.83	1004.73
641.17	998.37
641.52	992.02
641.86	985.69
642.20	979.96
642.55	973.66
642.89	967.05
643.23	960.53
643.58	954.74
643.92	948.59
644.26	942.35
644.61	936.36
644.95	930.36
645.29	923.69
645.64	917.01
645.98	910.73
646.32	904.91
646.66	898.74
647.01	893.06
647.35	887.41
647.69	881.58
648.04	876.14
648.38	870.36
648.72	864.27
649.06	858.09
649.41	852.15
649.75	846.08
650.09	840.12
650.43	834.33
650.78	828.15
651.12	822.13
651.46	816.48
651.80	810.66
652.14	805.23
652.49	799.89
652.83	794.58
653.17	788.82
653.51	783.06
653.85	777.74
654.20	772.05
654.54	766.04
654.88	760.34
655.22	754.44
655.56	748.78
655.90	743.43
656.25	738.16
656.59	732.85
656.93	727.81
657.27	722.70
657.61	717.27
657.95	712.23
658.29	707.20
658.64	702.01
658.98	696.68
659.32	691.20
659.66	686.05
660.00	680.82
660.34	676.02
660.68	671.17
661.02	666.12
661.36	661.39
661.70	656.99
662.05	652.62
662.39	648.25
662.73	643.96
663.07	639.53
663.41	635.10
663.75	630.58
664.09	626.09
664.43	621.80
664.77	617.75
665.11	613.53
665.45	609.47
665.79	605.45
666.13	601.46
666.47	597.47
666.81	593.25
667.15	589.20
667.49	585.29
667.83	581.59
668.17	577.75
668.51	573.77
668.85	569.77
669.19	565.97
669.53	562.19
669.87	558.25
670.21	554.66
670.55	551.13
670.89	547.79
671.23	544.37
671.57	540.80
671.91	537.28
672.25	533.84
672.58	530.33
672.92	526.96
673.26	523.79
673.60	520.65
673.94	517.61
674.28	514.75
674.62	511.77
674.96	508.60
675.30	505.69
675.64	502.84
675.97	500.09
676.31	497.21
676.65	494.26
676.99	491.60
677.33	488.78
677.67	485.90
678.01	482.85
678.34	479.86
678.68	477.06
679.02	474.27
679.36	471.57
679.70	468.81
680.04	466.02
680.37	463.08
680.71	460.32
681.05	457.69
681.39	454.98
681.73	452.39
682.06	449.80
682.40	447.18
682.74	444.56
683.08	442.00
683.42	439.45
683.75	436.99
684.09	434.41
684.43	431.91
684.77	429.46
685.10	427.10
685.44	424.77
685.78	422.41
686.12	420.17
686.45	417.81
686.79	415.55
687.13	413.39
687.46	411.26
687.80	409.10
688.14	406.89
688.48	404.78
688.81	402.47
689.15	400.35
689.49	398.26
689.82	396.19
690.16	394.09
690.50	392.04
690.83	390.02
691.17	388.01
691.51	386.08
691.84	384.23
692.18	382.29
692.52	380.33
692.85	378.44
693.19	376.51
693.52	374.71
693.86	372.88
694.20	371.07
694.53	369.24
694.87	367.40
695.21	365.62
695.54	363.78
695.88	362.11
696.21	360.42
696.55	358.73
696.88	357.06
697.22	355.41
697.56	353.88
697.89	352.27
698.23	350.68
698.56	349.07
698.90	347.47
699.23	345.78
699.57	344.23
699.90	342.70
700.24	341.20
700.58	339.63
700.91	338.13
701.25	336.70
701.58	335.40
701.92	334.07
702.25	332.69
702.59	331.35
702.92	330.02
703.26	328.70
703.59	327.44
703.93	326.27
704.26	325.07
704.60	323.76
704.93	322.48
705.26	321.24
705.60	320.09
705.93	319.01
706.27	318.07
706.60	317.01
706.94	315.96
707.27	314.87
707.61	313.84
707.94	312.86
708.27	311.78
708.61	310.68
708.94	309.66
709.28	308.70
709.61	307.76
709.94	306.86
710.28	305.86
710.61	304.84
710.95	303.79
711.28	302.91
711.61	301.98
711.95	301.10
712.28	300.18
712.61	299.24
712.95	298.29
713.28	297.41
713.61	296.56
713.95	295.68
714.28	294.85
714.61	293.98
714.95	293.17
715.28	292.33
715.61	291.47
715.95	290.65
716.28	289.78
716.61	289.00
716.95	288.16
717.28	287.42
717.61	286.71
717.94	285.99
718.28	285.17
718.61	284.46
718.94	283.81
719.27	283.16
719.61	282.49
719.94	281.81
720.27	281.10
720.60	280.43
720.94	279.81
721.27	279.18
721.60	278.62
721.93	278.01
722.27	277.43
722.60	276.85
722.93	276.26
723.26	275.73
723.59	275.15
723.93	274.60
724.26	274.05
724.59	273.52
724.92	272.97
725.25	272.47
725.59	271.93
725.92	271.38
726.25	270.83
726.58	270.34
726.91	269.88
727.24	269.37
727.57	268.89
727.91	268.35
728.24	267.88
728.57	267.35
728.90	266.90
729.23	266.44
729.56	266.06
729.89	265.61
730.22	265.08
730.55	264.59
730.89	264.10
731.22	263.64
731.55	263.16
731.88	262.71
732.21	262.26
732.54	261.81
732.87	261.40
733.20	261.02
733.53	260.62
733.86	260.24
734.19	259.86
734.52	259.46
734.85	259.15
735.18	258.75
735.51	258.39
735.84	258.01
736.17	257.63
736.50	257.14
736.83	256.88
737.16	256.59
737.49	256.28
737.82	255.94
738.15	255.62
738.48	255.26
738.81	254.93
739.14	254.61
739.47	254.30
739.80	253.97
740.13	253.63
740.46	253.30
740.79	252.98
741.12	252.69
741.45	252.40
741.78	252.08
742.11	251.80
742.44	251.47
742.77	251.16
743.10	250.87
743.43	250.64
743.75	250.27
744.08	250.13
744.41	249.82
744.74	249.57
745.07	249.31
745.40	249.07
745.73	248.87
746.06	248.61
746.39	248.35
746.71	248.07
747.04	247.82
747.37	247.56
747.70	247.26
748.03	246.96
748.36	246.76
748.68	246.51
749.01	246.22
749.34	246.01
749.67	245.80
750.00	245.59
750.33	245.42
750.65	245.22
750.98	244.86
751.31	244.65
751.64	244.48
751.97	244.30
752.29	244.12
752.62	243.84
752.95	243.64
753.28	243.43
753.60	243.24
753.93	243.07
754.26	242.89
754.59	242.70
754.91	242.54
755.24	242.35
755.57	242.18
755.90	242.05
756.22	241.89
756.55	241.71
756.88	241.47
757.20	241.27
757.53	241.08
757.86	240.96
758.19	240.83
758.51	240.65
758.84	240.45
759.17	240.28
759.49	240.18
759.82	240.06
760.15	239.95
760.47	239.85
760.80	239.71
761.13	239.57
761.45	239.42
761.78	239.30
762.11	239.15
762.43	239.00
762.76	238.86
763.08	238.70
763.41	238.58
763.74	238.48
764.06	238.34
764.39	238.19
764.71	238.03
765.04	237.88
765.37	237.73
765.69	237.59
766.02	237.45
766.34	237.29
766.67	237.14
767.00	237.00
767.32	236.90
767.65	236.82
767.97	236.72
768.30	236.62
768.62	236.49
768.95	236.34
769.27	236.22
769.60	236.11
769.92	235.98
770.25	235.83
770.57	235.66
770.90	235.54
771.22	235.41
771.55	235.27
771.87	235.17
772.20	235.08
772.52	235.05
772.85	235.04
773.17	234.94
773.50	234.81
773.82	234.70
774.15	234.54
774.47	234.35
774.80	234.23
775.12	234.14
775.45	234.04
775.77	233.95
776.09	233.86
776.42	233.80
776.74	233.73
777.07	233.63
777.39	233.55
777.72	233.47
778.04	233.39
778.36	233.29
778.69	233.22
779.01	233.16
779.33	233.02
779.66	232.81
779.98	232.72
780.31	232.65
780.63	232.60
780.95	232.56
781.28	232.52
781.60	232.45
781.92	232.36
782.25	232.28
782.57	232.24
782.89	232.17
783.22	232.08
783.54	232.01
783.86	231.96
784.19	231.92
784.51	231.89
784.83	231.86
785.16	231.85
785.48	231.80
785.80	231.74
786.12	231.68
786.45	231.67
786.77	231.67
787.09	231.64
