SpectraSuite Data File
++++++++++++++++++++++++++++++++++++
Date: Fri Feb 01 15:17:32 EST 2013
User: group
Dark Spectrum Present: No
Reference Spectrum Present: No
Number of Sampled Component Spectra: 1
Spectrometers: USB2E7196
Integration Time (usec): 35000 (USB2E7196)
Spectra Averaged: 100 (USB2E7196)
Boxcar Smoothing: 10 (USB2E7196)
Correct for Electrical Dark: No (USB2E7196)
Strobe/Lamp Enabled: No (USB2E7196)
Correct for Detector Non-linearity: No (USB2E7196)
Correct for Stray Light: No (USB2E7196)
Number of Pixels in Processed Spectrum: 2048
>>>>>Begin Processed Spectral Data<<<<<
339.09	0.00
339.48	215.57
339.86	216.36
340.24	218.04
340.63	219.30
341.01	221.85
341.39	222.00
341.78	223.32
342.16	224.40
342.54	225.41
342.93	213.44
343.31	224.22
343.69	224.72
344.07	225.17
344.46	225.56
344.84	225.93
345.22	226.19
345.60	226.43
345.99	226.65
346.37	226.78
346.75	226.86
347.13	226.91
347.52	226.95
347.90	227.03
348.28	227.07
348.66	227.10
349.05	227.08
349.43	227.09
349.81	227.17
350.19	227.22
350.57	227.26
350.96	227.35
351.34	227.46
351.72	227.54
352.10	227.65
352.48	227.75
352.87	227.80
353.25	227.88
353.63	227.95
354.01	227.98
354.39	228.04
354.77	228.16
355.15	228.26
355.54	228.32
355.92	228.37
356.30	228.42
356.68	228.54
357.06	228.61
357.44	228.68
357.82	228.72
358.20	228.79
358.58	228.84
358.97	228.85
359.35	228.89
359.73	229.00
360.11	229.08
360.49	229.12
360.87	229.18
361.25	229.21
361.63	229.28
362.01	229.33
362.39	229.37
362.77	229.40
363.15	229.41
363.53	229.43
363.91	229.49
364.29	229.49
364.67	229.40
365.05	229.44
365.43	229.44
365.81	229.50
366.19	229.54
366.57	229.58
366.95	229.60
367.33	229.58
367.71	229.55
368.09	229.54
368.47	229.51
368.85	229.47
369.23	229.46
369.61	229.39
369.99	229.37
370.37	229.36
370.75	229.35
371.13	229.31
371.51	229.26
371.89	229.16
372.27	229.14
372.65	229.11
373.03	229.02
373.41	228.97
373.78	228.86
374.16	228.75
374.54	228.63
374.92	228.54
375.30	228.47
375.68	228.39
376.06	228.29
376.44	228.21
376.82	228.13
377.19	228.05
377.57	227.98
377.95	227.90
378.33	227.81
378.71	227.70
379.09	227.64
379.47	227.59
379.84	227.52
380.22	227.44
380.60	227.34
380.98	227.27
381.36	227.19
381.73	227.11
382.11	227.06
382.49	227.03
382.87	226.97
383.25	226.90
383.62	226.94
384.00	226.86
384.38	226.81
384.76	226.80
385.13	226.77
385.51	226.70
385.89	226.61
386.27	226.55
386.64	226.49
387.02	226.42
387.40	226.36
387.78	226.35
388.15	226.31
388.53	226.28
388.91	226.24
389.29	226.21
389.66	226.20
390.04	226.16
390.42	226.19
390.79	226.19
391.17	226.22
391.55	226.11
391.92	226.08
392.30	226.13
392.68	226.12
393.05	226.15
393.43	226.17
393.81	226.17
394.18	226.19
394.56	226.23
394.94	226.28
395.31	226.30
395.69	226.34
396.06	226.40
396.44	226.42
396.82	226.48
397.19	226.57
397.57	226.62
397.95	226.72
398.32	226.71
398.70	226.79
399.07	226.86
399.45	226.92
399.82	227.00
400.20	227.01
400.58	227.08
400.95	227.08
401.33	227.20
401.70	227.40
402.08	227.52
402.45	227.60
402.83	227.77
403.20	227.93
403.58	228.04
403.95	228.16
404.33	228.32
404.71	228.46
405.08	228.64
405.46	228.78
405.83	228.92
406.21	229.06
406.58	229.21
406.96	229.39
407.33	229.58
407.70	229.83
408.08	230.13
408.45	230.35
408.83	230.65
409.20	230.87
409.58	231.03
409.95	231.28
410.33	231.58
410.70	231.81
411.08	232.07
411.45	232.36
411.82	232.68
412.20	233.01
412.57	233.43
412.95	233.75
413.32	234.17
413.69	234.56
414.07	235.02
414.44	235.48
414.82	235.94
415.19	236.50
415.56	237.05
415.94	237.60
416.31	238.24
416.68	238.83
417.06	239.52
417.43	240.21
417.81	240.94
418.18	241.70
418.55	242.52
418.93	243.39
419.30	244.30
419.67	245.22
420.04	246.16
420.42	247.14
420.79	248.32
421.16	249.47
421.54	250.69
421.91	251.90
422.28	253.16
422.66	254.50
423.03	255.81
423.40	257.14
423.77	258.54
424.15	259.95
424.52	261.46
424.89	263.12
425.26	264.69
425.64	266.16
426.01	267.74
426.38	269.40
426.75	271.06
427.13	272.81
427.50	274.67
427.87	276.57
428.24	278.45
428.61	280.19
428.99	282.12
429.36	284.22
429.73	286.30
430.10	288.34
430.47	290.43
430.85	292.52
431.22	294.77
431.59	297.17
431.96	299.45
432.33	301.97
432.70	304.33
433.08	307.17
433.45	309.86
433.82	312.47
434.19	315.37
434.56	318.18
434.93	320.84
435.30	323.46
435.68	326.39
436.05	329.21
436.42	332.02
436.79	334.54
437.16	337.25
437.53	340.11
437.90	342.93
438.27	345.66
438.64	348.53
439.01	351.14
439.38	353.40
439.75	355.61
440.13	358.08
440.50	360.40
440.87	362.24
441.24	364.18
441.61	366.36
441.98	367.89
442.35	369.72
442.72	371.55
443.09	373.34
443.46	374.32
443.83	374.94
444.20	375.44
444.57	376.28
444.94	376.58
445.31	376.94
445.68	377.32
446.05	377.40
446.42	376.98
446.79	376.53
447.16	376.01
447.53	375.61
447.90	374.44
448.27	373.31
448.64	371.76
449.01	370.62
449.37	368.61
449.74	366.66
450.11	364.41
450.48	361.95
450.85	359.40
451.22	357.22
451.59	355.20
451.96	353.25
452.33	350.65
452.70	348.26
453.07	345.38
453.43	342.43
453.80	339.64
454.17	336.97
454.54	334.43
454.91	331.70
455.28	329.07
455.65	326.56
456.02	324.07
456.38	321.87
456.75	319.14
457.12	316.88
457.49	314.65
457.86	312.45
458.23	310.59
458.59	308.55
458.96	306.47
459.33	304.57
459.70	302.67
460.07	301.13
460.43	299.41
460.80	297.76
461.17	296.30
461.54	294.79
461.91	293.34
462.27	291.85
462.64	290.64
463.01	289.25
463.38	287.95
463.74	286.54
464.11	285.42
464.48	284.39
464.85	283.30
465.21	282.45
465.58	281.52
465.95	280.35
466.32	279.46
466.68	278.55
467.05	277.64
467.42	276.78
467.78	275.87
468.15	274.98
468.52	274.35
468.88	273.46
469.25	272.71
469.62	272.10
469.98	271.41
470.35	270.74
470.72	270.13
471.08	269.49
471.45	268.97
471.82	268.37
472.18	267.78
472.55	267.39
472.92	266.81
473.28	266.35
473.65	265.95
474.02	265.49
474.38	265.10
474.75	264.76
475.11	264.39
475.48	264.10
475.85	263.84
476.21	263.57
476.58	263.41
476.94	263.27
477.31	263.13
477.67	262.98
478.04	262.90
478.41	262.83
478.77	262.87
479.14	262.80
479.50	262.85
479.87	262.97
480.23	263.02
480.60	263.12
480.96	263.21
481.33	263.43
481.69	263.63
482.06	263.86
482.42	264.09
482.79	264.38
483.15	264.71
483.52	265.13
483.88	265.51
484.25	265.94
484.61	266.34
484.98	266.77
485.34	267.35
485.71	267.96
486.07	268.60
486.44	269.14
486.80	269.85
487.17	270.58
487.53	271.35
487.90	272.18
488.26	273.11
488.62	274.13
488.99	275.11
489.35	276.17
489.72	277.32
490.08	278.49
490.44	279.74
490.81	281.09
491.17	282.43
491.54	283.84
491.90	285.33
492.26	286.98
492.63	288.73
492.99	290.51
493.36	292.39
493.72	294.44
494.08	296.52
494.45	298.78
494.81	301.15
495.17	303.58
495.54	306.17
495.90	308.86
496.26	311.66
496.63	314.62
496.99	317.71
497.35	320.96
497.72	324.39
498.08	327.88
498.44	331.57
498.80	335.48
499.17	339.52
499.53	343.72
499.89	348.12
500.26	352.59
500.62	357.25
500.98	362.19
501.34	367.22
501.71	372.54
502.07	377.96
502.43	383.57
502.79	389.41
503.16	395.42
503.52	401.68
503.88	408.07
504.24	414.69
504.60	421.56
504.97	428.64
505.33	435.92
505.69	443.58
506.05	451.29
506.41	459.18
506.78	467.34
507.14	475.77
507.50	484.49
507.86	493.57
508.22	502.78
508.59	511.93
508.95	521.52
509.31	531.38
509.67	541.47
510.03	551.76
510.39	562.28
510.75	573.11
511.12	584.05
511.48	595.37
511.84	606.82
512.20	618.42
512.56	630.37
512.92	642.58
513.28	654.92
513.64	667.42
514.00	680.19
514.37	693.17
514.73	706.26
515.09	719.24
515.45	732.53
515.81	746.10
516.17	760.12
516.53	774.24
516.89	788.35
517.25	802.52
517.61	816.93
517.97	831.35
518.33	845.82
518.69	860.63
519.05	875.65
519.41	890.87
519.77	906.38
520.13	921.84
520.49	937.22
520.85	952.77
521.21	968.51
521.57	984.82
521.93	1000.73
522.29	1017.11
522.65	1033.46
523.01	1049.66
523.37	1065.67
523.73	1081.98
524.09	1098.12
524.45	1114.63
524.81	1131.36
525.17	1148.32
525.53	1165.36
525.89	1182.26
526.25	1199.16
526.61	1215.59
526.97	1232.32
527.33	1248.81
527.68	1265.45
528.04	1282.09
528.40	1298.65
528.76	1315.78
529.12	1332.38
529.48	1349.26
529.84	1365.39
530.20	1382.16
530.56	1399.36
530.91	1416.95
531.27	1433.71
531.63	1450.32
531.99	1466.99
532.35	1483.02
532.71	1498.84
533.07	1515.11
533.42	1531.06
533.78	1547.16
534.14	1563.50
534.50	1578.95
534.86	1594.92
535.21	1610.28
535.57	1626.19
535.93	1641.82
536.29	1656.62
536.65	1671.67
537.00	1686.57
537.36	1701.89
537.72	1716.53
538.08	1730.89
538.44	1744.72
538.79	1758.75
539.15	1772.56
539.51	1786.42
539.87	1800.85
540.22	1814.63
540.58	1828.53
540.94	1841.99
541.29	1854.93
541.65	1867.79
542.01	1881.19
542.37	1893.50
542.72	1905.91
543.08	1917.81
543.44	1930.26
543.79	1941.62
544.15	1952.89
544.51	1964.42
544.87	1975.58
545.22	1986.32
545.58	1996.67
545.94	2006.58
546.29	2016.48
546.65	2026.30
547.01	2035.45
547.36	2044.29
547.72	2052.99
548.07	2060.91
548.43	2069.12
548.79	2077.23
549.14	2084.72
549.50	2092.14
549.86	2099.99
550.21	2107.37
550.57	2114.64
550.92	2121.17
551.28	2128.26
551.64	2135.21
551.99	2141.71
552.35	2147.68
552.70	2153.74
553.06	2159.66
553.41	2165.97
553.77	2172.03
554.13	2178.05
554.48	2184.15
554.84	2189.46
555.19	2194.77
555.55	2199.84
555.90	2204.37
556.26	2209.22
556.61	2213.92
556.97	2218.05
557.32	2222.16
557.68	2226.24
558.03	2230.55
558.39	2234.38
558.74	2238.97
559.10	2242.73
559.45	2246.42
559.81	2251.05
560.16	2254.97
560.52	2258.29
560.87	2261.78
561.23	2264.33
561.58	2267.32
561.94	2269.80
562.29	2272.23
562.64	2274.77
563.00	2277.37
563.35	2280.74
563.71	2283.78
564.06	2287.01
564.42	2289.76
564.77	2292.21
565.12	2294.47
565.48	2296.18
565.83	2297.83
566.19	2299.08
566.54	2300.16
566.89	2301.30
567.25	2301.66
567.60	2303.00
567.96	2304.57
568.31	2305.19
568.66	2306.19
569.02	2306.73
569.37	2307.03
569.72	2307.67
570.08	2307.74
570.43	2307.68
570.78	2307.06
571.14	2305.53
571.49	2304.11
571.84	2303.71
572.20	2302.41
572.55	2301.34
572.90	2299.80
573.26	2298.43
573.61	2296.72
573.96	2294.68
574.31	2291.54
574.67	2288.29
575.02	2284.39
575.37	2280.87
575.72	2276.84
576.08	2273.44
576.43	2270.05
576.78	2266.25
577.13	2263.16
577.49	2260.06
577.84	2256.33
578.19	2252.48
578.54	2248.70
578.90	2244.23
579.25	2238.67
579.60	2233.58
579.95	2228.37
580.30	2223.19
580.66	2217.78
581.01	2212.66
581.36	2207.72
581.71	2203.33
582.06	2198.84
582.42	2194.38
582.77	2189.15
583.12	2184.56
583.47	2179.63
583.82	2174.49
584.17	2169.25
584.53	2163.57
584.88	2157.78
585.23	2151.99
585.58	2146.50
585.93	2140.94
586.28	2136.09
586.63	2130.96
586.98	2125.84
587.34	2121.06
587.69	2116.02
588.04	2110.71
588.39	2104.96
588.74	2098.45
589.09	2092.32
589.44	2085.49
589.79	2079.37
590.14	2073.62
590.49	2067.05
590.84	2060.69
591.19	2054.65
591.54	2048.03
591.89	2040.52
592.25	2033.61
592.60	2026.35
592.95	2018.60
593.30	2011.18
593.65	2003.59
594.00	1996.50
594.35	1989.05
594.70	1980.97
595.05	1973.65
595.40	1966.44
595.75	1958.92
596.10	1952.49
596.45	1945.65
596.80	1939.44
597.15	1932.68
597.50	1925.38
597.85	1918.87
598.19	1912.10
598.54	1904.87
598.89	1898.23
599.24	1892.34
599.59	1885.59
599.94	1879.38
600.29	1873.05
600.64	1866.38
600.99	1858.92
601.34	1851.96
601.69	1845.08
602.04	1838.12
602.39	1830.79
602.74	1823.88
603.08	1817.12
603.43	1810.46
603.78	1803.11
604.13	1795.83
604.48	1788.52
604.83	1781.83
605.18	1774.84
605.53	1766.81
605.87	1758.76
606.22	1751.55
606.57	1743.58
606.92	1736.28
607.27	1728.98
607.62	1722.01
607.96	1714.68
608.31	1707.93
608.66	1700.21
609.01	1692.63
609.36	1685.09
609.70	1677.00
610.05	1668.94
610.40	1661.26
610.75	1652.88
611.10	1645.23
611.44	1636.83
611.79	1628.89
612.14	1619.97
612.49	1610.74
612.83	1602.44
613.18	1594.33
613.53	1586.14
613.88	1577.67
614.22	1569.36
614.57	1560.82
614.92	1552.76
615.27	1545.32
615.61	1536.96
615.96	1529.02
616.31	1521.41
616.65	1514.19
617.00	1506.67
617.35	1498.98
617.70	1490.48
618.04	1482.00
618.39	1473.88
618.74	1466.29
619.08	1458.04
619.43	1450.58
619.78	1443.73
620.12	1436.63
620.47	1429.02
620.82	1420.94
621.16	1413.41
621.51	1405.85
621.85	1398.34
622.20	1389.77
622.55	1381.42
622.89	1373.68
623.24	1366.12
623.59	1358.74
623.93	1351.11
624.28	1343.82
624.62	1336.36
624.97	1329.28
625.32	1322.60
625.66	1315.54
626.01	1308.34
626.35	1300.72
626.70	1292.93
627.04	1285.18
627.39	1277.36
627.73	1270.07
628.08	1263.04
628.43	1255.75
628.77	1248.38
629.12	1240.74
629.46	1233.64
629.81	1226.19
630.15	1219.04
630.50	1211.62
630.84	1203.47
631.19	1195.58
631.53	1188.27
631.88	1180.60
632.22	1173.02
632.57	1165.59
632.91	1158.03
633.26	1150.61
633.60	1143.37
633.95	1136.35
634.29	1129.43
634.64	1122.77
634.98	1115.32
635.32	1108.30
635.67	1101.75
636.01	1095.05
636.36	1088.21
636.70	1081.78
637.05	1075.22
637.39	1068.73
637.73	1062.22
638.08	1056.40
638.42	1050.34
638.77	1043.82
639.11	1037.24
639.45	1030.91
639.80	1024.28
640.14	1017.88
640.49	1011.34
640.83	1005.00
641.17	998.76
641.52	992.41
641.86	986.07
642.20	980.31
642.55	974.00
642.89	967.45
643.23	960.96
643.58	955.24
643.92	949.00
644.26	942.93
644.61	936.88
644.95	930.90
645.29	924.18
645.64	917.54
645.98	911.26
646.32	905.57
646.66	899.53
647.01	893.84
647.35	888.16
647.69	882.37
648.04	876.93
648.38	871.17
648.72	865.03
649.06	858.88
649.41	852.98
649.75	846.87
650.09	840.98
650.43	835.19
650.78	829.05
651.12	823.10
651.46	817.33
651.80	811.62
652.14	806.16
652.49	800.84
652.83	795.62
653.17	789.92
653.51	784.12
653.85	778.66
654.20	772.95
654.54	766.91
654.88	761.24
655.22	755.36
655.56	749.64
655.90	744.32
656.25	739.05
656.59	733.68
656.93	728.66
657.27	723.48
657.61	718.06
657.95	712.96
658.29	707.88
658.64	702.74
658.98	697.43
659.32	692.01
659.66	686.84
660.00	681.50
660.34	676.58
660.68	671.64
661.02	666.64
661.36	661.89
661.70	657.44
662.05	653.03
662.39	648.71
662.73	644.27
663.07	639.87
663.41	635.43
663.75	630.96
664.09	626.46
664.43	622.13
664.77	618.09
665.11	613.83
665.45	609.75
665.79	605.59
666.13	601.51
666.47	597.46
666.81	593.28
667.15	589.24
667.49	585.35
667.83	581.61
668.17	577.70
668.51	573.73
668.85	569.70
669.19	565.90
669.53	562.00
669.87	558.13
670.21	554.45
670.55	550.81
670.89	547.37
671.23	543.98
671.57	540.47
671.91	536.86
672.25	533.43
672.58	529.88
672.92	526.54
673.26	523.42
673.60	520.25
673.94	517.19
674.28	514.27
674.62	511.32
674.96	508.18
675.30	505.29
675.64	502.32
675.97	499.62
676.31	496.75
676.65	493.87
676.99	491.19
677.33	488.36
677.67	485.62
678.01	482.65
678.34	479.66
678.68	476.82
679.02	474.08
679.36	471.30
679.70	468.57
680.04	465.80
680.37	462.85
680.71	460.08
681.05	457.42
681.39	454.69
681.73	452.04
682.06	449.53
682.40	446.97
682.74	444.52
683.08	441.96
683.42	439.32
683.75	436.82
684.09	434.32
684.43	431.84
684.77	429.35
685.10	427.00
685.44	424.69
685.78	422.40
686.12	420.11
686.45	417.80
686.79	415.54
687.13	413.35
687.46	411.18
687.80	409.03
688.14	406.83
688.48	404.80
688.81	402.55
689.15	400.42
689.49	398.28
689.82	396.14
690.16	394.03
690.50	392.13
690.83	390.24
691.17	388.21
691.51	386.34
691.84	384.47
692.18	382.50
692.52	380.56
692.85	378.66
693.19	376.80
693.52	375.04
693.86	373.22
694.20	371.47
694.53	369.67
694.87	367.84
695.21	366.10
695.54	364.25
695.88	362.53
696.21	360.81
696.55	359.17
696.88	357.52
697.22	355.89
697.56	354.27
697.89	352.58
698.23	350.98
698.56	349.35
698.90	347.78
699.23	346.17
699.57	344.62
699.90	343.09
700.24	341.61
700.58	340.08
700.91	338.59
701.25	337.17
701.58	335.83
701.92	334.44
702.25	333.06
702.59	331.74
702.92	330.43
703.26	329.13
703.59	327.83
703.93	326.63
704.26	325.40
704.60	324.11
704.93	322.83
705.26	321.60
705.60	320.42
705.93	319.28
706.27	318.21
706.60	317.17
706.94	316.09
707.27	314.93
707.61	313.89
707.94	312.91
708.27	311.77
708.61	310.72
708.94	309.72
709.28	308.76
709.61	307.80
709.94	306.87
710.28	305.87
710.61	304.88
710.95	303.82
711.28	302.91
711.61	301.96
711.95	301.06
712.28	300.11
712.61	299.12
712.95	298.21
713.28	297.38
713.61	296.44
713.95	295.53
714.28	294.69
714.61	293.79
714.95	292.91
715.28	292.09
715.61	291.20
715.95	290.37
716.28	289.50
716.61	288.67
716.95	287.86
717.28	287.14
717.61	286.39
717.94	285.66
718.28	284.85
718.61	284.13
718.94	283.44
719.27	282.77
719.61	282.12
719.94	281.44
720.27	280.69
720.60	280.01
720.94	279.40
721.27	278.80
721.60	278.21
721.93	277.64
722.27	277.08
722.60	276.55
722.93	275.97
723.26	275.41
723.59	274.86
723.93	274.30
724.26	273.73
724.59	273.19
724.92	272.71
725.25	272.21
725.59	271.70
725.92	271.23
726.25	270.75
726.58	270.28
726.91	269.79
727.24	269.36
727.57	268.89
727.91	268.37
728.24	267.95
728.57	267.45
728.90	266.98
729.23	266.49
729.56	266.04
729.89	265.60
730.22	265.13
730.55	264.66
730.89	264.24
731.22	263.76
731.55	263.31
731.88	262.86
732.21	262.46
732.54	262.01
732.87	261.60
733.20	261.17
733.53	260.78
733.86	260.39
734.19	259.98
734.52	259.64
734.85	259.36
735.18	258.89
735.51	258.56
735.84	258.18
736.17	257.84
736.50	257.42
736.83	257.17
737.16	256.86
737.49	256.53
737.82	256.18
738.15	255.82
738.48	255.46
738.81	255.09
739.14	254.73
739.47	254.44
739.80	254.08
740.13	253.79
740.46	253.44
740.79	253.13
741.12	252.82
741.45	252.52
741.78	252.15
742.11	251.86
742.44	251.54
742.77	251.27
743.10	250.97
743.43	250.68
743.75	250.28
744.08	250.11
744.41	249.84
744.74	249.56
745.07	249.31
745.40	249.11
745.73	248.90
746.06	248.63
746.39	248.39
746.71	248.12
747.04	247.86
747.37	247.60
747.70	247.36
748.03	247.11
748.36	246.86
748.68	246.63
749.01	246.42
749.34	246.20
749.67	245.96
750.00	245.74
750.33	245.61
750.65	245.41
750.98	245.08
751.31	244.87
751.64	244.65
751.97	244.51
752.29	244.28
752.62	244.01
752.95	243.78
753.28	243.53
753.60	243.35
753.93	243.18
754.26	243.00
754.59	242.77
754.91	242.57
755.24	242.38
755.57	242.18
755.90	242.01
756.22	241.80
756.55	241.60
756.88	241.39
757.20	241.15
757.53	240.96
757.86	240.81
758.19	240.63
758.51	240.48
758.84	240.27
759.17	240.10
759.49	239.98
759.82	239.87
760.15	239.74
760.47	239.59
760.80	239.38
761.13	239.25
761.45	239.08
761.78	238.92
762.11	238.75
762.43	238.60
762.76	238.43
763.08	238.31
763.41	238.16
763.74	238.04
764.06	237.90
764.39	237.76
764.71	237.62
765.04	237.47
765.37	237.31
765.69	237.17
766.02	237.01
766.34	236.88
766.67	236.73
767.00	236.61
767.32	236.50
767.65	236.45
767.97	236.31
768.30	236.22
768.62	236.09
768.95	235.94
769.27	235.81
769.60	235.69
769.92	235.55
770.25	235.45
770.57	235.34
770.90	235.22
771.22	235.12
771.55	235.00
771.87	234.93
772.20	234.85
772.52	234.82
772.85	234.87
773.17	234.76
773.50	234.68
773.82	234.59
774.15	234.49
774.47	234.34
774.80	234.25
775.12	234.13
775.45	234.08
775.77	234.02
776.09	233.97
776.42	233.91
776.74	233.86
777.07	233.77
777.39	233.64
777.72	233.54
778.04	233.49
778.36	233.42
778.69	233.34
779.01	233.28
779.33	233.13
779.66	232.95
779.98	232.88
780.31	232.81
780.63	232.81
780.95	232.79
781.28	232.72
781.60	232.63
781.92	232.61
782.25	232.54
782.57	232.49
782.89	232.41
783.22	232.35
783.54	232.30
783.86	232.26
784.19	232.25
784.51	232.27
784.83	232.16
785.16	232.09
785.48	232.04
785.80	232.00
786.12	231.95
786.45	231.90
786.77	231.84
787.09	231.79
