SpectraSuite Data File
++++++++++++++++++++++++++++++++++++
Date: Fri Feb 01 17:40:39 EST 2013
User: group
Dark Spectrum Present: No
Reference Spectrum Present: No
Number of Sampled Component Spectra: 1
Spectrometers: USB2E7196
Integration Time (usec): 35000 (USB2E7196)
Spectra Averaged: 100 (USB2E7196)
Boxcar Smoothing: 10 (USB2E7196)
Correct for Electrical Dark: No (USB2E7196)
Strobe/Lamp Enabled: No (USB2E7196)
Correct for Detector Non-linearity: No (USB2E7196)
Correct for Stray Light: No (USB2E7196)
Number of Pixels in Processed Spectrum: 2048
>>>>>Begin Processed Spectral Data<<<<<
339.09	0.00
339.48	213.36
339.86	214.56
340.24	215.70
340.63	217.58
341.01	219.87
341.39	219.48
341.78	221.31
342.16	222.03
342.54	223.26
342.93	211.33
343.31	222.01
343.69	222.50
344.07	222.96
344.46	223.38
344.84	223.70
345.22	223.94
345.60	224.19
345.99	224.35
346.37	224.50
346.75	224.56
347.13	224.64
347.52	224.71
347.90	224.75
348.28	224.78
348.66	224.82
349.05	224.81
349.43	224.89
349.81	224.94
350.19	224.99
350.57	225.04
350.96	225.10
351.34	225.18
351.72	225.29
352.10	225.35
352.48	225.42
352.87	225.47
353.25	225.51
353.63	225.59
354.01	225.71
354.39	225.78
354.77	225.85
355.15	225.96
355.54	226.00
355.92	226.03
356.30	226.11
356.68	226.24
357.06	226.31
357.44	226.33
357.82	226.38
358.20	226.43
358.58	226.49
358.97	226.56
359.35	226.60
359.73	226.70
360.11	226.76
360.49	226.80
360.87	226.89
361.25	226.95
361.63	227.01
362.01	227.02
362.39	227.04
362.77	227.11
363.15	227.12
363.53	227.18
363.91	227.20
364.29	227.23
364.67	227.14
365.05	227.18
365.43	227.19
365.81	227.19
366.19	227.27
366.57	227.32
366.95	227.28
367.33	227.26
367.71	227.23
368.09	227.24
368.47	227.25
368.85	227.19
369.23	227.19
369.61	227.14
369.99	227.18
370.37	227.16
370.75	227.18
371.13	227.13
371.51	227.07
371.89	227.05
372.27	227.01
372.65	227.01
373.03	226.96
373.41	226.93
373.78	226.87
374.16	226.76
374.54	226.64
374.92	226.63
375.30	226.60
375.68	226.54
376.06	226.48
376.44	226.41
376.82	226.44
377.19	226.36
377.57	226.28
377.95	226.15
378.33	226.10
378.71	225.97
379.09	225.93
379.47	225.89
379.84	225.81
380.22	225.76
380.60	225.69
380.98	225.62
381.36	225.58
381.73	225.52
382.11	225.48
382.49	225.47
382.87	225.38
383.25	225.34
383.62	225.42
384.00	225.38
384.38	225.34
384.76	225.28
385.13	225.34
385.51	225.30
385.89	225.24
386.27	225.17
386.64	225.15
387.02	225.10
387.40	225.05
387.78	225.04
388.15	224.98
388.53	224.96
388.91	224.94
389.29	224.87
389.66	224.90
390.04	224.87
390.42	224.85
390.79	224.85
391.17	224.82
391.55	224.68
391.92	224.67
392.30	224.68
392.68	224.64
393.05	224.58
393.43	224.60
393.81	224.65
394.18	224.63
394.56	224.64
394.94	224.68
395.31	224.66
395.69	224.70
396.06	224.71
396.44	224.72
396.82	224.72
397.19	224.82
397.57	224.83
397.95	224.89
398.32	224.90
398.70	224.94
399.07	225.01
399.45	225.06
399.82	225.09
400.20	225.11
400.58	225.16
400.95	225.17
401.33	225.23
401.70	225.37
402.08	225.47
402.45	225.55
402.83	225.67
403.20	225.77
403.58	225.84
403.95	225.99
404.33	226.10
404.71	226.21
405.08	226.39
405.46	226.50
405.83	226.64
406.21	226.77
406.58	226.94
406.96	227.10
407.33	227.26
407.70	227.45
408.08	227.75
408.45	228.00
408.83	228.28
409.20	228.53
409.58	228.69
409.95	228.94
410.33	229.27
410.70	229.52
411.08	229.84
411.45	230.20
411.82	230.51
412.20	230.90
412.57	231.34
412.95	231.63
413.32	232.09
413.69	232.51
414.07	233.03
414.44	233.57
414.82	234.03
415.19	234.65
415.56	235.25
415.94	235.82
416.31	236.50
416.68	237.18
417.06	237.93
417.43	238.68
417.81	239.56
418.18	240.37
418.55	241.30
418.93	242.26
419.30	243.23
419.67	244.28
420.04	245.32
420.42	246.43
420.79	247.73
421.16	249.02
421.54	250.37
421.91	251.67
422.28	253.02
422.66	254.52
423.03	255.98
423.40	257.45
423.77	258.99
424.15	260.56
424.52	262.17
424.89	263.99
425.26	265.73
425.64	267.33
426.01	269.09
426.38	270.93
426.75	272.79
427.13	274.69
427.50	276.68
427.87	278.77
428.24	280.85
428.61	282.79
428.99	284.91
429.36	287.24
429.73	289.58
430.10	291.87
430.47	294.17
430.85	296.52
431.22	299.02
431.59	301.66
431.96	304.18
432.33	306.96
432.70	309.56
433.08	312.66
433.45	315.61
433.82	318.49
434.19	321.67
434.56	324.80
434.93	327.75
435.30	330.65
435.68	333.85
436.05	336.99
436.42	340.14
436.79	342.92
437.16	345.87
437.53	348.95
437.90	352.01
438.27	355.06
438.64	358.17
439.01	361.03
439.38	363.53
439.75	365.92
440.13	368.66
440.50	371.29
440.87	373.35
441.24	375.45
441.61	377.89
441.98	379.59
442.35	381.57
442.72	383.64
443.09	385.71
443.46	386.84
443.83	387.49
444.20	388.04
444.57	388.99
444.94	389.34
445.31	389.77
445.68	390.19
446.05	390.30
446.42	389.90
446.79	389.46
447.16	388.96
447.53	388.60
447.90	387.28
448.27	386.00
448.64	384.27
449.01	383.02
449.37	380.85
449.74	378.72
450.11	376.26
450.48	373.50
450.85	370.68
451.22	368.28
451.59	366.02
451.96	363.83
452.33	360.95
452.70	358.35
453.07	355.20
453.43	351.97
453.80	348.89
454.17	345.92
454.54	343.10
454.91	340.12
455.28	337.17
455.65	334.46
456.02	331.70
456.38	329.32
456.75	326.35
457.12	323.84
457.49	321.34
457.86	318.91
458.23	316.88
458.59	314.59
458.96	312.27
459.33	310.25
459.70	308.21
460.07	306.51
460.43	304.59
460.80	302.80
461.17	301.21
461.54	299.52
461.91	297.93
462.27	296.31
462.64	294.93
463.01	293.44
463.38	292.00
463.74	290.49
464.11	289.20
464.48	288.10
464.85	286.86
465.21	285.94
465.58	284.93
465.95	283.68
466.32	282.67
466.68	281.66
467.05	280.63
467.42	279.66
467.78	278.67
468.15	277.70
468.52	276.96
468.88	276.01
469.25	275.17
469.62	274.49
469.98	273.77
470.35	273.08
470.72	272.41
471.08	271.71
471.45	271.14
471.82	270.54
472.18	269.89
472.55	269.42
472.92	268.83
473.28	268.32
473.65	267.84
474.02	267.38
474.38	266.95
474.75	266.60
475.11	266.18
475.48	265.87
475.85	265.63
476.21	265.34
476.58	265.15
476.94	264.97
477.31	264.75
477.67	264.60
478.04	264.46
478.41	264.39
478.77	264.44
479.14	264.36
479.50	264.38
479.87	264.41
480.23	264.45
480.60	264.50
480.96	264.57
481.33	264.82
481.69	265.03
482.06	265.26
482.42	265.45
482.79	265.75
483.15	266.09
483.52	266.46
483.88	266.82
484.25	267.18
484.61	267.60
484.98	268.07
485.34	268.59
485.71	269.17
486.07	269.74
486.44	270.29
486.80	271.00
487.17	271.67
487.53	272.49
487.90	273.35
488.26	274.29
488.62	275.31
488.99	276.25
489.35	277.22
489.72	278.31
490.08	279.50
490.44	280.71
490.81	282.02
491.17	283.35
491.54	284.81
491.90	286.32
492.26	287.95
492.63	289.65
492.99	291.42
493.36	293.27
493.72	295.30
494.08	297.40
494.45	299.63
494.81	302.00
495.17	304.41
495.54	306.94
495.90	309.60
496.26	312.35
496.63	315.27
496.99	318.40
497.35	321.65
497.72	325.07
498.08	328.62
498.44	332.31
498.80	336.22
499.17	340.32
499.53	344.56
499.89	348.96
500.26	353.49
500.62	358.17
500.98	363.16
501.34	368.26
501.71	373.54
502.07	378.93
502.43	384.53
502.79	390.31
503.16	396.39
503.52	402.63
503.88	409.02
504.24	415.62
504.60	422.47
504.97	429.57
505.33	436.82
505.69	444.48
506.05	452.24
506.41	460.08
506.78	468.15
507.14	476.53
507.50	485.20
507.86	494.21
508.22	503.44
508.59	512.64
508.95	522.17
509.31	532.00
509.67	542.15
510.03	552.36
510.39	562.89
510.75	573.62
511.12	584.48
511.48	595.70
511.84	607.12
512.20	618.60
512.56	630.49
512.92	642.56
513.28	654.87
513.64	667.30
514.00	679.94
514.37	692.86
514.73	705.83
515.09	718.72
515.45	731.96
515.81	745.46
516.17	759.37
516.53	773.41
516.89	787.51
517.25	801.50
517.61	815.97
517.97	830.40
518.33	844.83
518.69	859.68
519.05	874.57
519.41	889.67
519.77	905.01
520.13	920.41
520.49	935.83
520.85	951.06
521.21	966.59
521.57	982.81
521.93	998.50
522.29	1014.77
522.65	1031.16
523.01	1047.27
523.37	1063.17
523.73	1079.24
524.09	1095.19
524.45	1111.29
524.81	1127.88
525.17	1144.42
525.53	1161.23
525.89	1178.02
526.25	1194.74
526.61	1211.18
526.97	1227.94
527.33	1244.63
527.68	1261.24
528.04	1277.73
528.40	1294.37
528.76	1311.52
529.12	1328.09
529.48	1344.99
529.84	1360.98
530.20	1377.53
530.56	1394.48
530.91	1412.00
531.27	1428.81
531.63	1445.47
531.99	1462.18
532.35	1478.42
532.71	1494.57
533.07	1510.98
533.42	1527.08
533.78	1543.37
534.14	1559.72
534.50	1575.18
534.86	1591.07
535.21	1606.39
535.57	1622.48
535.93	1638.15
536.29	1653.08
536.65	1668.35
537.00	1683.21
537.36	1698.91
537.72	1713.63
538.08	1728.49
538.44	1742.49
538.79	1756.61
539.15	1770.36
539.51	1784.32
539.87	1798.81
540.22	1812.76
540.58	1826.79
540.94	1840.23
541.29	1853.15
541.65	1866.14
542.01	1879.72
542.37	1892.52
542.72	1905.29
543.08	1917.61
543.44	1930.48
543.79	1942.27
544.15	1953.65
544.51	1965.82
544.87	1977.11
545.22	1988.44
545.58	1998.99
545.94	2009.35
546.29	2019.85
546.65	2030.36
547.01	2040.24
547.36	2049.57
547.72	2058.75
548.07	2067.30
548.43	2076.08
548.79	2084.55
549.14	2092.74
549.50	2100.64
549.86	2108.70
550.21	2116.62
550.57	2124.34
550.92	2131.47
551.28	2139.06
551.64	2146.70
551.99	2153.86
552.35	2160.74
552.70	2167.36
553.06	2174.08
553.41	2181.00
553.77	2187.44
554.13	2194.07
554.48	2200.86
554.84	2207.20
555.19	2212.88
555.55	2218.52
555.90	2223.75
556.26	2229.59
556.61	2234.94
556.97	2239.96
557.32	2244.90
557.68	2249.63
558.03	2254.20
558.39	2258.52
558.74	2263.73
559.10	2268.22
559.45	2272.31
559.81	2276.90
560.16	2281.46
560.52	2285.33
560.87	2289.32
561.23	2292.75
561.58	2296.22
561.94	2299.27
562.29	2301.84
562.64	2305.46
563.00	2308.70
563.35	2312.68
563.71	2316.32
564.06	2320.12
564.42	2323.73
564.77	2326.89
565.12	2329.97
565.48	2332.80
565.83	2335.36
566.19	2337.40
566.54	2338.79
566.89	2340.83
567.25	2342.23
567.60	2343.98
567.96	2346.21
568.31	2347.64
568.66	2349.36
569.02	2350.62
569.37	2351.59
569.72	2353.10
570.08	2353.76
570.43	2354.21
570.78	2354.33
571.14	2353.41
571.49	2352.46
571.84	2352.33
572.20	2351.65
572.55	2351.06
572.90	2349.79
573.26	2348.80
573.61	2347.29
573.96	2346.19
574.31	2343.46
574.67	2341.07
575.02	2337.95
575.37	2334.75
575.72	2331.30
576.08	2328.00
576.43	2324.72
576.78	2321.58
577.13	2318.60
577.49	2315.55
577.84	2312.61
578.19	2309.09
578.54	2305.75
578.90	2302.02
579.25	2296.83
579.60	2292.26
579.95	2287.61
580.30	2282.87
580.66	2277.99
581.01	2273.35
581.36	2268.52
581.71	2264.72
582.06	2260.45
582.42	2256.27
582.77	2251.42
583.12	2247.09
583.47	2242.93
583.82	2238.41
584.17	2233.33
584.53	2228.15
584.88	2222.93
585.23	2217.35
585.58	2211.93
585.93	2206.62
586.28	2201.65
586.63	2196.79
586.98	2191.61
587.34	2186.86
587.69	2182.02
588.04	2176.99
588.39	2171.39
588.74	2165.08
589.09	2158.86
589.44	2152.22
589.79	2145.88
590.14	2140.15
590.49	2133.68
590.84	2127.08
591.19	2121.09
591.54	2114.53
591.89	2107.36
592.25	2100.55
592.60	2093.11
592.95	2085.69
593.30	2078.37
593.65	2070.85
594.00	2063.65
594.35	2056.47
594.70	2048.25
595.05	2041.10
595.40	2033.57
595.75	2026.07
596.10	2019.87
596.45	2013.19
596.80	2006.96
597.15	2000.53
597.50	1993.63
597.85	1987.05
598.19	1980.43
598.54	1973.52
598.89	1966.93
599.24	1960.85
599.59	1954.16
599.94	1947.87
600.29	1941.39
600.64	1934.55
600.99	1927.18
601.34	1920.32
601.69	1913.07
602.04	1906.19
602.39	1898.70
602.74	1891.68
603.08	1884.92
603.43	1877.90
603.78	1870.42
604.13	1862.95
604.48	1855.68
604.83	1848.64
605.18	1841.68
605.53	1833.54
605.87	1825.24
606.22	1817.58
606.57	1809.34
606.92	1801.48
607.27	1794.30
607.62	1787.26
607.96	1779.95
608.31	1773.19
608.66	1765.36
609.01	1757.75
609.36	1750.02
609.70	1741.79
610.05	1733.60
610.40	1725.52
610.75	1717.11
611.10	1709.14
611.44	1700.30
611.79	1691.89
612.14	1682.83
612.49	1673.16
612.83	1664.39
613.18	1655.71
613.53	1647.30
613.88	1638.52
614.22	1630.02
614.57	1620.82
614.92	1612.29
615.27	1604.43
615.61	1595.75
615.96	1587.42
616.31	1579.22
616.65	1571.47
617.00	1563.62
617.35	1555.63
617.70	1546.97
618.04	1538.11
618.39	1529.42
618.74	1521.58
619.08	1512.85
619.43	1504.95
619.78	1497.64
620.12	1490.22
620.47	1482.39
620.82	1473.74
621.16	1465.77
621.51	1457.72
621.85	1449.74
622.20	1440.95
622.55	1432.08
622.89	1423.78
623.24	1415.62
623.59	1407.87
623.93	1399.94
624.28	1392.17
624.62	1384.24
624.97	1376.66
625.32	1369.36
625.66	1361.97
626.01	1354.46
626.35	1346.87
626.70	1338.57
627.04	1330.56
627.39	1322.28
627.73	1314.38
628.08	1307.27
628.43	1299.86
628.77	1292.23
629.12	1284.38
629.46	1276.81
629.81	1268.84
630.15	1261.19
630.50	1253.49
630.84	1245.07
631.19	1236.63
631.53	1228.83
631.88	1220.83
632.22	1212.87
632.57	1205.25
632.91	1197.34
633.26	1189.61
633.60	1181.74
633.95	1174.25
634.29	1166.74
634.64	1159.71
634.98	1152.22
635.32	1144.78
635.67	1137.72
636.01	1130.78
636.36	1123.76
636.70	1116.92
637.05	1110.15
637.39	1103.44
637.73	1096.67
638.08	1090.50
638.42	1084.31
638.77	1077.68
639.11	1070.94
639.45	1064.31
639.80	1057.48
640.14	1050.87
640.49	1044.08
640.83	1037.52
641.17	1031.18
641.52	1024.72
641.86	1018.06
642.20	1011.91
642.55	1005.21
642.89	998.56
643.23	991.55
643.58	985.46
643.92	979.05
644.26	972.94
644.61	966.60
644.95	960.44
645.29	953.66
645.64	946.67
645.98	939.96
646.32	933.69
646.66	927.44
647.01	921.32
647.35	915.42
647.69	909.22
648.04	903.42
648.38	897.47
648.72	891.33
649.06	885.09
649.41	878.86
649.75	872.77
650.09	866.45
650.43	860.60
650.78	854.24
651.12	848.00
651.46	841.94
651.80	836.09
652.14	830.33
652.49	824.71
652.83	819.32
653.17	813.53
653.51	807.72
653.85	802.00
654.20	796.22
654.54	789.95
654.88	783.95
655.22	777.77
655.56	771.73
655.90	765.96
656.25	760.50
656.59	755.04
656.93	749.67
657.27	744.50
657.61	738.86
657.95	733.57
658.29	728.27
658.64	722.74
658.98	717.16
659.32	711.55
659.66	706.17
660.00	700.67
660.34	695.50
660.68	690.48
661.02	685.29
661.36	680.40
661.70	675.75
662.05	671.25
662.39	666.90
662.73	662.29
663.07	657.75
663.41	653.10
663.75	648.44
664.09	643.64
664.43	639.04
664.77	634.82
665.11	630.48
665.45	626.24
665.79	622.14
666.13	617.93
666.47	613.64
666.81	609.31
667.15	605.08
667.49	601.01
667.83	596.94
668.17	592.84
668.51	588.60
668.85	584.38
669.19	580.34
669.53	576.35
669.87	572.34
670.21	568.47
670.55	564.66
670.89	561.10
671.23	557.68
671.57	553.95
671.91	550.27
672.25	546.52
672.58	542.82
672.92	539.23
673.26	535.84
673.60	532.58
673.94	529.35
674.28	526.28
674.62	523.19
674.96	520.02
675.30	517.03
675.64	514.03
675.97	511.16
676.31	508.26
676.65	505.21
676.99	502.42
677.33	499.40
677.67	496.52
678.01	493.41
678.34	490.28
678.68	487.31
679.02	484.35
679.36	481.49
679.70	478.62
680.04	475.74
680.37	472.84
680.71	469.90
681.05	467.19
681.39	464.39
681.73	461.60
682.06	458.92
682.40	456.27
682.74	453.61
683.08	450.93
683.42	448.20
683.75	445.55
684.09	442.86
684.43	440.32
684.77	437.78
685.10	435.32
685.44	432.91
685.78	430.50
686.12	428.17
686.45	425.79
686.79	423.46
687.13	421.13
687.46	418.83
687.80	416.58
688.14	414.19
688.48	412.04
688.81	409.78
689.15	407.53
689.49	405.28
689.82	403.06
690.16	400.87
690.50	398.86
690.83	396.83
691.17	394.75
691.51	392.75
691.84	390.78
692.18	388.76
692.52	386.73
692.85	384.76
693.19	382.81
693.52	380.89
693.86	378.96
694.20	377.10
694.53	375.23
694.87	373.33
695.21	371.50
695.54	369.58
695.88	367.71
696.21	365.92
696.55	364.15
696.88	362.41
697.22	360.64
697.56	358.86
697.89	357.15
698.23	355.53
698.56	353.86
698.90	352.24
699.23	350.55
699.57	348.90
699.90	347.25
700.24	345.54
700.58	344.01
700.91	342.46
701.25	341.00
701.58	339.57
701.92	338.16
702.25	336.75
702.59	335.34
702.92	334.00
703.26	332.59
703.59	331.25
703.93	330.02
704.26	328.78
704.60	327.45
704.93	326.11
705.26	324.79
705.60	323.50
705.93	322.26
706.27	321.11
706.60	320.03
706.94	318.91
707.27	317.79
707.61	316.62
707.94	315.51
708.27	314.31
708.61	313.15
708.94	312.05
709.28	310.99
709.61	309.93
709.94	308.90
710.28	307.85
710.61	306.78
710.95	305.64
711.28	304.62
711.61	303.65
711.95	302.67
712.28	301.66
712.61	300.62
712.95	299.61
713.28	298.70
713.61	297.69
713.95	296.75
714.28	295.86
714.61	294.91
714.95	294.07
715.28	293.19
715.61	292.32
715.95	291.43
716.28	290.50
716.61	289.64
716.95	288.78
717.28	287.96
717.61	287.16
717.94	286.36
718.28	285.52
718.61	284.73
718.94	284.01
719.27	283.33
719.61	282.65
719.94	281.96
720.27	281.18
720.60	280.54
720.94	279.90
721.27	279.23
721.60	278.66
721.93	278.00
722.27	277.40
722.60	276.77
722.93	276.16
723.26	275.61
723.59	275.00
723.93	274.42
724.26	273.87
724.59	273.25
724.92	272.72
725.25	272.21
725.59	271.68
725.92	271.11
726.25	270.53
726.58	270.00
726.91	269.47
727.24	268.99
727.57	268.45
727.91	267.87
728.24	267.41
728.57	266.87
728.90	266.36
729.23	265.85
729.56	265.44
729.89	264.95
730.22	264.43
730.55	263.97
730.89	263.52
731.22	263.06
731.55	262.65
731.88	262.18
732.21	261.72
732.54	261.24
732.87	260.79
733.20	260.39
733.53	259.99
733.86	259.58
734.19	259.19
734.52	258.79
734.85	258.51
735.18	258.05
735.51	257.71
735.84	257.32
736.17	256.96
736.50	256.48
736.83	256.24
737.16	255.90
737.49	255.56
737.82	255.19
738.15	254.82
738.48	254.44
738.81	254.11
739.14	253.77
739.47	253.46
739.80	253.17
740.13	252.87
740.46	252.54
740.79	252.22
741.12	251.87
741.45	251.53
741.78	251.17
742.11	250.90
742.44	250.51
742.77	250.23
743.10	249.92
743.43	249.67
743.75	249.27
744.08	249.13
744.41	248.83
744.74	248.55
745.07	248.26
745.40	248.04
745.73	247.81
746.06	247.54
746.39	247.26
746.71	246.98
747.04	246.69
747.37	246.41
747.70	246.17
748.03	245.93
748.36	245.74
748.68	245.44
749.01	245.18
749.34	244.96
749.67	244.69
750.00	244.45
750.33	244.24
750.65	244.02
750.98	243.65
751.31	243.46
751.64	243.23
751.97	243.07
752.29	242.81
752.62	242.51
752.95	242.30
753.28	242.07
753.60	241.82
753.93	241.64
754.26	241.46
754.59	241.23
754.91	241.04
755.24	240.79
755.57	240.60
755.90	240.42
756.22	240.25
756.55	240.09
756.88	239.86
757.20	239.65
757.53	239.42
757.86	239.23
758.19	239.03
758.51	238.82
758.84	238.59
759.17	238.43
759.49	238.30
759.82	238.16
760.15	238.02
760.47	237.87
760.80	237.68
761.13	237.53
761.45	237.38
761.78	237.18
762.11	237.05
762.43	236.91
762.76	236.74
763.08	236.58
763.41	236.43
763.74	236.32
764.06	236.16
764.39	236.00
764.71	235.85
765.04	235.70
765.37	235.58
765.69	235.51
766.02	235.38
766.34	235.25
766.67	235.10
767.00	234.99
767.32	234.91
767.65	234.88
767.97	234.72
768.30	234.58
768.62	234.51
768.95	234.39
769.27	234.25
769.60	234.14
769.92	234.02
770.25	233.89
770.57	233.73
770.90	233.61
771.22	233.52
771.55	233.42
771.87	233.35
772.20	233.24
772.52	233.20
772.85	233.17
773.17	233.09
773.50	233.01
773.82	232.89
774.15	232.77
774.47	232.56
774.80	232.48
775.12	232.39
775.45	232.32
775.77	232.23
776.09	232.16
776.42	232.07
776.74	232.05
777.07	231.95
777.39	231.92
777.72	231.84
778.04	231.78
778.36	231.68
778.69	231.58
779.01	231.53
779.33	231.39
779.66	231.23
779.98	231.15
780.31	231.05
780.63	231.03
780.95	230.97
781.28	230.93
781.60	230.83
781.92	230.76
782.25	230.67
782.57	230.62
782.89	230.56
783.22	230.49
783.54	230.38
783.86	230.34
784.19	230.29
784.51	230.28
784.83	230.21
785.16	230.17
785.48	230.15
785.80	230.07
786.12	229.99
786.45	229.91
786.77	229.87
