SpectraSuite Data File
++++++++++++++++++++++++++++++++++++
Date: Fri Feb 01 17:42:04 EST 2013
User: group
Dark Spectrum Present: No
Reference Spectrum Present: No
Number of Sampled Component Spectra: 1
Spectrometers: USB2E7196
Integration Time (usec): 35000 (USB2E7196)
Spectra Averaged: 100 (USB2E7196)
Boxcar Smoothing: 10 (USB2E7196)
Correct for Electrical Dark: No (USB2E7196)
Strobe/Lamp Enabled: No (USB2E7196)
Correct for Detector Non-linearity: No (USB2E7196)
Correct for Stray Light: No (USB2E7196)
Number of Pixels in Processed Spectrum: 2048
>>>>>Begin Processed Spectral Data<<<<<
339.09	0.00
339.48	212.44
339.86	214.57
340.24	215.48
340.63	216.83
341.01	219.69
341.39	219.63
341.78	220.70
342.16	222.54
342.54	222.40
342.93	211.03
343.31	221.68
343.69	222.23
344.07	222.68
344.46	223.10
344.84	223.50
345.22	223.73
345.60	223.94
345.99	224.14
346.37	224.25
346.75	224.37
347.13	224.46
347.52	224.53
347.90	224.62
348.28	224.64
348.66	224.65
349.05	224.67
349.43	224.72
349.81	224.79
350.19	224.85
350.57	224.90
350.96	224.97
351.34	225.07
351.72	225.16
352.10	225.25
352.48	225.31
352.87	225.35
353.25	225.42
353.63	225.51
354.01	225.58
354.39	225.69
354.77	225.76
355.15	225.86
355.54	225.94
355.92	225.97
356.30	226.05
356.68	226.23
357.06	226.29
357.44	226.36
357.82	226.43
358.20	226.49
358.58	226.54
358.97	226.59
359.35	226.66
359.73	226.76
360.11	226.81
360.49	226.90
360.87	226.94
361.25	227.01
361.63	227.10
362.01	227.15
362.39	227.18
362.77	227.24
363.15	227.27
363.53	227.28
363.91	227.31
364.29	227.33
364.67	227.26
365.05	227.26
365.43	227.28
365.81	227.31
366.19	227.37
366.57	227.39
366.95	227.39
367.33	227.37
367.71	227.33
368.09	227.36
368.47	227.34
368.85	227.35
369.23	227.33
369.61	227.26
369.99	227.28
370.37	227.25
370.75	227.22
371.13	227.15
371.51	227.12
371.89	227.10
372.27	227.08
372.65	227.02
373.03	226.99
373.41	226.94
373.78	226.87
374.16	226.78
374.54	226.72
374.92	226.67
375.30	226.62
375.68	226.54
376.06	226.44
376.44	226.38
376.82	226.30
377.19	226.25
377.57	226.16
377.95	226.02
378.33	225.96
378.71	225.87
379.09	225.83
379.47	225.76
379.84	225.64
380.22	225.54
380.60	225.46
380.98	225.38
381.36	225.32
381.73	225.25
382.11	225.19
382.49	225.11
382.87	225.03
383.25	224.99
383.62	225.06
384.00	225.00
384.38	224.96
384.76	224.95
385.13	224.94
385.51	224.93
385.89	224.89
386.27	224.83
386.64	224.81
387.02	224.76
387.40	224.73
387.78	224.72
388.15	224.72
388.53	224.68
388.91	224.66
389.29	224.62
389.66	224.62
390.04	224.57
390.42	224.63
390.79	224.60
391.17	224.59
391.55	224.44
391.92	224.47
392.30	224.46
392.68	224.39
393.05	224.37
393.43	224.34
393.81	224.36
394.18	224.34
394.56	224.33
394.94	224.37
395.31	224.39
395.69	224.43
396.06	224.45
396.44	224.49
396.82	224.50
397.19	224.59
397.57	224.59
397.95	224.68
398.32	224.68
398.70	224.74
399.07	224.79
399.45	224.86
399.82	224.88
400.20	224.93
400.58	225.04
400.95	225.07
401.33	225.17
401.70	225.32
402.08	225.41
402.45	225.52
402.83	225.63
403.20	225.70
403.58	225.76
403.95	225.91
404.33	226.06
404.71	226.19
405.08	226.35
405.46	226.46
405.83	226.60
406.21	226.72
406.58	226.91
406.96	227.06
407.33	227.26
407.70	227.46
408.08	227.73
408.45	227.92
408.83	228.16
409.20	228.39
409.58	228.56
409.95	228.85
410.33	229.10
410.70	229.37
411.08	229.71
411.45	230.09
411.82	230.41
412.20	230.80
412.57	231.22
412.95	231.60
413.32	232.09
413.69	232.56
414.07	233.07
414.44	233.58
414.82	234.15
415.19	234.77
415.56	235.41
415.94	236.05
416.31	236.82
416.68	237.58
417.06	238.41
417.43	239.21
417.81	240.12
418.18	241.06
418.55	242.07
418.93	243.08
419.30	244.13
419.67	245.22
420.04	246.35
420.42	247.54
420.79	248.89
421.16	250.18
421.54	251.56
421.91	252.98
422.28	254.43
422.66	255.95
423.03	257.47
423.40	259.03
423.77	260.69
424.15	262.33
424.52	264.05
424.89	265.94
425.26	267.78
425.64	269.44
426.01	271.31
426.38	273.25
426.75	275.21
427.13	277.23
427.50	279.35
427.87	281.54
428.24	283.73
428.61	285.79
428.99	288.07
429.36	290.53
429.73	292.96
430.10	295.34
430.47	297.76
430.85	300.20
431.22	302.79
431.59	305.55
431.96	308.18
432.33	311.07
432.70	313.82
433.08	317.05
433.45	320.14
433.82	323.16
434.19	326.47
434.56	329.78
434.93	332.84
435.30	335.87
435.68	339.22
436.05	342.50
436.42	345.72
436.79	348.64
437.16	351.79
437.53	355.08
437.90	358.35
438.27	361.52
438.64	364.85
439.01	367.84
439.38	370.43
439.75	372.95
440.13	375.86
440.50	378.56
440.87	380.73
441.24	382.97
441.61	385.46
441.98	387.21
442.35	389.35
442.72	391.55
443.09	393.67
443.46	394.81
443.83	395.52
444.20	396.16
444.57	397.18
444.94	397.51
445.31	397.91
445.68	398.31
446.05	398.42
446.42	397.99
446.79	397.60
447.16	397.12
447.53	396.75
447.90	395.40
448.27	394.07
448.64	392.20
449.01	390.91
449.37	388.68
449.74	386.47
450.11	383.77
450.48	380.93
450.85	377.99
451.22	375.49
451.59	373.14
451.96	370.85
452.33	367.84
452.70	365.09
453.07	361.81
453.43	358.46
453.80	355.26
454.17	352.13
454.54	349.10
454.91	345.94
455.28	342.86
455.65	339.95
456.02	337.08
456.38	334.58
456.75	331.46
457.12	328.79
457.49	326.25
457.86	323.71
458.23	321.47
458.59	319.10
458.96	316.69
459.33	314.50
459.70	312.31
460.07	310.56
460.43	308.56
460.80	306.64
461.17	304.94
461.54	303.19
461.91	301.51
462.27	299.85
462.64	298.37
463.01	296.76
463.38	295.25
463.74	293.73
464.11	292.41
464.48	291.21
464.85	289.92
465.21	288.83
465.58	287.80
465.95	286.54
466.32	285.46
466.68	284.39
467.05	283.34
467.42	282.31
467.78	281.17
468.15	280.15
468.52	279.36
468.88	278.41
469.25	277.52
469.62	276.79
469.98	275.98
470.35	275.21
470.72	274.49
471.08	273.74
471.45	273.05
471.82	272.38
472.18	271.66
472.55	271.15
472.92	270.57
473.28	270.01
473.65	269.48
474.02	268.93
474.38	268.54
474.75	268.16
475.11	267.73
475.48	267.43
475.85	267.13
476.21	266.85
476.58	266.59
476.94	266.42
477.31	266.20
477.67	266.05
478.04	265.93
478.41	265.82
478.77	265.86
479.14	265.76
479.50	265.74
479.87	265.83
480.23	265.90
480.60	265.94
480.96	266.00
481.33	266.20
481.69	266.41
482.06	266.55
482.42	266.74
482.79	266.99
483.15	267.28
483.52	267.67
483.88	267.98
484.25	268.34
484.61	268.72
484.98	269.17
485.34	269.71
485.71	270.30
486.07	270.96
486.44	271.49
486.80	272.18
487.17	272.91
487.53	273.72
487.90	274.58
488.26	275.49
488.62	276.45
488.99	277.44
489.35	278.47
489.72	279.63
490.08	280.85
490.44	282.11
490.81	283.46
491.17	284.79
491.54	286.30
491.90	287.87
492.26	289.55
492.63	291.32
492.99	293.08
493.36	294.99
493.72	297.01
494.08	299.13
494.45	301.44
494.81	303.87
495.17	306.31
495.54	308.91
495.90	311.65
496.26	314.46
496.63	317.39
496.99	320.59
497.35	323.87
497.72	327.31
498.08	330.86
498.44	334.56
498.80	338.57
499.17	342.69
499.53	346.91
499.89	351.40
500.26	355.94
500.62	360.72
500.98	365.74
501.34	370.90
501.71	376.31
502.07	381.80
502.43	387.47
502.79	393.36
503.16	399.46
503.52	405.80
503.88	412.30
504.24	419.05
504.60	425.93
504.97	433.16
505.33	440.56
505.69	448.43
506.05	456.36
506.41	464.32
506.78	472.48
507.14	481.00
507.50	489.75
507.86	498.90
508.22	508.17
508.59	517.51
508.95	527.15
509.31	537.07
509.67	547.33
510.03	557.72
510.39	568.42
510.75	579.36
511.12	590.42
511.48	601.89
511.84	613.53
512.20	625.22
512.56	637.35
512.92	649.66
513.28	662.15
513.64	674.73
514.00	687.59
514.37	700.80
514.73	714.15
515.09	727.37
515.45	740.82
515.81	754.67
516.17	768.78
516.53	783.07
516.89	797.54
517.25	811.94
517.61	826.65
517.97	841.47
518.33	856.17
518.69	871.33
519.05	886.58
519.41	902.00
519.77	917.84
520.13	933.53
520.49	949.33
520.85	964.95
521.21	981.03
521.57	997.65
521.93	1013.73
522.29	1030.37
522.65	1046.97
523.01	1063.47
523.37	1079.79
523.73	1096.37
524.09	1112.87
524.45	1129.46
524.81	1146.54
525.17	1163.58
525.53	1180.73
525.89	1197.94
526.25	1215.08
526.61	1231.90
526.97	1249.04
527.33	1265.95
527.68	1283.04
528.04	1299.98
528.40	1317.06
528.76	1334.54
529.12	1351.64
529.48	1369.03
529.84	1385.50
530.20	1402.70
530.56	1420.15
530.91	1438.07
531.27	1455.47
531.63	1472.44
531.99	1489.58
532.35	1506.15
532.71	1522.83
533.07	1539.58
533.42	1556.19
533.78	1573.01
534.14	1589.91
534.50	1605.93
534.86	1622.38
535.21	1638.13
535.57	1654.65
535.93	1670.82
536.29	1686.25
536.65	1701.81
537.00	1717.24
537.36	1733.40
537.72	1748.52
538.08	1763.82
538.44	1778.43
538.79	1793.02
539.15	1807.40
539.51	1821.88
539.87	1837.01
540.22	1851.24
540.58	1865.78
540.94	1879.70
541.29	1893.14
541.65	1906.58
542.01	1920.64
542.37	1934.00
542.72	1947.20
543.08	1959.92
543.44	1973.22
543.79	1985.61
544.15	1997.61
544.51	2010.10
544.87	2021.76
545.22	2033.63
545.58	2044.80
545.94	2055.42
546.29	2066.25
546.65	2077.13
547.01	2087.40
547.36	2097.02
547.72	2106.49
548.07	2115.48
548.43	2124.78
548.79	2133.57
549.14	2142.14
549.50	2150.25
549.86	2158.61
550.21	2167.02
550.57	2175.11
550.92	2182.61
551.28	2190.45
551.64	2198.26
551.99	2205.67
552.35	2212.87
552.70	2219.85
553.06	2226.71
553.41	2233.96
553.77	2240.64
554.13	2247.56
554.48	2254.53
554.84	2260.93
555.19	2267.07
555.55	2273.08
555.90	2278.44
556.26	2284.54
556.61	2290.10
556.97	2295.50
557.32	2300.60
557.68	2305.38
558.03	2310.44
558.39	2314.86
558.74	2320.25
559.10	2325.22
559.45	2329.73
559.81	2334.68
560.16	2339.25
560.52	2343.43
560.87	2347.64
561.23	2351.08
561.58	2354.66
561.94	2358.04
562.29	2360.96
562.64	2364.68
563.00	2367.99
563.35	2372.29
563.71	2376.16
564.06	2379.96
564.42	2383.56
564.77	2386.99
565.12	2390.33
565.48	2393.00
565.83	2395.91
566.19	2398.00
566.54	2399.43
566.89	2401.38
567.25	2402.85
567.60	2404.78
567.96	2407.28
568.31	2408.90
568.66	2410.91
569.02	2412.23
569.37	2413.21
569.72	2414.80
570.08	2415.56
570.43	2416.00
570.78	2415.96
571.14	2414.91
571.49	2414.03
571.84	2413.99
572.20	2413.48
572.55	2412.84
572.90	2411.65
573.26	2410.60
573.61	2409.20
573.96	2408.11
574.31	2405.38
574.67	2402.74
575.02	2399.50
575.37	2396.15
575.72	2392.62
576.08	2389.37
576.43	2386.22
576.78	2382.94
577.13	2379.91
577.49	2376.84
577.84	2373.85
578.19	2370.24
578.54	2367.00
578.90	2363.26
579.25	2358.13
579.60	2353.12
579.95	2348.36
580.30	2343.36
580.66	2338.32
581.01	2333.48
581.36	2328.36
581.71	2324.54
582.06	2320.33
582.42	2315.94
582.77	2310.87
583.12	2306.28
583.47	2301.79
583.82	2297.01
584.17	2291.65
584.53	2286.40
584.88	2280.92
585.23	2275.19
585.58	2269.69
585.93	2264.03
586.28	2258.86
586.63	2253.81
586.98	2248.60
587.34	2243.54
587.69	2238.58
588.04	2233.57
588.39	2227.83
588.74	2221.29
589.09	2214.87
589.44	2207.95
589.79	2201.70
590.14	2195.78
590.49	2189.12
590.84	2182.47
591.19	2176.35
591.54	2169.72
591.89	2162.09
592.25	2155.20
592.60	2147.70
592.95	2140.10
593.30	2132.48
593.65	2124.65
594.00	2117.27
594.35	2109.78
594.70	2101.43
595.05	2094.27
595.40	2086.27
595.75	2078.46
596.10	2072.20
596.45	2065.18
596.80	2058.66
597.15	2051.88
597.50	2044.75
597.85	2037.93
598.19	2031.14
598.54	2023.90
598.89	2017.05
599.24	2010.81
599.59	2003.96
599.94	1997.38
600.29	1990.60
600.64	1983.64
600.99	1976.07
601.34	1968.91
601.69	1961.43
602.04	1954.49
602.39	1946.63
602.74	1939.55
603.08	1932.58
603.43	1925.25
603.78	1917.63
604.13	1909.94
604.48	1902.39
604.83	1894.98
605.18	1887.88
605.53	1879.52
605.87	1870.89
606.22	1863.07
606.57	1854.61
606.92	1846.41
607.27	1838.92
607.62	1831.66
607.96	1824.09
608.31	1817.17
608.66	1809.09
609.01	1801.30
609.36	1793.28
609.70	1784.73
610.05	1776.28
610.40	1767.95
610.75	1759.18
611.10	1751.03
611.44	1742.08
611.79	1733.44
612.14	1724.25
612.49	1714.36
612.83	1705.22
613.18	1696.45
613.53	1687.74
613.88	1678.63
614.22	1669.80
614.57	1660.41
614.92	1651.69
615.27	1643.68
615.61	1634.93
615.96	1626.28
616.31	1617.95
616.65	1609.77
617.00	1601.67
617.35	1593.30
617.70	1584.51
618.04	1575.49
618.39	1566.49
618.74	1558.34
619.08	1549.31
619.43	1541.22
619.78	1533.60
620.12	1525.99
620.47	1517.93
620.82	1509.07
621.16	1500.94
621.51	1492.69
621.85	1484.49
622.20	1475.34
622.55	1466.15
622.89	1457.54
623.24	1449.24
623.59	1441.08
623.93	1432.96
624.28	1425.08
624.62	1417.01
624.97	1409.17
625.32	1401.65
625.66	1394.01
626.01	1386.27
626.35	1378.55
626.70	1370.03
627.04	1361.85
627.39	1353.31
627.73	1345.15
628.08	1337.71
628.43	1330.01
628.77	1322.24
629.12	1314.13
629.46	1306.53
629.81	1298.38
630.15	1290.43
630.50	1282.38
630.84	1273.70
631.19	1265.11
631.53	1256.96
631.88	1248.76
632.22	1240.51
632.57	1232.61
632.91	1224.45
633.26	1216.39
633.60	1208.15
633.95	1200.40
634.29	1192.63
634.64	1185.27
634.98	1177.58
635.32	1169.98
635.67	1162.73
636.01	1155.52
636.36	1148.32
636.70	1141.09
637.05	1134.10
637.39	1127.16
637.73	1120.30
638.08	1113.90
638.42	1107.55
638.77	1100.66
639.11	1093.63
639.45	1086.79
639.80	1079.79
640.14	1072.98
640.49	1066.06
640.83	1059.40
641.17	1052.78
641.52	1046.13
641.86	1039.32
642.20	1032.91
642.55	1025.91
642.89	1019.08
643.23	1012.00
643.58	1005.68
643.92	999.11
644.26	992.74
644.61	986.23
644.95	979.78
645.29	972.90
645.64	965.68
645.98	958.93
646.32	952.43
646.66	946.10
647.01	939.78
647.35	933.77
647.69	927.42
648.04	921.41
648.38	915.29
648.72	909.00
649.06	902.58
649.41	896.27
649.75	890.09
650.09	883.75
650.43	877.53
650.78	870.95
651.12	864.56
651.46	858.39
651.80	852.38
652.14	846.55
652.49	840.79
652.83	835.27
653.17	829.29
653.51	823.36
653.85	817.45
654.20	811.55
654.54	805.07
654.88	799.00
655.22	792.73
655.56	786.60
655.90	780.62
656.25	775.07
656.59	769.38
656.93	763.91
657.27	758.43
657.61	752.69
657.95	747.30
658.29	741.94
658.64	736.33
658.98	730.51
659.32	724.66
659.66	719.07
660.00	713.50
660.34	708.19
660.68	702.96
661.02	697.54
661.36	692.51
661.70	687.72
662.05	683.09
662.39	678.53
662.73	673.75
663.07	669.08
663.41	664.33
663.75	659.63
664.09	654.83
664.43	650.14
664.77	645.84
665.11	641.31
665.45	636.81
665.79	632.51
666.13	628.20
666.47	623.90
666.81	619.51
667.15	615.00
667.49	610.81
667.83	606.64
668.17	602.49
668.51	598.17
668.85	593.84
669.19	589.64
669.53	585.51
669.87	581.43
670.21	577.49
670.55	573.55
670.89	569.82
671.23	566.15
671.57	562.36
671.91	558.59
672.25	554.85
672.58	551.16
672.92	547.40
673.26	543.99
673.60	540.53
673.94	537.25
674.28	534.16
674.62	530.99
674.96	527.77
675.30	524.69
675.64	521.56
675.97	518.56
676.31	515.55
676.65	512.48
676.99	509.54
677.33	506.45
677.67	503.41
678.01	500.17
678.34	497.07
678.68	493.95
679.02	490.89
679.36	487.88
679.70	484.91
680.04	482.01
680.37	479.02
680.71	476.12
681.05	473.30
681.39	470.42
681.73	467.53
682.06	464.78
682.40	462.01
682.74	459.30
683.08	456.57
683.42	453.77
683.75	451.09
684.09	448.36
684.43	445.73
684.77	443.14
685.10	440.70
685.44	438.13
685.78	435.68
686.12	433.25
686.45	430.85
686.79	428.45
687.13	426.07
687.46	423.71
687.80	421.33
688.14	418.89
688.48	416.66
688.81	414.37
689.15	412.10
689.49	409.80
689.82	407.52
690.16	405.27
690.50	403.14
690.83	401.06
691.17	398.91
691.51	396.84
691.84	394.87
692.18	392.78
692.52	390.75
692.85	388.70
693.19	386.71
693.52	384.70
693.86	382.72
694.20	380.84
694.53	378.90
694.87	376.93
695.21	375.02
695.54	373.08
695.88	371.16
696.21	369.31
696.55	367.49
696.88	365.69
697.22	363.90
697.56	362.12
697.89	360.34
698.23	358.67
698.56	356.99
698.90	355.30
699.23	353.57
699.57	351.84
699.90	350.17
700.24	348.48
700.58	346.86
700.91	345.33
701.25	343.77
701.58	342.30
701.92	340.85
702.25	339.44
702.59	338.00
702.92	336.64
703.26	335.21
703.59	333.89
703.93	332.64
704.26	331.43
704.60	330.13
704.93	328.76
705.26	327.38
705.60	326.05
705.93	324.77
706.27	323.63
706.60	322.56
706.94	321.38
707.27	320.19
707.61	319.00
707.94	317.85
708.27	316.69
708.61	315.52
708.94	314.39
709.28	313.23
709.61	312.18
709.94	311.12
710.28	310.04
710.61	308.98
710.95	307.78
711.28	306.71
711.61	305.69
711.95	304.70
712.28	303.73
712.61	302.74
712.95	301.72
713.28	300.76
713.61	299.74
713.95	298.81
714.28	297.90
714.61	296.99
714.95	296.09
715.28	295.15
715.61	294.19
715.95	293.29
716.28	292.42
716.61	291.52
716.95	290.61
717.28	289.76
717.61	288.94
717.94	288.18
718.28	287.29
718.61	286.47
718.94	285.70
719.27	284.96
719.61	284.24
719.94	283.51
720.27	282.68
720.60	281.97
720.94	281.29
721.27	280.62
721.60	280.01
721.93	279.34
722.27	278.75
722.60	278.17
722.93	277.53
723.26	276.92
723.59	276.32
723.93	275.76
724.26	275.16
724.59	274.53
724.92	273.89
725.25	273.37
725.59	272.78
725.92	272.24
726.25	271.68
726.58	271.13
726.91	270.59
727.24	270.06
727.57	269.57
727.91	269.02
728.24	268.53
728.57	268.01
728.90	267.52
729.23	266.97
729.56	266.50
729.89	266.01
730.22	265.46
730.55	264.90
730.89	264.41
731.22	263.94
731.55	263.48
731.88	263.01
732.21	262.58
732.54	262.09
732.87	261.60
733.20	261.17
733.53	260.75
733.86	260.34
734.19	259.93
734.52	259.48
734.85	259.13
735.18	258.68
735.51	258.27
735.84	257.86
736.17	257.49
736.50	257.05
736.83	256.80
737.16	256.44
737.49	256.11
737.82	255.75
738.15	255.39
738.48	255.02
738.81	254.67
739.14	254.28
739.47	253.98
739.80	253.66
740.13	253.31
740.46	252.95
740.79	252.60
741.12	252.29
741.45	251.95
741.78	251.61
742.11	251.31
742.44	250.97
742.77	250.67
743.10	250.34
743.43	250.02
743.75	249.64
744.08	249.51
744.41	249.20
744.74	248.89
745.07	248.60
745.40	248.37
745.73	248.14
746.06	247.85
746.39	247.59
746.71	247.28
747.04	247.03
747.37	246.77
747.70	246.51
748.03	246.22
748.36	246.00
748.68	245.74
749.01	245.46
749.34	245.22
749.67	244.96
750.00	244.76
750.33	244.59
750.65	244.33
750.98	243.96
751.31	243.76
751.64	243.58
751.97	243.41
752.29	243.14
752.62	242.87
752.95	242.69
753.28	242.42
753.60	242.24
753.93	242.05
754.26	241.82
754.59	241.60
754.91	241.40
755.24	241.14
755.57	240.92
755.90	240.75
756.22	240.54
756.55	240.36
756.88	240.11
757.20	239.88
757.53	239.67
757.86	239.49
758.19	239.30
758.51	239.11
758.84	238.85
759.17	238.70
759.49	238.55
759.82	238.39
760.15	238.26
760.47	238.09
760.80	237.92
761.13	237.76
761.45	237.63
761.78	237.49
762.11	237.34
762.43	237.19
762.76	237.02
763.08	236.88
763.41	236.72
763.74	236.61
764.06	236.42
764.39	236.27
764.71	236.13
765.04	235.98
765.37	235.78
765.69	235.70
766.02	235.52
766.34	235.38
766.67	235.23
767.00	235.14
767.32	235.06
767.65	235.00
767.97	234.90
768.30	234.77
768.62	234.64
768.95	234.51
769.27	234.35
769.60	234.24
769.92	234.10
770.25	233.97
770.57	233.82
770.90	233.73
771.22	233.61
771.55	233.53
771.87	233.44
772.20	233.34
772.52	233.28
772.85	233.31
773.17	233.20
773.50	233.10
773.82	232.95
774.15	232.80
774.47	232.63
774.80	232.53
775.12	232.44
775.45	232.35
775.77	232.25
776.09	232.20
776.42	232.10
776.74	232.07
777.07	231.99
777.39	231.91
777.72	231.80
778.04	231.73
778.36	231.62
778.69	231.54
779.01	231.48
779.33	231.34
779.66	231.15
779.98	231.06
780.31	230.99
780.63	230.98
780.95	230.91
781.28	230.85
781.60	230.74
781.92	230.65
782.25	230.54
782.57	230.50
782.89	230.42
783.22	230.39
783.54	230.32
783.86	230.27
784.19	230.20
784.51	230.21
784.83	230.17
785.16	230.11
785.48	230.02
785.80	229.98
786.12	229.94
786.45	229.91
786.77	229.87
