SpectraSuite Data File
++++++++++++++++++++++++++++++++++++
Date: Fri Feb 01 15:41:30 EST 2013
User: group
Dark Spectrum Present: No
Reference Spectrum Present: No
Number of Sampled Component Spectra: 1
Spectrometers: USB2E7196
Integration Time (usec): 35000 (USB2E7196)
Spectra Averaged: 100 (USB2E7196)
Boxcar Smoothing: 10 (USB2E7196)
Correct for Electrical Dark: No (USB2E7196)
Strobe/Lamp Enabled: No (USB2E7196)
Correct for Detector Non-linearity: No (USB2E7196)
Correct for Stray Light: No (USB2E7196)
Number of Pixels in Processed Spectrum: 2048
>>>>>Begin Processed Spectral Data<<<<<
339.09	0.00
339.48	214.55
339.86	217.37
340.24	217.52
340.63	218.97
341.01	221.94
341.39	221.68
341.78	222.47
342.16	224.14
342.54	224.76
342.93	213.32
343.31	224.10
343.69	224.65
344.07	225.06
344.46	225.50
344.84	225.89
345.22	226.12
345.60	226.37
345.99	226.59
346.37	226.74
346.75	226.84
347.13	226.92
347.52	226.96
347.90	227.03
348.28	227.07
348.66	227.08
349.05	227.09
349.43	227.10
349.81	227.12
350.19	227.15
350.57	227.24
350.96	227.32
351.34	227.42
351.72	227.51
352.10	227.62
352.48	227.71
352.87	227.77
353.25	227.87
353.63	227.93
354.01	227.99
354.39	228.07
354.77	228.13
355.15	228.23
355.54	228.28
355.92	228.32
356.30	228.38
356.68	228.49
357.06	228.55
357.44	228.63
357.82	228.67
358.20	228.77
358.58	228.80
358.97	228.86
359.35	228.88
359.73	228.96
360.11	229.00
360.49	229.04
360.87	229.06
361.25	229.13
361.63	229.21
362.01	229.24
362.39	229.28
362.77	229.34
363.15	229.34
363.53	229.38
363.91	229.41
364.29	229.42
364.67	229.37
365.05	229.38
365.43	229.39
365.81	229.43
366.19	229.42
366.57	229.44
366.95	229.39
367.33	229.41
367.71	229.37
368.09	229.37
368.47	229.32
368.85	229.31
369.23	229.28
369.61	229.18
369.99	229.17
370.37	229.18
370.75	229.21
371.13	229.15
371.51	229.06
371.89	229.03
372.27	228.98
372.65	228.91
373.03	228.87
373.41	228.83
373.78	228.76
374.16	228.66
374.54	228.59
374.92	228.57
375.30	228.49
375.68	228.42
376.06	228.34
376.44	228.30
376.82	228.22
377.19	228.12
377.57	228.09
377.95	228.02
378.33	227.92
378.71	227.78
379.09	227.73
379.47	227.70
379.84	227.62
380.22	227.58
380.60	227.50
380.98	227.40
381.36	227.34
381.73	227.29
382.11	227.26
382.49	227.21
382.87	227.10
383.25	227.06
383.62	227.10
384.00	227.07
384.38	227.00
384.76	226.97
385.13	226.97
385.51	226.89
385.89	226.84
386.27	226.77
386.64	226.74
387.02	226.68
387.40	226.60
387.78	226.55
388.15	226.50
388.53	226.48
388.91	226.47
389.29	226.40
389.66	226.41
390.04	226.39
390.42	226.38
390.79	226.40
391.17	226.37
391.55	226.29
391.92	226.26
392.30	226.26
392.68	226.22
393.05	226.20
393.43	226.24
393.81	226.23
394.18	226.23
394.56	226.25
394.94	226.27
395.31	226.32
395.69	226.39
396.06	226.43
396.44	226.49
396.82	226.55
397.19	226.63
397.57	226.64
397.95	226.69
398.32	226.72
398.70	226.79
399.07	226.88
399.45	226.91
399.82	226.97
400.20	227.04
400.58	227.12
400.95	227.19
401.33	227.28
401.70	227.43
402.08	227.54
402.45	227.59
402.83	227.73
403.20	227.84
403.58	227.90
403.95	228.05
404.33	228.20
404.71	228.28
405.08	228.45
405.46	228.58
405.83	228.74
406.21	228.86
406.58	229.04
406.96	229.20
407.33	229.43
407.70	229.66
408.08	229.97
408.45	230.20
408.83	230.44
409.20	230.65
409.58	230.85
409.95	231.12
410.33	231.40
410.70	231.64
411.08	231.95
411.45	232.29
411.82	232.60
412.20	232.91
412.57	233.34
412.95	233.67
413.32	234.10
413.69	234.51
414.07	234.96
414.44	235.40
414.82	235.87
415.19	236.42
415.56	236.93
415.94	237.45
416.31	238.11
416.68	238.74
417.06	239.45
417.43	240.11
417.81	240.90
418.18	241.72
418.55	242.55
418.93	243.41
419.30	244.28
419.67	245.21
420.04	246.16
420.42	247.15
420.79	248.31
421.16	249.45
421.54	250.63
421.91	251.86
422.28	253.11
422.66	254.44
423.03	255.71
423.40	257.06
423.77	258.50
424.15	259.90
424.52	261.37
424.89	262.97
425.26	264.51
425.64	265.92
426.01	267.47
426.38	269.13
426.75	270.80
427.13	272.53
427.50	274.35
427.87	276.23
428.24	278.11
428.61	279.87
428.99	281.80
429.36	283.90
429.73	285.91
430.10	287.95
430.47	290.01
430.85	292.14
431.22	294.43
431.59	296.76
431.96	299.03
432.33	301.52
432.70	303.93
433.08	306.77
433.45	309.44
433.82	312.07
434.19	315.00
434.56	317.80
434.93	320.48
435.30	323.09
435.68	325.99
436.05	328.83
436.42	331.63
436.79	334.16
437.16	336.88
437.53	339.73
437.90	342.55
438.27	345.32
438.64	348.17
439.01	350.70
439.38	352.95
439.75	355.08
440.13	357.56
440.50	359.87
440.87	361.71
441.24	363.64
441.61	365.80
441.98	367.29
442.35	369.08
442.72	370.91
443.09	372.70
443.46	373.67
443.83	374.20
444.20	374.64
444.57	375.49
444.94	375.77
445.31	376.10
445.68	376.42
446.05	376.48
446.42	376.06
446.79	375.67
447.16	375.20
447.53	374.88
447.90	373.76
448.27	372.57
448.64	370.95
449.01	369.79
449.37	367.79
449.74	365.90
450.11	363.69
450.48	361.21
450.85	358.71
451.22	356.60
451.59	354.61
451.96	352.68
452.33	350.06
452.70	347.69
453.07	344.86
453.43	341.99
453.80	339.23
454.17	336.54
454.54	334.00
454.91	331.31
455.28	328.63
455.65	326.13
456.02	323.75
456.38	321.62
456.75	318.98
457.12	316.74
457.49	314.51
457.86	312.30
458.23	310.46
458.59	308.40
458.96	306.32
459.33	304.48
459.70	302.61
460.07	301.12
460.43	299.42
460.80	297.81
461.17	296.35
461.54	294.81
461.91	293.40
462.27	291.94
462.64	290.65
463.01	289.30
463.38	287.96
463.74	286.58
464.11	285.42
464.48	284.39
464.85	283.28
465.21	282.40
465.58	281.51
465.95	280.43
466.32	279.51
466.68	278.60
467.05	277.68
467.42	276.81
467.78	275.85
468.15	274.99
468.52	274.32
468.88	273.46
469.25	272.70
469.62	272.09
469.98	271.43
470.35	270.80
470.72	270.21
471.08	269.59
471.45	269.04
471.82	268.49
472.18	267.92
472.55	267.48
472.92	267.00
473.28	266.53
473.65	266.08
474.02	265.64
474.38	265.28
474.75	264.96
475.11	264.62
475.48	264.40
475.85	264.12
476.21	263.91
476.58	263.77
476.94	263.64
477.31	263.45
477.67	263.34
478.04	263.24
478.41	263.19
478.77	263.22
479.14	263.12
479.50	263.17
479.87	263.18
480.23	263.25
480.60	263.28
480.96	263.37
481.33	263.55
481.69	263.73
482.06	263.92
482.42	264.11
482.79	264.35
483.15	264.66
483.52	265.09
483.88	265.45
484.25	265.79
484.61	266.21
484.98	266.68
485.34	267.20
485.71	267.81
486.07	268.40
486.44	268.98
486.80	269.75
487.17	270.44
487.53	271.33
487.90	272.20
488.26	273.12
488.62	274.09
488.99	275.06
489.35	276.14
489.72	277.26
490.08	278.48
490.44	279.75
490.81	281.07
491.17	282.37
491.54	283.84
491.90	285.36
492.26	287.02
492.63	288.71
492.99	290.48
493.36	292.37
493.72	294.38
494.08	296.48
494.45	298.68
494.81	301.09
495.17	303.47
495.54	306.00
495.90	308.71
496.26	311.50
496.63	314.48
496.99	317.58
497.35	320.85
497.72	324.24
498.08	327.79
498.44	331.44
498.80	335.37
499.17	339.43
499.53	343.59
499.89	347.96
500.26	352.46
500.62	357.12
500.98	362.10
501.34	367.17
501.71	372.50
502.07	377.94
502.43	383.59
502.79	389.41
503.16	395.50
503.52	401.75
503.88	408.18
504.24	414.87
504.60	421.71
504.97	428.81
505.33	436.16
505.69	443.80
506.05	451.64
506.41	459.51
506.78	467.58
507.14	476.07
507.50	484.85
507.86	493.91
508.22	503.11
508.59	512.32
508.95	521.94
509.31	531.78
509.67	541.91
510.03	552.15
510.39	562.71
510.75	573.50
511.12	584.49
511.48	595.80
511.84	607.27
512.20	618.88
512.56	630.79
512.92	642.98
513.28	655.30
513.64	667.71
514.00	680.46
514.37	693.45
514.73	706.58
515.09	719.59
515.45	732.92
515.81	746.52
516.17	760.46
516.53	774.60
516.89	788.81
517.25	803.07
517.61	817.52
517.97	831.99
518.33	846.45
518.69	861.18
519.05	876.14
519.41	891.28
519.77	906.75
520.13	922.28
520.49	937.62
520.85	953.17
521.21	968.98
521.57	985.26
521.93	1001.02
522.29	1017.38
522.65	1033.64
523.01	1049.87
523.37	1065.84
523.73	1082.10
524.09	1098.20
524.45	1114.50
524.81	1131.05
525.17	1147.88
525.53	1164.81
525.89	1181.64
526.25	1198.53
526.61	1214.98
526.97	1231.68
527.33	1248.20
527.68	1264.80
528.04	1281.30
528.40	1297.88
528.76	1314.93
529.12	1331.50
529.48	1348.39
529.84	1364.35
530.20	1381.00
530.56	1398.01
530.91	1415.51
531.27	1432.15
531.63	1448.55
531.99	1465.13
532.35	1481.04
532.71	1496.98
533.07	1513.20
533.42	1529.14
533.78	1545.17
534.14	1561.41
534.50	1576.83
534.86	1592.76
535.21	1608.01
535.57	1624.06
535.93	1639.41
536.29	1654.26
536.65	1669.35
537.00	1684.18
537.36	1699.58
537.72	1714.00
538.08	1728.38
538.44	1742.17
538.79	1756.26
539.15	1770.03
539.51	1783.72
539.87	1798.15
540.22	1811.87
540.58	1825.61
540.94	1839.14
541.29	1852.10
541.65	1864.83
542.01	1878.11
542.37	1890.31
542.72	1902.69
543.08	1914.47
543.44	1926.94
543.79	1938.13
544.15	1949.13
544.51	1960.67
544.87	1971.66
545.22	1982.63
545.58	1992.89
545.94	2002.70
546.29	2012.50
546.65	2022.31
547.01	2031.53
547.36	2040.28
547.72	2048.72
548.07	2056.57
548.43	2064.59
548.79	2072.52
549.14	2080.02
549.50	2087.30
549.86	2095.09
550.21	2102.30
550.57	2109.28
550.92	2115.80
551.28	2122.84
551.64	2129.91
551.99	2136.50
552.35	2142.61
552.70	2148.62
553.06	2154.61
553.41	2160.98
553.77	2166.98
554.13	2173.14
554.48	2179.42
554.84	2184.70
555.19	2189.96
555.55	2195.14
555.90	2199.49
556.26	2204.34
556.61	2209.09
556.97	2213.31
557.32	2217.33
557.68	2221.64
558.03	2226.08
558.39	2229.92
558.74	2234.56
559.10	2238.28
559.45	2241.89
559.81	2246.27
560.16	2250.17
560.52	2253.36
560.87	2256.82
561.23	2259.35
561.58	2262.34
561.94	2264.66
562.29	2267.31
562.64	2269.96
563.00	2272.68
563.35	2276.28
563.71	2279.43
564.06	2282.58
564.42	2285.42
564.77	2287.99
565.12	2290.28
565.48	2292.12
565.83	2293.88
566.19	2295.09
566.54	2296.21
566.89	2297.40
567.25	2297.83
567.60	2299.05
567.96	2300.79
568.31	2301.58
568.66	2302.72
569.02	2303.25
569.37	2303.76
569.72	2304.46
570.08	2304.61
570.43	2304.50
570.78	2303.91
571.14	2302.28
571.49	2300.97
571.84	2300.73
572.20	2299.51
572.55	2298.40
572.90	2296.80
573.26	2295.49
573.61	2293.80
573.96	2291.91
574.31	2288.79
574.67	2285.69
575.02	2282.07
575.37	2278.58
575.72	2274.67
576.08	2271.54
576.43	2268.10
576.78	2264.19
577.13	2261.02
577.49	2257.95
577.84	2254.44
578.19	2250.76
578.54	2247.18
578.90	2242.93
579.25	2237.40
579.60	2232.49
579.95	2227.31
580.30	2222.30
580.66	2216.97
581.01	2211.93
581.36	2207.06
581.71	2202.88
582.06	2198.53
582.42	2193.99
582.77	2188.77
583.12	2184.19
583.47	2179.28
583.82	2174.27
584.17	2169.12
584.53	2163.56
584.88	2157.73
585.23	2151.90
585.58	2146.33
585.93	2140.84
586.28	2136.04
586.63	2130.85
586.98	2125.71
587.34	2120.98
587.69	2116.13
588.04	2110.90
588.39	2105.30
588.74	2098.72
589.09	2092.56
589.44	2085.66
589.79	2079.74
590.14	2074.06
590.49	2067.44
590.84	2061.02
591.19	2055.07
591.54	2048.49
591.89	2041.04
592.25	2034.30
592.60	2027.12
592.95	2019.37
593.30	2011.94
593.65	2004.39
594.00	1997.28
594.35	1990.01
594.70	1981.94
595.05	1974.53
595.40	1967.18
595.75	1959.64
596.10	1953.45
596.45	1946.66
596.80	1940.59
597.15	1933.86
597.50	1926.69
597.85	1920.28
598.19	1913.60
598.54	1906.26
598.89	1899.82
599.24	1894.01
599.59	1887.27
599.94	1881.08
600.29	1874.96
600.64	1868.49
600.99	1860.89
601.34	1853.97
601.69	1847.13
602.04	1840.28
602.39	1832.98
602.74	1826.24
603.08	1819.54
603.43	1812.84
603.78	1805.64
604.13	1798.29
604.48	1790.92
604.83	1784.14
605.18	1777.14
605.53	1769.19
605.87	1761.21
606.22	1753.91
606.57	1745.89
606.92	1738.63
607.27	1731.31
607.62	1724.37
607.96	1717.01
608.31	1710.39
608.66	1702.87
609.01	1695.20
609.36	1687.66
609.70	1679.65
610.05	1671.50
610.40	1663.64
610.75	1655.12
611.10	1647.40
611.44	1639.00
611.79	1631.17
612.14	1622.32
612.49	1613.19
612.83	1604.79
613.18	1596.70
613.53	1588.50
613.88	1580.06
614.22	1571.85
614.57	1563.33
614.92	1555.28
615.27	1547.65
615.61	1539.34
615.96	1531.38
616.31	1523.71
616.65	1516.29
617.00	1508.67
617.35	1501.05
617.70	1492.75
618.04	1484.34
618.39	1476.06
618.74	1468.52
619.08	1460.11
619.43	1452.63
619.78	1445.64
620.12	1438.36
620.47	1430.86
620.82	1422.70
621.16	1415.32
621.51	1407.65
621.85	1400.05
622.20	1391.44
622.55	1383.17
622.89	1375.37
623.24	1367.70
623.59	1360.41
623.93	1352.79
624.28	1345.64
624.62	1338.12
624.97	1330.91
625.32	1324.26
625.66	1317.20
626.01	1309.98
626.35	1302.46
626.70	1294.73
627.04	1287.04
627.39	1279.29
627.73	1271.79
628.08	1264.90
628.43	1257.40
628.77	1249.99
629.12	1242.43
629.46	1235.34
629.81	1227.96
630.15	1220.63
630.50	1213.27
630.84	1205.01
631.19	1197.33
631.53	1189.81
631.88	1182.25
632.22	1174.72
632.57	1167.35
632.91	1159.89
633.26	1152.46
633.60	1145.28
633.95	1138.13
634.29	1131.12
634.64	1124.45
634.98	1117.12
635.32	1109.98
635.67	1103.52
636.01	1096.81
636.36	1089.92
636.70	1083.42
637.05	1076.76
637.39	1070.42
637.73	1063.84
638.08	1057.95
638.42	1051.83
638.77	1045.40
639.11	1038.80
639.45	1032.44
639.80	1025.71
640.14	1019.28
640.49	1012.74
640.83	1006.31
641.17	1000.11
641.52	993.71
641.86	987.30
642.20	981.51
642.55	975.28
642.89	968.74
643.23	962.29
643.58	956.48
643.92	950.17
644.26	944.10
644.61	937.99
644.95	931.95
645.29	925.34
645.64	918.64
645.98	912.31
646.32	906.48
646.66	900.42
647.01	894.61
647.35	888.88
647.69	883.10
648.04	877.63
648.38	871.91
648.72	865.86
649.06	859.76
649.41	853.88
649.75	847.81
650.09	841.94
650.43	836.10
650.78	829.97
651.12	824.14
651.46	818.48
651.80	812.74
652.14	807.37
652.49	802.07
652.83	796.89
653.17	791.11
653.51	785.38
653.85	780.04
654.20	774.42
654.54	768.35
654.88	762.59
655.22	756.72
655.56	751.02
655.90	745.70
656.25	740.46
656.59	735.10
656.93	730.00
657.27	724.74
657.61	719.34
657.95	714.37
658.29	709.16
658.64	703.85
658.98	698.57
659.32	693.06
659.66	687.79
660.00	682.43
660.34	677.63
660.68	672.77
661.02	667.69
661.36	663.08
661.70	658.69
662.05	654.37
662.39	649.98
662.73	645.54
663.07	641.05
663.41	636.62
663.75	632.08
664.09	627.54
664.43	623.11
664.77	618.99
665.11	614.71
665.45	610.62
665.79	606.54
666.13	602.33
666.47	598.32
666.81	594.19
667.15	590.08
667.49	586.18
667.83	582.32
668.17	578.41
668.51	574.27
668.85	570.21
669.19	566.37
669.53	562.56
669.87	558.62
670.21	554.99
670.55	551.36
670.89	547.95
671.23	544.53
671.57	541.13
671.91	537.59
672.25	534.15
672.58	530.62
672.92	527.30
673.26	524.24
673.60	521.08
673.94	517.98
674.28	515.11
674.62	512.11
674.96	509.00
675.30	506.08
675.64	503.13
675.97	500.39
676.31	497.45
676.65	494.52
676.99	491.83
677.33	488.96
677.67	486.18
678.01	483.16
678.34	480.15
678.68	477.26
679.02	474.40
679.36	471.58
679.70	468.89
680.04	466.09
680.37	463.14
680.71	460.36
681.05	457.79
681.39	455.06
681.73	452.44
682.06	449.97
682.40	447.41
682.74	444.92
683.08	442.37
683.42	439.80
683.75	437.29
684.09	434.76
684.43	432.21
684.77	429.70
685.10	427.37
685.44	425.06
685.78	422.77
686.12	420.54
686.45	418.25
686.79	415.96
687.13	413.80
687.46	411.66
687.80	409.44
688.14	407.16
688.48	405.09
688.81	402.77
689.15	400.57
689.49	398.40
689.82	396.29
690.16	394.22
690.50	392.29
690.83	390.36
691.17	388.34
691.51	386.51
691.84	384.67
692.18	382.70
692.52	380.71
692.85	378.78
693.19	376.90
693.52	375.11
693.86	373.27
694.20	371.52
694.53	369.73
694.87	367.91
695.21	366.14
695.54	364.32
695.88	362.64
696.21	360.91
696.55	359.27
696.88	357.58
697.22	355.91
697.56	354.24
697.89	352.52
698.23	350.96
698.56	349.34
698.90	347.74
699.23	346.09
699.57	344.60
699.90	343.06
700.24	341.53
700.58	339.96
700.91	338.45
701.25	336.98
701.58	335.65
701.92	334.30
702.25	332.92
702.59	331.57
702.92	330.25
703.26	328.95
703.59	327.67
703.93	326.47
704.26	325.23
704.60	323.97
704.93	322.80
705.26	321.54
705.60	320.37
705.93	319.24
706.27	318.26
706.60	317.23
706.94	316.14
707.27	315.03
707.61	314.01
707.94	313.01
708.27	311.93
708.61	310.83
708.94	309.87
709.28	308.87
709.61	307.90
709.94	306.90
710.28	305.94
710.61	304.96
710.95	303.91
711.28	302.98
711.61	302.02
711.95	301.09
712.28	300.17
712.61	299.19
712.95	298.27
713.28	297.41
713.61	296.49
713.95	295.61
714.28	294.80
714.61	293.93
714.95	293.08
715.28	292.20
715.61	291.31
715.95	290.41
716.28	289.59
716.61	288.77
716.95	287.99
717.28	287.20
717.61	286.42
717.94	285.68
718.28	284.90
718.61	284.18
718.94	283.48
719.27	282.80
719.61	282.15
719.94	281.47
720.27	280.74
720.60	280.04
720.94	279.39
721.27	278.77
721.60	278.18
721.93	277.58
722.27	277.02
722.60	276.47
722.93	275.92
723.26	275.39
723.59	274.84
723.93	274.28
724.26	273.74
724.59	273.21
724.92	272.69
725.25	272.23
725.59	271.70
725.92	271.20
726.25	270.69
726.58	270.22
726.91	269.71
727.24	269.22
727.57	268.72
727.91	268.22
728.24	267.75
728.57	267.30
728.90	266.87
729.23	266.36
729.56	265.94
729.89	265.44
730.22	264.97
730.55	264.46
730.89	264.00
731.22	263.54
731.55	263.10
731.88	262.67
732.21	262.18
732.54	261.77
732.87	261.31
733.20	260.91
733.53	260.51
733.86	260.13
734.19	259.74
734.52	259.39
734.85	259.07
735.18	258.63
735.51	258.21
735.84	257.76
736.17	257.43
736.50	256.99
736.83	256.80
737.16	256.47
737.49	256.15
737.82	255.81
738.15	255.51
738.48	255.17
738.81	254.87
739.14	254.55
739.47	254.23
739.80	253.89
740.13	253.59
740.46	253.24
740.79	252.93
741.12	252.64
741.45	252.30
741.78	251.98
742.11	251.72
742.44	251.43
742.77	251.20
743.10	250.90
743.43	250.67
743.75	250.30
744.08	250.16
744.41	249.88
744.74	249.65
745.07	249.38
745.40	249.14
745.73	248.90
746.06	248.61
746.39	248.36
746.71	248.11
747.04	247.85
747.37	247.61
747.70	247.36
748.03	247.10
748.36	246.93
748.68	246.66
749.01	246.45
749.34	246.23
749.67	246.01
750.00	245.79
750.33	245.59
750.65	245.34
750.98	244.98
751.31	244.78
751.64	244.56
751.97	244.37
752.29	244.14
752.62	243.88
752.95	243.72
753.28	243.51
753.60	243.33
753.93	243.18
754.26	242.97
754.59	242.76
754.91	242.56
755.24	242.34
755.57	242.18
755.90	241.98
756.22	241.78
756.55	241.57
756.88	241.37
757.20	241.16
757.53	240.94
757.86	240.78
758.19	240.58
758.51	240.41
758.84	240.20
759.17	240.06
759.49	239.89
759.82	239.77
760.15	239.61
760.47	239.44
760.80	239.24
761.13	239.14
761.45	238.98
761.78	238.82
762.11	238.66
762.43	238.49
762.76	238.35
763.08	238.24
763.41	238.11
763.74	237.99
764.06	237.84
764.39	237.74
764.71	237.59
765.04	237.47
765.37	237.33
765.69	237.21
766.02	237.03
766.34	236.90
766.67	236.73
767.00	236.62
767.32	236.54
767.65	236.50
767.97	236.34
768.30	236.21
768.62	236.11
768.95	236.02
769.27	235.90
769.60	235.80
769.92	235.65
770.25	235.53
770.57	235.40
770.90	235.30
771.22	235.17
771.55	235.03
771.87	234.93
772.20	234.81
772.52	234.76
772.85	234.82
773.17	234.74
773.50	234.65
773.82	234.54
774.15	234.41
774.47	234.21
774.80	234.13
775.12	234.06
775.45	233.96
775.77	233.85
776.09	233.80
776.42	233.68
776.74	233.63
777.07	233.54
777.39	233.48
777.72	233.39
778.04	233.35
778.36	233.31
778.69	233.23
779.01	233.20
779.33	233.09
779.66	232.91
779.98	232.82
780.31	232.74
780.63	232.75
780.95	232.70
781.28	232.66
781.60	232.59
781.92	232.54
782.25	232.48
782.57	232.41
782.89	232.35
783.22	232.30
783.54	232.25
783.86	232.19
784.19	232.09
784.51	232.10
784.83	232.04
785.16	231.97
785.48	231.94
785.80	231.89
786.12	231.85
786.45	231.79
786.77	231.76
787.09	231.72
