SpectraSuite Data File
++++++++++++++++++++++++++++++++++++
Date: Fri Feb 01 15:33:34 EST 2013
User: group
Dark Spectrum Present: No
Reference Spectrum Present: No
Number of Sampled Component Spectra: 1
Spectrometers: USB2E7196
Integration Time (usec): 35000 (USB2E7196)
Spectra Averaged: 100 (USB2E7196)
Boxcar Smoothing: 10 (USB2E7196)
Correct for Electrical Dark: No (USB2E7196)
Strobe/Lamp Enabled: No (USB2E7196)
Correct for Detector Non-linearity: No (USB2E7196)
Correct for Stray Light: No (USB2E7196)
Number of Pixels in Processed Spectrum: 2048
>>>>>Begin Processed Spectral Data<<<<<
339.09	0.00
339.48	214.70
339.86	217.04
340.24	217.83
340.63	219.22
341.01	222.25
341.39	221.87
341.78	223.14
342.16	224.34
342.54	224.76
342.93	213.37
343.31	224.17
343.69	224.70
344.07	225.13
344.46	225.60
344.84	225.97
345.22	226.20
345.60	226.47
345.99	226.66
346.37	226.81
346.75	226.91
347.13	227.01
347.52	227.06
347.90	227.13
348.28	227.19
348.66	227.19
349.05	227.17
349.43	227.19
349.81	227.23
350.19	227.26
350.57	227.29
350.96	227.36
351.34	227.42
351.72	227.54
352.10	227.66
352.48	227.70
352.87	227.78
353.25	227.87
353.63	227.91
354.01	227.98
354.39	228.06
354.77	228.13
355.15	228.25
355.54	228.35
355.92	228.39
356.30	228.41
356.68	228.55
357.06	228.63
357.44	228.71
357.82	228.78
358.20	228.85
358.58	228.95
358.97	228.99
359.35	229.09
359.73	229.13
360.11	229.17
360.49	229.24
360.87	229.27
361.25	229.33
361.63	229.42
362.01	229.46
362.39	229.46
362.77	229.49
363.15	229.45
363.53	229.46
363.91	229.50
364.29	229.56
364.67	229.49
365.05	229.48
365.43	229.51
365.81	229.52
366.19	229.56
366.57	229.58
366.95	229.60
367.33	229.58
367.71	229.59
368.09	229.60
368.47	229.55
368.85	229.50
369.23	229.46
369.61	229.37
369.99	229.37
370.37	229.35
370.75	229.38
371.13	229.36
371.51	229.30
371.89	229.25
372.27	229.19
372.65	229.14
373.03	229.10
373.41	229.00
373.78	228.93
374.16	228.85
374.54	228.74
374.92	228.64
375.30	228.56
375.68	228.49
376.06	228.41
376.44	228.35
376.82	228.28
377.19	228.23
377.57	228.14
377.95	228.01
378.33	227.94
378.71	227.82
379.09	227.73
379.47	227.68
379.84	227.58
380.22	227.50
380.60	227.43
380.98	227.37
381.36	227.31
381.73	227.22
382.11	227.16
382.49	227.10
382.87	227.04
383.25	226.96
383.62	226.98
384.00	226.89
384.38	226.85
384.76	226.83
385.13	226.79
385.51	226.74
385.89	226.73
386.27	226.68
386.64	226.67
387.02	226.64
387.40	226.60
387.78	226.59
388.15	226.54
388.53	226.52
388.91	226.48
389.29	226.44
389.66	226.44
390.04	226.39
390.42	226.39
390.79	226.41
391.17	226.41
391.55	226.29
391.92	226.29
392.30	226.30
392.68	226.27
393.05	226.29
393.43	226.29
393.81	226.29
394.18	226.29
394.56	226.28
394.94	226.36
395.31	226.36
395.69	226.41
396.06	226.47
396.44	226.49
396.82	226.51
397.19	226.61
397.57	226.63
397.95	226.68
398.32	226.71
398.70	226.73
399.07	226.81
399.45	226.88
399.82	226.94
400.20	227.01
400.58	227.11
400.95	227.16
401.33	227.30
401.70	227.44
402.08	227.53
402.45	227.61
402.83	227.71
403.20	227.79
403.58	227.89
403.95	228.04
404.33	228.17
404.71	228.33
405.08	228.53
405.46	228.68
405.83	228.82
406.21	228.97
406.58	229.13
406.96	229.28
407.33	229.46
407.70	229.66
408.08	229.93
408.45	230.16
408.83	230.37
409.20	230.57
409.58	230.74
409.95	231.02
410.33	231.30
410.70	231.54
411.08	231.87
411.45	232.18
411.82	232.46
412.20	232.83
412.57	233.25
412.95	233.55
413.32	233.97
413.69	234.42
414.07	234.86
414.44	235.36
414.82	235.85
415.19	236.41
415.56	236.96
415.94	237.51
416.31	238.12
416.68	238.76
417.06	239.47
417.43	240.17
417.81	240.96
418.18	241.78
418.55	242.62
418.93	243.51
419.30	244.43
419.67	245.39
420.04	246.37
420.42	247.33
420.79	248.53
421.16	249.71
421.54	250.88
421.91	252.11
422.28	253.39
422.66	254.73
423.03	256.04
423.40	257.39
423.77	258.81
424.15	260.26
424.52	261.75
424.89	263.40
425.26	264.93
425.64	266.40
426.01	267.94
426.38	269.60
426.75	271.26
427.13	272.97
427.50	274.73
427.87	276.59
428.24	278.48
428.61	280.23
428.99	282.15
429.36	284.28
429.73	286.33
430.10	288.33
430.47	290.35
430.85	292.47
431.22	294.70
431.59	297.08
431.96	299.32
432.33	301.81
432.70	304.17
433.08	306.99
433.45	309.63
433.82	312.26
434.19	315.16
434.56	318.00
434.93	320.68
435.30	323.35
435.68	326.26
436.05	329.05
436.42	331.82
436.79	334.33
437.16	337.05
437.53	339.92
437.90	342.78
438.27	345.55
438.64	348.34
439.01	350.90
439.38	353.10
439.75	355.27
440.13	357.77
440.50	360.10
440.87	361.90
441.24	363.77
441.61	365.94
441.98	367.41
442.35	369.15
442.72	371.02
443.09	372.83
443.46	373.84
443.83	374.45
444.20	374.98
444.57	375.83
444.94	376.09
445.31	376.42
445.68	376.72
446.05	376.84
446.42	376.51
446.79	376.10
447.16	375.67
447.53	375.36
447.90	374.13
448.27	372.98
448.64	371.42
449.01	370.34
449.37	368.35
449.74	366.44
450.11	364.26
450.48	361.72
450.85	359.15
451.22	356.98
451.59	354.96
451.96	352.98
452.33	350.35
452.70	347.95
453.07	345.11
453.43	342.21
453.80	339.39
454.17	336.68
454.54	334.13
454.91	331.42
455.28	328.75
455.65	326.33
456.02	323.85
456.38	321.73
456.75	319.03
457.12	316.79
457.49	314.58
457.86	312.35
458.23	310.52
458.59	308.49
458.96	306.45
459.33	304.57
459.70	302.71
460.07	301.20
460.43	299.49
460.80	297.87
461.17	296.41
461.54	294.93
461.91	293.51
462.27	292.08
462.64	290.82
463.01	289.43
463.38	288.13
463.74	286.77
464.11	285.64
464.48	284.66
464.85	283.56
465.21	282.69
465.58	281.80
465.95	280.71
466.32	279.80
466.68	278.87
467.05	277.99
467.42	277.09
467.78	276.18
468.15	275.32
468.52	274.65
468.88	273.83
469.25	273.06
469.62	272.39
469.98	271.74
470.35	271.09
470.72	270.48
471.08	269.82
471.45	269.27
471.82	268.66
472.18	268.03
472.55	267.57
472.92	267.02
473.28	266.53
473.65	266.06
474.02	265.60
474.38	265.21
474.75	264.86
475.11	264.52
475.48	264.24
475.85	264.00
476.21	263.76
476.58	263.56
476.94	263.41
477.31	263.28
477.67	263.09
478.04	262.98
478.41	262.91
478.77	262.93
479.14	262.86
479.50	262.89
479.87	262.96
480.23	263.01
480.60	263.09
480.96	263.17
481.33	263.38
481.69	263.57
482.06	263.78
482.42	263.95
482.79	264.17
483.15	264.51
483.52	264.88
483.88	265.24
484.25	265.60
484.61	266.00
484.98	266.45
485.34	267.02
485.71	267.60
486.07	268.18
486.44	268.76
486.80	269.49
487.17	270.20
487.53	271.03
487.90	271.92
488.26	272.85
488.62	273.84
488.99	274.82
489.35	275.86
489.72	277.01
490.08	278.29
490.44	279.54
490.81	280.84
491.17	282.20
491.54	283.64
491.90	285.18
492.26	286.83
492.63	288.56
492.99	290.32
493.36	292.20
493.72	294.26
494.08	296.38
494.45	298.60
494.81	300.98
495.17	303.40
495.54	305.99
495.90	308.69
496.26	311.52
496.63	314.46
496.99	317.58
497.35	320.79
497.72	324.16
498.08	327.66
498.44	331.32
498.80	335.22
499.17	339.25
499.53	343.40
499.89	347.81
500.26	352.29
500.62	357.02
500.98	362.00
501.34	367.14
501.71	372.48
502.07	377.92
502.43	383.46
502.79	389.28
503.16	395.32
503.52	401.58
503.88	408.01
504.24	414.67
504.60	421.57
504.97	428.72
505.33	436.09
505.69	443.79
506.05	451.60
506.41	459.50
506.78	467.71
507.14	476.16
507.50	484.92
507.86	494.01
508.22	503.15
508.59	512.33
508.95	522.00
509.31	531.86
509.67	541.95
510.03	552.31
510.39	562.87
510.75	573.72
511.12	584.64
511.48	595.90
511.84	607.40
512.20	618.95
512.56	630.90
512.92	643.05
513.28	655.41
513.64	667.88
514.00	680.55
514.37	693.47
514.73	706.58
515.09	719.66
515.45	732.93
515.81	746.57
516.17	760.59
516.53	774.62
516.89	788.72
517.25	802.94
517.61	817.41
517.97	831.93
518.33	846.31
518.69	861.19
519.05	876.23
519.41	891.46
519.77	907.06
520.13	922.57
520.49	938.00
520.85	953.46
521.21	969.19
521.57	985.57
521.93	1001.45
522.29	1017.89
522.65	1034.08
523.01	1050.36
523.37	1066.40
523.73	1082.60
524.09	1098.68
524.45	1115.04
524.81	1131.76
525.17	1148.65
525.53	1165.53
525.89	1182.42
526.25	1199.24
526.61	1215.69
526.97	1232.36
527.33	1248.85
527.68	1265.52
528.04	1281.93
528.40	1298.59
528.76	1315.76
529.12	1332.27
529.48	1349.16
529.84	1365.33
530.20	1382.03
530.56	1399.05
530.91	1416.47
531.27	1433.34
531.63	1449.84
531.99	1466.54
532.35	1482.56
532.71	1498.54
533.07	1514.91
533.42	1530.99
533.78	1546.93
534.14	1563.25
534.50	1578.67
534.86	1594.57
535.21	1609.66
535.57	1625.75
535.93	1641.26
536.29	1656.11
536.65	1671.38
537.00	1686.19
537.36	1701.52
537.72	1716.03
538.08	1730.45
538.44	1744.32
538.79	1758.14
539.15	1771.90
539.51	1785.73
539.87	1800.02
540.22	1813.69
540.58	1827.49
540.94	1840.74
541.29	1853.82
541.65	1866.42
542.01	1879.81
542.37	1892.07
542.72	1904.67
543.08	1916.39
543.44	1928.75
543.79	1940.06
544.15	1951.12
544.51	1962.72
544.87	1973.72
545.22	1984.56
545.58	1994.90
545.94	2004.74
546.29	2014.60
546.65	2024.43
547.01	2033.58
547.36	2042.45
547.72	2050.93
548.07	2058.81
548.43	2067.06
548.79	2075.19
549.14	2082.85
549.50	2090.17
549.86	2098.00
550.21	2105.17
550.57	2112.48
550.92	2119.20
551.28	2126.19
551.64	2133.16
551.99	2139.69
552.35	2145.80
552.70	2152.09
553.06	2158.17
553.41	2164.55
553.77	2170.67
554.13	2176.82
554.48	2182.90
554.84	2188.25
555.19	2193.63
555.55	2198.78
555.90	2203.19
556.26	2208.00
556.61	2212.66
556.97	2216.69
557.32	2220.77
557.68	2225.02
558.03	2229.33
558.39	2232.99
558.74	2237.60
559.10	2241.38
559.45	2244.96
559.81	2249.31
560.16	2252.92
560.52	2256.02
560.87	2259.37
561.23	2261.97
561.58	2264.95
561.94	2267.55
562.29	2270.02
562.64	2272.54
563.00	2275.13
563.35	2278.77
563.71	2281.87
564.06	2285.01
564.42	2287.96
564.77	2290.47
565.12	2292.61
565.48	2294.37
565.83	2296.15
566.19	2297.52
566.54	2298.52
566.89	2299.79
567.25	2300.10
567.60	2301.69
567.96	2303.31
568.31	2304.21
568.66	2305.29
569.02	2305.74
569.37	2305.96
569.72	2306.62
570.08	2306.75
570.43	2306.64
570.78	2305.80
571.14	2304.27
571.49	2303.10
571.84	2302.79
572.20	2301.52
572.55	2300.47
572.90	2298.96
573.26	2297.61
573.61	2295.69
573.96	2293.74
574.31	2290.64
574.67	2287.57
575.02	2283.75
575.37	2280.27
575.72	2276.28
576.08	2272.95
576.43	2269.65
576.78	2266.03
577.13	2262.98
577.49	2260.02
577.84	2256.51
578.19	2252.92
578.54	2249.05
578.90	2244.74
579.25	2239.06
579.60	2234.10
579.95	2229.17
580.30	2224.01
580.66	2218.81
581.01	2213.83
581.36	2208.87
581.71	2204.64
582.06	2200.24
582.42	2195.85
582.77	2190.73
583.12	2186.08
583.47	2181.29
583.82	2176.10
584.17	2170.79
584.53	2165.25
584.88	2159.49
585.23	2153.79
585.58	2148.29
585.93	2142.86
586.28	2138.05
586.63	2132.95
586.98	2127.82
587.34	2123.03
587.69	2118.18
588.04	2112.77
588.39	2107.10
588.74	2100.71
589.09	2094.45
589.44	2087.55
589.79	2081.33
590.14	2075.58
590.49	2069.07
590.84	2062.73
591.19	2056.70
591.54	2050.17
591.89	2042.56
592.25	2035.70
592.60	2028.30
592.95	2020.52
593.30	2013.27
593.65	2005.42
594.00	1998.38
594.35	1991.18
594.70	1983.14
595.05	1975.84
595.40	1968.56
595.75	1960.99
596.10	1954.72
596.45	1947.90
596.80	1941.82
597.15	1935.00
597.50	1927.76
597.85	1921.28
598.19	1914.46
598.54	1907.43
598.89	1900.84
599.24	1895.06
599.59	1888.27
599.94	1882.16
600.29	1875.92
600.64	1869.13
600.99	1861.73
601.34	1854.91
601.69	1847.86
602.04	1840.87
602.39	1833.41
602.74	1826.57
603.08	1819.88
603.43	1813.09
603.78	1805.82
604.13	1798.62
604.48	1791.39
604.83	1784.71
605.18	1777.72
605.53	1769.63
605.87	1761.44
606.22	1754.14
606.57	1746.06
606.92	1738.69
607.27	1731.44
607.62	1724.40
607.96	1717.20
608.31	1710.52
608.66	1702.75
609.01	1695.15
609.36	1687.59
609.70	1679.67
610.05	1671.54
610.40	1663.79
610.75	1655.43
611.10	1647.71
611.44	1639.23
611.79	1631.20
612.14	1622.45
612.49	1613.20
612.83	1604.85
613.18	1596.87
613.53	1588.73
613.88	1580.27
614.22	1572.09
614.57	1563.44
614.92	1555.38
615.27	1547.73
615.61	1539.39
615.96	1531.41
616.31	1523.78
616.65	1516.45
617.00	1508.77
617.35	1501.21
617.70	1492.79
618.04	1484.24
618.39	1476.10
618.74	1468.46
619.08	1460.12
619.43	1452.54
619.78	1445.62
620.12	1438.41
620.47	1430.88
620.82	1422.71
621.16	1415.25
621.51	1407.57
621.85	1400.00
622.20	1391.49
622.55	1383.14
622.89	1375.28
623.24	1367.78
623.59	1360.40
623.93	1352.87
624.28	1345.73
624.62	1338.14
624.97	1330.99
625.32	1324.26
625.66	1317.13
626.01	1309.93
626.35	1302.64
626.70	1294.84
627.04	1287.09
627.39	1279.42
627.73	1271.95
628.08	1265.01
628.43	1257.70
628.77	1250.31
629.12	1242.68
629.46	1235.48
629.81	1228.18
630.15	1221.10
630.50	1213.61
630.84	1205.33
631.19	1197.40
631.53	1189.87
631.88	1182.34
632.22	1174.82
632.57	1167.55
632.91	1160.03
633.26	1152.63
633.60	1145.21
633.95	1138.14
634.29	1131.13
634.64	1124.50
634.98	1117.14
635.32	1109.98
635.67	1103.46
636.01	1096.90
636.36	1090.08
636.70	1083.61
637.05	1077.02
637.39	1070.50
637.73	1064.01
638.08	1058.18
638.42	1052.20
638.77	1045.75
639.11	1039.06
639.45	1032.64
639.80	1025.99
640.14	1019.66
640.49	1013.15
640.83	1006.88
641.17	1000.62
641.52	994.33
641.86	987.80
642.20	981.93
642.55	975.66
642.89	969.03
643.23	962.42
643.58	956.71
643.92	950.47
644.26	944.34
644.61	938.28
644.95	932.27
645.29	925.61
645.64	918.81
645.98	912.50
646.32	906.77
646.66	900.75
647.01	894.93
647.35	889.19
647.69	883.41
648.04	877.79
648.38	872.05
648.72	866.02
649.06	859.94
649.41	853.99
649.75	847.98
650.09	842.16
650.43	836.33
650.78	830.08
651.12	824.14
651.46	818.46
651.80	812.70
652.14	807.27
652.49	801.95
652.83	796.78
653.17	791.10
653.51	785.29
653.85	779.86
654.20	774.19
654.54	768.18
654.88	762.30
655.22	756.41
655.56	750.66
655.90	745.20
656.25	740.02
656.59	734.80
656.93	729.73
657.27	724.51
657.61	719.09
657.95	714.00
658.29	708.85
658.64	703.63
658.98	698.36
659.32	692.92
659.66	687.73
660.00	682.40
660.34	677.44
660.68	672.59
661.02	667.54
661.36	662.88
661.70	658.36
662.05	654.13
662.39	649.81
662.73	645.44
663.07	641.05
663.41	636.54
663.75	631.99
664.09	627.41
664.43	623.08
664.77	618.96
665.11	614.74
665.45	610.69
665.79	606.59
666.13	602.42
666.47	598.32
666.81	594.10
667.15	589.99
667.49	586.06
667.83	582.20
668.17	578.26
668.51	574.11
668.85	570.11
669.19	566.20
669.53	562.33
669.87	558.41
670.21	554.72
670.55	551.14
670.89	547.73
671.23	544.28
671.57	540.75
671.91	537.28
672.25	533.81
672.58	530.32
672.92	526.94
673.26	523.80
673.60	520.61
673.94	517.52
674.28	514.65
674.62	511.69
674.96	508.64
675.30	505.76
675.64	502.81
675.97	500.05
676.31	497.22
676.65	494.33
676.99	491.62
677.33	488.78
677.67	485.95
678.01	482.91
678.34	479.93
678.68	477.08
679.02	474.21
679.36	471.49
679.70	468.77
680.04	465.97
680.37	463.08
680.71	460.27
681.05	457.69
681.39	454.92
681.73	452.30
682.06	449.74
682.40	447.20
682.74	444.78
683.08	442.21
683.42	439.60
683.75	437.13
684.09	434.55
684.43	432.03
684.77	429.51
685.10	427.21
685.44	424.99
685.78	422.70
686.12	420.46
686.45	418.10
686.79	415.81
687.13	413.60
687.46	411.46
687.80	409.33
688.14	407.16
688.48	405.11
688.81	402.84
689.15	400.70
689.49	398.52
689.82	396.40
690.16	394.32
690.50	392.36
690.83	390.39
691.17	388.40
691.51	386.48
691.84	384.67
692.18	382.69
692.52	380.64
692.85	378.68
693.19	376.86
693.52	375.04
693.86	373.20
694.20	371.41
694.53	369.60
694.87	367.73
695.21	365.93
695.54	364.15
695.88	362.46
696.21	360.75
696.55	359.11
696.88	357.43
697.22	355.78
697.56	354.19
697.89	352.53
698.23	350.90
698.56	349.30
698.90	347.70
699.23	346.03
699.57	344.48
699.90	342.96
700.24	341.36
700.58	339.84
700.91	338.35
701.25	336.95
701.58	335.59
701.92	334.26
702.25	332.89
702.59	331.50
702.92	330.19
703.26	328.88
703.59	327.62
703.93	326.42
704.26	325.15
704.60	323.84
704.93	322.56
705.26	321.35
705.60	320.22
705.93	319.07
706.27	318.09
706.60	317.03
706.94	315.95
707.27	314.85
707.61	313.80
707.94	312.80
708.27	311.68
708.61	310.62
708.94	309.62
709.28	308.63
709.61	307.69
709.94	306.72
710.28	305.72
710.61	304.75
710.95	303.68
711.28	302.81
711.61	301.86
711.95	300.99
712.28	300.07
712.61	299.10
712.95	298.17
713.28	297.26
713.61	296.40
713.95	295.51
714.28	294.70
714.61	293.84
714.95	293.01
715.28	292.20
715.61	291.33
715.95	290.50
716.28	289.66
716.61	288.83
716.95	288.03
717.28	287.28
717.61	286.50
717.94	285.78
718.28	284.98
718.61	284.29
718.94	283.58
719.27	282.96
719.61	282.30
719.94	281.65
720.27	280.98
720.60	280.30
720.94	279.66
721.27	279.04
721.60	278.49
721.93	277.86
722.27	277.26
722.60	276.73
722.93	276.14
723.26	275.61
723.59	275.04
723.93	274.48
724.26	273.94
724.59	273.42
724.92	272.92
725.25	272.42
725.59	271.90
725.92	271.37
726.25	270.81
726.58	270.31
726.91	269.78
727.24	269.28
727.57	268.81
727.91	268.28
728.24	267.83
728.57	267.32
728.90	266.89
729.23	266.42
729.56	265.98
729.89	265.51
730.22	264.98
730.55	264.51
730.89	264.06
731.22	263.60
731.55	263.13
731.88	262.66
732.21	262.19
732.54	261.74
732.87	261.32
733.20	260.92
733.53	260.50
733.86	260.17
734.19	259.77
734.52	259.38
734.85	259.09
735.18	258.65
735.51	258.26
735.84	257.87
736.17	257.51
736.50	257.10
736.83	256.84
737.16	256.51
737.49	256.17
737.82	255.83
738.15	255.46
738.48	255.12
738.81	254.78
739.14	254.47
739.47	254.19
739.80	253.86
740.13	253.54
740.46	253.25
740.79	252.92
741.12	252.61
741.45	252.31
741.78	251.98
742.11	251.70
742.44	251.41
742.77	251.08
743.10	250.75
743.43	250.44
743.75	250.07
744.08	249.91
744.41	249.64
744.74	249.37
745.07	249.11
745.40	248.87
745.73	248.64
746.06	248.36
746.39	248.09
746.71	247.84
747.04	247.58
747.37	247.32
747.70	247.03
748.03	246.77
748.36	246.55
748.68	246.32
749.01	246.07
749.34	245.85
749.67	245.64
750.00	245.44
750.33	245.30
750.65	245.11
750.98	244.75
751.31	244.55
751.64	244.34
751.97	244.19
752.29	243.99
752.62	243.74
752.95	243.57
753.28	243.35
753.60	243.17
753.93	242.99
754.26	242.79
754.59	242.63
754.91	242.46
755.24	242.26
755.57	242.07
755.90	241.89
756.22	241.71
756.55	241.51
756.88	241.34
757.20	241.08
757.53	240.88
757.86	240.74
758.19	240.56
758.51	240.42
758.84	240.21
759.17	240.03
759.49	239.89
759.82	239.76
760.15	239.64
760.47	239.50
760.80	239.31
761.13	239.22
761.45	239.03
761.78	238.87
762.11	238.74
762.43	238.57
762.76	238.40
763.08	238.23
763.41	238.15
763.74	238.03
764.06	237.88
764.39	237.75
764.71	237.63
765.04	237.50
765.37	237.34
765.69	237.20
766.02	237.04
766.34	236.89
766.67	236.71
767.00	236.59
767.32	236.50
767.65	236.46
767.97	236.30
768.30	236.21
768.62	236.10
768.95	235.95
769.27	235.84
769.60	235.79
769.92	235.69
770.25	235.55
770.57	235.40
770.90	235.33
771.22	235.20
771.55	235.08
771.87	234.97
772.20	234.84
772.52	234.82
772.85	234.84
773.17	234.76
773.50	234.69
773.82	234.59
774.15	234.43
774.47	234.29
774.80	234.18
775.12	234.13
775.45	234.01
775.77	233.96
776.09	233.88
776.42	233.76
776.74	233.71
777.07	233.59
777.39	233.52
777.72	233.43
778.04	233.40
778.36	233.32
778.69	233.26
779.01	233.24
779.33	233.09
779.66	232.91
779.98	232.82
780.31	232.76
780.63	232.73
780.95	232.66
781.28	232.56
781.60	232.49
781.92	232.35
782.25	232.31
782.57	232.22
782.89	232.15
783.22	232.07
783.54	231.98
783.86	231.93
784.19	231.89
784.51	231.89
784.83	231.80
785.16	231.75
785.48	231.71
785.80	231.63
786.12	231.60
786.45	231.59
786.77	231.55
787.09	231.49
