SpectraSuite Data File
++++++++++++++++++++++++++++++++++++
Date: Fri Feb 01 15:52:13 EST 2013
User: group
Dark Spectrum Present: No
Reference Spectrum Present: No
Number of Sampled Component Spectra: 1
Spectrometers: USB2E7196
Integration Time (usec): 35000 (USB2E7196)
Spectra Averaged: 100 (USB2E7196)
Boxcar Smoothing: 10 (USB2E7196)
Correct for Electrical Dark: No (USB2E7196)
Strobe/Lamp Enabled: No (USB2E7196)
Correct for Detector Non-linearity: No (USB2E7196)
Correct for Stray Light: No (USB2E7196)
Number of Pixels in Processed Spectrum: 2048
>>>>>Begin Processed Spectral Data<<<<<
339.09	0.00
339.48	214.60
339.86	216.22
340.24	217.34
340.63	218.31
341.01	221.80
341.39	221.40
341.78	222.12
342.16	223.87
342.54	224.24
342.93	212.82
343.31	223.56
343.69	224.13
344.07	224.59
344.46	225.06
344.84	225.46
345.22	225.67
345.60	225.94
345.99	226.17
346.37	226.31
346.75	226.43
347.13	226.49
347.52	226.51
347.90	226.61
348.28	226.67
348.66	226.71
349.05	226.72
349.43	226.76
349.81	226.80
350.19	226.86
350.57	226.88
350.96	227.00
351.34	227.11
351.72	227.17
352.10	227.28
352.48	227.31
352.87	227.39
353.25	227.46
353.63	227.54
354.01	227.59
354.39	227.66
354.77	227.75
355.15	227.83
355.54	227.89
355.92	227.92
356.30	228.02
356.68	228.16
357.06	228.25
357.44	228.29
357.82	228.38
358.20	228.46
358.58	228.58
358.97	228.64
359.35	228.73
359.73	228.82
360.11	228.87
360.49	228.93
360.87	228.98
361.25	229.05
361.63	229.12
362.01	229.19
362.39	229.23
362.77	229.26
363.15	229.33
363.53	229.36
363.91	229.39
364.29	229.40
364.67	229.36
365.05	229.37
365.43	229.40
365.81	229.38
366.19	229.40
366.57	229.45
366.95	229.47
367.33	229.44
367.71	229.39
368.09	229.40
368.47	229.39
368.85	229.37
369.23	229.39
369.61	229.33
369.99	229.35
370.37	229.36
370.75	229.41
371.13	229.32
371.51	229.29
371.89	229.28
372.27	229.23
372.65	229.18
373.03	229.12
373.41	229.07
373.78	229.05
374.16	228.98
374.54	228.88
374.92	228.80
375.30	228.73
375.68	228.68
376.06	228.61
376.44	228.55
376.82	228.49
377.19	228.40
377.57	228.33
377.95	228.23
378.33	228.13
378.71	227.96
379.09	227.91
379.47	227.85
379.84	227.77
380.22	227.71
380.60	227.62
380.98	227.56
381.36	227.52
381.73	227.40
382.11	227.36
382.49	227.28
382.87	227.21
383.25	227.15
383.62	227.22
384.00	227.14
384.38	227.11
384.76	227.09
385.13	227.05
385.51	226.99
385.89	226.93
386.27	226.89
386.64	226.86
387.02	226.82
387.40	226.77
387.78	226.72
388.15	226.68
388.53	226.62
388.91	226.58
389.29	226.54
389.66	226.57
390.04	226.51
390.42	226.50
390.79	226.49
391.17	226.46
391.55	226.30
391.92	226.29
392.30	226.23
392.68	226.19
393.05	226.20
393.43	226.21
393.81	226.21
394.18	226.20
394.56	226.23
394.94	226.24
395.31	226.27
395.69	226.33
396.06	226.35
396.44	226.40
396.82	226.44
397.19	226.53
397.57	226.52
397.95	226.59
398.32	226.59
398.70	226.66
399.07	226.76
399.45	226.84
399.82	226.90
400.20	226.99
400.58	227.09
400.95	227.12
401.33	227.22
401.70	227.37
402.08	227.45
402.45	227.54
402.83	227.68
403.20	227.78
403.58	227.89
403.95	228.07
404.33	228.20
404.71	228.32
405.08	228.45
405.46	228.61
405.83	228.76
406.21	228.93
406.58	229.06
406.96	229.20
407.33	229.40
407.70	229.60
408.08	229.88
408.45	230.05
408.83	230.28
409.20	230.48
409.58	230.66
409.95	230.97
410.33	231.19
410.70	231.43
411.08	231.74
411.45	232.04
411.82	232.30
412.20	232.67
412.57	233.11
412.95	233.42
413.32	233.82
413.69	234.23
414.07	234.66
414.44	235.16
414.82	235.62
415.19	236.15
415.56	236.70
415.94	237.24
416.31	237.91
416.68	238.53
417.06	239.29
417.43	239.97
417.81	240.70
418.18	241.53
418.55	242.37
418.93	243.25
419.30	244.12
419.67	245.02
420.04	245.96
420.42	246.94
420.79	248.17
421.16	249.31
421.54	250.49
421.91	251.73
422.28	253.00
422.66	254.33
423.03	255.66
423.40	256.99
423.77	258.38
424.15	259.82
424.52	261.31
424.89	262.87
425.26	264.40
425.64	265.86
426.01	267.44
426.38	269.05
426.75	270.76
427.13	272.50
427.50	274.32
427.87	276.20
428.24	278.05
428.61	279.76
428.99	281.73
429.36	283.84
429.73	285.87
430.10	287.84
430.47	289.95
430.85	292.05
431.22	294.24
431.59	296.62
431.96	298.81
432.33	301.32
432.70	303.73
433.08	306.55
433.45	309.15
433.82	311.77
434.19	314.71
434.56	317.47
434.93	320.13
435.30	322.75
435.68	325.65
436.05	328.50
436.42	331.28
436.79	333.78
437.16	336.47
437.53	339.34
437.90	342.17
438.27	344.91
438.64	347.68
439.01	350.35
439.38	352.60
439.75	354.77
440.13	357.23
440.50	359.56
440.87	361.39
441.24	363.34
441.61	365.51
441.98	366.95
442.35	368.73
442.72	370.59
443.09	372.39
443.46	373.42
443.83	374.02
444.20	374.55
444.57	375.35
444.94	375.64
445.31	375.96
445.68	376.31
446.05	376.34
446.42	375.98
446.79	375.50
447.16	375.07
447.53	374.77
447.90	373.57
448.27	372.40
448.64	370.81
449.01	369.66
449.37	367.66
449.74	365.77
450.11	363.58
450.48	361.11
450.85	358.58
451.22	356.42
451.59	354.36
451.96	352.39
452.33	349.82
452.70	347.45
453.07	344.59
453.43	341.67
453.80	338.90
454.17	336.22
454.54	333.69
454.91	330.93
455.28	328.24
455.65	325.80
456.02	323.32
456.38	321.16
456.75	318.52
457.12	316.28
457.49	314.06
457.86	311.83
458.23	309.97
458.59	307.91
458.96	305.78
459.33	303.95
459.70	302.08
460.07	300.57
460.43	298.89
460.80	297.30
461.17	295.89
461.54	294.43
461.91	293.00
462.27	291.58
462.64	290.31
463.01	288.98
463.38	287.69
463.74	286.39
464.11	285.24
464.48	284.25
464.85	283.16
465.21	282.33
465.58	281.42
465.95	280.32
466.32	279.43
466.68	278.55
467.05	277.66
467.42	276.78
467.78	275.84
468.15	274.96
468.52	274.30
468.88	273.41
469.25	272.65
469.62	272.07
469.98	271.40
470.35	270.78
470.72	270.17
471.08	269.53
471.45	268.99
471.82	268.44
472.18	267.81
472.55	267.35
472.92	266.83
473.28	266.38
473.65	265.93
474.02	265.51
474.38	265.17
474.75	264.85
475.11	264.52
475.48	264.28
475.85	264.05
476.21	263.79
476.58	263.60
476.94	263.48
477.31	263.34
477.67	263.21
478.04	263.11
478.41	263.05
478.77	263.08
479.14	263.00
479.50	263.03
479.87	263.14
480.23	263.22
480.60	263.27
480.96	263.33
481.33	263.57
481.69	263.79
482.06	263.97
482.42	264.17
482.79	264.40
483.15	264.69
483.52	265.08
483.88	265.48
484.25	265.90
484.61	266.27
484.98	266.70
485.34	267.25
485.71	267.88
486.07	268.49
486.44	269.04
486.80	269.72
487.17	270.51
487.53	271.33
487.90	272.15
488.26	273.15
488.62	274.15
488.99	275.09
489.35	276.09
489.72	277.22
490.08	278.37
490.44	279.63
490.81	280.96
491.17	282.27
491.54	283.76
491.90	285.27
492.26	286.90
492.63	288.63
492.99	290.33
493.36	292.21
493.72	294.26
494.08	296.38
494.45	298.68
494.81	300.99
495.17	303.37
495.54	305.96
495.90	308.63
496.26	311.45
496.63	314.40
496.99	317.54
497.35	320.77
497.72	324.22
498.08	327.70
498.44	331.42
498.80	335.36
499.17	339.40
499.53	343.60
499.89	347.99
500.26	352.50
500.62	357.25
500.98	362.20
501.34	367.25
501.71	372.56
502.07	377.99
502.43	383.61
502.79	389.48
503.16	395.56
503.52	401.83
503.88	408.20
504.24	414.84
504.60	421.78
504.97	428.93
505.33	436.29
505.69	444.04
506.05	451.78
506.41	459.70
506.78	467.88
507.14	476.34
507.50	485.05
507.86	494.04
508.22	503.24
508.59	512.48
508.95	522.07
509.31	531.91
509.67	542.02
510.03	552.26
510.39	562.78
510.75	573.55
511.12	584.40
511.48	595.73
511.84	607.21
512.20	618.68
512.56	630.64
512.92	642.79
513.28	655.09
513.64	667.53
514.00	680.19
514.37	693.10
514.73	706.18
515.09	719.24
515.45	732.57
515.81	746.15
516.17	760.15
516.53	774.32
516.89	788.44
517.25	802.52
517.61	817.05
517.97	831.55
518.33	846.07
518.69	860.91
519.05	875.92
519.41	891.12
519.77	906.74
520.13	922.14
520.49	937.46
520.85	952.95
521.21	968.65
521.57	984.93
521.93	1000.63
522.29	1017.04
522.65	1033.24
523.01	1049.41
523.37	1065.40
523.73	1081.54
524.09	1097.53
524.45	1113.87
524.81	1130.63
525.17	1147.32
525.53	1164.22
525.89	1181.06
526.25	1197.89
526.61	1214.18
526.97	1230.88
527.33	1247.33
527.68	1263.91
528.04	1280.50
528.40	1297.07
528.76	1314.23
529.12	1330.76
529.48	1347.69
529.84	1363.61
530.20	1380.28
530.56	1397.37
530.91	1414.81
531.27	1431.64
531.63	1448.13
531.99	1464.79
532.35	1480.62
532.71	1496.57
533.07	1512.82
533.42	1528.74
533.78	1544.58
534.14	1560.90
534.50	1576.20
534.86	1591.92
535.21	1607.12
535.57	1622.98
535.93	1638.49
536.29	1653.24
536.65	1668.29
537.00	1683.07
537.36	1698.41
537.72	1712.90
538.08	1727.15
538.44	1740.83
538.79	1754.60
539.15	1768.29
539.51	1782.01
539.87	1796.25
540.22	1809.99
540.58	1823.69
540.94	1836.86
541.29	1849.96
541.65	1862.58
542.01	1875.80
542.37	1888.23
542.72	1900.60
543.08	1912.46
543.44	1924.89
543.79	1936.00
544.15	1946.94
544.51	1958.55
544.87	1969.49
545.22	1980.38
545.58	1990.65
545.94	2000.47
546.29	2010.35
546.65	2020.06
547.01	2029.09
547.36	2037.94
547.72	2046.37
548.07	2054.09
548.43	2062.44
548.79	2070.43
549.14	2077.97
549.50	2085.30
549.86	2092.91
550.21	2100.28
550.57	2107.25
550.92	2113.55
551.28	2120.67
551.64	2127.74
551.99	2134.19
552.35	2140.28
552.70	2146.30
553.06	2152.21
553.41	2158.57
553.77	2164.51
554.13	2170.78
554.48	2177.12
554.84	2182.43
555.19	2187.65
555.55	2192.84
555.90	2197.03
556.26	2201.90
556.61	2206.76
556.97	2211.06
557.32	2215.13
557.68	2219.20
558.03	2223.53
558.39	2227.46
558.74	2232.19
559.10	2236.14
559.45	2239.86
559.81	2244.29
560.16	2248.15
560.52	2251.42
560.87	2254.85
561.23	2257.59
561.58	2260.59
561.94	2263.04
562.29	2265.56
562.64	2268.20
563.00	2270.92
563.35	2274.48
563.71	2277.42
564.06	2280.62
564.42	2283.52
564.77	2286.13
565.12	2288.28
565.48	2290.21
565.83	2292.04
566.19	2293.22
566.54	2294.10
566.89	2295.02
567.25	2295.42
567.60	2296.67
567.96	2298.37
568.31	2299.29
568.66	2300.40
569.02	2300.78
569.37	2301.15
569.72	2301.95
570.08	2302.05
570.43	2302.15
570.78	2301.61
571.14	2300.25
571.49	2298.89
571.84	2298.47
572.20	2297.20
572.55	2296.28
572.90	2294.74
573.26	2293.36
573.61	2291.66
573.96	2289.89
574.31	2287.03
574.67	2284.16
575.02	2280.60
575.37	2277.12
575.72	2273.23
576.08	2269.80
576.43	2266.48
576.78	2262.67
577.13	2259.59
577.49	2256.58
577.84	2253.00
578.19	2249.23
578.54	2245.56
578.90	2241.21
579.25	2235.61
579.60	2230.72
579.95	2225.71
580.30	2220.70
580.66	2215.32
581.01	2210.41
581.36	2205.32
581.71	2201.02
582.06	2196.53
582.42	2192.02
582.77	2186.80
583.12	2182.18
583.47	2177.47
583.82	2172.35
584.17	2167.16
584.53	2161.58
584.88	2155.87
585.23	2150.19
585.58	2144.71
585.93	2139.26
586.28	2134.51
586.63	2129.46
586.98	2124.39
587.34	2119.58
587.69	2114.55
588.04	2109.30
588.39	2103.59
588.74	2097.27
589.09	2091.35
589.44	2084.54
589.79	2078.58
590.14	2073.15
590.49	2066.59
590.84	2060.34
591.19	2054.60
591.54	2048.12
591.89	2040.71
592.25	2034.07
592.60	2026.68
592.95	2019.13
593.30	2011.83
593.65	2004.36
594.00	1997.34
594.35	1990.06
594.70	1982.15
595.05	1974.98
595.40	1967.85
595.75	1960.43
596.10	1954.28
596.45	1947.44
596.80	1941.24
597.15	1934.45
597.50	1927.24
597.85	1920.86
598.19	1913.94
598.54	1906.53
598.89	1899.98
599.24	1894.06
599.59	1887.21
599.94	1881.12
600.29	1874.79
600.64	1868.12
600.99	1860.47
601.34	1853.70
601.69	1846.73
602.04	1839.84
602.39	1832.60
602.74	1825.80
603.08	1818.95
603.43	1812.22
603.78	1804.83
604.13	1797.64
604.48	1790.36
604.83	1783.38
605.18	1776.31
605.53	1768.22
605.87	1760.36
606.22	1753.14
606.57	1745.29
606.92	1738.06
607.27	1730.84
607.62	1723.98
607.96	1716.69
608.31	1710.24
608.66	1702.68
609.01	1695.09
609.36	1687.51
609.70	1679.44
610.05	1671.29
610.40	1663.60
610.75	1655.21
611.10	1647.60
611.44	1639.22
611.79	1631.36
612.14	1622.77
612.49	1613.62
612.83	1605.46
613.18	1597.28
613.53	1589.08
613.88	1580.51
614.22	1572.13
614.57	1563.46
614.92	1555.43
615.27	1547.88
615.61	1539.51
615.96	1531.32
616.31	1523.72
616.65	1516.39
617.00	1508.77
617.35	1501.22
617.70	1492.88
618.04	1484.45
618.39	1476.31
618.74	1468.70
619.08	1460.39
619.43	1452.86
619.78	1446.03
620.12	1438.80
620.47	1431.34
620.82	1423.15
621.16	1415.79
621.51	1408.25
621.85	1400.63
622.20	1392.11
622.55	1383.76
622.89	1375.94
623.24	1368.45
623.59	1361.05
623.93	1353.56
624.28	1346.38
624.62	1338.81
624.97	1331.62
625.32	1324.90
625.66	1317.82
626.01	1310.64
626.35	1303.13
626.70	1295.42
627.04	1287.60
627.39	1279.85
627.73	1272.52
628.08	1265.63
628.43	1258.24
628.77	1250.88
629.12	1243.42
629.46	1236.15
629.81	1228.79
630.15	1221.47
630.50	1214.06
630.84	1205.87
631.19	1197.90
631.53	1190.36
631.88	1182.80
632.22	1175.18
632.57	1167.71
632.91	1160.11
633.26	1152.66
633.60	1145.38
633.95	1138.18
634.29	1131.15
634.64	1124.56
634.98	1117.10
635.32	1110.00
635.67	1103.46
636.01	1096.80
636.36	1089.95
636.70	1083.50
637.05	1076.83
637.39	1070.36
637.73	1063.83
638.08	1057.94
638.42	1051.90
638.77	1045.44
639.11	1038.75
639.45	1032.37
639.80	1025.77
640.14	1019.36
640.49	1012.83
640.83	1006.44
641.17	1000.15
641.52	993.86
641.86	987.31
642.20	981.52
642.55	975.23
642.89	968.71
643.23	962.20
643.58	956.40
643.92	950.21
644.26	944.15
644.61	938.18
644.95	932.14
645.29	925.54
645.64	918.79
645.98	912.49
646.32	906.76
646.66	900.72
647.01	894.87
647.35	889.15
647.69	883.30
648.04	877.81
648.38	872.14
648.72	866.11
649.06	860.05
649.41	854.07
649.75	848.04
650.09	842.13
650.43	836.30
650.78	830.16
651.12	824.17
651.46	818.52
651.80	812.75
652.14	807.32
652.49	801.96
652.83	796.89
653.17	791.16
653.51	785.38
653.85	780.03
654.20	774.39
654.54	768.38
654.88	762.69
655.22	756.75
655.56	750.97
655.90	745.50
656.25	740.31
656.59	734.95
656.93	729.88
657.27	724.67
657.61	719.30
657.95	714.16
658.29	709.13
658.64	703.90
658.98	698.61
659.32	693.20
659.66	688.07
660.00	682.68
660.34	677.78
660.68	672.95
661.02	667.92
661.36	663.23
661.70	658.84
662.05	654.49
662.39	650.25
662.73	645.80
663.07	641.47
663.41	637.05
663.75	632.55
664.09	627.98
664.43	623.66
664.77	619.53
665.11	615.37
665.45	611.21
665.79	607.09
666.13	602.95
666.47	598.82
666.81	594.62
667.15	590.49
667.49	586.63
667.83	582.83
668.17	578.90
668.51	574.80
668.85	570.74
669.19	566.89
669.53	562.97
669.87	559.07
670.21	555.35
670.55	551.71
670.89	548.31
671.23	544.91
671.57	541.37
671.91	537.81
672.25	534.29
672.58	530.73
672.92	527.28
673.26	524.09
673.60	520.91
673.94	517.83
674.28	514.96
674.62	512.00
674.96	508.77
675.30	505.83
675.64	502.86
675.97	500.05
676.31	497.13
676.65	494.25
676.99	491.56
677.33	488.71
677.67	485.86
678.01	482.86
678.34	479.83
678.68	476.92
679.02	474.10
679.36	471.34
679.70	468.64
680.04	465.91
680.37	462.99
680.71	460.18
681.05	457.56
681.39	454.78
681.73	452.08
682.06	449.61
682.40	447.03
682.74	444.54
683.08	442.00
683.42	439.37
683.75	436.83
684.09	434.30
684.43	431.80
684.77	429.34
685.10	427.00
685.44	424.73
685.78	422.43
686.12	420.17
686.45	417.88
686.79	415.54
687.13	413.40
687.46	411.27
687.80	409.16
688.14	406.87
688.48	404.82
688.81	402.59
689.15	400.41
689.49	398.31
689.82	396.25
690.16	394.21
690.50	392.35
690.83	390.44
691.17	388.50
691.51	386.62
691.84	384.75
692.18	382.83
692.52	380.83
692.85	378.97
693.19	377.10
693.52	375.30
693.86	373.50
694.20	371.67
694.53	369.92
694.87	368.03
695.21	366.32
695.54	364.57
695.88	362.90
696.21	361.22
696.55	359.52
696.88	357.82
697.22	356.12
697.56	354.49
697.89	352.83
698.23	351.22
698.56	349.63
698.90	348.06
699.23	346.39
699.57	344.87
699.90	343.34
700.24	341.81
700.58	340.25
700.91	338.83
701.25	337.39
701.58	336.03
701.92	334.73
702.25	333.36
702.59	331.96
702.92	330.57
703.26	329.30
703.59	328.04
703.93	326.87
704.26	325.70
704.60	324.39
704.93	323.13
705.26	321.90
705.60	320.70
705.93	319.55
706.27	318.54
706.60	317.46
706.94	316.39
707.27	315.24
707.61	314.19
707.94	313.16
708.27	312.05
708.61	310.94
708.94	309.94
709.28	308.94
709.61	307.94
709.94	307.02
710.28	305.96
710.61	304.97
710.95	303.88
711.28	302.93
711.61	301.98
711.95	301.04
712.28	300.09
712.61	299.10
712.95	298.16
713.28	297.25
713.61	296.33
713.95	295.42
714.28	294.57
714.61	293.77
714.95	292.90
715.28	292.03
715.61	291.18
715.95	290.26
716.28	289.43
716.61	288.60
716.95	287.76
717.28	287.04
717.61	286.28
717.94	285.51
718.28	284.69
718.61	283.95
718.94	283.23
719.27	282.54
719.61	281.88
719.94	281.22
720.27	280.49
720.60	279.81
720.94	279.16
721.27	278.56
721.60	277.91
721.93	277.28
722.27	276.74
722.60	276.16
722.93	275.59
723.26	275.04
723.59	274.49
723.93	273.93
724.26	273.37
724.59	272.77
724.92	272.26
725.25	271.79
725.59	271.28
725.92	270.81
726.25	270.31
726.58	269.81
726.91	269.32
727.24	268.86
727.57	268.45
727.91	267.90
728.24	267.43
728.57	266.98
728.90	266.55
729.23	266.07
729.56	265.60
729.89	265.13
730.22	264.66
730.55	264.18
730.89	263.75
731.22	263.30
731.55	262.93
731.88	262.48
732.21	262.04
732.54	261.61
732.87	261.17
733.20	260.77
733.53	260.38
733.86	260.02
734.19	259.61
734.52	259.19
734.85	258.94
735.18	258.56
735.51	258.19
735.84	257.83
736.17	257.49
736.50	257.10
736.83	256.85
737.16	256.53
737.49	256.24
737.82	255.90
738.15	255.57
738.48	255.25
738.81	254.98
739.14	254.62
739.47	254.32
739.80	254.05
740.13	253.76
740.46	253.45
740.79	253.11
741.12	252.79
741.45	252.47
741.78	252.09
742.11	251.80
742.44	251.47
742.77	251.20
743.10	250.89
743.43	250.61
743.75	250.25
744.08	250.07
744.41	249.76
744.74	249.49
745.07	249.22
745.40	248.96
745.73	248.67
746.06	248.43
746.39	248.20
746.71	247.93
747.04	247.62
747.37	247.39
747.70	247.15
748.03	246.95
748.36	246.76
748.68	246.53
749.01	246.27
749.34	246.08
749.67	245.81
750.00	245.60
750.33	245.46
750.65	245.26
750.98	244.92
751.31	244.73
751.64	244.52
751.97	244.36
752.29	244.12
752.62	243.90
752.95	243.68
753.28	243.44
753.60	243.19
753.93	243.02
754.26	242.80
754.59	242.61
754.91	242.39
755.24	242.18
755.57	241.99
755.90	241.80
756.22	241.59
756.55	241.40
756.88	241.20
757.20	240.97
757.53	240.77
757.86	240.60
758.19	240.40
758.51	240.22
758.84	239.98
759.17	239.80
759.49	239.64
759.82	239.56
760.15	239.43
760.47	239.30
760.80	239.10
761.13	238.94
761.45	238.78
761.78	238.63
762.11	238.48
762.43	238.34
762.76	238.24
763.08	238.09
763.41	237.96
763.74	237.81
764.06	237.67
764.39	237.50
764.71	237.37
765.04	237.26
765.37	237.16
765.69	237.05
766.02	236.95
766.34	236.82
766.67	236.65
767.00	236.53
767.32	236.48
767.65	236.46
767.97	236.36
768.30	236.22
768.62	236.10
768.95	235.97
769.27	235.84
769.60	235.73
769.92	235.64
770.25	235.53
770.57	235.42
770.90	235.33
771.22	235.24
771.55	235.14
771.87	235.03
772.20	234.91
772.52	234.90
772.85	234.92
773.17	234.82
773.50	234.74
773.82	234.62
774.15	234.46
774.47	234.30
774.80	234.20
775.12	234.13
775.45	234.02
775.77	233.96
776.09	233.92
776.42	233.80
776.74	233.73
777.07	233.65
777.39	233.62
777.72	233.51
778.04	233.50
778.36	233.43
778.69	233.37
779.01	233.34
779.33	233.20
779.66	233.02
779.98	232.94
780.31	232.89
780.63	232.86
780.95	232.82
781.28	232.80
781.60	232.75
781.92	232.69
782.25	232.67
782.57	232.60
782.89	232.54
783.22	232.50
783.54	232.37
783.86	232.35
784.19	232.24
784.51	232.27
784.83	232.18
785.16	232.14
785.48	232.11
785.80	232.05
786.12	231.98
786.45	231.93
786.77	231.89
787.09	231.84
