SpectraSuite Data File
++++++++++++++++++++++++++++++++++++
Date: Fri Feb 01 16:10:52 EST 2013
User: group
Dark Spectrum Present: No
Reference Spectrum Present: No
Number of Sampled Component Spectra: 1
Spectrometers: USB2E7196
Integration Time (usec): 35000 (USB2E7196)
Spectra Averaged: 100 (USB2E7196)
Boxcar Smoothing: 10 (USB2E7196)
Correct for Electrical Dark: No (USB2E7196)
Strobe/Lamp Enabled: No (USB2E7196)
Correct for Detector Non-linearity: No (USB2E7196)
Correct for Stray Light: No (USB2E7196)
Number of Pixels in Processed Spectrum: 2048
>>>>>Begin Processed Spectral Data<<<<<
339.09	0.00
339.48	214.76
339.86	215.63
340.24	216.61
340.63	218.36
341.01	221.06
341.39	221.32
341.78	222.83
342.16	223.34
342.54	224.00
342.93	212.59
343.31	223.33
343.69	223.86
344.07	224.32
344.46	224.76
344.84	225.13
345.22	225.39
345.60	225.66
345.99	225.85
346.37	226.01
346.75	226.10
347.13	226.21
347.52	226.27
347.90	226.40
348.28	226.41
348.66	226.46
349.05	226.49
349.43	226.53
349.81	226.57
350.19	226.59
350.57	226.64
350.96	226.74
351.34	226.85
351.72	226.97
352.10	227.13
352.48	227.22
352.87	227.34
353.25	227.43
353.63	227.48
354.01	227.55
354.39	227.63
354.77	227.74
355.15	227.83
355.54	227.91
355.92	227.92
356.30	228.03
356.68	228.17
357.06	228.20
357.44	228.26
357.82	228.33
358.20	228.41
358.58	228.47
358.97	228.56
359.35	228.63
359.73	228.68
360.11	228.72
360.49	228.74
360.87	228.77
361.25	228.79
361.63	228.87
362.01	228.93
362.39	228.97
362.77	229.02
363.15	229.02
363.53	229.07
363.91	229.09
364.29	229.09
364.67	229.03
365.05	229.10
365.43	229.15
365.81	229.16
366.19	229.21
366.57	229.27
366.95	229.25
367.33	229.22
367.71	229.19
368.09	229.17
368.47	229.18
368.85	229.17
369.23	229.18
369.61	229.12
369.99	229.08
370.37	229.08
370.75	229.08
371.13	229.04
371.51	228.96
371.89	228.94
372.27	228.91
372.65	228.87
373.03	228.80
373.41	228.74
373.78	228.68
374.16	228.57
374.54	228.48
374.92	228.40
375.30	228.31
375.68	228.22
376.06	228.17
376.44	228.10
376.82	228.00
377.19	227.94
377.57	227.84
377.95	227.73
378.33	227.64
378.71	227.50
379.09	227.43
379.47	227.35
379.84	227.28
380.22	227.19
380.60	227.08
380.98	226.97
381.36	226.88
381.73	226.82
382.11	226.77
382.49	226.67
382.87	226.56
383.25	226.51
383.62	226.57
384.00	226.46
384.38	226.39
384.76	226.36
385.13	226.32
385.51	226.31
385.89	226.26
386.27	226.20
386.64	226.19
387.02	226.16
387.40	226.13
387.78	226.05
388.15	226.02
388.53	225.97
388.91	225.97
389.29	225.90
389.66	225.88
390.04	225.84
390.42	225.84
390.79	225.84
391.17	225.85
391.55	225.68
391.92	225.71
392.30	225.72
392.68	225.69
393.05	225.70
393.43	225.68
393.81	225.69
394.18	225.67
394.56	225.67
394.94	225.64
395.31	225.67
395.69	225.75
396.06	225.79
396.44	225.84
396.82	225.88
397.19	225.97
397.57	226.00
397.95	226.06
398.32	226.07
398.70	226.12
399.07	226.18
399.45	226.28
399.82	226.32
400.20	226.36
400.58	226.46
400.95	226.49
401.33	226.59
401.70	226.74
402.08	226.83
402.45	226.90
402.83	227.08
403.20	227.16
403.58	227.27
403.95	227.41
404.33	227.53
404.71	227.64
405.08	227.85
405.46	227.99
405.83	228.16
406.21	228.36
406.58	228.55
406.96	228.69
407.33	228.87
407.70	229.09
408.08	229.38
408.45	229.59
408.83	229.80
409.20	230.03
409.58	230.24
409.95	230.53
410.33	230.83
410.70	231.06
411.08	231.39
411.45	231.68
411.82	231.99
412.20	232.41
412.57	232.86
412.95	233.14
413.32	233.54
413.69	233.92
414.07	234.32
414.44	234.79
414.82	235.27
415.19	235.86
415.56	236.36
415.94	236.88
416.31	237.53
416.68	238.17
417.06	238.85
417.43	239.52
417.81	240.26
418.18	241.03
418.55	241.87
418.93	242.75
419.30	243.66
419.67	244.55
420.04	245.45
420.42	246.42
420.79	247.58
421.16	248.75
421.54	249.97
421.91	251.18
422.28	252.41
422.66	253.73
423.03	255.00
423.40	256.33
423.77	257.74
424.15	259.12
424.52	260.61
424.89	262.21
425.26	263.74
425.64	265.20
426.01	266.74
426.38	268.39
426.75	270.00
427.13	271.73
427.50	273.57
427.87	275.46
428.24	277.29
428.61	279.04
428.99	280.98
429.36	283.05
429.73	285.13
430.10	287.18
430.47	289.23
430.85	291.32
431.22	293.56
431.59	295.93
431.96	298.19
432.33	300.62
432.70	303.01
433.08	305.81
433.45	308.45
433.82	311.09
434.19	313.95
434.56	316.76
434.93	319.39
435.30	321.93
435.68	324.81
436.05	327.61
436.42	330.40
436.79	332.91
437.16	335.62
437.53	338.41
437.90	341.15
438.27	343.88
438.64	346.71
439.01	349.29
439.38	351.55
439.75	353.71
440.13	356.22
440.50	358.53
440.87	360.41
441.24	362.32
441.61	364.47
441.98	365.97
442.35	367.79
442.72	369.64
443.09	371.49
443.46	372.50
443.83	373.13
444.20	373.64
444.57	374.48
444.94	374.76
445.31	375.11
445.68	375.49
446.05	375.52
446.42	375.16
446.79	374.76
447.16	374.28
447.53	374.00
447.90	372.82
448.27	371.67
448.64	370.04
449.01	368.89
449.37	366.93
449.74	365.01
450.11	362.76
450.48	360.28
450.85	357.71
451.22	355.57
451.59	353.53
451.96	351.60
452.33	348.97
452.70	346.59
453.07	343.72
453.43	340.87
453.80	338.15
454.17	335.45
454.54	332.93
454.91	330.17
455.28	327.51
455.65	325.07
456.02	322.60
456.38	320.50
456.75	317.87
457.12	315.65
457.49	313.47
457.86	311.28
458.23	309.46
458.59	307.46
458.96	305.40
459.33	303.54
459.70	301.65
460.07	300.17
460.43	298.46
460.80	296.90
461.17	295.42
461.54	293.94
461.91	292.55
462.27	291.10
462.64	289.92
463.01	288.56
463.38	287.24
463.74	285.93
464.11	284.73
464.48	283.71
464.85	282.58
465.21	281.71
465.58	280.80
465.95	279.71
466.32	278.77
466.68	277.83
467.05	276.92
467.42	276.06
467.78	275.09
468.15	274.25
468.52	273.62
468.88	272.77
469.25	272.02
469.62	271.37
469.98	270.67
470.35	270.01
470.72	269.41
471.08	268.76
471.45	268.20
471.82	267.69
472.18	267.09
472.55	266.65
472.92	266.12
473.28	265.66
473.65	265.25
474.02	264.87
474.38	264.49
474.75	264.17
475.11	263.80
475.48	263.62
475.85	263.35
476.21	263.12
476.58	262.94
476.94	262.80
477.31	262.66
477.67	262.54
478.04	262.44
478.41	262.34
478.77	262.35
479.14	262.27
479.50	262.28
479.87	262.35
480.23	262.45
480.60	262.51
480.96	262.61
481.33	262.77
481.69	262.96
482.06	263.17
482.42	263.38
482.79	263.64
483.15	263.92
483.52	264.33
483.88	264.67
484.25	265.07
484.61	265.48
484.98	265.90
485.34	266.45
485.71	267.02
486.07	267.66
486.44	268.27
486.80	268.98
487.17	269.70
487.53	270.52
487.90	271.36
488.26	272.31
488.62	273.29
488.99	274.27
489.35	275.28
489.72	276.40
490.08	277.59
490.44	278.84
490.81	280.16
491.17	281.48
491.54	282.97
491.90	284.52
492.26	286.15
492.63	287.92
492.99	289.71
493.36	291.65
493.72	293.72
494.08	295.81
494.45	298.10
494.81	300.51
495.17	302.97
495.54	305.55
495.90	308.23
496.26	311.06
496.63	314.04
496.99	317.18
497.35	320.52
497.72	324.00
498.08	327.53
498.44	331.24
498.80	335.19
499.17	339.23
499.53	343.43
499.89	347.84
500.26	352.34
500.62	357.04
500.98	362.02
501.34	367.12
501.71	372.51
502.07	377.98
502.43	383.59
502.79	389.43
503.16	395.53
503.52	401.79
503.88	408.17
504.24	414.80
504.60	421.66
504.97	428.77
505.33	436.01
505.69	443.76
506.05	451.58
506.41	459.45
506.78	467.66
507.14	476.16
507.50	484.93
507.86	494.03
508.22	503.23
508.59	512.43
508.95	522.05
509.31	531.77
509.67	541.82
510.03	552.15
510.39	562.65
510.75	573.41
511.12	584.42
511.48	595.72
511.84	607.18
512.20	618.68
512.56	630.68
512.92	642.89
513.28	655.22
513.64	667.67
514.00	680.43
514.37	693.29
514.73	706.39
515.09	719.38
515.45	732.63
515.81	746.23
516.17	760.20
516.53	774.28
516.89	788.56
517.25	802.84
517.61	817.28
517.97	831.79
518.33	846.27
518.69	861.02
519.05	875.96
519.41	891.08
519.77	906.72
520.13	922.09
520.49	937.37
520.85	952.75
521.21	968.47
521.57	984.61
521.93	1000.39
522.29	1016.59
522.65	1032.80
523.01	1048.92
523.37	1064.93
523.73	1081.03
524.09	1097.03
524.45	1113.15
524.81	1129.60
525.17	1146.24
525.53	1163.01
525.89	1179.87
526.25	1196.56
526.61	1212.97
526.97	1229.70
527.33	1246.11
527.68	1262.67
528.04	1279.20
528.40	1295.81
528.76	1312.76
529.12	1329.26
529.48	1346.19
529.84	1362.20
530.20	1378.88
530.56	1395.78
530.91	1413.03
531.27	1429.72
531.63	1446.12
531.99	1462.71
532.35	1478.69
532.71	1494.53
533.07	1510.78
533.42	1526.56
533.78	1542.66
534.14	1558.91
534.50	1574.19
534.86	1590.00
535.21	1605.03
535.57	1620.95
535.93	1636.30
536.29	1651.07
536.65	1666.06
537.00	1680.60
537.36	1695.86
537.72	1710.16
538.08	1724.60
538.44	1738.35
538.79	1752.21
539.15	1765.83
539.51	1779.48
539.87	1793.73
540.22	1807.29
540.58	1820.85
540.94	1834.06
541.29	1846.73
541.65	1859.28
542.01	1872.39
542.37	1884.60
542.72	1896.96
543.08	1908.61
543.44	1920.95
543.79	1931.95
544.15	1942.87
544.51	1954.40
544.87	1965.16
545.22	1975.90
545.58	1985.97
545.94	1995.79
546.29	2005.57
546.65	2015.41
547.01	2024.74
547.36	2033.51
547.72	2042.13
548.07	2049.95
548.43	2058.08
548.79	2066.17
549.14	2073.70
549.50	2081.07
549.86	2088.79
550.21	2096.09
550.57	2103.26
550.92	2109.78
551.28	2116.94
551.64	2124.05
551.99	2130.62
552.35	2136.87
552.70	2143.06
553.06	2149.18
553.41	2155.57
553.77	2161.55
554.13	2167.77
554.48	2173.90
554.84	2179.29
555.19	2184.52
555.55	2189.84
555.90	2194.40
556.26	2199.40
556.61	2204.10
556.97	2208.45
557.32	2212.57
557.68	2216.70
558.03	2221.12
558.39	2224.94
558.74	2229.69
559.10	2233.80
559.45	2237.43
559.81	2241.75
560.16	2245.65
560.52	2249.01
560.87	2252.20
561.23	2254.99
561.58	2257.85
561.94	2260.29
562.29	2262.70
562.64	2265.51
563.00	2268.06
563.35	2271.46
563.71	2274.40
564.06	2277.79
564.42	2280.70
564.77	2283.11
565.12	2285.65
565.48	2287.45
565.83	2289.27
566.19	2290.58
566.54	2291.27
566.89	2292.35
567.25	2292.94
567.60	2294.21
567.96	2295.80
568.31	2296.66
568.66	2297.68
569.02	2298.19
569.37	2298.49
569.72	2299.32
570.08	2299.46
570.43	2299.65
570.78	2299.24
571.14	2297.90
571.49	2296.48
571.84	2296.15
572.20	2295.23
572.55	2294.08
572.90	2292.59
573.26	2291.29
573.61	2289.52
573.96	2287.87
574.31	2284.99
574.67	2282.11
575.02	2278.55
575.37	2275.28
575.72	2271.56
576.08	2268.31
576.43	2264.96
576.78	2261.31
577.13	2258.16
577.49	2254.94
577.84	2251.32
578.19	2247.66
578.54	2244.11
578.90	2239.93
579.25	2234.30
579.60	2229.25
579.95	2224.23
580.30	2219.14
580.66	2213.91
581.01	2209.02
581.36	2204.12
581.71	2200.08
582.06	2195.57
582.42	2191.27
582.77	2185.95
583.12	2181.50
583.47	2176.86
583.82	2172.03
584.17	2166.82
584.53	2161.36
584.88	2155.79
585.23	2149.96
585.58	2144.41
585.93	2138.95
586.28	2134.17
586.63	2129.19
586.98	2124.22
587.34	2119.52
587.69	2114.61
588.04	2109.40
588.39	2103.75
588.74	2097.17
589.09	2091.00
589.44	2084.24
589.79	2078.11
590.14	2072.49
590.49	2065.82
590.84	2059.41
591.19	2053.34
591.54	2047.04
591.89	2039.79
592.25	2033.11
592.60	2026.08
592.95	2018.60
593.30	2011.24
593.65	2003.70
594.00	1996.60
594.35	1989.36
594.70	1981.42
595.05	1974.33
595.40	1967.16
595.75	1959.73
596.10	1953.68
596.45	1947.05
596.80	1940.95
597.15	1934.38
597.50	1927.38
597.85	1921.05
598.19	1914.39
598.54	1907.30
598.89	1900.54
599.24	1894.65
599.59	1887.96
599.94	1881.67
600.29	1875.22
600.64	1868.54
600.99	1861.17
601.34	1854.46
601.69	1847.43
602.04	1840.62
602.39	1833.29
602.74	1826.40
603.08	1819.67
603.43	1812.88
603.78	1805.50
604.13	1798.21
604.48	1790.90
604.83	1784.05
605.18	1777.13
605.53	1769.13
605.87	1761.10
606.22	1753.89
606.57	1745.81
606.92	1738.42
607.27	1731.21
607.62	1724.19
607.96	1716.93
608.31	1710.12
608.66	1702.39
609.01	1694.92
609.36	1687.16
609.70	1679.16
610.05	1671.06
610.40	1663.22
610.75	1655.03
611.10	1647.21
611.44	1638.87
611.79	1630.90
612.14	1622.25
612.49	1613.02
612.83	1604.62
613.18	1596.51
613.53	1588.48
613.88	1580.10
614.22	1571.90
614.57	1563.45
614.92	1555.51
615.27	1547.96
615.61	1539.70
615.96	1531.72
616.31	1524.06
616.65	1516.70
617.00	1509.13
617.35	1501.52
617.70	1493.22
618.04	1484.75
618.39	1476.63
618.74	1469.05
619.08	1460.72
619.43	1453.01
619.78	1446.18
620.12	1439.05
620.47	1431.64
620.82	1423.35
621.16	1415.84
621.51	1408.19
621.85	1400.40
622.20	1392.10
622.55	1383.72
622.89	1375.83
623.24	1368.19
623.59	1360.83
623.93	1353.39
624.28	1346.06
624.62	1338.54
624.97	1331.49
625.32	1324.57
625.66	1317.55
626.01	1310.40
626.35	1302.90
626.70	1295.21
627.04	1287.34
627.39	1279.57
627.73	1272.07
628.08	1265.30
628.43	1258.00
628.77	1250.64
629.12	1243.29
629.46	1236.08
629.81	1228.65
630.15	1221.49
630.50	1214.16
630.84	1205.94
631.19	1198.02
631.53	1190.59
631.88	1183.03
632.22	1175.38
632.57	1168.09
632.91	1160.46
633.26	1152.91
633.60	1145.59
633.95	1138.42
634.29	1131.47
634.64	1124.72
634.98	1117.44
635.32	1110.23
635.67	1103.64
636.01	1097.03
636.36	1090.13
636.70	1083.49
637.05	1076.99
637.39	1070.49
637.73	1064.00
638.08	1058.08
638.42	1052.03
638.77	1045.56
639.11	1038.93
639.45	1032.50
639.80	1025.78
640.14	1019.48
640.49	1013.07
640.83	1006.73
641.17	1000.55
641.52	994.22
641.86	987.81
642.20	981.96
642.55	975.58
642.89	969.13
643.23	962.52
643.58	956.76
643.92	950.58
644.26	944.51
644.61	938.52
644.95	932.46
645.29	925.86
645.64	919.16
645.98	912.91
646.32	907.08
646.66	901.05
647.01	895.31
647.35	889.61
647.69	883.73
648.04	878.18
648.38	872.38
648.72	866.34
649.06	860.26
649.41	854.32
649.75	848.38
650.09	842.43
650.43	836.72
650.78	830.57
651.12	824.57
651.46	818.79
651.80	812.97
652.14	807.54
652.49	802.24
652.83	797.02
653.17	791.27
653.51	785.60
653.85	780.11
654.20	774.49
654.54	768.43
654.88	762.72
655.22	756.82
655.56	751.09
655.90	745.68
656.25	740.53
656.59	735.16
656.93	730.11
657.27	724.88
657.61	719.37
657.95	714.28
658.29	709.26
658.64	704.06
658.98	698.79
659.32	693.33
659.66	688.09
660.00	682.82
660.34	677.94
660.68	672.97
661.02	668.02
661.36	663.30
661.70	658.84
662.05	654.44
662.39	650.17
662.73	645.76
663.07	641.36
663.41	636.86
663.75	632.33
664.09	627.69
664.43	623.34
664.77	619.26
665.11	615.02
665.45	610.80
665.79	606.71
666.13	602.65
666.47	598.56
666.81	594.38
667.15	590.24
667.49	586.30
667.83	582.43
668.17	578.53
668.51	574.45
668.85	570.41
669.19	566.56
669.53	562.71
669.87	558.86
670.21	555.20
670.55	551.57
670.89	548.18
671.23	544.77
671.57	541.27
671.91	537.72
672.25	534.21
672.58	530.79
672.92	527.37
673.26	524.12
673.60	520.95
673.94	517.87
674.28	514.95
674.62	511.98
674.96	508.85
675.30	505.88
675.64	502.95
675.97	500.15
676.31	497.26
676.65	494.30
676.99	491.57
677.33	488.70
677.67	485.87
678.01	482.85
678.34	479.85
678.68	476.95
679.02	474.13
679.36	471.36
679.70	468.64
680.04	465.85
680.37	463.02
680.71	460.22
681.05	457.55
681.39	454.84
681.73	452.20
682.06	449.71
682.40	447.19
682.74	444.64
683.08	442.06
683.42	439.45
683.75	436.96
684.09	434.38
684.43	431.82
684.77	429.35
685.10	426.95
685.44	424.70
685.78	422.40
686.12	420.17
686.45	417.83
686.79	415.51
687.13	413.36
687.46	411.21
687.80	409.07
688.14	406.89
688.48	404.80
688.81	402.56
689.15	400.40
689.49	398.23
689.82	396.17
690.16	394.12
690.50	392.20
690.83	390.23
691.17	388.24
691.51	386.41
691.84	384.54
692.18	382.64
692.52	380.66
692.85	378.72
693.19	376.84
693.52	375.05
693.86	373.22
694.20	371.39
694.53	369.56
694.87	367.68
695.21	365.90
695.54	364.10
695.88	362.38
696.21	360.68
696.55	359.00
696.88	357.29
697.22	355.58
697.56	353.95
697.89	352.30
698.23	350.73
698.56	349.10
698.90	347.51
699.23	345.85
699.57	344.31
699.90	342.80
700.24	341.25
700.58	339.73
700.91	338.25
701.25	336.82
701.58	335.45
701.92	334.09
702.25	332.70
702.59	331.36
702.92	330.02
703.26	328.69
703.59	327.42
703.93	326.23
704.26	325.05
704.60	323.71
704.93	322.44
705.26	321.14
705.60	319.97
705.93	318.83
706.27	317.82
706.60	316.76
706.94	315.67
707.27	314.51
707.61	313.42
707.94	312.38
708.27	311.26
708.61	310.18
708.94	309.19
709.28	308.19
709.61	307.20
709.94	306.29
710.28	305.25
710.61	304.26
710.95	303.20
711.28	302.25
711.61	301.38
711.95	300.47
712.28	299.54
712.61	298.53
712.95	297.61
713.28	296.77
713.61	295.84
713.95	294.96
714.28	294.15
714.61	293.27
714.95	292.45
715.28	291.63
715.61	290.76
715.95	289.95
716.28	289.12
716.61	288.30
716.95	287.47
717.28	286.76
717.61	286.02
717.94	285.26
718.28	284.44
718.61	283.71
718.94	283.04
719.27	282.39
719.61	281.76
719.94	281.08
720.27	280.32
720.60	279.66
720.94	279.03
721.27	278.41
721.60	277.84
721.93	277.20
722.27	276.66
722.60	276.12
722.93	275.49
723.26	274.95
723.59	274.40
723.93	273.86
724.26	273.30
724.59	272.72
724.92	272.22
725.25	271.75
725.59	271.22
725.92	270.71
726.25	270.20
726.58	269.73
726.91	269.26
727.24	268.79
727.57	268.31
727.91	267.79
728.24	267.34
728.57	266.86
728.90	266.41
729.23	265.88
729.56	265.44
729.89	265.00
730.22	264.50
730.55	264.02
730.89	263.53
731.22	263.08
731.55	262.66
731.88	262.22
732.21	261.77
732.54	261.30
732.87	260.87
733.20	260.45
733.53	260.06
733.86	259.63
734.19	259.22
734.52	258.85
734.85	258.52
735.18	258.09
735.51	257.69
735.84	257.32
736.17	257.01
736.50	256.61
736.83	256.33
737.16	256.02
737.49	255.69
737.82	255.36
738.15	255.04
738.48	254.67
738.81	254.37
739.14	254.05
739.47	253.73
739.80	253.43
740.13	253.13
740.46	252.78
740.79	252.45
741.12	252.15
741.45	251.84
741.78	251.52
742.11	251.24
742.44	250.94
742.77	250.66
743.10	250.33
743.43	250.03
743.75	249.69
744.08	249.52
744.41	249.23
744.74	248.96
745.07	248.66
745.40	248.42
745.73	248.17
746.06	247.87
746.39	247.62
746.71	247.35
747.04	247.07
747.37	246.83
747.70	246.61
748.03	246.37
748.36	246.11
748.68	245.89
749.01	245.64
749.34	245.42
749.67	245.18
750.00	244.94
750.33	244.80
750.65	244.56
750.98	244.22
751.31	244.00
751.64	243.78
751.97	243.63
752.29	243.43
752.62	243.18
752.95	242.99
753.28	242.81
753.60	242.61
753.93	242.45
754.26	242.25
754.59	242.01
754.91	241.77
755.24	241.61
755.57	241.42
755.90	241.25
756.22	241.03
756.55	240.83
756.88	240.64
757.20	240.37
757.53	240.19
757.86	240.06
758.19	239.91
758.51	239.75
758.84	239.54
759.17	239.34
759.49	239.20
759.82	239.09
760.15	238.94
760.47	238.80
760.80	238.64
761.13	238.51
761.45	238.38
761.78	238.27
762.11	238.12
762.43	237.96
762.76	237.82
763.08	237.76
763.41	237.64
763.74	237.55
764.06	237.47
764.39	237.34
764.71	237.20
765.04	237.09
765.37	236.95
765.69	236.83
766.02	236.72
766.34	236.60
766.67	236.44
767.00	236.33
767.32	236.24
767.65	236.18
767.97	236.05
768.30	235.93
768.62	235.79
768.95	235.66
769.27	235.54
769.60	235.45
769.92	235.33
770.25	235.24
770.57	235.10
770.90	234.98
771.22	234.86
771.55	234.75
771.87	234.64
772.20	234.55
772.52	234.54
772.85	234.55
773.17	234.43
773.50	234.36
773.82	234.23
774.15	234.06
774.47	233.91
774.80	233.81
775.12	233.69
775.45	233.61
775.77	233.55
776.09	233.49
776.42	233.40
776.74	233.31
777.07	233.19
777.39	233.11
777.72	233.01
778.04	232.96
778.36	232.88
778.69	232.79
779.01	232.72
779.33	232.58
779.66	232.43
779.98	232.33
780.31	232.24
780.63	232.22
780.95	232.22
781.28	232.18
781.60	232.11
781.92	232.10
782.25	232.03
782.57	231.96
782.89	231.88
783.22	231.80
783.54	231.74
783.86	231.73
784.19	231.68
784.51	231.66
784.83	231.58
785.16	231.49
785.48	231.45
785.80	231.40
786.12	231.31
786.45	231.22
786.77	231.21
787.09	231.15
