SpectraSuite Data File
++++++++++++++++++++++++++++++++++++
Date: Fri Feb 01 16:01:46 EST 2013
User: group
Dark Spectrum Present: No
Reference Spectrum Present: No
Number of Sampled Component Spectra: 1
Spectrometers: USB2E7196
Integration Time (usec): 35000 (USB2E7196)
Spectra Averaged: 100 (USB2E7196)
Boxcar Smoothing: 10 (USB2E7196)
Correct for Electrical Dark: No (USB2E7196)
Strobe/Lamp Enabled: No (USB2E7196)
Correct for Detector Non-linearity: No (USB2E7196)
Correct for Stray Light: No (USB2E7196)
Number of Pixels in Processed Spectrum: 2048
>>>>>Begin Processed Spectral Data<<<<<
339.09	0.00
339.48	215.46
339.86	216.46
340.24	217.51
340.63	219.22
341.01	222.30
341.39	221.15
341.78	223.48
342.16	224.30
342.54	224.98
342.93	213.11
343.31	223.88
343.69	224.39
344.07	224.82
344.46	225.23
344.84	225.61
345.22	225.80
345.60	226.09
345.99	226.24
346.37	226.35
346.75	226.43
347.13	226.48
347.52	226.56
347.90	226.61
348.28	226.66
348.66	226.70
349.05	226.66
349.43	226.73
349.81	226.77
350.19	226.77
350.57	226.84
350.96	226.88
351.34	226.94
351.72	227.01
352.10	227.13
352.48	227.22
352.87	227.23
353.25	227.28
353.63	227.33
354.01	227.38
354.39	227.46
354.77	227.52
355.15	227.62
355.54	227.68
355.92	227.74
356.30	227.80
356.68	227.93
357.06	227.99
357.44	228.04
357.82	228.10
358.20	228.22
358.58	228.28
358.97	228.34
359.35	228.43
359.73	228.52
360.11	228.57
360.49	228.63
360.87	228.70
361.25	228.78
361.63	228.86
362.01	228.95
362.39	228.99
362.77	229.08
363.15	229.08
363.53	229.11
363.91	229.15
364.29	229.21
364.67	229.18
365.05	229.22
365.43	229.24
365.81	229.27
366.19	229.30
366.57	229.34
366.95	229.34
367.33	229.31
367.71	229.32
368.09	229.33
368.47	229.33
368.85	229.33
369.23	229.32
369.61	229.26
369.99	229.25
370.37	229.23
370.75	229.23
371.13	229.21
371.51	229.15
371.89	229.14
372.27	229.08
372.65	229.04
373.03	229.02
373.41	228.97
373.78	228.92
374.16	228.82
374.54	228.77
374.92	228.72
375.30	228.70
375.68	228.63
376.06	228.57
376.44	228.49
376.82	228.44
377.19	228.39
377.57	228.34
377.95	228.26
378.33	228.20
378.71	228.10
379.09	228.06
379.47	228.04
379.84	227.93
380.22	227.85
380.60	227.75
380.98	227.68
381.36	227.62
381.73	227.55
382.11	227.52
382.49	227.44
382.87	227.38
383.25	227.29
383.62	227.32
384.00	227.22
384.38	227.16
384.76	227.12
385.13	227.10
385.51	227.04
385.89	226.99
386.27	226.91
386.64	226.84
387.02	226.74
387.40	226.68
387.78	226.65
388.15	226.59
388.53	226.54
388.91	226.50
389.29	226.44
389.66	226.41
390.04	226.37
390.42	226.34
390.79	226.31
391.17	226.29
391.55	226.15
391.92	226.16
392.30	226.13
392.68	226.12
393.05	226.11
393.43	226.08
393.81	226.07
394.18	226.09
394.56	226.10
394.94	226.14
395.31	226.16
395.69	226.20
396.06	226.24
396.44	226.29
396.82	226.33
397.19	226.42
397.57	226.45
397.95	226.49
398.32	226.53
398.70	226.59
399.07	226.68
399.45	226.75
399.82	226.82
400.20	226.89
400.58	226.96
400.95	226.99
401.33	227.12
401.70	227.26
402.08	227.34
402.45	227.48
402.83	227.60
403.20	227.72
403.58	227.83
403.95	228.00
404.33	228.16
404.71	228.26
405.08	228.45
405.46	228.57
405.83	228.71
406.21	228.90
406.58	229.01
406.96	229.15
407.33	229.31
407.70	229.51
408.08	229.79
408.45	230.00
408.83	230.25
409.20	230.44
409.58	230.60
409.95	230.86
410.33	231.11
410.70	231.37
411.08	231.65
411.45	231.95
411.82	232.22
412.20	232.57
412.57	232.99
412.95	233.27
413.32	233.70
413.69	234.14
414.07	234.59
414.44	235.10
414.82	235.58
415.19	236.18
415.56	236.74
415.94	237.26
416.31	237.89
416.68	238.53
417.06	239.27
417.43	239.96
417.81	240.71
418.18	241.49
418.55	242.34
418.93	243.23
419.30	244.15
419.67	245.09
420.04	245.98
420.42	246.95
420.79	248.14
421.16	249.29
421.54	250.53
421.91	251.74
422.28	253.01
422.66	254.35
423.03	255.61
423.40	256.93
423.77	258.34
424.15	259.77
424.52	261.26
424.89	262.87
425.26	264.43
425.64	265.91
426.01	267.46
426.38	269.08
426.75	270.74
427.13	272.41
427.50	274.19
427.87	276.12
428.24	277.99
428.61	279.73
428.99	281.66
429.36	283.71
429.73	285.75
430.10	287.75
430.47	289.82
430.85	291.96
431.22	294.17
431.59	296.57
431.96	298.82
432.33	301.28
432.70	303.61
433.08	306.38
433.45	308.98
433.82	311.62
434.19	314.56
434.56	317.35
434.93	320.00
435.30	322.66
435.68	325.53
436.05	328.36
436.42	331.15
436.79	333.64
437.16	336.31
437.53	339.10
437.90	341.88
438.27	344.57
438.64	347.37
439.01	349.96
439.38	352.17
439.75	354.34
440.13	356.78
440.50	359.13
440.87	360.97
441.24	362.92
441.61	365.03
441.98	366.45
442.35	368.25
442.72	370.13
443.09	371.86
443.46	372.84
443.83	373.39
444.20	373.87
444.57	374.69
444.94	374.97
445.31	375.28
445.68	375.60
446.05	375.68
446.42	375.28
446.79	374.86
447.16	374.40
447.53	374.05
447.90	372.89
448.27	371.70
448.64	370.16
449.01	369.00
449.37	367.04
449.74	365.14
450.11	362.87
450.48	360.37
450.85	357.85
451.22	355.74
451.59	353.74
451.96	351.80
452.33	349.21
452.70	346.86
453.07	344.06
453.43	341.21
453.80	338.45
454.17	335.79
454.54	333.22
454.91	330.50
455.28	327.83
455.65	325.38
456.02	322.95
456.38	320.75
456.75	318.12
457.12	315.88
457.49	313.65
457.86	311.53
458.23	309.75
458.59	307.73
458.96	305.60
459.33	303.78
459.70	301.94
460.07	300.44
460.43	298.71
460.80	297.12
461.17	295.67
461.54	294.19
461.91	292.77
462.27	291.36
462.64	290.12
463.01	288.78
463.38	287.49
463.74	286.15
464.11	285.02
464.48	283.99
464.85	282.86
465.21	282.03
465.58	281.09
465.95	279.99
466.32	279.08
466.68	278.19
467.05	277.30
467.42	276.42
467.78	275.48
468.15	274.61
468.52	273.93
468.88	273.11
469.25	272.34
469.62	271.74
469.98	271.06
470.35	270.44
470.72	269.82
471.08	269.17
471.45	268.66
471.82	268.13
472.18	267.53
472.55	267.15
472.92	266.63
473.28	266.21
473.65	265.74
474.02	265.31
474.38	264.95
474.75	264.61
475.11	264.27
475.48	264.05
475.85	263.88
476.21	263.66
476.58	263.47
476.94	263.33
477.31	263.17
477.67	263.01
478.04	262.88
478.41	262.85
478.77	262.91
479.14	262.83
479.50	262.84
479.87	262.92
480.23	263.01
480.60	263.07
480.96	263.12
481.33	263.33
481.69	263.55
482.06	263.78
482.42	264.00
482.79	264.31
483.15	264.60
483.52	264.95
483.88	265.31
484.25	265.71
484.61	266.11
484.98	266.54
485.34	267.13
485.71	267.77
486.07	268.39
486.44	268.94
486.80	269.62
487.17	270.35
487.53	271.17
487.90	272.00
488.26	272.93
488.62	273.93
488.99	274.91
489.35	275.94
489.72	277.05
490.08	278.23
490.44	279.42
490.81	280.77
491.17	282.10
491.54	283.57
491.90	285.08
492.26	286.74
492.63	288.50
492.99	290.26
493.36	292.16
493.72	294.20
494.08	296.31
494.45	298.60
494.81	300.97
495.17	303.41
495.54	305.96
495.90	308.65
496.26	311.48
496.63	314.46
496.99	317.58
497.35	320.86
497.72	324.25
498.08	327.77
498.44	331.41
498.80	335.37
499.17	339.40
499.53	343.62
499.89	348.03
500.26	352.52
500.62	357.19
500.98	362.11
501.34	367.16
501.71	372.50
502.07	377.92
502.43	383.51
502.79	389.32
503.16	395.38
503.52	401.68
503.88	408.07
504.24	414.73
504.60	421.59
504.97	428.67
505.33	436.04
505.69	443.75
506.05	451.57
506.41	459.41
506.78	467.64
507.14	476.10
507.50	484.79
507.86	493.88
508.22	503.09
508.59	512.28
508.95	521.88
509.31	531.72
509.67	541.83
510.03	552.21
510.39	562.78
510.75	573.57
511.12	584.52
511.48	595.87
511.84	607.31
512.20	618.82
512.56	630.79
512.92	642.99
513.28	655.35
513.64	667.86
514.00	680.56
514.37	693.49
514.73	706.55
515.09	719.57
515.45	732.88
515.81	746.51
516.17	760.56
516.53	774.76
516.89	788.97
517.25	803.16
517.61	817.50
517.97	831.96
518.33	846.39
518.69	861.12
519.05	876.06
519.41	891.21
519.77	906.82
520.13	922.27
520.49	937.60
520.85	953.05
521.21	968.66
521.57	984.90
521.93	1000.65
522.29	1016.92
522.65	1033.19
523.01	1049.25
523.37	1065.32
523.73	1081.48
524.09	1097.42
524.45	1113.67
524.81	1130.32
525.17	1147.13
525.53	1164.18
525.89	1181.14
526.25	1197.93
526.61	1214.41
526.97	1231.03
527.33	1247.42
527.68	1264.04
528.04	1280.49
528.40	1296.94
528.76	1314.02
529.12	1330.71
529.48	1347.54
529.84	1363.56
530.20	1380.16
530.56	1397.21
530.91	1414.48
531.27	1431.10
531.63	1447.64
531.99	1464.20
532.35	1480.06
532.71	1495.94
533.07	1511.98
533.42	1527.76
533.78	1543.81
534.14	1559.99
534.50	1575.30
534.86	1591.27
535.21	1606.24
535.57	1622.14
535.93	1637.69
536.29	1652.40
536.65	1667.31
537.00	1682.02
537.36	1697.42
537.72	1711.91
538.08	1726.18
538.44	1739.94
538.79	1753.86
539.15	1767.45
539.51	1781.08
539.87	1795.44
540.22	1809.15
540.58	1822.94
540.94	1836.27
541.29	1849.17
541.65	1861.63
542.01	1874.97
542.37	1887.09
542.72	1899.68
543.08	1911.36
543.44	1923.71
543.79	1934.86
544.15	1945.83
544.51	1957.33
544.87	1968.15
545.22	1978.85
545.58	1989.09
545.94	1998.80
546.29	2008.55
546.65	2018.35
547.01	2027.58
547.36	2036.18
547.72	2044.57
548.07	2052.36
548.43	2060.55
548.79	2068.46
549.14	2075.94
549.50	2083.11
549.86	2090.82
550.21	2098.11
550.57	2105.27
550.92	2111.84
551.28	2118.87
551.64	2125.91
551.99	2132.49
552.35	2138.70
552.70	2144.98
553.06	2150.90
553.41	2157.23
553.77	2163.37
554.13	2169.37
554.48	2175.46
554.84	2181.04
555.19	2186.38
555.55	2191.58
555.90	2195.99
556.26	2200.83
556.61	2205.74
556.97	2209.98
557.32	2213.96
557.68	2218.04
558.03	2222.43
558.39	2226.11
558.74	2230.83
559.10	2234.82
559.45	2238.54
559.81	2242.80
560.16	2246.52
560.52	2249.87
560.87	2253.38
561.23	2256.02
561.58	2259.19
561.94	2261.72
562.29	2263.97
562.64	2266.52
563.00	2269.10
563.35	2272.63
563.71	2275.82
564.06	2278.93
564.42	2282.02
564.77	2284.64
565.12	2286.91
565.48	2288.77
565.83	2290.59
566.19	2291.89
566.54	2292.64
566.89	2293.65
567.25	2294.16
567.60	2295.46
567.96	2297.17
568.31	2297.91
568.66	2299.04
569.02	2299.35
569.37	2299.85
569.72	2300.89
570.08	2301.17
570.43	2301.20
570.78	2300.62
571.14	2299.11
571.49	2297.94
571.84	2297.59
572.20	2296.55
572.55	2295.57
572.90	2294.05
573.26	2292.62
573.61	2291.08
573.96	2289.28
574.31	2286.42
574.67	2283.60
575.02	2280.11
575.37	2276.72
575.72	2273.03
576.08	2269.75
576.43	2266.56
576.78	2262.75
577.13	2259.47
577.49	2256.32
577.84	2252.77
578.19	2249.15
578.54	2245.57
578.90	2241.31
579.25	2235.70
579.60	2230.73
579.95	2225.57
580.30	2220.58
580.66	2215.54
581.01	2210.52
581.36	2205.65
581.71	2201.45
582.06	2196.98
582.42	2192.43
582.77	2187.19
583.12	2182.59
583.47	2177.81
583.82	2172.92
584.17	2167.73
584.53	2162.18
584.88	2156.62
585.23	2150.91
585.58	2145.39
585.93	2139.99
586.28	2135.28
586.63	2130.19
586.98	2125.09
587.34	2120.51
587.69	2115.63
588.04	2110.32
588.39	2104.62
588.74	2098.20
589.09	2092.01
589.44	2085.04
589.79	2079.03
590.14	2073.43
590.49	2066.93
590.84	2060.58
591.19	2054.56
591.54	2048.08
591.89	2040.78
592.25	2033.91
592.60	2026.60
592.95	2018.96
593.30	2011.49
593.65	2003.79
594.00	1996.93
594.35	1989.63
594.70	1981.50
595.05	1974.34
595.40	1967.16
595.75	1959.69
596.10	1953.55
596.45	1946.97
596.80	1941.01
597.15	1934.43
597.50	1927.32
597.85	1920.83
598.19	1914.13
598.54	1906.95
598.89	1900.40
599.24	1894.50
599.59	1887.84
599.94	1881.78
600.29	1875.47
600.64	1868.85
600.99	1861.52
601.34	1854.58
601.69	1847.65
602.04	1840.90
602.39	1833.43
602.74	1826.47
603.08	1819.78
603.43	1812.96
603.78	1805.56
604.13	1798.26
604.48	1790.97
604.83	1784.15
605.18	1777.13
605.53	1769.20
605.87	1761.24
606.22	1753.98
606.57	1745.95
606.92	1738.58
607.27	1731.38
607.62	1724.42
607.96	1717.28
608.31	1710.56
608.66	1702.97
609.01	1695.44
609.36	1687.83
609.70	1679.92
610.05	1671.86
610.40	1664.28
610.75	1656.05
611.10	1648.40
611.44	1640.09
611.79	1632.10
612.14	1623.41
612.49	1614.33
612.83	1606.04
613.18	1597.94
613.53	1589.87
613.88	1581.44
614.22	1573.30
614.57	1564.69
614.92	1556.72
615.27	1549.08
615.61	1540.76
615.96	1532.77
616.31	1525.12
616.65	1517.83
617.00	1510.22
617.35	1502.67
617.70	1494.17
618.04	1485.62
618.39	1477.42
618.74	1469.77
619.08	1461.46
619.43	1453.91
619.78	1447.00
620.12	1439.69
620.47	1432.16
620.82	1423.99
621.16	1416.59
621.51	1408.95
621.85	1401.30
622.20	1392.76
622.55	1384.47
622.89	1376.71
623.24	1369.07
623.59	1361.68
623.93	1354.06
624.28	1346.82
624.62	1339.30
624.97	1332.16
625.32	1325.35
625.66	1318.31
626.01	1311.04
626.35	1303.56
626.70	1295.80
627.04	1287.95
627.39	1280.17
627.73	1272.69
628.08	1265.70
628.43	1258.38
628.77	1250.99
629.12	1243.40
629.46	1236.22
629.81	1228.77
630.15	1221.53
630.50	1214.04
630.84	1205.86
631.19	1198.01
631.53	1190.57
631.88	1182.98
632.22	1175.24
632.57	1167.98
632.91	1160.47
633.26	1153.05
633.60	1145.72
633.95	1138.58
634.29	1131.65
634.64	1124.99
634.98	1117.59
635.32	1110.44
635.67	1103.85
636.01	1097.20
636.36	1090.39
636.70	1083.87
637.05	1077.28
637.39	1070.82
637.73	1064.30
638.08	1058.49
638.42	1052.45
638.77	1045.90
639.11	1039.32
639.45	1033.03
639.80	1026.27
640.14	1019.75
640.49	1013.29
640.83	1006.99
641.17	1000.72
641.52	994.31
641.86	987.83
642.20	981.99
642.55	975.76
642.89	969.25
643.23	962.76
643.58	957.04
643.92	950.83
644.26	944.71
644.61	938.57
644.95	932.55
645.29	925.89
645.64	919.13
645.98	912.87
646.32	906.97
646.66	900.93
647.01	895.25
647.35	889.55
647.69	883.71
648.04	878.14
648.38	872.38
648.72	866.43
649.06	860.44
649.41	854.58
649.75	848.58
650.09	842.68
650.43	836.91
650.78	830.71
651.12	824.79
651.46	819.11
651.80	813.42
652.14	808.08
652.49	802.81
652.83	797.63
653.17	791.86
653.51	786.15
653.85	780.75
654.20	775.08
654.54	769.09
654.88	763.40
655.22	757.60
655.56	752.01
655.90	746.56
656.25	741.22
656.59	735.85
656.93	730.71
657.27	725.50
657.61	719.97
657.95	714.89
658.29	709.79
658.64	704.57
658.98	699.27
659.32	693.78
659.66	688.53
660.00	683.23
660.34	678.36
660.68	673.44
661.02	668.41
661.36	663.67
661.70	659.15
662.05	654.70
662.39	650.35
662.73	645.83
663.07	641.36
663.41	636.94
663.75	632.43
664.09	627.85
664.43	623.50
664.77	619.40
665.11	615.17
665.45	611.05
665.79	606.94
666.13	602.79
666.47	598.68
666.81	594.46
667.15	590.31
667.49	586.43
667.83	582.66
668.17	578.67
668.51	574.50
668.85	570.45
669.19	566.58
669.53	562.71
669.87	558.83
670.21	555.20
670.55	551.59
670.89	548.20
671.23	544.85
671.57	541.36
671.91	537.77
672.25	534.27
672.58	530.71
672.92	527.29
673.26	524.10
673.60	520.96
673.94	517.81
674.28	514.93
674.62	511.93
674.96	508.78
675.30	505.92
675.64	503.06
675.97	500.27
676.31	497.43
676.65	494.41
676.99	491.63
677.33	488.74
677.67	485.89
678.01	482.80
678.34	479.77
678.68	476.81
679.02	474.01
679.36	471.24
679.70	468.57
680.04	465.83
680.37	462.96
680.71	460.12
681.05	457.51
681.39	454.77
681.73	452.11
682.06	449.56
682.40	446.94
682.74	444.42
683.08	441.86
683.42	439.24
683.75	436.78
684.09	434.25
684.43	431.79
684.77	429.38
685.10	427.10
685.44	424.76
685.78	422.47
686.12	420.25
686.45	417.93
686.79	415.61
687.13	413.42
687.46	411.28
687.80	409.12
688.14	406.94
688.48	404.90
688.81	402.63
689.15	400.44
689.49	398.30
689.82	396.22
690.16	394.21
690.50	392.27
690.83	390.36
691.17	388.42
691.51	386.47
691.84	384.58
692.18	382.61
692.52	380.65
692.85	378.76
693.19	376.85
693.52	374.99
693.86	373.15
694.20	371.37
694.53	369.56
694.87	367.79
695.21	365.96
695.54	364.14
695.88	362.44
696.21	360.77
696.55	359.17
696.88	357.50
697.22	355.85
697.56	354.26
697.89	352.60
698.23	350.95
698.56	349.34
698.90	347.74
699.23	346.09
699.57	344.55
699.90	342.99
700.24	341.50
700.58	340.00
700.91	338.53
701.25	337.06
701.58	335.68
701.92	334.31
702.25	332.93
702.59	331.54
702.92	330.20
703.26	328.92
703.59	327.61
703.93	326.46
704.26	325.19
704.60	323.87
704.93	322.56
705.26	321.29
705.60	320.11
705.93	318.91
706.27	317.91
706.60	316.88
706.94	315.80
707.27	314.64
707.61	313.60
707.94	312.56
708.27	311.47
708.61	310.44
708.94	309.44
709.28	308.50
709.61	307.60
709.94	306.65
710.28	305.59
710.61	304.60
710.95	303.50
711.28	302.58
711.61	301.67
711.95	300.79
712.28	299.88
712.61	298.89
712.95	297.98
713.28	297.07
713.61	296.16
713.95	295.27
714.28	294.44
714.61	293.55
714.95	292.74
715.28	291.91
715.61	290.97
715.95	290.04
716.28	289.15
716.61	288.29
716.95	287.49
717.28	286.77
717.61	285.98
717.94	285.23
718.28	284.43
718.61	283.65
718.94	282.92
719.27	282.23
719.61	281.62
719.94	280.99
720.27	280.28
720.60	279.60
720.94	278.95
721.27	278.35
721.60	277.79
721.93	277.15
722.27	276.55
722.60	276.03
722.93	275.51
723.26	275.01
723.59	274.44
723.93	273.87
724.26	273.29
724.59	272.74
724.92	272.23
725.25	271.75
725.59	271.24
725.92	270.77
726.25	270.28
726.58	269.78
726.91	269.23
727.24	268.78
727.57	268.31
727.91	267.80
728.24	267.33
728.57	266.80
728.90	266.37
729.23	265.91
729.56	265.44
729.89	264.93
730.22	264.43
730.55	264.01
730.89	263.61
731.22	263.16
731.55	262.73
731.88	262.31
732.21	261.90
732.54	261.47
732.87	261.03
733.20	260.63
733.53	260.25
733.86	259.94
734.19	259.54
734.52	259.15
734.85	258.87
735.18	258.46
735.51	258.11
735.84	257.75
736.17	257.40
736.50	257.04
736.83	256.84
737.16	256.52
737.49	256.16
737.82	255.78
738.15	255.47
738.48	255.16
738.81	254.83
739.14	254.52
739.47	254.22
739.80	253.93
740.13	253.63
740.46	253.32
740.79	252.97
741.12	252.67
741.45	252.37
741.78	252.04
742.11	251.75
742.44	251.44
742.77	251.15
743.10	250.82
743.43	250.53
743.75	250.14
744.08	250.00
744.41	249.73
744.74	249.50
745.07	249.24
745.40	249.00
745.73	248.78
746.06	248.49
746.39	248.22
746.71	247.96
747.04	247.69
747.37	247.43
747.70	247.16
748.03	246.93
748.36	246.70
748.68	246.43
749.01	246.19
749.34	245.98
749.67	245.75
750.00	245.54
750.33	245.38
750.65	245.18
750.98	244.80
751.31	244.58
751.64	244.37
751.97	244.21
752.29	243.97
752.62	243.69
752.95	243.43
753.28	243.23
753.60	243.01
753.93	242.83
754.26	242.63
754.59	242.44
754.91	242.18
755.24	241.98
755.57	241.79
755.90	241.61
756.22	241.41
756.55	241.18
756.88	240.98
757.20	240.74
757.53	240.55
757.86	240.39
758.19	240.20
758.51	239.98
758.84	239.76
759.17	239.61
759.49	239.46
759.82	239.40
760.15	239.26
760.47	239.11
760.80	238.94
761.13	238.80
761.45	238.63
761.78	238.53
762.11	238.39
762.43	238.26
762.76	238.11
763.08	237.99
763.41	237.88
763.74	237.73
764.06	237.59
764.39	237.41
764.71	237.27
765.04	237.15
765.37	237.02
765.69	236.85
766.02	236.68
766.34	236.52
766.67	236.34
767.00	236.24
767.32	236.15
767.65	236.08
767.97	235.96
768.30	235.85
768.62	235.76
768.95	235.61
769.27	235.49
769.60	235.38
769.92	235.26
770.25	235.15
770.57	235.04
770.90	234.94
771.22	234.87
771.55	234.78
771.87	234.66
772.20	234.59
772.52	234.62
772.85	234.68
773.17	234.62
773.50	234.53
773.82	234.41
774.15	234.27
774.47	234.13
774.80	234.02
775.12	233.96
775.45	233.83
775.77	233.75
776.09	233.70
776.42	233.62
776.74	233.58
777.07	233.51
777.39	233.45
777.72	233.37
778.04	233.34
778.36	233.28
778.69	233.25
779.01	233.21
779.33	233.07
779.66	232.88
779.98	232.82
780.31	232.77
780.63	232.74
780.95	232.73
781.28	232.67
781.60	232.62
781.92	232.53
782.25	232.49
782.57	232.49
782.89	232.40
783.22	232.35
783.54	232.27
783.86	232.23
784.19	232.20
784.51	232.19
784.83	232.11
785.16	232.04
785.48	231.99
785.80	231.90
786.12	231.84
786.45	231.78
786.77	231.72
787.09	231.68
