SpectraSuite Data File
++++++++++++++++++++++++++++++++++++
Date: Fri Feb 01 16:48:14 EST 2013
User: group
Dark Spectrum Present: No
Reference Spectrum Present: No
Number of Sampled Component Spectra: 1
Spectrometers: USB2E7196
Integration Time (usec): 35000 (USB2E7196)
Spectra Averaged: 100 (USB2E7196)
Boxcar Smoothing: 10 (USB2E7196)
Correct for Electrical Dark: No (USB2E7196)
Strobe/Lamp Enabled: No (USB2E7196)
Correct for Detector Non-linearity: No (USB2E7196)
Correct for Stray Light: No (USB2E7196)
Number of Pixels in Processed Spectrum: 2048
>>>>>Begin Processed Spectral Data<<<<<
339.09	0.00
339.48	213.48
339.86	214.47
340.24	216.55
340.63	217.45
341.01	220.54
341.39	220.46
341.78	222.01
342.16	222.76
342.54	223.89
342.93	211.78
343.31	222.49
343.69	223.04
344.07	223.55
344.46	223.97
344.84	224.37
345.22	224.62
345.60	224.84
345.99	225.04
346.37	225.20
346.75	225.29
347.13	225.37
347.52	225.44
347.90	225.52
348.28	225.53
348.66	225.56
349.05	225.56
349.43	225.60
349.81	225.67
350.19	225.73
350.57	225.78
350.96	225.86
351.34	225.94
351.72	226.00
352.10	226.08
352.48	226.13
352.87	226.17
353.25	226.21
353.63	226.31
354.01	226.33
354.39	226.38
354.77	226.43
355.15	226.51
355.54	226.57
355.92	226.59
356.30	226.66
356.68	226.81
357.06	226.87
357.44	226.94
357.82	227.02
358.20	227.08
358.58	227.14
358.97	227.18
359.35	227.25
359.73	227.38
360.11	227.44
360.49	227.52
360.87	227.57
361.25	227.64
361.63	227.71
362.01	227.75
362.39	227.75
362.77	227.80
363.15	227.84
363.53	227.87
363.91	227.91
364.29	227.93
364.67	227.86
365.05	227.87
365.43	227.88
365.81	227.89
366.19	227.92
366.57	227.96
366.95	227.94
367.33	227.94
367.71	227.88
368.09	227.87
368.47	227.82
368.85	227.82
369.23	227.81
369.61	227.75
369.99	227.72
370.37	227.74
370.75	227.77
371.13	227.71
371.51	227.66
371.89	227.62
372.27	227.61
372.65	227.59
373.03	227.54
373.41	227.47
373.78	227.39
374.16	227.29
374.54	227.19
374.92	227.15
375.30	227.08
375.68	227.02
376.06	226.96
376.44	226.93
376.82	226.87
377.19	226.78
377.57	226.74
377.95	226.66
378.33	226.57
378.71	226.45
379.09	226.41
379.47	226.37
379.84	226.29
380.22	226.18
380.60	226.08
380.98	225.99
381.36	225.93
381.73	225.87
382.11	225.84
382.49	225.80
382.87	225.74
383.25	225.67
383.62	225.72
384.00	225.65
384.38	225.58
384.76	225.52
385.13	225.52
385.51	225.42
385.89	225.39
386.27	225.38
386.64	225.30
387.02	225.26
387.40	225.18
387.78	225.17
388.15	225.17
388.53	225.15
388.91	225.15
389.29	225.11
389.66	225.10
390.04	225.07
390.42	225.05
390.79	225.03
391.17	225.03
391.55	224.90
391.92	224.86
392.30	224.85
392.68	224.88
393.05	224.86
393.43	224.88
393.81	224.90
394.18	224.88
394.56	224.92
394.94	224.93
395.31	224.94
395.69	224.99
396.06	225.00
396.44	225.05
396.82	225.06
397.19	225.15
397.57	225.20
397.95	225.25
398.32	225.28
398.70	225.33
399.07	225.41
399.45	225.49
399.82	225.61
400.20	225.66
400.58	225.70
400.95	225.76
401.33	225.84
401.70	225.99
402.08	226.09
402.45	226.17
402.83	226.28
403.20	226.41
403.58	226.48
403.95	226.61
404.33	226.72
404.71	226.86
405.08	227.03
405.46	227.17
405.83	227.31
406.21	227.45
406.58	227.60
406.96	227.76
407.33	227.95
407.70	228.10
408.08	228.38
408.45	228.57
408.83	228.84
409.20	229.05
409.58	229.23
409.95	229.46
410.33	229.74
410.70	230.01
411.08	230.29
411.45	230.61
411.82	230.90
412.20	231.27
412.57	231.68
412.95	232.00
413.32	232.39
413.69	232.77
414.07	233.19
414.44	233.66
414.82	234.13
415.19	234.66
415.56	235.22
415.94	235.76
416.31	236.37
416.68	236.95
417.06	237.64
417.43	238.29
417.81	239.06
418.18	239.82
418.55	240.64
418.93	241.51
419.30	242.39
419.67	243.35
420.04	244.29
420.42	245.27
420.79	246.41
421.16	247.53
421.54	248.71
421.91	249.90
422.28	251.14
422.66	252.42
423.03	253.69
423.40	254.99
423.77	256.34
424.15	257.77
424.52	259.25
424.89	260.88
425.26	262.38
425.64	263.80
426.01	265.39
426.38	267.01
426.75	268.68
427.13	270.39
427.50	272.17
427.87	274.03
428.24	275.85
428.61	277.54
428.99	279.48
429.36	281.54
429.73	283.61
430.10	285.60
430.47	287.68
430.85	289.76
431.22	291.98
431.59	294.38
431.96	296.61
432.33	299.06
432.70	301.42
433.08	304.21
433.45	306.83
433.82	309.41
434.19	312.27
434.56	315.05
434.93	317.65
435.30	320.22
435.68	323.02
436.05	325.83
436.42	328.59
436.79	331.10
437.16	333.78
437.53	336.57
437.90	339.36
438.27	342.04
438.64	344.84
439.01	347.41
439.38	349.62
439.75	351.72
440.13	354.19
440.50	356.48
440.87	358.35
441.24	360.28
441.61	362.40
441.98	363.87
442.35	365.62
442.72	367.46
443.09	369.28
443.46	370.31
443.83	370.91
444.20	371.44
444.57	372.28
444.94	372.57
445.31	372.92
445.68	373.29
446.05	373.42
446.42	373.07
446.79	372.68
447.16	372.27
447.53	372.03
447.90	370.93
448.27	369.83
448.64	368.27
449.01	367.20
449.37	365.30
449.74	363.44
450.11	361.26
450.48	358.85
450.85	356.32
451.22	354.23
451.59	352.21
451.96	350.34
452.33	347.76
452.70	345.47
453.07	342.71
453.43	339.79
453.80	337.04
454.17	334.42
454.54	331.92
454.91	329.24
455.28	326.58
455.65	324.15
456.02	321.72
456.38	319.60
456.75	316.92
457.12	314.68
457.49	312.54
457.86	310.39
458.23	308.56
458.59	306.58
458.96	304.51
459.33	302.68
459.70	300.82
460.07	299.37
460.43	297.67
460.80	296.11
461.17	294.71
461.54	293.25
461.91	291.81
462.27	290.36
462.64	289.09
463.01	287.76
463.38	286.44
463.74	285.09
464.11	283.91
464.48	282.88
464.85	281.77
465.21	280.92
465.58	280.01
465.95	278.95
466.32	278.04
466.68	277.14
467.05	276.29
467.42	275.41
467.78	274.46
468.15	273.55
468.52	272.84
468.88	272.00
469.25	271.22
469.62	270.63
469.98	269.97
470.35	269.34
470.72	268.69
471.08	268.05
471.45	267.49
471.82	266.95
472.18	266.37
472.55	265.97
472.92	265.43
473.28	264.97
473.65	264.50
474.02	264.08
474.38	263.71
474.75	263.40
475.11	263.05
475.48	262.79
475.85	262.57
476.21	262.36
476.58	262.17
476.94	262.03
477.31	261.85
477.67	261.70
478.04	261.57
478.41	261.51
478.77	261.55
479.14	261.49
479.50	261.54
479.87	261.61
480.23	261.70
480.60	261.79
480.96	261.88
481.33	262.08
481.69	262.28
482.06	262.47
482.42	262.66
482.79	262.97
483.15	263.29
483.52	263.73
483.88	264.08
484.25	264.48
484.61	264.89
484.98	265.38
485.34	265.97
485.71	266.59
486.07	267.23
486.44	267.80
486.80	268.53
487.17	269.24
487.53	270.08
487.90	270.92
488.26	271.84
488.62	272.84
488.99	273.83
489.35	274.87
489.72	276.01
490.08	277.21
490.44	278.43
490.81	279.76
491.17	281.07
491.54	282.57
491.90	284.10
492.26	285.77
492.63	287.49
492.99	289.23
493.36	291.11
493.72	293.16
494.08	295.25
494.45	297.48
494.81	299.85
495.17	302.28
495.54	304.84
495.90	307.52
496.26	310.28
496.63	313.23
496.99	316.37
497.35	319.62
497.72	323.00
498.08	326.48
498.44	330.13
498.80	334.03
499.17	338.10
499.53	342.26
499.89	346.63
500.26	351.14
500.62	355.83
500.98	360.76
501.34	365.82
501.71	371.14
502.07	376.56
502.43	382.16
502.79	387.98
503.16	394.04
503.52	400.25
503.88	406.70
504.24	413.29
504.60	420.07
504.97	427.21
505.33	434.54
505.69	442.25
506.05	450.05
506.41	457.93
506.78	466.04
507.14	474.46
507.50	483.13
507.86	492.10
508.22	501.30
508.59	510.47
508.95	519.98
509.31	529.81
509.67	539.96
510.03	550.18
510.39	560.70
510.75	571.43
511.12	582.38
511.48	593.62
511.84	605.08
512.20	616.62
512.56	628.47
512.92	640.57
513.28	652.89
513.64	665.24
514.00	677.88
514.37	690.63
514.73	703.60
515.09	716.59
515.45	729.79
515.81	743.23
516.17	757.11
516.53	771.13
516.89	785.17
517.25	799.12
517.61	813.45
517.97	827.75
518.33	842.06
518.69	856.68
519.05	871.58
519.41	886.54
519.77	901.94
520.13	917.27
520.49	932.57
520.85	947.77
521.21	963.34
521.57	979.45
521.93	995.17
522.29	1011.38
522.65	1027.55
523.01	1043.61
523.37	1059.56
523.73	1075.59
524.09	1091.63
524.45	1107.78
524.81	1124.36
525.17	1141.03
525.53	1157.65
525.89	1174.37
526.25	1191.07
526.61	1207.36
526.97	1224.02
527.33	1240.26
527.68	1256.64
528.04	1272.93
528.40	1289.29
528.76	1306.14
529.12	1322.55
529.48	1339.25
529.84	1355.07
530.20	1371.48
530.56	1388.17
530.91	1405.40
531.27	1422.03
531.63	1438.21
531.99	1454.49
532.35	1470.22
532.71	1485.94
533.07	1502.09
533.42	1517.82
533.78	1533.72
534.14	1549.58
534.50	1564.69
534.86	1580.40
535.21	1595.44
535.57	1611.15
535.93	1626.53
536.29	1641.16
536.65	1655.91
537.00	1670.39
537.36	1685.63
537.72	1699.85
538.08	1714.21
538.44	1727.79
538.79	1741.45
539.15	1754.80
539.51	1768.51
539.87	1782.68
540.22	1796.08
540.58	1809.53
540.94	1822.39
541.29	1834.76
541.65	1847.36
542.01	1860.26
542.37	1872.40
542.72	1884.73
543.08	1896.37
543.44	1908.48
543.79	1919.51
544.15	1930.46
544.51	1941.93
544.87	1952.74
545.22	1963.58
545.58	1973.75
545.94	1983.39
546.29	1993.13
546.65	2002.99
547.01	2012.11
547.36	2020.70
547.72	2029.22
548.07	2037.13
548.43	2045.53
548.79	2053.59
549.14	2061.16
549.50	2068.54
549.86	2076.10
550.21	2083.16
550.57	2090.14
550.92	2096.80
551.28	2103.90
551.64	2110.86
551.99	2117.32
552.35	2123.28
552.70	2129.29
553.06	2135.06
553.41	2141.43
553.77	2147.45
554.13	2153.51
554.48	2159.44
554.84	2165.03
555.19	2170.07
555.55	2175.25
555.90	2179.64
556.26	2184.87
556.61	2189.45
556.97	2193.80
557.32	2197.98
557.68	2202.20
558.03	2206.47
558.39	2210.00
558.74	2214.65
559.10	2218.57
559.45	2222.18
559.81	2226.39
560.16	2230.23
560.52	2233.70
560.87	2237.04
561.23	2239.79
561.58	2242.65
561.94	2245.27
562.29	2247.42
562.64	2250.42
563.00	2252.93
563.35	2256.47
563.71	2259.44
564.06	2262.57
564.42	2265.43
564.77	2268.07
565.12	2270.57
565.48	2272.54
565.83	2274.78
566.19	2276.24
566.54	2277.10
566.89	2278.43
567.25	2279.38
567.60	2280.79
567.96	2282.53
568.31	2283.39
568.66	2284.48
569.02	2285.18
569.37	2285.74
569.72	2286.87
570.08	2287.14
570.43	2287.29
570.78	2287.00
571.14	2285.62
571.49	2284.47
571.84	2284.21
572.20	2283.17
572.55	2282.09
572.90	2280.67
573.26	2279.25
573.61	2277.48
573.96	2276.07
574.31	2273.31
574.67	2270.39
575.02	2266.86
575.37	2263.51
575.72	2259.92
576.08	2256.65
576.43	2253.37
576.78	2249.86
577.13	2246.61
577.49	2243.42
577.84	2240.15
578.19	2236.37
578.54	2232.78
578.90	2228.82
579.25	2223.48
579.60	2218.70
579.95	2213.91
580.30	2209.01
580.66	2203.94
581.01	2198.98
581.36	2194.03
581.71	2189.92
582.06	2185.66
582.42	2181.39
582.77	2176.29
583.12	2171.85
583.47	2167.41
583.82	2162.73
584.17	2157.64
584.53	2152.31
584.88	2146.74
585.23	2141.14
585.58	2135.66
585.93	2130.26
586.28	2125.36
586.63	2120.42
586.98	2115.22
587.34	2110.50
587.69	2105.79
588.04	2100.87
588.39	2095.47
588.74	2088.98
589.09	2082.85
589.44	2076.10
589.79	2069.86
590.14	2064.24
590.49	2057.63
590.84	2051.03
591.19	2045.04
591.54	2038.53
591.89	2031.41
592.25	2024.90
592.60	2017.72
592.95	2010.39
593.30	2003.20
593.65	1995.78
594.00	1988.74
594.35	1981.79
594.70	1973.78
595.05	1966.71
595.40	1959.36
595.75	1951.93
596.10	1946.03
596.45	1939.52
596.80	1933.39
597.15	1927.07
597.50	1920.31
597.85	1914.12
598.19	1907.73
598.54	1900.95
598.89	1894.47
599.24	1888.62
599.59	1882.15
599.94	1876.13
600.29	1869.82
600.64	1863.22
600.99	1855.91
601.34	1849.31
601.69	1842.43
602.04	1835.83
602.39	1828.55
602.74	1821.88
603.08	1815.31
603.43	1808.52
603.78	1801.27
604.13	1794.13
604.48	1787.04
604.83	1780.21
605.18	1773.40
605.53	1765.63
605.87	1757.50
606.22	1750.16
606.57	1742.26
606.92	1734.65
607.27	1727.57
607.62	1720.74
607.96	1713.74
608.31	1707.43
608.66	1699.87
609.01	1692.33
609.36	1684.89
609.70	1676.99
610.05	1668.94
610.40	1661.41
610.75	1653.28
611.10	1645.72
611.44	1637.39
611.79	1629.34
612.14	1620.73
612.49	1611.53
612.83	1603.05
613.18	1594.84
613.53	1586.93
613.88	1578.47
614.22	1570.48
614.57	1561.71
614.92	1553.71
615.27	1546.20
615.61	1537.88
615.96	1529.85
616.31	1522.18
616.65	1514.66
617.00	1507.14
617.35	1499.41
617.70	1491.12
618.04	1482.69
618.39	1474.34
618.74	1466.81
619.08	1458.41
619.43	1450.77
619.78	1443.78
620.12	1436.77
620.47	1429.43
620.82	1421.24
621.16	1413.70
621.51	1405.95
621.85	1398.41
622.20	1390.01
622.55	1381.70
622.89	1373.68
623.24	1366.00
623.59	1358.49
623.93	1350.99
624.28	1343.70
624.62	1336.29
624.97	1329.00
625.32	1322.04
625.66	1315.05
626.01	1307.91
626.35	1300.71
626.70	1292.93
627.04	1285.27
627.39	1277.44
627.73	1270.09
628.08	1263.20
628.43	1256.10
628.77	1248.87
629.12	1241.39
629.46	1234.21
629.81	1226.63
630.15	1219.39
630.50	1212.07
630.84	1204.14
631.19	1196.18
631.53	1188.59
631.88	1181.01
632.22	1173.52
632.57	1166.21
632.91	1158.67
633.26	1151.25
633.60	1143.78
633.95	1136.60
634.29	1129.54
634.64	1122.87
634.98	1115.46
635.32	1108.37
635.67	1101.61
636.01	1094.94
636.36	1088.11
636.70	1081.49
637.05	1074.94
637.39	1068.48
637.73	1062.06
638.08	1056.15
638.42	1050.25
638.77	1043.86
639.11	1037.36
639.45	1030.94
639.80	1024.35
640.14	1018.02
640.49	1011.54
640.83	1005.27
641.17	999.14
641.52	992.91
641.86	986.35
642.20	980.53
642.55	974.07
642.89	967.75
643.23	961.15
643.58	955.48
643.92	949.39
644.26	943.50
644.61	937.48
644.95	931.37
645.29	924.83
645.64	918.09
645.98	911.82
646.32	905.87
646.66	899.77
647.01	893.99
647.35	888.32
647.69	882.43
648.04	876.85
648.38	871.08
648.72	865.19
649.06	859.21
649.41	853.32
649.75	847.49
650.09	841.55
650.43	835.82
650.78	829.62
651.12	823.61
651.46	817.81
651.80	812.15
652.14	806.78
652.49	801.38
652.83	796.28
653.17	790.64
653.51	785.03
653.85	779.60
654.20	774.05
654.54	768.00
654.88	762.21
655.22	756.30
655.56	750.62
655.90	745.01
656.25	739.78
656.59	734.39
656.93	729.33
657.27	724.20
657.61	718.74
657.95	713.57
658.29	708.52
658.64	703.25
658.98	697.90
659.32	692.40
659.66	687.17
660.00	681.88
660.34	676.93
660.68	671.95
661.02	666.93
661.36	662.19
661.70	657.70
662.05	653.41
662.39	649.17
662.73	644.69
663.07	640.30
663.41	635.90
663.75	631.42
664.09	626.77
664.43	622.34
664.77	618.22
665.11	614.02
665.45	609.90
665.79	605.79
666.13	601.69
666.47	597.60
666.81	593.51
667.15	589.28
667.49	585.27
667.83	581.42
668.17	577.49
668.51	573.45
668.85	569.46
669.19	565.56
669.53	561.73
669.87	557.91
670.21	554.23
670.55	550.55
670.89	547.16
671.23	543.78
671.57	540.23
671.91	536.80
672.25	533.29
672.58	529.72
672.92	526.28
673.26	523.02
673.60	519.83
673.94	516.73
674.28	513.86
674.62	510.93
674.96	507.88
675.30	505.06
675.64	502.12
675.97	499.26
676.31	496.39
676.65	493.40
676.99	490.67
677.33	487.83
677.67	485.01
678.01	481.97
678.34	479.02
678.68	476.19
679.02	473.30
679.36	470.53
679.70	467.81
680.04	465.03
680.37	462.30
680.71	459.49
681.05	456.83
681.39	454.09
681.73	451.43
682.06	448.86
682.40	446.24
682.74	443.68
683.08	441.10
683.42	438.48
683.75	435.97
684.09	433.36
684.43	430.85
684.77	428.37
685.10	426.01
685.44	423.69
685.78	421.35
686.12	419.11
686.45	416.81
686.79	414.53
687.13	412.39
687.46	410.23
687.80	408.10
688.14	405.83
688.48	403.80
688.81	401.58
689.15	399.46
689.49	397.30
689.82	395.24
690.16	393.18
690.50	391.22
690.83	389.33
691.17	387.32
691.51	385.41
691.84	383.52
692.18	381.61
692.52	379.64
692.85	377.67
693.19	375.79
693.52	373.95
693.86	372.12
694.20	370.32
694.53	368.52
694.87	366.68
695.21	364.89
695.54	363.03
695.88	361.25
696.21	359.51
696.55	357.80
696.88	356.07
697.22	354.39
697.56	352.77
697.89	351.11
698.23	349.53
698.56	347.91
698.90	346.39
699.23	344.72
699.57	343.15
699.90	341.61
700.24	340.05
700.58	338.56
700.91	337.08
701.25	335.66
701.58	334.25
701.92	332.82
702.25	331.51
702.59	330.15
702.92	328.90
703.26	327.60
703.59	326.36
703.93	325.20
704.26	323.94
704.60	322.66
704.93	321.41
705.26	320.19
705.60	319.01
705.93	317.84
706.27	316.81
706.60	315.81
706.94	314.78
707.27	313.65
707.61	312.55
707.94	311.53
708.27	310.43
708.61	309.31
708.94	308.32
709.28	307.32
709.61	306.40
709.94	305.43
710.28	304.41
710.61	303.41
710.95	302.36
711.28	301.45
711.61	300.54
711.95	299.58
712.28	298.63
712.61	297.66
712.95	296.70
713.28	295.82
713.61	294.89
713.95	293.93
714.28	293.09
714.61	292.23
714.95	291.35
715.28	290.54
715.61	289.68
715.95	288.85
716.28	287.94
716.61	287.07
716.95	286.23
717.28	285.43
717.61	284.65
717.94	283.90
718.28	283.10
718.61	282.36
718.94	281.63
719.27	281.00
719.61	280.34
719.94	279.70
720.27	278.94
720.60	278.24
720.94	277.68
721.27	277.13
721.60	276.55
721.93	275.99
722.27	275.38
722.60	274.82
722.93	274.23
723.26	273.74
723.59	273.21
723.93	272.67
724.26	272.14
724.59	271.57
724.92	271.03
725.25	270.54
725.59	269.99
725.92	269.48
726.25	268.96
726.58	268.47
726.91	267.96
727.24	267.52
727.57	267.04
727.91	266.51
728.24	266.02
728.57	265.54
728.90	265.07
729.23	264.60
729.56	264.22
729.89	263.78
730.22	263.24
730.55	262.75
730.89	262.29
731.22	261.90
731.55	261.52
731.88	261.08
732.21	260.65
732.54	260.26
732.87	259.89
733.20	259.47
733.53	259.08
733.86	258.71
734.19	258.28
734.52	257.94
734.85	257.63
735.18	257.25
735.51	256.86
735.84	256.45
736.17	256.13
736.50	255.71
736.83	255.49
737.16	255.22
737.49	254.92
737.82	254.61
738.15	254.25
738.48	253.92
738.81	253.61
739.14	253.27
739.47	252.95
739.80	252.61
740.13	252.35
740.46	252.05
740.79	251.75
741.12	251.46
741.45	251.15
741.78	250.79
742.11	250.51
742.44	250.19
742.77	249.97
743.10	249.67
743.43	249.38
743.75	249.01
744.08	248.88
744.41	248.60
744.74	248.31
745.07	248.01
745.40	247.76
745.73	247.52
746.06	247.26
746.39	246.95
746.71	246.69
747.04	246.38
747.37	246.11
747.70	245.88
748.03	245.62
748.36	245.36
748.68	245.13
749.01	244.87
749.34	244.66
749.67	244.39
750.00	244.13
750.33	243.95
750.65	243.70
750.98	243.32
751.31	243.10
751.64	242.90
751.97	242.73
752.29	242.48
752.62	242.22
752.95	242.07
753.28	241.88
753.60	241.69
753.93	241.55
754.26	241.34
754.59	241.09
754.91	240.90
755.24	240.69
755.57	240.51
755.90	240.32
756.22	240.13
756.55	239.97
756.88	239.81
757.20	239.58
757.53	239.40
757.86	239.23
758.19	239.07
758.51	238.91
758.84	238.69
759.17	238.55
759.49	238.39
759.82	238.25
760.15	238.09
760.47	237.90
760.80	237.70
761.13	237.57
761.45	237.44
761.78	237.30
762.11	237.18
762.43	237.01
762.76	236.85
763.08	236.70
763.41	236.52
763.74	236.39
764.06	236.23
764.39	236.06
764.71	235.95
765.04	235.77
765.37	235.64
765.69	235.53
766.02	235.39
766.34	235.30
766.67	235.13
767.00	235.06
767.32	235.01
767.65	234.96
767.97	234.85
768.30	234.71
768.62	234.58
768.95	234.46
769.27	234.35
769.60	234.23
769.92	234.12
770.25	234.02
770.57	233.88
770.90	233.83
771.22	233.73
771.55	233.63
771.87	233.59
772.20	233.47
772.52	233.46
772.85	233.48
773.17	233.36
773.50	233.24
773.82	233.14
774.15	233.03
774.47	232.88
774.80	232.79
775.12	232.75
775.45	232.69
775.77	232.62
776.09	232.55
776.42	232.50
776.74	232.46
777.07	232.41
777.39	232.33
777.72	232.21
778.04	232.15
778.36	232.05
778.69	231.97
779.01	231.91
779.33	231.77
779.66	231.58
779.98	231.50
780.31	231.45
780.63	231.39
780.95	231.34
781.28	231.25
781.60	231.12
781.92	231.06
782.25	231.01
782.57	230.96
782.89	230.89
783.22	230.79
783.54	230.72
783.86	230.68
784.19	230.64
784.51	230.59
784.83	230.55
785.16	230.51
785.48	230.46
785.80	230.42
786.12	230.34
786.45	230.29
786.77	230.26
787.09	230.22
