SpectraSuite Data File
++++++++++++++++++++++++++++++++++++
Date: Fri Feb 01 15:46:10 EST 2013
User: group
Dark Spectrum Present: No
Reference Spectrum Present: No
Number of Sampled Component Spectra: 1
Spectrometers: USB2E7196
Integration Time (usec): 35000 (USB2E7196)
Spectra Averaged: 100 (USB2E7196)
Boxcar Smoothing: 10 (USB2E7196)
Correct for Electrical Dark: No (USB2E7196)
Strobe/Lamp Enabled: No (USB2E7196)
Correct for Detector Non-linearity: No (USB2E7196)
Correct for Stray Light: No (USB2E7196)
Number of Pixels in Processed Spectrum: 2048
>>>>>Begin Processed Spectral Data<<<<<
339.09	0.00
339.48	215.07
339.86	216.23
340.24	217.59
340.63	219.35
341.01	222.12
341.39	221.98
341.78	222.95
342.16	224.84
342.54	225.32
342.93	213.41
343.31	224.19
343.69	224.73
344.07	225.24
344.46	225.69
344.84	226.07
345.22	226.30
345.60	226.57
345.99	226.79
346.37	226.90
346.75	226.97
347.13	227.04
347.52	227.08
347.90	227.15
348.28	227.17
348.66	227.18
349.05	227.18
349.43	227.21
349.81	227.27
350.19	227.27
350.57	227.31
350.96	227.40
351.34	227.50
351.72	227.56
352.10	227.64
352.48	227.70
352.87	227.75
353.25	227.83
353.63	227.88
354.01	227.92
354.39	227.99
354.77	228.09
355.15	228.21
355.54	228.27
355.92	228.33
356.30	228.39
356.68	228.51
357.06	228.62
357.44	228.68
357.82	228.70
358.20	228.79
358.58	228.84
358.97	228.88
359.35	228.89
359.73	228.96
360.11	229.01
360.49	229.04
360.87	229.07
361.25	229.12
361.63	229.18
362.01	229.22
362.39	229.23
362.77	229.24
363.15	229.26
363.53	229.26
363.91	229.25
364.29	229.26
364.67	229.16
365.05	229.14
365.43	229.11
365.81	229.17
366.19	229.18
366.57	229.20
366.95	229.17
367.33	229.17
367.71	229.15
368.09	229.11
368.47	229.08
368.85	229.07
369.23	229.07
369.61	228.98
369.99	228.96
370.37	228.96
370.75	228.97
371.13	228.89
371.51	228.84
371.89	228.81
372.27	228.79
372.65	228.78
373.03	228.72
373.41	228.70
373.78	228.64
374.16	228.56
374.54	228.50
374.92	228.45
375.30	228.39
375.68	228.32
376.06	228.28
376.44	228.21
376.82	228.14
377.19	228.06
377.57	228.00
377.95	227.90
378.33	227.83
378.71	227.71
379.09	227.67
379.47	227.61
379.84	227.56
380.22	227.49
380.60	227.42
380.98	227.36
381.36	227.29
381.73	227.20
382.11	227.14
382.49	227.10
382.87	227.02
383.25	226.97
383.62	227.02
384.00	226.92
384.38	226.86
384.76	226.79
385.13	226.76
385.51	226.73
385.89	226.67
386.27	226.63
386.64	226.61
387.02	226.57
387.40	226.55
387.78	226.50
388.15	226.48
388.53	226.45
388.91	226.43
389.29	226.38
389.66	226.40
390.04	226.36
390.42	226.31
390.79	226.29
391.17	226.28
391.55	226.16
391.92	226.18
392.30	226.19
392.68	226.18
393.05	226.18
393.43	226.18
393.81	226.24
394.18	226.21
394.56	226.23
394.94	226.24
395.31	226.22
395.69	226.31
396.06	226.32
396.44	226.35
396.82	226.37
397.19	226.49
397.57	226.51
397.95	226.58
398.32	226.60
398.70	226.69
399.07	226.76
399.45	226.83
399.82	226.92
400.20	227.00
400.58	227.10
400.95	227.13
401.33	227.24
401.70	227.37
402.08	227.53
402.45	227.60
402.83	227.73
403.20	227.85
403.58	227.90
403.95	228.03
404.33	228.19
404.71	228.33
405.08	228.50
405.46	228.64
405.83	228.78
406.21	228.98
406.58	229.14
406.96	229.30
407.33	229.50
407.70	229.68
408.08	229.94
408.45	230.13
408.83	230.38
409.20	230.56
409.58	230.74
409.95	230.94
410.33	231.22
410.70	231.43
411.08	231.73
411.45	232.04
411.82	232.31
412.20	232.63
412.57	233.04
412.95	233.33
413.32	233.74
413.69	234.15
414.07	234.57
414.44	235.02
414.82	235.53
415.19	236.05
415.56	236.60
415.94	237.16
416.31	237.81
416.68	238.44
417.06	239.19
417.43	239.87
417.81	240.64
418.18	241.40
418.55	242.28
418.93	243.14
419.30	244.05
419.67	245.04
420.04	245.97
420.42	246.95
420.79	248.11
421.16	249.29
421.54	250.48
421.91	251.71
422.28	252.98
422.66	254.30
423.03	255.60
423.40	256.94
423.77	258.37
424.15	259.77
424.52	261.27
424.89	262.88
425.26	264.43
425.64	265.88
426.01	267.50
426.38	269.21
426.75	270.88
427.13	272.59
427.50	274.37
427.87	276.28
428.24	278.14
428.61	279.87
428.99	281.77
429.36	283.86
429.73	285.90
430.10	287.91
430.47	289.94
430.85	292.07
431.22	294.31
431.59	296.66
431.96	298.92
432.33	301.39
432.70	303.75
433.08	306.55
433.45	309.21
433.82	311.86
434.19	314.73
434.56	317.56
434.93	320.25
435.30	322.88
435.68	325.77
436.05	328.65
436.42	331.45
436.79	333.98
437.16	336.70
437.53	339.57
437.90	342.35
438.27	345.14
438.64	347.96
439.01	350.57
439.38	352.78
439.75	354.96
440.13	357.49
440.50	359.84
440.87	361.73
441.24	363.66
441.61	365.75
441.98	367.19
442.35	368.99
442.72	370.82
443.09	372.64
443.46	373.61
443.83	374.16
444.20	374.67
444.57	375.52
444.94	375.76
445.31	376.11
445.68	376.50
446.05	376.52
446.42	376.18
446.79	375.75
447.16	375.31
447.53	374.96
447.90	373.73
448.27	372.55
448.64	370.91
449.01	369.76
449.37	367.81
449.74	365.95
450.11	363.67
450.48	361.16
450.85	358.65
451.22	356.49
451.59	354.45
451.96	352.51
452.33	349.88
452.70	347.55
453.07	344.70
453.43	341.76
453.80	339.02
454.17	336.31
454.54	333.70
454.91	330.97
455.28	328.37
455.65	325.93
456.02	323.49
456.38	321.34
456.75	318.69
457.12	316.42
457.49	314.15
457.86	312.00
458.23	310.16
458.59	308.12
458.96	306.06
459.33	304.25
459.70	302.39
460.07	300.93
460.43	299.21
460.80	297.61
461.17	296.15
461.54	294.65
461.91	293.24
462.27	291.87
462.64	290.66
463.01	289.24
463.38	287.89
463.74	286.53
464.11	285.40
464.48	284.41
464.85	283.30
465.21	282.48
465.58	281.58
465.95	280.54
466.32	279.60
466.68	278.71
467.05	277.79
467.42	276.88
467.78	275.95
468.15	275.09
468.52	274.40
468.88	273.59
469.25	272.82
469.62	272.18
469.98	271.50
470.35	270.85
470.72	270.29
471.08	269.68
471.45	269.16
471.82	268.63
472.18	268.00
472.55	267.58
472.92	267.03
473.28	266.58
473.65	266.14
474.02	265.70
474.38	265.33
474.75	265.01
475.11	264.68
475.48	264.42
475.85	264.18
476.21	263.95
476.58	263.77
476.94	263.62
477.31	263.45
477.67	263.30
478.04	263.18
478.41	263.12
478.77	263.16
479.14	263.07
479.50	263.08
479.87	263.16
480.23	263.24
480.60	263.31
480.96	263.38
481.33	263.57
481.69	263.73
482.06	263.93
482.42	264.10
482.79	264.34
483.15	264.62
483.52	264.99
483.88	265.36
484.25	265.69
484.61	266.15
484.98	266.60
485.34	267.13
485.71	267.75
486.07	268.34
486.44	268.89
486.80	269.61
487.17	270.30
487.53	271.09
487.90	271.93
488.26	272.84
488.62	273.81
488.99	274.77
489.35	275.83
489.72	276.95
490.08	278.20
490.44	279.47
490.81	280.80
491.17	282.13
491.54	283.61
491.90	285.19
492.26	286.80
492.63	288.53
492.99	290.34
493.36	292.21
493.72	294.28
494.08	296.37
494.45	298.63
494.81	300.99
495.17	303.40
495.54	306.00
495.90	308.71
496.26	311.53
496.63	314.47
496.99	317.61
497.35	320.88
497.72	324.23
498.08	327.72
498.44	331.42
498.80	335.37
499.17	339.38
499.53	343.55
499.89	347.95
500.26	352.45
500.62	357.08
500.98	362.03
501.34	367.10
501.71	372.45
502.07	377.88
502.43	383.50
502.79	389.33
503.16	395.38
503.52	401.67
503.88	408.06
504.24	414.71
504.60	421.60
504.97	428.72
505.33	436.09
505.69	443.80
506.05	451.54
506.41	459.39
506.78	467.63
507.14	476.12
507.50	484.82
507.86	493.87
508.22	503.05
508.59	512.26
508.95	521.81
509.31	531.63
509.67	541.77
510.03	552.09
510.39	562.70
510.75	573.49
511.12	584.45
511.48	595.72
511.84	607.19
512.20	618.71
512.56	630.68
512.92	642.77
513.28	655.13
513.64	667.74
514.00	680.51
514.37	693.38
514.73	706.41
515.09	719.45
515.45	732.77
515.81	746.43
516.17	760.36
516.53	774.57
516.89	788.80
517.25	802.95
517.61	817.34
517.97	831.72
518.33	846.16
518.69	860.88
519.05	875.89
519.41	891.11
519.77	906.69
520.13	922.13
520.49	937.50
520.85	953.05
521.21	968.81
521.57	985.02
521.93	1000.80
522.29	1017.26
522.65	1033.56
523.01	1049.67
523.37	1065.71
523.73	1081.92
524.09	1097.94
524.45	1114.25
524.81	1130.88
525.17	1147.79
525.53	1164.79
525.89	1181.73
526.25	1198.52
526.61	1214.94
526.97	1231.59
527.33	1248.08
527.68	1264.72
528.04	1281.29
528.40	1297.71
528.76	1314.65
529.12	1331.25
529.48	1348.15
529.84	1364.16
530.20	1380.79
530.56	1397.85
530.91	1415.29
531.27	1432.14
531.63	1448.70
531.99	1465.23
532.35	1481.27
532.71	1497.13
533.07	1513.37
533.42	1529.24
533.78	1545.41
534.14	1561.65
534.50	1577.06
534.86	1592.83
535.21	1608.05
535.57	1623.95
535.93	1639.51
536.29	1654.25
536.65	1669.28
537.00	1684.09
537.36	1699.37
537.72	1713.91
538.08	1728.46
538.44	1742.23
538.79	1756.09
539.15	1769.75
539.51	1783.53
539.87	1797.84
540.22	1811.71
540.58	1825.38
540.94	1838.70
541.29	1851.56
541.65	1864.28
542.01	1877.57
542.37	1889.98
542.72	1902.34
543.08	1914.21
543.44	1926.64
543.79	1938.00
544.15	1949.15
544.51	1960.74
544.87	1971.76
545.22	1982.49
545.58	1992.66
545.94	2002.36
546.29	2012.18
546.65	2022.02
547.01	2031.23
547.36	2039.97
547.72	2048.30
548.07	2056.22
548.43	2064.55
548.79	2072.53
549.14	2080.04
549.50	2087.29
549.86	2094.96
550.21	2102.31
550.57	2109.46
550.92	2116.02
551.28	2122.97
551.64	2129.99
551.99	2136.39
552.35	2142.55
552.70	2148.72
553.06	2154.69
553.41	2161.14
553.77	2167.10
554.13	2173.19
554.48	2179.39
554.84	2184.84
555.19	2190.20
555.55	2195.40
555.90	2199.65
556.26	2204.50
556.61	2209.40
556.97	2213.66
557.32	2217.72
557.68	2221.79
558.03	2226.12
558.39	2229.77
558.74	2234.35
559.10	2238.23
559.45	2241.95
559.81	2246.18
560.16	2250.06
560.52	2253.23
560.87	2256.57
561.23	2259.20
561.58	2262.07
561.94	2264.52
562.29	2266.84
562.64	2269.41
563.00	2272.00
563.35	2275.51
563.71	2278.73
564.06	2281.72
564.42	2284.47
564.77	2286.95
565.12	2289.29
565.48	2291.03
565.83	2292.93
566.19	2294.20
566.54	2294.97
566.89	2296.17
567.25	2296.75
567.60	2297.99
567.96	2299.69
568.31	2300.54
568.66	2301.83
569.02	2302.48
569.37	2302.83
569.72	2303.60
570.08	2303.81
570.43	2303.74
570.78	2303.17
571.14	2301.54
571.49	2300.31
571.84	2300.15
572.20	2299.03
572.55	2297.82
572.90	2296.45
573.26	2295.03
573.61	2293.45
573.96	2291.79
574.31	2288.72
574.67	2285.64
575.02	2282.17
575.37	2278.72
575.72	2274.95
576.08	2271.59
576.43	2268.04
576.78	2264.32
577.13	2261.35
577.49	2258.20
577.84	2254.69
578.19	2250.91
578.54	2247.40
578.90	2243.07
579.25	2237.49
579.60	2232.51
579.95	2227.62
580.30	2222.53
580.66	2217.36
581.01	2212.47
581.36	2207.49
581.71	2203.35
582.06	2199.03
582.42	2194.42
582.77	2189.14
583.12	2184.40
583.47	2179.58
583.82	2174.71
584.17	2169.41
584.53	2163.74
584.88	2158.17
585.23	2152.39
585.58	2147.05
585.93	2141.54
586.28	2136.78
586.63	2131.73
586.98	2126.67
587.34	2122.00
587.69	2117.08
588.04	2111.72
588.39	2106.00
588.74	2099.56
589.09	2093.42
589.44	2086.47
589.79	2080.45
590.14	2075.07
590.49	2068.70
590.84	2062.34
591.19	2056.30
591.54	2049.87
591.89	2042.60
592.25	2035.76
592.60	2028.64
592.95	2020.91
593.30	2013.57
593.65	2005.94
594.00	1998.81
594.35	1991.52
594.70	1983.32
595.05	1975.93
595.40	1968.71
595.75	1961.23
596.10	1954.89
596.45	1948.00
596.80	1941.75
597.15	1935.11
597.50	1927.75
597.85	1921.30
598.19	1914.60
598.54	1907.35
598.89	1900.69
599.24	1894.72
599.59	1887.84
599.94	1881.53
600.29	1875.15
600.64	1868.55
600.99	1861.07
601.34	1854.18
601.69	1847.33
602.04	1840.52
602.39	1833.24
602.74	1826.42
603.08	1819.60
603.43	1812.84
603.78	1805.58
604.13	1798.44
604.48	1791.13
604.83	1784.31
605.18	1777.21
605.53	1769.19
605.87	1761.29
606.22	1754.05
606.57	1746.03
606.92	1738.79
607.27	1731.67
607.62	1724.79
607.96	1717.46
608.31	1710.84
608.66	1703.33
609.01	1695.76
609.36	1688.24
609.70	1680.18
610.05	1672.10
610.40	1664.46
610.75	1656.18
611.10	1648.49
611.44	1640.08
611.79	1632.01
612.14	1623.29
612.49	1614.19
612.83	1605.77
613.18	1597.59
613.53	1589.49
613.88	1580.97
614.22	1572.68
614.57	1563.98
614.92	1555.82
615.27	1548.04
615.61	1539.68
615.96	1531.54
616.31	1523.90
616.65	1516.47
617.00	1508.95
617.35	1501.37
617.70	1492.86
618.04	1484.35
618.39	1476.21
618.74	1468.64
619.08	1460.37
619.43	1452.87
619.78	1445.94
620.12	1438.89
620.47	1431.45
620.82	1423.35
621.16	1415.92
621.51	1408.35
621.85	1400.82
622.20	1392.35
622.55	1384.12
622.89	1376.31
623.24	1368.77
623.59	1361.37
623.93	1353.83
624.28	1346.60
624.62	1338.92
624.97	1331.78
625.32	1325.10
625.66	1317.99
626.01	1310.77
626.35	1303.33
626.70	1295.56
627.04	1287.78
627.39	1279.81
627.73	1272.37
628.08	1265.39
628.43	1258.06
628.77	1250.60
629.12	1242.98
629.46	1235.89
629.81	1228.50
630.15	1221.22
630.50	1213.70
630.84	1205.45
631.19	1197.49
631.53	1190.01
631.88	1182.56
632.22	1175.05
632.57	1167.67
632.91	1160.12
633.26	1152.67
633.60	1145.33
633.95	1138.21
634.29	1131.13
634.64	1124.54
634.98	1117.17
635.32	1109.99
635.67	1103.46
636.01	1096.85
636.36	1089.99
636.70	1083.41
637.05	1076.77
637.39	1070.41
637.73	1063.94
638.08	1058.04
638.42	1052.10
638.77	1045.64
639.11	1038.91
639.45	1032.50
639.80	1025.82
640.14	1019.40
640.49	1012.97
640.83	1006.63
641.17	1000.34
641.52	994.02
641.86	987.60
642.20	981.81
642.55	975.60
642.89	969.11
643.23	962.55
643.58	956.90
643.92	950.75
644.26	944.67
644.61	938.63
644.95	932.60
645.29	926.00
645.64	919.28
645.98	912.96
646.32	907.13
646.66	901.02
647.01	895.17
647.35	889.45
647.69	883.54
648.04	878.10
648.38	872.34
648.72	866.28
649.06	860.22
649.41	854.35
649.75	848.36
650.09	842.37
650.43	836.69
650.78	830.52
651.12	824.57
651.46	818.89
651.80	813.14
652.14	807.78
652.49	802.42
652.83	797.25
653.17	791.50
653.51	785.75
653.85	780.39
654.20	774.75
654.54	768.72
654.88	763.03
655.22	757.10
655.56	751.48
655.90	746.14
656.25	740.90
656.59	735.47
656.93	730.37
657.27	725.27
657.61	719.75
657.95	714.64
658.29	709.51
658.64	704.37
658.98	699.02
659.32	693.54
659.66	688.36
660.00	682.94
660.34	678.00
660.68	673.10
661.02	668.06
661.36	663.38
661.70	658.94
662.05	654.59
662.39	650.19
662.73	645.64
663.07	641.20
663.41	636.70
663.75	632.19
664.09	627.63
664.43	623.21
664.77	619.11
665.11	614.79
665.45	610.68
665.79	606.50
666.13	602.35
666.47	598.29
666.81	594.13
667.15	590.07
667.49	586.23
667.83	582.42
668.17	578.48
668.51	574.44
668.85	570.43
669.19	566.53
669.53	562.71
669.87	558.86
670.21	555.18
670.55	551.58
670.89	548.16
671.23	544.72
671.57	541.16
671.91	537.54
672.25	534.09
672.58	530.54
672.92	527.17
673.26	524.04
673.60	520.90
673.94	517.79
674.28	514.90
674.62	511.89
674.96	508.77
675.30	505.91
675.64	502.97
675.97	500.16
676.31	497.35
676.65	494.44
676.99	491.76
677.33	488.87
677.67	486.06
678.01	483.00
678.34	480.02
678.68	477.17
679.02	474.38
679.36	471.60
679.70	468.93
680.04	466.14
680.37	463.27
680.71	460.46
681.05	457.80
681.39	455.05
681.73	452.43
682.06	449.94
682.40	447.35
682.74	444.82
683.08	442.27
683.42	439.61
683.75	437.08
684.09	434.46
684.43	432.00
684.77	429.50
685.10	427.15
685.44	424.82
685.78	422.54
686.12	420.35
686.45	418.13
686.79	415.85
687.13	413.68
687.46	411.54
687.80	409.38
688.14	407.20
688.48	405.15
688.81	402.86
689.15	400.68
689.49	398.57
689.82	396.48
690.16	394.38
690.50	392.50
690.83	390.57
691.17	388.65
691.51	386.75
691.84	384.89
692.18	382.98
692.52	381.04
692.85	379.12
693.19	377.19
693.52	375.34
693.86	373.55
694.20	371.76
694.53	369.99
694.87	368.15
695.21	366.33
695.54	364.50
695.88	362.82
696.21	361.11
696.55	359.39
696.88	357.75
697.22	356.14
697.56	354.45
697.89	352.81
698.23	351.17
698.56	349.60
698.90	348.03
699.23	346.37
699.57	344.81
699.90	343.25
700.24	341.77
700.58	340.26
700.91	338.74
701.25	337.24
701.58	335.85
701.92	334.48
702.25	333.14
702.59	331.76
702.92	330.43
703.26	329.17
703.59	327.92
703.93	326.71
704.26	325.45
704.60	324.17
704.93	322.91
705.26	321.70
705.60	320.49
705.93	319.34
706.27	318.33
706.60	317.26
706.94	316.18
707.27	315.03
707.61	313.95
707.94	312.93
708.27	311.85
708.61	310.77
708.94	309.74
709.28	308.75
709.61	307.78
709.94	306.82
710.28	305.79
710.61	304.81
710.95	303.71
711.28	302.79
711.61	301.86
711.95	300.90
712.28	299.92
712.61	298.94
712.95	297.97
713.28	297.05
713.61	296.16
713.95	295.30
714.28	294.47
714.61	293.59
714.95	292.72
715.28	291.86
715.61	290.99
715.95	290.17
716.28	289.30
716.61	288.49
716.95	287.68
717.28	286.95
717.61	286.16
717.94	285.41
718.28	284.60
718.61	283.89
718.94	283.21
719.27	282.57
719.61	281.93
719.94	281.31
720.27	280.62
720.60	279.96
720.94	279.30
721.27	278.70
721.60	278.13
721.93	277.52
722.27	276.99
722.60	276.42
722.93	275.83
723.26	275.31
723.59	274.76
723.93	274.23
724.26	273.67
724.59	273.14
724.92	272.64
725.25	272.15
725.59	271.62
725.92	271.10
726.25	270.58
726.58	270.11
726.91	269.63
727.24	269.15
727.57	268.69
727.91	268.18
728.24	267.72
728.57	267.24
728.90	266.80
729.23	266.30
729.56	265.90
729.89	265.44
730.22	264.99
730.55	264.50
730.89	264.06
731.22	263.58
731.55	263.15
731.88	262.78
732.21	262.35
732.54	261.92
732.87	261.52
733.20	261.15
733.53	260.77
733.86	260.39
734.19	259.98
734.52	259.65
734.85	259.34
735.18	258.94
735.51	258.57
735.84	258.20
736.17	257.84
736.50	257.41
736.83	257.18
737.16	256.84
737.49	256.51
737.82	256.16
738.15	255.87
738.48	255.52
738.81	255.12
739.14	254.79
739.47	254.48
739.80	254.18
740.13	253.84
740.46	253.50
740.79	253.18
741.12	252.89
741.45	252.54
741.78	252.20
742.11	251.91
742.44	251.57
742.77	251.27
743.10	250.97
743.43	250.65
743.75	250.26
744.08	250.07
744.41	249.78
744.74	249.49
745.07	249.19
745.40	248.96
745.73	248.73
746.06	248.47
746.39	248.22
746.71	247.92
747.04	247.63
747.37	247.34
747.70	247.06
748.03	246.84
748.36	246.61
748.68	246.35
749.01	246.07
749.34	245.86
749.67	245.63
750.00	245.44
750.33	245.29
750.65	245.10
750.98	244.75
751.31	244.55
751.64	244.34
751.97	244.15
752.29	243.91
752.62	243.65
752.95	243.40
753.28	243.18
753.60	242.97
753.93	242.82
754.26	242.62
754.59	242.39
754.91	242.14
755.24	241.90
755.57	241.69
755.90	241.49
756.22	241.31
756.55	241.10
756.88	240.89
757.20	240.65
757.53	240.42
757.86	240.30
758.19	240.11
758.51	239.94
758.84	239.76
759.17	239.61
759.49	239.45
759.82	239.34
760.15	239.22
760.47	239.07
760.80	238.89
761.13	238.76
761.45	238.58
761.78	238.44
762.11	238.34
762.43	238.18
762.76	238.04
763.08	237.89
763.41	237.76
763.74	237.63
764.06	237.52
764.39	237.42
764.71	237.24
765.04	237.12
765.37	237.00
765.69	236.88
766.02	236.73
766.34	236.61
766.67	236.51
767.00	236.39
767.32	236.34
767.65	236.30
767.97	236.17
768.30	236.09
768.62	235.98
768.95	235.82
769.27	235.77
769.60	235.71
769.92	235.60
770.25	235.51
770.57	235.39
770.90	235.27
771.22	235.18
771.55	235.11
771.87	235.05
772.20	234.94
772.52	234.91
772.85	234.94
773.17	234.86
773.50	234.74
773.82	234.65
774.15	234.51
774.47	234.35
774.80	234.28
775.12	234.23
775.45	234.17
775.77	234.14
776.09	234.04
776.42	233.96
776.74	233.93
777.07	233.84
777.39	233.74
777.72	233.69
778.04	233.64
778.36	233.56
778.69	233.49
779.01	233.44
779.33	233.27
779.66	233.15
779.98	233.08
780.31	233.02
780.63	233.03
780.95	232.98
781.28	232.92
781.60	232.87
781.92	232.78
782.25	232.71
782.57	232.64
782.89	232.56
783.22	232.49
783.54	232.43
783.86	232.39
784.19	232.35
784.51	232.32
784.83	232.22
785.16	232.16
785.48	232.11
785.80	232.06
786.12	232.06
786.45	231.96
786.77	231.92
787.09	231.87
