SpectraSuite Data File
++++++++++++++++++++++++++++++++++++
Date: Fri Feb 01 17:10:04 EST 2013
User: group
Dark Spectrum Present: No
Reference Spectrum Present: No
Number of Sampled Component Spectra: 1
Spectrometers: USB2E7196
Integration Time (usec): 35000 (USB2E7196)
Spectra Averaged: 100 (USB2E7196)
Boxcar Smoothing: 10 (USB2E7196)
Correct for Electrical Dark: No (USB2E7196)
Strobe/Lamp Enabled: No (USB2E7196)
Correct for Detector Non-linearity: No (USB2E7196)
Correct for Stray Light: No (USB2E7196)
Number of Pixels in Processed Spectrum: 2048
>>>>>Begin Processed Spectral Data<<<<<
339.09	0.00
339.48	213.26
339.86	215.06
340.24	216.32
340.63	217.75
341.01	220.88
341.39	220.27
341.78	221.52
342.16	223.18
342.54	223.03
342.93	211.72
343.31	222.44
343.69	222.98
344.07	223.42
344.46	223.84
344.84	224.18
345.22	224.39
345.60	224.63
345.99	224.81
346.37	224.89
346.75	224.99
347.13	225.05
347.52	225.06
347.90	225.13
348.28	225.14
348.66	225.17
349.05	225.16
349.43	225.18
349.81	225.26
350.19	225.30
350.57	225.36
350.96	225.44
351.34	225.48
351.72	225.56
352.10	225.68
352.48	225.77
352.87	225.82
353.25	225.87
353.63	225.92
354.01	225.99
354.39	226.10
354.77	226.17
355.15	226.29
355.54	226.37
355.92	226.43
356.30	226.50
356.68	226.66
357.06	226.74
357.44	226.81
357.82	226.87
358.20	226.98
358.58	227.05
358.97	227.11
359.35	227.20
359.73	227.29
360.11	227.32
360.49	227.39
360.87	227.49
361.25	227.59
361.63	227.70
362.01	227.77
362.39	227.82
362.77	227.86
363.15	227.91
363.53	227.96
363.91	228.00
364.29	228.07
364.67	227.98
365.05	228.03
365.43	228.04
365.81	228.04
366.19	228.09
366.57	228.12
366.95	228.12
367.33	228.09
367.71	228.09
368.09	228.12
368.47	228.09
368.85	228.06
369.23	228.04
369.61	227.99
369.99	227.98
370.37	227.95
370.75	228.00
371.13	227.92
371.51	227.89
371.89	227.88
372.27	227.82
372.65	227.81
373.03	227.77
373.41	227.75
373.78	227.70
374.16	227.61
374.54	227.53
374.92	227.47
375.30	227.43
375.68	227.34
376.06	227.27
376.44	227.18
376.82	227.11
377.19	227.05
377.57	226.97
377.95	226.84
378.33	226.77
378.71	226.65
379.09	226.58
379.47	226.49
379.84	226.39
380.22	226.33
380.60	226.22
380.98	226.15
381.36	226.07
381.73	225.99
382.11	225.91
382.49	225.87
382.87	225.81
383.25	225.76
383.62	225.80
384.00	225.72
384.38	225.69
384.76	225.65
385.13	225.63
385.51	225.59
385.89	225.59
386.27	225.54
386.64	225.47
387.02	225.42
387.40	225.37
387.78	225.35
388.15	225.30
388.53	225.29
388.91	225.22
389.29	225.15
389.66	225.14
390.04	225.08
390.42	225.03
390.79	224.99
391.17	224.92
391.55	224.77
391.92	224.77
392.30	224.75
392.68	224.73
393.05	224.72
393.43	224.70
393.81	224.66
394.18	224.65
394.56	224.65
394.94	224.66
395.31	224.65
395.69	224.70
396.06	224.71
396.44	224.72
396.82	224.75
397.19	224.83
397.57	224.85
397.95	224.94
398.32	224.95
398.70	225.04
399.07	225.14
399.45	225.24
399.82	225.29
400.20	225.34
400.58	225.41
400.95	225.43
401.33	225.54
401.70	225.69
402.08	225.78
402.45	225.92
402.83	226.06
403.20	226.19
403.58	226.26
403.95	226.39
404.33	226.52
404.71	226.66
405.08	226.85
405.46	226.98
405.83	227.10
406.21	227.23
406.58	227.37
406.96	227.49
407.33	227.65
407.70	227.84
408.08	228.14
408.45	228.35
408.83	228.58
409.20	228.78
409.58	228.97
409.95	229.25
410.33	229.48
410.70	229.70
411.08	229.96
411.45	230.27
411.82	230.61
412.20	230.96
412.57	231.38
412.95	231.68
413.32	232.13
413.69	232.54
414.07	233.02
414.44	233.48
414.82	233.96
415.19	234.52
415.56	235.06
415.94	235.56
416.31	236.21
416.68	236.83
417.06	237.53
417.43	238.23
417.81	238.98
418.18	239.80
418.55	240.64
418.93	241.54
419.30	242.45
419.67	243.40
420.04	244.36
420.42	245.34
420.79	246.54
421.16	247.67
421.54	248.86
421.91	250.06
422.28	251.34
422.66	252.68
423.03	253.97
423.40	255.36
423.77	256.76
424.15	258.17
424.52	259.65
424.89	261.27
425.26	262.84
425.64	264.26
426.01	265.82
426.38	267.48
426.75	269.14
427.13	270.85
427.50	272.64
427.87	274.53
428.24	276.37
428.61	278.08
428.99	280.05
429.36	282.14
429.73	284.22
430.10	286.21
430.47	288.29
430.85	290.39
431.22	292.56
431.59	294.94
431.96	297.20
432.33	299.73
432.70	302.09
433.08	304.85
433.45	307.47
433.82	310.08
434.19	312.95
434.56	315.73
434.93	318.37
435.30	320.99
435.68	323.86
436.05	326.67
436.42	329.49
436.79	331.95
437.16	334.63
437.53	337.42
437.90	340.18
438.27	342.91
438.64	345.74
439.01	348.31
439.38	350.54
439.75	352.66
440.13	355.06
440.50	357.36
440.87	359.18
441.24	361.12
441.61	363.22
441.98	364.72
442.35	366.50
442.72	368.38
443.09	370.15
443.46	371.13
443.83	371.72
444.20	372.16
444.57	373.04
444.94	373.34
445.31	373.72
445.68	374.07
446.05	374.14
446.42	373.76
446.79	373.39
447.16	372.96
447.53	372.64
447.90	371.54
448.27	370.38
448.64	368.83
449.01	367.71
449.37	365.82
449.74	363.94
450.11	361.72
450.48	359.24
450.85	356.65
451.22	354.53
451.59	352.54
451.96	350.59
452.33	347.98
452.70	345.62
453.07	342.77
453.43	339.89
453.80	337.12
454.17	334.44
454.54	331.87
454.91	329.13
455.28	326.50
455.65	324.00
456.02	321.59
456.38	319.42
456.75	316.76
457.12	314.47
457.49	312.23
457.86	310.12
458.23	308.26
458.59	306.28
458.96	304.18
459.33	302.30
459.70	300.48
460.07	298.96
460.43	297.24
460.80	295.66
461.17	294.28
461.54	292.81
461.91	291.42
462.27	290.01
462.64	288.76
463.01	287.38
463.38	286.12
463.74	284.77
464.11	283.68
464.48	282.69
464.85	281.64
465.21	280.81
465.58	279.89
465.95	278.80
466.32	277.97
466.68	277.10
467.05	276.25
467.42	275.38
467.78	274.49
468.15	273.60
468.52	272.93
468.88	272.06
469.25	271.28
469.62	270.68
469.98	269.99
470.35	269.41
470.72	268.85
471.08	268.22
471.45	267.70
471.82	267.10
472.18	266.51
472.55	266.04
472.92	265.51
473.28	265.06
473.65	264.65
474.02	264.14
474.38	263.75
474.75	263.40
475.11	263.04
475.48	262.77
475.85	262.59
476.21	262.38
476.58	262.22
476.94	262.07
477.31	261.90
477.67	261.78
478.04	261.67
478.41	261.62
478.77	261.66
479.14	261.59
479.50	261.63
479.87	261.70
480.23	261.76
480.60	261.83
480.96	261.90
481.33	262.10
481.69	262.35
482.06	262.53
482.42	262.77
482.79	263.05
483.15	263.35
483.52	263.74
483.88	264.09
484.25	264.47
484.61	264.95
484.98	265.39
485.34	265.94
485.71	266.55
486.07	267.10
486.44	267.63
486.80	268.32
487.17	269.03
487.53	269.87
487.90	270.74
488.26	271.71
488.62	272.70
488.99	273.66
489.35	274.69
489.72	275.82
490.08	277.02
490.44	278.24
490.81	279.61
491.17	280.95
491.54	282.43
491.90	283.93
492.26	285.55
492.63	287.29
492.99	289.08
493.36	290.97
493.72	293.04
494.08	295.19
494.45	297.43
494.81	299.85
495.17	302.23
495.54	304.78
495.90	307.48
496.26	310.29
496.63	313.27
496.99	316.37
497.35	319.62
497.72	322.98
498.08	326.49
498.44	330.14
498.80	334.03
499.17	338.05
499.53	342.24
499.89	346.59
500.26	351.13
500.62	355.76
500.98	360.68
501.34	365.70
501.71	370.92
502.07	376.32
502.43	381.88
502.79	387.62
503.16	393.66
503.52	399.83
503.88	406.18
504.24	412.72
504.60	419.53
504.97	426.62
505.33	433.93
505.69	441.60
506.05	449.29
506.41	457.11
506.78	465.16
507.14	473.50
507.50	482.13
507.86	490.98
508.22	500.08
508.59	509.15
508.95	518.66
509.31	528.42
509.67	538.41
510.03	548.56
510.39	559.05
510.75	569.71
511.12	580.48
511.48	591.61
511.84	602.93
512.20	614.31
512.56	626.10
512.92	638.06
513.28	650.26
513.64	662.53
514.00	675.04
514.37	687.78
514.73	700.67
515.09	713.45
515.45	726.57
515.81	739.92
516.17	753.68
516.53	767.56
516.89	781.47
517.25	795.35
517.61	809.46
517.97	823.66
518.33	837.79
518.69	852.32
519.05	867.05
519.41	881.94
519.77	897.12
520.13	912.20
520.49	927.33
520.85	942.33
521.21	957.80
521.57	973.66
521.93	989.14
522.29	1005.06
522.65	1020.98
523.01	1036.74
523.37	1052.43
523.73	1068.33
524.09	1084.06
524.45	1100.00
524.81	1116.27
525.17	1132.69
525.53	1149.14
525.89	1165.70
526.25	1182.23
526.61	1198.22
526.97	1214.55
527.33	1230.72
527.68	1246.90
528.04	1262.97
528.40	1279.10
528.76	1295.67
529.12	1311.90
529.48	1328.42
529.84	1344.14
530.20	1360.44
530.56	1376.99
530.91	1394.02
531.27	1410.36
531.63	1426.39
531.99	1442.64
532.35	1458.24
532.71	1473.82
533.07	1489.67
533.42	1505.24
533.78	1520.85
534.14	1536.81
534.50	1551.82
534.86	1567.43
535.21	1582.33
535.57	1597.85
535.93	1613.12
536.29	1627.60
536.65	1642.36
537.00	1656.61
537.36	1671.68
537.72	1685.87
538.08	1700.20
538.44	1713.67
538.79	1727.20
539.15	1740.56
539.51	1753.96
539.87	1767.95
540.22	1781.29
540.58	1794.73
540.94	1807.53
541.29	1819.97
541.65	1832.29
542.01	1845.24
542.37	1857.17
542.72	1869.26
543.08	1880.82
543.44	1892.87
543.79	1903.90
544.15	1914.69
544.51	1926.22
544.87	1936.84
545.22	1947.45
545.58	1957.45
545.94	1967.14
546.29	1976.75
546.65	1986.56
547.01	1995.68
547.36	2004.32
547.72	2012.80
548.07	2020.57
548.43	2028.70
548.79	2036.60
549.14	2044.20
549.50	2051.39
549.86	2058.87
550.21	2066.15
550.57	2073.31
550.92	2079.92
551.28	2086.83
551.64	2093.86
551.99	2100.32
552.35	2106.44
552.70	2112.45
553.06	2118.41
553.41	2124.67
553.77	2130.89
554.13	2136.92
554.48	2143.11
554.84	2148.86
555.19	2154.00
555.55	2159.28
555.90	2164.08
556.26	2169.20
556.61	2173.95
556.97	2178.36
557.32	2182.62
557.68	2186.83
558.03	2191.08
558.39	2194.70
558.74	2199.42
559.10	2203.43
559.45	2207.07
559.81	2211.38
560.16	2215.35
560.52	2218.73
560.87	2222.20
561.23	2224.91
561.58	2227.71
561.94	2230.25
562.29	2232.51
562.64	2235.56
563.00	2238.23
563.35	2241.57
563.71	2244.71
564.06	2247.90
564.42	2250.90
564.77	2253.69
565.12	2256.23
565.48	2258.36
565.83	2260.66
566.19	2262.27
566.54	2263.16
566.89	2264.51
567.25	2265.47
567.60	2266.89
567.96	2268.76
568.31	2269.69
568.66	2270.93
569.02	2271.86
569.37	2272.33
569.72	2273.46
570.08	2273.79
570.43	2274.00
570.78	2273.92
571.14	2272.59
571.49	2271.54
571.84	2271.38
572.20	2270.68
572.55	2269.82
572.90	2268.46
573.26	2267.28
573.61	2265.73
573.96	2264.39
574.31	2261.70
574.67	2258.92
575.02	2255.61
575.37	2252.34
575.72	2248.97
576.08	2245.75
576.43	2242.61
576.78	2239.37
577.13	2236.18
577.49	2233.23
577.84	2230.10
578.19	2226.42
578.54	2223.23
578.90	2219.29
579.25	2213.92
579.60	2209.10
579.95	2204.34
580.30	2199.51
580.66	2194.48
581.01	2189.84
581.36	2185.08
581.71	2181.21
582.06	2177.17
582.42	2172.95
582.77	2167.98
583.12	2163.64
583.47	2159.39
583.82	2154.79
584.17	2149.79
584.53	2144.55
584.88	2139.17
585.23	2133.68
585.58	2128.49
585.93	2123.12
586.28	2118.47
586.63	2113.76
586.98	2108.87
587.34	2104.34
587.69	2099.66
588.04	2094.61
588.39	2089.27
588.74	2083.00
589.09	2077.03
589.44	2070.34
589.79	2064.53
590.14	2059.18
590.49	2052.85
590.84	2046.51
591.19	2040.72
591.54	2034.41
591.89	2027.50
592.25	2020.99
592.60	2013.84
592.95	2006.55
593.30	1999.46
593.65	1992.05
594.00	1985.09
594.35	1977.99
594.70	1970.18
595.05	1963.32
595.40	1956.44
595.75	1948.93
596.10	1942.99
596.45	1936.56
596.80	1930.63
597.15	1924.17
597.50	1917.30
597.85	1910.93
598.19	1904.47
598.54	1897.55
598.89	1891.06
599.24	1885.31
599.59	1878.75
599.94	1872.79
600.29	1866.59
600.64	1860.05
600.99	1852.88
601.34	1846.33
601.69	1839.44
602.04	1832.72
602.39	1825.51
602.74	1818.73
603.08	1812.24
603.43	1805.59
603.78	1798.21
604.13	1791.07
604.48	1783.97
604.83	1777.14
605.18	1770.42
605.53	1762.59
605.87	1754.72
606.22	1747.55
606.57	1739.53
606.92	1732.28
607.27	1725.33
607.62	1718.42
607.96	1711.43
608.31	1705.07
608.66	1697.61
609.01	1690.32
609.36	1682.91
609.70	1674.93
610.05	1666.93
610.40	1659.32
610.75	1651.04
611.10	1643.57
611.44	1635.17
611.79	1627.19
612.14	1618.61
612.49	1609.47
612.83	1601.10
613.18	1592.92
613.53	1584.93
613.88	1576.60
614.22	1568.43
614.57	1559.74
614.92	1551.91
615.27	1544.46
615.61	1536.14
615.96	1528.01
616.31	1520.28
616.65	1512.91
617.00	1505.49
617.35	1497.75
617.70	1489.43
618.04	1481.05
618.39	1472.86
618.74	1465.35
619.08	1457.13
619.43	1449.54
619.78	1442.69
620.12	1435.65
620.47	1428.29
620.82	1420.05
621.16	1412.60
621.51	1404.92
621.85	1397.29
622.20	1388.65
622.55	1380.26
622.89	1372.38
623.24	1364.83
623.59	1357.36
623.93	1349.82
624.28	1342.49
624.62	1335.11
624.97	1328.03
625.32	1321.16
625.66	1314.12
626.01	1307.09
626.35	1299.81
626.70	1292.13
627.04	1284.37
627.39	1276.57
627.73	1269.12
628.08	1262.37
628.43	1255.20
628.77	1248.02
629.12	1240.55
629.46	1233.47
629.81	1225.95
630.15	1218.75
630.50	1211.37
630.84	1203.24
631.19	1195.32
631.53	1187.82
631.88	1180.24
632.22	1172.57
632.57	1165.33
632.91	1157.80
633.26	1150.31
633.60	1142.78
633.95	1135.64
634.29	1128.60
634.64	1121.94
634.98	1114.62
635.32	1107.45
635.67	1100.74
636.01	1094.03
636.36	1087.22
636.70	1080.68
637.05	1074.16
637.39	1067.61
637.73	1061.12
638.08	1055.30
638.42	1049.30
638.77	1042.93
639.11	1036.37
639.45	1029.97
639.80	1023.30
640.14	1016.97
640.49	1010.40
640.83	1004.10
641.17	997.93
641.52	991.59
641.86	985.11
642.20	979.21
642.55	972.81
642.89	966.45
643.23	959.80
643.58	953.98
643.92	947.81
644.26	941.81
644.61	935.78
644.95	929.81
645.29	923.31
645.64	916.59
645.98	910.27
646.32	904.41
646.66	898.43
647.01	892.69
647.35	886.91
647.69	881.08
648.04	875.53
648.38	869.75
648.72	863.87
649.06	857.85
649.41	852.01
649.75	846.06
650.09	840.04
650.43	834.39
650.78	828.28
651.12	822.33
651.46	816.58
651.80	810.94
652.14	805.49
652.49	800.12
652.83	795.06
653.17	789.42
653.51	783.78
653.85	778.38
654.20	772.82
654.54	766.90
654.88	761.14
655.22	755.31
655.56	749.61
655.90	744.10
656.25	738.94
656.59	733.63
656.93	728.64
657.27	723.56
657.61	718.09
657.95	713.01
658.29	707.98
658.64	702.82
658.98	697.51
659.32	692.12
659.66	686.86
660.00	681.57
660.34	676.60
660.68	671.66
661.02	666.65
661.36	661.94
661.70	657.48
662.05	653.15
662.39	648.91
662.73	644.45
663.07	640.16
663.41	635.69
663.75	631.26
664.09	626.69
664.43	622.31
664.77	618.26
665.11	614.04
665.45	609.84
665.79	605.69
666.13	601.50
666.47	597.40
666.81	593.37
667.15	589.19
667.49	585.29
667.83	581.45
668.17	577.53
668.51	573.48
668.85	569.44
669.19	565.65
669.53	561.83
669.87	558.04
670.21	554.27
670.55	550.62
670.89	547.11
671.23	543.70
671.57	540.19
671.91	536.66
672.25	533.13
672.58	529.67
672.92	526.31
673.26	523.15
673.60	519.94
673.94	516.75
674.28	513.81
674.62	510.88
674.96	507.77
675.30	504.88
675.64	501.91
675.97	499.16
676.31	496.23
676.65	493.26
676.99	490.49
677.33	487.68
677.67	484.81
678.01	481.80
678.34	478.83
678.68	475.90
679.02	473.07
679.36	470.27
679.70	467.53
680.04	464.83
680.37	461.99
680.71	459.21
681.05	456.59
681.39	453.89
681.73	451.23
682.06	448.74
682.40	446.21
682.74	443.63
683.08	440.99
683.42	438.41
683.75	435.90
684.09	433.38
684.43	430.85
684.77	428.47
685.10	426.07
685.44	423.77
685.78	421.49
686.12	419.23
686.45	417.04
686.79	414.75
687.13	412.53
687.46	410.36
687.80	408.21
688.14	406.03
688.48	403.99
688.81	401.74
689.15	399.62
689.49	397.42
689.82	395.39
690.16	393.36
690.50	391.45
690.83	389.54
691.17	387.53
691.51	385.63
691.84	383.74
692.18	381.88
692.52	379.92
692.85	378.02
693.19	376.14
693.52	374.25
693.86	372.44
694.20	370.61
694.53	368.85
694.87	366.98
695.21	365.19
695.54	363.39
695.88	361.69
696.21	359.95
696.55	358.30
696.88	356.57
697.22	354.85
697.56	353.19
697.89	351.56
698.23	349.99
698.56	348.40
698.90	346.87
699.23	345.21
699.57	343.67
699.90	342.10
700.24	340.57
700.58	339.08
700.91	337.61
701.25	336.19
701.58	334.82
701.92	333.48
702.25	332.09
702.59	330.73
702.92	329.39
703.26	328.08
703.59	326.82
703.93	325.67
704.26	324.47
704.60	323.18
704.93	321.91
705.26	320.65
705.60	319.45
705.93	318.28
706.27	317.27
706.60	316.15
706.94	315.10
707.27	313.93
707.61	312.88
707.94	311.83
708.27	310.75
708.61	309.63
708.94	308.63
709.28	307.64
709.61	306.67
709.94	305.72
710.28	304.70
710.61	303.70
710.95	302.61
711.28	301.69
711.61	300.74
711.95	299.83
712.28	298.89
712.61	297.91
712.95	297.01
713.28	296.12
713.61	295.26
713.95	294.36
714.28	293.54
714.61	292.65
714.95	291.76
715.28	290.91
715.61	290.02
715.95	289.16
716.28	288.27
716.61	287.44
716.95	286.57
717.28	285.81
717.61	285.06
717.94	284.31
718.28	283.49
718.61	282.75
718.94	282.00
719.27	281.34
719.61	280.71
719.94	280.00
720.27	279.27
720.60	278.56
720.94	277.95
721.27	277.35
721.60	276.77
721.93	276.18
722.27	275.60
722.60	275.07
722.93	274.48
723.26	273.98
723.59	273.41
723.93	272.87
724.26	272.28
724.59	271.66
724.92	271.12
725.25	270.63
725.59	270.11
725.92	269.62
726.25	269.08
726.58	268.57
726.91	268.04
727.24	267.55
727.57	267.09
727.91	266.56
728.24	266.08
728.57	265.59
728.90	265.16
729.23	264.67
729.56	264.25
729.89	263.78
730.22	263.26
730.55	262.82
730.89	262.40
731.22	262.00
731.55	261.57
731.88	261.14
732.21	260.70
732.54	260.29
732.87	259.88
733.20	259.44
733.53	259.05
733.86	258.71
734.19	258.31
734.52	257.95
734.85	257.63
735.18	257.20
735.51	256.83
735.84	256.46
736.17	256.10
736.50	255.66
736.83	255.47
737.16	255.11
737.49	254.79
737.82	254.43
738.15	254.10
738.48	253.79
738.81	253.48
739.14	253.15
739.47	252.83
739.80	252.49
740.13	252.21
740.46	251.88
740.79	251.54
741.12	251.26
741.45	250.93
741.78	250.58
742.11	250.34
742.44	250.00
742.77	249.68
743.10	249.37
743.43	249.08
743.75	248.66
744.08	248.57
744.41	248.29
744.74	248.00
745.07	247.73
745.40	247.49
745.73	247.26
746.06	247.00
746.39	246.76
746.71	246.50
747.04	246.25
747.37	246.02
747.70	245.80
748.03	245.55
748.36	245.32
748.68	245.09
749.01	244.85
749.34	244.63
749.67	244.42
750.00	244.24
750.33	244.08
750.65	243.89
750.98	243.52
751.31	243.27
751.64	243.07
751.97	242.87
752.29	242.62
752.62	242.36
752.95	242.15
753.28	241.93
753.60	241.72
753.93	241.52
754.26	241.29
754.59	241.05
754.91	240.83
755.24	240.65
755.57	240.46
755.90	240.25
756.22	240.10
756.55	239.88
756.88	239.64
757.20	239.40
757.53	239.17
757.86	238.99
758.19	238.82
758.51	238.65
758.84	238.46
759.17	238.30
759.49	238.14
759.82	238.03
760.15	237.86
760.47	237.70
760.80	237.53
761.13	237.38
761.45	237.21
761.78	237.06
762.11	236.91
762.43	236.74
762.76	236.58
763.08	236.44
763.41	236.32
763.74	236.18
764.06	236.06
764.39	235.92
764.71	235.80
765.04	235.63
765.37	235.48
765.69	235.31
766.02	235.16
766.34	235.03
766.67	234.82
767.00	234.72
767.32	234.66
767.65	234.60
767.97	234.51
768.30	234.38
768.62	234.27
768.95	234.13
769.27	234.02
769.60	233.93
769.92	233.81
770.25	233.71
770.57	233.57
770.90	233.45
771.22	233.34
771.55	233.21
771.87	233.14
772.20	233.08
772.52	233.10
772.85	233.13
773.17	233.02
773.50	232.93
773.82	232.84
774.15	232.73
774.47	232.59
774.80	232.49
775.12	232.43
775.45	232.33
775.77	232.28
776.09	232.22
776.42	232.14
776.74	232.05
777.07	231.94
777.39	231.91
777.72	231.84
778.04	231.82
778.36	231.77
778.69	231.69
779.01	231.59
779.33	231.41
779.66	231.25
779.98	231.20
780.31	231.15
780.63	231.13
780.95	231.07
781.28	230.99
781.60	230.92
781.92	230.87
782.25	230.85
782.57	230.76
782.89	230.68
783.22	230.62
783.54	230.55
783.86	230.52
784.19	230.47
784.51	230.45
784.83	230.37
785.16	230.35
785.48	230.34
785.80	230.31
786.12	230.29
786.45	230.25
786.77	230.18
787.09	230.17
