SpectraSuite Data File
++++++++++++++++++++++++++++++++++++
Date: Fri Feb 01 15:57:36 EST 2013
User: group
Dark Spectrum Present: No
Reference Spectrum Present: No
Number of Sampled Component Spectra: 1
Spectrometers: USB2E7196
Integration Time (usec): 35000 (USB2E7196)
Spectra Averaged: 100 (USB2E7196)
Boxcar Smoothing: 10 (USB2E7196)
Correct for Electrical Dark: No (USB2E7196)
Strobe/Lamp Enabled: No (USB2E7196)
Correct for Detector Non-linearity: No (USB2E7196)
Correct for Stray Light: No (USB2E7196)
Number of Pixels in Processed Spectrum: 2048
>>>>>Begin Processed Spectral Data<<<<<
339.09	0.00
339.48	214.48
339.86	216.03
340.24	217.70
340.63	219.04
341.01	222.14
341.39	221.49
341.78	222.88
342.16	224.34
342.54	224.08
342.93	213.16
343.31	223.94
343.69	224.48
344.07	224.94
344.46	225.35
344.84	225.73
345.22	225.97
345.60	226.23
345.99	226.42
346.37	226.56
346.75	226.70
347.13	226.77
347.52	226.83
347.90	226.91
348.28	226.98
348.66	227.01
349.05	227.01
349.43	227.08
349.81	227.15
350.19	227.21
350.57	227.27
350.96	227.33
351.34	227.41
351.72	227.52
352.10	227.63
352.48	227.69
352.87	227.74
353.25	227.79
353.63	227.88
354.01	227.96
354.39	228.00
354.77	228.10
355.15	228.18
355.54	228.20
355.92	228.24
356.30	228.30
356.68	228.42
357.06	228.49
357.44	228.51
357.82	228.55
358.20	228.61
358.58	228.66
358.97	228.74
359.35	228.82
359.73	228.90
360.11	228.97
360.49	229.06
360.87	229.11
361.25	229.15
361.63	229.21
362.01	229.27
362.39	229.31
362.77	229.30
363.15	229.31
363.53	229.34
363.91	229.37
364.29	229.37
364.67	229.31
365.05	229.29
365.43	229.30
365.81	229.36
366.19	229.38
366.57	229.40
366.95	229.38
367.33	229.33
367.71	229.30
368.09	229.25
368.47	229.22
368.85	229.19
369.23	229.19
369.61	229.14
369.99	229.11
370.37	229.14
370.75	229.16
371.13	229.12
371.51	229.08
371.89	229.05
372.27	228.99
372.65	228.92
373.03	228.90
373.41	228.84
373.78	228.73
374.16	228.64
374.54	228.54
374.92	228.47
375.30	228.41
375.68	228.31
376.06	228.28
376.44	228.20
376.82	228.15
377.19	228.06
377.57	227.95
377.95	227.85
378.33	227.74
378.71	227.61
379.09	227.53
379.47	227.45
379.84	227.34
380.22	227.26
380.60	227.19
380.98	227.11
381.36	227.09
381.73	227.03
382.11	226.98
382.49	226.91
382.87	226.82
383.25	226.77
383.62	226.88
384.00	226.79
384.38	226.74
384.76	226.72
385.13	226.68
385.51	226.68
385.89	226.63
386.27	226.61
386.64	226.59
387.02	226.57
387.40	226.53
387.78	226.53
388.15	226.50
388.53	226.48
388.91	226.46
389.29	226.40
389.66	226.37
390.04	226.35
390.42	226.33
390.79	226.33
391.17	226.28
391.55	226.13
391.92	226.13
392.30	226.16
392.68	226.16
393.05	226.18
393.43	226.18
393.81	226.20
394.18	226.17
394.56	226.20
394.94	226.27
395.31	226.29
395.69	226.33
396.06	226.33
396.44	226.37
396.82	226.40
397.19	226.49
397.57	226.57
397.95	226.62
398.32	226.70
398.70	226.81
399.07	226.95
399.45	227.02
399.82	227.07
400.20	227.14
400.58	227.19
400.95	227.23
401.33	227.33
401.70	227.48
402.08	227.59
402.45	227.69
402.83	227.77
403.20	227.90
403.58	228.02
403.95	228.22
404.33	228.36
404.71	228.50
405.08	228.68
405.46	228.79
405.83	228.96
406.21	229.09
406.58	229.27
406.96	229.42
407.33	229.60
407.70	229.80
408.08	230.07
408.45	230.29
408.83	230.53
409.20	230.74
409.58	230.94
409.95	231.22
410.33	231.50
410.70	231.72
411.08	232.04
411.45	232.35
411.82	232.64
412.20	232.98
412.57	233.40
412.95	233.71
413.32	234.14
413.69	234.52
414.07	234.95
414.44	235.36
414.82	235.84
415.19	236.37
415.56	236.92
415.94	237.42
416.31	238.05
416.68	238.69
417.06	239.38
417.43	240.06
417.81	240.79
418.18	241.54
418.55	242.41
418.93	243.27
419.30	244.12
419.67	245.02
420.04	246.00
420.42	246.95
420.79	248.12
421.16	249.28
421.54	250.48
421.91	251.67
422.28	252.93
422.66	254.21
423.03	255.51
423.40	256.86
423.77	258.24
424.15	259.65
424.52	261.14
424.89	262.75
425.26	264.30
425.64	265.77
426.01	267.36
426.38	268.99
426.75	270.63
427.13	272.34
427.50	274.15
427.87	275.98
428.24	277.80
428.61	279.55
428.99	281.45
429.36	283.56
429.73	285.67
430.10	287.68
430.47	289.74
430.85	291.83
431.22	294.07
431.59	296.50
431.96	298.74
432.33	301.19
432.70	303.56
433.08	306.36
433.45	309.00
433.82	311.59
434.19	314.52
434.56	317.34
434.93	320.01
435.30	322.65
435.68	325.56
436.05	328.39
436.42	331.19
436.79	333.73
437.16	336.42
437.53	339.21
437.90	342.06
438.27	344.83
438.64	347.67
439.01	350.23
439.38	352.44
439.75	354.59
440.13	357.10
440.50	359.46
440.87	361.28
441.24	363.21
441.61	365.35
441.98	366.78
442.35	368.54
442.72	370.36
443.09	372.13
443.46	373.12
443.83	373.74
444.20	374.21
444.57	375.06
444.94	375.35
445.31	375.70
445.68	376.01
446.05	376.00
446.42	375.65
446.79	375.26
447.16	374.77
447.53	374.47
447.90	373.29
448.27	372.08
448.64	370.52
449.01	369.35
449.37	367.37
449.74	365.51
450.11	363.32
450.48	360.92
450.85	358.40
451.22	356.23
451.59	354.20
451.96	352.23
452.33	349.61
452.70	347.26
453.07	344.40
453.43	341.52
453.80	338.84
454.17	336.09
454.54	333.53
454.91	330.82
455.28	328.15
455.65	325.70
456.02	323.29
456.38	321.16
456.75	318.51
457.12	316.26
457.49	314.03
457.86	311.81
458.23	309.93
458.59	307.88
458.96	305.81
459.33	303.96
459.70	302.14
460.07	300.64
460.43	298.88
460.80	297.27
461.17	295.82
461.54	294.31
461.91	292.95
462.27	291.49
462.64	290.27
463.01	288.87
463.38	287.56
463.74	286.21
464.11	285.01
464.48	283.99
464.85	282.92
465.21	282.04
465.58	281.16
465.95	280.07
466.32	279.20
466.68	278.30
467.05	277.41
467.42	276.52
467.78	275.54
468.15	274.71
468.52	274.03
468.88	273.20
469.25	272.43
469.62	271.79
469.98	271.16
470.35	270.54
470.72	269.98
471.08	269.33
471.45	268.78
471.82	268.27
472.18	267.66
472.55	267.20
472.92	266.69
473.28	266.20
473.65	265.71
474.02	265.25
474.38	264.89
474.75	264.58
475.11	264.21
475.48	264.01
475.85	263.77
476.21	263.57
476.58	263.40
476.94	263.25
477.31	263.07
477.67	262.88
478.04	262.80
478.41	262.73
478.77	262.78
479.14	262.73
479.50	262.73
479.87	262.81
480.23	262.89
480.60	262.94
480.96	263.07
481.33	263.29
481.69	263.48
482.06	263.67
482.42	263.82
482.79	264.12
483.15	264.45
483.52	264.82
483.88	265.18
484.25	265.56
484.61	266.01
484.98	266.50
485.34	267.09
485.71	267.65
486.07	268.28
486.44	268.84
486.80	269.54
487.17	270.28
487.53	271.10
487.90	271.97
488.26	272.93
488.62	273.90
488.99	274.90
489.35	275.97
489.72	277.14
490.08	278.39
490.44	279.63
490.81	280.95
491.17	282.32
491.54	283.83
491.90	285.34
492.26	287.00
492.63	288.71
492.99	290.46
493.36	292.36
493.72	294.38
494.08	296.46
494.45	298.68
494.81	300.98
495.17	303.38
495.54	305.94
495.90	308.66
496.26	311.51
496.63	314.47
496.99	317.61
497.35	320.86
497.72	324.27
498.08	327.77
498.44	331.45
498.80	335.39
499.17	339.39
499.53	343.62
499.89	347.99
500.26	352.49
500.62	357.18
500.98	362.23
501.34	367.28
501.71	372.63
502.07	378.11
502.43	383.81
502.79	389.69
503.16	395.78
503.52	402.00
503.88	408.38
504.24	415.04
504.60	421.90
504.97	429.05
505.33	436.34
505.69	444.06
506.05	451.80
506.41	459.61
506.78	467.76
507.14	476.14
507.50	484.78
507.86	493.85
508.22	503.01
508.59	512.16
508.95	521.80
509.31	531.64
509.67	541.77
510.03	552.06
510.39	562.64
510.75	573.39
511.12	584.31
511.48	595.59
511.84	607.00
512.20	618.54
512.56	630.48
512.92	642.64
513.28	654.98
513.64	667.50
514.00	680.26
514.37	693.21
514.73	706.29
515.09	719.36
515.45	732.62
515.81	746.21
516.17	760.21
516.53	774.34
516.89	788.55
517.25	802.67
517.61	817.07
517.97	831.43
518.33	845.79
518.69	860.62
519.05	875.62
519.41	890.87
519.77	906.42
520.13	921.78
520.49	937.18
520.85	952.58
521.21	968.26
521.57	984.50
521.93	1000.31
522.29	1016.67
522.65	1032.96
523.01	1049.25
523.37	1065.30
523.73	1081.48
524.09	1097.51
524.45	1113.74
524.81	1130.40
525.17	1147.18
525.53	1164.17
525.89	1181.12
526.25	1197.80
526.61	1214.15
526.97	1230.91
527.33	1247.30
527.68	1263.93
528.04	1280.42
528.40	1296.94
528.76	1313.90
529.12	1330.42
529.48	1347.21
529.84	1363.24
530.20	1379.78
530.56	1396.65
530.91	1414.08
531.27	1430.79
531.63	1447.23
531.99	1463.84
532.35	1479.74
532.71	1495.55
533.07	1511.77
533.42	1527.57
533.78	1543.64
534.14	1559.87
534.50	1575.05
534.86	1590.91
535.21	1606.03
535.57	1622.03
535.93	1637.50
536.29	1652.41
536.65	1667.37
537.00	1682.14
537.36	1697.40
537.72	1712.01
538.08	1726.30
538.44	1739.96
538.79	1753.72
539.15	1767.40
539.51	1780.90
539.87	1795.25
540.22	1808.99
540.58	1822.70
540.94	1836.05
541.29	1849.00
541.65	1861.62
542.01	1874.72
542.37	1886.98
542.72	1899.41
543.08	1911.08
543.44	1923.66
543.79	1934.74
544.15	1945.81
544.51	1957.45
544.87	1968.47
545.22	1979.10
545.58	1989.37
545.94	1999.09
546.29	2008.93
546.65	2018.70
547.01	2028.12
547.36	2036.75
547.72	2045.09
548.07	2052.70
548.43	2060.84
548.79	2068.76
549.14	2076.30
549.50	2083.75
549.86	2091.47
550.21	2098.72
550.57	2105.67
550.92	2111.98
551.28	2119.04
551.64	2126.07
551.99	2132.37
552.35	2138.37
552.70	2144.55
553.06	2150.53
553.41	2156.81
553.77	2162.76
554.13	2168.89
554.48	2174.88
554.84	2180.41
555.19	2185.79
555.55	2191.04
555.90	2195.52
556.26	2200.44
556.61	2205.17
556.97	2209.48
557.32	2213.52
557.68	2217.74
558.03	2222.18
558.39	2225.91
558.74	2230.57
559.10	2234.44
559.45	2238.22
559.81	2242.53
560.16	2246.44
560.52	2249.64
560.87	2253.20
561.23	2256.03
561.58	2258.97
561.94	2261.60
562.29	2263.95
562.64	2266.59
563.00	2269.23
563.35	2272.76
563.71	2275.84
564.06	2279.09
564.42	2281.86
564.77	2284.51
565.12	2286.67
565.48	2288.68
565.83	2290.55
566.19	2291.97
566.54	2292.87
566.89	2293.98
567.25	2294.70
567.60	2295.91
567.96	2297.57
568.31	2298.43
568.66	2299.47
569.02	2299.95
569.37	2300.28
569.72	2301.05
570.08	2301.11
570.43	2301.29
570.78	2300.67
571.14	2299.05
571.49	2297.64
571.84	2297.37
572.20	2296.20
572.55	2295.25
572.90	2293.61
573.26	2292.29
573.61	2290.54
573.96	2288.83
574.31	2285.86
574.67	2282.68
575.02	2279.11
575.37	2275.75
575.72	2271.88
576.08	2268.46
576.43	2265.17
576.78	2261.44
577.13	2258.49
577.49	2255.53
577.84	2251.92
578.19	2248.30
578.54	2244.86
578.90	2240.67
579.25	2234.99
579.60	2229.96
579.95	2224.90
580.30	2219.82
580.66	2214.70
581.01	2209.73
581.36	2204.75
581.71	2200.58
582.06	2196.24
582.42	2191.68
582.77	2186.50
583.12	2181.92
583.47	2177.44
583.82	2172.41
584.17	2167.13
584.53	2161.54
584.88	2155.85
585.23	2150.04
585.58	2144.54
585.93	2139.01
586.28	2134.21
586.63	2129.33
586.98	2124.32
587.34	2119.68
587.69	2114.75
588.04	2109.42
588.39	2103.67
588.74	2097.19
589.09	2091.07
589.44	2084.23
589.79	2078.32
590.14	2072.77
590.49	2066.25
590.84	2059.72
591.19	2053.70
591.54	2047.33
591.89	2039.91
592.25	2033.08
592.60	2025.87
592.95	2018.34
593.30	2010.94
593.65	2003.28
594.00	1996.27
594.35	1988.99
594.70	1980.90
595.05	1973.79
595.40	1966.44
595.75	1959.07
596.10	1952.90
596.45	1946.13
596.80	1940.00
597.15	1933.43
597.50	1926.33
597.85	1920.00
598.19	1913.32
598.54	1906.26
598.89	1899.56
599.24	1893.69
599.59	1887.00
599.94	1880.92
600.29	1874.44
600.64	1867.94
600.99	1860.69
601.34	1853.80
601.69	1846.86
602.04	1839.99
602.39	1832.59
602.74	1825.81
603.08	1819.10
603.43	1812.30
603.78	1805.01
604.13	1797.88
604.48	1790.45
604.83	1783.52
605.18	1776.34
605.53	1768.30
605.87	1760.32
606.22	1753.07
606.57	1745.20
606.92	1738.02
607.27	1730.81
607.62	1723.96
607.96	1716.70
608.31	1709.98
608.66	1702.33
609.01	1694.64
609.36	1687.10
609.70	1679.09
610.05	1671.07
610.40	1663.21
610.75	1654.95
611.10	1647.26
611.44	1638.73
611.79	1630.83
612.14	1622.10
612.49	1613.04
612.83	1604.72
613.18	1596.58
613.53	1588.55
613.88	1579.84
614.22	1571.48
614.57	1562.91
614.92	1554.88
615.27	1547.23
615.61	1538.91
615.96	1530.96
616.31	1523.39
616.65	1516.01
617.00	1508.53
617.35	1500.86
617.70	1492.54
618.04	1484.07
618.39	1475.88
618.74	1468.35
619.08	1460.03
619.43	1452.46
619.78	1445.56
620.12	1438.35
620.47	1430.88
620.82	1422.70
621.16	1415.48
621.51	1407.85
621.85	1400.25
622.20	1391.69
622.55	1383.34
622.89	1375.51
623.24	1367.89
623.59	1360.52
623.93	1352.97
624.28	1345.71
624.62	1338.12
624.97	1331.01
625.32	1324.32
625.66	1317.35
626.01	1310.24
626.35	1302.77
626.70	1295.02
627.04	1287.36
627.39	1279.67
627.73	1272.16
628.08	1265.23
628.43	1257.79
628.77	1250.42
629.12	1242.80
629.46	1235.60
629.81	1228.21
630.15	1220.98
630.50	1213.50
630.84	1205.28
631.19	1197.42
631.53	1189.97
631.88	1182.41
632.22	1174.78
632.57	1167.35
632.91	1159.73
633.26	1152.26
633.60	1144.97
633.95	1137.94
634.29	1130.86
634.64	1124.15
634.98	1116.87
635.32	1109.75
635.67	1103.21
636.01	1096.59
636.36	1089.74
636.70	1083.27
637.05	1076.62
637.39	1070.16
637.73	1063.56
638.08	1057.69
638.42	1051.66
638.77	1045.17
639.11	1038.61
639.45	1032.23
639.80	1025.62
640.14	1019.21
640.49	1012.71
640.83	1006.38
641.17	1000.13
641.52	993.79
641.86	987.41
642.20	981.56
642.55	975.26
642.89	968.78
643.23	962.32
643.58	956.60
643.92	950.40
644.26	944.43
644.61	938.43
644.95	932.46
645.29	925.91
645.64	919.21
645.98	912.88
646.32	907.13
646.66	901.12
647.01	895.32
647.35	889.69
647.69	883.76
648.04	878.29
648.38	872.46
648.72	866.44
649.06	860.31
649.41	854.48
649.75	848.50
650.09	842.50
650.43	836.70
650.78	830.54
651.12	824.58
651.46	818.86
651.80	813.13
652.14	807.78
652.49	802.44
652.83	797.22
653.17	791.57
653.51	785.81
653.85	780.38
654.20	774.70
654.54	768.59
654.88	762.88
655.22	756.87
655.56	751.26
655.90	745.78
656.25	740.51
656.59	735.11
656.93	730.01
657.27	724.92
657.61	719.45
657.95	714.38
658.29	709.36
658.64	704.13
658.98	698.82
659.32	693.31
659.66	688.12
660.00	682.76
660.34	677.78
660.68	672.81
661.02	667.82
661.36	663.10
661.70	658.64
662.05	654.20
662.39	649.99
662.73	645.53
663.07	641.16
663.41	636.68
663.75	632.17
664.09	627.58
664.43	623.22
664.77	619.11
665.11	614.79
665.45	610.66
665.79	606.56
666.13	602.41
666.47	598.37
666.81	594.15
667.15	590.08
667.49	586.14
667.83	582.32
668.17	578.36
668.51	574.29
668.85	570.26
669.19	566.51
669.53	562.60
669.87	558.66
670.21	554.98
670.55	551.42
670.89	548.02
671.23	544.59
671.57	541.07
671.91	537.47
672.25	534.01
672.58	530.42
672.92	527.03
673.26	523.86
673.60	520.66
673.94	517.53
674.28	514.61
674.62	511.69
674.96	508.64
675.30	505.76
675.64	502.80
675.97	500.04
676.31	497.13
676.65	494.18
676.99	491.48
677.33	488.60
677.67	485.78
678.01	482.71
678.34	479.77
678.68	476.82
679.02	474.02
679.36	471.24
679.70	468.56
680.04	465.77
680.37	462.89
680.71	460.19
681.05	457.59
681.39	454.89
681.73	452.23
682.06	449.67
682.40	447.13
682.74	444.68
683.08	442.13
683.42	439.51
683.75	437.03
684.09	434.51
684.43	432.04
684.77	429.54
685.10	427.19
685.44	424.86
685.78	422.58
686.12	420.32
686.45	418.04
686.79	415.78
687.13	413.60
687.46	411.46
687.80	409.27
688.14	407.08
688.48	405.01
688.81	402.77
689.15	400.64
689.49	398.49
689.82	396.41
690.16	394.31
690.50	392.42
690.83	390.48
691.17	388.51
691.51	386.64
691.84	384.82
692.18	382.88
692.52	380.94
692.85	379.04
693.19	377.20
693.52	375.41
693.86	373.59
694.20	371.76
694.53	369.98
694.87	368.18
695.21	366.38
695.54	364.58
695.88	362.87
696.21	361.15
696.55	359.40
696.88	357.68
697.22	356.01
697.56	354.40
697.89	352.79
698.23	351.20
698.56	349.58
698.90	347.99
699.23	346.37
699.57	344.79
699.90	343.25
700.24	341.69
700.58	340.18
700.91	338.65
701.25	337.26
701.58	335.87
701.92	334.47
702.25	333.05
702.59	331.69
702.92	330.38
703.26	329.05
703.59	327.84
703.93	326.66
704.26	325.43
704.60	324.10
704.93	322.81
705.26	321.57
705.60	320.39
705.93	319.25
706.27	318.24
706.60	317.22
706.94	316.16
707.27	315.04
707.61	313.96
707.94	312.95
708.27	311.85
708.61	310.79
708.94	309.78
709.28	308.85
709.61	307.91
709.94	306.93
710.28	305.92
710.61	304.92
710.95	303.83
711.28	302.92
711.61	301.97
711.95	301.06
712.28	300.08
712.61	299.08
712.95	298.12
713.28	297.25
713.61	296.32
713.95	295.41
714.28	294.57
714.61	293.70
714.95	292.85
715.28	291.98
715.61	291.11
715.95	290.24
716.28	289.37
716.61	288.51
716.95	287.71
717.28	287.00
717.61	286.23
717.94	285.53
718.28	284.69
718.61	283.96
718.94	283.25
719.27	282.59
719.61	281.94
719.94	281.33
720.27	280.62
720.60	279.98
720.94	279.33
721.27	278.76
721.60	278.20
721.93	277.57
722.27	277.03
722.60	276.49
722.93	275.92
723.26	275.37
723.59	274.84
723.93	274.30
724.26	273.71
724.59	273.16
724.92	272.65
725.25	272.24
725.59	271.72
725.92	271.19
726.25	270.70
726.58	270.18
726.91	269.67
727.24	269.17
727.57	268.69
727.91	268.24
728.24	267.76
728.57	267.26
728.90	266.85
729.23	266.37
729.56	265.95
729.89	265.50
730.22	265.02
730.55	264.54
730.89	264.12
731.22	263.67
731.55	263.25
731.88	262.84
732.21	262.36
732.54	261.95
732.87	261.53
733.20	261.13
733.53	260.76
733.86	260.37
734.19	259.99
734.52	259.63
734.85	259.28
735.18	258.85
735.51	258.48
735.84	258.11
736.17	257.76
736.50	257.34
736.83	257.10
737.16	256.76
737.49	256.44
737.82	256.07
738.15	255.76
738.48	255.45
738.81	255.08
739.14	254.76
739.47	254.45
739.80	254.17
740.13	253.88
740.46	253.53
740.79	253.22
741.12	252.92
741.45	252.57
741.78	252.21
742.11	251.98
742.44	251.65
742.77	251.38
743.10	251.06
743.43	250.78
743.75	250.43
744.08	250.29
744.41	250.02
744.74	249.75
745.07	249.43
745.40	249.20
745.73	248.95
746.06	248.67
746.39	248.40
746.71	248.10
747.04	247.84
747.37	247.59
747.70	247.35
748.03	247.08
748.36	246.87
748.68	246.62
749.01	246.35
749.34	246.13
749.67	245.90
750.00	245.68
750.33	245.50
750.65	245.24
750.98	244.89
751.31	244.63
751.64	244.41
751.97	244.25
752.29	243.96
752.62	243.72
752.95	243.52
753.28	243.29
753.60	243.08
753.93	242.89
754.26	242.71
754.59	242.46
754.91	242.22
755.24	242.03
755.57	241.83
755.90	241.63
756.22	241.42
756.55	241.20
756.88	240.96
757.20	240.72
757.53	240.54
757.86	240.37
758.19	240.21
758.51	240.07
758.84	239.86
759.17	239.70
759.49	239.53
759.82	239.37
760.15	239.23
760.47	239.06
760.80	238.85
761.13	238.70
761.45	238.53
761.78	238.39
762.11	238.23
762.43	238.09
762.76	237.94
763.08	237.83
763.41	237.70
763.74	237.62
764.06	237.48
764.39	237.36
764.71	237.21
765.04	237.09
765.37	236.92
765.69	236.81
766.02	236.69
766.34	236.58
766.67	236.45
767.00	236.37
767.32	236.32
767.65	236.29
767.97	236.18
768.30	236.09
768.62	235.99
768.95	235.89
769.27	235.76
769.60	235.65
769.92	235.53
770.25	235.43
770.57	235.29
770.90	235.20
771.22	235.06
771.55	234.97
771.87	234.88
772.20	234.81
772.52	234.81
772.85	234.84
773.17	234.76
773.50	234.68
773.82	234.58
774.15	234.47
774.47	234.34
774.80	234.27
775.12	234.20
775.45	234.13
775.77	234.03
776.09	234.02
776.42	233.91
776.74	233.86
777.07	233.77
777.39	233.72
777.72	233.64
778.04	233.60
778.36	233.51
778.69	233.46
779.01	233.40
779.33	233.25
779.66	233.06
779.98	232.95
780.31	232.91
780.63	232.87
780.95	232.80
781.28	232.75
781.60	232.65
781.92	232.58
782.25	232.54
782.57	232.49
782.89	232.39
783.22	232.37
783.54	232.33
783.86	232.27
784.19	232.21
784.51	232.16
784.83	232.10
785.16	232.05
785.48	232.01
785.80	231.97
786.12	231.95
786.45	231.90
786.77	231.86
787.09	231.78
