SpectraSuite Data File
++++++++++++++++++++++++++++++++++++
Date: Fri Feb 01 16:15:27 EST 2013
User: group
Dark Spectrum Present: No
Reference Spectrum Present: No
Number of Sampled Component Spectra: 1
Spectrometers: USB2E7196
Integration Time (usec): 35000 (USB2E7196)
Spectra Averaged: 100 (USB2E7196)
Boxcar Smoothing: 10 (USB2E7196)
Correct for Electrical Dark: No (USB2E7196)
Strobe/Lamp Enabled: No (USB2E7196)
Correct for Detector Non-linearity: No (USB2E7196)
Correct for Stray Light: No (USB2E7196)
Number of Pixels in Processed Spectrum: 2048
>>>>>Begin Processed Spectral Data<<<<<
339.09	0.00
339.48	213.79
339.86	216.04
340.24	217.49
340.63	218.54
341.01	221.12
341.39	221.75
341.78	221.88
342.16	223.54
342.54	224.72
342.93	212.61
343.31	223.34
343.69	223.90
344.07	224.35
344.46	224.72
344.84	225.08
345.22	225.34
345.60	225.56
345.99	225.75
346.37	225.87
346.75	225.95
347.13	226.02
347.52	226.09
347.90	226.17
348.28	226.21
348.66	226.27
349.05	226.26
349.43	226.28
349.81	226.32
350.19	226.37
350.57	226.44
350.96	226.51
351.34	226.63
351.72	226.71
352.10	226.80
352.48	226.89
352.87	226.94
353.25	226.98
353.63	227.03
354.01	227.11
354.39	227.20
354.77	227.27
355.15	227.34
355.54	227.35
355.92	227.34
356.30	227.36
356.68	227.46
357.06	227.52
357.44	227.54
357.82	227.62
358.20	227.68
358.58	227.70
358.97	227.75
359.35	227.80
359.73	227.86
360.11	227.86
360.49	227.92
360.87	227.98
361.25	228.03
361.63	228.12
362.01	228.16
362.39	228.15
362.77	228.23
363.15	228.28
363.53	228.32
363.91	228.35
364.29	228.42
364.67	228.40
365.05	228.41
365.43	228.43
365.81	228.44
366.19	228.49
366.57	228.55
366.95	228.56
367.33	228.53
367.71	228.54
368.09	228.61
368.47	228.60
368.85	228.57
369.23	228.54
369.61	228.47
369.99	228.47
370.37	228.48
370.75	228.47
371.13	228.41
371.51	228.34
371.89	228.33
372.27	228.29
372.65	228.20
373.03	228.15
373.41	228.13
373.78	228.09
374.16	227.98
374.54	227.90
374.92	227.83
375.30	227.79
375.68	227.70
376.06	227.60
376.44	227.53
376.82	227.47
377.19	227.45
377.57	227.38
377.95	227.28
378.33	227.20
378.71	227.06
379.09	227.02
379.47	226.97
379.84	226.92
380.22	226.82
380.60	226.78
380.98	226.71
381.36	226.64
381.73	226.54
382.11	226.51
382.49	226.45
382.87	226.38
383.25	226.31
383.62	226.37
384.00	226.35
384.38	226.32
384.76	226.29
385.13	226.27
385.51	226.22
385.89	226.17
386.27	226.15
386.64	226.16
387.02	226.06
387.40	226.03
387.78	226.01
388.15	226.02
388.53	225.96
388.91	225.91
389.29	225.86
389.66	225.86
390.04	225.84
390.42	225.85
390.79	225.82
391.17	225.81
391.55	225.70
391.92	225.69
392.30	225.69
392.68	225.67
393.05	225.66
393.43	225.67
393.81	225.66
394.18	225.64
394.56	225.64
394.94	225.68
395.31	225.68
395.69	225.71
396.06	225.73
396.44	225.81
396.82	225.86
397.19	225.97
397.57	225.97
397.95	225.99
398.32	225.99
398.70	226.09
399.07	226.17
399.45	226.22
399.82	226.25
400.20	226.28
400.58	226.37
400.95	226.40
401.33	226.49
401.70	226.65
402.08	226.76
402.45	226.86
402.83	227.01
403.20	227.15
403.58	227.24
403.95	227.32
404.33	227.43
404.71	227.56
405.08	227.75
405.46	227.90
405.83	228.06
406.21	228.18
406.58	228.33
406.96	228.45
407.33	228.63
407.70	228.82
408.08	229.11
408.45	229.30
408.83	229.53
409.20	229.75
409.58	229.93
409.95	230.16
410.33	230.38
410.70	230.57
411.08	230.82
411.45	231.13
411.82	231.44
412.20	231.78
412.57	232.19
412.95	232.45
413.32	232.85
413.69	233.26
414.07	233.75
414.44	234.22
414.82	234.70
415.19	235.25
415.56	235.81
415.94	236.35
416.31	237.00
416.68	237.60
417.06	238.32
417.43	238.97
417.81	239.77
418.18	240.57
418.55	241.41
418.93	242.33
419.30	243.20
419.67	244.12
420.04	245.11
420.42	246.09
420.79	247.29
421.16	248.46
421.54	249.64
421.91	250.83
422.28	252.10
422.66	253.45
423.03	254.76
423.40	256.03
423.77	257.43
424.15	258.86
424.52	260.36
424.89	261.92
425.26	263.52
425.64	264.96
426.01	266.56
426.38	268.24
426.75	269.90
427.13	271.65
427.50	273.49
427.87	275.35
428.24	277.21
428.61	278.93
428.99	280.87
429.36	282.96
429.73	285.01
430.10	287.02
430.47	289.10
430.85	291.23
431.22	293.49
431.59	295.85
431.96	298.08
432.33	300.57
432.70	302.98
433.08	305.75
433.45	308.39
433.82	310.98
434.19	313.87
434.56	316.63
434.93	319.30
435.30	321.85
435.68	324.73
436.05	327.54
436.42	330.32
436.79	332.82
437.16	335.50
437.53	338.30
437.90	341.06
438.27	343.74
438.64	346.56
439.01	349.16
439.38	351.41
439.75	353.59
440.13	356.04
440.50	358.36
440.87	360.23
441.24	362.13
441.61	364.31
441.98	365.76
442.35	367.60
442.72	369.43
443.09	371.27
443.46	372.26
443.83	372.85
444.20	373.36
444.57	374.20
444.94	374.49
445.31	374.85
445.68	375.21
446.05	375.31
446.42	374.92
446.79	374.47
447.16	374.03
447.53	373.70
447.90	372.56
448.27	371.44
448.64	369.86
449.01	368.70
449.37	366.75
449.74	364.91
450.11	362.70
450.48	360.23
450.85	357.72
451.22	355.56
451.59	353.50
451.96	351.55
452.33	348.93
452.70	346.58
453.07	343.77
453.43	340.88
453.80	338.09
454.17	335.41
454.54	332.89
454.91	330.15
455.28	327.50
455.65	324.97
456.02	322.49
456.38	320.34
456.75	317.71
457.12	315.42
457.49	313.17
457.86	310.91
458.23	309.07
458.59	307.04
458.96	304.96
459.33	303.13
459.70	301.24
460.07	299.72
460.43	297.98
460.80	296.35
461.17	294.96
461.54	293.48
461.91	292.03
462.27	290.62
462.64	289.39
463.01	288.02
463.38	286.75
463.74	285.40
464.11	284.23
464.48	283.22
464.85	282.16
465.21	281.28
465.58	280.41
465.95	279.33
466.32	278.42
466.68	277.54
467.05	276.68
467.42	275.85
467.78	274.95
468.15	274.10
468.52	273.45
468.88	272.59
469.25	271.82
469.62	271.22
469.98	270.54
470.35	269.89
470.72	269.28
471.08	268.62
471.45	268.04
471.82	267.54
472.18	266.93
472.55	266.46
472.92	265.97
473.28	265.50
473.65	265.04
474.02	264.58
474.38	264.24
474.75	263.91
475.11	263.56
475.48	263.30
475.85	263.09
476.21	262.86
476.58	262.66
476.94	262.52
477.31	262.37
477.67	262.23
478.04	262.13
478.41	262.12
478.77	262.20
479.14	262.20
479.50	262.20
479.87	262.33
480.23	262.41
480.60	262.50
480.96	262.62
481.33	262.83
481.69	263.06
482.06	263.23
482.42	263.46
482.79	263.75
483.15	264.08
483.52	264.49
483.88	264.85
484.25	265.27
484.61	265.67
484.98	266.12
485.34	266.69
485.71	267.28
486.07	267.89
486.44	268.45
486.80	269.18
487.17	269.94
487.53	270.74
487.90	271.57
488.26	272.52
488.62	273.52
488.99	274.51
489.35	275.57
489.72	276.75
490.08	277.94
490.44	279.17
490.81	280.50
491.17	281.83
491.54	283.31
491.90	284.88
492.26	286.57
492.63	288.32
492.99	290.13
493.36	292.05
493.72	294.08
494.08	296.17
494.45	298.39
494.81	300.75
495.17	303.16
495.54	305.78
495.90	308.46
496.26	311.24
496.63	314.23
496.99	317.30
497.35	320.53
497.72	323.96
498.08	327.50
498.44	331.15
498.80	335.05
499.17	339.08
499.53	343.24
499.89	347.59
500.26	352.09
500.62	356.76
500.98	361.71
501.34	366.80
501.71	372.18
502.07	377.61
502.43	383.18
502.79	389.00
503.16	395.09
503.52	401.36
503.88	407.78
504.24	414.40
504.60	421.32
504.97	428.49
505.33	435.75
505.69	443.49
506.05	451.29
506.41	459.20
506.78	467.37
507.14	475.77
507.50	484.49
507.86	493.49
508.22	502.69
508.59	511.88
508.95	521.45
509.31	531.25
509.67	541.37
510.03	551.65
510.39	562.21
510.75	572.93
511.12	583.85
511.48	595.13
511.84	606.52
512.20	618.04
512.56	629.94
512.92	642.23
513.28	654.49
513.64	666.97
514.00	679.66
514.37	692.60
514.73	705.68
515.09	718.72
515.45	731.95
515.81	745.50
516.17	759.44
516.53	773.58
516.89	787.77
517.25	801.97
517.61	816.39
517.97	830.81
518.33	845.24
518.69	860.01
519.05	875.09
519.41	890.28
519.77	905.78
520.13	921.14
520.49	936.36
520.85	951.78
521.21	967.44
521.57	983.68
521.93	999.32
522.29	1015.67
522.65	1031.85
523.01	1048.09
523.37	1064.04
523.73	1080.14
524.09	1096.16
524.45	1112.37
524.81	1128.88
525.17	1145.68
525.53	1162.68
525.89	1179.45
526.25	1196.27
526.61	1212.47
526.97	1229.20
527.33	1245.79
527.68	1262.35
528.04	1278.84
528.40	1295.38
528.76	1312.31
529.12	1328.86
529.48	1345.71
529.84	1361.62
530.20	1378.22
530.56	1395.17
530.91	1412.58
531.27	1429.25
531.63	1445.65
531.99	1462.12
532.35	1478.05
532.71	1493.87
533.07	1509.92
533.42	1525.84
533.78	1541.80
534.14	1558.10
534.50	1573.30
534.86	1588.98
535.21	1604.20
535.57	1620.09
535.93	1635.42
536.29	1650.21
536.65	1665.10
537.00	1679.78
537.36	1694.99
537.72	1709.43
538.08	1723.88
538.44	1737.45
538.79	1751.29
539.15	1764.84
539.51	1778.55
539.87	1792.84
540.22	1806.44
540.58	1820.03
540.94	1833.28
541.29	1846.02
541.65	1858.58
542.01	1871.75
542.37	1883.85
542.72	1896.27
543.08	1907.95
543.44	1920.41
543.79	1931.49
544.15	1942.47
544.51	1954.00
544.87	1964.93
545.22	1975.74
545.58	1985.81
545.94	1995.72
546.29	2005.59
546.65	2015.52
547.01	2024.69
547.36	2033.28
547.72	2041.71
548.07	2049.58
548.43	2057.64
548.79	2065.60
549.14	2073.04
549.50	2080.28
549.86	2088.03
550.21	2095.14
550.57	2102.28
550.92	2108.75
551.28	2115.86
551.64	2122.97
551.99	2129.35
552.35	2135.65
552.70	2141.62
553.06	2147.60
553.41	2153.94
553.77	2159.90
554.13	2165.87
554.48	2172.12
554.84	2177.63
555.19	2182.84
555.55	2188.06
555.90	2192.59
556.26	2197.36
556.61	2202.07
556.97	2206.40
557.32	2210.44
557.68	2214.56
558.03	2218.83
558.39	2222.44
558.74	2227.07
559.10	2230.82
559.45	2234.66
559.81	2238.76
560.16	2242.86
560.52	2246.15
560.87	2249.37
561.23	2252.12
561.58	2254.97
561.94	2257.37
562.29	2259.75
562.64	2262.45
563.00	2265.03
563.35	2268.51
563.71	2271.77
564.06	2275.12
564.42	2277.92
564.77	2280.51
565.12	2282.92
565.48	2284.78
565.83	2286.82
566.19	2288.15
566.54	2289.09
566.89	2290.20
567.25	2290.84
567.60	2291.94
567.96	2293.67
568.31	2294.64
568.66	2295.71
569.02	2296.39
569.37	2296.84
569.72	2297.75
570.08	2298.08
570.43	2298.19
570.78	2297.63
571.14	2296.13
571.49	2294.87
571.84	2294.66
572.20	2293.63
572.55	2292.58
572.90	2291.11
573.26	2289.68
573.61	2287.98
573.96	2286.28
574.31	2283.43
574.67	2280.51
575.02	2276.97
575.37	2273.54
575.72	2269.81
576.08	2266.49
576.43	2263.16
576.78	2259.41
577.13	2256.19
577.49	2253.03
577.84	2249.53
578.19	2245.89
578.54	2242.47
578.90	2238.22
579.25	2232.63
579.60	2227.64
579.95	2222.71
580.30	2217.79
580.66	2212.80
581.01	2207.85
581.36	2202.95
581.71	2198.89
582.06	2194.55
582.42	2190.08
582.77	2184.90
583.12	2180.39
583.47	2175.70
583.82	2170.78
584.17	2165.70
584.53	2160.30
584.88	2154.75
585.23	2149.02
585.58	2143.48
585.93	2137.85
586.28	2133.13
586.63	2128.21
586.98	2123.21
587.34	2118.52
587.69	2113.57
588.04	2108.30
588.39	2102.76
588.74	2096.42
589.09	2090.29
589.44	2083.50
589.79	2077.68
590.14	2072.04
590.49	2065.44
590.84	2059.06
591.19	2053.09
591.54	2046.65
591.89	2039.42
592.25	2032.69
592.60	2025.52
592.95	2018.04
593.30	2010.83
593.65	2003.18
594.00	1996.18
594.35	1988.94
594.70	1980.81
595.05	1973.65
595.40	1966.42
595.75	1958.95
596.10	1952.74
596.45	1945.92
596.80	1939.66
597.15	1933.00
597.50	1925.84
597.85	1919.50
598.19	1912.96
598.54	1905.94
598.89	1899.30
599.24	1893.33
599.59	1886.68
599.94	1880.47
600.29	1874.07
600.64	1867.51
600.99	1860.14
601.34	1853.19
601.69	1846.23
602.04	1839.54
602.39	1832.29
602.74	1825.45
603.08	1818.76
603.43	1811.87
603.78	1804.58
604.13	1797.51
604.48	1790.26
604.83	1783.48
605.18	1776.53
605.53	1768.58
605.87	1760.49
606.22	1753.16
606.57	1745.23
606.92	1737.98
607.27	1730.97
607.62	1724.14
607.96	1716.81
608.31	1710.18
608.66	1702.61
609.01	1695.05
609.36	1687.50
609.70	1679.41
610.05	1671.39
610.40	1663.67
610.75	1655.50
611.10	1647.93
611.44	1639.50
611.79	1631.64
612.14	1622.89
612.49	1613.74
612.83	1605.30
613.18	1597.19
613.53	1589.17
613.88	1580.64
614.22	1572.22
614.57	1563.50
614.92	1555.59
615.27	1548.02
615.61	1539.73
615.96	1531.80
616.31	1524.25
616.65	1516.77
617.00	1509.20
617.35	1501.54
617.70	1493.28
618.04	1484.63
618.39	1476.41
618.74	1468.85
619.08	1460.40
619.43	1452.89
619.78	1445.80
620.12	1438.67
620.47	1431.15
620.82	1422.90
621.16	1415.55
621.51	1408.01
621.85	1400.37
622.20	1391.76
622.55	1383.43
622.89	1375.56
623.24	1367.89
623.59	1360.45
623.93	1352.96
624.28	1345.82
624.62	1338.22
624.97	1331.04
625.32	1324.45
625.66	1317.37
626.01	1310.16
626.35	1302.70
626.70	1294.93
627.04	1287.41
627.39	1279.65
627.73	1272.29
628.08	1265.47
628.43	1258.17
628.77	1250.82
629.12	1243.26
629.46	1236.25
629.81	1228.82
630.15	1221.61
630.50	1214.21
630.84	1206.12
631.19	1198.28
631.53	1190.72
631.88	1183.19
632.22	1175.51
632.57	1168.09
632.91	1160.55
633.26	1153.11
633.60	1145.71
633.95	1138.60
634.29	1131.44
634.64	1124.72
634.98	1117.37
635.32	1110.17
635.67	1103.48
636.01	1096.74
636.36	1089.95
636.70	1083.34
637.05	1076.84
637.39	1070.41
637.73	1063.85
638.08	1057.82
638.42	1051.77
638.77	1045.33
639.11	1038.78
639.45	1032.40
639.80	1025.85
640.14	1019.46
640.49	1012.97
640.83	1006.62
641.17	1000.38
641.52	994.08
641.86	987.62
642.20	981.75
642.55	975.45
642.89	968.96
643.23	962.42
643.58	956.64
643.92	950.35
644.26	944.24
644.61	938.13
644.95	932.19
645.29	925.63
645.64	918.80
645.98	912.44
646.32	906.55
646.66	900.48
647.01	894.63
647.35	888.91
647.69	883.03
648.04	877.50
648.38	871.74
648.72	865.70
649.06	859.64
649.41	853.70
649.75	847.85
650.09	841.96
650.43	836.24
650.78	830.03
651.12	824.11
651.46	818.39
651.80	812.70
652.14	807.34
652.49	802.01
652.83	796.89
653.17	791.20
653.51	785.45
653.85	780.01
654.20	774.39
654.54	768.33
654.88	762.60
655.22	756.76
655.56	751.11
655.90	745.64
656.25	740.40
656.59	735.12
656.93	729.96
657.27	724.71
657.61	719.20
657.95	714.13
658.29	709.02
658.64	703.70
658.98	698.36
659.32	692.85
659.66	687.62
660.00	682.34
660.34	677.44
660.68	672.57
661.02	667.57
661.36	662.82
661.70	658.41
662.05	654.06
662.39	649.75
662.73	645.22
663.07	640.91
663.41	636.43
663.75	631.87
664.09	627.28
664.43	622.95
664.77	618.93
665.11	614.68
665.45	610.57
665.79	606.54
666.13	602.45
666.47	598.38
666.81	594.22
667.15	590.05
667.49	586.15
667.83	582.33
668.17	578.40
668.51	574.33
668.85	570.28
669.19	566.40
669.53	562.51
669.87	558.65
670.21	554.95
670.55	551.41
670.89	548.08
671.23	544.62
671.57	541.11
671.91	537.53
672.25	534.01
672.58	530.52
672.92	527.08
673.26	523.92
673.60	520.76
673.94	517.64
674.28	514.78
674.62	511.79
674.96	508.69
675.30	505.77
675.64	502.86
675.97	500.00
676.31	497.11
676.65	494.22
676.99	491.53
677.33	488.67
677.67	485.77
678.01	482.66
678.34	479.71
678.68	476.85
679.02	474.01
679.36	471.23
679.70	468.52
680.04	465.83
680.37	462.89
680.71	460.03
681.05	457.42
681.39	454.69
681.73	452.03
682.06	449.53
682.40	446.93
682.74	444.39
683.08	441.91
683.42	439.32
683.75	436.85
684.09	434.24
684.43	431.79
684.77	429.35
685.10	427.00
685.44	424.68
685.78	422.32
686.12	420.06
686.45	417.77
686.79	415.37
687.13	413.13
687.46	411.03
687.80	408.92
688.14	406.69
688.48	404.59
688.81	402.34
689.15	400.18
689.49	398.06
689.82	396.02
690.16	393.89
690.50	391.94
690.83	389.98
691.17	388.01
691.51	386.06
691.84	384.22
692.18	382.28
692.52	380.31
692.85	378.38
693.19	376.54
693.52	374.70
693.86	372.97
694.20	371.19
694.53	369.32
694.87	367.49
695.21	365.70
695.54	363.90
695.88	362.17
696.21	360.45
696.55	358.80
696.88	357.07
697.22	355.39
697.56	353.77
697.89	352.12
698.23	350.56
698.56	348.96
698.90	347.39
699.23	345.76
699.57	344.25
699.90	342.74
700.24	341.16
700.58	339.65
700.91	338.16
701.25	336.70
701.58	335.41
701.92	333.98
702.25	332.63
702.59	331.27
702.92	329.94
703.26	328.61
703.59	327.32
703.93	326.13
704.26	324.95
704.60	323.65
704.93	322.36
705.26	321.08
705.60	319.93
705.93	318.79
706.27	317.78
706.60	316.68
706.94	315.57
707.27	314.50
707.61	313.48
707.94	312.42
708.27	311.33
708.61	310.21
708.94	309.25
709.28	308.27
709.61	307.30
709.94	306.34
710.28	305.34
710.61	304.36
710.95	303.32
711.28	302.40
711.61	301.49
711.95	300.58
712.28	299.67
712.61	298.66
712.95	297.67
713.28	296.78
713.61	295.88
713.95	294.99
714.28	294.13
714.61	293.26
714.95	292.43
715.28	291.57
715.61	290.68
715.95	289.81
716.28	288.90
716.61	288.06
716.95	287.23
717.28	286.47
717.61	285.70
717.94	284.96
718.28	284.14
718.61	283.42
718.94	282.72
719.27	282.04
719.61	281.40
719.94	280.75
720.27	279.99
720.60	279.31
720.94	278.73
721.27	278.13
721.60	277.53
721.93	276.89
722.27	276.38
722.60	275.86
722.93	275.26
723.26	274.74
723.59	274.17
723.93	273.60
724.26	273.03
724.59	272.46
724.92	271.90
725.25	271.38
725.59	270.80
725.92	270.29
726.25	269.75
726.58	269.22
726.91	268.74
727.24	268.30
727.57	267.82
727.91	267.30
728.24	266.82
728.57	266.33
728.90	265.91
729.23	265.37
729.56	264.91
729.89	264.50
730.22	264.02
730.55	263.56
730.89	263.18
731.22	262.74
731.55	262.31
731.88	261.89
732.21	261.48
732.54	261.10
732.87	260.65
733.20	260.27
733.53	259.89
733.86	259.48
734.19	259.09
734.52	258.71
734.85	258.38
735.18	257.95
735.51	257.59
735.84	257.22
736.17	256.87
736.50	256.46
736.83	256.20
737.16	255.86
737.49	255.52
737.82	255.16
738.15	254.84
738.48	254.52
738.81	254.23
739.14	253.89
739.47	253.55
739.80	253.24
740.13	252.93
740.46	252.62
740.79	252.31
741.12	252.00
741.45	251.71
741.78	251.42
742.11	251.16
742.44	250.83
742.77	250.53
743.10	250.23
743.43	249.97
743.75	249.62
744.08	249.48
744.41	249.24
744.74	248.95
745.07	248.69
745.40	248.46
745.73	248.20
746.06	247.96
746.39	247.72
746.71	247.46
747.04	247.23
747.37	246.96
747.70	246.73
748.03	246.48
748.36	246.26
748.68	246.01
749.01	245.75
749.34	245.51
749.67	245.29
750.00	245.10
750.33	244.94
750.65	244.69
750.98	244.34
751.31	244.10
751.64	243.92
751.97	243.75
752.29	243.51
752.62	243.25
752.95	243.05
753.28	242.84
753.60	242.62
753.93	242.43
754.26	242.24
754.59	242.00
754.91	241.80
755.24	241.60
755.57	241.38
755.90	241.21
756.22	241.05
756.55	240.84
756.88	240.63
757.20	240.38
757.53	240.20
757.86	240.03
758.19	239.87
758.51	239.71
758.84	239.49
759.17	239.30
759.49	239.13
759.82	238.99
760.15	238.85
760.47	238.70
760.80	238.53
761.13	238.43
761.45	238.25
761.78	238.08
762.11	237.93
762.43	237.79
762.76	237.62
763.08	237.47
763.41	237.33
763.74	237.22
764.06	237.08
764.39	236.94
764.71	236.79
765.04	236.64
765.37	236.45
765.69	236.31
766.02	236.19
766.34	236.09
766.67	235.93
767.00	235.76
767.32	235.67
767.65	235.60
767.97	235.44
768.30	235.33
768.62	235.22
768.95	235.07
769.27	234.96
769.60	234.85
769.92	234.72
770.25	234.62
770.57	234.45
770.90	234.35
771.22	234.23
771.55	234.15
771.87	234.06
772.20	233.95
772.52	233.93
772.85	233.96
773.17	233.84
773.50	233.74
773.82	233.68
774.15	233.55
774.47	233.41
774.80	233.33
775.12	233.27
775.45	233.19
775.77	233.15
776.09	233.08
776.42	233.02
776.74	232.98
777.07	232.88
777.39	232.82
777.72	232.71
778.04	232.66
778.36	232.58
778.69	232.51
779.01	232.48
779.33	232.34
779.66	232.17
779.98	232.13
780.31	232.05
780.63	232.02
780.95	231.98
781.28	231.90
781.60	231.82
781.92	231.77
782.25	231.69
782.57	231.64
782.89	231.58
783.22	231.50
783.54	231.41
783.86	231.37
784.19	231.34
784.51	231.34
784.83	231.28
785.16	231.23
785.48	231.20
785.80	231.14
786.12	231.12
786.45	231.08
786.77	231.01
787.09	230.99
