SpectraSuite Data File
++++++++++++++++++++++++++++++++++++
Date: Fri Feb 01 15:54:27 EST 2013
User: group
Dark Spectrum Present: No
Reference Spectrum Present: No
Number of Sampled Component Spectra: 1
Spectrometers: USB2E7196
Integration Time (usec): 35000 (USB2E7196)
Spectra Averaged: 100 (USB2E7196)
Boxcar Smoothing: 10 (USB2E7196)
Correct for Electrical Dark: No (USB2E7196)
Strobe/Lamp Enabled: No (USB2E7196)
Correct for Detector Non-linearity: No (USB2E7196)
Correct for Stray Light: No (USB2E7196)
Number of Pixels in Processed Spectrum: 2048
>>>>>Begin Processed Spectral Data<<<<<
339.09	0.00
339.48	214.56
339.86	216.21
340.24	217.63
340.63	219.05
341.01	221.85
341.39	221.38
341.78	223.47
342.16	223.96
342.54	223.85
342.93	213.04
343.31	223.79
343.69	224.34
344.07	224.80
344.46	225.21
344.84	225.56
345.22	225.80
345.60	226.05
345.99	226.21
346.37	226.34
346.75	226.46
347.13	226.49
347.52	226.52
347.90	226.59
348.28	226.59
348.66	226.68
349.05	226.67
349.43	226.71
349.81	226.77
350.19	226.80
350.57	226.88
350.96	226.94
351.34	227.05
351.72	227.11
352.10	227.22
352.48	227.30
352.87	227.38
353.25	227.45
353.63	227.51
354.01	227.56
354.39	227.66
354.77	227.75
355.15	227.91
355.54	227.95
355.92	228.00
356.30	228.09
356.68	228.18
357.06	228.25
357.44	228.27
357.82	228.31
358.20	228.42
358.58	228.48
358.97	228.56
359.35	228.64
359.73	228.73
360.11	228.78
360.49	228.82
360.87	228.87
361.25	228.93
361.63	229.02
362.01	229.06
362.39	229.09
362.77	229.14
363.15	229.12
363.53	229.20
363.91	229.23
364.29	229.23
364.67	229.15
365.05	229.17
365.43	229.22
365.81	229.26
366.19	229.29
366.57	229.31
366.95	229.28
367.33	229.29
367.71	229.25
368.09	229.26
368.47	229.24
368.85	229.22
369.23	229.20
369.61	229.13
369.99	229.14
370.37	229.10
370.75	229.11
371.13	229.07
371.51	228.99
371.89	228.94
372.27	228.94
372.65	228.95
373.03	228.88
373.41	228.81
373.78	228.76
374.16	228.66
374.54	228.58
374.92	228.52
375.30	228.44
375.68	228.38
376.06	228.32
376.44	228.26
376.82	228.19
377.19	228.14
377.57	228.08
377.95	227.98
378.33	227.91
378.71	227.82
379.09	227.79
379.47	227.76
379.84	227.72
380.22	227.63
380.60	227.52
380.98	227.44
381.36	227.37
381.73	227.28
382.11	227.24
382.49	227.22
382.87	227.14
383.25	227.06
383.62	227.11
384.00	227.04
384.38	227.00
384.76	226.96
385.13	226.96
385.51	226.92
385.89	226.87
386.27	226.83
386.64	226.79
387.02	226.68
387.40	226.62
387.78	226.55
388.15	226.54
388.53	226.53
388.91	226.52
389.29	226.48
389.66	226.47
390.04	226.42
390.42	226.37
390.79	226.38
391.17	226.36
391.55	226.22
391.92	226.20
392.30	226.18
392.68	226.17
393.05	226.12
393.43	226.12
393.81	226.09
394.18	226.07
394.56	226.04
394.94	226.09
395.31	226.13
395.69	226.19
396.06	226.20
396.44	226.21
396.82	226.21
397.19	226.28
397.57	226.34
397.95	226.40
398.32	226.43
398.70	226.48
399.07	226.57
399.45	226.62
399.82	226.67
400.20	226.76
400.58	226.82
400.95	226.85
401.33	226.96
401.70	227.14
402.08	227.24
402.45	227.36
402.83	227.47
403.20	227.57
403.58	227.64
403.95	227.77
404.33	227.88
404.71	228.01
405.08	228.19
405.46	228.28
405.83	228.43
406.21	228.55
406.58	228.73
406.96	228.91
407.33	229.09
407.70	229.30
408.08	229.53
408.45	229.74
408.83	229.98
409.20	230.13
409.58	230.30
409.95	230.55
410.33	230.82
410.70	231.08
411.08	231.39
411.45	231.70
411.82	232.02
412.20	232.41
412.57	232.86
412.95	233.16
413.32	233.57
413.69	233.96
414.07	234.42
414.44	234.86
414.82	235.32
415.19	235.88
415.56	236.46
415.94	237.03
416.31	237.67
416.68	238.31
417.06	239.08
417.43	239.78
417.81	240.56
418.18	241.32
418.55	242.19
418.93	243.05
419.30	243.95
419.67	244.88
420.04	245.83
420.42	246.81
420.79	248.01
421.16	249.20
421.54	250.40
421.91	251.64
422.28	252.88
422.66	254.21
423.03	255.57
423.40	256.87
423.77	258.31
424.15	259.73
424.52	261.27
424.89	262.89
425.26	264.44
425.64	265.88
426.01	267.51
426.38	269.12
426.75	270.82
427.13	272.55
427.50	274.38
427.87	276.26
428.24	278.16
428.61	279.94
428.99	281.87
429.36	283.97
429.73	286.06
430.10	288.10
430.47	290.15
430.85	292.22
431.22	294.48
431.59	296.79
431.96	299.06
432.33	301.51
432.70	303.86
433.08	306.66
433.45	309.32
433.82	311.90
434.19	314.79
434.56	317.57
434.93	320.24
435.30	322.83
435.68	325.69
436.05	328.51
436.42	331.26
436.79	333.77
437.16	336.48
437.53	339.26
437.90	342.05
438.27	344.78
438.64	347.59
439.01	350.16
439.38	352.43
439.75	354.58
440.13	357.05
440.50	359.38
440.87	361.22
441.24	363.14
441.61	365.29
441.98	366.79
442.35	368.58
442.72	370.39
443.09	372.16
443.46	373.13
443.83	373.63
444.20	374.11
444.57	374.92
444.94	375.17
445.31	375.53
445.68	375.86
446.05	375.95
446.42	375.59
446.79	375.15
447.16	374.68
447.53	374.37
447.90	373.20
448.27	372.02
448.64	370.48
449.01	369.36
449.37	367.36
449.74	365.44
450.11	363.22
450.48	360.78
450.85	358.28
451.22	356.16
451.59	354.22
451.96	352.25
452.33	349.69
452.70	347.36
453.07	344.54
453.43	341.67
453.80	338.92
454.17	336.27
454.54	333.68
454.91	330.96
455.28	328.27
455.65	325.80
456.02	323.38
456.38	321.20
456.75	318.51
457.12	316.28
457.49	314.07
457.86	311.86
458.23	309.99
458.59	307.96
458.96	305.86
459.33	304.00
459.70	302.19
460.07	300.67
460.43	298.97
460.80	297.37
461.17	295.92
461.54	294.41
461.91	292.94
462.27	291.59
462.64	290.37
463.01	289.03
463.38	287.74
463.74	286.40
464.11	285.25
464.48	284.28
464.85	283.23
465.21	282.38
465.58	281.49
465.95	280.40
466.32	279.49
466.68	278.57
467.05	277.70
467.42	276.82
467.78	275.86
468.15	274.96
468.52	274.29
468.88	273.46
469.25	272.72
469.62	272.11
469.98	271.38
470.35	270.76
470.72	270.17
471.08	269.55
471.45	268.99
471.82	268.46
472.18	267.84
472.55	267.39
472.92	266.85
473.28	266.42
473.65	265.96
474.02	265.54
474.38	265.20
474.75	264.86
475.11	264.49
475.48	264.25
475.85	264.02
476.21	263.79
476.58	263.60
476.94	263.44
477.31	263.29
477.67	263.18
478.04	263.04
478.41	262.96
478.77	262.98
479.14	262.92
479.50	262.87
479.87	262.95
480.23	263.03
480.60	263.12
480.96	263.18
481.33	263.44
481.69	263.63
482.06	263.83
482.42	264.02
482.79	264.28
483.15	264.63
483.52	265.01
483.88	265.34
484.25	265.72
484.61	266.14
484.98	266.57
485.34	267.13
485.71	267.73
486.07	268.34
486.44	268.87
486.80	269.53
487.17	270.27
487.53	271.06
487.90	271.88
488.26	272.79
488.62	273.76
488.99	274.72
489.35	275.75
489.72	276.89
490.08	278.08
490.44	279.32
490.81	280.62
491.17	281.99
491.54	283.46
491.90	284.97
492.26	286.60
492.63	288.36
492.99	290.13
493.36	292.01
493.72	294.03
494.08	296.11
494.45	298.36
494.81	300.73
495.17	303.18
495.54	305.77
495.90	308.45
496.26	311.26
496.63	314.21
496.99	317.30
497.35	320.56
497.72	323.98
498.08	327.48
498.44	331.14
498.80	335.05
499.17	339.12
499.53	343.31
499.89	347.72
500.26	352.23
500.62	356.90
500.98	361.87
501.34	366.94
501.71	372.32
502.07	377.86
502.43	383.48
502.79	389.26
503.16	395.31
503.52	401.59
503.88	408.05
504.24	414.76
504.60	421.70
504.97	428.82
505.33	436.15
505.69	443.88
506.05	451.68
506.41	459.54
506.78	467.73
507.14	476.20
507.50	484.89
507.86	493.91
508.22	503.10
508.59	512.32
508.95	521.94
509.31	531.78
509.67	541.86
510.03	552.20
510.39	562.79
510.75	573.58
511.12	584.53
511.48	595.75
511.84	607.13
512.20	618.63
512.56	630.62
512.92	642.83
513.28	655.19
513.64	667.69
514.00	680.31
514.37	693.25
514.73	706.35
515.09	719.41
515.45	732.67
515.81	746.24
516.17	760.23
516.53	774.40
516.89	788.52
517.25	802.72
517.61	817.13
517.97	831.71
518.33	846.11
518.69	860.95
519.05	875.90
519.41	891.09
519.77	906.64
520.13	922.11
520.49	937.54
520.85	952.84
521.21	968.49
521.57	984.83
521.93	1000.65
522.29	1016.94
522.65	1033.17
523.01	1049.39
523.37	1065.49
523.73	1081.63
524.09	1097.65
524.45	1113.85
524.81	1130.42
525.17	1147.18
525.53	1163.97
525.89	1180.85
526.25	1197.56
526.61	1214.02
526.97	1230.71
527.33	1247.19
527.68	1263.77
528.04	1280.17
528.40	1296.81
528.76	1313.88
529.12	1330.50
529.48	1347.25
529.84	1363.34
530.20	1379.95
530.56	1396.97
530.91	1414.39
531.27	1431.07
531.63	1447.52
531.99	1464.10
532.35	1479.94
532.71	1495.65
533.07	1511.85
533.42	1527.73
533.78	1543.82
534.14	1559.95
534.50	1575.17
534.86	1591.03
535.21	1606.14
535.57	1622.03
535.93	1637.57
536.29	1652.33
536.65	1667.30
537.00	1682.09
537.36	1697.27
537.72	1711.81
538.08	1726.20
538.44	1739.96
538.79	1753.80
539.15	1767.42
539.51	1781.28
539.87	1795.73
540.22	1809.67
540.58	1823.47
540.94	1836.78
541.29	1849.59
541.65	1862.35
542.01	1875.66
542.37	1888.05
542.72	1900.50
543.08	1912.22
543.44	1924.59
543.79	1935.77
544.15	1946.75
544.51	1958.36
544.87	1969.22
545.22	1980.06
545.58	1990.24
545.94	1999.95
546.29	2009.83
546.65	2019.73
547.01	2028.89
547.36	2037.53
547.72	2045.81
548.07	2053.51
548.43	2061.67
548.79	2069.75
549.14	2077.20
549.50	2084.53
549.86	2092.11
550.21	2099.39
550.57	2106.53
550.92	2113.19
551.28	2120.27
551.64	2127.34
551.99	2133.80
552.35	2140.03
552.70	2146.08
553.06	2151.99
553.41	2158.18
553.77	2164.35
554.13	2170.43
554.48	2176.61
554.84	2182.14
555.19	2187.65
555.55	2192.85
555.90	2197.21
556.26	2202.05
556.61	2206.86
556.97	2211.09
557.32	2215.12
557.68	2219.20
558.03	2223.62
558.39	2227.22
558.74	2231.73
559.10	2235.52
559.45	2239.11
559.81	2243.47
560.16	2247.41
560.52	2250.65
560.87	2254.05
561.23	2256.53
561.58	2259.46
561.94	2261.79
562.29	2264.14
562.64	2266.60
563.00	2269.14
563.35	2272.80
563.71	2275.97
564.06	2279.22
564.42	2282.01
564.77	2284.50
565.12	2286.83
565.48	2288.57
565.83	2290.36
566.19	2291.75
566.54	2292.76
566.89	2293.96
567.25	2294.49
567.60	2295.69
567.96	2297.35
568.31	2298.37
568.66	2299.52
569.02	2300.06
569.37	2300.36
569.72	2301.23
570.08	2301.40
570.43	2301.57
570.78	2301.01
571.14	2299.30
571.49	2298.04
571.84	2297.81
572.20	2296.60
572.55	2295.46
572.90	2293.94
573.26	2292.68
573.61	2291.07
573.96	2289.34
574.31	2286.33
574.67	2283.46
575.02	2279.82
575.37	2276.54
575.72	2272.72
576.08	2269.46
576.43	2266.11
576.78	2262.60
577.13	2259.54
577.49	2256.44
577.84	2252.79
578.19	2248.95
578.54	2245.49
578.90	2241.13
579.25	2235.50
579.60	2230.51
579.95	2225.55
580.30	2220.58
580.66	2215.36
581.01	2210.37
581.36	2205.48
581.71	2201.36
582.06	2196.82
582.42	2192.33
582.77	2187.00
583.12	2182.38
583.47	2177.58
583.82	2172.69
584.17	2167.38
584.53	2161.66
584.88	2156.08
585.23	2150.37
585.58	2144.97
585.93	2139.59
586.28	2134.87
586.63	2129.86
586.98	2124.98
587.34	2120.33
587.69	2115.38
588.04	2109.99
588.39	2104.32
588.74	2097.84
589.09	2091.50
589.44	2084.59
589.79	2078.69
590.14	2073.24
590.49	2066.64
590.84	2060.23
591.19	2054.04
591.54	2047.59
591.89	2040.23
592.25	2033.39
592.60	2026.26
592.95	2018.68
593.30	2011.22
593.65	2003.69
594.00	1996.67
594.35	1989.31
594.70	1981.36
595.05	1974.09
595.40	1966.92
595.75	1959.48
596.10	1953.22
596.45	1946.52
596.80	1940.47
597.15	1933.81
597.50	1926.58
597.85	1920.28
598.19	1913.71
598.54	1906.62
598.89	1900.00
599.24	1894.18
599.59	1887.50
599.94	1881.23
600.29	1874.73
600.64	1868.12
600.99	1860.56
601.34	1853.82
601.69	1847.00
602.04	1839.96
602.39	1832.64
602.74	1825.73
603.08	1818.94
603.43	1812.14
603.78	1804.98
604.13	1797.78
604.48	1790.39
604.83	1783.44
605.18	1776.35
605.53	1768.26
605.87	1760.31
606.22	1753.24
606.57	1745.23
606.92	1737.93
607.27	1730.75
607.62	1723.87
607.96	1716.59
608.31	1710.04
608.66	1702.41
609.01	1694.92
609.36	1687.28
609.70	1679.27
610.05	1671.26
610.40	1663.52
610.75	1655.24
611.10	1647.51
611.44	1639.10
611.79	1631.26
612.14	1622.68
612.49	1613.55
612.83	1605.18
613.18	1597.11
613.53	1588.95
613.88	1580.38
614.22	1572.05
614.57	1563.53
614.92	1555.50
615.27	1547.86
615.61	1539.41
615.96	1531.40
616.31	1523.54
616.65	1516.27
617.00	1508.83
617.35	1501.22
617.70	1492.77
618.04	1484.28
618.39	1476.04
618.74	1468.44
619.08	1459.98
619.43	1452.42
619.78	1445.48
620.12	1438.31
620.47	1430.67
620.82	1422.43
621.16	1415.17
621.51	1407.69
621.85	1400.10
622.20	1391.71
622.55	1383.47
622.89	1375.74
623.24	1368.05
623.59	1360.75
623.93	1353.19
624.28	1345.99
624.62	1338.41
624.97	1331.37
625.32	1324.66
625.66	1317.66
626.01	1310.45
626.35	1303.04
626.70	1295.30
627.04	1287.56
627.39	1279.86
627.73	1272.54
628.08	1265.69
628.43	1258.24
628.77	1250.78
629.12	1243.16
629.46	1236.00
629.81	1228.64
630.15	1221.38
630.50	1213.98
630.84	1205.75
631.19	1197.89
631.53	1190.35
631.88	1182.82
632.22	1175.24
632.57	1167.91
632.91	1160.41
633.26	1152.97
633.60	1145.61
633.95	1138.61
634.29	1131.63
634.64	1124.93
634.98	1117.46
635.32	1110.26
635.67	1103.78
636.01	1097.18
636.36	1090.38
636.70	1083.77
637.05	1077.18
637.39	1070.74
637.73	1064.25
638.08	1058.48
638.42	1052.46
638.77	1045.99
639.11	1039.36
639.45	1032.97
639.80	1026.17
640.14	1019.65
640.49	1013.12
640.83	1006.86
641.17	1000.51
641.52	994.10
641.86	987.64
642.20	981.85
642.55	975.55
642.89	968.96
643.23	962.45
643.58	956.72
643.92	950.53
644.26	944.42
644.61	938.38
644.95	932.27
645.29	925.57
645.64	918.83
645.98	912.48
646.32	906.70
646.66	900.66
647.01	894.95
647.35	889.36
647.69	883.59
648.04	878.04
648.38	872.23
648.72	866.23
649.06	860.17
649.41	854.29
649.75	848.29
650.09	842.39
650.43	836.57
650.78	830.29
651.12	824.37
651.46	818.65
651.80	812.83
652.14	807.47
652.49	802.20
652.83	797.01
653.17	791.26
653.51	785.51
653.85	780.20
654.20	774.52
654.54	768.39
654.88	762.59
655.22	756.67
655.56	750.96
655.90	745.55
656.25	740.31
656.59	734.90
656.93	729.88
657.27	724.73
657.61	719.35
657.95	714.32
658.29	709.24
658.64	704.00
658.98	698.68
659.32	693.26
659.66	688.03
660.00	682.64
660.34	677.79
660.68	672.85
661.02	667.69
661.36	662.98
661.70	658.58
662.05	654.18
662.39	649.82
662.73	645.43
663.07	641.09
663.41	636.66
663.75	632.20
664.09	627.66
664.43	623.27
664.77	619.09
665.11	614.83
665.45	610.69
665.79	606.56
666.13	602.46
666.47	598.36
666.81	594.14
667.15	590.10
667.49	586.14
667.83	582.32
668.17	578.43
668.51	574.37
668.85	570.35
669.19	566.57
669.53	562.76
669.87	558.87
670.21	555.20
670.55	551.49
670.89	548.06
671.23	544.63
671.57	541.13
671.91	537.62
672.25	534.10
672.58	530.53
672.92	527.23
673.26	524.07
673.60	520.90
673.94	517.83
674.28	514.97
674.62	512.06
674.96	508.94
675.30	506.03
675.64	503.06
675.97	500.30
676.31	497.43
676.65	494.53
676.99	491.84
677.33	488.92
677.67	486.17
678.01	483.20
678.34	480.19
678.68	477.31
679.02	474.47
679.36	471.71
679.70	469.09
680.04	466.22
680.37	463.35
680.71	460.53
681.05	457.88
681.39	455.11
681.73	452.44
682.06	449.98
682.40	447.40
682.74	444.96
683.08	442.36
683.42	439.78
683.75	437.28
684.09	434.65
684.43	432.18
684.77	429.69
685.10	427.31
685.44	424.94
685.78	422.70
686.12	420.48
686.45	418.19
686.79	415.84
687.13	413.68
687.46	411.54
687.80	409.40
688.14	407.17
688.48	405.13
688.81	402.88
689.15	400.71
689.49	398.62
689.82	396.52
690.16	394.44
690.50	392.45
690.83	390.52
691.17	388.57
691.51	386.71
691.84	384.89
692.18	382.98
692.52	381.03
692.85	379.09
693.19	377.22
693.52	375.43
693.86	373.64
694.20	371.85
694.53	370.02
694.87	368.13
695.21	366.35
695.54	364.53
695.88	362.79
696.21	361.05
696.55	359.32
696.88	357.62
697.22	355.96
697.56	354.35
697.89	352.66
698.23	351.05
698.56	349.41
698.90	347.77
699.23	346.11
699.57	344.56
699.90	343.01
700.24	341.41
700.58	339.89
700.91	338.36
701.25	336.90
701.58	335.55
701.92	334.22
702.25	332.86
702.59	331.49
702.92	330.20
703.26	328.91
703.59	327.64
703.93	326.45
704.26	325.19
704.60	323.89
704.93	322.64
705.26	321.40
705.60	320.23
705.93	319.09
706.27	318.06
706.60	317.03
706.94	315.89
707.27	314.80
707.61	313.70
707.94	312.68
708.27	311.61
708.61	310.53
708.94	309.57
709.28	308.61
709.61	307.68
709.94	306.75
710.28	305.72
710.61	304.76
710.95	303.70
711.28	302.86
711.61	301.95
711.95	301.04
712.28	300.12
712.61	299.16
712.95	298.25
713.28	297.34
713.61	296.40
713.95	295.55
714.28	294.70
714.61	293.87
714.95	293.07
715.28	292.22
715.61	291.38
715.95	290.53
716.28	289.66
716.61	288.81
716.95	287.95
717.28	287.21
717.61	286.38
717.94	285.63
718.28	284.76
718.61	284.03
718.94	283.36
719.27	282.71
719.61	282.05
719.94	281.38
720.27	280.66
720.60	280.05
720.94	279.41
721.27	278.81
721.60	278.23
721.93	277.62
722.27	277.06
722.60	276.50
722.93	275.87
723.26	275.33
723.59	274.75
723.93	274.22
724.26	273.68
724.59	273.16
724.92	272.65
725.25	272.15
725.59	271.59
725.92	271.05
726.25	270.49
726.58	270.00
726.91	269.49
727.24	269.07
727.57	268.59
727.91	268.11
728.24	267.61
728.57	267.15
728.90	266.65
729.23	266.16
729.56	265.78
729.89	265.31
730.22	264.85
730.55	264.37
730.89	263.93
731.22	263.48
731.55	263.03
731.88	262.62
732.21	262.18
732.54	261.75
732.87	261.34
733.20	260.99
733.53	260.59
733.86	260.24
734.19	259.83
734.52	259.43
734.85	259.09
735.18	258.68
735.51	258.29
735.84	257.93
736.17	257.59
736.50	257.12
736.83	256.91
737.16	256.54
737.49	256.22
737.82	255.83
738.15	255.50
738.48	255.17
738.81	254.84
739.14	254.51
739.47	254.21
739.80	253.89
740.13	253.57
740.46	253.20
740.79	252.82
741.12	252.50
741.45	252.20
741.78	251.83
742.11	251.58
742.44	251.27
742.77	250.98
743.10	250.67
743.43	250.36
743.75	249.96
744.08	249.81
744.41	249.58
744.74	249.35
745.07	249.08
745.40	248.82
745.73	248.57
746.06	248.30
746.39	248.04
746.71	247.76
747.04	247.48
747.37	247.26
747.70	247.03
748.03	246.79
748.36	246.59
748.68	246.37
749.01	246.13
749.34	245.88
749.67	245.68
750.00	245.46
750.33	245.35
750.65	245.16
750.98	244.80
751.31	244.57
751.64	244.34
751.97	244.16
752.29	243.97
752.62	243.74
752.95	243.51
753.28	243.31
753.60	243.08
753.93	242.92
754.26	242.71
754.59	242.49
754.91	242.26
755.24	242.04
755.57	241.82
755.90	241.64
756.22	241.49
756.55	241.25
756.88	241.03
757.20	240.77
757.53	240.56
757.86	240.44
758.19	240.29
758.51	240.08
758.84	239.91
759.17	239.70
759.49	239.52
759.82	239.44
760.15	239.29
760.47	239.21
760.80	239.05
761.13	238.95
761.45	238.82
761.78	238.69
762.11	238.56
762.43	238.46
762.76	238.27
763.08	238.11
763.41	237.99
763.74	237.89
764.06	237.80
764.39	237.66
764.71	237.49
765.04	237.37
765.37	237.29
765.69	237.15
766.02	237.06
766.34	236.95
766.67	236.83
767.00	236.74
767.32	236.63
767.65	236.56
767.97	236.43
768.30	236.32
768.62	236.23
768.95	236.09
769.27	235.97
769.60	235.91
769.92	235.82
770.25	235.70
770.57	235.60
770.90	235.46
771.22	235.36
771.55	235.25
771.87	235.15
772.20	235.04
772.52	235.02
772.85	235.06
773.17	234.99
773.50	234.91
773.82	234.79
774.15	234.65
774.47	234.50
774.80	234.36
775.12	234.25
775.45	234.17
775.77	234.13
776.09	234.06
776.42	233.98
776.74	233.92
777.07	233.84
777.39	233.76
777.72	233.70
778.04	233.66
778.36	233.59
778.69	233.53
779.01	233.48
779.33	233.35
779.66	233.13
779.98	233.01
780.31	232.89
780.63	232.85
780.95	232.81
781.28	232.74
781.60	232.75
781.92	232.71
782.25	232.59
782.57	232.52
782.89	232.42
783.22	232.35
783.54	232.27
783.86	232.22
784.19	232.14
784.51	232.13
784.83	232.05
785.16	231.98
785.48	231.91
785.80	231.84
786.12	231.78
786.45	231.77
786.77	231.75
787.09	231.73
