SpectraSuite Data File
++++++++++++++++++++++++++++++++++++
Date: Fri Feb 01 16:18:48 EST 2013
User: group
Dark Spectrum Present: No
Reference Spectrum Present: No
Number of Sampled Component Spectra: 1
Spectrometers: USB2E7196
Integration Time (usec): 35000 (USB2E7196)
Spectra Averaged: 100 (USB2E7196)
Boxcar Smoothing: 10 (USB2E7196)
Correct for Electrical Dark: No (USB2E7196)
Strobe/Lamp Enabled: No (USB2E7196)
Correct for Detector Non-linearity: No (USB2E7196)
Correct for Stray Light: No (USB2E7196)
Number of Pixels in Processed Spectrum: 2048
>>>>>Begin Processed Spectral Data<<<<<
339.09	0.00
339.48	214.45
339.86	215.41
340.24	217.06
340.63	217.73
341.01	220.99
341.39	221.26
341.78	222.43
342.16	223.43
342.54	223.80
342.93	212.39
343.31	223.11
343.69	223.62
344.07	224.09
344.46	224.50
344.84	224.89
345.22	225.11
345.60	225.32
345.99	225.50
346.37	225.60
346.75	225.70
347.13	225.77
347.52	225.82
347.90	225.91
348.28	225.96
348.66	225.98
349.05	225.98
349.43	226.03
349.81	226.04
350.19	226.08
350.57	226.10
350.96	226.20
351.34	226.31
351.72	226.38
352.10	226.46
352.48	226.51
352.87	226.56
353.25	226.65
353.63	226.72
354.01	226.76
354.39	226.85
354.77	226.94
355.15	227.03
355.54	227.08
355.92	227.11
356.30	227.17
356.68	227.33
357.06	227.38
357.44	227.43
357.82	227.48
358.20	227.55
358.58	227.60
358.97	227.67
359.35	227.73
359.73	227.82
360.11	227.86
360.49	227.92
360.87	227.95
361.25	227.99
361.63	228.06
362.01	228.11
362.39	228.17
362.77	228.19
363.15	228.20
363.53	228.25
363.91	228.30
364.29	228.28
364.67	228.18
365.05	228.23
365.43	228.24
365.81	228.25
366.19	228.28
366.57	228.34
366.95	228.34
367.33	228.31
367.71	228.29
368.09	228.32
368.47	228.29
368.85	228.31
369.23	228.31
369.61	228.29
369.99	228.29
370.37	228.26
370.75	228.31
371.13	228.26
371.51	228.23
371.89	228.15
372.27	228.17
372.65	228.14
373.03	228.07
373.41	228.04
373.78	228.04
374.16	227.95
374.54	227.85
374.92	227.77
375.30	227.70
375.68	227.65
376.06	227.57
376.44	227.53
376.82	227.47
377.19	227.41
377.57	227.31
377.95	227.22
378.33	227.15
378.71	227.01
379.09	226.99
379.47	226.94
379.84	226.92
380.22	226.85
380.60	226.80
380.98	226.75
381.36	226.70
381.73	226.61
382.11	226.56
382.49	226.51
382.87	226.47
383.25	226.42
383.62	226.44
384.00	226.43
384.38	226.37
384.76	226.35
385.13	226.34
385.51	226.33
385.89	226.28
386.27	226.24
386.64	226.22
387.02	226.14
387.40	226.09
387.78	226.04
388.15	226.00
388.53	225.95
388.91	225.94
389.29	225.87
389.66	225.82
390.04	225.84
390.42	225.83
390.79	225.79
391.17	225.79
391.55	225.69
391.92	225.64
392.30	225.63
392.68	225.60
393.05	225.58
393.43	225.58
393.81	225.57
394.18	225.56
394.56	225.56
394.94	225.61
395.31	225.63
395.69	225.68
396.06	225.66
396.44	225.74
396.82	225.74
397.19	225.82
397.57	225.87
397.95	225.91
398.32	225.94
398.70	226.00
399.07	226.05
399.45	226.13
399.82	226.20
400.20	226.28
400.58	226.37
400.95	226.39
401.33	226.49
401.70	226.64
402.08	226.72
402.45	226.81
402.83	226.96
403.20	227.03
403.58	227.10
403.95	227.25
404.33	227.34
404.71	227.45
405.08	227.64
405.46	227.76
405.83	227.90
406.21	228.04
406.58	228.20
406.96	228.35
407.33	228.54
407.70	228.74
408.08	228.98
408.45	229.20
408.83	229.47
409.20	229.68
409.58	229.87
409.95	230.15
410.33	230.44
410.70	230.65
411.08	230.96
411.45	231.29
411.82	231.60
412.20	231.94
412.57	232.34
412.95	232.65
413.32	233.08
413.69	233.44
414.07	233.89
414.44	234.39
414.82	234.87
415.19	235.41
415.56	235.95
415.94	236.51
416.31	237.13
416.68	237.74
417.06	238.47
417.43	239.18
417.81	239.97
418.18	240.74
418.55	241.58
418.93	242.44
419.30	243.31
419.67	244.26
420.04	245.25
420.42	246.25
420.79	247.42
421.16	248.54
421.54	249.79
421.91	250.99
422.28	252.21
422.66	253.54
423.03	254.81
423.40	256.17
423.77	257.58
424.15	259.05
424.52	260.54
424.89	262.14
425.26	263.66
425.64	265.07
426.01	266.65
426.38	268.30
426.75	269.98
427.13	271.71
427.50	273.52
427.87	275.37
428.24	277.22
428.61	278.99
428.99	280.94
429.36	283.06
429.73	285.12
430.10	287.15
430.47	289.22
430.85	291.30
431.22	293.54
431.59	295.92
431.96	298.11
432.33	300.60
432.70	302.94
433.08	305.75
433.45	308.40
433.82	311.03
434.19	313.92
434.56	316.73
434.93	319.42
435.30	322.05
435.68	324.91
436.05	327.73
436.42	330.50
436.79	333.01
437.16	335.65
437.53	338.47
437.90	341.28
438.27	343.99
438.64	346.82
439.01	349.39
439.38	351.60
439.75	353.80
440.13	356.25
440.50	358.58
440.87	360.43
441.24	362.32
441.61	364.43
441.98	365.89
442.35	367.71
442.72	369.53
443.09	371.31
443.46	372.26
443.83	372.86
444.20	373.38
444.57	374.20
444.94	374.49
445.31	374.83
445.68	375.17
446.05	375.23
446.42	374.85
446.79	374.41
447.16	373.96
447.53	373.58
447.90	372.44
448.27	371.27
448.64	369.67
449.01	368.58
449.37	366.63
449.74	364.69
450.11	362.44
450.48	359.96
450.85	357.42
451.22	355.35
451.59	353.32
451.96	351.36
452.33	348.77
452.70	346.42
453.07	343.55
453.43	340.68
453.80	337.92
454.17	335.26
454.54	332.72
454.91	330.01
455.28	327.34
455.65	324.84
456.02	322.38
456.38	320.25
456.75	317.58
457.12	315.34
457.49	313.21
457.86	311.02
458.23	309.18
458.59	307.19
458.96	305.05
459.33	303.20
459.70	301.33
460.07	299.81
460.43	298.09
460.80	296.51
461.17	295.06
461.54	293.62
461.91	292.19
462.27	290.74
462.64	289.52
463.01	288.19
463.38	286.90
463.74	285.60
464.11	284.45
464.48	283.43
464.85	282.29
465.21	281.37
465.58	280.47
465.95	279.35
466.32	278.45
466.68	277.59
467.05	276.73
467.42	275.86
467.78	274.95
468.15	274.12
468.52	273.46
468.88	272.62
469.25	271.85
469.62	271.25
469.98	270.60
470.35	269.95
470.72	269.37
471.08	268.73
471.45	268.20
471.82	267.67
472.18	267.08
472.55	266.67
472.92	266.18
473.28	265.74
473.65	265.28
474.02	264.80
474.38	264.39
474.75	264.06
475.11	263.71
475.48	263.48
475.85	263.19
476.21	262.96
476.58	262.76
476.94	262.60
477.31	262.40
477.67	262.26
478.04	262.16
478.41	262.08
478.77	262.14
479.14	262.06
479.50	262.04
479.87	262.08
480.23	262.15
480.60	262.20
480.96	262.24
481.33	262.49
481.69	262.72
482.06	262.94
482.42	263.17
482.79	263.40
483.15	263.69
483.52	264.10
483.88	264.44
484.25	264.81
484.61	265.21
484.98	265.70
485.34	266.27
485.71	266.87
486.07	267.49
486.44	268.02
486.80	268.72
487.17	269.45
487.53	270.30
487.90	271.13
488.26	272.08
488.62	273.08
488.99	274.00
489.35	275.02
489.72	276.12
490.08	277.30
490.44	278.57
490.81	279.89
491.17	281.25
491.54	282.75
491.90	284.30
492.26	285.96
492.63	287.69
492.99	289.44
493.36	291.30
493.72	293.36
494.08	295.47
494.45	297.70
494.81	300.07
495.17	302.48
495.54	305.09
495.90	307.79
496.26	310.62
496.63	313.65
496.99	316.79
497.35	320.08
497.72	323.49
498.08	327.04
498.44	330.75
498.80	334.72
499.17	338.76
499.53	342.98
499.89	347.40
500.26	351.87
500.62	356.57
500.98	361.54
501.34	366.63
501.71	371.99
502.07	377.49
502.43	383.16
502.79	389.03
503.16	395.14
503.52	401.45
503.88	407.88
504.24	414.56
504.60	421.45
504.97	428.57
505.33	435.88
505.69	443.64
506.05	451.44
506.41	459.31
506.78	467.52
507.14	476.02
507.50	484.69
507.86	493.77
508.22	503.02
508.59	512.27
508.95	521.82
509.31	531.72
509.67	541.80
510.03	552.12
510.39	562.73
510.75	573.52
511.12	584.48
511.48	595.84
511.84	607.30
512.20	618.83
512.56	630.75
512.92	642.98
513.28	655.32
513.64	667.83
514.00	680.53
514.37	693.45
514.73	706.47
515.09	719.53
515.45	732.80
515.81	746.33
516.17	760.34
516.53	774.52
516.89	788.65
517.25	802.75
517.61	817.17
517.97	831.56
518.33	845.91
518.69	860.68
519.05	875.64
519.41	890.74
519.77	906.28
520.13	921.82
520.49	937.19
520.85	952.58
521.21	968.21
521.57	984.44
521.93	1000.11
522.29	1016.47
522.65	1032.75
523.01	1048.95
523.37	1065.02
523.73	1081.12
524.09	1097.08
524.45	1113.27
524.81	1129.94
525.17	1146.66
525.53	1163.52
525.89	1180.39
526.25	1197.22
526.61	1213.45
526.97	1230.14
527.33	1246.52
527.68	1262.95
528.04	1279.36
528.40	1295.82
528.76	1312.91
529.12	1329.44
529.48	1346.33
529.84	1362.24
530.20	1378.78
530.56	1395.73
530.91	1412.99
531.27	1429.62
531.63	1446.05
531.99	1462.55
532.35	1478.43
532.71	1494.30
533.07	1510.51
533.42	1526.33
533.78	1542.17
534.14	1558.44
534.50	1573.78
534.86	1589.63
535.21	1604.79
535.57	1620.71
535.93	1636.18
536.29	1650.84
536.65	1665.79
537.00	1680.44
537.36	1695.68
537.72	1710.27
538.08	1724.59
538.44	1738.33
538.79	1752.28
539.15	1765.91
539.51	1779.56
539.87	1793.82
540.22	1807.42
540.58	1821.18
540.94	1834.46
541.29	1847.36
541.65	1860.02
542.01	1873.05
542.37	1885.24
542.72	1897.60
543.08	1909.32
543.44	1921.66
543.79	1932.81
544.15	1943.88
544.51	1955.43
544.87	1966.37
545.22	1976.92
545.58	1987.25
545.94	1997.01
546.29	2006.72
546.65	2016.65
547.01	2025.94
547.36	2034.67
547.72	2043.11
548.07	2050.90
548.43	2059.09
548.79	2067.15
549.14	2074.59
549.50	2081.99
549.86	2089.67
550.21	2096.99
550.57	2104.10
550.92	2110.71
551.28	2117.81
551.64	2124.82
551.99	2131.33
552.35	2137.57
552.70	2143.68
553.06	2149.47
553.41	2155.77
553.77	2161.91
554.13	2167.80
554.48	2173.99
554.84	2179.44
555.19	2184.78
555.55	2189.89
555.90	2194.30
556.26	2199.13
556.61	2203.93
556.97	2208.18
557.32	2212.42
557.68	2216.63
558.03	2220.96
558.39	2224.66
558.74	2229.32
559.10	2233.25
559.45	2237.03
559.81	2241.19
560.16	2245.19
560.52	2248.50
560.87	2251.93
561.23	2254.63
561.58	2257.66
561.94	2260.12
562.29	2262.51
562.64	2265.14
563.00	2267.78
563.35	2271.29
563.71	2274.42
564.06	2277.72
564.42	2280.63
564.77	2283.15
565.12	2285.50
565.48	2287.39
565.83	2289.18
566.19	2290.43
566.54	2291.19
566.89	2292.25
567.25	2292.92
567.60	2294.16
567.96	2295.89
568.31	2296.77
568.66	2297.89
569.02	2298.53
569.37	2298.93
569.72	2299.86
570.08	2299.97
570.43	2300.06
570.78	2299.54
571.14	2297.91
571.49	2296.58
571.84	2296.38
572.20	2295.27
572.55	2294.17
572.90	2292.63
573.26	2291.40
573.61	2289.81
573.96	2288.22
574.31	2285.35
574.67	2282.47
575.02	2278.88
575.37	2275.56
575.72	2271.82
576.08	2268.54
576.43	2265.26
576.78	2261.72
577.13	2258.49
577.49	2255.47
577.84	2251.91
578.19	2248.24
578.54	2244.65
578.90	2240.35
579.25	2234.75
579.60	2229.74
579.95	2224.72
580.30	2219.76
580.66	2214.60
581.01	2209.63
581.36	2204.64
581.71	2200.55
582.06	2196.12
582.42	2191.71
582.77	2186.46
583.12	2181.97
583.47	2177.25
583.82	2172.19
584.17	2166.92
584.53	2161.46
584.88	2155.92
585.23	2150.26
585.58	2144.77
585.93	2139.46
586.28	2134.78
586.63	2129.74
586.98	2124.80
587.34	2120.14
587.69	2115.34
588.04	2110.14
588.39	2104.56
588.74	2098.25
589.09	2092.12
589.44	2085.25
589.79	2079.25
590.14	2073.73
590.49	2067.22
590.84	2060.80
591.19	2054.88
591.54	2048.47
591.89	2041.08
592.25	2034.28
592.60	2027.07
592.95	2019.57
593.30	2012.29
593.65	2004.57
594.00	1997.67
594.35	1990.41
594.70	1982.35
595.05	1975.17
595.40	1967.81
595.75	1960.37
596.10	1954.18
596.45	1947.48
596.80	1941.43
597.15	1934.93
597.50	1927.86
597.85	1921.43
598.19	1914.76
598.54	1907.64
598.89	1900.98
599.24	1895.30
599.59	1888.62
599.94	1882.48
600.29	1876.22
600.64	1869.62
600.99	1862.44
601.34	1855.63
601.69	1848.71
602.04	1841.87
602.39	1834.51
602.74	1827.77
603.08	1820.96
603.43	1814.26
603.78	1806.83
604.13	1799.59
604.48	1792.30
604.83	1785.39
605.18	1778.44
605.53	1770.49
605.87	1762.54
606.22	1755.25
606.57	1747.31
606.92	1740.05
607.27	1732.90
607.62	1725.92
607.96	1718.68
608.31	1711.88
608.66	1704.23
609.01	1696.71
609.36	1689.20
609.70	1681.27
610.05	1673.16
610.40	1665.42
610.75	1657.04
611.10	1649.49
611.44	1641.12
611.79	1633.11
612.14	1624.49
612.49	1615.34
612.83	1606.86
613.18	1598.72
613.53	1590.67
613.88	1582.02
614.22	1573.80
614.57	1565.19
614.92	1557.17
615.27	1549.59
615.61	1541.42
615.96	1533.36
616.31	1525.80
616.65	1518.42
617.00	1510.72
617.35	1503.21
617.70	1494.95
618.04	1486.53
618.39	1478.21
618.74	1470.55
619.08	1462.25
619.43	1454.58
619.78	1447.74
620.12	1440.62
620.47	1433.17
620.82	1424.97
621.16	1417.58
621.51	1409.91
621.85	1402.32
622.20	1393.78
622.55	1385.42
622.89	1377.39
623.24	1369.74
623.59	1362.28
623.93	1354.77
624.28	1347.56
624.62	1339.95
624.97	1332.74
625.32	1325.90
625.66	1318.93
626.01	1311.85
626.35	1304.41
626.70	1296.68
627.04	1288.90
627.39	1281.17
627.73	1273.73
628.08	1266.95
628.43	1259.65
628.77	1252.26
629.12	1244.63
629.46	1237.47
629.81	1229.95
630.15	1222.85
630.50	1215.53
630.84	1207.26
631.19	1199.28
631.53	1191.78
631.88	1184.07
632.22	1176.47
632.57	1169.15
632.91	1161.57
633.26	1154.03
633.60	1146.60
633.95	1139.52
634.29	1132.35
634.64	1125.68
634.98	1118.35
635.32	1111.01
635.67	1104.40
636.01	1097.69
636.36	1090.87
636.70	1084.36
637.05	1077.90
637.39	1071.33
637.73	1064.68
638.08	1058.87
638.42	1052.85
638.77	1046.43
639.11	1039.88
639.45	1033.51
639.80	1026.80
640.14	1020.29
640.49	1013.71
640.83	1007.41
641.17	1001.05
641.52	994.68
641.86	988.08
642.20	982.18
642.55	975.89
642.89	969.41
643.23	962.91
643.58	957.17
643.92	950.96
644.26	944.85
644.61	938.83
644.95	932.84
645.29	926.16
645.64	919.42
645.98	912.99
646.32	907.19
646.66	901.04
647.01	895.22
647.35	889.54
647.69	883.78
648.04	878.21
648.38	872.50
648.72	866.56
649.06	860.60
649.41	854.67
649.75	848.69
650.09	842.75
650.43	836.98
650.78	830.75
651.12	824.72
651.46	818.96
651.80	813.16
652.14	807.74
652.49	802.39
652.83	797.22
653.17	791.52
653.51	785.74
653.85	780.45
654.20	774.86
654.54	768.84
654.88	763.06
655.22	757.16
655.56	751.49
655.90	746.08
656.25	740.79
656.59	735.47
656.93	730.43
657.27	725.29
657.61	719.85
657.95	714.78
658.29	709.78
658.64	704.55
658.98	699.32
659.32	693.78
659.66	688.59
660.00	683.23
660.34	678.31
660.68	673.38
661.02	668.26
661.36	663.49
661.70	659.04
662.05	654.77
662.39	650.40
662.73	645.90
663.07	641.45
663.41	636.98
663.75	632.46
664.09	627.90
664.43	623.49
664.77	619.38
665.11	615.09
665.45	610.92
665.79	606.80
666.13	602.64
666.47	598.64
666.81	594.46
667.15	590.39
667.49	586.47
667.83	582.69
668.17	578.77
668.51	574.66
668.85	570.61
669.19	566.68
669.53	562.85
669.87	558.89
670.21	555.23
670.55	551.56
670.89	548.13
671.23	544.66
671.57	541.08
671.91	537.48
672.25	533.95
672.58	530.39
672.92	526.98
673.26	523.80
673.60	520.59
673.94	517.44
674.28	514.58
674.62	511.62
674.96	508.52
675.30	505.64
675.64	502.72
675.97	499.89
676.31	497.00
676.65	494.12
676.99	491.47
677.33	488.59
677.67	485.80
678.01	482.71
678.34	479.76
678.68	476.90
679.02	474.11
679.36	471.39
679.70	468.71
680.04	465.96
680.37	463.11
680.71	460.30
681.05	457.64
681.39	454.84
681.73	452.20
682.06	449.63
682.40	447.05
682.74	444.54
683.08	442.00
683.42	439.38
683.75	436.86
684.09	434.29
684.43	431.78
684.77	429.26
685.10	426.93
685.44	424.63
685.78	422.35
686.12	420.07
686.45	417.71
686.79	415.37
687.13	413.17
687.46	411.02
687.80	408.91
688.14	406.76
688.48	404.70
688.81	402.44
689.15	400.31
689.49	398.20
689.82	396.06
690.16	393.95
690.50	392.05
690.83	390.10
691.17	388.12
691.51	386.19
691.84	384.41
692.18	382.50
692.52	380.49
692.85	378.57
693.19	376.72
693.52	374.93
693.86	373.14
694.20	371.34
694.53	369.49
694.87	367.62
695.21	365.79
695.54	363.98
695.88	362.29
696.21	360.54
696.55	358.84
696.88	357.23
697.22	355.58
697.56	353.93
697.89	352.26
698.23	350.63
698.56	349.02
698.90	347.42
699.23	345.80
699.57	344.25
699.90	342.69
700.24	341.11
700.58	339.59
700.91	338.09
701.25	336.62
701.58	335.27
701.92	333.89
702.25	332.54
702.59	331.21
702.92	329.87
703.26	328.57
703.59	327.28
703.93	326.06
704.26	324.85
704.60	323.55
704.93	322.26
705.26	321.02
705.60	319.87
705.93	318.70
706.27	317.65
706.60	316.57
706.94	315.45
707.27	314.34
707.61	313.27
707.94	312.22
708.27	311.11
708.61	310.05
708.94	309.05
709.28	308.06
709.61	307.06
709.94	306.10
710.28	305.05
710.61	304.04
710.95	302.95
711.28	302.02
711.61	301.07
711.95	300.23
712.28	299.27
712.61	298.24
712.95	297.30
713.28	296.39
713.61	295.51
713.95	294.65
714.28	293.78
714.61	292.94
714.95	292.06
715.28	291.22
715.61	290.30
715.95	289.39
716.28	288.54
716.61	287.71
716.95	286.86
717.28	286.13
717.61	285.36
717.94	284.63
718.28	283.81
718.61	283.08
718.94	282.34
719.27	281.72
719.61	281.12
719.94	280.44
720.27	279.75
720.60	279.07
720.94	278.41
721.27	277.85
721.60	277.25
721.93	276.69
722.27	276.15
722.60	275.59
722.93	275.06
723.26	274.51
723.59	273.94
723.93	273.43
724.26	272.86
724.59	272.32
724.92	271.78
725.25	271.28
725.59	270.75
725.92	270.21
726.25	269.66
726.58	269.11
726.91	268.63
727.24	268.13
727.57	267.67
727.91	267.19
728.24	266.70
728.57	266.22
728.90	265.73
729.23	265.24
729.56	264.84
729.89	264.38
730.22	263.91
730.55	263.42
730.89	262.99
731.22	262.53
731.55	262.12
731.88	261.72
732.21	261.27
732.54	260.87
732.87	260.47
733.20	260.08
733.53	259.74
733.86	259.37
734.19	258.98
734.52	258.59
734.85	258.28
735.18	257.85
735.51	257.45
735.84	257.10
736.17	256.76
736.50	256.37
736.83	256.13
737.16	255.77
737.49	255.45
737.82	255.08
738.15	254.74
738.48	254.38
738.81	254.03
739.14	253.71
739.47	253.40
739.80	253.09
740.13	252.77
740.46	252.41
740.79	252.08
741.12	251.75
741.45	251.42
741.78	251.06
742.11	250.79
742.44	250.48
742.77	250.22
743.10	249.91
743.43	249.61
743.75	249.23
744.08	249.07
744.41	248.81
744.74	248.54
745.07	248.27
745.40	248.05
745.73	247.82
746.06	247.57
746.39	247.31
746.71	247.01
747.04	246.76
747.37	246.53
747.70	246.27
748.03	246.04
748.36	245.87
748.68	245.65
749.01	245.42
749.34	245.23
749.67	244.97
750.00	244.73
750.33	244.56
750.65	244.35
750.98	244.06
751.31	243.84
751.64	243.64
751.97	243.46
752.29	243.26
752.62	243.01
752.95	242.79
753.28	242.58
753.60	242.41
753.93	242.22
754.26	242.00
754.59	241.79
754.91	241.55
755.24	241.32
755.57	241.11
755.90	240.89
756.22	240.68
756.55	240.49
756.88	240.32
757.20	240.10
757.53	239.88
757.86	239.69
758.19	239.53
758.51	239.34
758.84	239.15
759.17	238.92
759.49	238.78
759.82	238.70
760.15	238.54
760.47	238.37
760.80	238.22
761.13	238.11
761.45	237.98
761.78	237.87
762.11	237.73
762.43	237.62
762.76	237.46
763.08	237.34
763.41	237.21
763.74	237.06
764.06	236.92
764.39	236.79
764.71	236.67
765.04	236.52
765.37	236.38
765.69	236.25
766.02	236.14
766.34	236.00
766.67	235.84
767.00	235.73
767.32	235.69
767.65	235.62
767.97	235.49
768.30	235.37
768.62	235.25
768.95	235.12
769.27	234.99
769.60	234.92
769.92	234.79
770.25	234.69
770.57	234.59
770.90	234.47
771.22	234.37
771.55	234.29
771.87	234.22
772.20	234.14
772.52	234.18
772.85	234.24
773.17	234.18
773.50	234.08
773.82	233.95
774.15	233.78
774.47	233.65
774.80	233.53
775.12	233.44
775.45	233.33
775.77	233.28
776.09	233.18
776.42	233.09
776.74	233.05
777.07	232.95
777.39	232.88
777.72	232.82
778.04	232.78
778.36	232.68
778.69	232.58
779.01	232.52
779.33	232.33
779.66	232.14
779.98	232.07
780.31	231.99
780.63	231.97
780.95	231.95
781.28	231.88
781.60	231.80
781.92	231.74
782.25	231.72
782.57	231.65
782.89	231.64
783.22	231.57
783.54	231.51
783.86	231.44
784.19	231.37
784.51	231.33
784.83	231.28
785.16	231.22
785.48	231.17
785.80	231.11
786.12	231.03
786.45	230.97
786.77	230.89
787.09	230.83
