SpectraSuite Data File
++++++++++++++++++++++++++++++++++++
Date: Fri Feb 01 15:02:14 EST 2013
User: group
Dark Spectrum Present: No
Reference Spectrum Present: No
Number of Sampled Component Spectra: 1
Spectrometers: USB2E7196
Integration Time (usec): 35000 (USB2E7196)
Spectra Averaged: 100 (USB2E7196)
Boxcar Smoothing: 10 (USB2E7196)
Correct for Electrical Dark: No (USB2E7196)
Strobe/Lamp Enabled: No (USB2E7196)
Correct for Detector Non-linearity: No (USB2E7196)
Correct for Stray Light: No (USB2E7196)
Number of Pixels in Processed Spectrum: 2048
>>>>>Begin Processed Spectral Data<<<<<
339.09	0.00
339.48	215.05
339.86	216.80
340.24	218.01
340.63	219.85
341.01	222.41
341.39	222.25
341.78	223.22
342.16	225.02
342.54	224.87
342.93	213.43
343.31	224.23
343.69	224.79
344.07	225.26
344.46	225.69
344.84	226.05
345.22	226.24
345.60	226.49
345.99	226.66
346.37	226.76
346.75	226.87
347.13	226.95
347.52	227.01
347.90	227.05
348.28	227.09
348.66	227.15
349.05	227.18
349.43	227.20
349.81	227.24
350.19	227.31
350.57	227.34
350.96	227.42
351.34	227.48
351.72	227.54
352.10	227.60
352.48	227.68
352.87	227.73
353.25	227.82
353.63	227.86
354.01	227.95
354.39	228.02
354.77	228.09
355.15	228.19
355.54	228.25
355.92	228.34
356.30	228.40
356.68	228.56
357.06	228.64
357.44	228.68
357.82	228.71
358.20	228.76
358.58	228.82
358.97	228.85
359.35	228.93
359.73	229.01
360.11	229.07
360.49	229.08
360.87	229.12
361.25	229.19
361.63	229.29
362.01	229.32
362.39	229.31
362.77	229.37
363.15	229.36
363.53	229.36
363.91	229.37
364.29	229.36
364.67	229.26
365.05	229.28
365.43	229.32
365.81	229.36
366.19	229.42
366.57	229.48
366.95	229.47
367.33	229.43
367.71	229.42
368.09	229.44
368.47	229.44
368.85	229.41
369.23	229.38
369.61	229.30
369.99	229.29
370.37	229.31
370.75	229.31
371.13	229.25
371.51	229.20
371.89	229.16
372.27	229.15
372.65	229.11
373.03	229.01
373.41	228.92
373.78	228.84
374.16	228.75
374.54	228.65
374.92	228.58
375.30	228.52
375.68	228.43
376.06	228.35
376.44	228.24
376.82	228.22
377.19	228.16
377.57	228.09
377.95	227.94
378.33	227.83
378.71	227.67
379.09	227.62
379.47	227.57
379.84	227.45
380.22	227.37
380.60	227.23
380.98	227.14
381.36	227.07
381.73	227.01
382.11	226.90
382.49	226.82
382.87	226.75
383.25	226.68
383.62	226.72
384.00	226.65
384.38	226.65
384.76	226.59
385.13	226.53
385.51	226.48
385.89	226.48
386.27	226.47
386.64	226.44
387.02	226.38
387.40	226.33
387.78	226.33
388.15	226.27
388.53	226.26
388.91	226.29
389.29	226.27
389.66	226.24
390.04	226.21
390.42	226.21
390.79	226.20
391.17	226.20
391.55	226.11
391.92	226.07
392.30	226.08
392.68	226.04
393.05	226.07
393.43	226.07
393.81	226.08
394.18	226.05
394.56	226.07
394.94	226.14
395.31	226.16
395.69	226.22
396.06	226.27
396.44	226.31
396.82	226.33
397.19	226.46
397.57	226.50
397.95	226.59
398.32	226.63
398.70	226.70
399.07	226.80
399.45	226.81
399.82	226.90
400.20	226.94
400.58	227.02
400.95	227.09
401.33	227.21
401.70	227.39
402.08	227.53
402.45	227.71
402.83	227.84
403.20	227.98
403.58	228.09
403.95	228.26
404.33	228.41
404.71	228.55
405.08	228.72
405.46	228.87
405.83	229.05
406.21	229.23
406.58	229.42
406.96	229.56
407.33	229.78
407.70	229.99
408.08	230.28
408.45	230.50
408.83	230.70
409.20	230.92
409.58	231.10
409.95	231.38
410.33	231.62
410.70	231.86
411.08	232.17
411.45	232.48
411.82	232.77
412.20	233.13
412.57	233.55
412.95	233.84
413.32	234.25
413.69	234.66
414.07	235.08
414.44	235.54
414.82	236.06
415.19	236.65
415.56	237.17
415.94	237.70
416.31	238.36
416.68	239.00
417.06	239.74
417.43	240.43
417.81	241.19
418.18	241.96
418.55	242.82
418.93	243.65
419.30	244.54
419.67	245.49
420.04	246.45
420.42	247.46
420.79	248.66
421.16	249.84
421.54	251.05
421.91	252.26
422.28	253.50
422.66	254.82
423.03	256.09
423.40	257.45
423.77	258.87
424.15	260.28
424.52	261.77
424.89	263.39
425.26	264.91
425.64	266.39
426.01	268.03
426.38	269.69
426.75	271.39
427.13	273.14
427.50	274.97
427.87	276.84
428.24	278.70
428.61	280.43
428.99	282.35
429.36	284.41
429.73	286.51
430.10	288.56
430.47	290.63
430.85	292.72
431.22	294.97
431.59	297.33
431.96	299.57
432.33	302.07
432.70	304.43
433.08	307.27
433.45	309.90
433.82	312.46
434.19	315.36
434.56	318.17
434.93	320.82
435.30	323.37
435.68	326.25
436.05	329.04
436.42	331.80
436.79	334.33
437.16	337.04
437.53	339.83
437.90	342.65
438.27	345.36
438.64	348.21
439.01	350.77
439.38	353.02
439.75	355.21
440.13	357.70
440.50	360.07
440.87	361.86
441.24	363.77
441.61	365.93
441.98	367.40
442.35	369.16
442.72	371.01
443.09	372.85
443.46	373.84
443.83	374.45
444.20	375.00
444.57	375.83
444.94	376.10
445.31	376.43
445.68	376.75
446.05	376.86
446.42	376.52
446.79	376.15
447.16	375.72
447.53	375.35
447.90	374.20
448.27	372.97
448.64	371.43
449.01	370.28
449.37	368.29
449.74	366.39
450.11	364.16
450.48	361.68
450.85	359.20
451.22	357.06
451.59	355.03
451.96	353.08
452.33	350.48
452.70	348.14
453.07	345.34
453.43	342.45
453.80	339.65
454.17	336.98
454.54	334.38
454.91	331.66
455.28	329.02
455.65	326.50
456.02	324.09
456.38	321.91
456.75	319.27
457.12	317.05
457.49	314.82
457.86	312.69
458.23	310.87
458.59	308.81
458.96	306.75
459.33	304.92
459.70	303.08
460.07	301.58
460.43	299.84
460.80	298.26
461.17	296.80
461.54	295.31
461.91	293.85
462.27	292.42
462.64	291.19
463.01	289.83
463.38	288.51
463.74	287.13
464.11	285.96
464.48	284.95
464.85	283.84
465.21	282.96
465.58	282.00
465.95	280.85
466.32	279.89
466.68	278.95
467.05	278.05
467.42	277.13
467.78	276.13
468.15	275.27
468.52	274.57
468.88	273.72
469.25	272.96
469.62	272.34
469.98	271.63
470.35	270.99
470.72	270.38
471.08	269.76
471.45	269.20
471.82	268.66
472.18	268.00
472.55	267.58
472.92	267.02
473.28	266.53
473.65	266.10
474.02	265.67
474.38	265.29
474.75	264.95
475.11	264.57
475.48	264.33
475.85	264.10
476.21	263.82
476.58	263.64
476.94	263.52
477.31	263.31
477.67	263.16
478.04	263.00
478.41	262.94
478.77	262.97
479.14	262.90
479.50	262.88
479.87	262.97
480.23	262.97
480.60	263.04
480.96	263.12
481.33	263.31
481.69	263.48
482.06	263.68
482.42	263.84
482.79	264.08
483.15	264.38
483.52	264.74
483.88	265.09
484.25	265.45
484.61	265.83
484.98	266.29
485.34	266.86
485.71	267.49
486.07	268.08
486.44	268.62
486.80	269.30
487.17	270.03
487.53	270.82
487.90	271.72
488.26	272.65
488.62	273.66
488.99	274.60
489.35	275.67
489.72	276.78
490.08	277.99
490.44	279.21
490.81	280.51
491.17	281.84
491.54	283.32
491.90	284.85
492.26	286.46
492.63	288.17
492.99	289.92
493.36	291.75
493.72	293.79
494.08	295.88
494.45	298.17
494.81	300.49
495.17	302.88
495.54	305.41
495.90	308.10
496.26	310.89
496.63	313.83
496.99	316.85
497.35	320.10
497.72	323.46
498.08	326.98
498.44	330.67
498.80	334.54
499.17	338.52
499.53	342.67
499.89	347.03
500.26	351.54
500.62	356.18
500.98	361.17
501.34	366.23
501.71	371.57
502.07	376.92
502.43	382.53
502.79	388.32
503.16	394.34
503.52	400.57
503.88	407.00
504.24	413.59
504.60	420.47
504.97	427.57
505.33	434.90
505.69	442.62
506.05	450.40
506.41	458.28
506.78	466.48
507.14	474.91
507.50	483.64
507.86	492.66
508.22	501.85
508.59	511.00
508.95	520.57
509.31	530.31
509.67	540.46
510.03	550.77
510.39	561.37
510.75	572.21
511.12	583.13
511.48	594.36
511.84	605.83
512.20	617.34
512.56	629.30
512.92	641.44
513.28	653.77
513.64	666.22
514.00	679.00
514.37	691.87
514.73	704.90
515.09	718.00
515.45	731.31
515.81	744.86
516.17	758.77
516.53	772.76
516.89	787.00
517.25	801.23
517.61	815.65
517.97	830.07
518.33	844.48
518.69	859.24
519.05	874.34
519.41	889.59
519.77	905.18
520.13	920.64
520.49	936.04
520.85	951.44
521.21	967.23
521.57	983.48
521.93	999.34
522.29	1015.78
522.65	1032.01
523.01	1048.26
523.37	1064.39
523.73	1080.77
524.09	1097.11
524.45	1113.51
524.81	1130.19
525.17	1147.04
525.53	1164.03
525.89	1181.00
526.25	1197.95
526.61	1214.40
526.97	1231.20
527.33	1247.78
527.68	1264.50
528.04	1281.13
528.40	1297.91
528.76	1315.06
529.12	1331.73
529.48	1348.70
529.84	1364.86
530.20	1381.67
530.56	1398.71
530.91	1416.17
531.27	1432.92
531.63	1449.48
531.99	1466.12
532.35	1482.10
532.71	1498.08
533.07	1514.49
533.42	1530.41
533.78	1546.38
534.14	1562.69
534.50	1578.06
534.86	1593.96
535.21	1609.06
535.57	1625.00
535.93	1640.50
536.29	1655.37
536.65	1670.51
537.00	1685.43
537.36	1700.81
537.72	1715.36
538.08	1729.98
538.44	1744.04
538.79	1757.99
539.15	1771.69
539.51	1785.48
539.87	1799.98
540.22	1813.89
540.58	1827.61
540.94	1841.16
541.29	1854.33
541.65	1867.01
542.01	1880.35
542.37	1892.77
542.72	1905.39
543.08	1917.34
543.44	1929.79
543.79	1940.96
544.15	1952.00
544.51	1963.47
544.87	1974.48
545.22	1985.28
545.58	1995.52
545.94	2005.18
546.29	2015.19
546.65	2025.14
547.01	2034.40
547.36	2043.07
547.72	2051.53
548.07	2059.61
548.43	2067.75
548.79	2075.82
549.14	2083.46
549.50	2090.90
549.86	2098.73
550.21	2106.07
550.57	2113.14
550.92	2119.68
551.28	2126.92
551.64	2134.05
551.99	2140.71
552.35	2146.88
552.70	2153.02
553.06	2158.86
553.41	2165.13
553.77	2171.11
554.13	2177.13
554.48	2183.27
554.84	2188.62
555.19	2193.89
555.55	2198.85
555.90	2203.34
556.26	2208.03
556.61	2212.73
556.97	2216.83
557.32	2220.93
557.68	2225.02
558.03	2229.29
558.39	2232.98
558.74	2237.56
559.10	2241.38
559.45	2244.95
559.81	2249.27
560.16	2253.09
560.52	2256.24
560.87	2259.72
561.23	2262.30
561.58	2265.15
561.94	2267.66
562.29	2270.24
562.64	2272.96
563.00	2275.57
563.35	2279.13
563.71	2282.33
564.06	2285.38
564.42	2288.23
564.77	2290.49
565.12	2292.70
565.48	2294.57
565.83	2296.42
566.19	2297.52
566.54	2298.41
566.89	2299.40
567.25	2299.66
567.60	2300.98
567.96	2302.60
568.31	2303.36
568.66	2304.41
569.02	2304.93
569.37	2305.18
569.72	2305.78
570.08	2305.56
570.43	2305.35
570.78	2304.27
571.14	2302.54
571.49	2301.09
571.84	2300.61
572.20	2299.23
572.55	2297.95
572.90	2296.27
573.26	2294.64
573.61	2292.90
573.96	2290.80
574.31	2287.68
574.67	2284.58
575.02	2280.70
575.37	2277.19
575.72	2273.18
576.08	2269.69
576.43	2266.21
576.78	2262.26
577.13	2258.89
577.49	2255.90
577.84	2252.29
578.19	2248.74
578.54	2244.94
578.90	2240.66
579.25	2234.96
579.60	2229.88
579.95	2224.78
580.30	2219.62
580.66	2214.40
581.01	2209.18
581.36	2204.24
581.71	2199.85
582.06	2195.35
582.42	2190.74
582.77	2185.46
583.12	2180.69
583.47	2175.81
583.82	2170.48
584.17	2165.05
584.53	2159.48
584.88	2153.52
585.23	2147.64
585.58	2141.85
585.93	2136.33
586.28	2131.44
586.63	2126.35
586.98	2121.16
587.34	2116.45
587.69	2111.40
588.04	2105.94
588.39	2100.14
588.74	2093.50
589.09	2087.27
589.44	2080.33
589.79	2074.28
590.14	2068.53
590.49	2061.83
590.84	2055.22
591.19	2049.26
591.54	2042.90
591.89	2035.31
592.25	2028.40
592.60	2021.10
592.95	2013.36
593.30	2005.95
593.65	1998.21
594.00	1991.05
594.35	1983.77
594.70	1975.63
595.05	1968.17
595.40	1960.94
595.75	1953.57
596.10	1947.20
596.45	1940.33
596.80	1934.16
597.15	1927.21
597.50	1919.83
597.85	1913.52
598.19	1906.94
598.54	1899.81
598.89	1892.92
599.24	1887.01
599.59	1880.24
599.94	1874.06
600.29	1867.74
600.64	1861.04
600.99	1853.47
601.34	1846.45
601.69	1839.54
602.04	1832.42
602.39	1825.14
602.74	1818.26
603.08	1811.36
603.43	1804.70
603.78	1797.59
604.13	1790.27
604.48	1783.07
604.83	1776.26
605.18	1769.04
605.53	1760.95
605.87	1752.87
606.22	1745.70
606.57	1737.89
606.92	1730.70
607.27	1723.35
607.62	1716.46
607.96	1709.11
608.31	1702.56
608.66	1694.93
609.01	1687.43
609.36	1680.00
609.70	1672.02
610.05	1663.87
610.40	1656.25
610.75	1647.84
611.10	1640.13
611.44	1631.87
611.79	1623.88
612.14	1615.19
612.49	1606.22
612.83	1597.91
613.18	1589.85
613.53	1581.83
613.88	1573.29
614.22	1564.91
614.57	1556.45
614.92	1548.42
615.27	1540.94
615.61	1532.69
615.96	1524.73
616.31	1517.06
616.65	1509.71
617.00	1502.23
617.35	1494.69
617.70	1486.27
618.04	1477.81
618.39	1469.55
618.74	1461.92
619.08	1453.66
619.43	1446.24
619.78	1439.34
620.12	1432.16
620.47	1424.66
620.82	1416.46
621.16	1409.03
621.51	1401.40
621.85	1393.85
622.20	1385.37
622.55	1377.01
622.89	1369.08
623.24	1361.63
623.59	1354.24
623.93	1346.68
624.28	1339.54
624.62	1331.99
624.97	1324.80
625.32	1318.10
625.66	1311.20
626.01	1304.03
626.35	1296.62
626.70	1288.94
627.04	1281.15
627.39	1273.39
627.73	1266.03
628.08	1259.25
628.43	1252.00
628.77	1244.81
629.12	1237.18
629.46	1229.99
629.81	1222.66
630.15	1215.56
630.50	1208.06
630.84	1199.94
631.19	1192.19
631.53	1184.66
631.88	1177.21
632.22	1169.76
632.57	1162.49
632.91	1154.92
633.26	1147.58
633.60	1140.33
633.95	1133.24
634.29	1126.33
634.64	1119.67
634.98	1112.33
635.32	1105.12
635.67	1098.50
636.01	1091.87
636.36	1085.11
636.70	1078.74
637.05	1072.20
637.39	1065.73
637.73	1059.33
638.08	1053.52
638.42	1047.61
638.77	1041.12
639.11	1034.55
639.45	1028.22
639.80	1021.57
640.14	1015.22
640.49	1008.75
640.83	1002.46
641.17	996.22
641.52	989.96
641.86	983.66
642.20	977.91
642.55	971.81
642.89	965.41
643.23	958.93
643.58	953.22
643.92	947.06
644.26	941.06
644.61	935.16
644.95	929.24
645.29	922.65
645.64	915.84
645.98	909.67
646.32	903.83
646.66	897.83
647.01	892.13
647.35	886.41
647.69	880.52
648.04	875.02
648.38	869.25
648.72	863.21
649.06	857.16
649.41	851.27
649.75	845.20
650.09	839.25
650.43	833.40
650.78	827.25
651.12	821.28
651.46	815.46
651.80	809.64
652.14	804.20
652.49	798.83
652.83	793.66
653.17	787.89
653.51	782.13
653.85	776.72
654.20	771.03
654.54	765.05
654.88	759.38
655.22	753.58
655.56	747.99
655.90	742.61
656.25	737.33
656.59	732.03
656.93	727.00
657.27	721.87
657.61	716.53
657.95	711.49
658.29	706.43
658.64	701.38
658.98	696.15
659.32	690.71
659.66	685.45
660.00	680.22
660.34	675.36
660.68	670.51
661.02	665.46
661.36	660.79
661.70	656.37
662.05	652.03
662.39	647.61
662.73	643.12
663.07	638.76
663.41	634.35
663.75	629.78
664.09	625.18
664.43	620.83
664.77	616.74
665.11	612.51
665.45	608.44
665.79	604.30
666.13	600.14
666.47	596.12
666.81	591.99
667.15	587.84
667.49	583.95
667.83	580.13
668.17	576.27
668.51	572.22
668.85	568.19
669.19	564.39
669.53	560.59
669.87	556.74
670.21	553.02
670.55	549.38
670.89	546.06
671.23	542.71
671.57	539.21
671.91	535.71
672.25	532.29
672.58	528.84
672.92	525.48
673.26	522.42
673.60	519.23
673.94	516.16
674.28	513.31
674.62	510.36
674.96	507.31
675.30	504.42
675.64	501.55
675.97	498.79
676.31	495.94
676.65	493.03
676.99	490.34
677.33	487.49
677.67	484.67
678.01	481.66
678.34	478.63
678.68	475.77
679.02	472.95
679.36	470.16
679.70	467.39
680.04	464.59
680.37	461.66
680.71	458.91
681.05	456.35
681.39	453.66
681.73	451.05
682.06	448.58
682.40	446.10
682.74	443.57
683.08	441.07
683.42	438.54
683.75	436.05
684.09	433.55
684.43	431.10
684.77	428.67
685.10	426.30
685.44	424.04
685.78	421.77
686.12	419.55
686.45	417.31
686.79	415.02
687.13	412.88
687.46	410.74
687.80	408.60
688.14	406.40
688.48	404.35
688.81	402.11
689.15	399.95
689.49	397.76
689.82	395.71
690.16	393.61
690.50	391.65
690.83	389.71
691.17	387.75
691.51	385.84
691.84	384.03
692.18	382.13
692.52	380.23
692.85	378.32
693.19	376.42
693.52	374.59
693.86	372.82
694.20	371.07
694.53	369.29
694.87	367.47
695.21	365.74
695.54	363.94
695.88	362.23
696.21	360.50
696.55	358.81
696.88	357.15
697.22	355.48
697.56	353.84
697.89	352.18
698.23	350.59
698.56	349.02
698.90	347.40
699.23	345.76
699.57	344.18
699.90	342.65
700.24	341.14
700.58	339.61
700.91	338.13
701.25	336.70
701.58	335.32
701.92	333.96
702.25	332.56
702.59	331.22
702.92	329.92
703.26	328.62
703.59	327.36
703.93	326.17
704.26	324.98
704.60	323.70
704.93	322.50
705.26	321.21
705.60	320.02
705.93	318.89
706.27	317.85
706.60	316.81
706.94	315.76
707.27	314.64
707.61	313.58
707.94	312.56
708.27	311.51
708.61	310.45
708.94	309.49
709.28	308.54
709.61	307.56
709.94	306.66
710.28	305.63
710.61	304.67
710.95	303.60
711.28	302.71
711.61	301.77
711.95	300.87
712.28	299.94
712.61	299.00
712.95	298.08
713.28	297.24
713.61	296.34
713.95	295.40
714.28	294.55
714.61	293.71
714.95	292.88
715.28	291.97
715.61	291.09
715.95	290.23
716.28	289.37
716.61	288.53
716.95	287.69
717.28	286.93
717.61	286.18
717.94	285.50
718.28	284.68
718.61	283.99
718.94	283.28
719.27	282.65
719.61	282.02
719.94	281.37
720.27	280.65
720.60	279.99
720.94	279.43
721.27	278.82
721.60	278.27
721.93	277.66
722.27	277.12
722.60	276.60
722.93	276.02
723.26	275.47
723.59	274.92
723.93	274.35
724.26	273.86
724.59	273.28
724.92	272.72
725.25	272.24
725.59	271.69
725.92	271.18
726.25	270.68
726.58	270.20
726.91	269.70
727.24	269.22
727.57	268.73
727.91	268.22
728.24	267.76
728.57	267.24
728.90	266.80
729.23	266.32
729.56	265.92
729.89	265.46
730.22	264.97
730.55	264.52
730.89	264.11
731.22	263.67
731.55	263.24
731.88	262.80
732.21	262.36
732.54	261.94
732.87	261.52
733.20	261.11
733.53	260.70
733.86	260.32
734.19	259.93
734.52	259.55
734.85	259.24
735.18	258.90
735.51	258.54
735.84	258.15
736.17	257.80
736.50	257.36
736.83	257.13
737.16	256.81
737.49	256.48
737.82	256.13
738.15	255.77
738.48	255.45
738.81	255.13
739.14	254.77
739.47	254.47
739.80	254.18
740.13	253.88
740.46	253.58
740.79	253.24
741.12	252.92
741.45	252.61
741.78	252.25
742.11	251.90
742.44	251.60
742.77	251.32
743.10	251.02
743.43	250.72
743.75	250.35
744.08	250.23
744.41	249.92
744.74	249.64
745.07	249.38
745.40	249.14
745.73	248.92
746.06	248.64
746.39	248.35
746.71	248.06
747.04	247.81
747.37	247.56
747.70	247.35
748.03	247.12
748.36	246.92
748.68	246.70
749.01	246.48
749.34	246.27
749.67	246.06
750.00	245.84
750.33	245.66
750.65	245.44
750.98	245.08
751.31	244.93
751.64	244.71
751.97	244.57
752.29	244.34
752.62	244.08
752.95	243.91
753.28	243.72
753.60	243.54
753.93	243.36
754.26	243.14
754.59	242.88
754.91	242.66
755.24	242.42
755.57	242.25
755.90	242.07
756.22	241.86
756.55	241.67
756.88	241.47
757.20	241.26
757.53	241.07
757.86	240.91
758.19	240.75
758.51	240.60
758.84	240.34
759.17	240.17
759.49	240.05
759.82	239.93
760.15	239.77
760.47	239.60
760.80	239.43
761.13	239.29
761.45	239.16
761.78	239.02
762.11	238.90
762.43	238.74
762.76	238.56
763.08	238.42
763.41	238.30
763.74	238.18
764.06	238.05
764.39	237.89
764.71	237.74
765.04	237.57
765.37	237.44
765.69	237.32
766.02	237.20
766.34	237.04
766.67	236.89
767.00	236.79
767.32	236.71
767.65	236.64
767.97	236.52
768.30	236.38
768.62	236.27
768.95	236.13
769.27	236.01
769.60	235.92
769.92	235.82
770.25	235.68
770.57	235.55
770.90	235.47
771.22	235.39
771.55	235.27
771.87	235.14
772.20	235.05
772.52	235.04
772.85	235.06
773.17	234.97
773.50	234.85
773.82	234.75
774.15	234.62
774.47	234.47
774.80	234.38
775.12	234.30
775.45	234.19
775.77	234.16
776.09	234.08
776.42	233.98
776.74	233.94
777.07	233.85
777.39	233.77
777.72	233.69
778.04	233.65
778.36	233.58
778.69	233.57
779.01	233.49
779.33	233.34
779.66	233.15
779.98	233.07
780.31	233.04
780.63	232.98
780.95	232.93
781.28	232.89
781.60	232.84
781.92	232.80
782.25	232.76
782.57	232.68
782.89	232.63
783.22	232.61
783.54	232.52
783.86	232.48
784.19	232.45
784.51	232.42
784.83	232.32
785.16	232.23
785.48	232.19
785.80	232.14
786.12	232.08
786.45	232.02
786.77	232.04
787.09	231.97
