SpectraSuite Data File
++++++++++++++++++++++++++++++++++++
Date: Fri Feb 01 18:10:15 EST 2013
User: group
Dark Spectrum Present: No
Reference Spectrum Present: No
Number of Sampled Component Spectra: 1
Spectrometers: USB2E7196
Integration Time (usec): 35000 (USB2E7196)
Spectra Averaged: 100 (USB2E7196)
Boxcar Smoothing: 10 (USB2E7196)
Correct for Electrical Dark: No (USB2E7196)
Strobe/Lamp Enabled: No (USB2E7196)
Correct for Detector Non-linearity: No (USB2E7196)
Correct for Stray Light: No (USB2E7196)
Number of Pixels in Processed Spectrum: 2048
>>>>>Begin Processed Spectral Data<<<<<
339.09	0.00
339.48	212.62
339.86	214.00
340.24	215.83
340.63	217.76
341.01	220.04
341.39	219.81
341.78	221.13
342.16	222.41
342.54	223.06
342.93	211.42
343.31	222.11
343.69	222.69
344.07	223.20
344.46	223.64
344.84	224.03
345.22	224.26
345.60	224.55
345.99	224.75
346.37	224.91
346.75	224.99
347.13	225.06
347.52	225.12
347.90	225.21
348.28	225.27
348.66	225.31
349.05	225.29
349.43	225.37
349.81	225.42
350.19	225.50
350.57	225.58
350.96	225.68
351.34	225.78
351.72	225.88
352.10	225.94
352.48	226.01
352.87	226.02
353.25	226.11
353.63	226.14
354.01	226.19
354.39	226.27
354.77	226.34
355.15	226.44
355.54	226.46
355.92	226.48
356.30	226.54
356.68	226.65
357.06	226.73
357.44	226.75
357.82	226.81
358.20	226.87
358.58	226.94
358.97	226.98
359.35	227.03
359.73	227.09
360.11	227.15
360.49	227.21
360.87	227.25
361.25	227.30
361.63	227.38
362.01	227.44
362.39	227.41
362.77	227.47
363.15	227.50
363.53	227.54
363.91	227.58
364.29	227.60
364.67	227.55
365.05	227.59
365.43	227.62
365.81	227.64
366.19	227.69
366.57	227.70
366.95	227.72
367.33	227.74
367.71	227.70
368.09	227.75
368.47	227.74
368.85	227.74
369.23	227.75
369.61	227.67
369.99	227.70
370.37	227.73
370.75	227.78
371.13	227.74
371.51	227.72
371.89	227.67
372.27	227.65
372.65	227.60
373.03	227.57
373.41	227.50
373.78	227.44
374.16	227.33
374.54	227.25
374.92	227.17
375.30	227.10
375.68	227.05
376.06	226.96
376.44	226.90
376.82	226.85
377.19	226.78
377.57	226.75
377.95	226.67
378.33	226.58
378.71	226.41
379.09	226.36
379.47	226.33
379.84	226.28
380.22	226.21
380.60	226.17
380.98	226.10
381.36	226.08
381.73	226.02
382.11	226.01
382.49	225.96
382.87	225.90
383.25	225.82
383.62	225.89
384.00	225.85
384.38	225.81
384.76	225.82
385.13	225.83
385.51	225.79
385.89	225.73
386.27	225.71
386.64	225.71
387.02	225.67
387.40	225.60
387.78	225.55
388.15	225.53
388.53	225.47
388.91	225.44
389.29	225.40
389.66	225.41
390.04	225.36
390.42	225.38
390.79	225.38
391.17	225.41
391.55	225.25
391.92	225.25
392.30	225.24
392.68	225.16
393.05	225.12
393.43	225.12
393.81	225.13
394.18	225.12
394.56	225.12
394.94	225.14
395.31	225.15
395.69	225.22
396.06	225.26
396.44	225.31
396.82	225.31
397.19	225.38
397.57	225.40
397.95	225.45
398.32	225.43
398.70	225.47
399.07	225.53
399.45	225.62
399.82	225.64
400.20	225.69
400.58	225.77
400.95	225.80
401.33	225.87
401.70	226.01
402.08	226.13
402.45	226.22
402.83	226.31
403.20	226.41
403.58	226.50
403.95	226.63
404.33	226.77
404.71	226.93
405.08	227.13
405.46	227.26
405.83	227.47
406.21	227.64
406.58	227.81
406.96	227.97
407.33	228.18
407.70	228.41
408.08	228.73
408.45	229.01
408.83	229.31
409.20	229.60
409.58	229.82
409.95	230.11
410.33	230.46
410.70	230.80
411.08	231.20
411.45	231.58
411.82	231.97
412.20	232.42
412.57	232.96
412.95	233.35
413.32	233.90
413.69	234.43
414.07	235.00
414.44	235.65
414.82	236.34
415.19	237.08
415.56	237.85
415.94	238.60
416.31	239.49
416.68	240.36
417.06	241.33
417.43	242.26
417.81	243.35
418.18	244.46
418.55	245.60
418.93	246.85
419.30	248.16
419.67	249.50
420.04	250.84
420.42	252.22
420.79	253.84
421.16	255.47
421.54	257.09
421.91	258.80
422.28	260.57
422.66	262.42
423.03	264.22
423.40	266.06
423.77	268.02
424.15	270.03
424.52	272.16
424.89	274.42
425.26	276.66
425.64	278.68
426.01	280.90
426.38	283.24
426.75	285.53
427.13	287.92
427.50	290.47
427.87	293.09
428.24	295.72
428.61	298.21
428.99	300.93
429.36	303.92
429.73	306.81
430.10	309.64
430.47	312.54
430.85	315.55
431.22	318.72
431.59	322.04
431.96	325.14
432.33	328.58
432.70	331.91
433.08	335.80
433.45	339.51
433.82	343.19
434.19	347.26
434.56	351.20
434.93	354.93
435.30	358.60
435.68	362.70
436.05	366.67
436.42	370.56
436.79	374.07
437.16	377.87
437.53	381.90
437.90	385.86
438.27	389.68
438.64	393.67
439.01	397.32
439.38	400.48
439.75	403.56
440.13	407.06
440.50	410.33
440.87	412.98
441.24	415.74
441.61	418.74
441.98	420.87
442.35	423.45
442.72	426.00
443.09	428.52
443.46	429.90
443.83	430.76
444.20	431.50
444.57	432.71
444.94	433.13
445.31	433.59
445.68	434.03
446.05	434.15
446.42	433.59
446.79	433.00
447.16	432.40
447.53	431.95
447.90	430.36
448.27	428.73
448.64	426.48
449.01	424.86
449.37	422.08
449.74	419.38
450.11	416.15
450.48	412.76
450.85	409.23
451.22	406.23
451.59	403.38
451.96	400.65
452.33	396.97
452.70	393.69
453.07	389.71
453.43	385.69
453.80	381.76
454.17	378.05
454.54	374.49
454.91	370.66
455.28	366.90
455.65	363.37
456.02	359.87
456.38	356.87
456.75	353.12
457.12	350.01
457.49	346.85
457.86	343.86
458.23	341.17
458.59	338.27
458.96	335.34
459.33	332.70
459.70	330.09
460.07	327.97
460.43	325.49
460.80	323.21
461.17	321.15
461.54	319.02
461.91	316.96
462.27	314.89
462.64	313.13
463.01	311.19
463.38	309.33
463.74	307.46
464.11	305.80
464.48	304.35
464.85	302.75
465.21	301.53
465.58	300.19
465.95	298.68
466.32	297.38
466.68	296.09
467.05	294.83
467.42	293.50
467.78	292.16
468.15	290.89
468.52	289.90
468.88	288.70
469.25	287.66
469.62	286.77
469.98	285.79
470.35	284.87
470.72	284.04
471.08	283.13
471.45	282.34
471.82	281.57
472.18	280.70
472.55	280.06
472.92	279.33
473.28	278.68
473.65	278.01
474.02	277.36
474.38	276.81
474.75	276.32
475.11	275.85
475.48	275.47
475.85	275.16
476.21	274.78
476.58	274.46
476.94	274.16
477.31	273.87
477.67	273.61
478.04	273.41
478.41	273.21
478.77	273.16
479.14	273.00
479.50	272.91
479.87	272.92
480.23	272.96
480.60	272.93
480.96	272.92
481.33	273.09
481.69	273.27
482.06	273.39
482.42	273.52
482.79	273.71
483.15	273.98
483.52	274.30
483.88	274.67
484.25	275.04
484.61	275.47
484.98	275.91
485.34	276.50
485.71	277.09
486.07	277.76
486.44	278.26
486.80	278.97
487.17	279.73
487.53	280.58
487.90	281.43
488.26	282.41
488.62	283.47
488.99	284.46
489.35	285.50
489.72	286.69
490.08	287.94
490.44	289.25
490.81	290.72
491.17	292.16
491.54	293.73
491.90	295.38
492.26	297.10
492.63	298.97
492.99	300.82
493.36	302.78
493.72	304.92
494.08	307.24
494.45	309.68
494.81	312.18
495.17	314.74
495.54	317.51
495.90	320.37
496.26	323.31
496.63	326.51
496.99	329.89
497.35	333.37
497.72	337.06
498.08	340.88
498.44	344.72
498.80	348.92
499.17	353.25
499.53	357.69
499.89	362.40
500.26	367.20
500.62	372.20
500.98	377.51
501.34	382.96
501.71	388.68
502.07	394.50
502.43	400.58
502.79	406.87
503.16	413.39
503.52	420.17
503.88	427.07
504.24	434.16
504.60	441.54
504.97	449.26
505.33	457.05
505.69	465.32
506.05	473.73
506.41	482.21
506.78	491.00
507.14	500.14
507.50	509.56
507.86	519.25
508.22	529.18
508.59	539.21
508.95	549.58
509.31	560.20
509.67	571.08
510.03	582.18
510.39	593.64
510.75	605.32
511.12	617.16
511.48	629.43
511.84	641.92
512.20	654.42
512.56	667.37
512.92	680.64
513.28	694.14
513.64	707.79
514.00	721.65
514.37	735.86
514.73	750.14
515.09	764.36
515.45	778.87
515.81	793.83
516.17	809.06
516.53	824.54
516.89	840.18
517.25	855.91
517.61	871.80
517.97	887.70
518.33	903.57
518.69	919.82
519.05	936.33
519.41	953.03
519.77	970.21
520.13	987.32
520.49	1004.38
520.85	1021.33
521.21	1038.65
521.57	1056.61
521.93	1074.08
522.29	1092.23
522.65	1110.37
523.01	1128.46
523.37	1146.38
523.73	1164.54
524.09	1182.56
524.45	1200.64
524.81	1219.12
525.17	1237.83
525.53	1256.74
525.89	1275.56
526.25	1294.44
526.61	1312.87
526.97	1331.82
527.33	1350.36
527.68	1368.99
528.04	1387.63
528.40	1406.42
528.76	1425.71
529.12	1444.63
529.48	1463.80
529.84	1482.02
530.20	1501.00
530.56	1520.27
530.91	1540.05
531.27	1559.14
531.63	1577.91
531.99	1596.87
532.35	1615.27
532.71	1633.62
533.07	1652.32
533.42	1670.83
533.78	1689.46
534.14	1708.27
534.50	1725.99
534.86	1744.38
535.21	1762.15
535.57	1780.63
535.93	1798.61
536.29	1815.85
536.65	1833.35
537.00	1850.57
537.36	1868.56
537.72	1885.50
538.08	1902.50
538.44	1918.71
538.79	1935.13
539.15	1951.24
539.51	1967.55
539.87	1984.50
540.22	2000.80
540.58	2017.06
540.94	2032.85
541.29	2048.13
541.65	2063.33
542.01	2079.14
542.37	2093.97
542.72	2108.88
543.08	2123.24
543.44	2138.29
543.79	2152.12
544.15	2165.55
544.51	2179.66
544.87	2192.98
545.22	2206.38
545.58	2219.11
545.94	2231.35
546.29	2243.65
546.65	2256.12
547.01	2267.86
547.36	2278.92
547.72	2289.72
548.07	2300.09
548.43	2310.64
548.79	2320.95
549.14	2330.85
549.50	2340.46
549.86	2350.47
550.21	2359.99
550.57	2369.44
550.92	2378.25
551.28	2387.66
551.64	2397.07
551.99	2405.70
552.35	2414.27
552.70	2422.48
553.06	2430.52
553.41	2439.01
553.77	2447.13
554.13	2455.17
554.48	2463.39
554.84	2471.09
555.19	2478.24
555.55	2485.36
555.90	2491.81
556.26	2498.78
556.61	2505.34
556.97	2511.64
557.32	2517.62
557.68	2523.57
558.03	2529.72
558.39	2535.00
558.74	2541.45
559.10	2547.04
559.45	2552.39
559.81	2558.10
560.16	2563.67
560.52	2568.71
560.87	2573.71
561.23	2577.78
561.58	2582.14
561.94	2586.23
562.29	2589.86
562.64	2594.33
563.00	2598.35
563.35	2603.42
563.71	2608.04
564.06	2612.70
564.42	2616.91
564.77	2621.05
565.12	2624.98
565.48	2628.03
565.83	2631.40
566.19	2634.02
566.54	2635.93
566.89	2638.35
567.25	2640.21
567.60	2642.56
567.96	2645.44
568.31	2647.31
568.66	2649.76
569.02	2651.45
569.37	2652.67
569.72	2654.54
570.08	2655.53
570.43	2656.32
570.78	2656.51
571.14	2655.50
571.49	2654.59
571.84	2655.03
572.20	2654.42
572.55	2653.90
572.90	2652.75
573.26	2651.90
573.61	2650.34
573.96	2649.18
574.31	2646.48
574.67	2643.73
575.02	2640.15
575.37	2636.70
575.72	2633.02
576.08	2629.38
576.43	2626.08
576.78	2622.44
577.13	2619.18
577.49	2615.79
577.84	2612.42
578.19	2608.58
578.54	2604.98
578.90	2600.79
579.25	2594.80
579.60	2589.53
579.95	2584.16
580.30	2578.80
580.66	2573.15
581.01	2567.86
581.36	2562.44
581.71	2558.02
582.06	2553.29
582.42	2548.65
582.77	2543.20
583.12	2538.37
583.47	2533.51
583.82	2528.24
584.17	2522.43
584.53	2516.48
584.88	2510.50
585.23	2504.09
585.58	2497.86
585.93	2491.65
586.28	2486.22
586.63	2480.63
586.98	2474.82
587.34	2469.47
587.69	2464.10
588.04	2458.24
588.39	2451.94
588.74	2444.65
589.09	2437.66
589.44	2429.86
589.79	2422.68
590.14	2416.13
590.49	2408.50
590.84	2401.19
591.19	2394.14
591.54	2386.75
591.89	2378.47
592.25	2370.80
592.60	2362.38
592.95	2353.89
593.30	2345.38
593.65	2336.70
594.00	2328.47
594.35	2319.91
594.70	2310.46
595.05	2302.29
595.40	2293.75
595.75	2284.87
596.10	2277.73
596.45	2270.09
596.80	2262.91
597.15	2255.44
597.50	2247.36
597.85	2239.69
598.19	2231.91
598.54	2223.81
598.89	2216.01
599.24	2208.92
599.59	2201.10
599.94	2193.72
600.29	2186.22
600.64	2178.37
600.99	2169.72
601.34	2161.67
601.69	2153.53
602.04	2145.65
602.39	2136.77
602.74	2128.61
603.08	2120.76
603.43	2112.56
603.78	2103.61
604.13	2095.11
604.48	2086.63
604.83	2078.36
605.18	2070.41
605.53	2060.90
605.87	2051.34
606.22	2042.68
606.57	2033.09
606.92	2024.09
607.27	2015.69
607.62	2007.27
607.96	1998.83
608.31	1990.92
608.66	1981.80
609.01	1972.99
609.36	1963.94
609.70	1954.44
610.05	1944.98
610.40	1935.85
610.75	1926.08
611.10	1916.99
611.44	1906.87
611.79	1897.14
612.14	1886.74
612.49	1875.59
612.83	1865.47
613.18	1855.68
613.53	1846.07
613.88	1835.92
614.22	1826.04
614.57	1815.65
614.92	1806.19
615.27	1797.16
615.61	1787.23
615.96	1777.68
616.31	1768.36
616.65	1759.37
617.00	1750.36
617.35	1741.16
617.70	1731.27
618.04	1721.03
618.39	1711.08
618.74	1701.93
619.08	1691.93
619.43	1682.67
619.78	1674.26
620.12	1665.75
620.47	1656.74
620.82	1646.74
621.16	1637.72
621.51	1628.58
621.85	1619.30
622.20	1608.99
622.55	1598.85
622.89	1589.32
623.24	1579.98
623.59	1570.94
623.93	1561.96
624.28	1553.10
624.62	1543.97
624.97	1535.17
625.32	1526.96
625.66	1518.42
626.01	1509.82
626.35	1501.06
626.70	1491.82
627.04	1482.62
627.39	1473.17
627.73	1464.22
628.08	1455.96
628.43	1447.41
628.77	1438.60
629.12	1429.65
629.46	1421.06
629.81	1412.00
630.15	1403.32
630.50	1394.54
630.84	1384.85
631.19	1375.27
631.53	1366.25
631.88	1357.22
632.22	1348.15
632.57	1339.42
632.91	1330.50
633.26	1321.67
633.60	1312.68
633.95	1304.02
634.29	1295.58
634.64	1287.46
634.98	1278.62
635.32	1270.09
635.67	1262.06
636.01	1254.19
636.36	1246.06
636.70	1238.16
637.05	1230.41
637.39	1222.75
637.73	1215.03
638.08	1207.94
638.42	1200.79
638.77	1193.11
639.11	1185.35
639.45	1177.69
639.80	1169.79
640.14	1162.11
640.49	1154.29
640.83	1146.77
641.17	1139.47
641.52	1131.96
641.86	1124.35
642.20	1117.43
642.55	1109.82
642.89	1102.14
643.23	1094.22
643.58	1087.41
643.92	1080.08
644.26	1073.07
644.61	1065.84
644.95	1058.60
645.29	1050.91
645.64	1042.92
645.98	1035.44
646.32	1028.29
646.66	1021.15
647.01	1014.17
647.35	1007.40
647.69	1000.48
648.04	993.92
648.38	987.11
648.72	980.16
649.06	973.17
649.41	966.13
649.75	959.22
650.09	952.25
650.43	945.50
650.78	938.16
651.12	931.16
651.46	924.27
651.80	917.57
652.14	911.16
652.49	904.78
652.83	898.62
653.17	892.00
653.51	885.36
653.85	878.89
654.20	872.29
654.54	865.20
654.88	858.35
655.22	851.30
655.56	844.51
655.90	837.93
656.25	831.62
656.59	825.29
656.93	819.12
657.27	813.07
657.61	806.57
657.95	800.54
658.29	794.60
658.64	788.37
658.98	781.91
659.32	775.50
659.66	769.33
660.00	763.17
660.34	757.25
660.68	751.42
661.02	745.53
661.36	739.94
661.70	734.67
662.05	729.54
662.39	724.58
662.73	719.30
663.07	714.14
663.41	708.89
663.75	703.70
664.09	698.44
664.43	693.16
664.77	688.39
665.11	683.41
665.45	678.44
665.79	673.68
666.13	668.96
666.47	664.15
666.81	659.35
667.15	654.46
667.49	649.86
667.83	645.31
668.17	640.69
668.51	635.99
668.85	631.19
669.19	626.68
669.53	622.17
669.87	617.63
670.21	613.20
670.55	608.88
670.89	604.80
671.23	600.74
671.57	596.60
671.91	592.47
672.25	588.29
672.58	584.13
672.92	580.03
673.26	576.28
673.60	572.60
673.94	568.88
674.28	565.38
674.62	561.95
674.96	558.33
675.30	554.93
675.64	551.49
675.97	548.23
676.31	544.84
676.65	541.42
676.99	538.29
677.33	534.95
677.67	531.65
678.01	528.17
678.34	524.69
678.68	521.34
679.02	517.95
679.36	514.75
679.70	511.58
680.04	508.40
680.37	505.07
680.71	501.78
681.05	498.72
681.39	495.58
681.73	492.44
682.06	489.50
682.40	486.54
682.74	483.55
683.08	480.63
683.42	477.61
683.75	474.66
684.09	471.58
684.43	468.71
684.77	465.83
685.10	463.01
685.44	460.27
685.78	457.58
686.12	454.91
686.45	452.13
686.79	449.45
687.13	446.85
687.46	444.26
687.80	441.72
688.14	439.05
688.48	436.64
688.81	433.99
689.15	431.44
689.49	428.88
689.82	426.43
690.16	423.87
690.50	421.54
690.83	419.22
691.17	416.90
691.51	414.63
691.84	412.45
692.18	410.16
692.52	407.87
692.85	405.52
693.19	403.34
693.52	401.21
693.86	399.02
694.20	396.85
694.53	394.68
694.87	392.51
695.21	390.41
695.54	388.22
695.88	386.16
696.21	384.12
696.55	382.13
696.88	380.13
697.22	378.16
697.56	376.22
697.89	374.26
698.23	372.36
698.56	370.46
698.90	368.61
699.23	366.71
699.57	364.87
699.90	363.06
700.24	361.21
700.58	359.42
700.91	357.68
701.25	355.97
701.58	354.38
701.92	352.75
702.25	351.09
702.59	349.50
702.92	347.92
703.26	346.35
703.59	344.82
703.93	343.33
704.26	341.88
704.60	340.34
704.93	338.86
705.26	337.42
705.60	335.98
705.93	334.60
706.27	333.34
706.60	332.10
706.94	330.85
707.27	329.53
707.61	328.21
707.94	326.99
708.27	325.69
708.61	324.36
708.94	323.12
709.28	322.00
709.61	320.86
709.94	319.72
710.28	318.47
710.61	317.30
710.95	316.05
711.28	314.94
711.61	313.77
711.95	312.65
712.28	311.50
712.61	310.39
712.95	309.26
713.28	308.19
713.61	307.12
713.95	306.06
714.28	305.09
714.61	304.11
714.95	303.10
715.28	302.08
715.61	301.10
715.95	300.07
716.28	299.04
716.61	298.02
716.95	297.02
717.28	296.16
717.61	295.24
717.94	294.40
718.28	293.43
718.61	292.61
718.94	291.78
719.27	290.99
719.61	290.21
719.94	289.41
720.27	288.56
720.60	287.73
720.94	287.00
721.27	286.25
721.60	285.55
721.93	284.84
722.27	284.22
722.60	283.54
722.93	282.92
723.26	282.30
723.59	281.63
723.93	281.03
724.26	280.38
724.59	279.71
724.92	279.06
725.25	278.51
725.59	277.89
725.92	277.23
726.25	276.64
726.58	276.06
726.91	275.49
727.24	274.92
727.57	274.34
727.91	273.73
728.24	273.17
728.57	272.58
728.90	272.02
729.23	271.44
729.56	270.91
729.89	270.28
730.22	269.66
730.55	269.09
730.89	268.55
731.22	268.04
731.55	267.55
731.88	267.05
732.21	266.51
732.54	266.02
732.87	265.57
733.20	265.05
733.53	264.56
733.86	264.10
734.19	263.63
734.52	263.17
734.85	262.79
735.18	262.29
735.51	261.88
735.84	261.45
736.17	261.03
736.50	260.56
736.83	260.28
737.16	259.91
737.49	259.57
737.82	259.19
738.15	258.78
738.48	258.40
738.81	257.97
739.14	257.61
739.47	257.23
739.80	256.85
740.13	256.50
740.46	256.17
740.79	255.84
741.12	255.48
741.45	255.10
741.78	254.69
742.11	254.40
742.44	254.00
742.77	253.67
743.10	253.29
743.43	252.95
743.75	252.52
744.08	252.33
744.41	251.97
744.74	251.61
745.07	251.27
745.40	250.96
745.73	250.70
746.06	250.36
746.39	250.01
746.71	249.69
747.04	249.34
747.37	248.99
747.70	248.67
748.03	248.35
748.36	248.10
748.68	247.82
749.01	247.51
749.34	247.26
749.67	246.97
750.00	246.70
750.33	246.56
750.65	246.31
750.98	245.92
751.31	245.65
751.64	245.41
751.97	245.19
752.29	244.91
752.62	244.60
752.95	244.42
753.28	244.16
753.60	243.95
753.93	243.79
754.26	243.59
754.59	243.32
754.91	243.08
755.24	242.85
755.57	242.59
755.90	242.37
756.22	242.13
756.55	241.90
756.88	241.68
757.20	241.38
757.53	241.17
757.86	240.97
758.19	240.79
758.51	240.59
758.84	240.36
759.17	240.22
759.49	240.09
759.82	239.92
760.15	239.74
760.47	239.53
760.80	239.31
761.13	239.13
761.45	238.99
761.78	238.84
762.11	238.65
762.43	238.51
762.76	238.35
763.08	238.23
763.41	238.08
763.74	237.94
764.06	237.76
764.39	237.62
764.71	237.44
765.04	237.28
765.37	237.15
765.69	237.01
766.02	236.85
766.34	236.70
766.67	236.52
767.00	236.40
767.32	236.31
767.65	236.24
767.97	236.10
768.30	235.96
768.62	235.82
768.95	235.70
769.27	235.56
769.60	235.44
769.92	235.29
770.25	235.16
770.57	235.00
770.90	234.88
771.22	234.77
771.55	234.67
771.87	234.56
772.20	234.43
772.52	234.39
772.85	234.41
773.17	234.28
773.50	234.17
773.82	234.07
774.15	233.94
774.47	233.78
774.80	233.67
775.12	233.58
775.45	233.47
775.77	233.39
776.09	233.32
776.42	233.23
776.74	233.16
777.07	233.06
777.39	232.95
777.72	232.85
778.04	232.76
778.36	232.67
778.69	232.63
779.01	232.57
779.33	232.40
779.66	232.20
779.98	232.14
780.31	232.05
780.63	232.02
780.95	231.98
781.28	231.91
781.60	231.85
781.92	231.80
782.25	231.75
782.57	231.68
782.89	231.60
783.22	231.53
783.54	231.47
783.86	231.42
784.19	231.36
784.51	231.33
784.83	231.21
785.16	231.15
785.48	231.06
785.80	230.98
786.12	230.95
786.45	230.87
