SpectraSuite Data File
++++++++++++++++++++++++++++++++++++
Date: Fri Feb 01 15:52:45 EST 2013
User: group
Dark Spectrum Present: No
Reference Spectrum Present: No
Number of Sampled Component Spectra: 1
Spectrometers: USB2E7196
Integration Time (usec): 35000 (USB2E7196)
Spectra Averaged: 100 (USB2E7196)
Boxcar Smoothing: 10 (USB2E7196)
Correct for Electrical Dark: No (USB2E7196)
Strobe/Lamp Enabled: No (USB2E7196)
Correct for Detector Non-linearity: No (USB2E7196)
Correct for Stray Light: No (USB2E7196)
Number of Pixels in Processed Spectrum: 2048
>>>>>Begin Processed Spectral Data<<<<<
339.09	0.00
339.48	214.87
339.86	216.10
340.24	218.17
340.63	219.52
341.01	222.49
341.39	221.55
341.78	223.28
342.16	224.40
342.54	225.37
342.93	213.33
343.31	224.11
343.69	224.65
344.07	225.13
344.46	225.52
344.84	225.85
345.22	226.06
345.60	226.33
345.99	226.53
346.37	226.69
346.75	226.77
347.13	226.86
347.52	226.90
347.90	226.94
348.28	226.98
348.66	227.02
349.05	227.00
349.43	227.07
349.81	227.13
350.19	227.15
350.57	227.24
350.96	227.33
351.34	227.41
351.72	227.50
352.10	227.57
352.48	227.67
352.87	227.74
353.25	227.82
353.63	227.89
354.01	227.95
354.39	228.00
354.77	228.06
355.15	228.13
355.54	228.22
355.92	228.23
356.30	228.29
356.68	228.39
357.06	228.49
357.44	228.50
357.82	228.60
358.20	228.67
358.58	228.73
358.97	228.75
359.35	228.81
359.73	228.88
360.11	228.96
360.49	228.99
360.87	229.03
361.25	229.04
361.63	229.08
362.01	229.11
362.39	229.14
362.77	229.17
363.15	229.18
363.53	229.17
363.91	229.19
364.29	229.21
364.67	229.14
365.05	229.13
365.43	229.14
365.81	229.11
366.19	229.17
366.57	229.16
366.95	229.17
367.33	229.14
367.71	229.14
368.09	229.15
368.47	229.15
368.85	229.14
369.23	229.14
369.61	229.06
369.99	229.05
370.37	229.01
370.75	229.01
371.13	228.93
371.51	228.88
371.89	228.88
372.27	228.83
372.65	228.76
373.03	228.72
373.41	228.65
373.78	228.58
374.16	228.48
374.54	228.39
374.92	228.31
375.30	228.24
375.68	228.14
376.06	228.04
376.44	227.95
376.82	227.90
377.19	227.82
377.57	227.76
377.95	227.66
378.33	227.58
378.71	227.45
379.09	227.40
379.47	227.36
379.84	227.24
380.22	227.15
380.60	227.09
380.98	227.01
381.36	226.96
381.73	226.91
382.11	226.87
382.49	226.84
382.87	226.78
383.25	226.72
383.62	226.77
384.00	226.72
384.38	226.66
384.76	226.63
385.13	226.63
385.51	226.57
385.89	226.54
386.27	226.51
386.64	226.50
387.02	226.46
387.40	226.42
387.78	226.40
388.15	226.40
388.53	226.35
388.91	226.34
389.29	226.30
389.66	226.31
390.04	226.24
390.42	226.26
390.79	226.24
391.17	226.25
391.55	226.14
391.92	226.15
392.30	226.19
392.68	226.19
393.05	226.17
393.43	226.21
393.81	226.22
394.18	226.21
394.56	226.23
394.94	226.27
395.31	226.28
395.69	226.38
396.06	226.42
396.44	226.47
396.82	226.50
397.19	226.63
397.57	226.68
397.95	226.76
398.32	226.77
398.70	226.84
399.07	226.90
399.45	226.98
399.82	227.01
400.20	227.06
400.58	227.11
400.95	227.17
401.33	227.26
401.70	227.37
402.08	227.45
402.45	227.56
402.83	227.70
403.20	227.82
403.58	227.88
403.95	227.98
404.33	228.12
404.71	228.23
405.08	228.41
405.46	228.54
405.83	228.68
406.21	228.81
406.58	229.00
406.96	229.16
407.33	229.32
407.70	229.51
408.08	229.77
408.45	229.99
408.83	230.22
409.20	230.43
409.58	230.64
409.95	230.94
410.33	231.21
410.70	231.46
411.08	231.76
411.45	232.06
411.82	232.39
412.20	232.74
412.57	233.16
412.95	233.42
413.32	233.84
413.69	234.25
414.07	234.69
414.44	235.14
414.82	235.58
415.19	236.14
415.56	236.68
415.94	237.22
416.31	237.85
416.68	238.50
417.06	239.21
417.43	239.90
417.81	240.61
418.18	241.35
418.55	242.18
418.93	243.01
419.30	243.90
419.67	244.89
420.04	245.86
420.42	246.86
420.79	248.02
421.16	249.15
421.54	250.32
421.91	251.53
422.28	252.76
422.66	254.12
423.03	255.40
423.40	256.74
423.77	258.13
424.15	259.56
424.52	261.01
424.89	262.61
425.26	264.15
425.64	265.64
426.01	267.25
426.38	268.91
426.75	270.58
427.13	272.32
427.50	274.07
427.87	275.93
428.24	277.80
428.61	279.56
428.99	281.50
429.36	283.62
429.73	285.67
430.10	287.69
430.47	289.75
430.85	291.90
431.22	294.15
431.59	296.53
431.96	298.78
432.33	301.27
432.70	303.68
433.08	306.48
433.45	309.12
433.82	311.76
434.19	314.70
434.56	317.53
434.93	320.17
435.30	322.83
435.68	325.72
436.05	328.57
436.42	331.37
436.79	333.89
437.16	336.53
437.53	339.37
437.90	342.21
438.27	344.98
438.64	347.82
439.01	350.41
439.38	352.61
439.75	354.82
440.13	357.34
440.50	359.67
440.87	361.54
441.24	363.48
441.61	365.60
441.98	367.04
442.35	368.85
442.72	370.71
443.09	372.53
443.46	373.53
443.83	374.09
444.20	374.61
444.57	375.43
444.94	375.77
445.31	376.16
445.68	376.51
446.05	376.59
446.42	376.18
446.79	375.72
447.16	375.30
447.53	374.93
447.90	373.70
448.27	372.50
448.64	370.92
449.01	369.78
449.37	367.82
449.74	365.93
450.11	363.70
450.48	361.21
450.85	358.64
451.22	356.45
451.59	354.41
451.96	352.46
452.33	349.81
452.70	347.42
453.07	344.51
453.43	341.59
453.80	338.77
454.17	336.11
454.54	333.62
454.91	330.90
455.28	328.20
455.65	325.75
456.02	323.33
456.38	321.18
456.75	318.49
457.12	316.21
457.49	313.96
457.86	311.78
458.23	309.93
458.59	307.89
458.96	305.86
459.33	303.97
459.70	302.09
460.07	300.63
460.43	298.91
460.80	297.33
461.17	295.86
461.54	294.38
461.91	292.91
462.27	291.46
462.64	290.21
463.01	288.87
463.38	287.57
463.74	286.15
464.11	284.99
464.48	284.00
464.85	282.91
465.21	282.06
465.58	281.11
465.95	280.03
466.32	279.14
466.68	278.22
467.05	277.36
467.42	276.49
467.78	275.57
468.15	274.69
468.52	274.02
468.88	273.18
469.25	272.44
469.62	271.84
469.98	271.17
470.35	270.53
470.72	269.94
471.08	269.28
471.45	268.81
471.82	268.29
472.18	267.69
472.55	267.26
472.92	266.73
473.28	266.27
473.65	265.85
474.02	265.37
474.38	265.02
474.75	264.68
475.11	264.30
475.48	264.08
475.85	263.89
476.21	263.64
476.58	263.48
476.94	263.33
477.31	263.20
477.67	263.08
478.04	263.00
478.41	262.93
478.77	262.97
479.14	262.93
479.50	262.92
479.87	263.01
480.23	263.12
480.60	263.23
480.96	263.31
481.33	263.50
481.69	263.69
482.06	263.90
482.42	264.16
482.79	264.50
483.15	264.79
483.52	265.18
483.88	265.55
484.25	265.98
484.61	266.43
484.98	266.90
485.34	267.47
485.71	268.05
486.07	268.69
486.44	269.29
486.80	269.99
487.17	270.73
487.53	271.56
487.90	272.36
488.26	273.31
488.62	274.34
488.99	275.30
489.35	276.41
489.72	277.53
490.08	278.73
490.44	279.92
490.81	281.26
491.17	282.63
491.54	284.15
491.90	285.67
492.26	287.30
492.63	288.98
492.99	290.74
493.36	292.63
493.72	294.67
494.08	296.74
494.45	299.02
494.81	301.33
495.17	303.75
495.54	306.36
495.90	309.00
496.26	311.78
496.63	314.75
496.99	317.85
497.35	321.10
497.72	324.46
498.08	327.99
498.44	331.66
498.80	335.54
499.17	339.54
499.53	343.71
499.89	348.09
500.26	352.62
500.62	357.30
500.98	362.28
501.34	367.36
501.71	372.72
502.07	378.11
502.43	383.74
502.79	389.52
503.16	395.61
503.52	401.92
503.88	408.35
504.24	414.98
504.60	421.80
504.97	428.89
505.33	436.28
505.69	443.98
506.05	451.73
506.41	459.62
506.78	467.79
507.14	476.20
507.50	484.91
507.86	493.97
508.22	503.19
508.59	512.38
508.95	522.03
509.31	531.81
509.67	541.95
510.03	552.28
510.39	562.86
510.75	573.58
511.12	584.46
511.48	595.69
511.84	607.10
512.20	618.71
512.56	630.71
512.92	642.86
513.28	655.25
513.64	667.80
514.00	680.56
514.37	693.53
514.73	706.69
515.09	719.76
515.45	733.04
515.81	746.59
516.17	760.57
516.53	774.61
516.89	788.75
517.25	802.94
517.61	817.38
517.97	831.83
518.33	846.35
518.69	861.19
519.05	876.24
519.41	891.36
519.77	906.95
520.13	922.36
520.49	937.69
520.85	953.12
521.21	968.77
521.57	984.98
521.93	1000.82
522.29	1017.18
522.65	1033.31
523.01	1049.47
523.37	1065.52
523.73	1081.77
524.09	1097.91
524.45	1114.22
524.81	1130.85
525.17	1147.66
525.53	1164.59
525.89	1181.48
526.25	1198.22
526.61	1214.67
526.97	1231.46
527.33	1247.88
527.68	1264.45
528.04	1280.90
528.40	1297.44
528.76	1314.48
529.12	1331.03
529.48	1347.83
529.84	1363.77
530.20	1380.46
530.56	1397.56
530.91	1415.02
531.27	1431.67
531.63	1448.08
531.99	1464.64
532.35	1480.51
532.71	1496.33
533.07	1512.47
533.42	1528.40
533.78	1544.42
534.14	1560.56
534.50	1575.98
534.86	1591.85
535.21	1607.03
535.57	1622.95
535.93	1638.50
536.29	1653.17
536.65	1668.23
537.00	1682.88
537.36	1698.24
537.72	1712.66
538.08	1726.97
538.44	1740.63
538.79	1754.56
539.15	1768.26
539.51	1782.02
539.87	1796.30
540.22	1810.00
540.58	1823.74
540.94	1837.00
541.29	1849.89
541.65	1862.61
542.01	1875.82
542.37	1888.04
542.72	1900.50
543.08	1912.27
543.44	1924.65
543.79	1936.04
544.15	1946.98
544.51	1958.56
544.87	1969.46
545.22	1980.29
545.58	1990.48
545.94	2000.13
546.29	2009.89
546.65	2019.69
547.01	2028.95
547.36	2037.63
547.72	2046.04
548.07	2053.90
548.43	2062.05
548.79	2070.12
549.14	2077.59
549.50	2084.83
549.86	2092.62
550.21	2099.92
550.57	2107.09
550.92	2113.59
551.28	2120.40
551.64	2127.51
551.99	2134.13
552.35	2140.36
552.70	2146.43
553.06	2152.41
553.41	2158.88
553.77	2164.98
554.13	2171.07
554.48	2177.09
554.84	2182.55
555.19	2187.97
555.55	2193.14
555.90	2197.64
556.26	2202.49
556.61	2207.30
556.97	2211.61
557.32	2215.60
557.68	2219.70
558.03	2223.90
558.39	2227.66
558.74	2232.45
559.10	2236.28
559.45	2239.99
559.81	2244.19
560.16	2248.14
560.52	2251.41
560.87	2254.81
561.23	2257.44
561.58	2260.36
561.94	2262.99
562.29	2265.48
562.64	2268.00
563.00	2270.56
563.35	2273.99
563.71	2277.17
564.06	2280.38
564.42	2283.20
564.77	2285.76
565.12	2287.95
565.48	2289.97
565.83	2291.75
566.19	2293.11
566.54	2294.05
566.89	2295.01
567.25	2295.53
567.60	2296.83
567.96	2298.47
568.31	2299.36
568.66	2300.47
569.02	2301.05
569.37	2301.34
569.72	2302.10
570.08	2302.33
570.43	2302.35
570.78	2301.77
571.14	2300.14
571.49	2298.75
571.84	2298.44
572.20	2297.29
572.55	2296.26
572.90	2294.59
573.26	2293.29
573.61	2291.54
573.96	2289.67
574.31	2286.74
574.67	2283.77
575.02	2280.17
575.37	2276.65
575.72	2272.73
576.08	2269.37
576.43	2266.04
576.78	2262.39
577.13	2259.36
577.49	2256.38
577.84	2252.82
578.19	2249.17
578.54	2245.54
578.90	2241.37
579.25	2236.03
579.60	2231.05
579.95	2225.93
580.30	2221.10
580.66	2215.99
581.01	2211.08
581.36	2206.18
581.71	2201.99
582.06	2197.59
582.42	2193.06
582.77	2188.01
583.12	2183.56
583.47	2178.68
583.82	2173.55
584.17	2168.34
584.53	2162.72
584.88	2157.00
585.23	2151.33
585.58	2145.84
585.93	2140.41
586.28	2135.63
586.63	2130.34
586.98	2125.26
587.34	2120.64
587.69	2115.77
588.04	2110.38
588.39	2104.63
588.74	2098.20
589.09	2092.13
589.44	2085.30
589.79	2079.37
590.14	2073.84
590.49	2067.18
590.84	2061.09
591.19	2055.25
591.54	2048.78
591.89	2041.45
592.25	2034.51
592.60	2027.32
592.95	2019.62
593.30	2012.14
593.65	2004.51
594.00	1997.54
594.35	1990.27
594.70	1982.29
595.05	1974.87
595.40	1967.66
595.75	1960.16
596.10	1953.91
596.45	1947.19
596.80	1941.17
597.15	1934.38
597.50	1927.00
597.85	1920.62
598.19	1913.89
598.54	1906.59
598.89	1900.01
599.24	1894.05
599.59	1887.40
599.94	1881.30
600.29	1874.98
600.64	1868.53
600.99	1861.07
601.34	1854.19
601.69	1847.23
602.04	1840.25
602.39	1832.90
602.74	1826.06
603.08	1819.38
603.43	1812.58
603.78	1805.25
604.13	1797.90
604.48	1790.69
604.83	1784.00
605.18	1776.95
605.53	1768.85
605.87	1760.93
606.22	1753.58
606.57	1745.79
606.92	1738.53
607.27	1731.25
607.62	1724.33
607.96	1716.99
608.31	1710.33
608.66	1702.66
609.01	1695.12
609.36	1687.67
609.70	1679.69
610.05	1671.52
610.40	1663.58
610.75	1655.30
611.10	1647.53
611.44	1639.14
611.79	1631.18
612.14	1622.30
612.49	1613.15
612.83	1604.80
613.18	1596.69
613.53	1588.60
613.88	1579.92
614.22	1571.62
614.57	1563.06
614.92	1554.98
615.27	1547.36
615.61	1539.12
615.96	1531.26
616.31	1523.84
616.65	1516.41
617.00	1508.95
617.35	1501.41
617.70	1493.33
618.04	1484.90
618.39	1476.82
618.74	1469.20
619.08	1460.96
619.43	1453.55
619.78	1446.71
620.12	1439.60
620.47	1432.12
620.82	1424.02
621.16	1416.72
621.51	1409.07
621.85	1401.50
622.20	1393.04
622.55	1384.72
622.89	1376.80
623.24	1369.11
623.59	1361.61
623.93	1354.06
624.28	1346.87
624.62	1339.24
624.97	1331.97
625.32	1325.14
625.66	1318.03
626.01	1310.94
626.35	1303.28
626.70	1295.58
627.04	1287.82
627.39	1280.00
627.73	1272.58
628.08	1265.66
628.43	1258.28
628.77	1250.95
629.12	1243.31
629.46	1236.17
629.81	1228.84
630.15	1221.57
630.50	1214.11
630.84	1205.95
631.19	1198.07
631.53	1190.41
631.88	1182.86
632.22	1175.22
632.57	1168.01
632.91	1160.45
633.26	1152.92
633.60	1145.82
633.95	1138.68
634.29	1131.63
634.64	1125.00
634.98	1117.53
635.32	1110.29
635.67	1103.64
636.01	1096.94
636.36	1090.11
636.70	1083.51
637.05	1076.89
637.39	1070.46
637.73	1063.96
638.08	1058.00
638.42	1051.90
638.77	1045.51
639.11	1038.90
639.45	1032.60
639.80	1025.86
640.14	1019.38
640.49	1012.84
640.83	1006.42
641.17	1000.11
641.52	993.73
641.86	987.22
642.20	981.53
642.55	975.31
642.89	968.86
643.23	962.31
643.58	956.50
643.92	950.37
644.26	944.26
644.61	938.25
644.95	932.19
645.29	925.54
645.64	918.83
645.98	912.46
646.32	906.61
646.66	900.56
647.01	894.76
647.35	889.10
647.69	883.31
648.04	877.72
648.38	871.96
648.72	865.96
649.06	859.92
649.41	853.91
649.75	847.84
650.09	841.95
650.43	836.22
650.78	830.14
651.12	824.14
651.46	818.53
651.80	812.75
652.14	807.35
652.49	802.05
652.83	796.88
653.17	791.15
653.51	785.38
653.85	779.93
654.20	774.28
654.54	768.23
654.88	762.54
655.22	756.67
655.56	750.92
655.90	745.54
656.25	740.28
656.59	734.93
656.93	729.88
657.27	724.68
657.61	719.25
657.95	714.12
658.29	709.04
658.64	703.72
658.98	698.43
659.32	692.98
659.66	687.75
660.00	682.46
660.34	677.58
660.68	672.77
661.02	667.81
661.36	663.13
661.70	658.71
662.05	654.29
662.39	649.98
662.73	645.57
663.07	641.14
663.41	636.68
663.75	632.18
664.09	627.66
664.43	623.23
664.77	619.13
665.11	614.85
665.45	610.72
665.79	606.60
666.13	602.45
666.47	598.37
666.81	594.21
667.15	590.11
667.49	586.23
667.83	582.40
668.17	578.42
668.51	574.28
668.85	570.20
669.19	566.39
669.53	562.49
669.87	558.64
670.21	554.93
670.55	551.30
670.89	547.93
671.23	544.46
671.57	540.97
671.91	537.36
672.25	533.87
672.58	530.38
672.92	527.05
673.26	523.86
673.60	520.72
673.94	517.59
674.28	514.76
674.62	511.80
674.96	508.69
675.30	505.83
675.64	502.96
675.97	500.19
676.31	497.26
676.65	494.33
676.99	491.61
677.33	488.78
677.67	485.97
678.01	482.92
678.34	479.97
678.68	477.18
679.02	474.41
679.36	471.65
679.70	468.94
680.04	466.15
680.37	463.30
680.71	460.50
681.05	457.92
681.39	455.09
681.73	452.45
682.06	449.97
682.40	447.38
682.74	444.86
683.08	442.34
683.42	439.77
683.75	437.32
684.09	434.80
684.43	432.33
684.77	429.84
685.10	427.54
685.44	425.16
685.78	422.83
686.12	420.62
686.45	418.29
686.79	416.01
687.13	413.82
687.46	411.72
687.80	409.60
688.14	407.38
688.48	405.36
688.81	403.09
689.15	400.84
689.49	398.70
689.82	396.63
690.16	394.56
690.50	392.58
690.83	390.61
691.17	388.63
691.51	386.74
691.84	384.87
692.18	382.90
692.52	380.96
692.85	379.02
693.19	377.10
693.52	375.33
693.86	373.53
694.20	371.73
694.53	369.89
694.87	368.03
695.21	366.28
695.54	364.46
695.88	362.69
696.21	361.03
696.55	359.38
696.88	357.70
697.22	356.01
697.56	354.42
697.89	352.79
698.23	351.16
698.56	349.55
698.90	348.00
699.23	346.35
699.57	344.81
699.90	343.29
700.24	341.77
700.58	340.23
700.91	338.68
701.25	337.24
701.58	335.85
701.92	334.46
702.25	333.01
702.59	331.69
702.92	330.41
703.26	329.07
703.59	327.78
703.93	326.59
704.26	325.38
704.60	324.04
704.93	322.79
705.26	321.57
705.60	320.41
705.93	319.24
706.27	318.22
706.60	317.16
706.94	316.09
707.27	314.95
707.61	313.88
707.94	312.89
708.27	311.79
708.61	310.70
708.94	309.70
709.28	308.78
709.61	307.79
709.94	306.80
710.28	305.83
710.61	304.82
710.95	303.71
711.28	302.81
711.61	301.89
711.95	300.98
712.28	300.02
712.61	299.01
712.95	298.05
713.28	297.18
713.61	296.30
713.95	295.41
714.28	294.56
714.61	293.71
714.95	292.84
715.28	292.00
715.61	291.15
715.95	290.30
716.28	289.42
716.61	288.59
716.95	287.80
717.28	287.05
717.61	286.32
717.94	285.58
718.28	284.77
718.61	284.08
718.94	283.35
719.27	282.69
719.61	282.04
719.94	281.40
720.27	280.67
720.60	279.99
720.94	279.35
721.27	278.76
721.60	278.16
721.93	277.53
722.27	276.99
722.60	276.43
722.93	275.83
723.26	275.31
723.59	274.75
723.93	274.18
724.26	273.63
724.59	273.04
724.92	272.51
725.25	271.99
725.59	271.45
725.92	270.97
726.25	270.48
726.58	269.98
726.91	269.49
727.24	268.99
727.57	268.50
727.91	267.99
728.24	267.50
728.57	267.01
728.90	266.60
729.23	266.11
729.56	265.67
729.89	265.24
730.22	264.70
730.55	264.23
730.89	263.81
731.22	263.36
731.55	262.94
731.88	262.52
732.21	262.08
732.54	261.64
732.87	261.21
733.20	260.76
733.53	260.36
733.86	260.01
734.19	259.65
734.52	259.27
734.85	258.99
735.18	258.57
735.51	258.22
735.84	257.83
736.17	257.50
736.50	257.12
736.83	256.90
737.16	256.62
737.49	256.31
737.82	255.97
738.15	255.66
738.48	255.30
738.81	255.00
739.14	254.69
739.47	254.38
739.80	254.04
740.13	253.76
740.46	253.45
740.79	253.09
741.12	252.76
741.45	252.47
741.78	252.12
742.11	251.84
742.44	251.53
742.77	251.23
743.10	250.92
743.43	250.61
743.75	250.22
744.08	250.07
744.41	249.76
744.74	249.49
745.07	249.21
745.40	249.00
745.73	248.75
746.06	248.49
746.39	248.22
746.71	247.95
747.04	247.68
747.37	247.40
747.70	247.18
748.03	246.92
748.36	246.70
748.68	246.44
749.01	246.18
749.34	245.98
749.67	245.77
750.00	245.52
750.33	245.34
750.65	245.08
750.98	244.74
751.31	244.51
751.64	244.31
751.97	244.14
752.29	243.92
752.62	243.70
752.95	243.52
753.28	243.30
753.60	243.09
753.93	242.89
754.26	242.72
754.59	242.51
754.91	242.32
755.24	242.13
755.57	241.93
755.90	241.78
756.22	241.58
756.55	241.38
756.88	241.21
757.20	241.00
757.53	240.82
757.86	240.65
758.19	240.49
758.51	240.29
758.84	240.04
759.17	239.84
759.49	239.65
759.82	239.51
760.15	239.38
760.47	239.23
760.80	239.06
761.13	238.90
761.45	238.71
761.78	238.59
762.11	238.46
762.43	238.29
762.76	238.12
763.08	237.98
763.41	237.85
763.74	237.70
764.06	237.55
764.39	237.41
764.71	237.27
765.04	237.15
765.37	236.98
765.69	236.87
766.02	236.79
766.34	236.66
766.67	236.51
767.00	236.39
767.32	236.34
767.65	236.31
767.97	236.20
768.30	236.12
768.62	235.98
768.95	235.84
769.27	235.76
769.60	235.65
769.92	235.53
770.25	235.40
770.57	235.30
770.90	235.21
771.22	235.13
771.55	235.00
771.87	234.93
772.20	234.87
772.52	234.86
772.85	234.84
773.17	234.75
773.50	234.64
773.82	234.54
774.15	234.38
774.47	234.25
774.80	234.18
775.12	234.09
775.45	234.02
775.77	233.96
776.09	233.89
776.42	233.86
776.74	233.80
777.07	233.74
777.39	233.67
777.72	233.60
778.04	233.52
778.36	233.44
778.69	233.38
779.01	233.33
779.33	233.20
779.66	233.03
779.98	232.97
780.31	232.91
780.63	232.88
780.95	232.83
781.28	232.76
781.60	232.67
781.92	232.59
782.25	232.53
782.57	232.46
782.89	232.40
783.22	232.33
783.54	232.24
783.86	232.20
784.19	232.12
784.51	232.13
784.83	232.04
785.16	231.99
785.48	231.92
785.80	231.88
786.12	231.83
786.45	231.80
786.77	231.76
787.09	231.70
