SpectraSuite Data File
++++++++++++++++++++++++++++++++++++
Date: Fri Feb 01 15:42:14 EST 2013
User: group
Dark Spectrum Present: No
Reference Spectrum Present: No
Number of Sampled Component Spectra: 1
Spectrometers: USB2E7196
Integration Time (usec): 35000 (USB2E7196)
Spectra Averaged: 100 (USB2E7196)
Boxcar Smoothing: 10 (USB2E7196)
Correct for Electrical Dark: No (USB2E7196)
Strobe/Lamp Enabled: No (USB2E7196)
Correct for Detector Non-linearity: No (USB2E7196)
Correct for Stray Light: No (USB2E7196)
Number of Pixels in Processed Spectrum: 2048
>>>>>Begin Processed Spectral Data<<<<<
339.09	0.00
339.48	214.84
339.86	216.51
340.24	218.40
340.63	219.36
341.01	222.68
341.39	221.90
341.78	223.50
342.16	225.03
342.54	224.79
342.93	213.54
343.31	224.32
343.69	224.90
344.07	225.37
344.46	225.77
344.84	226.16
345.22	226.38
345.60	226.65
345.99	226.83
346.37	226.97
346.75	227.08
347.13	227.14
347.52	227.20
347.90	227.28
348.28	227.32
348.66	227.39
349.05	227.35
349.43	227.40
349.81	227.44
350.19	227.48
350.57	227.54
350.96	227.61
351.34	227.73
351.72	227.80
352.10	227.88
352.48	227.96
352.87	228.03
353.25	228.10
353.63	228.13
354.01	228.19
354.39	228.26
354.77	228.34
355.15	228.43
355.54	228.50
355.92	228.54
356.30	228.61
356.68	228.74
357.06	228.83
357.44	228.87
357.82	228.90
358.20	228.97
358.58	229.06
358.97	229.09
359.35	229.14
359.73	229.24
360.11	229.29
360.49	229.33
360.87	229.35
361.25	229.39
361.63	229.46
362.01	229.51
362.39	229.47
362.77	229.51
363.15	229.53
363.53	229.51
363.91	229.52
364.29	229.52
364.67	229.44
365.05	229.46
365.43	229.47
365.81	229.50
366.19	229.53
366.57	229.52
366.95	229.51
367.33	229.50
367.71	229.46
368.09	229.44
368.47	229.41
368.85	229.40
369.23	229.38
369.61	229.33
369.99	229.32
370.37	229.33
370.75	229.31
371.13	229.26
371.51	229.24
371.89	229.18
372.27	229.10
372.65	229.03
373.03	228.99
373.41	228.94
373.78	228.89
374.16	228.76
374.54	228.69
374.92	228.67
375.30	228.56
375.68	228.46
376.06	228.40
376.44	228.34
376.82	228.27
377.19	228.18
377.57	228.10
377.95	227.99
378.33	227.92
378.71	227.78
379.09	227.71
379.47	227.67
379.84	227.60
380.22	227.55
380.60	227.49
380.98	227.40
381.36	227.32
381.73	227.23
382.11	227.18
382.49	227.12
382.87	227.04
383.25	227.02
383.62	227.07
384.00	227.01
384.38	226.96
384.76	226.94
385.13	226.92
385.51	226.86
385.89	226.81
386.27	226.78
386.64	226.79
387.02	226.75
387.40	226.65
387.78	226.66
388.15	226.63
388.53	226.59
388.91	226.58
389.29	226.56
389.66	226.56
390.04	226.55
390.42	226.56
390.79	226.53
391.17	226.49
391.55	226.39
391.92	226.37
392.30	226.35
392.68	226.32
393.05	226.32
393.43	226.37
393.81	226.39
394.18	226.40
394.56	226.40
394.94	226.45
395.31	226.51
395.69	226.56
396.06	226.63
396.44	226.67
396.82	226.68
397.19	226.78
397.57	226.80
397.95	226.85
398.32	226.87
398.70	226.95
399.07	227.06
399.45	227.12
399.82	227.22
400.20	227.29
400.58	227.39
400.95	227.45
401.33	227.53
401.70	227.67
402.08	227.77
402.45	227.89
402.83	227.98
403.20	228.09
403.58	228.16
403.95	228.30
404.33	228.44
404.71	228.56
405.08	228.74
405.46	228.89
405.83	229.07
406.21	229.22
406.58	229.38
406.96	229.49
407.33	229.69
407.70	229.89
408.08	230.15
408.45	230.37
408.83	230.63
409.20	230.84
409.58	231.04
409.95	231.28
410.33	231.56
410.70	231.81
411.08	232.08
411.45	232.38
411.82	232.64
412.20	232.99
412.57	233.41
412.95	233.69
413.32	234.09
413.69	234.45
414.07	234.88
414.44	235.35
414.82	235.85
415.19	236.39
415.56	236.94
415.94	237.48
416.31	238.11
416.68	238.74
417.06	239.44
417.43	240.11
417.81	240.92
418.18	241.73
418.55	242.58
418.93	243.48
419.30	244.39
419.67	245.37
420.04	246.32
420.42	247.32
420.79	248.48
421.16	249.64
421.54	250.84
421.91	252.07
422.28	253.33
422.66	254.66
423.03	255.97
423.40	257.32
423.77	258.72
424.15	260.13
424.52	261.57
424.89	263.15
425.26	264.71
425.64	266.13
426.01	267.70
426.38	269.34
426.75	271.01
427.13	272.73
427.50	274.52
427.87	276.41
428.24	278.30
428.61	280.05
428.99	281.98
429.36	284.10
429.73	286.18
430.10	288.20
430.47	290.23
430.85	292.32
431.22	294.54
431.59	296.94
431.96	299.19
432.33	301.69
432.70	304.14
433.08	306.91
433.45	309.56
433.82	312.16
434.19	315.07
434.56	317.86
434.93	320.50
435.30	323.09
435.68	325.92
436.05	328.71
436.42	331.48
436.79	334.00
437.16	336.70
437.53	339.52
437.90	342.30
438.27	345.05
438.64	347.89
439.01	350.47
439.38	352.69
439.75	354.85
440.13	357.36
440.50	359.66
440.87	361.52
441.24	363.47
441.61	365.61
441.98	367.08
442.35	368.90
442.72	370.75
443.09	372.58
443.46	373.57
443.83	374.17
444.20	374.70
444.57	375.52
444.94	375.76
445.31	376.08
445.68	376.45
446.05	376.50
446.42	376.15
446.79	375.76
447.16	375.35
447.53	375.00
447.90	373.85
448.27	372.65
448.64	371.08
449.01	369.93
449.37	367.93
449.74	366.02
450.11	363.76
450.48	361.28
450.85	358.77
451.22	356.67
451.59	354.65
451.96	352.69
452.33	350.06
452.70	347.73
453.07	344.92
453.43	342.04
453.80	339.27
454.17	336.56
454.54	334.00
454.91	331.25
455.28	328.58
455.65	326.08
456.02	323.66
456.38	321.49
456.75	318.81
457.12	316.57
457.49	314.35
457.86	312.19
458.23	310.34
458.59	308.27
458.96	306.19
459.33	304.31
459.70	302.45
460.07	300.93
460.43	299.17
460.80	297.50
461.17	296.04
461.54	294.58
461.91	293.16
462.27	291.69
462.64	290.43
463.01	289.12
463.38	287.81
463.74	286.38
464.11	285.25
464.48	284.23
464.85	283.09
465.21	282.25
465.58	281.33
465.95	280.25
466.32	279.38
466.68	278.44
467.05	277.56
467.42	276.72
467.78	275.80
468.15	274.97
468.52	274.35
468.88	273.48
469.25	272.69
469.62	272.08
469.98	271.42
470.35	270.78
470.72	270.17
471.08	269.53
471.45	269.06
471.82	268.55
472.18	267.96
472.55	267.56
472.92	267.01
473.28	266.53
473.65	266.07
474.02	265.62
474.38	265.26
474.75	264.94
475.11	264.56
475.48	264.34
475.85	264.13
476.21	263.93
476.58	263.75
476.94	263.68
477.31	263.51
477.67	263.38
478.04	263.28
478.41	263.23
478.77	263.23
479.14	263.15
479.50	263.13
479.87	263.21
480.23	263.31
480.60	263.37
480.96	263.47
481.33	263.68
481.69	263.90
482.06	264.12
482.42	264.33
482.79	264.60
483.15	264.93
483.52	265.30
483.88	265.61
484.25	266.01
484.61	266.37
484.98	266.79
485.34	267.34
485.71	267.92
486.07	268.54
486.44	269.14
486.80	269.88
487.17	270.59
487.53	271.41
487.90	272.23
488.26	273.16
488.62	274.16
488.99	275.15
489.35	276.16
489.72	277.30
490.08	278.53
490.44	279.80
490.81	281.10
491.17	282.43
491.54	283.93
491.90	285.48
492.26	287.14
492.63	288.90
492.99	290.64
493.36	292.55
493.72	294.59
494.08	296.68
494.45	298.93
494.81	301.31
495.17	303.72
495.54	306.35
495.90	309.03
496.26	311.81
496.63	314.70
496.99	317.83
497.35	321.04
497.72	324.41
498.08	327.89
498.44	331.53
498.80	335.45
499.17	339.45
499.53	343.62
499.89	347.97
500.26	352.47
500.62	357.19
500.98	362.13
501.34	367.20
501.71	372.58
502.07	378.03
502.43	383.62
502.79	389.41
503.16	395.42
503.52	401.71
503.88	408.18
504.24	414.87
504.60	421.73
504.97	428.88
505.33	436.18
505.69	443.88
506.05	451.68
506.41	459.56
506.78	467.75
507.14	476.15
507.50	484.83
507.86	493.88
508.22	503.07
508.59	512.29
508.95	521.88
509.31	531.64
509.67	541.71
510.03	552.06
510.39	562.66
510.75	573.44
511.12	584.41
511.48	595.68
511.84	607.12
512.20	618.70
512.56	630.62
512.92	642.81
513.28	655.18
513.64	667.64
514.00	680.35
514.37	693.31
514.73	706.38
515.09	719.48
515.45	732.81
515.81	746.44
516.17	760.48
516.53	774.60
516.89	788.86
517.25	803.02
517.61	817.43
517.97	831.92
518.33	846.36
518.69	861.09
519.05	876.12
519.41	891.36
519.77	906.89
520.13	922.40
520.49	937.80
520.85	953.27
521.21	969.06
521.57	985.38
521.93	1001.17
522.29	1017.61
522.65	1033.86
523.01	1050.01
523.37	1066.00
523.73	1082.17
524.09	1098.31
524.45	1114.59
524.81	1131.19
525.17	1148.03
525.53	1164.95
525.89	1181.77
526.25	1198.68
526.61	1215.04
526.97	1231.80
527.33	1248.20
527.68	1264.85
528.04	1281.34
528.40	1297.94
528.76	1314.93
529.12	1331.54
529.48	1348.42
529.84	1364.43
530.20	1381.05
530.56	1398.07
530.91	1415.44
531.27	1432.22
531.63	1448.64
531.99	1465.19
532.35	1481.16
532.71	1497.06
533.07	1513.21
533.42	1529.13
533.78	1545.14
534.14	1561.51
534.50	1576.79
534.86	1592.65
535.21	1607.73
535.57	1623.76
535.93	1639.18
536.29	1654.08
536.65	1669.04
537.00	1683.82
537.36	1699.08
537.72	1713.50
538.08	1727.92
538.44	1741.77
538.79	1755.60
539.15	1769.29
539.51	1783.03
539.87	1797.46
540.22	1811.23
540.58	1825.08
540.94	1838.49
541.29	1851.36
541.65	1863.99
542.01	1877.25
542.37	1889.65
542.72	1902.16
543.08	1913.90
543.44	1926.27
543.79	1937.49
544.15	1948.51
544.51	1960.07
544.87	1971.00
545.22	1981.92
545.58	1992.13
545.94	2001.93
546.29	2011.65
546.65	2021.48
547.01	2030.82
547.36	2039.43
547.72	2047.80
548.07	2055.60
548.43	2063.71
548.79	2071.80
549.14	2079.30
549.50	2086.63
549.86	2094.48
550.21	2101.72
550.57	2108.87
550.92	2115.37
551.28	2122.38
551.64	2129.55
551.99	2136.00
552.35	2142.12
552.70	2148.32
553.06	2154.29
553.41	2160.53
553.77	2166.70
554.13	2172.83
554.48	2178.95
554.84	2184.54
555.19	2189.93
555.55	2195.11
555.90	2199.77
556.26	2204.49
556.61	2209.23
556.97	2213.50
557.32	2217.51
557.68	2221.62
558.03	2225.89
558.39	2229.70
558.74	2234.32
559.10	2238.12
559.45	2241.87
559.81	2246.23
560.16	2250.07
560.52	2253.29
560.87	2256.91
561.23	2259.63
561.58	2262.59
561.94	2264.92
562.29	2267.22
562.64	2269.83
563.00	2272.32
563.35	2275.74
563.71	2278.94
564.06	2282.11
564.42	2284.90
564.77	2287.30
565.12	2289.49
565.48	2291.32
565.83	2293.11
566.19	2294.42
566.54	2295.37
566.89	2296.49
567.25	2297.02
567.60	2298.19
567.96	2299.89
568.31	2300.57
568.66	2301.64
569.02	2302.11
569.37	2302.56
569.72	2303.53
570.08	2303.58
570.43	2303.58
570.78	2302.85
571.14	2301.33
571.49	2299.98
571.84	2299.65
572.20	2298.46
572.55	2297.51
572.90	2296.05
573.26	2294.75
573.61	2293.08
573.96	2291.23
574.31	2288.27
574.67	2285.24
575.02	2281.75
575.37	2278.43
575.72	2274.49
576.08	2271.13
576.43	2267.80
576.78	2264.04
577.13	2260.81
577.49	2257.79
577.84	2254.29
578.19	2250.57
578.54	2246.95
578.90	2242.72
579.25	2237.15
579.60	2232.19
579.95	2227.09
580.30	2221.88
580.66	2216.67
581.01	2211.57
581.36	2206.58
581.71	2202.28
582.06	2197.77
582.42	2193.31
582.77	2187.93
583.12	2183.47
583.47	2178.59
583.82	2173.51
584.17	2168.27
584.53	2162.67
584.88	2157.14
585.23	2151.30
585.58	2145.89
585.93	2140.38
586.28	2135.63
586.63	2130.57
586.98	2125.53
587.34	2120.93
587.69	2116.08
588.04	2110.77
588.39	2105.26
588.74	2098.89
589.09	2092.78
589.44	2086.01
589.79	2079.89
590.14	2074.23
590.49	2067.61
590.84	2061.18
591.19	2055.21
591.54	2048.72
591.89	2041.17
592.25	2034.17
592.60	2027.00
592.95	2019.26
593.30	2011.85
593.65	2004.23
594.00	1997.20
594.35	1990.04
594.70	1981.88
595.05	1974.64
595.40	1967.43
595.75	1959.78
596.10	1953.41
596.45	1946.58
596.80	1940.48
597.15	1933.76
597.50	1926.58
597.85	1920.19
598.19	1913.64
598.54	1906.45
598.89	1899.78
599.24	1894.03
599.59	1887.10
599.94	1881.05
600.29	1874.65
600.64	1868.07
600.99	1860.59
601.34	1853.62
601.69	1846.50
602.04	1839.55
602.39	1832.14
602.74	1825.21
603.08	1818.48
603.43	1811.80
603.78	1804.49
604.13	1797.21
604.48	1789.93
604.83	1783.18
605.18	1776.06
605.53	1767.91
605.87	1759.96
606.22	1752.85
606.57	1744.85
606.92	1737.72
607.27	1730.37
607.62	1723.54
607.96	1716.24
608.31	1709.58
608.66	1702.03
609.01	1694.52
609.36	1687.08
609.70	1679.13
610.05	1671.06
610.40	1663.35
610.75	1655.02
611.10	1647.39
611.44	1639.07
611.79	1631.12
612.14	1622.43
612.49	1613.33
612.83	1605.10
613.18	1596.99
613.53	1588.86
613.88	1580.33
614.22	1572.04
614.57	1563.50
614.92	1555.55
615.27	1548.01
615.61	1539.63
615.96	1531.62
616.31	1523.99
616.65	1516.55
617.00	1509.01
617.35	1501.38
617.70	1493.01
618.04	1484.53
618.39	1476.28
618.74	1468.64
619.08	1460.34
619.43	1452.83
619.78	1445.93
620.12	1438.73
620.47	1431.11
620.82	1422.84
621.16	1415.53
621.51	1408.02
621.85	1400.42
622.20	1391.82
622.55	1383.39
622.89	1375.67
623.24	1368.07
623.59	1360.67
623.93	1353.21
624.28	1346.01
624.62	1338.51
624.97	1331.31
625.32	1324.57
625.66	1317.51
626.01	1310.31
626.35	1302.82
626.70	1295.04
627.04	1287.26
627.39	1279.48
627.73	1272.18
628.08	1265.33
628.43	1257.92
628.77	1250.37
629.12	1242.89
629.46	1235.74
629.81	1228.33
630.15	1221.05
630.50	1213.63
630.84	1205.43
631.19	1197.48
631.53	1189.88
631.88	1182.25
632.22	1174.61
632.57	1167.28
632.91	1159.74
633.26	1152.27
633.60	1144.85
633.95	1137.76
634.29	1130.80
634.64	1124.18
634.98	1116.75
635.32	1109.59
635.67	1102.97
636.01	1096.48
636.36	1089.61
636.70	1083.09
637.05	1076.49
637.39	1070.07
637.73	1063.56
638.08	1057.66
638.42	1051.67
638.77	1045.28
639.11	1038.64
639.45	1032.32
639.80	1025.64
640.14	1019.29
640.49	1012.79
640.83	1006.57
641.17	1000.34
641.52	993.93
641.86	987.46
642.20	981.62
642.55	975.28
642.89	968.84
643.23	962.28
643.58	956.41
643.92	950.24
644.26	944.19
644.61	938.08
644.95	932.01
645.29	925.44
645.64	918.65
645.98	912.37
646.32	906.61
646.66	900.58
647.01	894.77
647.35	889.04
647.69	883.17
648.04	877.62
648.38	871.78
648.72	865.85
649.06	859.76
649.41	853.93
649.75	847.95
650.09	842.05
650.43	836.28
650.78	830.14
651.12	824.15
651.46	818.50
651.80	812.84
652.14	807.47
652.49	802.10
652.83	796.97
653.17	791.20
653.51	785.42
653.85	780.02
654.20	774.30
654.54	768.31
654.88	762.60
655.22	756.67
655.56	751.06
655.90	745.59
656.25	740.34
656.59	734.92
656.93	729.90
657.27	724.76
657.61	719.26
657.95	714.25
658.29	709.21
658.64	703.95
658.98	698.54
659.32	693.11
659.66	687.87
660.00	682.50
660.34	677.62
660.68	672.76
661.02	667.74
661.36	663.12
661.70	658.59
662.05	654.26
662.39	649.99
662.73	645.50
663.07	641.12
663.41	636.69
663.75	632.22
664.09	627.70
664.43	623.28
664.77	619.25
665.11	614.95
665.45	610.86
665.79	606.78
666.13	602.67
666.47	598.55
666.81	594.41
667.15	590.34
667.49	586.40
667.83	582.56
668.17	578.63
668.51	574.51
668.85	570.51
669.19	566.66
669.53	562.79
669.87	558.83
670.21	555.15
670.55	551.53
670.89	548.06
671.23	544.55
671.57	541.07
671.91	537.47
672.25	533.98
672.58	530.43
672.92	527.02
673.26	523.87
673.60	520.76
673.94	517.57
674.28	514.68
674.62	511.78
674.96	508.68
675.30	505.75
675.64	502.87
675.97	500.12
676.31	497.22
676.65	494.29
676.99	491.63
677.33	488.72
677.67	485.90
678.01	482.87
678.34	479.95
678.68	477.02
679.02	474.19
679.36	471.45
679.70	468.73
680.04	466.01
680.37	463.08
680.71	460.29
681.05	457.79
681.39	455.01
681.73	452.34
682.06	449.85
682.40	447.32
682.74	444.82
683.08	442.28
683.42	439.73
683.75	437.29
684.09	434.82
684.43	432.39
684.77	429.92
685.10	427.61
685.44	425.24
685.78	422.98
686.12	420.81
686.45	418.53
686.79	416.21
687.13	414.00
687.46	411.89
687.80	409.72
688.14	407.46
688.48	405.44
688.81	403.18
689.15	401.01
689.49	398.88
689.82	396.78
690.16	394.69
690.50	392.70
690.83	390.75
691.17	388.71
691.51	386.82
691.84	384.95
692.18	383.01
692.52	381.03
692.85	379.15
693.19	377.24
693.52	375.41
693.86	373.62
694.20	371.86
694.53	370.06
694.87	368.23
695.21	366.46
695.54	364.62
695.88	362.91
696.21	361.21
696.55	359.53
696.88	357.82
697.22	356.15
697.56	354.56
697.89	352.90
698.23	351.31
698.56	349.70
698.90	348.16
699.23	346.53
699.57	345.01
699.90	343.43
700.24	341.87
700.58	340.33
700.91	338.82
701.25	337.31
701.58	336.00
701.92	334.66
702.25	333.30
702.59	331.95
702.92	330.61
703.26	329.29
703.59	327.98
703.93	326.80
704.26	325.59
704.60	324.25
704.93	322.90
705.26	321.65
705.60	320.42
705.93	319.24
706.27	318.18
706.60	317.14
706.94	316.08
707.27	314.96
707.61	313.91
707.94	312.87
708.27	311.80
708.61	310.65
708.94	309.58
709.28	308.58
709.61	307.65
709.94	306.69
710.28	305.66
710.61	304.70
710.95	303.61
711.28	302.69
711.61	301.75
711.95	300.87
712.28	299.91
712.61	298.95
712.95	298.02
713.28	297.13
713.61	296.20
713.95	295.26
714.28	294.39
714.61	293.48
714.95	292.64
715.28	291.80
715.61	290.91
715.95	290.08
716.28	289.22
716.61	288.36
716.95	287.56
717.28	286.84
717.61	286.03
717.94	285.30
718.28	284.52
718.61	283.77
718.94	283.12
719.27	282.46
719.61	281.86
719.94	281.18
720.27	280.47
720.60	279.81
720.94	279.21
721.27	278.66
721.60	278.09
721.93	277.48
722.27	276.95
722.60	276.46
722.93	275.92
723.26	275.41
723.59	274.84
723.93	274.32
724.26	273.77
724.59	273.23
724.92	272.68
725.25	272.20
725.59	271.73
725.92	271.22
726.25	270.70
726.58	270.20
726.91	269.69
727.24	269.21
727.57	268.78
727.91	268.28
728.24	267.80
728.57	267.37
728.90	266.93
729.23	266.45
729.56	266.00
729.89	265.50
730.22	265.03
730.55	264.62
730.89	264.17
731.22	263.73
731.55	263.35
731.88	262.96
732.21	262.53
732.54	262.09
732.87	261.63
733.20	261.29
733.53	260.89
733.86	260.56
734.19	260.18
734.52	259.82
734.85	259.53
735.18	259.11
735.51	258.71
735.84	258.32
736.17	258.00
736.50	257.59
736.83	257.38
737.16	257.05
737.49	256.71
737.82	256.35
738.15	256.03
738.48	255.66
738.81	255.33
739.14	255.01
739.47	254.69
739.80	254.39
740.13	254.10
740.46	253.76
740.79	253.42
741.12	253.12
741.45	252.78
741.78	252.45
742.11	252.18
742.44	251.85
742.77	251.59
743.10	251.25
743.43	250.95
743.75	250.54
744.08	250.39
744.41	250.05
744.74	249.78
745.07	249.48
745.40	249.25
745.73	249.02
746.06	248.71
746.39	248.43
746.71	248.13
747.04	247.80
747.37	247.53
747.70	247.26
748.03	247.00
748.36	246.75
748.68	246.49
749.01	246.23
749.34	246.02
749.67	245.78
750.00	245.54
750.33	245.39
750.65	245.19
750.98	244.84
751.31	244.66
751.64	244.43
751.97	244.29
752.29	244.05
752.62	243.76
752.95	243.57
753.28	243.35
753.60	243.16
753.93	242.98
754.26	242.80
754.59	242.55
754.91	242.34
755.24	242.11
755.57	241.89
755.90	241.70
756.22	241.47
756.55	241.26
756.88	241.09
757.20	240.84
757.53	240.60
757.86	240.43
758.19	240.25
758.51	240.11
758.84	239.87
759.17	239.71
759.49	239.57
759.82	239.46
760.15	239.31
760.47	239.16
760.80	239.00
761.13	238.86
761.45	238.75
761.78	238.61
762.11	238.52
762.43	238.40
762.76	238.26
763.08	238.16
763.41	238.02
763.74	237.87
764.06	237.71
764.39	237.60
764.71	237.47
765.04	237.37
765.37	237.20
765.69	237.09
766.02	236.96
766.34	236.82
766.67	236.68
767.00	236.58
767.32	236.50
767.65	236.45
767.97	236.33
768.30	236.22
768.62	236.13
768.95	236.00
769.27	235.87
769.60	235.76
769.92	235.60
770.25	235.48
770.57	235.39
770.90	235.36
771.22	235.28
771.55	235.17
771.87	235.06
772.20	234.99
772.52	234.98
772.85	234.99
773.17	234.92
773.50	234.83
773.82	234.74
774.15	234.62
774.47	234.46
774.80	234.38
775.12	234.29
775.45	234.20
775.77	234.13
776.09	234.06
776.42	234.03
776.74	234.01
777.07	233.94
777.39	233.86
777.72	233.76
778.04	233.69
778.36	233.62
778.69	233.58
779.01	233.53
779.33	233.39
779.66	233.23
779.98	233.14
780.31	233.08
780.63	233.05
780.95	232.99
781.28	232.96
781.60	232.88
781.92	232.81
782.25	232.75
782.57	232.67
782.89	232.65
783.22	232.58
783.54	232.48
783.86	232.44
784.19	232.37
784.51	232.35
784.83	232.30
785.16	232.26
785.48	232.17
785.80	232.14
786.12	232.08
786.45	232.03
786.77	232.02
787.09	231.99
