SpectraSuite Data File
++++++++++++++++++++++++++++++++++++
Date: Fri Feb 01 16:33:52 EST 2013
User: group
Dark Spectrum Present: No
Reference Spectrum Present: No
Number of Sampled Component Spectra: 1
Spectrometers: USB2E7196
Integration Time (usec): 35000 (USB2E7196)
Spectra Averaged: 100 (USB2E7196)
Boxcar Smoothing: 10 (USB2E7196)
Correct for Electrical Dark: No (USB2E7196)
Strobe/Lamp Enabled: No (USB2E7196)
Correct for Detector Non-linearity: No (USB2E7196)
Correct for Stray Light: No (USB2E7196)
Number of Pixels in Processed Spectrum: 2048
>>>>>Begin Processed Spectral Data<<<<<
339.09	0.00
339.48	213.94
339.86	215.50
340.24	216.49
340.63	218.55
341.01	220.91
341.39	221.45
341.78	222.07
342.16	223.27
342.54	223.89
342.93	212.29
343.31	223.02
343.69	223.55
344.07	223.99
344.46	224.39
344.84	224.72
345.22	224.96
345.60	225.15
345.99	225.32
346.37	225.42
346.75	225.50
347.13	225.59
347.52	225.59
347.90	225.62
348.28	225.64
348.66	225.69
349.05	225.69
349.43	225.74
349.81	225.80
350.19	225.82
350.57	225.88
350.96	225.93
351.34	226.00
351.72	226.06
352.10	226.16
352.48	226.25
352.87	226.31
353.25	226.38
353.63	226.50
354.01	226.57
354.39	226.66
354.77	226.75
355.15	226.83
355.54	226.95
355.92	226.99
356.30	227.07
356.68	227.24
357.06	227.30
357.44	227.37
357.82	227.40
358.20	227.50
358.58	227.55
358.97	227.62
359.35	227.72
359.73	227.86
360.11	227.92
360.49	227.96
360.87	228.01
361.25	228.06
361.63	228.13
362.01	228.22
362.39	228.24
362.77	228.30
363.15	228.31
363.53	228.31
363.91	228.34
364.29	228.37
364.67	228.28
365.05	228.31
365.43	228.38
365.81	228.42
366.19	228.44
366.57	228.50
366.95	228.49
367.33	228.45
367.71	228.39
368.09	228.43
368.47	228.48
368.85	228.50
369.23	228.48
369.61	228.41
369.99	228.39
370.37	228.40
370.75	228.39
371.13	228.35
371.51	228.31
371.89	228.29
372.27	228.26
372.65	228.21
373.03	228.18
373.41	228.09
373.78	228.02
374.16	227.96
374.54	227.88
374.92	227.83
375.30	227.80
375.68	227.72
376.06	227.65
376.44	227.55
376.82	227.49
377.19	227.44
377.57	227.40
377.95	227.31
378.33	227.23
378.71	227.12
379.09	227.07
379.47	227.03
379.84	226.95
380.22	226.88
380.60	226.84
380.98	226.76
381.36	226.69
381.73	226.62
382.11	226.58
382.49	226.50
382.87	226.43
383.25	226.36
383.62	226.43
384.00	226.36
384.38	226.30
384.76	226.25
385.13	226.23
385.51	226.12
385.89	226.06
386.27	226.03
386.64	225.97
387.02	225.92
387.40	225.83
387.78	225.77
388.15	225.72
388.53	225.67
388.91	225.63
389.29	225.60
389.66	225.61
390.04	225.56
390.42	225.56
390.79	225.55
391.17	225.52
391.55	225.38
391.92	225.36
392.30	225.37
392.68	225.37
393.05	225.33
393.43	225.33
393.81	225.35
394.18	225.34
394.56	225.34
394.94	225.39
395.31	225.41
395.69	225.47
396.06	225.49
396.44	225.54
396.82	225.57
397.19	225.64
397.57	225.65
397.95	225.70
398.32	225.70
398.70	225.73
399.07	225.77
399.45	225.82
399.82	225.88
400.20	225.93
400.58	225.97
400.95	226.01
401.33	226.14
401.70	226.30
402.08	226.38
402.45	226.48
402.83	226.58
403.20	226.69
403.58	226.80
403.95	226.92
404.33	227.05
404.71	227.16
405.08	227.34
405.46	227.46
405.83	227.59
406.21	227.74
406.58	227.90
406.96	228.07
407.33	228.25
407.70	228.42
408.08	228.69
408.45	228.90
408.83	229.19
409.20	229.37
409.58	229.56
409.95	229.83
410.33	230.09
410.70	230.32
411.08	230.61
411.45	230.86
411.82	231.16
412.20	231.51
412.57	231.94
412.95	232.24
413.32	232.65
413.69	233.06
414.07	233.54
414.44	234.03
414.82	234.52
415.19	235.05
415.56	235.64
415.94	236.17
416.31	236.80
416.68	237.38
417.06	238.09
417.43	238.75
417.81	239.50
418.18	240.26
418.55	241.09
418.93	241.97
419.30	242.86
419.67	243.82
420.04	244.73
420.42	245.72
420.79	246.89
421.16	248.05
421.54	249.23
421.91	250.43
422.28	251.62
422.66	252.93
423.03	254.25
423.40	255.59
423.77	257.00
424.15	258.38
424.52	259.87
424.89	261.49
425.26	263.01
425.64	264.45
426.01	266.08
426.38	267.75
426.75	269.39
427.13	271.14
427.50	272.90
427.87	274.77
428.24	276.55
428.61	278.25
428.99	280.17
429.36	282.27
429.73	284.30
430.10	286.33
430.47	288.34
430.85	290.50
431.22	292.69
431.59	295.03
431.96	297.28
432.33	299.71
432.70	302.06
433.08	304.83
433.45	307.46
433.82	310.02
434.19	312.85
434.56	315.68
434.93	318.32
435.30	320.92
435.68	323.81
436.05	326.68
436.42	329.49
436.79	332.00
437.16	334.67
437.53	337.49
437.90	340.28
438.27	343.04
438.64	345.78
439.01	348.36
439.38	350.57
439.75	352.74
440.13	355.25
440.50	357.55
440.87	359.41
441.24	361.35
441.61	363.54
441.98	365.05
442.35	366.79
442.72	368.59
443.09	370.43
443.46	371.42
443.83	372.00
444.20	372.48
444.57	373.29
444.94	373.55
445.31	373.92
445.68	374.27
446.05	374.37
446.42	374.01
446.79	373.60
447.16	373.18
447.53	372.87
447.90	371.77
448.27	370.66
448.64	369.11
449.01	367.95
449.37	365.98
449.74	364.12
450.11	361.93
450.48	359.49
450.85	356.97
451.22	354.81
451.59	352.79
451.96	350.87
452.33	348.30
452.70	345.97
453.07	343.15
453.43	340.32
453.80	337.57
454.17	334.90
454.54	332.38
454.91	329.70
455.28	327.04
455.65	324.53
456.02	322.07
456.38	319.96
456.75	317.35
457.12	315.12
457.49	312.91
457.86	310.72
458.23	308.89
458.59	306.88
458.96	304.86
459.33	303.04
459.70	301.20
460.07	299.76
460.43	298.05
460.80	296.46
461.17	294.99
461.54	293.51
461.91	292.10
462.27	290.70
462.64	289.46
463.01	288.13
463.38	286.82
463.74	285.49
464.11	284.29
464.48	283.26
464.85	282.17
465.21	281.32
465.58	280.40
465.95	279.35
466.32	278.43
466.68	277.49
467.05	276.63
467.42	275.77
467.78	274.82
468.15	273.92
468.52	273.28
468.88	272.44
469.25	271.67
469.62	271.05
469.98	270.37
470.35	269.76
470.72	269.14
471.08	268.55
471.45	268.03
471.82	267.51
472.18	266.91
472.55	266.47
472.92	265.95
473.28	265.52
473.65	265.04
474.02	264.63
474.38	264.27
474.75	263.94
475.11	263.61
475.48	263.38
475.85	263.18
476.21	262.93
476.58	262.78
476.94	262.63
477.31	262.48
477.67	262.32
478.04	262.19
478.41	262.16
478.77	262.17
479.14	262.07
479.50	262.12
479.87	262.20
480.23	262.29
480.60	262.36
480.96	262.45
481.33	262.65
481.69	262.83
482.06	263.04
482.42	263.25
482.79	263.51
483.15	263.81
483.52	264.19
483.88	264.56
484.25	264.92
484.61	265.35
484.98	265.76
485.34	266.31
485.71	266.90
486.07	267.50
486.44	268.07
486.80	268.80
487.17	269.49
487.53	270.28
487.90	271.12
488.26	272.05
488.62	273.01
488.99	274.03
489.35	275.09
489.72	276.21
490.08	277.39
490.44	278.63
490.81	279.96
491.17	281.31
491.54	282.80
491.90	284.35
492.26	285.98
492.63	287.75
492.99	289.52
493.36	291.43
493.72	293.51
494.08	295.58
494.45	297.83
494.81	300.23
495.17	302.71
495.54	305.27
495.90	307.96
496.26	310.78
496.63	313.76
496.99	316.87
497.35	320.16
497.72	323.59
498.08	327.14
498.44	330.84
498.80	334.79
499.17	338.84
499.53	343.04
499.89	347.48
500.26	352.00
500.62	356.77
500.98	361.72
501.34	366.79
501.71	372.17
502.07	377.63
502.43	383.25
502.79	389.05
503.16	395.10
503.52	401.38
503.88	407.82
504.24	414.47
504.60	421.39
504.97	428.47
505.33	435.76
505.69	443.47
506.05	451.24
506.41	459.11
506.78	467.28
507.14	475.71
507.50	484.39
507.86	493.43
508.22	502.57
508.59	511.82
508.95	521.39
509.31	531.26
509.67	541.33
510.03	551.64
510.39	562.25
510.75	573.13
511.12	584.09
511.48	595.37
511.84	606.84
512.20	618.32
512.56	630.27
512.92	642.43
513.28	654.79
513.64	667.27
514.00	679.98
514.37	692.88
514.73	705.97
515.09	718.98
515.45	732.33
515.81	745.88
516.17	759.84
516.53	773.94
516.89	788.09
517.25	802.20
517.61	816.56
517.97	830.93
518.33	845.31
518.69	860.06
519.05	874.95
519.41	890.03
519.77	905.50
520.13	920.92
520.49	936.36
520.85	951.60
521.21	967.21
521.57	983.39
521.93	999.11
522.29	1015.42
522.65	1031.57
523.01	1047.60
523.37	1063.53
523.73	1079.65
524.09	1095.71
524.45	1111.77
524.81	1128.45
525.17	1145.18
525.53	1162.07
525.89	1178.86
526.25	1195.55
526.61	1211.87
526.97	1228.56
527.33	1244.95
527.68	1261.42
528.04	1277.77
528.40	1294.30
528.76	1311.36
529.12	1327.81
529.48	1344.65
529.84	1360.46
530.20	1377.08
530.56	1393.99
530.91	1411.36
531.27	1428.01
531.63	1444.35
531.99	1460.98
532.35	1476.73
532.71	1492.63
533.07	1508.75
533.42	1524.68
533.78	1540.77
534.14	1556.91
534.50	1572.04
534.86	1587.88
535.21	1602.92
535.57	1618.74
535.93	1634.10
536.29	1648.64
536.65	1663.58
537.00	1678.07
537.36	1693.36
537.72	1707.61
538.08	1721.80
538.44	1735.46
538.79	1749.09
539.15	1762.53
539.51	1776.13
539.87	1790.25
540.22	1803.65
540.58	1817.10
540.94	1830.08
541.29	1842.51
541.65	1855.07
542.01	1868.17
542.37	1880.27
542.72	1892.56
543.08	1904.26
543.44	1916.51
543.79	1927.75
544.15	1938.66
544.51	1950.22
544.87	1960.95
545.22	1971.71
545.58	1981.91
545.94	1991.70
546.29	2001.59
546.65	2011.51
547.01	2020.78
547.36	2029.69
547.72	2038.17
548.07	2046.26
548.43	2054.41
548.79	2062.47
549.14	2070.12
549.50	2077.43
549.86	2084.91
550.21	2092.30
550.57	2099.44
550.92	2106.14
551.28	2113.03
551.64	2120.10
551.99	2126.59
552.35	2132.71
552.70	2138.89
553.06	2144.97
553.41	2151.16
553.77	2157.11
554.13	2163.08
554.48	2169.03
554.84	2174.42
555.19	2179.63
555.55	2184.65
555.90	2189.10
556.26	2194.06
556.61	2198.71
556.97	2203.13
557.32	2207.37
557.68	2211.50
558.03	2215.79
558.39	2219.31
558.74	2223.91
559.10	2227.78
559.45	2231.47
559.81	2235.84
560.16	2239.61
560.52	2242.81
560.87	2246.22
561.23	2248.83
561.58	2251.78
561.94	2254.44
562.29	2256.66
562.64	2259.53
563.00	2262.18
563.35	2265.78
563.71	2268.99
564.06	2272.11
564.42	2274.87
564.77	2277.57
565.12	2279.94
565.48	2281.88
565.83	2284.01
566.19	2285.57
566.54	2286.44
566.89	2287.68
567.25	2288.37
567.60	2289.67
567.96	2291.41
568.31	2292.24
568.66	2293.49
569.02	2294.03
569.37	2294.32
569.72	2295.54
570.08	2295.84
570.43	2295.81
570.78	2295.17
571.14	2293.64
571.49	2292.38
571.84	2292.09
572.20	2291.02
572.55	2289.93
572.90	2288.22
573.26	2286.76
573.61	2285.07
573.96	2283.47
574.31	2280.40
574.67	2277.52
575.02	2274.03
575.37	2270.62
575.72	2267.02
576.08	2263.69
576.43	2260.41
576.78	2256.79
577.13	2253.37
577.49	2250.11
577.84	2246.84
578.19	2243.13
578.54	2239.60
578.90	2235.59
579.25	2230.14
579.60	2225.18
579.95	2220.34
580.30	2215.49
580.66	2210.38
581.01	2205.36
581.36	2200.39
581.71	2196.44
582.06	2192.04
582.42	2187.72
582.77	2182.67
583.12	2178.20
583.47	2173.67
583.82	2168.87
584.17	2163.80
584.53	2158.51
584.88	2152.99
585.23	2147.24
585.58	2141.88
585.93	2136.40
586.28	2131.54
586.63	2126.63
586.98	2121.50
587.34	2116.68
587.69	2111.88
588.04	2106.79
588.39	2101.31
588.74	2094.84
589.09	2088.76
589.44	2082.09
589.79	2076.10
590.14	2070.39
590.49	2063.78
590.84	2057.31
591.19	2051.14
591.54	2044.65
591.89	2037.44
592.25	2030.80
592.60	2023.57
592.95	2016.01
593.30	2008.77
593.65	2001.22
594.00	1994.16
594.35	1987.05
594.70	1979.13
595.05	1972.05
595.40	1964.76
595.75	1957.26
596.10	1951.21
596.45	1944.60
596.80	1938.44
597.15	1931.83
597.50	1924.98
597.85	1918.52
598.19	1911.97
598.54	1905.19
598.89	1898.58
599.24	1892.57
599.59	1885.90
599.94	1879.74
600.29	1873.53
600.64	1866.93
600.99	1859.69
601.34	1853.06
601.69	1846.14
602.04	1839.34
602.39	1831.96
602.74	1825.27
603.08	1818.63
603.43	1811.83
603.78	1804.52
604.13	1797.47
604.48	1790.26
604.83	1783.29
605.18	1776.69
605.53	1768.74
605.87	1760.64
606.22	1753.50
606.57	1745.44
606.92	1737.97
607.27	1730.82
607.62	1723.88
607.96	1716.73
608.31	1710.11
608.66	1702.40
609.01	1694.94
609.36	1687.48
609.70	1679.50
610.05	1671.39
610.40	1663.64
610.75	1655.38
611.10	1647.57
611.44	1638.90
611.79	1630.84
612.14	1622.14
612.49	1612.69
612.83	1604.20
613.18	1596.15
613.53	1587.94
613.88	1579.58
614.22	1571.48
614.57	1562.93
614.92	1554.98
615.27	1547.58
615.61	1539.26
615.96	1531.21
616.31	1523.61
616.65	1516.22
617.00	1508.72
617.35	1501.05
617.70	1492.81
618.04	1484.42
618.39	1476.28
618.74	1468.84
619.08	1460.47
619.43	1453.05
619.78	1446.20
620.12	1439.15
620.47	1431.77
620.82	1423.66
621.16	1416.15
621.51	1408.44
621.85	1400.78
622.20	1392.37
622.55	1383.89
622.89	1376.08
623.24	1368.42
623.59	1360.91
623.93	1353.33
624.28	1346.06
624.62	1338.60
624.97	1331.46
625.32	1324.67
625.66	1317.65
626.01	1310.52
626.35	1303.24
626.70	1295.40
627.04	1287.76
627.39	1279.96
627.73	1272.39
628.08	1265.53
628.43	1258.33
628.77	1251.08
629.12	1243.65
629.46	1236.47
629.81	1228.90
630.15	1221.53
630.50	1214.14
630.84	1205.91
631.19	1197.99
631.53	1190.41
631.88	1182.79
632.22	1175.07
632.57	1167.71
632.91	1160.20
633.26	1152.70
633.60	1145.28
633.95	1138.10
634.29	1130.94
634.64	1124.25
634.98	1116.94
635.32	1109.76
635.67	1103.03
636.01	1096.31
636.36	1089.57
636.70	1082.91
637.05	1076.47
637.39	1070.03
637.73	1063.58
638.08	1057.69
638.42	1051.67
638.77	1045.18
639.11	1038.65
639.45	1032.30
639.80	1025.71
640.14	1019.36
640.49	1012.93
640.83	1006.66
641.17	1000.47
641.52	994.22
641.86	987.79
642.20	981.92
642.55	975.55
642.89	969.18
643.23	962.61
643.58	956.84
643.92	950.70
644.26	944.67
644.61	938.64
644.95	932.66
645.29	926.24
645.64	919.55
645.98	913.28
646.32	907.36
646.66	901.30
647.01	895.43
647.35	889.63
647.69	883.62
648.04	878.03
648.38	872.28
648.72	866.31
649.06	860.30
649.41	854.31
649.75	848.44
650.09	842.45
650.43	836.69
650.78	830.42
651.12	824.45
651.46	818.68
651.80	813.03
652.14	807.62
652.49	802.22
652.83	797.05
653.17	791.41
653.51	785.70
653.85	780.28
654.20	774.65
654.54	768.59
654.88	762.89
655.22	757.00
655.56	751.29
655.90	745.83
656.25	740.57
656.59	735.32
656.93	730.19
657.27	725.10
657.61	719.68
657.95	714.55
658.29	709.45
658.64	704.17
658.98	698.78
659.32	693.24
659.66	688.01
660.00	682.70
660.34	677.77
660.68	672.89
661.02	667.88
661.36	663.18
661.70	658.78
662.05	654.37
662.39	650.10
662.73	645.60
663.07	641.19
663.41	636.75
663.75	632.22
664.09	627.61
664.43	623.18
664.77	619.07
665.11	614.86
665.45	610.69
665.79	606.64
666.13	602.54
666.47	598.41
666.81	594.25
667.15	590.11
667.49	586.15
667.83	582.27
668.17	578.32
668.51	574.26
668.85	570.17
669.19	566.30
669.53	562.48
669.87	558.67
670.21	554.97
670.55	551.28
670.89	547.83
671.23	544.51
671.57	541.00
671.91	537.43
672.25	533.85
672.58	530.36
672.92	526.90
673.26	523.68
673.60	520.53
673.94	517.43
674.28	514.51
674.62	511.51
674.96	508.43
675.30	505.50
675.64	502.56
675.97	499.77
676.31	496.93
676.65	493.95
676.99	491.17
677.33	488.22
677.67	485.44
678.01	482.42
678.34	479.35
678.68	476.46
679.02	473.67
679.36	470.94
679.70	468.20
680.04	465.50
680.37	462.63
680.71	459.88
681.05	457.20
681.39	454.45
681.73	451.86
682.06	449.35
682.40	446.89
682.74	444.36
683.08	441.81
683.42	439.23
683.75	436.70
684.09	434.14
684.43	431.75
684.77	429.28
685.10	426.91
685.44	424.63
685.78	422.30
686.12	420.04
686.45	417.73
686.79	415.47
687.13	413.25
687.46	411.12
687.80	408.95
688.14	406.70
688.48	404.64
688.81	402.41
689.15	400.23
689.49	398.01
689.82	395.93
690.16	393.82
690.50	391.89
690.83	390.00
691.17	388.03
691.51	386.14
691.84	384.29
692.18	382.37
692.52	380.41
692.85	378.52
693.19	376.69
693.52	374.85
693.86	372.99
694.20	371.16
694.53	369.33
694.87	367.44
695.21	365.69
695.54	363.87
695.88	362.07
696.21	360.30
696.55	358.64
696.88	356.89
697.22	355.28
697.56	353.57
697.89	351.88
698.23	350.29
698.56	348.66
698.90	347.05
699.23	345.44
699.57	343.89
699.90	342.33
700.24	340.77
700.58	339.25
700.91	337.78
701.25	336.35
701.58	334.96
701.92	333.65
702.25	332.31
702.59	330.98
702.92	329.70
703.26	328.41
703.59	327.11
703.93	325.97
704.26	324.71
704.60	323.42
704.93	322.17
705.26	320.90
705.60	319.71
705.93	318.53
706.27	317.47
706.60	316.38
706.94	315.28
707.27	314.11
707.61	313.05
707.94	312.00
708.27	310.90
708.61	309.84
708.94	308.80
709.28	307.79
709.61	306.79
709.94	305.83
710.28	304.85
710.61	303.86
710.95	302.80
711.28	301.92
711.61	301.00
711.95	300.05
712.28	299.12
712.61	298.13
712.95	297.22
713.28	296.34
713.61	295.44
713.95	294.58
714.28	293.74
714.61	292.90
714.95	292.07
715.28	291.24
715.61	290.36
715.95	289.52
716.28	288.63
716.61	287.82
716.95	286.98
717.28	286.25
717.61	285.47
717.94	284.78
718.28	283.98
718.61	283.28
718.94	282.60
719.27	281.93
719.61	281.31
719.94	280.66
720.27	279.97
720.60	279.32
720.94	278.71
721.27	278.14
721.60	277.57
721.93	276.96
722.27	276.40
722.60	275.88
722.93	275.32
723.26	274.80
723.59	274.24
723.93	273.68
724.26	273.09
724.59	272.51
724.92	271.95
725.25	271.40
725.59	270.88
725.92	270.40
726.25	269.89
726.58	269.45
726.91	268.96
727.24	268.46
727.57	267.98
727.91	267.46
728.24	266.94
728.57	266.42
728.90	265.96
729.23	265.44
729.56	265.00
729.89	264.51
730.22	264.01
730.55	263.52
730.89	263.09
731.22	262.65
731.55	262.25
731.88	261.83
732.21	261.42
732.54	261.00
732.87	260.54
733.20	260.17
733.53	259.72
733.86	259.30
734.19	258.90
734.52	258.49
734.85	258.16
735.18	257.77
735.51	257.43
735.84	257.05
736.17	256.72
736.50	256.30
736.83	256.08
737.16	255.73
737.49	255.42
737.82	255.04
738.15	254.72
738.48	254.39
738.81	254.02
739.14	253.68
739.47	253.33
739.80	253.03
740.13	252.71
740.46	252.39
740.79	252.08
741.12	251.76
741.45	251.47
741.78	251.11
742.11	250.86
742.44	250.52
742.77	250.25
743.10	249.95
743.43	249.68
743.75	249.28
744.08	249.17
744.41	248.87
744.74	248.63
745.07	248.33
745.40	248.09
745.73	247.86
746.06	247.58
746.39	247.32
746.71	247.05
747.04	246.75
747.37	246.48
747.70	246.26
748.03	246.00
748.36	245.77
748.68	245.57
749.01	245.30
749.34	245.08
749.67	244.84
750.00	244.61
750.33	244.44
750.65	244.27
750.98	243.89
751.31	243.68
751.64	243.49
751.97	243.33
752.29	243.11
752.62	242.89
752.95	242.69
753.28	242.49
753.60	242.30
753.93	242.13
754.26	241.92
754.59	241.68
754.91	241.47
755.24	241.30
755.57	241.11
755.90	240.89
756.22	240.67
756.55	240.48
756.88	240.29
757.20	240.08
757.53	239.86
757.86	239.73
758.19	239.60
758.51	239.42
758.84	239.22
759.17	239.04
759.49	238.87
759.82	238.70
760.15	238.55
760.47	238.38
760.80	238.19
761.13	238.06
761.45	237.93
761.78	237.80
762.11	237.64
762.43	237.44
762.76	237.31
763.08	237.22
763.41	237.07
763.74	236.92
764.06	236.77
764.39	236.61
764.71	236.44
765.04	236.24
765.37	236.09
765.69	235.96
766.02	235.81
766.34	235.67
766.67	235.56
767.00	235.47
767.32	235.43
767.65	235.40
767.97	235.31
768.30	235.19
768.62	235.05
768.95	234.93
769.27	234.81
769.60	234.72
769.92	234.60
770.25	234.48
770.57	234.35
770.90	234.23
771.22	234.17
771.55	234.06
771.87	233.98
772.20	233.86
772.52	233.82
772.85	233.88
773.17	233.82
773.50	233.72
773.82	233.62
774.15	233.44
774.47	233.30
774.80	233.19
775.12	233.12
775.45	233.08
775.77	233.00
776.09	232.97
776.42	232.90
776.74	232.81
777.07	232.72
777.39	232.70
777.72	232.63
778.04	232.58
778.36	232.49
778.69	232.42
779.01	232.39
779.33	232.26
779.66	232.07
779.98	232.00
780.31	231.94
780.63	231.92
780.95	231.90
781.28	231.82
781.60	231.73
781.92	231.66
782.25	231.57
782.57	231.52
782.89	231.44
783.22	231.36
783.54	231.28
783.86	231.23
784.19	231.15
784.51	231.12
784.83	231.02
785.16	230.98
785.48	230.94
785.80	230.90
786.12	230.85
786.45	230.80
786.77	230.75
787.09	230.72
