SpectraSuite Data File
++++++++++++++++++++++++++++++++++++
Date: Fri Feb 01 16:32:23 EST 2013
User: group
Dark Spectrum Present: No
Reference Spectrum Present: No
Number of Sampled Component Spectra: 1
Spectrometers: USB2E7196
Integration Time (usec): 35000 (USB2E7196)
Spectra Averaged: 100 (USB2E7196)
Boxcar Smoothing: 10 (USB2E7196)
Correct for Electrical Dark: No (USB2E7196)
Strobe/Lamp Enabled: No (USB2E7196)
Correct for Detector Non-linearity: No (USB2E7196)
Correct for Stray Light: No (USB2E7196)
Number of Pixels in Processed Spectrum: 2048
>>>>>Begin Processed Spectral Data<<<<<
339.09	0.00
339.48	214.27
339.86	215.00
340.24	217.20
340.63	218.14
341.01	220.78
341.39	221.38
341.78	222.20
342.16	223.88
342.54	224.08
342.93	212.32
343.31	223.06
343.69	223.58
344.07	224.05
344.46	224.45
344.84	224.86
345.22	225.09
345.60	225.30
345.99	225.48
346.37	225.60
346.75	225.68
347.13	225.73
347.52	225.77
347.90	225.84
348.28	225.85
348.66	225.94
349.05	225.93
349.43	225.96
349.81	226.04
350.19	226.12
350.57	226.17
350.96	226.24
351.34	226.33
351.72	226.41
352.10	226.51
352.48	226.59
352.87	226.59
353.25	226.66
353.63	226.74
354.01	226.82
354.39	226.92
354.77	227.02
355.15	227.13
355.54	227.16
355.92	227.20
356.30	227.30
356.68	227.47
357.06	227.56
357.44	227.62
357.82	227.68
358.20	227.73
358.58	227.78
358.97	227.83
359.35	227.91
359.73	227.98
360.11	228.03
360.49	228.08
360.87	228.17
361.25	228.23
361.63	228.29
362.01	228.30
362.39	228.34
362.77	228.37
363.15	228.42
363.53	228.48
363.91	228.48
364.29	228.52
364.67	228.42
365.05	228.44
365.43	228.44
365.81	228.44
366.19	228.51
366.57	228.56
366.95	228.58
367.33	228.53
367.71	228.53
368.09	228.55
368.47	228.54
368.85	228.49
369.23	228.46
369.61	228.42
369.99	228.44
370.37	228.38
370.75	228.40
371.13	228.35
371.51	228.30
371.89	228.29
372.27	228.26
372.65	228.23
373.03	228.16
373.41	228.13
373.78	228.08
374.16	227.98
374.54	227.87
374.92	227.82
375.30	227.77
375.68	227.68
376.06	227.60
376.44	227.56
376.82	227.52
377.19	227.48
377.57	227.40
377.95	227.30
378.33	227.22
378.71	227.10
379.09	227.03
379.47	226.98
379.84	226.91
380.22	226.81
380.60	226.74
380.98	226.69
381.36	226.63
381.73	226.54
382.11	226.50
382.49	226.48
382.87	226.39
383.25	226.31
383.62	226.37
384.00	226.30
384.38	226.25
384.76	226.22
385.13	226.23
385.51	226.19
385.89	226.13
386.27	226.09
386.64	226.06
387.02	226.01
387.40	225.95
387.78	225.92
388.15	225.90
388.53	225.85
388.91	225.80
389.29	225.77
389.66	225.75
390.04	225.71
390.42	225.68
390.79	225.65
391.17	225.67
391.55	225.55
391.92	225.54
392.30	225.49
392.68	225.46
393.05	225.39
393.43	225.39
393.81	225.44
394.18	225.42
394.56	225.45
394.94	225.48
395.31	225.48
395.69	225.51
396.06	225.48
396.44	225.50
396.82	225.52
397.19	225.61
397.57	225.62
397.95	225.66
398.32	225.64
398.70	225.68
399.07	225.70
399.45	225.76
399.82	225.84
400.20	225.90
400.58	225.96
400.95	226.00
401.33	226.10
401.70	226.21
402.08	226.28
402.45	226.30
402.83	226.42
403.20	226.53
403.58	226.59
403.95	226.75
404.33	226.90
404.71	227.00
405.08	227.14
405.46	227.29
405.83	227.45
406.21	227.62
406.58	227.78
406.96	227.95
407.33	228.11
407.70	228.26
408.08	228.54
408.45	228.72
408.83	228.98
409.20	229.17
409.58	229.35
409.95	229.63
410.33	229.94
410.70	230.15
411.08	230.47
411.45	230.77
411.82	231.04
412.20	231.38
412.57	231.83
412.95	232.09
413.32	232.45
413.69	232.85
414.07	233.28
414.44	233.76
414.82	234.24
415.19	234.78
415.56	235.36
415.94	235.89
416.31	236.58
416.68	237.19
417.06	237.93
417.43	238.60
417.81	239.36
418.18	240.15
418.55	241.01
418.93	241.86
419.30	242.74
419.67	243.73
420.04	244.69
420.42	245.69
420.79	246.89
421.16	248.07
421.54	249.26
421.91	250.46
422.28	251.72
422.66	253.05
423.03	254.38
423.40	255.71
423.77	257.11
424.15	258.51
424.52	259.98
424.89	261.59
425.26	263.16
425.64	264.64
426.01	266.23
426.38	267.90
426.75	269.60
427.13	271.34
427.50	273.14
427.87	275.01
428.24	276.85
428.61	278.59
428.99	280.53
429.36	282.64
429.73	284.71
430.10	286.73
430.47	288.81
430.85	290.91
431.22	293.16
431.59	295.55
431.96	297.78
432.33	300.29
432.70	302.62
433.08	305.41
433.45	308.03
433.82	310.65
434.19	313.50
434.56	316.30
434.93	318.98
435.30	321.59
435.68	324.45
436.05	327.28
436.42	330.06
436.79	332.59
437.16	335.22
437.53	338.03
437.90	340.80
438.27	343.49
438.64	346.30
439.01	348.87
439.38	351.08
439.75	353.21
440.13	355.58
440.50	357.88
440.87	359.71
441.24	361.62
441.61	363.73
441.98	365.20
442.35	367.00
442.72	368.81
443.09	370.57
443.46	371.58
443.83	372.12
444.20	372.58
444.57	373.37
444.94	373.67
445.31	373.95
445.68	374.29
446.05	374.39
446.42	374.01
446.79	373.53
447.16	373.05
447.53	372.74
447.90	371.65
448.27	370.53
448.64	368.95
449.01	367.82
449.37	365.81
449.74	363.88
450.11	361.61
450.48	359.09
450.85	356.56
451.22	354.40
451.59	352.36
451.96	350.45
452.33	347.86
452.70	345.53
453.07	342.79
453.43	339.92
453.80	337.16
454.17	334.44
454.54	331.93
454.91	329.25
455.28	326.55
455.65	324.09
456.02	321.64
456.38	319.49
456.75	316.82
457.12	314.65
457.49	312.44
457.86	310.30
458.23	308.54
458.59	306.53
458.96	304.47
459.33	302.70
459.70	300.85
460.07	299.41
460.43	297.72
460.80	296.11
461.17	294.70
461.54	293.23
461.91	291.86
462.27	290.44
462.64	289.24
463.01	287.95
463.38	286.64
463.74	285.30
464.11	284.17
464.48	283.21
464.85	282.12
465.21	281.29
465.58	280.39
465.95	279.30
466.32	278.42
466.68	277.54
467.05	276.64
467.42	275.77
467.78	274.83
468.15	273.94
468.52	273.29
468.88	272.44
469.25	271.69
469.62	271.12
469.98	270.45
470.35	269.82
470.72	269.22
471.08	268.58
471.45	268.05
471.82	267.54
472.18	266.93
472.55	266.53
472.92	266.02
473.28	265.57
473.65	265.14
474.02	264.74
474.38	264.36
474.75	264.05
475.11	263.75
475.48	263.49
475.85	263.31
476.21	263.11
476.58	262.92
476.94	262.80
477.31	262.62
477.67	262.50
478.04	262.41
478.41	262.36
478.77	262.45
479.14	262.42
479.50	262.43
479.87	262.53
480.23	262.59
480.60	262.68
480.96	262.80
481.33	263.03
481.69	263.18
482.06	263.41
482.42	263.64
482.79	263.89
483.15	264.21
483.52	264.57
483.88	264.91
484.25	265.33
484.61	265.74
484.98	266.20
485.34	266.74
485.71	267.35
486.07	267.96
486.44	268.50
486.80	269.21
487.17	269.96
487.53	270.79
487.90	271.62
488.26	272.53
488.62	273.47
488.99	274.42
489.35	275.48
489.72	276.66
490.08	277.84
490.44	279.08
490.81	280.42
491.17	281.76
491.54	283.24
491.90	284.78
492.26	286.40
492.63	288.07
492.99	289.85
493.36	291.75
493.72	293.81
494.08	295.91
494.45	298.13
494.81	300.47
495.17	302.86
495.54	305.44
495.90	308.11
496.26	310.89
496.63	313.80
496.99	316.88
497.35	320.11
497.72	323.54
498.08	327.02
498.44	330.69
498.80	334.62
499.17	338.65
499.53	342.82
499.89	347.23
500.26	351.78
500.62	356.49
500.98	361.42
501.34	366.49
501.71	371.83
502.07	377.25
502.43	382.87
502.79	388.67
503.16	394.78
503.52	401.05
503.88	407.58
504.24	414.31
504.60	421.25
504.97	428.38
505.33	435.65
505.69	443.42
506.05	451.23
506.41	459.13
506.78	467.32
507.14	475.73
507.50	484.42
507.86	493.43
508.22	502.63
508.59	511.85
508.95	521.49
509.31	531.29
509.67	541.42
510.03	551.72
510.39	562.31
510.75	573.06
511.12	584.01
511.48	595.27
511.84	606.70
512.20	618.13
512.56	630.06
512.92	642.19
513.28	654.46
513.64	666.95
514.00	679.60
514.37	692.52
514.73	705.63
515.09	718.67
515.45	731.97
515.81	745.52
516.17	759.51
516.53	773.52
516.89	787.76
517.25	801.94
517.61	816.27
517.97	830.74
518.33	845.08
518.69	859.76
519.05	874.69
519.41	889.79
519.77	905.42
520.13	920.84
520.49	936.27
520.85	951.71
521.21	967.32
521.57	983.58
521.93	999.24
522.29	1015.61
522.65	1031.74
523.01	1047.81
523.37	1063.73
523.73	1079.81
524.09	1095.83
524.45	1111.99
524.81	1128.47
525.17	1145.25
525.53	1162.02
525.89	1178.88
526.25	1195.67
526.61	1211.98
526.97	1228.60
527.33	1244.86
527.68	1261.27
528.04	1277.70
528.40	1294.12
528.76	1311.12
529.12	1327.59
529.48	1344.38
529.84	1360.25
530.20	1376.83
530.56	1393.85
530.91	1411.28
531.27	1427.93
531.63	1444.36
531.99	1460.78
532.35	1476.70
532.71	1492.49
533.07	1508.74
533.42	1524.54
533.78	1540.52
534.14	1556.67
534.50	1572.04
534.86	1587.79
535.21	1603.07
535.57	1618.88
535.93	1634.39
536.29	1649.12
536.65	1664.09
537.00	1678.67
537.36	1693.87
537.72	1708.30
538.08	1722.67
538.44	1736.26
538.79	1750.04
539.15	1763.49
539.51	1777.16
539.87	1791.40
540.22	1805.07
540.58	1818.61
540.94	1831.79
541.29	1844.51
541.65	1857.13
542.01	1870.06
542.37	1882.26
542.72	1894.39
543.08	1906.08
543.44	1918.28
543.79	1929.30
544.15	1940.17
544.51	1951.81
544.87	1962.80
545.22	1973.53
545.58	1983.53
545.94	1993.16
546.29	2002.98
546.65	2012.94
547.01	2022.10
547.36	2030.76
547.72	2039.21
548.07	2046.92
548.43	2055.10
548.79	2063.08
549.14	2070.50
549.50	2077.90
549.86	2085.47
550.21	2092.81
550.57	2099.79
550.92	2106.43
551.28	2113.52
551.64	2120.57
551.99	2127.00
552.35	2133.03
552.70	2139.20
553.06	2145.20
553.41	2151.60
553.77	2157.58
554.13	2163.58
554.48	2169.77
554.84	2175.23
555.19	2180.39
555.55	2185.66
555.90	2190.02
556.26	2194.92
556.61	2199.68
556.97	2204.02
557.32	2208.23
557.68	2212.28
558.03	2216.79
558.39	2220.56
558.74	2225.22
559.10	2229.03
559.45	2232.84
559.81	2237.12
560.16	2240.79
560.52	2244.02
560.87	2247.35
561.23	2250.02
561.58	2252.87
561.94	2255.41
562.29	2257.74
562.64	2260.32
563.00	2262.73
563.35	2266.35
563.71	2269.51
564.06	2272.77
564.42	2275.53
564.77	2278.09
565.12	2280.41
565.48	2282.23
565.83	2283.88
566.19	2285.13
566.54	2286.09
566.89	2287.10
567.25	2287.67
567.60	2289.01
567.96	2290.73
568.31	2291.74
568.66	2292.94
569.02	2293.54
569.37	2293.80
569.72	2294.67
570.08	2295.10
570.43	2295.34
570.78	2294.82
571.14	2293.39
571.49	2292.06
571.84	2291.93
572.20	2290.94
572.55	2290.02
572.90	2288.43
573.26	2287.23
573.61	2285.73
573.96	2284.15
574.31	2281.21
574.67	2278.36
575.02	2274.90
575.37	2271.74
575.72	2267.91
576.08	2264.60
576.43	2261.35
576.78	2257.77
577.13	2254.75
577.49	2251.75
577.84	2248.29
578.19	2244.68
578.54	2241.13
578.90	2236.99
579.25	2231.38
579.60	2226.34
579.95	2221.34
580.30	2216.45
580.66	2211.37
581.01	2206.31
581.36	2201.41
581.71	2197.35
582.06	2192.83
582.42	2188.48
582.77	2183.16
583.12	2178.76
583.47	2174.16
583.82	2169.30
584.17	2164.16
584.53	2158.54
584.88	2152.93
585.23	2147.28
585.58	2141.79
585.93	2136.24
586.28	2131.48
586.63	2126.47
586.98	2121.59
587.34	2117.00
587.69	2112.20
588.04	2106.96
588.39	2101.41
588.74	2094.85
589.09	2088.82
589.44	2082.16
589.79	2076.07
590.14	2070.65
590.49	2064.03
590.84	2057.70
591.19	2051.62
591.54	2045.19
591.89	2038.22
592.25	2031.47
592.60	2024.32
592.95	2016.79
593.30	2009.48
593.65	2001.97
594.00	1995.06
594.35	1987.82
594.70	1979.76
595.05	1972.69
595.40	1965.42
595.75	1958.01
596.10	1951.95
596.45	1945.23
596.80	1939.11
597.15	1932.76
597.50	1925.65
597.85	1919.32
598.19	1912.60
598.54	1905.57
598.89	1898.97
599.24	1892.96
599.59	1886.24
599.94	1880.06
600.29	1873.76
600.64	1867.32
600.99	1859.93
601.34	1853.17
601.69	1846.41
602.04	1839.62
602.39	1832.28
602.74	1825.53
603.08	1818.71
603.43	1812.03
603.78	1804.78
604.13	1797.63
604.48	1790.21
604.83	1783.36
605.18	1776.53
605.53	1768.69
605.87	1760.70
606.22	1753.55
606.57	1745.65
606.92	1738.18
607.27	1731.10
607.62	1724.19
607.96	1716.91
608.31	1710.35
608.66	1702.73
609.01	1695.03
609.36	1687.47
609.70	1679.40
610.05	1671.38
610.40	1663.73
610.75	1655.29
611.10	1647.63
611.44	1639.26
611.79	1631.22
612.14	1622.64
612.49	1613.42
612.83	1604.99
613.18	1596.89
613.53	1588.82
613.88	1580.27
614.22	1572.26
614.57	1563.64
614.92	1555.76
615.27	1548.30
615.61	1539.84
615.96	1531.78
616.31	1524.11
616.65	1516.79
617.00	1509.28
617.35	1501.62
617.70	1493.43
618.04	1484.95
618.39	1476.75
618.74	1469.03
619.08	1460.79
619.43	1453.04
619.78	1445.96
620.12	1438.77
620.47	1431.35
620.82	1423.19
621.16	1415.87
621.51	1408.19
621.85	1400.62
622.20	1391.94
622.55	1383.53
622.89	1375.80
623.24	1368.16
623.59	1360.84
623.93	1353.25
624.28	1346.03
624.62	1338.49
624.97	1331.23
625.32	1324.46
625.66	1317.39
626.01	1310.27
626.35	1302.89
626.70	1295.21
627.04	1287.53
627.39	1279.84
627.73	1272.29
628.08	1265.36
628.43	1257.96
628.77	1250.58
629.12	1242.92
629.46	1235.82
629.81	1228.33
630.15	1221.13
630.50	1213.75
630.84	1205.55
631.19	1197.74
631.53	1190.21
631.88	1182.66
632.22	1175.00
632.57	1167.72
632.91	1160.19
633.26	1152.70
633.60	1145.25
633.95	1138.11
634.29	1131.11
634.64	1124.40
634.98	1117.10
635.32	1109.93
635.67	1103.32
636.01	1096.65
636.36	1089.85
636.70	1083.26
637.05	1076.63
637.39	1070.20
637.73	1063.73
638.08	1057.83
638.42	1051.78
638.77	1045.35
639.11	1038.73
639.45	1032.39
639.80	1025.80
640.14	1019.41
640.49	1013.01
640.83	1006.76
641.17	1000.56
641.52	994.22
641.86	987.67
642.20	981.84
642.55	975.53
642.89	969.06
643.23	962.49
643.58	956.80
643.92	950.68
644.26	944.72
644.61	938.67
644.95	932.67
645.29	926.09
645.64	919.35
645.98	912.96
646.32	907.09
646.66	901.07
647.01	895.18
647.35	889.35
647.69	883.45
648.04	877.83
648.38	871.97
648.72	865.97
649.06	859.95
649.41	854.08
649.75	848.08
650.09	842.13
650.43	836.40
650.78	830.22
651.12	824.23
651.46	818.53
651.80	812.78
652.14	807.32
652.49	801.91
652.83	796.73
653.17	791.05
653.51	785.40
653.85	780.06
654.20	774.46
654.54	768.49
654.88	762.74
655.22	756.82
655.56	751.19
655.90	745.80
656.25	740.54
656.59	735.17
656.93	730.09
657.27	724.95
657.61	719.53
657.95	714.40
658.29	709.31
658.64	704.04
658.98	698.69
659.32	693.19
659.66	688.03
660.00	682.70
660.34	677.74
660.68	672.83
661.02	667.73
661.36	663.04
661.70	658.55
662.05	654.28
662.39	650.08
662.73	645.58
663.07	641.15
663.41	636.70
663.75	632.16
664.09	627.57
664.43	623.16
664.77	619.00
665.11	614.78
665.45	610.67
665.79	606.50
666.13	602.41
666.47	598.38
666.81	594.18
667.15	590.03
667.49	586.14
667.83	582.33
668.17	578.38
668.51	574.29
668.85	570.25
669.19	566.39
669.53	562.43
669.87	558.57
670.21	554.87
670.55	551.22
670.89	547.79
671.23	544.41
671.57	540.89
671.91	537.35
672.25	533.83
672.58	530.27
672.92	526.87
673.26	523.67
673.60	520.47
673.94	517.38
674.28	514.49
674.62	511.49
674.96	508.31
675.30	505.38
675.64	502.43
675.97	499.68
676.31	496.76
676.65	493.91
676.99	491.21
677.33	488.36
677.67	485.57
678.01	482.55
678.34	479.56
678.68	476.72
679.02	473.87
679.36	471.08
679.70	468.34
680.04	465.63
680.37	462.72
680.71	459.91
681.05	457.26
681.39	454.53
681.73	451.91
682.06	449.38
682.40	446.84
682.74	444.35
683.08	441.78
683.42	439.20
683.75	436.64
684.09	434.05
684.43	431.51
684.77	429.05
685.10	426.72
685.44	424.43
685.78	422.06
686.12	419.86
686.45	417.57
686.79	415.24
687.13	413.01
687.46	410.89
687.80	408.69
688.14	406.51
688.48	404.45
688.81	402.19
689.15	400.05
689.49	397.95
689.82	395.85
690.16	393.76
690.50	391.82
690.83	389.93
691.17	387.96
691.51	386.09
691.84	384.18
692.18	382.27
692.52	380.22
692.85	378.30
693.19	376.42
693.52	374.60
693.86	372.83
694.20	371.09
694.53	369.32
694.87	367.54
695.21	365.73
695.54	363.89
695.88	362.21
696.21	360.46
696.55	358.72
696.88	357.03
697.22	355.33
697.56	353.69
697.89	352.00
698.23	350.42
698.56	348.83
698.90	347.28
699.23	345.61
699.57	344.09
699.90	342.54
700.24	341.00
700.58	339.47
700.91	337.98
701.25	336.49
701.58	335.07
701.92	333.69
702.25	332.32
702.59	330.97
702.92	329.62
703.26	328.36
703.59	327.09
703.93	325.90
704.26	324.73
704.60	323.38
704.93	322.12
705.26	320.89
705.60	319.66
705.93	318.48
706.27	317.41
706.60	316.34
706.94	315.28
707.27	314.10
707.61	313.04
707.94	312.02
708.27	310.95
708.61	309.86
708.94	308.83
709.28	307.87
709.61	306.90
709.94	305.96
710.28	304.90
710.61	303.88
710.95	302.82
711.28	301.87
711.61	300.95
711.95	300.01
712.28	299.02
712.61	298.02
712.95	297.13
713.28	296.26
713.61	295.38
713.95	294.49
714.28	293.62
714.61	292.75
714.95	291.87
715.28	290.99
715.61	290.11
715.95	289.25
716.28	288.36
716.61	287.52
716.95	286.67
717.28	285.96
717.61	285.22
717.94	284.47
718.28	283.67
718.61	282.92
718.94	282.22
719.27	281.55
719.61	280.94
719.94	280.26
720.27	279.56
720.60	278.90
720.94	278.26
721.27	277.70
721.60	277.13
721.93	276.53
722.27	275.98
722.60	275.39
722.93	274.80
723.26	274.29
723.59	273.73
723.93	273.16
724.26	272.59
724.59	272.00
724.92	271.49
725.25	271.02
725.59	270.48
725.92	270.00
726.25	269.51
726.58	269.01
726.91	268.50
727.24	268.03
727.57	267.54
727.91	267.05
728.24	266.58
728.57	266.08
728.90	265.64
729.23	265.14
729.56	264.80
729.89	264.40
730.22	263.91
730.55	263.46
730.89	263.03
731.22	262.57
731.55	262.22
731.88	261.78
732.21	261.35
732.54	260.95
732.87	260.55
733.20	260.16
733.53	259.79
733.86	259.43
734.19	259.01
734.52	258.66
734.85	258.38
735.18	257.95
735.51	257.59
735.84	257.25
736.17	256.86
736.50	256.44
736.83	256.19
737.16	255.86
737.49	255.51
737.82	255.21
738.15	254.92
738.48	254.57
738.81	254.26
739.14	253.93
739.47	253.63
739.80	253.29
740.13	252.97
740.46	252.64
740.79	252.30
741.12	252.02
741.45	251.68
741.78	251.33
742.11	251.10
742.44	250.78
742.77	250.47
743.10	250.22
743.43	249.90
743.75	249.51
744.08	249.32
744.41	249.07
744.74	248.78
745.07	248.52
745.40	248.25
745.73	248.00
746.06	247.74
746.39	247.47
746.71	247.19
747.04	246.93
747.37	246.67
747.70	246.43
748.03	246.13
748.36	245.92
748.68	245.66
749.01	245.38
749.34	245.16
749.67	244.93
750.00	244.69
750.33	244.56
750.65	244.38
750.98	244.09
751.31	243.87
751.64	243.65
751.97	243.46
752.29	243.25
752.62	242.96
752.95	242.76
753.28	242.52
753.60	242.34
753.93	242.18
754.26	241.97
754.59	241.76
754.91	241.57
755.24	241.35
755.57	241.15
755.90	240.96
756.22	240.76
756.55	240.56
756.88	240.37
757.20	240.12
757.53	239.89
757.86	239.70
758.19	239.52
758.51	239.35
758.84	239.13
759.17	238.95
759.49	238.80
759.82	238.65
760.15	238.55
760.47	238.39
760.80	238.19
761.13	238.05
761.45	237.91
761.78	237.79
762.11	237.66
762.43	237.51
762.76	237.40
763.08	237.29
763.41	237.13
763.74	237.00
764.06	236.89
764.39	236.73
764.71	236.57
765.04	236.42
765.37	236.28
765.69	236.15
766.02	236.03
766.34	235.93
766.67	235.76
767.00	235.63
767.32	235.57
767.65	235.49
767.97	235.35
768.30	235.21
768.62	235.06
768.95	234.94
769.27	234.88
769.60	234.78
769.92	234.65
770.25	234.54
770.57	234.41
770.90	234.31
771.22	234.21
771.55	234.15
771.87	234.07
772.20	233.98
772.52	233.97
772.85	233.98
773.17	233.89
773.50	233.84
773.82	233.76
774.15	233.63
774.47	233.50
774.80	233.46
775.12	233.41
775.45	233.35
775.77	233.25
776.09	233.14
776.42	233.04
776.74	232.98
777.07	232.89
777.39	232.85
777.72	232.74
778.04	232.70
778.36	232.60
778.69	232.55
779.01	232.48
779.33	232.34
779.66	232.17
779.98	232.07
780.31	231.99
780.63	231.97
780.95	231.90
781.28	231.79
781.60	231.70
781.92	231.66
782.25	231.57
782.57	231.51
782.89	231.45
783.22	231.37
783.54	231.31
783.86	231.27
784.19	231.23
784.51	231.18
784.83	231.12
785.16	231.05
785.48	230.98
785.80	230.92
786.12	230.83
786.45	230.77
786.77	230.76
787.09	230.70
