SpectraSuite Data File
++++++++++++++++++++++++++++++++++++
Date: Fri Feb 01 14:59:20 EST 2013
User: group
Dark Spectrum Present: No
Reference Spectrum Present: No
Number of Sampled Component Spectra: 1
Spectrometers: USB2E7196
Integration Time (usec): 35000 (USB2E7196)
Spectra Averaged: 100 (USB2E7196)
Boxcar Smoothing: 10 (USB2E7196)
Correct for Electrical Dark: No (USB2E7196)
Strobe/Lamp Enabled: No (USB2E7196)
Correct for Detector Non-linearity: No (USB2E7196)
Correct for Stray Light: No (USB2E7196)
Number of Pixels in Processed Spectrum: 2048
>>>>>Begin Processed Spectral Data<<<<<
339.09	0.00
339.48	215.42
339.86	216.65
340.24	218.21
340.63	219.26
341.01	222.50
341.39	222.17
341.78	223.11
342.16	224.45
342.54	225.03
342.93	213.62
343.31	224.43
343.69	224.95
344.07	225.42
344.46	225.82
344.84	226.22
345.22	226.45
345.60	226.69
345.99	226.91
346.37	227.05
346.75	227.16
347.13	227.20
347.52	227.21
347.90	227.29
348.28	227.33
348.66	227.36
349.05	227.36
349.43	227.39
349.81	227.40
350.19	227.43
350.57	227.49
350.96	227.57
351.34	227.65
351.72	227.76
352.10	227.84
352.48	227.92
352.87	227.97
353.25	228.02
353.63	228.09
354.01	228.14
354.39	228.20
354.77	228.30
355.15	228.43
355.54	228.50
355.92	228.54
356.30	228.62
356.68	228.73
357.06	228.80
357.44	228.84
357.82	228.91
358.20	228.97
358.58	229.04
358.97	229.12
359.35	229.18
359.73	229.22
360.11	229.26
360.49	229.30
360.87	229.32
361.25	229.38
361.63	229.46
362.01	229.51
362.39	229.54
362.77	229.56
363.15	229.56
363.53	229.55
363.91	229.60
364.29	229.62
364.67	229.57
365.05	229.59
365.43	229.61
365.81	229.64
366.19	229.69
366.57	229.71
366.95	229.70
367.33	229.65
367.71	229.66
368.09	229.68
368.47	229.68
368.85	229.66
369.23	229.65
369.61	229.57
369.99	229.54
370.37	229.52
370.75	229.52
371.13	229.44
371.51	229.41
371.89	229.36
372.27	229.29
372.65	229.21
373.03	229.13
373.41	229.05
373.78	228.97
374.16	228.83
374.54	228.74
374.92	228.61
375.30	228.55
375.68	228.43
376.06	228.39
376.44	228.31
376.82	228.24
377.19	228.17
377.57	228.10
377.95	228.00
378.33	227.89
378.71	227.78
379.09	227.74
379.47	227.67
379.84	227.56
380.22	227.48
380.60	227.42
380.98	227.36
381.36	227.29
381.73	227.17
382.11	227.09
382.49	227.02
382.87	226.96
383.25	226.91
383.62	226.96
384.00	226.84
384.38	226.73
384.76	226.69
385.13	226.66
385.51	226.60
385.89	226.54
386.27	226.53
386.64	226.48
387.02	226.39
387.40	226.33
387.78	226.27
388.15	226.24
388.53	226.18
388.91	226.16
389.29	226.12
389.66	226.14
390.04	226.13
390.42	226.14
390.79	226.14
391.17	226.10
391.55	226.04
391.92	226.04
392.30	226.11
392.68	226.12
393.05	226.12
393.43	226.13
393.81	226.17
394.18	226.15
394.56	226.19
394.94	226.25
395.31	226.32
395.69	226.41
396.06	226.46
396.44	226.52
396.82	226.55
397.19	226.67
397.57	226.75
397.95	226.87
398.32	226.91
398.70	227.00
399.07	227.13
399.45	227.16
399.82	227.23
400.20	227.30
400.58	227.38
400.95	227.44
401.33	227.56
401.70	227.74
402.08	227.87
402.45	228.01
402.83	228.18
403.20	228.32
403.58	228.46
403.95	228.61
404.33	228.77
404.71	228.93
405.08	229.12
405.46	229.23
405.83	229.37
406.21	229.52
406.58	229.71
406.96	229.88
407.33	230.11
407.70	230.33
408.08	230.60
408.45	230.85
408.83	231.12
409.20	231.36
409.58	231.50
409.95	231.79
410.33	232.05
410.70	232.29
411.08	232.59
411.45	232.89
411.82	233.21
412.20	233.52
412.57	233.95
412.95	234.24
413.32	234.66
413.69	235.04
414.07	235.47
414.44	235.91
414.82	236.39
415.19	236.94
415.56	237.48
415.94	238.03
416.31	238.63
416.68	239.18
417.06	239.87
417.43	240.58
417.81	241.34
418.18	242.12
418.55	242.96
418.93	243.79
419.30	244.70
419.67	245.61
420.04	246.59
420.42	247.57
420.79	248.75
421.16	249.85
421.54	251.08
421.91	252.29
422.28	253.57
422.66	254.90
423.03	256.16
423.40	257.52
423.77	258.93
424.15	260.32
424.52	261.85
424.89	263.49
425.26	265.00
425.64	266.43
426.01	268.02
426.38	269.63
426.75	271.32
427.13	273.00
427.50	274.82
427.87	276.69
428.24	278.55
428.61	280.27
428.99	282.24
429.36	284.37
429.73	286.42
430.10	288.39
430.47	290.44
430.85	292.55
431.22	294.76
431.59	297.13
431.96	299.44
432.33	301.92
432.70	304.28
433.08	307.12
433.45	309.74
433.82	312.33
434.19	315.29
434.56	318.09
434.93	320.79
435.30	323.36
435.68	326.29
436.05	329.12
436.42	331.92
436.79	334.46
437.16	337.11
437.53	340.00
437.90	342.85
438.27	345.60
438.64	348.44
439.01	351.03
439.38	353.26
439.75	355.39
440.13	357.89
440.50	360.26
440.87	362.12
441.24	364.07
441.61	366.26
441.98	367.73
442.35	369.54
442.72	371.38
443.09	373.21
443.46	374.16
443.83	374.75
444.20	375.24
444.57	376.09
444.94	376.40
445.31	376.70
445.68	377.02
446.05	377.10
446.42	376.71
446.79	376.35
447.16	375.93
447.53	375.68
447.90	374.50
448.27	373.35
448.64	371.74
449.01	370.64
449.37	368.68
449.74	366.78
450.11	364.52
450.48	362.07
450.85	359.55
451.22	357.41
451.59	355.41
451.96	353.50
452.33	350.91
452.70	348.52
453.07	345.69
453.43	342.85
453.80	340.09
454.17	337.43
454.54	334.87
454.91	332.18
455.28	329.45
455.65	327.00
456.02	324.52
456.38	322.39
456.75	319.70
457.12	317.42
457.49	315.20
457.86	313.07
458.23	311.19
458.59	309.13
458.96	307.08
459.33	305.20
459.70	303.36
460.07	301.84
460.43	300.14
460.80	298.54
461.17	297.08
461.54	295.55
461.91	294.08
462.27	292.58
462.64	291.32
463.01	289.95
463.38	288.63
463.74	287.22
464.11	286.04
464.48	285.04
464.85	283.96
465.21	283.07
465.58	282.09
465.95	280.98
466.32	280.06
466.68	279.14
467.05	278.22
467.42	277.27
467.78	276.32
468.15	275.44
468.52	274.78
468.88	273.89
469.25	273.09
469.62	272.49
469.98	271.87
470.35	271.18
470.72	270.57
471.08	269.90
471.45	269.39
471.82	268.82
472.18	268.18
472.55	267.71
472.92	267.13
473.28	266.65
473.65	266.18
474.02	265.76
474.38	265.37
474.75	265.02
475.11	264.68
475.48	264.37
475.85	264.12
476.21	263.83
476.58	263.66
476.94	263.53
477.31	263.34
477.67	263.15
478.04	263.03
478.41	262.95
478.77	262.95
479.14	262.91
479.50	262.91
479.87	262.97
480.23	263.05
480.60	263.10
480.96	263.19
481.33	263.38
481.69	263.52
482.06	263.72
482.42	263.94
482.79	264.18
483.15	264.49
483.52	264.86
483.88	265.19
484.25	265.56
484.61	265.98
484.98	266.40
485.34	266.96
485.71	267.53
486.07	268.14
486.44	268.72
486.80	269.37
487.17	270.09
487.53	270.89
487.90	271.70
488.26	272.62
488.62	273.57
488.99	274.50
489.35	275.55
489.72	276.65
490.08	277.88
490.44	279.12
490.81	280.45
491.17	281.82
491.54	283.28
491.90	284.78
492.26	286.41
492.63	288.12
492.99	289.87
493.36	291.76
493.72	293.75
494.08	295.84
494.45	298.08
494.81	300.47
495.17	302.83
495.54	305.39
495.90	308.06
496.26	310.90
496.63	313.89
496.99	317.01
497.35	320.24
497.72	323.55
498.08	327.05
498.44	330.71
498.80	334.65
499.17	338.69
499.53	342.87
499.89	347.23
500.26	351.74
500.62	356.42
500.98	361.35
501.34	366.43
501.71	371.73
502.07	377.15
502.43	382.69
502.79	388.55
503.16	394.59
503.52	400.90
503.88	407.30
504.24	413.92
504.60	420.84
504.97	428.01
505.33	435.35
505.69	443.02
506.05	450.76
506.41	458.60
506.78	466.77
507.14	475.22
507.50	483.91
507.86	492.92
508.22	502.07
508.59	511.23
508.95	520.83
509.31	530.67
509.67	540.74
510.03	551.06
510.39	561.57
510.75	572.42
511.12	583.32
511.48	594.59
511.84	606.08
512.20	617.53
512.56	629.50
512.92	641.72
513.28	654.07
513.64	666.59
514.00	679.24
514.37	692.17
514.73	705.23
515.09	718.29
515.45	731.62
515.81	745.27
516.17	759.32
516.53	773.42
516.89	787.55
517.25	801.73
517.61	816.16
517.97	830.65
518.33	845.07
518.69	859.84
519.05	874.82
519.41	889.96
519.77	905.47
520.13	920.85
520.49	936.30
520.85	951.82
521.21	967.54
521.57	983.85
521.93	999.67
522.29	1016.13
522.65	1032.41
523.01	1048.70
523.37	1064.75
523.73	1080.97
524.09	1097.12
524.45	1113.52
524.81	1130.33
525.17	1147.25
525.53	1164.21
525.89	1181.04
526.25	1197.95
526.61	1214.51
526.97	1231.32
527.33	1247.88
527.68	1264.62
528.04	1281.06
528.40	1297.73
528.76	1314.94
529.12	1331.60
529.48	1348.54
529.84	1364.54
530.20	1381.30
530.56	1398.42
530.91	1415.92
531.27	1432.80
531.63	1449.36
531.99	1466.09
532.35	1482.04
532.71	1497.83
533.07	1514.09
533.42	1530.17
533.78	1546.28
534.14	1562.50
534.50	1577.87
534.86	1593.80
535.21	1609.05
535.57	1625.20
535.93	1640.73
536.29	1655.59
536.65	1670.75
537.00	1685.57
537.36	1701.08
537.72	1715.65
538.08	1730.09
538.44	1744.00
538.79	1757.89
539.15	1771.79
539.51	1785.50
539.87	1799.85
540.22	1813.74
540.58	1827.60
540.94	1841.13
541.29	1854.12
541.65	1866.92
542.01	1880.26
542.37	1892.71
542.72	1905.22
543.08	1916.99
543.44	1929.60
543.79	1940.86
544.15	1951.88
544.51	1963.61
544.87	1974.55
545.22	1985.43
545.58	1995.76
545.94	2005.51
546.29	2015.41
546.65	2025.10
547.01	2034.47
547.36	2043.45
547.72	2052.04
548.07	2060.09
548.43	2068.30
548.79	2076.37
549.14	2083.87
549.50	2091.35
549.86	2099.08
550.21	2106.45
550.57	2113.52
550.92	2119.99
551.28	2127.15
551.64	2134.23
551.99	2140.71
552.35	2147.01
552.70	2153.09
553.06	2158.95
553.41	2165.26
553.77	2171.32
554.13	2177.55
554.48	2183.48
554.84	2188.68
555.19	2193.86
555.55	2198.85
555.90	2203.15
556.26	2208.05
556.61	2212.93
556.97	2216.99
557.32	2221.09
557.68	2225.04
558.03	2229.50
558.39	2233.20
558.74	2237.64
559.10	2241.47
559.45	2244.91
559.81	2249.10
560.16	2252.85
560.52	2256.07
560.87	2259.49
561.23	2262.00
561.58	2264.82
561.94	2267.39
562.29	2269.88
562.64	2272.43
563.00	2275.14
563.35	2278.66
563.71	2281.71
564.06	2284.78
564.42	2287.72
564.77	2290.14
565.12	2292.34
565.48	2293.89
565.83	2295.55
566.19	2296.63
566.54	2297.52
566.89	2298.62
567.25	2298.94
567.60	2300.12
567.96	2301.55
568.31	2302.34
568.66	2303.35
569.02	2303.78
569.37	2303.93
569.72	2304.58
570.08	2304.65
570.43	2304.39
570.78	2303.49
571.14	2301.72
571.49	2300.19
571.84	2299.57
572.20	2298.30
572.55	2297.12
572.90	2295.45
573.26	2293.84
573.61	2292.14
573.96	2290.10
574.31	2286.92
574.67	2283.86
575.02	2280.20
575.37	2276.67
575.72	2272.61
576.08	2269.24
576.43	2265.83
576.78	2262.05
577.13	2258.63
577.49	2255.36
577.84	2251.78
578.19	2248.04
578.54	2244.20
578.90	2239.78
579.25	2234.12
579.60	2228.90
579.95	2223.73
580.30	2218.64
580.66	2213.35
581.01	2208.22
581.36	2203.12
581.71	2198.99
582.06	2194.33
582.42	2189.66
582.77	2184.45
583.12	2179.71
583.47	2174.67
583.82	2169.36
584.17	2163.88
584.53	2158.29
584.88	2152.63
585.23	2146.66
585.58	2141.03
585.93	2135.49
586.28	2130.71
586.63	2125.49
586.98	2120.35
587.34	2115.58
587.69	2110.51
588.04	2105.23
588.39	2099.40
588.74	2093.01
589.09	2086.68
589.44	2079.74
589.79	2073.63
590.14	2067.70
590.49	2060.98
590.84	2054.57
591.19	2048.48
591.54	2042.05
591.89	2034.43
592.25	2027.41
592.60	2020.15
592.95	2012.44
593.30	2004.99
593.65	1997.20
594.00	1990.11
594.35	1982.74
594.70	1974.67
595.05	1967.25
595.40	1959.90
595.75	1952.46
596.10	1945.95
596.45	1939.10
596.80	1932.91
597.15	1926.01
597.50	1918.87
597.85	1912.36
598.19	1905.48
598.54	1898.35
598.89	1891.66
599.24	1885.89
599.59	1879.23
599.94	1872.90
600.29	1866.50
600.64	1859.91
600.99	1852.44
601.34	1845.50
601.69	1838.57
602.04	1831.52
602.39	1824.31
602.74	1817.51
603.08	1810.64
603.43	1803.93
603.78	1796.57
604.13	1789.31
604.48	1782.11
604.83	1775.39
605.18	1768.33
605.53	1760.45
605.87	1752.42
606.22	1745.25
606.57	1737.16
606.92	1729.85
607.27	1722.63
607.62	1715.75
607.96	1708.35
608.31	1701.68
608.66	1694.14
609.01	1686.59
609.36	1679.09
609.70	1671.04
610.05	1662.75
610.40	1655.00
610.75	1646.76
611.10	1639.12
611.44	1630.81
611.79	1622.86
612.14	1614.17
612.49	1605.17
612.83	1596.89
613.18	1588.84
613.53	1580.60
613.88	1572.20
614.22	1563.95
614.57	1555.51
614.92	1547.41
615.27	1540.00
615.61	1531.73
615.96	1523.68
616.31	1515.99
616.65	1508.62
617.00	1501.03
617.35	1493.52
617.70	1485.16
618.04	1476.70
618.39	1468.53
618.74	1460.96
619.08	1452.67
619.43	1445.17
619.78	1438.38
620.12	1431.23
620.47	1423.69
620.82	1415.61
621.16	1408.28
621.51	1400.57
621.85	1393.01
622.20	1384.67
622.55	1376.37
622.89	1368.54
623.24	1360.99
623.59	1353.69
623.93	1346.24
624.28	1339.05
624.62	1331.57
624.97	1324.61
625.32	1317.71
625.66	1310.83
626.01	1303.63
626.35	1296.27
626.70	1288.52
627.04	1280.72
627.39	1272.92
627.73	1265.49
628.08	1258.65
628.43	1251.23
628.77	1244.01
629.12	1236.40
629.46	1229.16
629.81	1221.69
630.15	1214.63
630.50	1207.22
630.84	1199.06
631.19	1191.14
631.53	1183.82
631.88	1176.32
632.22	1168.75
632.57	1161.58
632.91	1154.00
633.26	1146.70
633.60	1139.33
633.95	1132.39
634.29	1125.44
634.64	1118.86
634.98	1111.59
635.32	1104.56
635.67	1098.16
636.01	1091.60
636.36	1084.80
636.70	1078.39
637.05	1071.94
637.39	1065.39
637.73	1058.98
638.08	1053.18
638.42	1047.24
638.77	1040.84
639.11	1034.27
639.45	1027.90
639.80	1021.33
640.14	1014.92
640.49	1008.33
640.83	1002.03
641.17	995.73
641.52	989.47
641.86	983.14
642.20	977.31
642.55	971.06
642.89	964.54
643.23	958.04
643.58	952.34
643.92	946.17
644.26	940.11
644.61	934.25
644.95	928.23
645.29	921.62
645.64	914.97
645.98	908.65
646.32	902.86
646.66	896.85
647.01	891.09
647.35	885.43
647.69	879.68
648.04	874.31
648.38	868.62
648.72	862.57
649.06	856.47
649.41	850.68
649.75	844.62
650.09	838.80
650.43	832.98
650.78	826.85
651.12	820.96
651.46	815.23
651.80	809.39
652.14	804.04
652.49	798.72
652.83	793.54
653.17	787.82
653.51	782.18
653.85	776.82
654.20	771.14
654.54	765.15
654.88	759.45
655.22	753.54
655.56	747.83
655.90	742.42
656.25	737.21
656.59	731.84
656.93	726.80
657.27	721.62
657.61	716.24
657.95	711.23
658.29	706.12
658.64	700.97
658.98	695.75
659.32	690.29
659.66	685.09
660.00	679.71
660.34	674.85
660.68	669.90
661.02	664.88
661.36	660.22
661.70	655.74
662.05	651.42
662.39	647.06
662.73	642.64
663.07	638.29
663.41	633.80
663.75	629.41
664.09	624.86
664.43	620.53
664.77	616.40
665.11	612.12
665.45	608.05
665.79	603.94
666.13	599.77
666.47	595.69
666.81	591.53
667.15	587.52
667.49	583.61
667.83	579.84
668.17	575.95
668.51	571.88
668.85	567.94
669.19	564.14
669.53	560.36
669.87	556.48
670.21	552.78
670.55	549.24
670.89	545.78
671.23	542.37
671.57	538.85
671.91	535.34
672.25	531.87
672.58	528.39
672.92	525.06
673.26	522.02
673.60	518.90
673.94	515.86
674.28	513.00
674.62	510.06
674.96	506.97
675.30	504.11
675.64	501.31
675.97	498.55
676.31	495.74
676.65	492.84
676.99	490.21
677.33	487.42
677.67	484.61
678.01	481.56
678.34	478.60
678.68	475.70
679.02	472.92
679.36	470.21
679.70	467.52
680.04	464.75
680.37	461.89
680.71	459.14
681.05	456.60
681.39	453.92
681.73	451.32
682.06	448.85
682.40	446.33
682.74	443.76
683.08	441.23
683.42	438.63
683.75	436.16
684.09	433.62
684.43	431.12
684.77	428.69
685.10	426.41
685.44	424.20
685.78	422.00
686.12	419.78
686.45	417.54
686.79	415.27
687.13	413.12
687.46	410.96
687.80	408.85
688.14	406.63
688.48	404.58
688.81	402.40
689.15	400.25
689.49	398.10
689.82	396.03
690.16	393.92
690.50	392.03
690.83	390.12
691.17	388.14
691.51	386.31
691.84	384.45
692.18	382.52
692.52	380.53
692.85	378.63
693.19	376.77
693.52	374.96
693.86	373.14
694.20	371.37
694.53	369.60
694.87	367.81
695.21	366.03
695.54	364.21
695.88	362.47
696.21	360.78
696.55	359.09
696.88	357.49
697.22	355.89
697.56	354.20
697.89	352.54
698.23	350.96
698.56	349.33
698.90	347.74
699.23	346.08
699.57	344.56
699.90	343.01
700.24	341.49
700.58	339.93
700.91	338.44
701.25	336.98
701.58	335.65
701.92	334.28
702.25	332.92
702.59	331.52
702.92	330.20
703.26	328.92
703.59	327.64
703.93	326.40
704.26	325.14
704.60	323.88
704.93	322.64
705.26	321.40
705.60	320.26
705.93	319.11
706.27	318.10
706.60	316.98
706.94	315.92
707.27	314.78
707.61	313.73
707.94	312.71
708.27	311.63
708.61	310.50
708.94	309.44
709.28	308.46
709.61	307.53
709.94	306.57
710.28	305.54
710.61	304.58
710.95	303.49
711.28	302.58
711.61	301.63
711.95	300.72
712.28	299.77
712.61	298.75
712.95	297.81
713.28	296.94
713.61	296.06
713.95	295.13
714.28	294.35
714.61	293.49
714.95	292.66
715.28	291.77
715.61	290.89
715.95	290.12
716.28	289.26
716.61	288.45
716.95	287.65
717.28	286.89
717.61	286.15
717.94	285.47
718.28	284.65
718.61	283.94
718.94	283.22
719.27	282.56
719.61	281.93
719.94	281.32
720.27	280.59
720.60	279.96
720.94	279.38
721.27	278.75
721.60	278.16
721.93	277.59
722.27	277.10
722.60	276.58
722.93	276.00
723.26	275.44
723.59	274.86
723.93	274.32
724.26	273.82
724.59	273.26
724.92	272.73
725.25	272.28
725.59	271.74
725.92	271.25
726.25	270.77
726.58	270.29
726.91	269.76
727.24	269.33
727.57	268.86
727.91	268.35
728.24	267.90
728.57	267.41
728.90	266.94
729.23	266.44
729.56	266.01
729.89	265.56
730.22	265.11
730.55	264.67
730.89	264.22
731.22	263.75
731.55	263.30
731.88	262.91
732.21	262.48
732.54	262.08
732.87	261.68
733.20	261.26
733.53	260.87
733.86	260.52
734.19	260.14
734.52	259.77
734.85	259.45
735.18	259.02
735.51	258.64
735.84	258.26
736.17	257.91
736.50	257.51
736.83	257.27
737.16	256.94
737.49	256.61
737.82	256.29
738.15	255.98
738.48	255.63
738.81	255.26
739.14	254.94
739.47	254.66
739.80	254.34
740.13	254.05
740.46	253.71
740.79	253.39
741.12	253.06
741.45	252.74
741.78	252.43
742.11	252.18
742.44	251.88
742.77	251.61
743.10	251.33
743.43	251.05
743.75	250.66
744.08	250.50
744.41	250.21
744.74	249.95
745.07	249.66
745.40	249.46
745.73	249.24
746.06	248.94
746.39	248.68
746.71	248.40
747.04	248.09
747.37	247.85
747.70	247.57
748.03	247.32
748.36	247.08
748.68	246.84
749.01	246.57
749.34	246.34
749.67	246.07
750.00	245.83
750.33	245.65
750.65	245.44
750.98	245.12
751.31	244.88
751.64	244.65
751.97	244.51
752.29	244.28
752.62	244.03
752.95	243.81
753.28	243.56
753.60	243.36
753.93	243.21
754.26	242.99
754.59	242.76
754.91	242.56
755.24	242.37
755.57	242.15
755.90	241.98
756.22	241.77
756.55	241.61
756.88	241.41
757.20	241.14
757.53	240.94
757.86	240.72
758.19	240.58
758.51	240.41
758.84	240.14
759.17	239.99
759.49	239.81
759.82	239.73
760.15	239.59
760.47	239.40
760.80	239.22
761.13	239.08
761.45	238.95
761.78	238.79
762.11	238.67
762.43	238.51
762.76	238.37
763.08	238.25
763.41	238.12
763.74	237.99
764.06	237.89
764.39	237.75
764.71	237.67
765.04	237.52
765.37	237.38
765.69	237.31
766.02	237.17
766.34	237.05
766.67	236.90
767.00	236.80
767.32	236.81
767.65	236.80
767.97	236.74
768.30	236.65
768.62	236.55
768.95	236.41
769.27	236.31
769.60	236.19
769.92	236.07
770.25	235.95
770.57	235.83
770.90	235.72
771.22	235.63
771.55	235.50
771.87	235.45
772.20	235.35
772.52	235.35
772.85	235.36
773.17	235.26
773.50	235.16
773.82	235.06
774.15	234.88
774.47	234.70
774.80	234.57
775.12	234.50
775.45	234.40
775.77	234.32
776.09	234.27
776.42	234.24
776.74	234.20
777.07	234.13
777.39	234.07
777.72	234.01
778.04	233.98
778.36	233.90
778.69	233.83
779.01	233.78
779.33	233.61
779.66	233.44
779.98	233.40
780.31	233.34
780.63	233.31
780.95	233.27
781.28	233.21
781.60	233.12
781.92	233.02
782.25	233.00
782.57	232.95
782.89	232.86
783.22	232.78
783.54	232.70
783.86	232.67
784.19	232.61
784.51	232.60
784.83	232.53
785.16	232.50
785.48	232.45
785.80	232.40
786.12	232.36
786.45	232.33
786.77	232.28
787.09	232.25
