SpectraSuite Data File
++++++++++++++++++++++++++++++++++++
Date: Fri Feb 01 16:32:19 EST 2013
User: group
Dark Spectrum Present: No
Reference Spectrum Present: No
Number of Sampled Component Spectra: 1
Spectrometers: USB2E7196
Integration Time (usec): 35000 (USB2E7196)
Spectra Averaged: 100 (USB2E7196)
Boxcar Smoothing: 10 (USB2E7196)
Correct for Electrical Dark: No (USB2E7196)
Strobe/Lamp Enabled: No (USB2E7196)
Correct for Detector Non-linearity: No (USB2E7196)
Correct for Stray Light: No (USB2E7196)
Number of Pixels in Processed Spectrum: 2048
>>>>>Begin Processed Spectral Data<<<<<
339.09	0.00
339.48	213.88
339.86	215.18
340.24	216.58
340.63	218.20
341.01	221.71
341.39	220.95
341.78	222.23
342.16	223.13
342.54	223.64
342.93	212.30
343.31	223.00
343.69	223.55
344.07	224.03
344.46	224.44
344.84	224.81
345.22	225.03
345.60	225.28
345.99	225.45
346.37	225.62
346.75	225.73
347.13	225.79
347.52	225.85
347.90	225.93
348.28	225.97
348.66	226.03
349.05	226.02
349.43	226.06
349.81	226.14
350.19	226.17
350.57	226.19
350.96	226.26
351.34	226.36
351.72	226.44
352.10	226.51
352.48	226.60
352.87	226.65
353.25	226.68
353.63	226.73
354.01	226.80
354.39	226.84
354.77	226.87
355.15	226.97
355.54	227.06
355.92	227.02
356.30	227.11
356.68	227.18
357.06	227.26
357.44	227.30
357.82	227.33
358.20	227.41
358.58	227.47
358.97	227.55
359.35	227.66
359.73	227.73
360.11	227.79
360.49	227.83
360.87	227.88
361.25	227.94
361.63	228.05
362.01	228.07
362.39	228.11
362.77	228.19
363.15	228.20
363.53	228.22
363.91	228.27
364.29	228.26
364.67	228.21
365.05	228.21
365.43	228.23
365.81	228.27
366.19	228.34
366.57	228.37
366.95	228.35
367.33	228.33
367.71	228.33
368.09	228.33
368.47	228.31
368.85	228.30
369.23	228.32
369.61	228.25
369.99	228.27
370.37	228.28
370.75	228.28
371.13	228.25
371.51	228.18
371.89	228.15
372.27	228.14
372.65	228.11
373.03	228.08
373.41	228.05
373.78	227.97
374.16	227.86
374.54	227.75
374.92	227.67
375.30	227.58
375.68	227.47
376.06	227.41
376.44	227.37
376.82	227.30
377.19	227.20
377.57	227.15
377.95	227.06
378.33	226.98
378.71	226.88
379.09	226.83
379.47	226.81
379.84	226.71
380.22	226.63
380.60	226.53
380.98	226.44
381.36	226.35
381.73	226.26
382.11	226.20
382.49	226.18
382.87	226.11
383.25	226.05
383.62	226.14
384.00	226.04
384.38	225.98
384.76	225.93
385.13	225.90
385.51	225.81
385.89	225.74
386.27	225.66
386.64	225.62
387.02	225.55
387.40	225.48
387.78	225.50
388.15	225.45
388.53	225.42
388.91	225.39
389.29	225.34
389.66	225.33
390.04	225.30
390.42	225.26
390.79	225.26
391.17	225.26
391.55	225.11
391.92	225.13
392.30	225.15
392.68	225.12
393.05	225.14
393.43	225.17
393.81	225.18
394.18	225.19
394.56	225.20
394.94	225.24
395.31	225.26
395.69	225.28
396.06	225.32
396.44	225.39
396.82	225.43
397.19	225.56
397.57	225.60
397.95	225.66
398.32	225.71
398.70	225.78
399.07	225.84
399.45	225.92
399.82	225.97
400.20	226.02
400.58	226.09
400.95	226.14
401.33	226.24
401.70	226.39
402.08	226.50
402.45	226.59
402.83	226.75
403.20	226.85
403.58	226.97
403.95	227.11
404.33	227.22
404.71	227.35
405.08	227.50
405.46	227.62
405.83	227.77
406.21	227.92
406.58	228.08
406.96	228.29
407.33	228.48
407.70	228.69
408.08	228.94
408.45	229.18
408.83	229.39
409.20	229.62
409.58	229.80
409.95	230.04
410.33	230.28
410.70	230.50
411.08	230.81
411.45	231.09
411.82	231.38
412.20	231.74
412.57	232.11
412.95	232.40
413.32	232.81
413.69	233.21
414.07	233.65
414.44	234.08
414.82	234.52
415.19	235.04
415.56	235.56
415.94	236.10
416.31	236.75
416.68	237.35
417.06	238.04
417.43	238.75
417.81	239.51
418.18	240.33
418.55	241.15
418.93	242.03
419.30	242.92
419.67	243.84
420.04	244.77
420.42	245.77
420.79	246.92
421.16	248.09
421.54	249.27
421.91	250.45
422.28	251.73
422.66	253.04
423.03	254.34
423.40	255.66
423.77	257.08
424.15	258.44
424.52	259.93
424.89	261.52
425.26	263.02
425.64	264.46
426.01	266.04
426.38	267.72
426.75	269.39
427.13	271.13
427.50	272.91
427.87	274.76
428.24	276.61
428.61	278.36
428.99	280.27
429.36	282.35
429.73	284.43
430.10	286.43
430.47	288.48
430.85	290.60
431.22	292.83
431.59	295.18
431.96	297.44
432.33	299.90
432.70	302.28
433.08	305.09
433.45	307.70
433.82	310.28
434.19	313.11
434.56	315.90
434.93	318.50
435.30	321.13
435.68	324.01
436.05	326.79
436.42	329.58
436.79	332.07
437.16	334.75
437.53	337.59
437.90	340.37
438.27	343.13
438.64	345.89
439.01	348.46
439.38	350.68
439.75	352.88
440.13	355.36
440.50	357.66
440.87	359.47
441.24	361.38
441.61	363.52
441.98	365.03
442.35	366.82
442.72	368.71
443.09	370.54
443.46	371.54
443.83	372.18
444.20	372.71
444.57	373.58
444.94	373.86
445.31	374.19
445.68	374.57
446.05	374.62
446.42	374.32
446.79	373.98
447.16	373.52
447.53	373.17
447.90	372.06
448.27	370.94
448.64	369.41
449.01	368.32
449.37	366.38
449.74	364.51
450.11	362.29
450.48	359.81
450.85	357.30
451.22	355.17
451.59	353.14
451.96	351.18
452.33	348.61
452.70	346.32
453.07	343.47
453.43	340.61
453.80	337.87
454.17	335.19
454.54	332.64
454.91	329.98
455.28	327.34
455.65	324.84
456.02	322.38
456.38	320.26
456.75	317.59
457.12	315.34
457.49	313.12
457.86	310.94
458.23	309.10
458.59	307.05
458.96	305.00
459.33	303.17
459.70	301.34
460.07	299.86
460.43	298.12
460.80	296.55
461.17	295.09
461.54	293.62
461.91	292.20
462.27	290.75
462.64	289.48
463.01	288.16
463.38	286.88
463.74	285.53
464.11	284.37
464.48	283.38
464.85	282.28
465.21	281.41
465.58	280.51
465.95	279.41
466.32	278.51
466.68	277.60
467.05	276.70
467.42	275.77
467.78	274.80
468.15	273.94
468.52	273.29
468.88	272.42
469.25	271.63
469.62	271.00
469.98	270.33
470.35	269.71
470.72	269.09
471.08	268.46
471.45	267.92
471.82	267.37
472.18	266.76
472.55	266.33
472.92	265.80
473.28	265.34
473.65	264.91
474.02	264.46
474.38	264.12
474.75	263.81
475.11	263.48
475.48	263.23
475.85	262.98
476.21	262.71
476.58	262.54
476.94	262.44
477.31	262.28
477.67	262.15
478.04	262.04
478.41	261.97
478.77	261.99
479.14	261.92
479.50	261.95
479.87	262.02
480.23	262.12
480.60	262.21
480.96	262.32
481.33	262.54
481.69	262.76
482.06	262.92
482.42	263.14
482.79	263.39
483.15	263.70
483.52	264.02
483.88	264.39
484.25	264.79
484.61	265.18
484.98	265.62
485.34	266.18
485.71	266.78
486.07	267.40
486.44	267.95
486.80	268.68
487.17	269.42
487.53	270.26
487.90	271.11
488.26	272.04
488.62	273.00
488.99	273.97
489.35	275.02
489.72	276.14
490.08	277.33
490.44	278.58
490.81	279.94
491.17	281.36
491.54	282.88
491.90	284.43
492.26	286.10
492.63	287.85
492.99	289.63
493.36	291.54
493.72	293.64
494.08	295.80
494.45	298.07
494.81	300.40
495.17	302.83
495.54	305.39
495.90	308.07
496.26	310.88
496.63	313.87
496.99	317.00
497.35	320.32
497.72	323.77
498.08	327.31
498.44	331.01
498.80	334.94
499.17	338.94
499.53	343.11
499.89	347.51
500.26	352.05
500.62	356.74
500.98	361.70
501.34	366.73
501.71	372.06
502.07	377.52
502.43	383.18
502.79	388.99
503.16	395.08
503.52	401.38
503.88	407.78
504.24	414.43
504.60	421.29
504.97	428.40
505.33	435.69
505.69	443.44
506.05	451.18
506.41	459.11
506.78	467.29
507.14	475.74
507.50	484.42
507.86	493.45
508.22	502.66
508.59	511.84
508.95	521.43
509.31	531.23
509.67	541.32
510.03	551.61
510.39	562.20
510.75	572.95
511.12	583.90
511.48	595.24
511.84	606.65
512.20	618.15
512.56	630.05
512.92	642.22
513.28	654.50
513.64	666.96
514.00	679.63
514.37	692.56
514.73	705.63
515.09	718.72
515.45	731.92
515.81	745.41
516.17	759.38
516.53	773.47
516.89	787.57
517.25	801.71
517.61	816.14
517.97	830.51
518.33	844.83
518.69	859.58
519.05	874.48
519.41	889.60
519.77	905.17
520.13	920.63
520.49	935.94
520.85	951.26
521.21	966.91
521.57	983.12
521.93	998.77
522.29	1015.01
522.65	1031.15
523.01	1047.25
523.37	1063.27
523.73	1079.35
524.09	1095.34
524.45	1111.60
524.81	1128.18
525.17	1144.89
525.53	1161.66
525.89	1178.55
526.25	1195.36
526.61	1211.70
526.97	1228.44
527.33	1244.78
527.68	1261.30
528.04	1277.70
528.40	1294.20
528.76	1311.18
529.12	1327.63
529.48	1344.46
529.84	1360.36
530.20	1376.83
530.56	1393.78
530.91	1411.07
531.27	1427.77
531.63	1444.09
531.99	1460.51
532.35	1476.22
532.71	1491.98
533.07	1508.16
533.42	1523.91
533.78	1539.72
534.14	1555.97
534.50	1571.09
534.86	1586.91
535.21	1601.96
535.57	1617.82
535.93	1633.26
536.29	1648.01
536.65	1662.81
537.00	1677.41
537.36	1692.71
537.72	1707.15
538.08	1721.45
538.44	1735.18
538.79	1749.07
539.15	1762.65
539.51	1776.39
539.87	1790.64
540.22	1804.29
540.58	1817.93
540.94	1831.21
541.29	1843.92
541.65	1856.37
542.01	1869.51
542.37	1881.69
542.72	1894.01
543.08	1905.59
543.44	1917.90
543.79	1928.95
544.15	1939.98
544.51	1951.48
544.87	1962.31
545.22	1973.03
545.58	1983.32
545.94	1993.00
546.29	2002.69
546.65	2012.70
547.01	2021.78
547.36	2030.58
547.72	2038.96
548.07	2046.84
548.43	2054.92
548.79	2062.93
549.14	2070.38
549.50	2077.55
549.86	2084.99
550.21	2092.22
550.57	2099.39
550.92	2105.79
551.28	2112.84
551.64	2119.86
551.99	2126.24
552.35	2132.41
552.70	2138.54
553.06	2144.54
553.41	2150.73
553.77	2156.67
554.13	2162.59
554.48	2168.83
554.84	2174.23
555.19	2179.53
555.55	2184.66
555.90	2189.14
556.26	2194.01
556.61	2198.70
556.97	2203.20
557.32	2207.48
557.68	2211.68
558.03	2216.04
558.39	2219.81
558.74	2224.44
559.10	2228.40
559.45	2232.12
559.81	2236.37
560.16	2240.25
560.52	2243.22
560.87	2246.73
561.23	2249.41
561.58	2252.34
561.94	2254.80
562.29	2257.09
562.64	2259.76
563.00	2262.30
563.35	2265.84
563.71	2269.03
564.06	2272.36
564.42	2275.21
564.77	2277.85
565.12	2280.09
565.48	2282.02
565.83	2283.90
566.19	2285.26
566.54	2286.24
566.89	2287.36
567.25	2287.91
567.60	2289.20
567.96	2291.03
568.31	2291.80
568.66	2293.05
569.02	2293.66
569.37	2294.00
569.72	2294.93
570.08	2295.25
570.43	2295.39
570.78	2294.77
571.14	2293.48
571.49	2292.07
571.84	2291.75
572.20	2290.62
572.55	2289.69
572.90	2288.21
573.26	2286.86
573.61	2285.29
573.96	2283.55
574.31	2280.74
574.67	2277.93
575.02	2274.46
575.37	2271.15
575.72	2267.52
576.08	2264.17
576.43	2260.84
576.78	2257.24
577.13	2254.26
577.49	2251.10
577.84	2247.76
578.19	2244.10
578.54	2240.46
578.90	2236.34
579.25	2230.94
579.60	2225.90
579.95	2220.90
580.30	2215.99
580.66	2211.01
581.01	2206.10
581.36	2201.25
581.71	2197.22
582.06	2192.82
582.42	2188.32
582.77	2183.14
583.12	2178.66
583.47	2174.13
583.82	2169.23
584.17	2164.12
584.53	2158.64
584.88	2153.07
585.23	2147.27
585.58	2141.99
585.93	2136.58
586.28	2131.83
586.63	2126.82
586.98	2122.03
587.34	2117.39
587.69	2112.55
588.04	2107.36
588.39	2101.69
588.74	2095.24
589.09	2089.14
589.44	2082.35
589.79	2076.49
590.14	2070.97
590.49	2064.56
590.84	2058.17
591.19	2052.27
591.54	2045.80
591.89	2038.42
592.25	2031.73
592.60	2024.61
592.95	2017.10
593.30	2009.82
593.65	2002.37
594.00	1995.35
594.35	1988.13
594.70	1980.17
595.05	1973.01
595.40	1965.81
595.75	1958.39
596.10	1952.26
596.45	1945.55
596.80	1939.48
597.15	1932.95
597.50	1925.92
597.85	1919.40
598.19	1912.77
598.54	1905.64
598.89	1899.09
599.24	1893.33
599.59	1886.64
599.94	1880.51
600.29	1874.19
600.64	1867.62
600.99	1860.36
601.34	1853.72
601.69	1846.77
602.04	1840.04
602.39	1832.60
602.74	1825.77
603.08	1818.97
603.43	1812.19
603.78	1804.96
604.13	1797.79
604.48	1790.40
604.83	1783.45
605.18	1776.56
605.53	1768.59
605.87	1760.55
606.22	1753.28
606.57	1745.36
606.92	1738.08
607.27	1730.86
607.62	1723.95
607.96	1716.71
608.31	1710.00
608.66	1702.24
609.01	1694.63
609.36	1686.95
609.70	1679.01
610.05	1670.94
610.40	1663.32
610.75	1654.98
611.10	1647.23
611.44	1638.90
611.79	1630.96
612.14	1622.36
612.49	1613.20
612.83	1604.81
613.18	1596.82
613.53	1588.71
613.88	1580.18
614.22	1571.84
614.57	1563.33
614.92	1555.28
615.27	1547.71
615.61	1539.29
615.96	1531.27
616.31	1523.76
616.65	1516.38
617.00	1508.76
617.35	1501.22
617.70	1492.83
618.04	1484.40
618.39	1476.20
618.74	1468.58
619.08	1460.22
619.43	1452.70
619.78	1445.81
620.12	1438.70
620.47	1431.16
620.82	1423.08
621.16	1415.64
621.51	1408.15
621.85	1400.47
622.20	1391.91
622.55	1383.58
622.89	1375.81
623.24	1368.21
623.59	1360.81
623.93	1353.30
624.28	1346.01
624.62	1338.34
624.97	1331.23
625.32	1324.48
625.66	1317.54
626.01	1310.28
626.35	1302.89
626.70	1295.08
627.04	1287.33
627.39	1279.54
627.73	1272.21
628.08	1265.30
628.43	1258.03
628.77	1250.57
629.12	1242.99
629.46	1235.83
629.81	1228.36
630.15	1221.19
630.50	1213.75
630.84	1205.51
631.19	1197.61
631.53	1190.22
631.88	1182.67
632.22	1175.14
632.57	1167.78
632.91	1160.20
633.26	1152.83
633.60	1145.45
633.95	1138.32
634.29	1131.29
634.64	1124.53
634.98	1117.18
635.32	1110.02
635.67	1103.37
636.01	1096.78
636.36	1089.95
636.70	1083.45
637.05	1076.80
637.39	1070.34
637.73	1063.86
638.08	1057.97
638.42	1052.04
638.77	1045.62
639.11	1039.01
639.45	1032.56
639.80	1025.90
640.14	1019.42
640.49	1012.97
640.83	1006.74
641.17	1000.55
641.52	994.11
641.86	987.67
642.20	981.70
642.55	975.36
642.89	968.83
643.23	962.27
643.58	956.59
643.92	950.40
644.26	944.36
644.61	938.25
644.95	932.21
645.29	925.51
645.64	918.69
645.98	912.36
646.32	906.60
646.66	900.51
647.01	894.66
647.35	888.98
647.69	883.06
648.04	877.52
648.38	871.74
648.72	865.83
649.06	859.72
649.41	853.86
649.75	847.88
650.09	842.04
650.43	836.31
650.78	830.09
651.12	824.16
651.46	818.43
651.80	812.74
652.14	807.25
652.49	801.99
652.83	796.86
653.17	791.15
653.51	785.40
653.85	780.11
654.20	774.48
654.54	768.47
654.88	762.72
655.22	756.77
655.56	751.13
655.90	745.69
656.25	740.53
656.59	735.15
656.93	730.17
657.27	724.99
657.61	719.48
657.95	714.41
658.29	709.33
658.64	704.11
658.98	698.69
659.32	693.29
659.66	688.06
660.00	682.70
660.34	677.77
660.68	672.83
661.02	667.72
661.36	663.09
661.70	658.65
662.05	654.36
662.39	650.02
662.73	645.49
663.07	641.06
663.41	636.59
663.75	632.15
664.09	627.53
664.43	623.09
664.77	619.01
665.11	614.68
665.45	610.54
665.79	606.51
666.13	602.43
666.47	598.34
666.81	594.13
667.15	590.04
667.49	586.13
667.83	582.30
668.17	578.43
668.51	574.31
668.85	570.21
669.19	566.30
669.53	562.43
669.87	558.59
670.21	554.90
670.55	551.29
670.89	547.80
671.23	544.36
671.57	540.84
671.91	537.22
672.25	533.81
672.58	530.27
672.92	526.79
673.26	523.64
673.60	520.52
673.94	517.48
674.28	514.48
674.62	511.52
674.96	508.40
675.30	505.46
675.64	502.51
675.97	499.76
676.31	496.89
676.65	493.96
676.99	491.22
677.33	488.36
677.67	485.44
678.01	482.41
678.34	479.40
678.68	476.54
679.02	473.75
679.36	470.94
679.70	468.22
680.04	465.47
680.37	462.56
680.71	459.74
681.05	457.11
681.39	454.43
681.73	451.77
682.06	449.25
682.40	446.68
682.74	444.17
683.08	441.56
683.42	439.01
683.75	436.48
684.09	433.93
684.43	431.45
684.77	429.04
685.10	426.68
685.44	424.41
685.78	422.16
686.12	419.88
686.45	417.61
686.79	415.31
687.13	413.14
687.46	411.02
687.80	408.86
688.14	406.62
688.48	404.56
688.81	402.29
689.15	400.13
689.49	398.02
689.82	395.95
690.16	393.91
690.50	391.94
690.83	390.03
691.17	388.02
691.51	386.13
691.84	384.25
692.18	382.29
692.52	380.26
692.85	378.29
693.19	376.42
693.52	374.51
693.86	372.67
694.20	370.86
694.53	369.03
694.87	367.24
695.21	365.47
695.54	363.65
695.88	361.93
696.21	360.21
696.55	358.51
696.88	356.81
697.22	355.17
697.56	353.52
697.89	351.86
698.23	350.27
698.56	348.63
698.90	347.06
699.23	345.44
699.57	343.85
699.90	342.33
700.24	340.80
700.58	339.27
700.91	337.78
701.25	336.33
701.58	334.94
701.92	333.54
702.25	332.11
702.59	330.69
702.92	329.36
703.26	328.02
703.59	326.72
703.93	325.51
704.26	324.26
704.60	322.96
704.93	321.68
705.26	320.39
705.60	319.25
705.93	318.09
706.27	317.10
706.60	316.11
706.94	315.03
707.27	313.92
707.61	312.88
707.94	311.86
708.27	310.74
708.61	309.64
708.94	308.61
709.28	307.68
709.61	306.79
709.94	305.89
710.28	304.87
710.61	303.94
710.95	302.89
711.28	301.96
711.61	301.05
711.95	300.12
712.28	299.24
712.61	298.28
712.95	297.30
713.28	296.41
713.61	295.47
713.95	294.59
714.28	293.77
714.61	292.90
714.95	292.05
715.28	291.21
715.61	290.32
715.95	289.46
716.28	288.58
716.61	287.68
716.95	286.82
717.28	286.13
717.61	285.30
717.94	284.50
718.28	283.68
718.61	282.89
718.94	282.22
719.27	281.53
719.61	280.85
719.94	280.20
720.27	279.45
720.60	278.80
720.94	278.14
721.27	277.49
721.60	276.92
721.93	276.36
722.27	275.82
722.60	275.30
722.93	274.76
723.26	274.23
723.59	273.72
723.93	273.19
724.26	272.55
724.59	272.02
724.92	271.56
725.25	271.04
725.59	270.51
725.92	269.98
726.25	269.49
726.58	268.97
726.91	268.45
727.24	267.98
727.57	267.53
727.91	267.03
728.24	266.59
728.57	266.08
728.90	265.65
729.23	265.14
729.56	264.70
729.89	264.20
730.22	263.69
730.55	263.19
730.89	262.75
731.22	262.34
731.55	261.89
731.88	261.49
732.21	261.08
732.54	260.67
732.87	260.27
733.20	259.85
733.53	259.50
733.86	259.14
734.19	258.75
734.52	258.34
734.85	258.05
735.18	257.64
735.51	257.29
735.84	256.88
736.17	256.55
736.50	256.14
736.83	255.95
737.16	255.62
737.49	255.33
737.82	254.99
738.15	254.69
738.48	254.36
738.81	254.00
739.14	253.68
739.47	253.41
739.80	253.07
740.13	252.81
740.46	252.50
740.79	252.19
741.12	251.87
741.45	251.57
741.78	251.21
742.11	250.91
742.44	250.62
742.77	250.36
743.10	250.07
743.43	249.81
743.75	249.39
744.08	249.25
744.41	248.98
744.74	248.72
745.07	248.45
745.40	248.24
745.73	248.02
746.06	247.76
746.39	247.47
746.71	247.21
747.04	246.94
747.37	246.67
747.70	246.46
748.03	246.19
748.36	245.98
748.68	245.74
749.01	245.48
749.34	245.22
749.67	244.97
750.00	244.73
750.33	244.57
750.65	244.40
750.98	244.07
751.31	243.82
751.64	243.61
751.97	243.43
752.29	243.18
752.62	242.92
752.95	242.73
753.28	242.51
753.60	242.32
753.93	242.14
754.26	241.95
754.59	241.72
754.91	241.55
755.24	241.35
755.57	241.13
755.90	240.95
756.22	240.78
756.55	240.56
756.88	240.36
757.20	240.10
757.53	239.88
757.86	239.72
758.19	239.56
758.51	239.34
758.84	239.14
759.17	238.97
759.49	238.80
759.82	238.65
760.15	238.51
760.47	238.34
760.80	238.18
761.13	238.02
761.45	237.90
761.78	237.75
762.11	237.60
762.43	237.47
762.76	237.35
763.08	237.19
763.41	237.06
763.74	236.96
764.06	236.84
764.39	236.70
764.71	236.54
765.04	236.41
765.37	236.31
765.69	236.17
766.02	236.06
766.34	235.95
766.67	235.80
767.00	235.71
767.32	235.65
767.65	235.60
767.97	235.47
768.30	235.33
768.62	235.20
768.95	235.08
769.27	234.99
769.60	234.91
769.92	234.85
770.25	234.77
770.57	234.64
770.90	234.54
771.22	234.44
771.55	234.37
771.87	234.27
772.20	234.19
772.52	234.17
772.85	234.18
773.17	234.09
773.50	234.00
773.82	233.92
774.15	233.81
774.47	233.63
774.80	233.53
775.12	233.45
775.45	233.36
775.77	233.31
776.09	233.22
776.42	233.14
776.74	233.08
777.07	232.96
777.39	232.92
777.72	232.82
778.04	232.75
778.36	232.64
778.69	232.57
779.01	232.52
779.33	232.40
779.66	232.25
779.98	232.18
780.31	232.11
780.63	232.02
780.95	231.96
781.28	231.90
781.60	231.81
781.92	231.78
782.25	231.72
782.57	231.64
782.89	231.58
783.22	231.48
783.54	231.39
783.86	231.39
784.19	231.29
784.51	231.27
784.83	231.22
785.16	231.18
785.48	231.13
785.80	231.05
786.12	230.97
786.45	230.91
786.77	230.88
787.09	230.84
