SpectraSuite Data File
++++++++++++++++++++++++++++++++++++
Date: Fri Feb 01 15:56:09 EST 2013
User: group
Dark Spectrum Present: No
Reference Spectrum Present: No
Number of Sampled Component Spectra: 1
Spectrometers: USB2E7196
Integration Time (usec): 35000 (USB2E7196)
Spectra Averaged: 100 (USB2E7196)
Boxcar Smoothing: 10 (USB2E7196)
Correct for Electrical Dark: No (USB2E7196)
Strobe/Lamp Enabled: No (USB2E7196)
Correct for Detector Non-linearity: No (USB2E7196)
Correct for Stray Light: No (USB2E7196)
Number of Pixels in Processed Spectrum: 2048
>>>>>Begin Processed Spectral Data<<<<<
339.09	0.00
339.48	215.29
339.86	215.92
340.24	217.37
340.63	218.91
341.01	221.21
341.39	221.44
341.78	223.10
342.16	224.67
342.54	225.18
342.93	213.13
343.31	223.91
343.69	224.46
344.07	224.94
344.46	225.38
344.84	225.77
345.22	226.04
345.60	226.31
345.99	226.51
346.37	226.61
346.75	226.69
347.13	226.76
347.52	226.81
347.90	226.89
348.28	226.93
348.66	226.95
349.05	226.96
349.43	227.02
349.81	227.08
350.19	227.12
350.57	227.18
350.96	227.24
351.34	227.31
351.72	227.37
352.10	227.49
352.48	227.54
352.87	227.59
353.25	227.68
353.63	227.75
354.01	227.79
354.39	227.87
354.77	227.97
355.15	228.07
355.54	228.16
355.92	228.20
356.30	228.25
356.68	228.40
357.06	228.46
357.44	228.51
357.82	228.55
358.20	228.62
358.58	228.65
358.97	228.74
359.35	228.80
359.73	228.87
360.11	228.89
360.49	228.96
360.87	228.99
361.25	229.01
361.63	229.05
362.01	229.09
362.39	229.12
362.77	229.15
363.15	229.15
363.53	229.19
363.91	229.19
364.29	229.21
364.67	229.11
365.05	229.11
365.43	229.10
365.81	229.15
366.19	229.19
366.57	229.23
366.95	229.19
367.33	229.19
367.71	229.11
368.09	229.13
368.47	229.12
368.85	229.12
369.23	229.09
369.61	229.03
369.99	229.04
370.37	229.00
370.75	229.01
371.13	228.91
371.51	228.82
371.89	228.76
372.27	228.74
372.65	228.68
373.03	228.64
373.41	228.58
373.78	228.49
374.16	228.37
374.54	228.27
374.92	228.18
375.30	228.09
375.68	228.04
376.06	227.98
376.44	227.90
376.82	227.84
377.19	227.79
377.57	227.73
377.95	227.64
378.33	227.58
378.71	227.45
379.09	227.43
379.47	227.40
379.84	227.32
380.22	227.22
380.60	227.15
380.98	227.04
381.36	226.98
381.73	226.92
382.11	226.90
382.49	226.86
382.87	226.84
383.25	226.77
383.62	226.81
384.00	226.74
384.38	226.65
384.76	226.58
385.13	226.57
385.51	226.53
385.89	226.44
386.27	226.41
386.64	226.37
387.02	226.33
387.40	226.28
387.78	226.26
388.15	226.26
388.53	226.23
388.91	226.23
389.29	226.16
389.66	226.17
390.04	226.11
390.42	226.09
390.79	226.05
391.17	226.07
391.55	225.99
391.92	225.97
392.30	226.01
392.68	226.01
393.05	226.02
393.43	226.04
393.81	226.06
394.18	226.02
394.56	226.03
394.94	226.07
395.31	226.10
395.69	226.17
396.06	226.18
396.44	226.22
396.82	226.27
397.19	226.37
397.57	226.42
397.95	226.49
398.32	226.51
398.70	226.59
399.07	226.66
399.45	226.70
399.82	226.74
400.20	226.80
400.58	226.88
400.95	226.91
401.33	226.99
401.70	227.17
402.08	227.27
402.45	227.37
402.83	227.49
403.20	227.58
403.58	227.66
403.95	227.82
404.33	227.92
404.71	228.04
405.08	228.25
405.46	228.32
405.83	228.46
406.21	228.63
406.58	228.79
406.96	228.93
407.33	229.12
407.70	229.36
408.08	229.63
408.45	229.84
408.83	230.06
409.20	230.25
409.58	230.39
409.95	230.70
410.33	231.00
410.70	231.20
411.08	231.49
411.45	231.82
411.82	232.11
412.20	232.47
412.57	232.84
412.95	233.09
413.32	233.53
413.69	233.95
414.07	234.38
414.44	234.85
414.82	235.34
415.19	235.88
415.56	236.39
415.94	236.92
416.31	237.56
416.68	238.18
417.06	238.88
417.43	239.55
417.81	240.30
418.18	241.03
418.55	241.87
418.93	242.76
419.30	243.62
419.67	244.56
420.04	245.51
420.42	246.52
420.79	247.71
421.16	248.86
421.54	250.05
421.91	251.25
422.28	252.52
422.66	253.87
423.03	255.18
423.40	256.51
423.77	257.92
424.15	259.37
424.52	260.92
424.89	262.52
425.26	264.10
425.64	265.51
426.01	267.11
426.38	268.80
426.75	270.48
427.13	272.23
427.50	274.03
427.87	275.99
428.24	277.84
428.61	279.59
428.99	281.53
429.36	283.63
429.73	285.74
430.10	287.75
430.47	289.79
430.85	291.89
431.22	294.15
431.59	296.53
431.96	298.77
432.33	301.18
432.70	303.57
433.08	306.40
433.45	309.06
433.82	311.70
434.19	314.64
434.56	317.42
434.93	320.04
435.30	322.73
435.68	325.52
436.05	328.36
436.42	331.13
436.79	333.65
437.16	336.33
437.53	339.12
437.90	341.94
438.27	344.68
438.64	347.54
439.01	350.16
439.38	352.39
439.75	354.55
440.13	357.01
440.50	359.35
440.87	361.19
441.24	363.13
441.61	365.22
441.98	366.65
442.35	368.46
442.72	370.34
443.09	372.06
443.46	373.06
443.83	373.68
444.20	374.21
444.57	375.04
444.94	375.32
445.31	375.64
445.68	375.96
446.05	376.00
446.42	375.60
446.79	375.15
447.16	374.72
447.53	374.39
447.90	373.27
448.27	372.12
448.64	370.52
449.01	369.33
449.37	367.39
449.74	365.53
450.11	363.26
450.48	360.79
450.85	358.29
451.22	356.16
451.59	354.11
451.96	352.21
452.33	349.57
452.70	347.23
453.07	344.43
453.43	341.56
453.80	338.84
454.17	336.17
454.54	333.65
454.91	330.90
455.28	328.24
455.65	325.74
456.02	323.31
456.38	321.17
456.75	318.59
457.12	316.34
457.49	314.10
457.86	311.98
458.23	310.10
458.59	308.03
458.96	305.95
459.33	304.11
459.70	302.22
460.07	300.75
460.43	299.03
460.80	297.40
461.17	295.97
461.54	294.48
461.91	293.02
462.27	291.56
462.64	290.35
463.01	289.01
463.38	287.75
463.74	286.38
464.11	285.23
464.48	284.19
464.85	283.08
465.21	282.23
465.58	281.31
465.95	280.23
466.32	279.34
466.68	278.46
467.05	277.59
467.42	276.69
467.78	275.76
468.15	274.93
468.52	274.29
468.88	273.46
469.25	272.69
469.62	272.11
469.98	271.42
470.35	270.77
470.72	270.19
471.08	269.55
471.45	269.00
471.82	268.44
472.18	267.83
472.55	267.40
472.92	266.90
473.28	266.38
473.65	265.97
474.02	265.54
474.38	265.15
474.75	264.84
475.11	264.48
475.48	264.23
475.85	263.99
476.21	263.74
476.58	263.55
476.94	263.39
477.31	263.16
477.67	263.04
478.04	262.93
478.41	262.84
478.77	262.87
479.14	262.82
479.50	262.85
479.87	262.91
480.23	263.00
480.60	263.01
480.96	263.14
481.33	263.32
481.69	263.50
482.06	263.71
482.42	263.89
482.79	264.17
483.15	264.51
483.52	264.87
483.88	265.21
484.25	265.59
484.61	266.03
484.98	266.53
485.34	267.05
485.71	267.67
486.07	268.28
486.44	268.85
486.80	269.54
487.17	270.26
487.53	271.09
487.90	271.96
488.26	272.91
488.62	273.91
488.99	274.89
489.35	275.97
489.72	277.07
490.08	278.25
490.44	279.51
490.81	280.81
491.17	282.15
491.54	283.61
491.90	285.14
492.26	286.75
492.63	288.51
492.99	290.28
493.36	292.17
493.72	294.20
494.08	296.27
494.45	298.53
494.81	300.90
495.17	303.33
495.54	305.84
495.90	308.53
496.26	311.32
496.63	314.26
496.99	317.36
497.35	320.64
497.72	324.04
498.08	327.54
498.44	331.24
498.80	335.17
499.17	339.24
499.53	343.42
499.89	347.85
500.26	352.27
500.62	356.92
500.98	361.88
501.34	366.96
501.71	372.34
502.07	377.72
502.43	383.31
502.79	389.14
503.16	395.25
503.52	401.53
503.88	407.94
504.24	414.61
504.60	421.51
504.97	428.67
505.33	436.03
505.69	443.73
506.05	451.49
506.41	459.40
506.78	467.62
507.14	476.07
507.50	484.78
507.86	493.84
508.22	503.08
508.59	512.30
508.95	521.91
509.31	531.78
509.67	541.91
510.03	552.27
510.39	562.79
510.75	573.60
511.12	584.52
511.48	595.80
511.84	607.22
512.20	618.72
512.56	630.67
512.92	642.83
513.28	655.25
513.64	667.74
514.00	680.42
514.37	693.29
514.73	706.35
515.09	719.33
515.45	732.69
515.81	746.27
516.17	760.23
516.53	774.32
516.89	788.47
517.25	802.59
517.61	817.01
517.97	831.52
518.33	845.91
518.69	860.67
519.05	875.74
519.41	890.91
519.77	906.47
520.13	921.83
520.49	937.24
520.85	952.63
521.21	968.45
521.57	984.68
521.93	1000.44
522.29	1016.84
522.65	1033.06
523.01	1049.18
523.37	1065.14
523.73	1081.26
524.09	1097.36
524.45	1113.57
524.81	1130.22
525.17	1146.99
525.53	1163.84
525.89	1180.66
526.25	1197.44
526.61	1213.69
526.97	1230.47
527.33	1246.90
527.68	1263.50
528.04	1279.89
528.40	1296.44
528.76	1313.37
529.12	1329.83
529.48	1346.63
529.84	1362.70
530.20	1379.40
530.56	1396.49
530.91	1413.99
531.27	1430.69
531.63	1447.15
531.99	1463.76
532.35	1479.74
532.71	1495.50
533.07	1511.68
533.42	1527.66
533.78	1543.75
534.14	1560.03
534.50	1575.35
534.86	1591.15
535.21	1606.34
535.57	1622.29
535.93	1637.68
536.29	1652.32
536.65	1667.43
537.00	1682.15
537.36	1697.32
537.72	1711.79
538.08	1726.12
538.44	1739.79
538.79	1753.67
539.15	1767.29
539.51	1781.00
539.87	1795.35
540.22	1809.18
540.58	1822.91
540.94	1836.09
541.29	1848.99
541.65	1861.64
542.01	1874.73
542.37	1887.05
542.72	1899.44
543.08	1911.19
543.44	1923.46
543.79	1934.69
544.15	1945.62
544.51	1957.23
544.87	1968.20
545.22	1979.02
545.58	1989.06
545.94	1998.87
546.29	2008.74
546.65	2018.54
547.01	2027.76
547.36	2036.35
547.72	2044.67
548.07	2052.47
548.43	2060.71
548.79	2068.64
549.14	2076.19
549.50	2083.62
549.86	2091.31
550.21	2098.62
550.57	2105.67
550.92	2112.26
551.28	2119.30
551.64	2126.43
551.99	2133.00
552.35	2139.05
552.70	2145.18
553.06	2151.18
553.41	2157.42
553.77	2163.48
554.13	2169.55
554.48	2175.72
554.84	2181.29
555.19	2186.58
555.55	2191.80
555.90	2196.21
556.26	2201.17
556.61	2205.91
556.97	2210.14
557.32	2214.22
557.68	2218.41
558.03	2222.89
558.39	2226.72
558.74	2231.43
559.10	2235.40
559.45	2239.03
559.81	2243.46
560.16	2247.29
560.52	2250.65
560.87	2254.18
561.23	2256.83
561.58	2259.85
561.94	2262.37
562.29	2264.68
562.64	2267.40
563.00	2269.99
563.35	2273.57
563.71	2276.69
564.06	2279.89
564.42	2282.72
564.77	2285.17
565.12	2287.47
565.48	2289.16
565.83	2291.05
566.19	2292.36
566.54	2293.07
566.89	2294.21
567.25	2294.77
567.60	2296.04
567.96	2297.76
568.31	2298.53
568.66	2299.70
569.02	2300.21
569.37	2300.31
569.72	2301.16
570.08	2301.33
570.43	2301.46
570.78	2300.79
571.14	2299.11
571.49	2297.75
571.84	2297.38
572.20	2296.31
572.55	2295.26
572.90	2293.85
573.26	2292.40
573.61	2290.76
573.96	2289.09
574.31	2286.04
574.67	2283.06
575.02	2279.42
575.37	2275.90
575.72	2272.12
576.08	2268.88
576.43	2265.64
576.78	2262.13
577.13	2258.94
577.49	2255.88
577.84	2252.25
578.19	2248.63
578.54	2245.12
578.90	2240.79
579.25	2235.34
579.60	2230.43
579.95	2225.27
580.30	2220.07
580.66	2215.07
581.01	2210.05
581.36	2205.08
581.71	2200.99
582.06	2196.40
582.42	2191.92
582.77	2186.65
583.12	2182.06
583.47	2177.11
583.82	2171.97
584.17	2166.67
584.53	2161.17
584.88	2155.58
585.23	2149.86
585.58	2144.30
585.93	2138.89
586.28	2134.11
586.63	2128.98
586.98	2123.82
587.34	2119.26
587.69	2114.64
588.04	2109.17
588.39	2103.52
588.74	2097.14
589.09	2090.98
589.44	2084.34
589.79	2078.47
590.14	2072.93
590.49	2066.49
590.84	2060.20
591.19	2054.26
591.54	2047.88
591.89	2040.61
592.25	2033.71
592.60	2026.50
592.95	2018.96
593.30	2011.55
593.65	2004.05
594.00	1997.05
594.35	1989.94
594.70	1981.89
595.05	1974.58
595.40	1967.32
595.75	1959.76
596.10	1953.40
596.45	1946.64
596.80	1940.41
597.15	1933.78
597.50	1926.57
597.85	1919.98
598.19	1913.16
598.54	1905.97
598.89	1899.30
599.24	1893.28
599.59	1886.64
599.94	1880.44
600.29	1874.12
600.64	1867.59
600.99	1860.17
601.34	1853.30
601.69	1846.33
602.04	1839.52
602.39	1832.17
602.74	1825.43
603.08	1818.71
603.43	1812.09
603.78	1804.78
604.13	1797.57
604.48	1790.03
604.83	1783.31
605.18	1776.45
605.53	1768.53
605.87	1760.58
606.22	1753.41
606.57	1745.49
606.92	1738.15
607.27	1730.98
607.62	1724.04
607.96	1716.72
608.31	1710.05
608.66	1702.46
609.01	1694.88
609.36	1687.22
609.70	1679.12
610.05	1671.06
610.40	1663.50
610.75	1655.09
611.10	1647.38
611.44	1638.98
611.79	1631.13
612.14	1622.45
612.49	1613.38
612.83	1604.98
613.18	1596.85
613.53	1588.74
613.88	1580.27
614.22	1571.94
614.57	1563.42
614.92	1555.43
615.27	1547.87
615.61	1539.54
615.96	1531.51
616.31	1523.78
616.65	1516.39
617.00	1508.88
617.35	1501.11
617.70	1492.62
618.04	1484.13
618.39	1475.94
618.74	1468.25
619.08	1459.96
619.43	1452.43
619.78	1445.45
620.12	1438.30
620.47	1430.70
620.82	1422.55
621.16	1415.13
621.51	1407.58
621.85	1399.80
622.20	1391.29
622.55	1382.92
622.89	1375.08
623.24	1367.62
623.59	1360.34
623.93	1352.82
624.28	1345.63
624.62	1338.11
624.97	1330.94
625.32	1324.17
625.66	1317.21
626.01	1310.22
626.35	1302.74
626.70	1294.93
627.04	1287.20
627.39	1279.49
627.73	1272.25
628.08	1265.38
628.43	1258.06
628.77	1250.77
629.12	1243.31
629.46	1236.14
629.81	1228.75
630.15	1221.63
630.50	1214.07
630.84	1205.79
631.19	1197.86
631.53	1190.38
631.88	1182.89
632.22	1175.33
632.57	1168.13
632.91	1160.48
633.26	1152.98
633.60	1145.56
633.95	1138.49
634.29	1131.41
634.64	1124.80
634.98	1117.33
635.32	1110.05
635.67	1103.43
636.01	1096.75
636.36	1089.99
636.70	1083.40
637.05	1076.81
637.39	1070.32
637.73	1063.77
638.08	1057.95
638.42	1051.94
638.77	1045.43
639.11	1038.84
639.45	1032.40
639.80	1025.68
640.14	1019.32
640.49	1012.78
640.83	1006.53
641.17	1000.30
641.52	993.99
641.86	987.42
642.20	981.59
642.55	975.34
642.89	968.87
643.23	962.33
643.58	956.49
643.92	950.31
644.26	944.22
644.61	938.16
644.95	932.22
645.29	925.58
645.64	918.87
645.98	912.57
646.32	906.75
646.66	900.77
647.01	894.97
647.35	889.17
647.69	883.38
648.04	877.87
648.38	872.04
648.72	865.96
649.06	859.89
649.41	853.91
649.75	847.86
650.09	841.91
650.43	836.12
650.78	829.89
651.12	823.95
651.46	818.18
651.80	812.38
652.14	806.95
652.49	801.63
652.83	796.45
653.17	790.72
653.51	784.94
653.85	779.54
654.20	773.90
654.54	767.98
654.88	762.16
655.22	756.26
655.56	750.53
655.90	745.18
656.25	739.95
656.59	734.66
656.93	729.66
657.27	724.47
657.61	719.04
657.95	713.95
658.29	708.88
658.64	703.66
658.98	698.41
659.32	692.89
659.66	687.60
660.00	682.30
660.34	677.38
660.68	672.49
661.02	667.47
661.36	662.70
661.70	658.28
662.05	653.97
662.39	649.68
662.73	645.22
663.07	640.77
663.41	636.40
663.75	631.98
664.09	627.38
664.43	623.04
664.77	618.93
665.11	614.68
665.45	610.61
665.79	606.50
666.13	602.33
666.47	598.26
666.81	594.17
667.15	590.06
667.49	586.13
667.83	582.32
668.17	578.41
668.51	574.41
668.85	570.33
669.19	566.49
669.53	562.61
669.87	558.77
670.21	555.14
670.55	551.45
670.89	547.99
671.23	544.56
671.57	541.02
671.91	537.44
672.25	534.02
672.58	530.47
672.92	527.10
673.26	524.02
673.60	520.89
673.94	517.80
674.28	514.94
674.62	512.00
674.96	508.87
675.30	505.97
675.64	503.06
675.97	500.28
676.31	497.36
676.65	494.46
676.99	491.76
677.33	488.88
677.67	486.09
678.01	483.02
678.34	480.04
678.68	477.21
679.02	474.43
679.36	471.64
679.70	468.92
680.04	466.18
680.37	463.22
680.71	460.41
681.05	457.73
681.39	454.92
681.73	452.25
682.06	449.73
682.40	447.15
682.74	444.62
683.08	442.08
683.42	439.51
683.75	437.01
684.09	434.46
684.43	432.00
684.77	429.54
685.10	427.24
685.44	424.97
685.78	422.67
686.12	420.44
686.45	418.12
686.79	415.82
687.13	413.63
687.46	411.51
687.80	409.38
688.14	407.19
688.48	405.15
688.81	402.91
689.15	400.83
689.49	398.63
689.82	396.53
690.16	394.43
690.50	392.50
690.83	390.56
691.17	388.55
691.51	386.58
691.84	384.76
692.18	382.78
692.52	380.77
692.85	378.79
693.19	376.89
693.52	375.03
693.86	373.20
694.20	371.37
694.53	369.60
694.87	367.73
695.21	365.97
695.54	364.15
695.88	362.40
696.21	360.65
696.55	358.96
696.88	357.28
697.22	355.64
697.56	354.01
697.89	352.34
698.23	350.76
698.56	349.14
698.90	347.52
699.23	345.93
699.57	344.41
699.90	342.91
700.24	341.40
700.58	339.91
700.91	338.44
701.25	337.04
701.58	335.66
701.92	334.33
702.25	332.99
702.59	331.63
702.92	330.37
703.26	329.07
703.59	327.82
703.93	326.65
704.26	325.44
704.60	324.13
704.93	322.85
705.26	321.61
705.60	320.43
705.93	319.27
706.27	318.21
706.60	317.14
706.94	316.04
707.27	314.94
707.61	313.88
707.94	312.83
708.27	311.72
708.61	310.64
708.94	309.63
709.28	308.63
709.61	307.70
709.94	306.74
710.28	305.70
710.61	304.75
710.95	303.65
711.28	302.75
711.61	301.84
711.95	300.95
712.28	300.02
712.61	299.02
712.95	298.08
713.28	297.18
713.61	296.33
713.95	295.45
714.28	294.61
714.61	293.78
714.95	292.97
715.28	292.13
715.61	291.29
715.95	290.45
716.28	289.62
716.61	288.75
716.95	287.93
717.28	287.18
717.61	286.39
717.94	285.69
718.28	284.85
718.61	284.12
718.94	283.44
719.27	282.77
719.61	282.17
719.94	281.51
720.27	280.83
720.60	280.08
720.94	279.46
721.27	278.85
721.60	278.24
721.93	277.61
722.27	277.05
722.60	276.45
722.93	275.86
723.26	275.30
723.59	274.75
723.93	274.18
724.26	273.64
724.59	273.10
724.92	272.54
725.25	272.05
725.59	271.49
725.92	270.97
726.25	270.46
726.58	269.95
726.91	269.47
727.24	269.00
727.57	268.55
727.91	268.06
728.24	267.54
728.57	267.07
728.90	266.61
729.23	266.14
729.56	265.73
729.89	265.27
730.22	264.79
730.55	264.32
730.89	263.92
731.22	263.45
731.55	263.01
731.88	262.63
732.21	262.20
732.54	261.79
732.87	261.34
733.20	260.97
733.53	260.58
733.86	260.16
734.19	259.74
734.52	259.39
734.85	259.05
735.18	258.66
735.51	258.29
735.84	257.96
736.17	257.57
736.50	257.15
736.83	256.92
737.16	256.59
737.49	256.28
737.82	255.93
738.15	255.59
738.48	255.28
738.81	254.96
739.14	254.62
739.47	254.30
739.80	254.02
740.13	253.70
740.46	253.38
740.79	253.12
741.12	252.80
741.45	252.44
741.78	252.11
742.11	251.85
742.44	251.52
742.77	251.19
743.10	250.90
743.43	250.57
743.75	250.19
744.08	250.03
744.41	249.73
744.74	249.44
745.07	249.19
745.40	248.95
745.73	248.69
746.06	248.42
746.39	248.14
746.71	247.89
747.04	247.60
747.37	247.34
747.70	247.08
748.03	246.85
748.36	246.65
748.68	246.42
749.01	246.17
749.34	245.93
749.67	245.71
750.00	245.49
750.33	245.35
750.65	245.15
750.98	244.79
751.31	244.57
751.64	244.39
751.97	244.24
752.29	244.00
752.62	243.74
752.95	243.51
753.28	243.31
753.60	243.06
753.93	242.87
754.26	242.66
754.59	242.43
754.91	242.23
755.24	242.01
755.57	241.76
755.90	241.57
756.22	241.40
756.55	241.18
756.88	240.99
757.20	240.78
757.53	240.58
757.86	240.40
758.19	240.24
758.51	240.04
758.84	239.81
759.17	239.65
759.49	239.48
759.82	239.36
760.15	239.20
760.47	239.06
760.80	238.90
761.13	238.77
761.45	238.62
761.78	238.45
762.11	238.34
762.43	238.22
762.76	238.07
763.08	237.91
763.41	237.82
763.74	237.70
764.06	237.52
764.39	237.38
764.71	237.26
765.04	237.09
765.37	236.97
765.69	236.84
766.02	236.70
766.34	236.59
766.67	236.42
767.00	236.32
767.32	236.26
767.65	236.22
767.97	236.09
768.30	236.01
768.62	235.93
768.95	235.78
769.27	235.66
769.60	235.57
769.92	235.48
770.25	235.38
770.57	235.25
770.90	235.17
771.22	235.05
771.55	234.99
771.87	234.93
772.20	234.81
772.52	234.82
772.85	234.85
773.17	234.74
773.50	234.66
773.82	234.58
774.15	234.46
774.47	234.31
774.80	234.25
775.12	234.13
775.45	234.04
775.77	233.97
776.09	233.89
776.42	233.78
776.74	233.74
777.07	233.65
777.39	233.58
777.72	233.50
778.04	233.44
778.36	233.34
778.69	233.24
779.01	233.18
779.33	233.01
779.66	232.84
779.98	232.78
780.31	232.75
780.63	232.75
780.95	232.65
781.28	232.60
781.60	232.51
781.92	232.50
782.25	232.42
782.57	232.37
782.89	232.36
783.22	232.31
783.54	232.23
783.86	232.16
784.19	232.10
784.51	232.07
784.83	232.02
785.16	231.97
785.48	231.95
785.80	231.92
786.12	231.88
786.45	231.82
786.77	231.81
787.09	231.70
