SpectraSuite Data File
++++++++++++++++++++++++++++++++++++
Date: Fri Feb 01 14:53:45 EST 2013
User: group
Dark Spectrum Present: No
Reference Spectrum Present: No
Number of Sampled Component Spectra: 1
Spectrometers: USB2E7196
Integration Time (usec): 35000 (USB2E7196)
Spectra Averaged: 100 (USB2E7196)
Boxcar Smoothing: 10 (USB2E7196)
Correct for Electrical Dark: No (USB2E7196)
Strobe/Lamp Enabled: No (USB2E7196)
Correct for Detector Non-linearity: No (USB2E7196)
Correct for Stray Light: No (USB2E7196)
Number of Pixels in Processed Spectrum: 2048
>>>>>Begin Processed Spectral Data<<<<<
339.09	0.00
339.48	215.96
339.86	217.37
340.24	217.79
340.63	220.08
341.01	222.91
341.39	222.83
341.78	223.62
342.16	225.34
342.54	225.21
342.93	213.91
343.31	224.72
343.69	225.26
344.07	225.70
344.46	226.16
344.84	226.51
345.22	226.72
345.60	226.96
345.99	227.16
346.37	227.24
346.75	227.35
347.13	227.42
347.52	227.47
347.90	227.53
348.28	227.58
348.66	227.63
349.05	227.60
349.43	227.64
349.81	227.65
350.19	227.68
350.57	227.75
350.96	227.78
351.34	227.86
351.72	227.95
352.10	228.05
352.48	228.10
352.87	228.13
353.25	228.20
353.63	228.25
354.01	228.33
354.39	228.44
354.77	228.49
355.15	228.61
355.54	228.69
355.92	228.72
356.30	228.76
356.68	228.90
357.06	228.99
357.44	229.04
357.82	229.08
358.20	229.13
358.58	229.19
358.97	229.25
359.35	229.32
359.73	229.38
360.11	229.39
360.49	229.47
360.87	229.56
361.25	229.63
361.63	229.70
362.01	229.73
362.39	229.74
362.77	229.79
363.15	229.79
363.53	229.80
363.91	229.84
364.29	229.89
364.67	229.77
365.05	229.75
365.43	229.76
365.81	229.79
366.19	229.82
366.57	229.86
366.95	229.85
367.33	229.85
367.71	229.81
368.09	229.84
368.47	229.81
368.85	229.77
369.23	229.74
369.61	229.66
369.99	229.66
370.37	229.63
370.75	229.64
371.13	229.60
371.51	229.52
371.89	229.44
372.27	229.39
372.65	229.35
373.03	229.35
373.41	229.25
373.78	229.18
374.16	229.06
374.54	228.95
374.92	228.86
375.30	228.76
375.68	228.72
376.06	228.63
376.44	228.55
376.82	228.48
377.19	228.35
377.57	228.27
377.95	228.17
378.33	228.07
378.71	227.93
379.09	227.85
379.47	227.79
379.84	227.71
380.22	227.59
380.60	227.50
380.98	227.38
381.36	227.32
381.73	227.25
382.11	227.20
382.49	227.13
382.87	227.06
383.25	226.99
383.62	226.98
384.00	226.90
384.38	226.82
384.76	226.75
385.13	226.77
385.51	226.70
385.89	226.64
386.27	226.62
386.64	226.56
387.02	226.52
387.40	226.45
387.78	226.40
388.15	226.36
388.53	226.33
388.91	226.29
389.29	226.23
389.66	226.25
390.04	226.22
390.42	226.24
390.79	226.20
391.17	226.20
391.55	226.08
391.92	226.07
392.30	226.07
392.68	226.08
393.05	226.06
393.43	226.10
393.81	226.09
394.18	226.09
394.56	226.13
394.94	226.17
395.31	226.24
395.69	226.33
396.06	226.42
396.44	226.49
396.82	226.52
397.19	226.61
397.57	226.65
397.95	226.72
398.32	226.73
398.70	226.82
399.07	226.91
399.45	226.98
399.82	227.08
400.20	227.18
400.58	227.25
400.95	227.31
401.33	227.41
401.70	227.59
402.08	227.72
402.45	227.84
402.83	227.96
403.20	228.07
403.58	228.19
403.95	228.32
404.33	228.45
404.71	228.62
405.08	228.84
405.46	228.99
405.83	229.15
406.21	229.36
406.58	229.55
406.96	229.72
407.33	229.93
407.70	230.15
408.08	230.43
408.45	230.65
408.83	230.92
409.20	231.14
409.58	231.35
409.95	231.61
410.33	231.88
410.70	232.16
411.08	232.48
411.45	232.80
411.82	233.12
412.20	233.51
412.57	233.92
412.95	234.23
413.32	234.63
413.69	235.03
414.07	235.45
414.44	235.92
414.82	236.37
415.19	236.93
415.56	237.49
415.94	238.03
416.31	238.69
416.68	239.32
417.06	240.07
417.43	240.73
417.81	241.47
418.18	242.26
418.55	243.08
418.93	243.92
419.30	244.84
419.67	245.78
420.04	246.70
420.42	247.68
420.79	248.88
421.16	250.02
421.54	251.23
421.91	252.43
422.28	253.68
422.66	255.04
423.03	256.33
423.40	257.64
423.77	259.06
424.15	260.49
424.52	261.93
424.89	263.52
425.26	265.08
425.64	266.56
426.01	268.13
426.38	269.78
426.75	271.46
427.13	273.16
427.50	274.96
427.87	276.80
428.24	278.64
428.61	280.33
428.99	282.29
429.36	284.37
429.73	286.44
430.10	288.44
430.47	290.49
430.85	292.61
431.22	294.86
431.59	297.23
431.96	299.46
432.33	301.94
432.70	304.30
433.08	307.07
433.45	309.68
433.82	312.25
434.19	315.14
434.56	317.96
434.93	320.61
435.30	323.18
435.68	326.10
436.05	328.91
436.42	331.75
436.79	334.23
437.16	336.95
437.53	339.81
437.90	342.59
438.27	345.33
438.64	348.16
439.01	350.76
439.38	352.96
439.75	355.11
440.13	357.63
440.50	359.95
440.87	361.80
441.24	363.75
441.61	365.91
441.98	367.36
442.35	369.10
442.72	370.94
443.09	372.79
443.46	373.76
443.83	374.38
444.20	374.85
444.57	375.68
444.94	375.95
445.31	376.29
445.68	376.67
446.05	376.74
446.42	376.34
446.79	375.88
447.16	375.45
447.53	375.13
447.90	373.96
448.27	372.79
448.64	371.19
449.01	370.06
449.37	368.11
449.74	366.25
450.11	364.03
450.48	361.58
450.85	359.05
451.22	356.91
451.59	354.93
451.96	352.98
452.33	350.39
452.70	348.07
453.07	345.23
453.43	342.35
453.80	339.58
454.17	336.92
454.54	334.41
454.91	331.71
455.28	329.04
455.65	326.56
456.02	324.14
456.38	322.05
456.75	319.41
457.12	317.21
457.49	314.97
457.86	312.80
458.23	310.91
458.59	308.88
458.96	306.83
459.33	304.95
459.70	303.07
460.07	301.63
460.43	299.90
460.80	298.31
461.17	296.87
461.54	295.39
461.91	293.96
462.27	292.50
462.64	291.26
463.01	289.93
463.38	288.65
463.74	287.29
464.11	286.13
464.48	285.08
464.85	283.92
465.21	283.10
465.58	282.21
465.95	281.11
466.32	280.18
466.68	279.31
467.05	278.38
467.42	277.49
467.78	276.50
468.15	275.59
468.52	274.87
468.88	274.00
469.25	273.22
469.62	272.59
469.98	271.89
470.35	271.25
470.72	270.63
471.08	269.94
471.45	269.36
471.82	268.75
472.18	268.14
472.55	267.70
472.92	267.10
473.28	266.57
473.65	266.12
474.02	265.63
474.38	265.22
474.75	264.90
475.11	264.54
475.48	264.29
475.85	264.05
476.21	263.80
476.58	263.60
476.94	263.43
477.31	263.22
477.67	263.06
478.04	262.91
478.41	262.82
478.77	262.87
479.14	262.79
479.50	262.79
479.87	262.84
480.23	262.92
480.60	263.00
480.96	263.08
481.33	263.28
481.69	263.47
482.06	263.64
482.42	263.79
482.79	264.02
483.15	264.31
483.52	264.66
483.88	265.02
484.25	265.37
484.61	265.77
484.98	266.21
485.34	266.77
485.71	267.37
486.07	267.97
486.44	268.49
486.80	269.22
487.17	269.95
487.53	270.77
487.90	271.59
488.26	272.52
488.62	273.49
488.99	274.47
489.35	275.51
489.72	276.63
490.08	277.85
490.44	279.08
490.81	280.41
491.17	281.76
491.54	283.21
491.90	284.73
492.26	286.39
492.63	288.12
492.99	289.87
493.36	291.69
493.72	293.72
494.08	295.83
494.45	298.04
494.81	300.36
495.17	302.77
495.54	305.31
495.90	307.98
496.26	310.76
496.63	313.69
496.99	316.75
497.35	319.98
497.72	323.32
498.08	326.84
498.44	330.47
498.80	334.36
499.17	338.35
499.53	342.53
499.89	346.87
500.26	351.35
500.62	356.05
500.98	361.02
501.34	366.09
501.71	371.42
502.07	376.87
502.43	382.49
502.79	388.26
503.16	394.35
503.52	400.56
503.88	406.97
504.24	413.54
504.60	420.44
504.97	427.56
505.33	434.91
505.69	442.54
506.05	450.29
506.41	458.14
506.78	466.31
507.14	474.71
507.50	483.46
507.86	492.48
508.22	501.64
508.59	510.80
508.95	520.35
509.31	530.10
509.67	540.14
510.03	550.34
510.39	560.93
510.75	571.68
511.12	582.65
511.48	593.87
511.84	605.33
512.20	616.83
512.56	628.74
512.92	640.82
513.28	653.19
513.64	665.63
514.00	678.36
514.37	691.25
514.73	704.27
515.09	717.23
515.45	730.50
515.81	744.08
516.17	758.10
516.53	772.18
516.89	786.40
517.25	800.64
517.61	815.15
517.97	829.55
518.33	844.01
518.69	858.79
519.05	873.87
519.41	889.02
519.77	904.62
520.13	920.09
520.49	935.60
520.85	951.08
521.21	966.92
521.57	983.20
521.93	999.05
522.29	1015.51
522.65	1031.81
523.01	1048.13
523.37	1064.15
523.73	1080.33
524.09	1096.53
524.45	1112.82
524.81	1129.45
525.17	1146.38
525.53	1163.38
525.89	1180.30
526.25	1197.00
526.61	1213.38
526.97	1230.12
527.33	1246.62
527.68	1263.30
528.04	1279.86
528.40	1296.48
528.76	1313.50
529.12	1330.02
529.48	1346.99
529.84	1363.11
530.20	1379.75
530.56	1396.72
530.91	1414.17
531.27	1430.95
531.63	1447.50
531.99	1464.20
532.35	1480.26
532.71	1496.16
533.07	1512.50
533.42	1528.58
533.78	1544.87
534.14	1561.32
534.50	1576.74
534.86	1592.66
535.21	1607.91
535.57	1623.89
535.93	1639.39
536.29	1654.33
536.65	1669.63
537.00	1684.58
537.36	1699.95
537.72	1714.55
538.08	1729.15
538.44	1743.07
538.79	1757.14
539.15	1770.90
539.51	1784.80
539.87	1799.26
540.22	1812.99
540.58	1826.87
540.94	1840.32
541.29	1853.39
541.65	1866.18
542.01	1879.69
542.37	1892.21
542.72	1904.79
543.08	1916.60
543.44	1929.06
543.79	1940.18
544.15	1951.07
544.51	1962.47
544.87	1973.51
545.22	1984.51
545.58	1994.73
545.94	2004.44
546.29	2014.35
546.65	2024.13
547.01	2033.45
547.36	2042.16
547.72	2050.64
548.07	2058.49
548.43	2066.62
548.79	2074.44
549.14	2081.96
549.50	2089.15
549.86	2096.82
550.21	2103.99
550.57	2111.17
550.92	2117.96
551.28	2125.31
551.64	2132.47
551.99	2139.08
552.35	2145.24
552.70	2151.21
553.06	2157.12
553.41	2163.43
553.77	2169.33
554.13	2175.43
554.48	2181.48
554.84	2186.79
555.19	2192.20
555.55	2197.18
555.90	2201.44
556.26	2206.26
556.61	2210.92
556.97	2215.04
557.32	2219.03
557.68	2223.16
558.03	2227.32
558.39	2230.87
558.74	2235.24
559.10	2239.04
559.45	2242.49
559.81	2246.67
560.16	2250.42
560.52	2253.56
560.87	2256.99
561.23	2259.61
561.58	2262.31
561.94	2264.61
562.29	2266.94
562.64	2269.50
563.00	2272.18
563.35	2275.73
563.71	2278.82
564.06	2281.76
564.42	2284.59
564.77	2287.01
565.12	2289.08
565.48	2290.81
565.83	2292.30
566.19	2293.43
566.54	2294.17
566.89	2295.16
567.25	2295.57
567.60	2296.78
567.96	2298.23
568.31	2298.71
568.66	2299.48
569.02	2299.97
569.37	2300.17
569.72	2300.79
570.08	2300.59
570.43	2300.15
570.78	2299.08
571.14	2297.27
571.49	2295.88
571.84	2295.25
572.20	2293.70
572.55	2292.33
572.90	2290.63
573.26	2289.09
573.61	2287.37
573.96	2285.42
574.31	2282.40
574.67	2279.22
575.02	2275.40
575.37	2271.96
575.72	2268.08
576.08	2264.72
576.43	2261.22
576.78	2257.32
577.13	2254.00
577.49	2250.78
577.84	2247.25
578.19	2243.56
578.54	2239.69
578.90	2235.20
579.25	2229.61
579.60	2224.57
579.95	2219.51
580.30	2214.22
580.66	2208.91
581.01	2203.66
581.36	2198.45
581.71	2193.96
582.06	2189.33
582.42	2184.77
582.77	2179.27
583.12	2174.54
583.47	2169.64
583.82	2164.29
584.17	2158.94
584.53	2153.25
584.88	2147.46
585.23	2141.42
585.58	2135.82
585.93	2130.30
586.28	2125.47
586.63	2120.17
586.98	2114.93
587.34	2110.14
587.69	2105.15
588.04	2099.77
588.39	2094.01
588.74	2087.44
589.09	2081.22
589.44	2074.30
589.79	2068.08
590.14	2062.19
590.49	2055.41
590.84	2048.76
591.19	2042.66
591.54	2035.99
591.89	2028.43
592.25	2021.35
592.60	2014.17
592.95	2006.31
593.30	1998.85
593.65	1991.03
594.00	1983.94
594.35	1976.65
594.70	1968.54
595.05	1961.24
595.40	1953.98
595.75	1946.30
596.10	1940.00
596.45	1933.00
596.80	1926.67
597.15	1919.92
597.50	1912.83
597.85	1906.44
598.19	1899.80
598.54	1892.79
598.89	1886.12
599.24	1880.30
599.59	1873.71
599.94	1867.48
600.29	1861.23
600.64	1854.73
600.99	1847.43
601.34	1840.47
601.69	1833.36
602.04	1826.36
602.39	1819.03
602.74	1812.10
603.08	1805.46
603.43	1798.81
603.78	1791.74
604.13	1784.48
604.48	1777.23
604.83	1770.45
605.18	1763.43
605.53	1755.47
605.87	1747.40
606.22	1740.28
606.57	1732.34
606.92	1725.01
607.27	1717.80
607.62	1710.89
607.96	1703.53
608.31	1696.77
608.66	1689.16
609.01	1681.73
609.36	1674.32
609.70	1666.30
610.05	1658.23
610.40	1650.59
610.75	1642.25
611.10	1634.58
611.44	1626.40
611.79	1618.34
612.14	1609.61
612.49	1600.55
612.83	1592.24
613.18	1584.23
613.53	1576.13
613.88	1567.56
614.22	1559.43
614.57	1550.80
614.92	1542.73
615.27	1535.20
615.61	1526.94
615.96	1519.01
616.31	1511.45
616.65	1504.07
617.00	1496.63
617.35	1489.02
617.70	1480.57
618.04	1472.04
618.39	1463.86
618.74	1456.21
619.08	1448.07
619.43	1440.69
619.78	1433.92
620.12	1426.82
620.47	1419.35
620.82	1411.29
621.16	1403.98
621.51	1396.29
621.85	1388.88
622.20	1380.51
622.55	1372.36
622.89	1364.59
623.24	1357.03
623.59	1349.80
623.93	1342.35
624.28	1335.12
624.62	1327.74
624.97	1320.70
625.32	1314.07
625.66	1307.18
626.01	1300.06
626.35	1292.69
626.70	1284.83
627.04	1277.08
627.39	1269.35
627.73	1262.01
628.08	1255.18
628.43	1247.90
628.77	1240.69
629.12	1233.15
629.46	1225.97
629.81	1218.55
630.15	1211.44
630.50	1204.12
630.84	1195.89
631.19	1188.07
631.53	1180.71
631.88	1173.28
632.22	1165.79
632.57	1158.56
632.91	1151.07
633.26	1143.72
633.60	1136.41
633.95	1129.53
634.29	1122.61
634.64	1116.02
634.98	1108.79
635.32	1101.66
635.67	1095.22
636.01	1088.70
636.36	1081.94
636.70	1075.56
637.05	1069.05
637.39	1062.67
637.73	1056.25
638.08	1050.49
638.42	1044.53
638.77	1038.15
639.11	1031.58
639.45	1025.25
639.80	1018.62
640.14	1012.20
640.49	1005.86
640.83	999.64
641.17	993.44
641.52	987.19
641.86	980.86
642.20	975.07
642.55	968.89
642.89	962.40
643.23	955.88
643.58	950.25
643.92	944.19
644.26	938.21
644.61	932.20
644.95	926.24
645.29	919.74
645.64	913.03
645.98	906.72
646.32	900.91
646.66	894.89
647.01	889.28
647.35	883.70
647.69	877.87
648.04	872.39
648.38	866.69
648.72	860.75
649.06	854.70
649.41	848.80
649.75	842.85
650.09	836.99
650.43	831.23
650.78	825.07
651.12	819.10
651.46	813.40
651.80	807.66
652.14	802.29
652.49	796.94
652.83	791.89
653.17	786.34
653.51	780.70
653.85	775.34
654.20	769.68
654.54	763.62
654.88	757.93
655.22	752.07
655.56	746.43
655.90	740.92
656.25	735.74
656.59	730.44
656.93	725.39
657.27	720.25
657.61	714.85
657.95	709.76
658.29	704.66
658.64	699.47
658.98	694.30
659.32	688.87
659.66	683.69
660.00	678.36
660.34	673.41
660.68	668.51
661.02	663.54
661.36	658.88
661.70	654.50
662.05	650.10
662.39	645.79
662.73	641.32
663.07	637.09
663.41	632.58
663.75	628.07
664.09	623.51
664.43	619.18
664.77	615.14
665.11	610.98
665.45	606.92
665.79	602.91
666.13	598.76
666.47	594.70
666.81	590.60
667.15	586.55
667.49	582.69
667.83	578.91
668.17	575.04
668.51	571.00
668.85	567.00
669.19	563.23
669.53	559.49
669.87	555.71
670.21	552.08
670.55	548.55
670.89	545.18
671.23	541.79
671.57	538.32
671.91	534.83
672.25	531.34
672.58	527.88
672.92	524.48
673.26	521.36
673.60	518.31
673.94	515.22
674.28	512.38
674.62	509.48
674.96	506.41
675.30	503.52
675.64	500.60
675.97	497.83
676.31	494.97
676.65	492.03
676.99	489.26
677.33	486.34
677.67	483.53
678.01	480.57
678.34	477.60
678.68	474.75
679.02	471.95
679.36	469.24
679.70	466.54
680.04	463.79
680.37	460.98
680.71	458.19
681.05	455.65
681.39	452.90
681.73	450.26
682.06	447.75
682.40	445.19
682.74	442.73
683.08	440.20
683.42	437.64
683.75	435.20
684.09	432.74
684.43	430.34
684.77	427.93
685.10	425.66
685.44	423.37
685.78	421.12
686.12	418.90
686.45	416.66
686.79	414.40
687.13	412.25
687.46	410.18
687.80	408.03
688.14	405.84
688.48	403.90
688.81	401.67
689.15	399.58
689.49	397.47
689.82	395.44
690.16	393.40
690.50	391.51
690.83	389.57
691.17	387.59
691.51	385.73
691.84	383.89
692.18	381.98
692.52	380.04
692.85	378.15
693.19	376.30
693.52	374.43
693.86	372.66
694.20	370.91
694.53	369.10
694.87	367.32
695.21	365.53
695.54	363.68
695.88	361.96
696.21	360.24
696.55	358.61
696.88	356.93
697.22	355.30
697.56	353.69
697.89	352.06
698.23	350.47
698.56	348.84
698.90	347.27
699.23	345.58
699.57	344.07
699.90	342.57
700.24	341.05
700.58	339.57
700.91	338.03
701.25	336.54
701.58	335.18
701.92	333.81
702.25	332.49
702.59	331.15
702.92	329.87
703.26	328.61
703.59	327.32
703.93	326.13
704.26	324.87
704.60	323.54
704.93	322.29
705.26	321.01
705.60	319.88
705.93	318.76
706.27	317.75
706.60	316.71
706.94	315.62
707.27	314.47
707.61	313.38
707.94	312.40
708.27	311.37
708.61	310.27
708.94	309.28
709.28	308.25
709.61	307.28
709.94	306.30
710.28	305.26
710.61	304.30
710.95	303.24
711.28	302.38
711.61	301.49
711.95	300.59
712.28	299.69
712.61	298.69
712.95	297.74
713.28	296.86
713.61	295.99
713.95	295.15
714.28	294.33
714.61	293.49
714.95	292.66
715.28	291.80
715.61	290.98
715.95	290.14
716.28	289.30
716.61	288.45
716.95	287.69
717.28	287.00
717.61	286.24
717.94	285.50
718.28	284.69
718.61	283.99
718.94	283.30
719.27	282.67
719.61	282.05
719.94	281.39
720.27	280.69
720.60	280.00
720.94	279.32
721.27	278.75
721.60	278.21
721.93	277.63
722.27	277.11
722.60	276.53
722.93	275.96
723.26	275.45
723.59	274.93
723.93	274.36
724.26	273.80
724.59	273.24
724.92	272.74
725.25	272.24
725.59	271.68
725.92	271.19
726.25	270.65
726.58	270.16
726.91	269.68
727.24	269.23
727.57	268.79
727.91	268.32
728.24	267.82
728.57	267.33
728.90	266.86
729.23	266.34
729.56	265.89
729.89	265.45
730.22	264.99
730.55	264.56
730.89	264.13
731.22	263.68
731.55	263.26
731.88	262.83
732.21	262.43
732.54	262.01
732.87	261.58
733.20	261.21
733.53	260.86
733.86	260.50
734.19	260.12
734.52	259.73
734.85	259.42
735.18	259.03
735.51	258.66
735.84	258.30
736.17	257.96
736.50	257.58
736.83	257.31
737.16	256.96
737.49	256.59
737.82	256.24
738.15	255.88
738.48	255.57
738.81	255.25
739.14	254.92
739.47	254.63
739.80	254.32
740.13	254.04
740.46	253.68
740.79	253.34
741.12	253.00
741.45	252.71
741.78	252.35
742.11	252.06
742.44	251.72
742.77	251.44
743.10	251.16
743.43	250.87
743.75	250.49
744.08	250.30
744.41	250.05
744.74	249.79
745.07	249.53
745.40	249.28
745.73	249.04
746.06	248.76
746.39	248.52
746.71	248.26
747.04	247.99
747.37	247.73
747.70	247.48
748.03	247.24
748.36	247.00
748.68	246.77
749.01	246.51
749.34	246.31
749.67	246.07
750.00	245.80
750.33	245.66
750.65	245.45
750.98	245.14
751.31	244.95
751.64	244.71
751.97	244.51
752.29	244.26
752.62	244.01
752.95	243.80
753.28	243.58
753.60	243.36
753.93	243.15
754.26	242.97
754.59	242.75
754.91	242.58
755.24	242.39
755.57	242.25
755.90	242.09
756.22	241.92
756.55	241.74
756.88	241.56
757.20	241.30
757.53	241.13
757.86	240.97
758.19	240.77
758.51	240.62
758.84	240.47
759.17	240.32
759.49	240.18
759.82	240.08
760.15	239.94
760.47	239.78
760.80	239.62
761.13	239.50
761.45	239.34
761.78	239.21
762.11	239.06
762.43	238.87
762.76	238.73
763.08	238.58
763.41	238.46
763.74	238.38
764.06	238.27
764.39	238.13
764.71	237.99
765.04	237.88
765.37	237.75
765.69	237.62
766.02	237.50
766.34	237.40
766.67	237.22
767.00	237.09
767.32	237.06
767.65	237.01
767.97	236.89
768.30	236.80
768.62	236.67
768.95	236.52
769.27	236.42
769.60	236.32
769.92	236.20
770.25	236.08
770.57	235.94
770.90	235.82
771.22	235.70
771.55	235.61
771.87	235.52
772.20	235.39
772.52	235.36
772.85	235.35
773.17	235.22
773.50	235.12
773.82	235.03
774.15	234.88
774.47	234.73
774.80	234.62
775.12	234.54
775.45	234.47
775.77	234.41
776.09	234.32
776.42	234.23
776.74	234.18
777.07	234.10
777.39	234.00
777.72	233.94
778.04	233.89
778.36	233.83
778.69	233.76
779.01	233.73
779.33	233.58
779.66	233.41
779.98	233.37
780.31	233.32
780.63	233.32
780.95	233.26
781.28	233.18
781.60	233.17
781.92	233.12
782.25	233.03
782.57	232.96
782.89	232.90
783.22	232.83
783.54	232.79
783.86	232.74
784.19	232.72
784.51	232.70
784.83	232.63
785.16	232.56
785.48	232.49
785.80	232.46
786.12	232.41
786.45	232.37
786.77	232.30
787.09	232.26
