SpectraSuite Data File
++++++++++++++++++++++++++++++++++++
Date: Fri Feb 01 16:19:57 EST 2013
User: group
Dark Spectrum Present: No
Reference Spectrum Present: No
Number of Sampled Component Spectra: 1
Spectrometers: USB2E7196
Integration Time (usec): 35000 (USB2E7196)
Spectra Averaged: 100 (USB2E7196)
Boxcar Smoothing: 10 (USB2E7196)
Correct for Electrical Dark: No (USB2E7196)
Strobe/Lamp Enabled: No (USB2E7196)
Correct for Detector Non-linearity: No (USB2E7196)
Correct for Stray Light: No (USB2E7196)
Number of Pixels in Processed Spectrum: 2048
>>>>>Begin Processed Spectral Data<<<<<
339.09	0.00
339.48	214.32
339.86	215.77
340.24	216.93
340.63	218.26
341.01	220.99
341.39	220.94
341.78	222.41
342.16	223.83
342.54	223.89
342.93	212.51
343.31	223.24
343.69	223.79
344.07	224.25
344.46	224.70
344.84	225.09
345.22	225.34
345.60	225.60
345.99	225.78
346.37	225.92
346.75	226.03
347.13	226.08
347.52	226.14
347.90	226.21
348.28	226.22
348.66	226.26
349.05	226.26
349.43	226.28
349.81	226.35
350.19	226.38
350.57	226.44
350.96	226.49
351.34	226.57
351.72	226.65
352.10	226.74
352.48	226.80
352.87	226.88
353.25	226.92
353.63	226.98
354.01	227.06
354.39	227.10
354.77	227.17
355.15	227.29
355.54	227.34
355.92	227.39
356.30	227.46
356.68	227.58
357.06	227.62
357.44	227.68
357.82	227.74
358.20	227.83
358.58	227.86
358.97	227.93
359.35	228.03
359.73	228.07
360.11	228.10
360.49	228.16
360.87	228.18
361.25	228.25
361.63	228.32
362.01	228.33
362.39	228.34
362.77	228.39
363.15	228.41
363.53	228.45
363.91	228.49
364.29	228.50
364.67	228.42
365.05	228.46
365.43	228.48
365.81	228.51
366.19	228.56
366.57	228.60
366.95	228.61
367.33	228.57
367.71	228.55
368.09	228.56
368.47	228.55
368.85	228.53
369.23	228.49
369.61	228.41
369.99	228.43
370.37	228.43
370.75	228.42
371.13	228.39
371.51	228.36
371.89	228.31
372.27	228.29
372.65	228.24
373.03	228.19
373.41	228.12
373.78	228.03
374.16	227.90
374.54	227.83
374.92	227.78
375.30	227.73
375.68	227.67
376.06	227.60
376.44	227.51
376.82	227.47
377.19	227.43
377.57	227.38
377.95	227.29
378.33	227.20
378.71	227.10
379.09	227.03
379.47	226.96
379.84	226.90
380.22	226.82
380.60	226.75
380.98	226.68
381.36	226.63
381.73	226.53
382.11	226.53
382.49	226.46
382.87	226.39
383.25	226.34
383.62	226.38
384.00	226.32
384.38	226.27
384.76	226.23
385.13	226.20
385.51	226.17
385.89	226.13
386.27	226.13
386.64	226.11
387.02	226.04
387.40	226.01
387.78	225.98
388.15	225.97
388.53	225.95
388.91	225.93
389.29	225.89
389.66	225.93
390.04	225.91
390.42	225.92
390.79	225.88
391.17	225.85
391.55	225.73
391.92	225.72
392.30	225.72
392.68	225.69
393.05	225.70
393.43	225.68
393.81	225.68
394.18	225.67
394.56	225.67
394.94	225.70
395.31	225.70
395.69	225.77
396.06	225.80
396.44	225.83
396.82	225.88
397.19	225.99
397.57	226.03
397.95	226.07
398.32	226.08
398.70	226.15
399.07	226.21
399.45	226.30
399.82	226.38
400.20	226.40
400.58	226.47
400.95	226.50
401.33	226.61
401.70	226.74
402.08	226.82
402.45	226.89
402.83	227.00
403.20	227.10
403.58	227.14
403.95	227.23
404.33	227.35
404.71	227.48
405.08	227.62
405.46	227.73
405.83	227.86
406.21	227.98
406.58	228.16
406.96	228.33
407.33	228.48
407.70	228.66
408.08	228.96
408.45	229.19
408.83	229.41
409.20	229.59
409.58	229.78
409.95	230.03
410.33	230.30
410.70	230.53
411.08	230.79
411.45	231.10
411.82	231.39
412.20	231.74
412.57	232.12
412.95	232.41
413.32	232.80
413.69	233.18
414.07	233.64
414.44	234.07
414.82	234.51
415.19	235.06
415.56	235.60
415.94	236.12
416.31	236.74
416.68	237.35
417.06	238.07
417.43	238.73
417.81	239.45
418.18	240.23
418.55	241.07
418.93	241.97
419.30	242.85
419.67	243.78
420.04	244.73
420.42	245.72
420.79	246.85
421.16	247.99
421.54	249.23
421.91	250.39
422.28	251.66
422.66	253.02
423.03	254.27
423.40	255.60
423.77	257.03
424.15	258.46
424.52	259.96
424.89	261.55
425.26	263.12
425.64	264.61
426.01	266.21
426.38	267.86
426.75	269.51
427.13	271.25
427.50	273.08
427.87	274.98
428.24	276.81
428.61	278.58
428.99	280.52
429.36	282.60
429.73	284.71
430.10	286.71
430.47	288.75
430.85	290.89
431.22	293.12
431.59	295.41
431.96	297.61
432.33	300.10
432.70	302.49
433.08	305.31
433.45	307.91
433.82	310.52
434.19	313.44
434.56	316.27
434.93	318.94
435.30	321.59
435.68	324.45
436.05	327.28
436.42	330.09
436.79	332.61
437.16	335.26
437.53	338.16
437.90	340.97
438.27	343.76
438.64	346.59
439.01	349.16
439.38	351.50
439.75	353.70
440.13	356.19
440.50	358.52
440.87	360.37
441.24	362.33
441.61	364.48
441.98	365.96
442.35	367.73
442.72	369.52
443.09	371.31
443.46	372.30
443.83	372.92
444.20	373.43
444.57	374.24
444.94	374.54
445.31	374.81
445.68	375.13
446.05	375.16
446.42	374.80
446.79	374.40
447.16	373.90
447.53	373.53
447.90	372.38
448.27	371.23
448.64	369.61
449.01	368.51
449.37	366.56
449.74	364.63
450.11	362.42
450.48	360.01
450.85	357.46
451.22	355.30
451.59	353.25
451.96	351.30
452.33	348.72
452.70	346.38
453.07	343.55
453.43	340.68
453.80	337.96
454.17	335.29
454.54	332.78
454.91	330.08
455.28	327.46
455.65	324.93
456.02	322.48
456.38	320.35
456.75	317.67
457.12	315.41
457.49	313.19
457.86	310.96
458.23	309.09
458.59	307.03
458.96	304.99
459.33	303.15
459.70	301.34
460.07	299.85
460.43	298.12
460.80	296.53
461.17	295.09
461.54	293.58
461.91	292.12
462.27	290.65
462.64	289.42
463.01	288.05
463.38	286.82
463.74	285.48
464.11	284.34
464.48	283.33
464.85	282.22
465.21	281.36
465.58	280.45
465.95	279.35
466.32	278.46
466.68	277.53
467.05	276.65
467.42	275.72
467.78	274.81
468.15	273.99
468.52	273.34
468.88	272.50
469.25	271.72
469.62	271.16
469.98	270.53
470.35	269.91
470.72	269.36
471.08	268.70
471.45	268.16
471.82	267.61
472.18	267.04
472.55	266.61
472.92	266.13
473.28	265.68
473.65	265.26
474.02	264.83
474.38	264.49
474.75	264.15
475.11	263.82
475.48	263.53
475.85	263.29
476.21	263.05
476.58	262.83
476.94	262.70
477.31	262.51
477.67	262.31
478.04	262.20
478.41	262.12
478.77	262.19
479.14	262.15
479.50	262.17
479.87	262.25
480.23	262.34
480.60	262.37
480.96	262.47
481.33	262.69
481.69	262.90
482.06	263.10
482.42	263.36
482.79	263.59
483.15	263.95
483.52	264.36
483.88	264.70
484.25	265.13
484.61	265.55
484.98	266.00
485.34	266.58
485.71	267.18
486.07	267.75
486.44	268.30
486.80	269.00
487.17	269.71
487.53	270.51
487.90	271.38
488.26	272.38
488.62	273.38
488.99	274.37
489.35	275.42
489.72	276.57
490.08	277.76
490.44	279.00
490.81	280.33
491.17	281.65
491.54	283.14
491.90	284.70
492.26	286.30
492.63	288.01
492.99	289.77
493.36	291.69
493.72	293.76
494.08	295.86
494.45	298.10
494.81	300.52
495.17	302.99
495.54	305.53
495.90	308.21
496.26	311.07
496.63	313.99
496.99	317.13
497.35	320.41
497.72	323.82
498.08	327.39
498.44	331.06
498.80	334.97
499.17	339.01
499.53	343.21
499.89	347.64
500.26	352.19
500.62	356.90
500.98	361.89
501.34	366.98
501.71	372.30
502.07	377.72
502.43	383.38
502.79	389.23
503.16	395.31
503.52	401.56
503.88	407.92
504.24	414.54
504.60	421.41
504.97	428.53
505.33	435.85
505.69	443.57
506.05	451.37
506.41	459.26
506.78	467.45
507.14	475.89
507.50	484.59
507.86	493.65
508.22	502.86
508.59	512.08
508.95	521.63
509.31	531.46
509.67	541.58
510.03	551.81
510.39	562.24
510.75	573.10
511.12	584.08
511.48	595.43
511.84	606.89
512.20	618.39
512.56	630.34
512.92	642.55
513.28	654.91
513.64	667.40
514.00	680.08
514.37	692.94
514.73	705.99
515.09	719.06
515.45	732.29
515.81	745.88
516.17	759.82
516.53	773.98
516.89	788.17
517.25	802.31
517.61	816.72
517.97	831.29
518.33	845.70
518.69	860.38
519.05	875.36
519.41	890.55
519.77	906.11
520.13	921.48
520.49	936.81
520.85	952.09
521.21	967.78
521.57	983.97
521.93	999.80
522.29	1016.14
522.65	1032.29
523.01	1048.47
523.37	1064.45
523.73	1080.56
524.09	1096.63
524.45	1112.90
524.81	1129.48
525.17	1146.23
525.53	1163.06
525.89	1179.93
526.25	1196.82
526.61	1213.10
526.97	1229.79
527.33	1246.18
527.68	1262.72
528.04	1279.15
528.40	1295.78
528.76	1312.73
529.12	1329.30
529.48	1346.09
529.84	1362.08
530.20	1378.83
530.56	1395.83
530.91	1413.16
531.27	1429.91
531.63	1446.27
531.99	1462.78
532.35	1478.64
532.71	1494.54
533.07	1510.67
533.42	1526.45
533.78	1542.38
534.14	1558.55
534.50	1573.98
534.86	1589.74
535.21	1604.88
535.57	1620.68
535.93	1636.09
536.29	1650.89
536.65	1665.88
537.00	1680.57
537.36	1695.72
537.72	1709.96
538.08	1724.33
538.44	1738.08
538.79	1751.80
539.15	1765.48
539.51	1779.15
539.87	1793.55
540.22	1807.10
540.58	1820.83
540.94	1834.10
541.29	1846.91
541.65	1859.64
542.01	1872.67
542.37	1885.02
542.72	1897.46
543.08	1909.24
543.44	1921.55
543.79	1932.67
544.15	1943.53
544.51	1955.13
544.87	1966.10
545.22	1976.93
545.58	1987.00
545.94	1996.69
546.29	2006.57
546.65	2016.34
547.01	2025.52
547.36	2034.11
547.72	2042.60
548.07	2050.50
548.43	2058.57
548.79	2066.56
549.14	2074.07
549.50	2081.24
549.86	2088.82
550.21	2095.94
550.57	2103.04
550.92	2109.49
551.28	2116.50
551.64	2123.65
551.99	2130.05
552.35	2136.14
552.70	2142.28
553.06	2148.31
553.41	2154.63
553.77	2160.65
554.13	2166.63
554.48	2172.76
554.84	2178.19
555.19	2183.42
555.55	2188.48
555.90	2192.92
556.26	2197.77
556.61	2202.48
556.97	2206.87
557.32	2210.95
557.68	2215.13
558.03	2219.51
558.39	2223.31
558.74	2227.93
559.10	2231.80
559.45	2235.48
559.81	2239.83
560.16	2243.75
560.52	2246.91
560.87	2250.44
561.23	2253.10
561.58	2256.09
561.94	2258.65
562.29	2260.95
562.64	2263.60
563.00	2266.27
563.35	2269.80
563.71	2272.96
564.06	2276.26
564.42	2279.03
564.77	2281.60
565.12	2283.86
565.48	2285.72
565.83	2287.62
566.19	2288.98
566.54	2289.83
566.89	2291.06
567.25	2291.51
567.60	2292.70
567.96	2294.48
568.31	2295.18
568.66	2296.33
569.02	2296.89
569.37	2297.25
569.72	2298.39
570.08	2298.73
570.43	2298.76
570.78	2298.26
571.14	2296.73
571.49	2295.28
571.84	2295.19
572.20	2294.11
572.55	2293.16
572.90	2291.61
573.26	2290.26
573.61	2288.62
573.96	2286.85
574.31	2283.94
574.67	2281.18
575.02	2277.66
575.37	2274.39
575.72	2270.85
576.08	2267.38
576.43	2264.12
576.78	2260.50
577.13	2257.28
577.49	2254.05
577.84	2250.61
578.19	2246.93
578.54	2243.45
578.90	2239.22
579.25	2233.61
579.60	2228.74
579.95	2223.81
580.30	2218.79
580.66	2213.69
581.01	2208.84
581.36	2204.04
581.71	2199.91
582.06	2195.48
582.42	2191.05
582.77	2185.94
583.12	2181.32
583.47	2176.75
583.82	2171.80
584.17	2166.45
584.53	2161.04
584.88	2155.55
585.23	2149.78
585.58	2144.33
585.93	2138.80
586.28	2134.10
586.63	2128.98
586.98	2124.04
587.34	2119.45
587.69	2114.71
588.04	2109.46
588.39	2103.70
588.74	2097.27
589.09	2091.10
589.44	2084.37
589.79	2078.42
590.14	2072.81
590.49	2066.25
590.84	2060.03
591.19	2054.15
591.54	2047.97
591.89	2040.64
592.25	2033.96
592.60	2026.86
592.95	2019.30
593.30	2012.00
593.65	2004.54
594.00	1997.58
594.35	1990.30
594.70	1982.30
595.05	1975.14
595.40	1967.96
595.75	1960.49
596.10	1954.32
596.45	1947.67
596.80	1941.51
597.15	1934.94
597.50	1927.82
597.85	1921.39
598.19	1914.68
598.54	1907.43
598.89	1900.87
599.24	1894.96
599.59	1888.19
599.94	1881.94
600.29	1875.70
600.64	1869.24
600.99	1861.86
601.34	1855.10
601.69	1848.18
602.04	1841.37
602.39	1834.02
602.74	1827.22
603.08	1820.59
603.43	1813.96
603.78	1806.56
604.13	1799.42
604.48	1792.04
604.83	1785.17
605.18	1778.22
605.53	1770.22
605.87	1762.35
606.22	1754.98
606.57	1747.10
606.92	1739.81
607.27	1732.71
607.62	1725.70
607.96	1718.41
608.31	1711.79
608.66	1704.05
609.01	1696.42
609.36	1688.73
609.70	1680.75
610.05	1672.57
610.40	1664.96
610.75	1656.55
611.10	1648.90
611.44	1640.35
611.79	1632.45
612.14	1623.70
612.49	1614.60
612.83	1606.34
613.18	1598.20
613.53	1590.07
613.88	1581.44
614.22	1573.20
614.57	1564.57
614.92	1556.60
615.27	1549.00
615.61	1540.61
615.96	1532.74
616.31	1525.23
616.65	1517.92
617.00	1510.37
617.35	1502.79
617.70	1494.36
618.04	1485.88
618.39	1477.68
618.74	1470.14
619.08	1461.85
619.43	1454.34
619.78	1447.38
620.12	1440.02
620.47	1432.49
620.82	1424.35
621.16	1416.88
621.51	1409.25
621.85	1401.68
622.20	1393.09
622.55	1384.75
622.89	1376.84
623.24	1369.15
623.59	1361.61
623.93	1354.03
624.28	1346.75
624.62	1339.19
624.97	1332.02
625.32	1325.30
625.66	1318.32
626.01	1311.21
626.35	1303.74
626.70	1295.93
627.04	1288.14
627.39	1280.45
627.73	1273.10
628.08	1266.20
628.43	1259.01
628.77	1251.61
629.12	1243.96
629.46	1236.87
629.81	1229.51
630.15	1222.30
630.50	1214.91
630.84	1206.77
631.19	1198.87
631.53	1191.35
631.88	1183.80
632.22	1176.08
632.57	1168.75
632.91	1161.26
633.26	1153.83
633.60	1146.35
633.95	1139.33
634.29	1132.32
634.64	1125.59
634.98	1118.25
635.32	1110.98
635.67	1104.30
636.01	1097.70
636.36	1090.85
636.70	1084.34
637.05	1077.66
637.39	1071.22
637.73	1064.67
638.08	1058.77
638.42	1052.81
638.77	1046.36
639.11	1039.72
639.45	1033.41
639.80	1026.76
640.14	1020.31
640.49	1013.70
640.83	1007.35
641.17	1001.05
641.52	994.71
641.86	988.23
642.20	982.24
642.55	975.95
642.89	969.48
643.23	962.95
643.58	957.21
643.92	950.89
644.26	944.84
644.61	938.80
644.95	932.73
645.29	926.13
645.64	919.36
645.98	913.11
646.32	907.31
646.66	901.20
647.01	895.35
647.35	889.48
647.69	883.61
648.04	878.10
648.38	872.25
648.72	866.18
649.06	860.12
649.41	854.30
649.75	848.37
650.09	842.37
650.43	836.48
650.78	830.34
651.12	824.43
651.46	818.68
651.80	812.89
652.14	807.55
652.49	802.19
652.83	796.91
653.17	791.11
653.51	785.40
653.85	780.00
654.20	774.39
654.54	768.48
654.88	762.72
655.22	756.82
655.56	751.18
655.90	745.77
656.25	740.59
656.59	735.22
656.93	730.07
657.27	724.95
657.61	719.53
657.95	714.42
658.29	709.31
658.64	704.07
658.98	698.74
659.32	693.27
659.66	688.09
660.00	682.82
660.34	677.90
660.68	672.92
661.02	667.93
661.36	663.16
661.70	658.71
662.05	654.35
662.39	650.08
662.73	645.62
663.07	641.24
663.41	636.75
663.75	632.21
664.09	627.69
664.43	623.30
664.77	619.20
665.11	614.96
665.45	610.87
665.79	606.76
666.13	602.63
666.47	598.55
666.81	594.37
667.15	590.23
667.49	586.29
667.83	582.54
668.17	578.61
668.51	574.52
668.85	570.43
669.19	566.65
669.53	562.75
669.87	558.86
670.21	555.16
670.55	551.45
670.89	548.01
671.23	544.62
671.57	541.14
671.91	537.56
672.25	534.07
672.58	530.52
672.92	527.11
673.26	523.99
673.60	520.86
673.94	517.71
674.28	514.80
674.62	511.84
674.96	508.74
675.30	505.83
675.64	502.92
675.97	500.16
676.31	497.25
676.65	494.33
676.99	491.70
677.33	488.82
677.67	486.06
678.01	483.04
678.34	480.02
678.68	477.10
679.02	474.31
679.36	471.51
679.70	468.84
680.04	466.06
680.37	463.15
680.71	460.33
681.05	457.67
681.39	455.01
681.73	452.34
682.06	449.74
682.40	447.14
682.74	444.61
683.08	442.02
683.42	439.44
683.75	436.96
684.09	434.34
684.43	431.86
684.77	429.40
685.10	427.06
685.44	424.77
685.78	422.49
686.12	420.18
686.45	417.85
686.79	415.55
687.13	413.39
687.46	411.22
687.80	409.05
688.14	406.87
688.48	404.75
688.81	402.52
689.15	400.38
689.49	398.28
689.82	396.20
690.16	394.13
690.50	392.13
690.83	390.20
691.17	388.17
691.51	386.30
691.84	384.42
692.18	382.50
692.52	380.52
692.85	378.55
693.19	376.68
693.52	374.87
693.86	373.02
694.20	371.21
694.53	369.44
694.87	367.54
695.21	365.76
695.54	363.93
695.88	362.22
696.21	360.47
696.55	358.79
696.88	357.08
697.22	355.37
697.56	353.77
697.89	352.08
698.23	350.47
698.56	348.82
698.90	347.27
699.23	345.58
699.57	344.06
699.90	342.54
700.24	341.02
700.58	339.48
700.91	337.96
701.25	336.49
701.58	335.11
701.92	333.80
702.25	332.40
702.59	331.06
702.92	329.73
703.26	328.42
703.59	327.10
703.93	325.93
704.26	324.72
704.60	323.40
704.93	322.13
705.26	320.89
705.60	319.73
705.93	318.55
706.27	317.55
706.60	316.42
706.94	315.36
707.27	314.23
707.61	313.18
707.94	312.17
708.27	311.07
708.61	309.93
708.94	308.89
709.28	307.92
709.61	306.97
709.94	306.00
710.28	304.98
710.61	304.03
710.95	303.00
711.28	302.09
711.61	301.16
711.95	300.26
712.28	299.28
712.61	298.30
712.95	297.39
713.28	296.51
713.61	295.62
713.95	294.70
714.28	293.87
714.61	293.03
714.95	292.18
715.28	291.32
715.61	290.48
715.95	289.63
716.28	288.77
716.61	287.91
716.95	287.13
717.28	286.38
717.61	285.62
717.94	284.85
718.28	284.01
718.61	283.30
718.94	282.61
719.27	281.98
719.61	281.32
719.94	280.63
720.27	279.89
720.60	279.22
720.94	278.59
721.27	277.96
721.60	277.38
721.93	276.77
722.27	276.26
722.60	275.69
722.93	275.13
723.26	274.61
723.59	274.03
723.93	273.44
724.26	272.87
724.59	272.28
724.92	271.78
725.25	271.32
725.59	270.77
725.92	270.25
726.25	269.77
726.58	269.25
726.91	268.75
727.24	268.30
727.57	267.81
727.91	267.31
728.24	266.87
728.57	266.35
728.90	265.93
729.23	265.45
729.56	265.02
729.89	264.54
730.22	264.04
730.55	263.58
730.89	263.13
731.22	262.70
731.55	262.28
731.88	261.84
732.21	261.40
732.54	260.98
732.87	260.55
733.20	260.15
733.53	259.79
733.86	259.42
734.19	259.05
734.52	258.66
734.85	258.37
735.18	257.96
735.51	257.60
735.84	257.19
736.17	256.85
736.50	256.43
736.83	256.20
737.16	255.87
737.49	255.55
737.82	255.20
738.15	254.85
738.48	254.47
738.81	254.15
739.14	253.82
739.47	253.47
739.80	253.16
740.13	252.81
740.46	252.45
740.79	252.12
741.12	251.80
741.45	251.47
741.78	251.08
742.11	250.79
742.44	250.46
742.77	250.17
743.10	249.85
743.43	249.56
743.75	249.19
744.08	249.03
744.41	248.72
744.74	248.49
745.07	248.22
745.40	248.03
745.73	247.77
746.06	247.48
746.39	247.24
746.71	246.97
747.04	246.70
747.37	246.44
747.70	246.20
748.03	245.92
748.36	245.75
748.68	245.55
749.01	245.28
749.34	245.10
749.67	244.87
750.00	244.64
750.33	244.49
750.65	244.32
750.98	243.99
751.31	243.78
751.64	243.57
751.97	243.40
752.29	243.21
752.62	242.97
752.95	242.79
753.28	242.58
753.60	242.38
753.93	242.23
754.26	242.07
754.59	241.88
754.91	241.65
755.24	241.42
755.57	241.19
755.90	241.01
756.22	240.80
756.55	240.59
756.88	240.39
757.20	240.17
757.53	239.92
757.86	239.77
758.19	239.64
758.51	239.48
758.84	239.29
759.17	239.08
759.49	238.91
759.82	238.77
760.15	238.63
760.47	238.49
760.80	238.30
761.13	238.18
761.45	237.97
761.78	237.85
762.11	237.73
762.43	237.59
762.76	237.45
763.08	237.32
763.41	237.21
763.74	237.08
764.06	236.89
764.39	236.77
764.71	236.60
765.04	236.44
765.37	236.32
765.69	236.18
766.02	236.03
766.34	235.95
766.67	235.79
767.00	235.66
767.32	235.61
767.65	235.56
767.97	235.38
768.30	235.35
768.62	235.24
768.95	235.12
769.27	235.02
769.60	234.94
769.92	234.81
770.25	234.68
770.57	234.57
770.90	234.50
771.22	234.38
771.55	234.29
771.87	234.19
772.20	234.08
772.52	234.03
772.85	234.05
773.17	233.91
773.50	233.84
773.82	233.74
774.15	233.62
774.47	233.48
774.80	233.40
775.12	233.31
775.45	233.25
775.77	233.18
776.09	233.10
776.42	233.02
776.74	232.99
777.07	232.93
777.39	232.84
777.72	232.78
778.04	232.74
778.36	232.69
778.69	232.65
779.01	232.58
779.33	232.46
779.66	232.27
779.98	232.25
780.31	232.19
780.63	232.17
780.95	232.08
781.28	232.04
781.60	231.99
781.92	231.92
782.25	231.82
782.57	231.75
782.89	231.65
783.22	231.59
783.54	231.53
783.86	231.49
784.19	231.44
784.51	231.40
784.83	231.33
785.16	231.25
785.48	231.19
785.80	231.14
786.12	231.07
786.45	231.03
786.77	230.96
787.09	230.87
