SpectraSuite Data File
++++++++++++++++++++++++++++++++++++
Date: Fri Feb 01 17:29:08 EST 2013
User: group
Dark Spectrum Present: No
Reference Spectrum Present: No
Number of Sampled Component Spectra: 1
Spectrometers: USB2E7196
Integration Time (usec): 35000 (USB2E7196)
Spectra Averaged: 100 (USB2E7196)
Boxcar Smoothing: 10 (USB2E7196)
Correct for Electrical Dark: No (USB2E7196)
Strobe/Lamp Enabled: No (USB2E7196)
Correct for Detector Non-linearity: No (USB2E7196)
Correct for Stray Light: No (USB2E7196)
Number of Pixels in Processed Spectrum: 2048
>>>>>Begin Processed Spectral Data<<<<<
339.09	0.00
339.48	213.38
339.86	214.38
340.24	215.65
340.63	217.79
341.01	219.88
341.39	220.22
341.78	221.62
342.16	221.98
342.54	223.03
342.93	211.51
343.31	222.20
343.69	222.74
344.07	223.17
344.46	223.62
344.84	223.95
345.22	224.19
345.60	224.46
345.99	224.66
346.37	224.80
346.75	224.88
347.13	224.98
347.52	225.02
347.90	225.09
348.28	225.09
348.66	225.14
349.05	225.13
349.43	225.21
349.81	225.26
350.19	225.34
350.57	225.35
350.96	225.40
351.34	225.50
351.72	225.56
352.10	225.68
352.48	225.79
352.87	225.87
353.25	225.95
353.63	225.98
354.01	226.02
354.39	226.11
354.77	226.21
355.15	226.29
355.54	226.36
355.92	226.38
356.30	226.47
356.68	226.53
357.06	226.58
357.44	226.62
357.82	226.67
358.20	226.73
358.58	226.78
358.97	226.82
359.35	226.87
359.73	226.96
360.11	227.01
360.49	227.00
360.87	227.06
361.25	227.09
361.63	227.17
362.01	227.22
362.39	227.23
362.77	227.27
363.15	227.32
363.53	227.32
363.91	227.38
364.29	227.43
364.67	227.42
365.05	227.45
365.43	227.46
365.81	227.51
366.19	227.57
366.57	227.65
366.95	227.69
367.33	227.66
367.71	227.63
368.09	227.64
368.47	227.63
368.85	227.57
369.23	227.59
369.61	227.52
369.99	227.53
370.37	227.51
370.75	227.54
371.13	227.46
371.51	227.42
371.89	227.39
372.27	227.30
372.65	227.25
373.03	227.20
373.41	227.14
373.78	227.07
374.16	226.95
374.54	226.86
374.92	226.78
375.30	226.73
375.68	226.66
376.06	226.63
376.44	226.56
376.82	226.49
377.19	226.41
377.57	226.34
377.95	226.26
378.33	226.18
378.71	226.06
379.09	226.05
379.47	225.98
379.84	225.88
380.22	225.82
380.60	225.73
380.98	225.67
381.36	225.60
381.73	225.50
382.11	225.46
382.49	225.38
382.87	225.33
383.25	225.26
383.62	225.32
384.00	225.25
384.38	225.22
384.76	225.24
385.13	225.24
385.51	225.20
385.89	225.11
386.27	225.08
386.64	225.03
387.02	224.97
387.40	224.94
387.78	224.91
388.15	224.89
388.53	224.89
388.91	224.86
389.29	224.83
389.66	224.83
390.04	224.79
390.42	224.80
390.79	224.80
391.17	224.78
391.55	224.66
391.92	224.66
392.30	224.65
392.68	224.60
393.05	224.57
393.43	224.57
393.81	224.59
394.18	224.58
394.56	224.58
394.94	224.64
395.31	224.63
395.69	224.70
396.06	224.72
396.44	224.72
396.82	224.74
397.19	224.81
397.57	224.85
397.95	224.91
398.32	224.91
398.70	224.92
399.07	224.97
399.45	225.01
399.82	225.02
400.20	225.08
400.58	225.13
400.95	225.15
401.33	225.23
401.70	225.37
402.08	225.48
402.45	225.55
402.83	225.61
403.20	225.69
403.58	225.76
403.95	225.86
404.33	226.00
404.71	226.10
405.08	226.28
405.46	226.39
405.83	226.53
406.21	226.68
406.58	226.86
406.96	227.00
407.33	227.20
407.70	227.40
408.08	227.65
408.45	227.87
408.83	228.12
409.20	228.32
409.58	228.50
409.95	228.74
410.33	229.02
410.70	229.27
411.08	229.56
411.45	229.87
411.82	230.18
412.20	230.55
412.57	230.93
412.95	231.25
413.32	231.68
413.69	232.07
414.07	232.53
414.44	233.01
414.82	233.57
415.19	234.13
415.56	234.72
415.94	235.28
416.31	235.94
416.68	236.59
417.06	237.40
417.43	238.10
417.81	238.89
418.18	239.70
418.55	240.59
418.93	241.55
419.30	242.48
419.67	243.46
420.04	244.43
420.42	245.52
420.79	246.72
421.16	247.92
421.54	249.17
421.91	250.44
422.28	251.76
422.66	253.09
423.03	254.46
423.40	255.82
423.77	257.30
424.15	258.80
424.52	260.34
424.89	262.00
425.26	263.62
425.64	265.15
426.01	266.81
426.38	268.55
426.75	270.27
427.13	272.09
427.50	273.99
427.87	275.96
428.24	277.89
428.61	279.71
428.99	281.74
429.36	283.96
429.73	286.08
430.10	288.20
430.47	290.35
430.85	292.56
431.22	294.88
431.59	297.35
431.96	299.70
432.33	302.33
432.70	304.78
433.08	307.67
433.45	310.41
433.82	313.17
434.19	316.14
434.56	319.06
434.93	321.81
435.30	324.50
435.68	327.48
436.05	330.45
436.42	333.38
436.79	335.99
437.16	338.81
437.53	341.77
437.90	344.68
438.27	347.54
438.64	350.45
439.01	353.17
439.38	355.51
439.75	357.74
440.13	360.25
440.50	362.64
440.87	364.59
441.24	366.58
441.61	368.83
441.98	370.40
442.35	372.24
442.72	374.21
443.09	376.14
443.46	377.16
443.83	377.79
444.20	378.30
444.57	379.16
444.94	379.47
445.31	379.82
445.68	380.13
446.05	380.21
446.42	379.90
446.79	379.42
447.16	378.95
447.53	378.65
447.90	377.54
448.27	376.37
448.64	374.75
449.01	373.60
449.37	371.56
449.74	369.60
450.11	367.37
450.48	364.77
450.85	362.12
451.22	359.94
451.59	357.84
451.96	355.87
452.33	353.16
452.70	350.70
453.07	347.77
453.43	344.85
453.80	341.97
454.17	339.15
454.54	336.54
454.91	333.73
455.28	330.93
455.65	328.31
456.02	325.78
456.38	323.54
456.75	320.76
457.12	318.42
457.49	316.08
457.86	313.76
458.23	311.88
458.59	309.76
458.96	307.57
459.33	305.61
459.70	303.66
460.07	302.12
460.43	300.31
460.80	298.59
461.17	297.05
461.54	295.51
461.91	294.00
462.27	292.47
462.64	291.16
463.01	289.77
463.38	288.45
463.74	287.02
464.11	285.78
464.48	284.75
464.85	283.61
465.21	282.71
465.58	281.77
465.95	280.63
466.32	279.67
466.68	278.73
467.05	277.83
467.42	276.87
467.78	275.92
468.15	275.01
468.52	274.36
468.88	273.48
469.25	272.73
469.62	272.10
469.98	271.43
470.35	270.80
470.72	270.18
471.08	269.49
471.45	268.94
471.82	268.44
472.18	267.81
472.55	267.34
472.92	266.82
473.28	266.34
473.65	265.87
474.02	265.43
474.38	265.05
474.75	264.72
475.11	264.39
475.48	264.10
475.85	263.86
476.21	263.60
476.58	263.43
476.94	263.22
477.31	263.06
477.67	262.93
478.04	262.81
478.41	262.77
478.77	262.84
479.14	262.80
479.50	262.79
479.87	262.87
480.23	262.95
480.60	263.00
480.96	263.12
481.33	263.32
481.69	263.54
482.06	263.74
482.42	263.92
482.79	264.19
483.15	264.52
483.52	264.90
483.88	265.28
484.25	265.68
484.61	266.16
484.98	266.63
485.34	267.15
485.71	267.76
486.07	268.32
486.44	268.82
486.80	269.50
487.17	270.22
487.53	271.04
487.90	271.90
488.26	272.85
488.62	273.80
488.99	274.77
489.35	275.80
489.72	276.95
490.08	278.15
490.44	279.37
490.81	280.68
491.17	282.03
491.54	283.46
491.90	284.93
492.26	286.51
492.63	288.25
492.99	290.00
493.36	291.82
493.72	293.89
494.08	295.98
494.45	298.19
494.81	300.54
495.17	302.94
495.54	305.43
495.90	308.12
496.26	310.87
496.63	313.82
496.99	316.86
497.35	320.04
497.72	323.40
498.08	326.89
498.44	330.54
498.80	334.44
499.17	338.48
499.53	342.67
499.89	347.04
500.26	351.44
500.62	356.05
500.98	360.98
501.34	365.97
501.71	371.25
502.07	376.67
502.43	382.19
502.79	387.89
503.16	393.90
503.52	400.06
503.88	406.43
504.24	412.99
504.60	419.79
504.97	426.81
505.33	434.04
505.69	441.61
506.05	449.25
506.41	456.98
506.78	465.01
507.14	473.24
507.50	481.72
507.86	490.56
508.22	499.65
508.59	508.74
508.95	518.10
509.31	527.73
509.67	537.59
510.03	547.70
510.39	558.00
510.75	568.59
511.12	579.25
511.48	590.27
511.84	601.39
512.20	612.59
512.56	624.31
512.92	636.16
513.28	648.20
513.64	660.40
514.00	672.76
514.37	685.37
514.73	698.09
515.09	710.83
515.45	723.77
515.81	736.95
516.17	750.56
516.53	764.35
516.89	778.17
517.25	791.91
517.61	806.00
517.97	820.12
518.33	834.12
518.69	848.54
519.05	863.02
519.41	877.89
519.77	893.02
520.13	907.98
520.49	922.94
520.85	937.84
521.21	953.05
521.57	968.76
521.93	984.00
522.29	999.95
522.65	1015.76
523.01	1031.55
523.37	1047.16
523.73	1062.86
524.09	1078.53
524.45	1094.35
524.81	1110.60
525.17	1126.67
525.53	1142.96
525.89	1159.40
526.25	1175.76
526.61	1191.69
526.97	1207.85
527.33	1223.88
527.68	1240.08
528.04	1256.01
528.40	1272.20
528.76	1288.74
529.12	1304.96
529.48	1321.52
529.84	1337.11
530.20	1353.26
530.56	1369.78
530.91	1386.58
531.27	1402.92
531.63	1418.87
531.99	1435.02
532.35	1450.61
532.71	1466.33
533.07	1482.31
533.42	1497.88
533.78	1513.57
534.14	1529.52
534.50	1544.50
534.86	1560.01
535.21	1574.73
535.57	1590.31
535.93	1605.35
536.29	1620.01
536.65	1634.78
537.00	1649.13
537.36	1664.13
537.72	1678.43
538.08	1692.68
538.44	1706.40
538.79	1719.94
539.15	1733.27
539.51	1746.77
539.87	1760.85
540.22	1774.11
540.58	1787.55
540.94	1800.51
541.29	1813.08
541.65	1825.69
542.01	1838.74
542.37	1850.93
542.72	1863.34
543.08	1875.14
543.44	1887.49
543.79	1898.63
544.15	1909.54
544.51	1921.16
544.87	1932.06
545.22	1942.81
545.58	1952.97
545.94	1962.69
546.29	1972.68
546.65	1982.64
547.01	1992.01
547.36	2000.74
547.72	2009.52
548.07	2017.60
548.43	2025.85
548.79	2033.88
549.14	2041.51
549.50	2048.93
549.86	2056.73
550.21	2064.17
550.57	2071.52
550.92	2078.25
551.28	2085.37
551.64	2092.57
551.99	2099.28
552.35	2105.64
552.70	2112.10
553.06	2118.32
553.41	2124.93
553.77	2131.12
554.13	2137.46
554.48	2143.89
554.84	2149.86
555.19	2155.26
555.55	2160.71
555.90	2165.58
556.26	2171.05
556.61	2175.95
556.97	2180.63
557.32	2185.18
557.68	2189.57
558.03	2194.08
558.39	2198.04
558.74	2203.05
559.10	2207.42
559.45	2211.30
559.81	2215.90
560.16	2220.01
560.52	2223.73
560.87	2227.52
561.23	2230.72
561.58	2233.79
561.94	2236.62
562.29	2239.19
562.64	2242.56
563.00	2245.49
563.35	2249.41
563.71	2252.84
564.06	2256.57
564.42	2259.96
564.77	2262.93
565.12	2265.83
565.48	2268.28
565.83	2270.82
566.19	2272.63
566.54	2273.75
566.89	2275.45
567.25	2276.65
567.60	2278.27
567.96	2280.24
568.31	2281.47
568.66	2282.91
569.02	2284.07
569.37	2284.77
569.72	2286.10
570.08	2286.66
570.43	2287.16
570.78	2287.05
571.14	2285.96
571.49	2284.99
571.84	2284.78
572.20	2284.08
572.55	2283.28
572.90	2281.81
573.26	2280.83
573.61	2279.44
573.96	2278.29
574.31	2275.68
574.67	2273.07
575.02	2269.87
575.37	2266.84
575.72	2263.61
576.08	2260.66
576.43	2257.59
576.78	2254.62
577.13	2251.58
577.49	2248.56
577.84	2245.41
578.19	2241.92
578.54	2238.66
578.90	2234.96
579.25	2230.05
579.60	2225.44
579.95	2220.96
580.30	2216.36
580.66	2211.40
581.01	2206.80
581.36	2202.05
581.71	2198.22
582.06	2194.14
582.42	2190.06
582.77	2185.21
583.12	2180.82
583.47	2176.41
583.82	2172.09
584.17	2166.91
584.53	2161.95
584.88	2156.80
585.23	2151.36
585.58	2146.16
585.93	2140.97
586.28	2136.20
586.63	2131.46
586.98	2126.65
587.34	2122.10
587.69	2117.50
588.04	2112.62
588.39	2107.19
588.74	2100.96
589.09	2095.11
589.44	2088.62
589.79	2082.84
590.14	2077.35
590.49	2070.94
590.84	2064.68
591.19	2058.73
591.54	2052.45
591.89	2045.38
592.25	2038.94
592.60	2032.00
592.95	2024.77
593.30	2017.52
593.65	2010.06
594.00	2003.11
594.35	1996.08
594.70	1988.14
595.05	1981.47
595.40	1974.31
595.75	1966.84
596.10	1960.99
596.45	1954.51
596.80	1948.53
597.15	1941.97
597.50	1935.32
597.85	1929.07
598.19	1922.63
598.54	1915.79
598.89	1909.35
599.24	1903.50
599.59	1896.90
599.94	1890.65
600.29	1884.35
600.64	1877.88
600.99	1870.72
601.34	1864.00
601.69	1856.94
602.04	1850.22
602.39	1842.79
602.74	1836.12
603.08	1829.59
603.43	1822.78
603.78	1815.37
604.13	1808.07
604.48	1801.03
604.83	1794.03
605.18	1787.19
605.53	1779.29
605.87	1771.14
606.22	1763.80
606.57	1755.81
606.92	1748.25
607.27	1741.44
607.62	1734.61
607.96	1727.59
608.31	1721.05
608.66	1713.41
609.01	1706.04
609.36	1698.46
609.70	1690.42
610.05	1682.31
610.40	1674.62
610.75	1666.39
611.10	1658.88
611.44	1650.36
611.79	1642.22
612.14	1633.58
612.49	1624.25
612.83	1615.74
613.18	1607.69
613.53	1599.68
613.88	1591.14
614.22	1582.94
614.57	1574.04
614.92	1566.05
615.27	1558.47
615.61	1550.13
615.96	1542.05
616.31	1534.33
616.65	1526.91
617.00	1519.32
617.35	1511.51
617.70	1503.30
618.04	1494.77
618.39	1486.24
618.74	1478.78
619.08	1470.45
619.43	1462.83
619.78	1455.94
620.12	1448.82
620.47	1441.12
620.82	1432.78
621.16	1425.23
621.51	1417.59
621.85	1409.91
622.20	1401.31
622.55	1392.75
622.89	1384.76
623.24	1376.95
623.59	1369.27
623.93	1361.76
624.28	1354.45
624.62	1347.01
624.97	1339.70
625.32	1332.65
625.66	1325.66
626.01	1318.35
626.35	1310.95
626.70	1303.00
627.04	1295.25
627.39	1287.25
627.73	1279.78
628.08	1272.87
628.43	1265.60
628.77	1258.20
629.12	1250.60
629.46	1243.27
629.81	1235.65
630.15	1228.32
630.50	1220.96
630.84	1212.83
631.19	1204.74
631.53	1197.05
631.88	1189.28
632.22	1181.48
632.57	1174.12
632.91	1166.42
633.26	1158.90
633.60	1151.27
633.95	1144.00
634.29	1136.68
634.64	1129.98
634.98	1122.64
635.32	1115.29
635.67	1108.49
636.01	1101.76
636.36	1094.87
636.70	1088.27
637.05	1081.64
637.39	1075.07
637.73	1068.56
638.08	1062.52
638.42	1056.47
638.77	1050.11
639.11	1043.64
639.45	1037.18
639.80	1030.45
640.14	1024.01
640.49	1017.45
640.83	1011.15
641.17	1004.99
641.52	998.75
641.86	992.20
642.20	986.24
642.55	979.80
642.89	973.34
643.23	966.63
643.58	960.89
643.92	954.65
644.26	948.76
644.61	942.69
644.95	936.60
645.29	930.13
645.64	923.32
645.98	916.83
646.32	910.78
646.66	904.73
647.01	898.93
647.35	893.34
647.69	887.43
648.04	881.88
648.38	876.07
648.72	870.05
649.06	863.96
649.41	858.10
649.75	852.23
650.09	846.31
650.43	840.51
650.78	834.16
651.12	828.14
651.46	822.27
651.80	816.61
652.14	811.13
652.49	805.68
652.83	800.53
653.17	794.89
653.51	789.27
653.85	783.85
654.20	778.27
654.54	772.15
654.88	766.38
655.22	760.51
655.56	754.75
655.90	749.22
656.25	744.04
656.59	738.69
656.93	733.59
657.27	728.35
657.61	722.98
657.95	717.94
658.29	712.86
658.64	707.56
658.98	702.19
659.32	696.76
659.66	691.49
660.00	686.21
660.34	681.28
660.68	676.28
661.02	671.22
661.36	666.49
661.70	662.00
662.05	657.68
662.39	653.39
662.73	648.94
663.07	644.59
663.41	640.15
663.75	635.65
664.09	631.07
664.43	626.75
664.77	622.61
665.11	618.42
665.45	614.30
665.79	610.28
666.13	606.17
666.47	602.06
666.81	597.95
667.15	593.77
667.49	589.83
667.83	585.98
668.17	582.05
668.51	577.97
668.85	573.89
669.19	569.94
669.53	566.05
669.87	562.20
670.21	558.47
670.55	554.80
670.89	551.33
671.23	547.88
671.57	544.28
671.91	540.75
672.25	537.16
672.58	533.60
672.92	530.12
673.26	526.86
673.60	523.69
673.94	520.52
674.28	517.57
674.62	514.60
674.96	511.52
675.30	508.62
675.64	505.66
675.97	502.84
676.31	499.97
676.65	497.00
676.99	494.25
677.33	491.34
677.67	488.49
678.01	485.41
678.34	482.46
678.68	479.60
679.02	476.72
679.36	473.94
679.70	471.16
680.04	468.40
680.37	465.54
680.71	462.68
681.05	460.00
681.39	457.23
681.73	454.51
682.06	451.94
682.40	449.30
682.74	446.72
683.08	444.17
683.42	441.52
683.75	438.96
684.09	436.29
684.43	433.79
684.77	431.28
685.10	428.91
685.44	426.55
685.78	424.22
686.12	421.95
686.45	419.65
686.79	417.38
687.13	415.15
687.46	412.93
687.80	410.77
688.14	408.58
688.48	406.55
688.81	404.39
689.15	402.22
689.49	400.03
689.82	397.90
690.16	395.78
690.50	393.85
690.83	391.91
691.17	389.92
691.51	387.99
691.84	386.12
692.18	384.19
692.52	382.23
692.85	380.22
693.19	378.30
693.52	376.40
693.86	374.53
694.20	372.70
694.53	370.93
694.87	369.00
695.21	367.15
695.54	365.24
695.88	363.40
696.21	361.61
696.55	359.97
696.88	358.26
697.22	356.55
697.56	354.84
697.89	353.16
698.23	351.63
698.56	350.01
698.90	348.44
699.23	346.75
699.57	345.18
699.90	343.62
700.24	342.04
700.58	340.49
700.91	338.96
701.25	337.52
701.58	336.08
701.92	334.72
702.25	333.40
702.59	332.06
702.92	330.75
703.26	329.42
703.59	328.10
703.93	326.89
704.26	325.65
704.60	324.32
704.93	323.00
705.26	321.69
705.60	320.43
705.93	319.23
706.27	318.13
706.60	317.08
706.94	315.98
707.27	314.90
707.61	313.82
707.94	312.80
708.27	311.62
708.61	310.53
708.94	309.54
709.28	308.51
709.61	307.54
709.94	306.55
710.28	305.49
710.61	304.48
710.95	303.35
711.28	302.45
711.61	301.53
711.95	300.63
712.28	299.66
712.61	298.70
712.95	297.74
713.28	296.92
713.61	295.94
713.95	295.06
714.28	294.16
714.61	293.29
714.95	292.42
715.28	291.57
715.61	290.64
715.95	289.77
716.28	288.87
716.61	288.03
716.95	287.18
717.28	286.44
717.61	285.67
717.94	284.98
718.28	284.13
718.61	283.39
718.94	282.65
719.27	281.97
719.61	281.28
719.94	280.59
720.27	279.80
720.60	279.11
720.94	278.47
721.27	277.83
721.60	277.22
721.93	276.63
722.27	276.08
722.60	275.55
722.93	274.95
723.26	274.38
723.59	273.75
723.93	273.20
724.26	272.60
724.59	271.98
724.92	271.41
725.25	270.89
725.59	270.35
725.92	269.86
726.25	269.33
726.58	268.88
726.91	268.39
727.24	267.94
727.57	267.49
727.91	266.97
728.24	266.51
728.57	266.04
728.90	265.52
729.23	265.01
729.56	264.60
729.89	264.12
730.22	263.64
730.55	263.17
730.89	262.71
731.22	262.33
731.55	261.92
731.88	261.48
732.21	261.08
732.54	260.59
732.87	260.15
733.20	259.73
733.53	259.31
733.86	258.90
734.19	258.49
734.52	258.10
734.85	257.80
735.18	257.39
735.51	257.01
735.84	256.65
736.17	256.30
736.50	255.88
736.83	255.64
737.16	255.28
737.49	254.97
737.82	254.61
738.15	254.26
738.48	253.90
738.81	253.57
739.14	253.23
739.47	252.92
739.80	252.58
740.13	252.28
740.46	251.94
740.79	251.63
741.12	251.31
741.45	250.96
741.78	250.62
742.11	250.34
742.44	250.04
742.77	249.75
743.10	249.46
743.43	249.14
743.75	248.75
744.08	248.61
744.41	248.37
744.74	248.10
745.07	247.77
745.40	247.55
745.73	247.35
746.06	247.05
746.39	246.81
746.71	246.53
747.04	246.26
747.37	246.02
747.70	245.75
748.03	245.49
748.36	245.27
748.68	245.01
749.01	244.75
749.34	244.53
749.67	244.27
750.00	244.04
750.33	243.92
750.65	243.69
750.98	243.35
751.31	243.08
751.64	242.89
751.97	242.76
752.29	242.52
752.62	242.24
752.95	242.08
753.28	241.86
753.60	241.66
753.93	241.49
754.26	241.27
754.59	241.07
754.91	240.86
755.24	240.64
755.57	240.43
755.90	240.24
756.22	240.01
756.55	239.83
756.88	239.64
757.20	239.40
757.53	239.22
757.86	239.04
758.19	238.91
758.51	238.73
758.84	238.51
759.17	238.32
759.49	238.17
759.82	238.01
760.15	237.91
760.47	237.76
760.80	237.59
761.13	237.46
761.45	237.32
761.78	237.23
762.11	237.06
762.43	236.94
762.76	236.78
763.08	236.65
763.41	236.50
763.74	236.36
764.06	236.21
764.39	236.05
764.71	235.91
765.04	235.72
765.37	235.58
765.69	235.43
766.02	235.30
766.34	235.18
766.67	235.02
767.00	234.86
767.32	234.81
767.65	234.74
767.97	234.63
768.30	234.49
768.62	234.32
768.95	234.21
769.27	234.08
769.60	234.01
769.92	233.88
770.25	233.75
770.57	233.60
770.90	233.48
771.22	233.34
771.55	233.26
771.87	233.20
772.20	233.06
772.52	233.08
772.85	233.10
773.17	233.01
773.50	232.90
773.82	232.82
774.15	232.66
774.47	232.48
774.80	232.39
775.12	232.32
775.45	232.23
775.77	232.18
776.09	232.10
776.42	231.98
776.74	231.93
777.07	231.84
777.39	231.81
777.72	231.73
778.04	231.69
778.36	231.62
778.69	231.55
779.01	231.53
779.33	231.36
779.66	231.18
779.98	231.07
780.31	231.00
780.63	230.97
780.95	230.92
781.28	230.86
781.60	230.78
781.92	230.71
782.25	230.66
782.57	230.59
782.89	230.54
783.22	230.49
783.54	230.44
783.86	230.42
784.19	230.32
784.51	230.28
784.83	230.21
785.16	230.12
785.48	230.08
785.80	229.98
786.12	229.96
786.45	229.87
786.77	229.85
787.09	229.81
