SpectraSuite Data File
++++++++++++++++++++++++++++++++++++
Date: Fri Feb 01 15:48:49 EST 2013
User: group
Dark Spectrum Present: No
Reference Spectrum Present: No
Number of Sampled Component Spectra: 1
Spectrometers: USB2E7196
Integration Time (usec): 35000 (USB2E7196)
Spectra Averaged: 100 (USB2E7196)
Boxcar Smoothing: 10 (USB2E7196)
Correct for Electrical Dark: No (USB2E7196)
Strobe/Lamp Enabled: No (USB2E7196)
Correct for Detector Non-linearity: No (USB2E7196)
Correct for Stray Light: No (USB2E7196)
Number of Pixels in Processed Spectrum: 2048
>>>>>Begin Processed Spectral Data<<<<<
339.09	0.00
339.48	215.12
339.86	216.60
340.24	217.90
340.63	219.47
341.01	222.14
341.39	222.35
341.78	222.83
342.16	224.51
342.54	224.76
342.93	213.38
343.31	224.18
343.69	224.69
344.07	225.15
344.46	225.57
344.84	225.93
345.22	226.14
345.60	226.36
345.99	226.55
346.37	226.68
346.75	226.77
347.13	226.84
347.52	226.88
347.90	226.96
348.28	226.98
348.66	227.01
349.05	227.01
349.43	227.02
349.81	227.05
350.19	227.09
350.57	227.19
350.96	227.28
351.34	227.33
351.72	227.44
352.10	227.52
352.48	227.61
352.87	227.66
353.25	227.72
353.63	227.81
354.01	227.87
354.39	227.94
354.77	228.02
355.15	228.11
355.54	228.17
355.92	228.20
356.30	228.25
356.68	228.38
357.06	228.43
357.44	228.47
357.82	228.52
358.20	228.59
358.58	228.62
358.97	228.64
359.35	228.72
359.73	228.79
360.11	228.84
360.49	228.84
360.87	228.93
361.25	229.00
361.63	229.05
362.01	229.10
362.39	229.15
362.77	229.20
363.15	229.19
363.53	229.20
363.91	229.23
364.29	229.24
364.67	229.17
365.05	229.16
365.43	229.21
365.81	229.23
366.19	229.27
366.57	229.32
366.95	229.34
367.33	229.31
367.71	229.31
368.09	229.29
368.47	229.30
368.85	229.25
369.23	229.25
369.61	229.20
369.99	229.20
370.37	229.16
370.75	229.14
371.13	229.09
371.51	229.05
371.89	229.00
372.27	228.97
372.65	228.92
373.03	228.88
373.41	228.80
373.78	228.74
374.16	228.63
374.54	228.53
374.92	228.47
375.30	228.39
375.68	228.30
376.06	228.24
376.44	228.14
376.82	228.10
377.19	228.02
377.57	227.94
377.95	227.83
378.33	227.72
378.71	227.59
379.09	227.57
379.47	227.53
379.84	227.45
380.22	227.34
380.60	227.26
380.98	227.21
381.36	227.12
381.73	227.08
382.11	227.08
382.49	227.01
382.87	226.92
383.25	226.89
383.62	226.91
384.00	226.84
384.38	226.79
384.76	226.72
385.13	226.71
385.51	226.68
385.89	226.60
386.27	226.57
386.64	226.57
387.02	226.49
387.40	226.42
387.78	226.42
388.15	226.40
388.53	226.35
388.91	226.30
389.29	226.28
389.66	226.25
390.04	226.18
390.42	226.18
390.79	226.20
391.17	226.18
391.55	226.10
391.92	226.09
392.30	226.11
392.68	226.09
393.05	226.07
393.43	226.08
393.81	226.12
394.18	226.11
394.56	226.14
394.94	226.19
395.31	226.20
395.69	226.23
396.06	226.32
396.44	226.37
396.82	226.39
397.19	226.46
397.57	226.50
397.95	226.57
398.32	226.60
398.70	226.66
399.07	226.71
399.45	226.76
399.82	226.84
400.20	226.89
400.58	226.98
400.95	227.02
401.33	227.15
401.70	227.28
402.08	227.38
402.45	227.47
402.83	227.59
403.20	227.69
403.58	227.78
403.95	227.90
404.33	228.01
404.71	228.15
405.08	228.34
405.46	228.47
405.83	228.60
406.21	228.74
406.58	228.92
406.96	229.08
407.33	229.27
407.70	229.45
408.08	229.73
408.45	229.94
408.83	230.18
409.20	230.36
409.58	230.57
409.95	230.83
410.33	231.12
410.70	231.35
411.08	231.66
411.45	231.97
411.82	232.27
412.20	232.65
412.57	233.08
412.95	233.38
413.32	233.81
413.69	234.25
414.07	234.72
414.44	235.17
414.82	235.66
415.19	236.21
415.56	236.78
415.94	237.33
416.31	237.97
416.68	238.61
417.06	239.32
417.43	240.01
417.81	240.77
418.18	241.52
418.55	242.37
418.93	243.24
419.30	244.16
419.67	245.09
420.04	246.06
420.42	247.04
420.79	248.26
421.16	249.39
421.54	250.57
421.91	251.81
422.28	253.11
422.66	254.46
423.03	255.78
423.40	257.12
423.77	258.53
424.15	259.92
424.52	261.39
424.89	263.01
425.26	264.54
425.64	266.01
426.01	267.60
426.38	269.26
426.75	270.96
427.13	272.67
427.50	274.45
427.87	276.33
428.24	278.18
428.61	279.86
428.99	281.78
429.36	283.89
429.73	285.93
430.10	287.96
430.47	290.01
430.85	292.14
431.22	294.38
431.59	296.77
431.96	299.00
432.33	301.51
432.70	303.90
433.08	306.73
433.45	309.34
433.82	311.95
434.19	314.84
434.56	317.64
434.93	320.25
435.30	322.87
435.68	325.77
436.05	328.62
436.42	331.45
436.79	333.95
437.16	336.65
437.53	339.45
437.90	342.23
438.27	344.98
438.64	347.78
439.01	350.32
439.38	352.52
439.75	354.73
440.13	357.19
440.50	359.49
440.87	361.31
441.24	363.29
441.61	365.46
441.98	366.96
442.35	368.79
442.72	370.69
443.09	372.47
443.46	373.42
443.83	373.99
444.20	374.46
444.57	375.32
444.94	375.58
445.31	375.93
445.68	376.23
446.05	376.28
446.42	375.92
446.79	375.47
447.16	375.00
447.53	374.70
447.90	373.53
448.27	372.33
448.64	370.76
449.01	369.57
449.37	367.63
449.74	365.71
450.11	363.46
450.48	360.97
450.85	358.49
451.22	356.36
451.59	354.34
451.96	352.41
452.33	349.81
452.70	347.43
453.07	344.56
453.43	341.70
453.80	338.97
454.17	336.27
454.54	333.78
454.91	331.09
455.28	328.41
455.65	325.92
456.02	323.51
456.38	321.35
456.75	318.70
457.12	316.44
457.49	314.19
457.86	311.96
458.23	310.10
458.59	308.05
458.96	305.98
459.33	304.14
459.70	302.25
460.07	300.73
460.43	299.05
460.80	297.48
461.17	296.05
461.54	294.53
461.91	293.13
462.27	291.70
462.64	290.42
463.01	289.08
463.38	287.79
463.74	286.44
464.11	285.34
464.48	284.33
464.85	283.21
465.21	282.33
465.58	281.44
465.95	280.34
466.32	279.46
466.68	278.57
467.05	277.70
467.42	276.82
467.78	275.91
468.15	275.05
468.52	274.36
468.88	273.50
469.25	272.73
469.62	272.11
469.98	271.43
470.35	270.84
470.72	270.24
471.08	269.62
471.45	269.07
471.82	268.46
472.18	267.85
472.55	267.44
472.92	266.97
473.28	266.50
473.65	266.07
474.02	265.63
474.38	265.24
474.75	264.88
475.11	264.58
475.48	264.33
475.85	264.11
476.21	263.90
476.58	263.66
476.94	263.53
477.31	263.38
477.67	263.23
478.04	263.12
478.41	263.04
478.77	263.07
479.14	263.04
479.50	263.07
479.87	263.16
480.23	263.25
480.60	263.30
480.96	263.37
481.33	263.59
481.69	263.78
482.06	263.97
482.42	264.19
482.79	264.42
483.15	264.71
483.52	265.10
483.88	265.44
484.25	265.89
484.61	266.29
484.98	266.74
485.34	267.30
485.71	267.86
486.07	268.51
486.44	269.09
486.80	269.76
487.17	270.49
487.53	271.26
487.90	272.04
488.26	272.99
488.62	273.99
488.99	274.94
489.35	275.99
489.72	277.10
490.08	278.29
490.44	279.53
490.81	280.84
491.17	282.14
491.54	283.62
491.90	285.16
492.26	286.77
492.63	288.48
492.99	290.24
493.36	292.16
493.72	294.13
494.08	296.22
494.45	298.45
494.81	300.80
495.17	303.22
495.54	305.81
495.90	308.45
496.26	311.19
496.63	314.15
496.99	317.22
497.35	320.50
497.72	323.90
498.08	327.38
498.44	331.02
498.80	334.94
499.17	338.94
499.53	343.13
499.89	347.56
500.26	352.02
500.62	356.76
500.98	361.71
501.34	366.83
501.71	372.13
502.07	377.55
502.43	383.21
502.79	389.07
503.16	395.12
503.52	401.41
503.88	407.91
504.24	414.55
504.60	421.48
504.97	428.57
505.33	435.91
505.69	443.66
506.05	451.50
506.41	459.42
506.78	467.58
507.14	475.95
507.50	484.65
507.86	493.76
508.22	502.90
508.59	512.07
508.95	521.66
509.31	531.52
509.67	541.64
510.03	551.91
510.39	562.47
510.75	573.26
511.12	584.24
511.48	595.48
511.84	606.90
512.20	618.42
512.56	630.40
512.92	642.59
513.28	655.00
513.64	667.49
514.00	680.14
514.37	693.09
514.73	706.22
515.09	719.25
515.45	732.57
515.81	746.18
516.17	760.20
516.53	774.35
516.89	788.52
517.25	802.67
517.61	817.09
517.97	831.52
518.33	845.95
518.69	860.74
519.05	875.77
519.41	891.03
519.77	906.53
520.13	922.03
520.49	937.39
520.85	952.80
521.21	968.50
521.57	984.78
521.93	1000.62
522.29	1017.01
522.65	1033.25
523.01	1049.41
523.37	1065.38
523.73	1081.57
524.09	1097.59
524.45	1113.84
524.81	1130.47
525.17	1147.27
525.53	1164.23
525.89	1181.19
526.25	1198.09
526.61	1214.54
526.97	1231.27
527.33	1247.73
527.68	1264.33
528.04	1280.77
528.40	1297.34
528.76	1314.57
529.12	1331.24
529.48	1347.97
529.84	1363.92
530.20	1380.62
530.56	1397.78
530.91	1415.24
531.27	1431.97
531.63	1448.50
531.99	1465.20
532.35	1481.26
532.71	1497.15
533.07	1513.41
533.42	1529.25
533.78	1545.21
534.14	1561.41
534.50	1576.81
534.86	1592.70
535.21	1607.82
535.57	1623.78
535.93	1639.28
536.29	1653.85
536.65	1668.79
537.00	1683.70
537.36	1699.04
537.72	1713.56
538.08	1727.77
538.44	1741.52
538.79	1755.37
539.15	1769.07
539.51	1782.70
539.87	1796.96
540.22	1810.76
540.58	1824.48
540.94	1837.88
541.29	1850.67
541.65	1863.34
542.01	1876.58
542.37	1888.96
542.72	1901.49
543.08	1913.15
543.44	1925.63
543.79	1936.95
544.15	1947.98
544.51	1959.53
544.87	1970.47
545.22	1981.23
545.58	1991.43
545.94	2001.25
546.29	2011.24
546.65	2021.02
547.01	2030.37
547.36	2039.06
547.72	2047.45
548.07	2055.38
548.43	2063.46
548.79	2071.61
549.14	2079.15
549.50	2086.41
549.86	2094.03
550.21	2101.24
550.57	2108.58
550.92	2114.93
551.28	2121.84
551.64	2128.83
551.99	2135.30
552.35	2141.41
552.70	2147.60
553.06	2153.72
553.41	2160.01
553.77	2165.91
554.13	2171.99
554.48	2178.05
554.84	2183.50
555.19	2188.91
555.55	2193.87
555.90	2198.30
556.26	2203.02
556.61	2207.75
556.97	2211.94
557.32	2216.12
557.68	2220.32
558.03	2224.59
558.39	2228.41
558.74	2233.10
559.10	2236.90
559.45	2240.62
559.81	2245.02
560.16	2248.74
560.52	2251.89
560.87	2255.31
561.23	2258.01
561.58	2260.91
561.94	2263.37
562.29	2265.95
562.64	2268.35
563.00	2271.07
563.35	2274.61
563.71	2277.87
564.06	2281.14
564.42	2283.95
564.77	2286.27
565.12	2288.50
565.48	2290.24
565.83	2292.05
566.19	2293.24
566.54	2294.32
566.89	2295.36
567.25	2295.88
567.60	2297.15
567.96	2298.79
568.31	2299.59
568.66	2300.67
569.02	2301.34
569.37	2301.61
569.72	2302.45
570.08	2302.69
570.43	2302.71
570.78	2302.05
571.14	2300.49
571.49	2299.15
571.84	2298.93
572.20	2297.96
572.55	2296.78
572.90	2295.28
573.26	2293.89
573.61	2292.31
573.96	2290.41
574.31	2287.48
574.67	2284.51
575.02	2280.89
575.37	2277.45
575.72	2273.74
576.08	2270.40
576.43	2266.94
576.78	2263.29
577.13	2260.06
577.49	2257.01
577.84	2253.46
578.19	2249.90
578.54	2246.08
578.90	2241.63
579.25	2236.08
579.60	2231.10
579.95	2226.22
580.30	2221.27
580.66	2216.16
581.01	2211.26
581.36	2206.46
581.71	2202.28
582.06	2197.72
582.42	2193.37
582.77	2188.15
583.12	2183.61
583.47	2178.84
583.82	2173.88
584.17	2168.65
584.53	2162.95
584.88	2157.36
585.23	2151.58
585.58	2145.96
585.93	2140.61
586.28	2136.05
586.63	2130.96
586.98	2125.88
587.34	2121.12
587.69	2116.21
588.04	2110.87
588.39	2105.14
588.74	2098.55
589.09	2092.33
589.44	2085.60
589.79	2079.45
590.14	2073.88
590.49	2067.19
590.84	2060.90
591.19	2054.87
591.54	2048.39
591.89	2041.06
592.25	2034.18
592.60	2026.89
592.95	2019.31
593.30	2011.91
593.65	2004.16
594.00	1997.12
594.35	1989.85
594.70	1981.83
595.05	1974.57
595.40	1967.33
595.75	1959.76
596.10	1953.54
596.45	1946.85
596.80	1940.62
597.15	1934.07
597.50	1926.82
597.85	1920.44
598.19	1913.62
598.54	1906.27
598.89	1899.71
599.24	1893.87
599.59	1887.14
599.94	1881.01
600.29	1874.63
600.64	1868.19
600.99	1860.81
601.34	1854.03
601.69	1847.13
602.04	1840.23
602.39	1832.87
602.74	1826.06
603.08	1819.43
603.43	1812.64
603.78	1805.27
604.13	1798.04
604.48	1790.67
604.83	1783.92
605.18	1776.91
605.53	1768.98
605.87	1761.16
606.22	1753.92
606.57	1745.98
606.92	1738.74
607.27	1731.49
607.62	1724.67
607.96	1717.24
608.31	1710.69
608.66	1703.03
609.01	1695.35
609.36	1687.82
609.70	1679.79
610.05	1671.64
610.40	1663.80
610.75	1655.50
611.10	1647.91
611.44	1639.60
611.79	1631.75
612.14	1623.00
612.49	1613.88
612.83	1605.52
613.18	1597.47
613.53	1589.33
613.88	1580.70
614.22	1572.32
614.57	1563.82
614.92	1555.69
615.27	1548.17
615.61	1539.70
615.96	1531.69
616.31	1524.16
616.65	1516.81
617.00	1509.23
617.35	1501.61
617.70	1493.33
618.04	1484.82
618.39	1476.55
618.74	1468.80
619.08	1460.36
619.43	1452.84
619.78	1445.85
620.12	1438.66
620.47	1431.07
620.82	1422.81
621.16	1415.41
621.51	1407.90
621.85	1400.18
622.20	1391.66
622.55	1383.24
622.89	1375.42
623.24	1367.82
623.59	1360.36
623.93	1352.71
624.28	1345.61
624.62	1338.03
624.97	1330.98
625.32	1324.15
625.66	1317.17
626.01	1310.12
626.35	1302.68
626.70	1294.92
627.04	1287.21
627.39	1279.42
627.73	1272.07
628.08	1265.23
628.43	1257.91
628.77	1250.52
629.12	1243.08
629.46	1235.99
629.81	1228.66
630.15	1221.47
630.50	1214.03
630.84	1205.79
631.19	1197.96
631.53	1190.34
631.88	1182.81
632.22	1175.16
632.57	1167.84
632.91	1160.29
633.26	1152.83
633.60	1145.55
633.95	1138.48
634.29	1131.50
634.64	1124.76
634.98	1117.28
635.32	1110.11
635.67	1103.62
636.01	1096.99
636.36	1090.14
636.70	1083.68
637.05	1077.03
637.39	1070.49
637.73	1063.94
638.08	1058.10
638.42	1051.97
638.77	1045.62
639.11	1039.08
639.45	1032.62
639.80	1026.08
640.14	1019.70
640.49	1013.09
640.83	1006.75
641.17	1000.51
641.52	994.12
641.86	987.70
642.20	981.91
642.55	975.63
642.89	969.06
643.23	962.51
643.58	956.73
643.92	950.45
644.26	944.47
644.61	938.54
644.95	932.53
645.29	925.84
645.64	919.19
645.98	912.77
646.32	906.84
646.66	900.89
647.01	895.10
647.35	889.36
647.69	883.58
648.04	877.96
648.38	872.21
648.72	866.21
649.06	860.14
649.41	854.22
649.75	848.24
650.09	842.27
650.43	836.38
650.78	830.21
651.12	824.24
651.46	818.45
651.80	812.60
652.14	807.11
652.49	801.77
652.83	796.56
653.17	790.83
653.51	785.14
653.85	779.69
654.20	773.98
654.54	767.97
654.88	762.28
655.22	756.44
655.56	750.66
655.90	745.21
656.25	740.00
656.59	734.67
656.93	729.59
657.27	724.48
657.61	719.15
657.95	714.08
658.29	709.09
658.64	703.84
658.98	698.61
659.32	693.18
659.66	687.97
660.00	682.69
660.34	677.80
660.68	672.85
661.02	667.86
661.36	663.23
661.70	658.70
662.05	654.30
662.39	649.96
662.73	645.53
663.07	641.14
663.41	636.68
663.75	632.17
664.09	627.57
664.43	623.14
664.77	619.02
665.11	614.79
665.45	610.62
665.79	606.59
666.13	602.51
666.47	598.44
666.81	594.36
667.15	590.24
667.49	586.34
667.83	582.64
668.17	578.77
668.51	574.67
668.85	570.67
669.19	566.81
669.53	563.01
669.87	559.15
670.21	555.49
670.55	551.88
670.89	548.51
671.23	545.10
671.57	541.58
671.91	538.01
672.25	534.47
672.58	530.94
672.92	527.51
673.26	524.30
673.60	521.22
673.94	518.09
674.28	515.19
674.62	512.20
674.96	509.00
675.30	506.00
675.64	503.06
675.97	500.28
676.31	497.48
676.65	494.56
676.99	491.86
677.33	488.99
677.67	486.14
678.01	483.07
678.34	480.07
678.68	477.22
679.02	474.42
679.36	471.67
679.70	468.96
680.04	466.18
680.37	463.28
680.71	460.41
681.05	457.76
681.39	455.07
681.73	452.49
682.06	449.95
682.40	447.41
682.74	444.87
683.08	442.32
683.42	439.68
683.75	437.15
684.09	434.59
684.43	432.09
684.77	429.67
685.10	427.33
685.44	425.05
685.78	422.80
686.12	420.55
686.45	418.19
686.79	415.87
687.13	413.65
687.46	411.51
687.80	409.30
688.14	407.08
688.48	405.00
688.81	402.69
689.15	400.59
689.49	398.41
689.82	396.35
690.16	394.28
690.50	392.34
690.83	390.35
691.17	388.40
691.51	386.53
691.84	384.65
692.18	382.74
692.52	380.75
692.85	378.85
693.19	376.97
693.52	375.20
693.86	373.38
694.20	371.62
694.53	369.83
694.87	368.03
695.21	366.27
695.54	364.44
695.88	362.71
696.21	360.97
696.55	359.30
696.88	357.63
697.22	355.99
697.56	354.33
697.89	352.68
698.23	351.05
698.56	349.44
698.90	347.86
699.23	346.17
699.57	344.66
699.90	343.09
700.24	341.59
700.58	340.03
700.91	338.53
701.25	337.09
701.58	335.72
701.92	334.34
702.25	332.98
702.59	331.61
702.92	330.29
703.26	328.99
703.59	327.72
703.93	326.53
704.26	325.28
704.60	324.02
704.93	322.75
705.26	321.52
705.60	320.32
705.93	319.14
706.27	318.15
706.60	317.08
706.94	315.98
707.27	314.83
707.61	313.79
707.94	312.79
708.27	311.71
708.61	310.63
708.94	309.65
709.28	308.65
709.61	307.71
709.94	306.76
710.28	305.75
710.61	304.80
710.95	303.73
711.28	302.83
711.61	301.88
711.95	301.02
712.28	300.07
712.61	299.12
712.95	298.22
713.28	297.35
713.61	296.41
713.95	295.52
714.28	294.70
714.61	293.85
714.95	293.01
715.28	292.17
715.61	291.30
715.95	290.47
716.28	289.64
716.61	288.79
716.95	288.01
717.28	287.29
717.61	286.51
717.94	285.78
718.28	284.97
718.61	284.27
718.94	283.53
719.27	282.83
719.61	282.18
719.94	281.50
720.27	280.78
720.60	280.17
720.94	279.59
721.27	278.97
721.60	278.39
721.93	277.80
722.27	277.23
722.60	276.67
722.93	276.04
723.26	275.49
723.59	274.90
723.93	274.33
724.26	273.76
724.59	273.19
724.92	272.66
725.25	272.16
725.59	271.62
725.92	271.14
726.25	270.68
726.58	270.20
726.91	269.71
727.24	269.22
727.57	268.72
727.91	268.20
728.24	267.76
728.57	267.25
728.90	266.80
729.23	266.29
729.56	265.89
729.89	265.46
730.22	264.99
730.55	264.57
730.89	264.13
731.22	263.66
731.55	263.20
731.88	262.79
732.21	262.36
732.54	261.96
732.87	261.55
733.20	261.10
733.53	260.71
733.86	260.34
734.19	259.91
734.52	259.55
734.85	259.21
735.18	258.78
735.51	258.41
735.84	258.01
736.17	257.69
736.50	257.26
736.83	257.02
737.16	256.69
737.49	256.34
737.82	255.94
738.15	255.61
738.48	255.29
738.81	254.93
739.14	254.58
739.47	254.25
739.80	253.89
740.13	253.58
740.46	253.23
740.79	252.89
741.12	252.61
741.45	252.27
741.78	251.90
742.11	251.61
742.44	251.26
742.77	250.99
743.10	250.68
743.43	250.35
743.75	249.98
744.08	249.80
744.41	249.50
744.74	249.25
745.07	248.97
745.40	248.72
745.73	248.48
746.06	248.20
746.39	247.93
746.71	247.69
747.04	247.38
747.37	247.11
747.70	246.86
748.03	246.59
748.36	246.37
748.68	246.18
749.01	245.91
749.34	245.70
749.67	245.45
750.00	245.21
750.33	245.09
750.65	244.83
750.98	244.50
751.31	244.29
751.64	244.10
751.97	243.93
752.29	243.73
752.62	243.49
752.95	243.29
753.28	243.09
753.60	242.87
753.93	242.72
754.26	242.53
754.59	242.34
754.91	242.11
755.24	241.91
755.57	241.72
755.90	241.52
756.22	241.32
756.55	241.13
756.88	240.99
757.20	240.75
757.53	240.58
757.86	240.39
758.19	240.25
758.51	240.08
758.84	239.90
759.17	239.72
759.49	239.55
759.82	239.41
760.15	239.26
760.47	239.12
760.80	238.93
761.13	238.81
761.45	238.65
761.78	238.56
762.11	238.41
762.43	238.28
762.76	238.15
763.08	238.05
763.41	237.93
763.74	237.76
764.06	237.61
764.39	237.47
764.71	237.37
765.04	237.26
765.37	237.11
765.69	236.97
766.02	236.85
766.34	236.72
766.67	236.59
767.00	236.49
767.32	236.43
767.65	236.42
767.97	236.32
768.30	236.20
768.62	236.09
768.95	235.97
769.27	235.86
769.60	235.79
769.92	235.68
770.25	235.56
770.57	235.45
770.90	235.36
771.22	235.26
771.55	235.15
771.87	235.05
772.20	234.98
772.52	235.01
772.85	235.02
773.17	234.96
773.50	234.86
773.82	234.77
774.15	234.65
774.47	234.50
774.80	234.40
775.12	234.34
775.45	234.26
775.77	234.20
776.09	234.13
776.42	234.04
776.74	234.01
777.07	233.94
777.39	233.90
777.72	233.85
778.04	233.79
778.36	233.70
778.69	233.64
779.01	233.59
779.33	233.40
779.66	233.26
779.98	233.16
780.31	233.12
780.63	233.09
780.95	233.05
781.28	232.96
781.60	232.85
781.92	232.79
782.25	232.73
782.57	232.65
782.89	232.58
783.22	232.52
783.54	232.42
783.86	232.38
784.19	232.29
784.51	232.26
784.83	232.19
785.16	232.18
785.48	232.10
785.80	232.01
786.12	231.98
786.45	231.89
786.77	231.85
787.09	231.78
