SpectraSuite Data File
++++++++++++++++++++++++++++++++++++
Date: Fri Feb 01 15:25:22 EST 2013
User: group
Dark Spectrum Present: No
Reference Spectrum Present: No
Number of Sampled Component Spectra: 1
Spectrometers: USB2E7196
Integration Time (usec): 35000 (USB2E7196)
Spectra Averaged: 100 (USB2E7196)
Boxcar Smoothing: 10 (USB2E7196)
Correct for Electrical Dark: No (USB2E7196)
Strobe/Lamp Enabled: No (USB2E7196)
Correct for Detector Non-linearity: No (USB2E7196)
Correct for Stray Light: No (USB2E7196)
Number of Pixels in Processed Spectrum: 2048
>>>>>Begin Processed Spectral Data<<<<<
339.09	0.00
339.48	214.25
339.86	216.63
340.24	217.35
340.63	219.61
341.01	221.97
341.39	222.29
341.78	223.09
342.16	224.77
342.54	225.33
342.93	213.44
343.31	224.25
343.69	224.84
344.07	225.31
344.46	225.74
344.84	226.10
345.22	226.35
345.60	226.61
345.99	226.79
346.37	226.90
346.75	227.01
347.13	227.08
347.52	227.12
347.90	227.18
348.28	227.20
348.66	227.25
349.05	227.24
349.43	227.30
349.81	227.32
350.19	227.38
350.57	227.41
350.96	227.46
351.34	227.53
351.72	227.58
352.10	227.65
352.48	227.76
352.87	227.80
353.25	227.86
353.63	227.91
354.01	227.96
354.39	228.04
354.77	228.07
355.15	228.16
355.54	228.24
355.92	228.24
356.30	228.30
356.68	228.43
357.06	228.51
357.44	228.55
357.82	228.61
358.20	228.66
358.58	228.72
358.97	228.75
359.35	228.81
359.73	228.91
360.11	228.97
360.49	228.97
360.87	229.04
361.25	229.09
361.63	229.16
362.01	229.23
362.39	229.24
362.77	229.30
363.15	229.33
363.53	229.32
363.91	229.36
364.29	229.38
364.67	229.30
365.05	229.31
365.43	229.33
365.81	229.37
366.19	229.41
366.57	229.46
366.95	229.47
367.33	229.43
367.71	229.40
368.09	229.36
368.47	229.36
368.85	229.34
369.23	229.33
369.61	229.23
369.99	229.22
370.37	229.21
370.75	229.22
371.13	229.17
371.51	229.09
371.89	229.07
372.27	229.03
372.65	229.01
373.03	228.93
373.41	228.85
373.78	228.77
374.16	228.62
374.54	228.49
374.92	228.42
375.30	228.36
375.68	228.30
376.06	228.27
376.44	228.22
376.82	228.13
377.19	228.04
377.57	228.01
377.95	227.89
378.33	227.81
378.71	227.65
379.09	227.59
379.47	227.60
379.84	227.50
380.22	227.39
380.60	227.28
380.98	227.22
381.36	227.17
381.73	227.07
382.11	227.06
382.49	227.06
382.87	226.99
383.25	226.95
383.62	226.98
384.00	226.92
384.38	226.83
384.76	226.82
385.13	226.81
385.51	226.74
385.89	226.72
386.27	226.66
386.64	226.68
387.02	226.65
387.40	226.54
387.78	226.51
388.15	226.51
388.53	226.48
388.91	226.45
389.29	226.39
389.66	226.39
390.04	226.37
390.42	226.34
390.79	226.32
391.17	226.30
391.55	226.19
391.92	226.17
392.30	226.20
392.68	226.18
393.05	226.21
393.43	226.23
393.81	226.24
394.18	226.25
394.56	226.23
394.94	226.26
395.31	226.33
395.69	226.40
396.06	226.44
396.44	226.51
396.82	226.56
397.19	226.69
397.57	226.73
397.95	226.78
398.32	226.85
398.70	226.89
399.07	226.96
399.45	227.02
399.82	227.09
400.20	227.15
400.58	227.25
400.95	227.28
401.33	227.37
401.70	227.53
402.08	227.63
402.45	227.75
402.83	227.88
403.20	227.99
403.58	228.07
403.95	228.21
404.33	228.33
404.71	228.47
405.08	228.66
405.46	228.81
405.83	228.97
406.21	229.09
406.58	229.29
406.96	229.47
407.33	229.65
407.70	229.87
408.08	230.12
408.45	230.32
408.83	230.57
409.20	230.82
409.58	230.98
409.95	231.24
410.33	231.52
410.70	231.74
411.08	232.04
411.45	232.34
411.82	232.65
412.20	233.03
412.57	233.41
412.95	233.71
413.32	234.10
413.69	234.47
414.07	234.91
414.44	235.36
414.82	235.81
415.19	236.36
415.56	236.91
415.94	237.48
416.31	238.12
416.68	238.72
417.06	239.42
417.43	240.10
417.81	240.87
418.18	241.63
418.55	242.47
418.93	243.38
419.30	244.26
419.67	245.21
420.04	246.14
420.42	247.15
420.79	248.31
421.16	249.49
421.54	250.74
421.91	251.96
422.28	253.20
422.66	254.54
423.03	255.83
423.40	257.15
423.77	258.57
424.15	259.95
424.52	261.49
424.89	263.12
425.26	264.67
425.64	266.13
426.01	267.76
426.38	269.44
426.75	271.09
427.13	272.84
427.50	274.62
427.87	276.50
428.24	278.36
428.61	280.12
428.99	282.07
429.36	284.17
429.73	286.24
430.10	288.28
430.47	290.37
430.85	292.53
431.22	294.78
431.59	297.17
431.96	299.49
432.33	301.98
432.70	304.33
433.08	307.15
433.45	309.81
433.82	312.42
434.19	315.31
434.56	318.11
434.93	320.78
435.30	323.42
435.68	326.32
436.05	329.17
436.42	331.97
436.79	334.50
437.16	337.20
437.53	340.04
437.90	342.85
438.27	345.62
438.64	348.43
439.01	351.01
439.38	353.25
439.75	355.43
440.13	357.92
440.50	360.26
440.87	362.14
441.24	364.08
441.61	366.26
441.98	367.75
442.35	369.56
442.72	371.43
443.09	373.21
443.46	374.21
443.83	374.80
444.20	375.30
444.57	376.11
444.94	376.43
445.31	376.76
445.68	377.15
446.05	377.17
446.42	376.80
446.79	376.42
447.16	375.94
447.53	375.58
447.90	374.35
448.27	373.17
448.64	371.56
449.01	370.41
449.37	368.40
449.74	366.52
450.11	364.25
450.48	361.77
450.85	359.21
451.22	357.07
451.59	355.01
451.96	353.04
452.33	350.39
452.70	348.01
453.07	345.19
453.43	342.29
453.80	339.52
454.17	336.81
454.54	334.25
454.91	331.53
455.28	328.86
455.65	326.43
456.02	324.00
456.38	321.85
456.75	319.19
457.12	316.97
457.49	314.74
457.86	312.59
458.23	310.75
458.59	308.75
458.96	306.67
459.33	304.80
459.70	302.92
460.07	301.43
460.43	299.67
460.80	298.05
461.17	296.59
461.54	295.13
461.91	293.70
462.27	292.22
462.64	290.95
463.01	289.58
463.38	288.25
463.74	286.86
464.11	285.67
464.48	284.60
464.85	283.45
465.21	282.55
465.58	281.59
465.95	280.44
466.32	279.53
466.68	278.64
467.05	277.76
467.42	276.88
467.78	275.97
468.15	275.12
468.52	274.44
468.88	273.57
469.25	272.74
469.62	272.11
469.98	271.43
470.35	270.82
470.72	270.22
471.08	269.56
471.45	269.04
471.82	268.47
472.18	267.88
472.55	267.45
472.92	266.94
473.28	266.51
473.65	266.06
474.02	265.63
474.38	265.22
474.75	264.88
475.11	264.55
475.48	264.24
475.85	264.01
476.21	263.79
476.58	263.60
476.94	263.50
477.31	263.31
477.67	263.17
478.04	263.02
478.41	262.98
478.77	263.02
479.14	262.89
479.50	262.95
479.87	263.02
480.23	263.08
480.60	263.14
480.96	263.17
481.33	263.38
481.69	263.56
482.06	263.76
482.42	263.98
482.79	264.20
483.15	264.54
483.52	264.90
483.88	265.23
484.25	265.60
484.61	266.04
484.98	266.51
485.34	267.07
485.71	267.68
486.07	268.25
486.44	268.80
486.80	269.54
487.17	270.26
487.53	271.09
487.90	271.95
488.26	272.89
488.62	273.88
488.99	274.87
489.35	275.89
489.72	277.05
490.08	278.21
490.44	279.48
490.81	280.79
491.17	282.15
491.54	283.61
491.90	285.12
492.26	286.75
492.63	288.46
492.99	290.24
493.36	292.13
493.72	294.22
494.08	296.33
494.45	298.57
494.81	300.92
495.17	303.32
495.54	305.89
495.90	308.53
496.26	311.40
496.63	314.33
496.99	317.41
497.35	320.64
497.72	324.05
498.08	327.57
498.44	331.27
498.80	335.22
499.17	339.25
499.53	343.43
499.89	347.85
500.26	352.38
500.62	357.08
500.98	362.02
501.34	367.06
501.71	372.45
502.07	377.87
502.43	383.50
502.79	389.39
503.16	395.41
503.52	401.69
503.88	408.11
504.24	414.75
504.60	421.73
504.97	428.86
505.33	436.21
505.69	443.87
506.05	451.62
506.41	459.47
506.78	467.67
507.14	476.20
507.50	484.82
507.86	493.90
508.22	503.06
508.59	512.29
508.95	521.91
509.31	531.68
509.67	541.84
510.03	552.18
510.39	562.74
510.75	573.63
511.12	584.63
511.48	595.81
511.84	607.24
512.20	618.70
512.56	630.65
512.92	642.87
513.28	655.20
513.64	667.72
514.00	680.44
514.37	693.31
514.73	706.40
515.09	719.52
515.45	732.79
515.81	746.42
516.17	760.45
516.53	774.62
516.89	788.81
517.25	803.04
517.61	817.49
517.97	831.90
518.33	846.30
518.69	861.16
519.05	876.23
519.41	891.45
519.77	907.09
520.13	922.55
520.49	937.90
520.85	953.43
521.21	969.16
521.57	985.48
521.93	1001.36
522.29	1017.72
522.65	1033.96
523.01	1050.22
523.37	1066.24
523.73	1082.43
524.09	1098.57
524.45	1114.90
524.81	1131.53
525.17	1148.46
525.53	1165.48
525.89	1182.51
526.25	1199.28
526.61	1215.85
526.97	1232.71
527.33	1249.25
527.68	1265.92
528.04	1282.46
528.40	1299.13
528.76	1316.32
529.12	1333.04
529.48	1349.91
529.84	1366.09
530.20	1382.91
530.56	1400.00
530.91	1417.55
531.27	1434.41
531.63	1450.96
531.99	1467.67
532.35	1483.75
532.71	1499.56
533.07	1515.73
533.42	1531.65
533.78	1547.68
534.14	1564.01
534.50	1579.36
534.86	1595.20
535.21	1610.45
535.57	1626.46
535.93	1641.92
536.29	1656.71
536.65	1671.82
537.00	1686.76
537.36	1701.94
537.72	1716.44
538.08	1730.84
538.44	1744.68
538.79	1758.51
539.15	1772.21
539.51	1786.03
539.87	1800.44
540.22	1814.24
540.58	1828.27
540.94	1841.72
541.29	1854.81
541.65	1867.48
542.01	1880.86
542.37	1893.22
542.72	1905.72
543.08	1917.48
543.44	1930.06
543.79	1941.41
544.15	1952.39
544.51	1963.87
544.87	1974.93
545.22	1985.79
545.58	1996.11
545.94	2005.89
546.29	2015.83
546.65	2025.65
547.01	2034.93
547.36	2043.76
547.72	2052.28
548.07	2060.11
548.43	2068.29
548.79	2076.41
549.14	2084.13
549.50	2091.45
549.86	2099.33
550.21	2106.61
550.57	2113.86
550.92	2120.40
551.28	2127.47
551.64	2134.51
551.99	2141.13
552.35	2147.31
552.70	2153.34
553.06	2159.32
553.41	2165.77
553.77	2171.91
554.13	2178.05
554.48	2184.14
554.84	2189.39
555.19	2194.71
555.55	2199.79
555.90	2204.24
556.26	2209.01
556.61	2213.67
556.97	2217.88
557.32	2221.84
557.68	2226.03
558.03	2230.44
558.39	2234.23
558.74	2238.83
559.10	2242.75
559.45	2246.41
559.81	2250.84
560.16	2254.72
560.52	2258.01
560.87	2261.40
561.23	2263.86
561.58	2266.74
561.94	2269.38
562.29	2271.83
562.64	2274.57
563.00	2277.18
563.35	2280.64
563.71	2283.70
564.06	2286.82
564.42	2289.68
564.77	2292.18
565.12	2294.28
565.48	2296.05
565.83	2297.74
566.19	2298.89
566.54	2299.81
566.89	2300.91
567.25	2301.30
567.60	2302.66
567.96	2304.18
568.31	2304.93
568.66	2306.07
569.02	2306.65
569.37	2306.78
569.72	2307.57
570.08	2307.44
570.43	2307.45
570.78	2306.73
571.14	2305.17
571.49	2303.77
571.84	2303.43
572.20	2302.20
572.55	2301.27
572.90	2299.57
573.26	2298.16
573.61	2296.54
573.96	2294.56
574.31	2291.47
574.67	2288.40
575.02	2284.66
575.37	2281.15
575.72	2277.29
576.08	2273.99
576.43	2270.63
576.78	2266.80
577.13	2263.70
577.49	2260.79
577.84	2257.14
578.19	2253.39
578.54	2249.60
578.90	2245.24
579.25	2239.70
579.60	2234.67
579.95	2229.48
580.30	2224.55
580.66	2219.30
581.01	2214.30
581.36	2209.35
581.71	2205.15
582.06	2200.73
582.42	2196.14
582.77	2190.96
583.12	2186.22
583.47	2181.23
583.82	2176.04
584.17	2170.84
584.53	2165.18
584.88	2159.46
585.23	2153.52
585.58	2148.14
585.93	2142.67
586.28	2138.00
586.63	2132.78
586.98	2127.72
587.34	2123.05
587.69	2118.17
588.04	2112.83
588.39	2106.97
588.74	2100.39
589.09	2094.19
589.44	2087.26
589.79	2081.24
590.14	2075.62
590.49	2068.91
590.84	2062.57
591.19	2056.53
591.54	2049.96
591.89	2042.39
592.25	2035.45
592.60	2028.35
592.95	2020.52
593.30	2013.08
593.65	2005.29
594.00	1998.20
594.35	1990.89
594.70	1982.74
595.05	1975.31
595.40	1968.01
595.75	1960.46
596.10	1954.16
596.45	1947.27
596.80	1941.13
597.15	1934.48
597.50	1927.18
597.85	1920.87
598.19	1914.16
598.54	1907.05
598.89	1900.46
599.24	1894.53
599.59	1887.70
599.94	1881.40
600.29	1875.07
600.64	1868.39
600.99	1860.87
601.34	1853.93
601.69	1846.89
602.04	1839.96
602.39	1832.49
602.74	1825.62
603.08	1818.91
603.43	1812.15
603.78	1804.86
604.13	1797.47
604.48	1789.97
604.83	1783.08
605.18	1775.91
605.53	1767.91
605.87	1759.77
606.22	1752.44
606.57	1744.47
606.92	1737.16
607.27	1729.84
607.62	1722.87
607.96	1715.64
608.31	1709.04
608.66	1701.40
609.01	1693.69
609.36	1686.14
609.70	1678.08
610.05	1669.98
610.40	1662.31
610.75	1654.02
611.10	1646.39
611.44	1638.21
611.79	1630.28
612.14	1621.52
612.49	1612.51
612.83	1604.11
613.18	1596.00
613.53	1587.96
613.88	1579.50
614.22	1571.39
614.57	1562.88
614.92	1554.76
615.27	1547.10
615.61	1538.73
615.96	1530.77
616.31	1523.28
616.65	1515.80
617.00	1508.32
617.35	1500.58
617.70	1492.09
618.04	1483.56
618.39	1475.26
618.74	1467.47
619.08	1459.22
619.43	1451.87
619.78	1444.92
620.12	1437.72
620.47	1430.20
620.82	1421.89
621.16	1414.40
621.51	1406.66
621.85	1399.16
622.20	1390.74
622.55	1382.53
622.89	1374.67
623.24	1366.94
623.59	1359.50
623.93	1352.01
624.28	1344.75
624.62	1337.23
624.97	1330.13
625.32	1323.34
625.66	1316.26
626.01	1309.05
626.35	1301.55
626.70	1293.68
627.04	1285.92
627.39	1278.14
627.73	1270.69
628.08	1263.82
628.43	1256.48
628.77	1249.06
629.12	1241.47
629.46	1234.19
629.81	1226.70
630.15	1219.51
630.50	1212.09
630.84	1203.92
631.19	1195.94
631.53	1188.51
631.88	1180.97
632.22	1173.37
632.57	1166.07
632.91	1158.65
633.26	1151.35
633.60	1144.08
633.95	1137.04
634.29	1130.04
634.64	1123.38
634.98	1116.09
635.32	1108.96
635.67	1102.45
636.01	1095.87
636.36	1088.96
636.70	1082.58
637.05	1076.11
637.39	1069.64
637.73	1063.18
638.08	1057.34
638.42	1051.45
638.77	1044.99
639.11	1038.41
639.45	1032.02
639.80	1025.40
640.14	1018.95
640.49	1012.29
640.83	1005.97
641.17	999.67
641.52	993.39
641.86	986.96
642.20	981.15
642.55	974.85
642.89	968.26
643.23	961.68
643.58	955.92
643.92	949.67
644.26	943.51
644.61	937.51
644.95	931.49
645.29	924.83
645.64	918.03
645.98	911.70
646.32	905.93
646.66	899.90
647.01	894.09
647.35	888.35
647.69	882.59
648.04	877.11
648.38	871.30
648.72	865.19
649.06	859.09
649.41	853.17
649.75	847.13
650.09	841.20
650.43	835.39
650.78	829.26
651.12	823.22
651.46	817.52
651.80	811.73
652.14	806.36
652.49	801.03
652.83	795.85
653.17	790.09
653.51	784.32
653.85	778.96
654.20	773.30
654.54	767.29
654.88	761.57
655.22	755.59
655.56	749.99
655.90	744.53
656.25	739.38
656.59	734.02
656.93	729.06
657.27	723.98
657.61	718.59
657.95	713.57
658.29	708.60
658.64	703.41
658.98	698.13
659.32	692.68
659.66	687.44
660.00	682.14
660.34	677.29
660.68	672.44
661.02	667.44
661.36	662.78
661.70	658.28
662.05	653.91
662.39	649.58
662.73	645.07
663.07	640.75
663.41	636.32
663.75	631.84
664.09	627.27
664.43	622.88
664.77	618.83
665.11	614.51
665.45	610.43
665.79	606.36
666.13	602.24
666.47	598.12
666.81	593.99
667.15	589.91
667.49	586.01
667.83	582.16
668.17	578.13
668.51	574.05
668.85	570.06
669.19	566.28
669.53	562.50
669.87	558.69
670.21	554.98
670.55	551.26
670.89	547.77
671.23	544.30
671.57	540.81
671.91	537.18
672.25	533.77
672.58	530.27
672.92	526.84
673.26	523.73
673.60	520.58
673.94	517.51
674.28	514.62
674.62	511.63
674.96	508.61
675.30	505.78
675.64	502.85
675.97	500.11
676.31	497.22
676.65	494.24
676.99	491.47
677.33	488.62
677.67	485.81
678.01	482.86
678.34	479.92
678.68	477.05
679.02	474.21
679.36	471.37
679.70	468.61
680.04	465.83
680.37	462.85
680.71	460.09
681.05	457.44
681.39	454.74
681.73	452.13
682.06	449.54
682.40	446.95
682.74	444.43
683.08	441.85
683.42	439.25
683.75	436.77
684.09	434.26
684.43	431.84
684.77	429.37
685.10	426.99
685.44	424.72
685.78	422.39
686.12	420.21
686.45	417.95
686.79	415.66
687.13	413.48
687.46	411.40
687.80	409.23
688.14	407.02
688.48	404.94
688.81	402.66
689.15	400.51
689.49	398.38
689.82	396.31
690.16	394.23
690.50	392.24
690.83	390.29
691.17	388.29
691.51	386.37
691.84	384.56
692.18	382.63
692.52	380.63
692.85	378.76
693.19	376.86
693.52	375.02
693.86	373.21
694.20	371.42
694.53	369.59
694.87	367.82
695.21	366.04
695.54	364.20
695.88	362.47
696.21	360.77
696.55	359.11
696.88	357.43
697.22	355.81
697.56	354.19
697.89	352.51
698.23	350.90
698.56	349.31
698.90	347.68
699.23	346.02
699.57	344.45
699.90	342.88
700.24	341.31
700.58	339.77
700.91	338.29
701.25	336.85
701.58	335.48
701.92	334.07
702.25	332.68
702.59	331.36
702.92	330.07
703.26	328.77
703.59	327.49
703.93	326.32
704.26	325.10
704.60	323.85
704.93	322.61
705.26	321.39
705.60	320.21
705.93	319.08
706.27	318.07
706.60	317.06
706.94	315.99
707.27	314.92
707.61	313.93
707.94	312.87
708.27	311.77
708.61	310.71
708.94	309.73
709.28	308.75
709.61	307.78
709.94	306.86
710.28	305.86
710.61	304.92
710.95	303.88
711.28	302.95
711.61	302.01
711.95	301.12
712.28	300.19
712.61	299.25
712.95	298.35
713.28	297.45
713.61	296.56
713.95	295.71
714.28	294.85
714.61	293.97
714.95	293.16
715.28	292.34
715.61	291.49
715.95	290.62
716.28	289.79
716.61	288.98
716.95	288.12
717.28	287.37
717.61	286.60
717.94	285.87
718.28	285.06
718.61	284.33
718.94	283.62
719.27	282.95
719.61	282.30
719.94	281.61
720.27	280.90
720.60	280.22
720.94	279.59
721.27	279.00
721.60	278.42
721.93	277.83
722.27	277.27
722.60	276.74
722.93	276.20
723.26	275.67
723.59	275.09
723.93	274.53
724.26	274.01
724.59	273.40
724.92	272.87
725.25	272.35
725.59	271.83
725.92	271.30
726.25	270.80
726.58	270.26
726.91	269.75
727.24	269.28
727.57	268.80
727.91	268.27
728.24	267.80
728.57	267.28
728.90	266.82
729.23	266.28
729.56	265.84
729.89	265.35
730.22	264.85
730.55	264.42
730.89	264.00
731.22	263.51
731.55	263.05
731.88	262.64
732.21	262.22
732.54	261.79
732.87	261.35
733.20	260.94
733.53	260.55
733.86	260.21
734.19	259.81
734.52	259.44
734.85	259.13
735.18	258.70
735.51	258.31
735.84	257.91
736.17	257.55
736.50	257.11
736.83	256.90
737.16	256.57
737.49	256.20
737.82	255.86
738.15	255.52
738.48	255.23
738.81	254.88
739.14	254.54
739.47	254.21
739.80	253.90
740.13	253.57
740.46	253.26
740.79	252.93
741.12	252.63
741.45	252.32
741.78	251.93
742.11	251.65
742.44	251.31
742.77	251.05
743.10	250.77
743.43	250.48
743.75	250.07
744.08	249.90
744.41	249.65
744.74	249.38
745.07	249.11
745.40	248.88
745.73	248.64
746.06	248.36
746.39	248.11
746.71	247.85
747.04	247.59
747.37	247.32
747.70	247.06
748.03	246.77
748.36	246.55
748.68	246.33
749.01	246.09
749.34	245.93
749.67	245.66
750.00	245.48
750.33	245.35
750.65	245.13
750.98	244.81
751.31	244.60
751.64	244.41
751.97	244.29
752.29	244.05
752.62	243.81
752.95	243.64
753.28	243.44
753.60	243.28
753.93	243.10
754.26	242.90
754.59	242.69
754.91	242.52
755.24	242.34
755.57	242.16
755.90	241.99
756.22	241.79
756.55	241.64
756.88	241.41
757.20	241.18
757.53	241.00
757.86	240.84
758.19	240.68
758.51	240.48
758.84	240.23
759.17	240.07
759.49	239.90
759.82	239.76
760.15	239.62
760.47	239.46
760.80	239.31
761.13	239.20
761.45	239.04
761.78	238.92
762.11	238.76
762.43	238.62
762.76	238.48
763.08	238.39
763.41	238.27
763.74	238.14
764.06	238.03
764.39	237.89
764.71	237.74
765.04	237.60
765.37	237.49
765.69	237.39
766.02	237.28
766.34	237.18
766.67	237.04
767.00	236.92
767.32	236.85
767.65	236.78
767.97	236.66
768.30	236.57
768.62	236.41
768.95	236.32
769.27	236.21
769.60	236.11
769.92	235.96
770.25	235.81
770.57	235.69
770.90	235.57
771.22	235.47
771.55	235.38
771.87	235.27
772.20	235.16
772.52	235.14
772.85	235.12
773.17	235.00
773.50	234.90
773.82	234.79
774.15	234.62
774.47	234.49
774.80	234.40
775.12	234.30
775.45	234.22
775.77	234.10
776.09	234.00
776.42	233.90
776.74	233.82
777.07	233.75
777.39	233.67
777.72	233.56
778.04	233.48
778.36	233.39
778.69	233.31
779.01	233.26
779.33	233.13
779.66	232.98
779.98	232.90
780.31	232.84
780.63	232.77
780.95	232.73
781.28	232.66
781.60	232.54
781.92	232.49
782.25	232.45
782.57	232.41
782.89	232.33
783.22	232.28
783.54	232.24
783.86	232.17
784.19	232.11
784.51	232.10
784.83	232.07
785.16	232.00
785.48	231.96
785.80	231.90
786.12	231.84
786.45	231.81
786.77	231.76
787.09	231.66
