SpectraSuite Data File
++++++++++++++++++++++++++++++++++++
Date: Fri Feb 01 15:22:34 EST 2013
User: group
Dark Spectrum Present: No
Reference Spectrum Present: No
Number of Sampled Component Spectra: 1
Spectrometers: USB2E7196
Integration Time (usec): 35000 (USB2E7196)
Spectra Averaged: 100 (USB2E7196)
Boxcar Smoothing: 10 (USB2E7196)
Correct for Electrical Dark: No (USB2E7196)
Strobe/Lamp Enabled: No (USB2E7196)
Correct for Detector Non-linearity: No (USB2E7196)
Correct for Stray Light: No (USB2E7196)
Number of Pixels in Processed Spectrum: 2048
>>>>>Begin Processed Spectral Data<<<<<
339.09	0.00
339.48	215.52
339.86	216.90
340.24	218.05
340.63	220.04
341.01	221.70
341.39	222.20
341.78	223.31
342.16	224.17
342.54	225.09
342.93	213.37
343.31	224.14
343.69	224.66
344.07	225.09
344.46	225.50
344.84	225.84
345.22	226.09
345.60	226.30
345.99	226.52
346.37	226.64
346.75	226.71
347.13	226.78
347.52	226.81
347.90	226.90
348.28	226.92
348.66	226.97
349.05	226.97
349.43	226.99
349.81	227.02
350.19	227.08
350.57	227.11
350.96	227.19
351.34	227.27
351.72	227.36
352.10	227.46
352.48	227.54
352.87	227.59
353.25	227.65
353.63	227.72
354.01	227.75
354.39	227.82
354.77	227.95
355.15	228.03
355.54	228.12
355.92	228.17
356.30	228.23
356.68	228.37
357.06	228.47
357.44	228.54
357.82	228.62
358.20	228.68
358.58	228.77
358.97	228.81
359.35	228.91
359.73	229.01
360.11	229.04
360.49	229.11
360.87	229.17
361.25	229.22
361.63	229.30
362.01	229.36
362.39	229.40
362.77	229.41
363.15	229.45
363.53	229.47
363.91	229.51
364.29	229.53
364.67	229.45
365.05	229.46
365.43	229.45
365.81	229.49
366.19	229.57
366.57	229.60
366.95	229.61
367.33	229.57
367.71	229.53
368.09	229.53
368.47	229.51
368.85	229.49
369.23	229.51
369.61	229.42
369.99	229.44
370.37	229.40
370.75	229.43
371.13	229.37
371.51	229.31
371.89	229.29
372.27	229.23
372.65	229.22
373.03	229.18
373.41	229.13
373.78	229.05
374.16	228.93
374.54	228.85
374.92	228.80
375.30	228.73
375.68	228.69
376.06	228.63
376.44	228.55
376.82	228.44
377.19	228.37
377.57	228.33
377.95	228.21
378.33	228.13
378.71	227.97
379.09	227.90
379.47	227.83
379.84	227.75
380.22	227.69
380.60	227.58
380.98	227.50
381.36	227.42
381.73	227.34
382.11	227.27
382.49	227.18
382.87	227.11
383.25	227.05
383.62	227.07
384.00	226.98
384.38	226.91
384.76	226.90
385.13	226.90
385.51	226.81
385.89	226.77
386.27	226.72
386.64	226.68
387.02	226.61
387.40	226.59
387.78	226.54
388.15	226.46
388.53	226.41
388.91	226.35
389.29	226.31
389.66	226.29
390.04	226.26
390.42	226.25
390.79	226.22
391.17	226.23
391.55	226.11
391.92	226.11
392.30	226.14
392.68	226.14
393.05	226.13
393.43	226.19
393.81	226.20
394.18	226.22
394.56	226.25
394.94	226.35
395.31	226.36
395.69	226.42
396.06	226.52
396.44	226.57
396.82	226.61
397.19	226.69
397.57	226.73
397.95	226.81
398.32	226.85
398.70	226.96
399.07	227.03
399.45	227.11
399.82	227.18
400.20	227.25
400.58	227.30
400.95	227.31
401.33	227.41
401.70	227.57
402.08	227.65
402.45	227.75
402.83	227.85
403.20	227.99
403.58	228.09
403.95	228.22
404.33	228.39
404.71	228.54
405.08	228.78
405.46	228.94
405.83	229.09
406.21	229.24
406.58	229.37
406.96	229.54
407.33	229.72
407.70	229.95
408.08	230.20
408.45	230.47
408.83	230.73
409.20	230.92
409.58	231.10
409.95	231.36
410.33	231.66
410.70	231.89
411.08	232.19
411.45	232.48
411.82	232.81
412.20	233.15
412.57	233.60
412.95	233.87
413.32	234.30
413.69	234.73
414.07	235.16
414.44	235.64
414.82	236.10
415.19	236.66
415.56	237.19
415.94	237.73
416.31	238.36
416.68	238.98
417.06	239.71
417.43	240.40
417.81	241.20
418.18	241.96
418.55	242.82
418.93	243.72
419.30	244.63
419.67	245.52
420.04	246.48
420.42	247.43
420.79	248.59
421.16	249.71
421.54	250.90
421.91	252.14
422.28	253.40
422.66	254.76
423.03	256.06
423.40	257.40
423.77	258.77
424.15	260.19
424.52	261.71
424.89	263.35
425.26	264.90
425.64	266.34
426.01	267.95
426.38	269.60
426.75	271.26
427.13	272.98
427.50	274.81
427.87	276.68
428.24	278.56
428.61	280.32
428.99	282.29
429.36	284.36
429.73	286.44
430.10	288.47
430.47	290.52
430.85	292.63
431.22	294.88
431.59	297.30
431.96	299.58
432.33	302.01
432.70	304.37
433.08	307.20
433.45	309.81
433.82	312.42
434.19	315.33
434.56	318.13
434.93	320.79
435.30	323.41
435.68	326.30
436.05	329.12
436.42	331.89
436.79	334.37
437.16	337.09
437.53	339.93
437.90	342.75
438.27	345.52
438.64	348.39
439.01	350.98
439.38	353.19
439.75	355.37
440.13	357.91
440.50	360.23
440.87	362.05
441.24	364.03
441.61	366.22
441.98	367.71
442.35	369.53
442.72	371.40
443.09	373.23
443.46	374.19
443.83	374.81
444.20	375.34
444.57	376.17
444.94	376.42
445.31	376.76
445.68	377.06
446.05	377.10
446.42	376.69
446.79	376.28
447.16	375.84
447.53	375.50
447.90	374.32
448.27	373.20
448.64	371.60
449.01	370.51
449.37	368.50
449.74	366.60
450.11	364.35
450.48	361.82
450.85	359.25
451.22	357.13
451.59	355.08
451.96	353.07
452.33	350.51
452.70	348.20
453.07	345.37
453.43	342.48
453.80	339.76
454.17	337.03
454.54	334.46
454.91	331.74
455.28	329.06
455.65	326.57
456.02	324.11
456.38	321.98
456.75	319.28
457.12	317.01
457.49	314.77
457.86	312.58
458.23	310.75
458.59	308.72
458.96	306.68
459.33	304.80
459.70	303.01
460.07	301.52
460.43	299.82
460.80	298.19
461.17	296.79
461.54	295.25
461.91	293.86
462.27	292.46
462.64	291.21
463.01	289.87
463.38	288.60
463.74	287.22
464.11	286.07
464.48	285.04
464.85	283.94
465.21	283.06
465.58	282.16
465.95	281.04
466.32	280.12
466.68	279.18
467.05	278.33
467.42	277.45
467.78	276.48
468.15	275.56
468.52	274.88
468.88	274.00
469.25	273.25
469.62	272.59
469.98	271.88
470.35	271.23
470.72	270.59
471.08	269.88
471.45	269.36
471.82	268.80
472.18	268.15
472.55	267.72
472.92	267.22
473.28	266.72
473.65	266.28
474.02	265.82
474.38	265.40
474.75	265.06
475.11	264.67
475.48	264.44
475.85	264.17
476.21	263.92
476.58	263.73
476.94	263.52
477.31	263.37
477.67	263.18
478.04	263.03
478.41	262.97
478.77	262.97
479.14	262.84
479.50	262.80
479.87	262.86
480.23	262.90
480.60	262.93
480.96	263.02
481.33	263.21
481.69	263.39
482.06	263.61
482.42	263.77
482.79	264.05
483.15	264.31
483.52	264.70
483.88	265.04
484.25	265.38
484.61	265.83
484.98	266.30
485.34	266.87
485.71	267.47
486.07	268.05
486.44	268.68
486.80	269.41
487.17	270.14
487.53	270.98
487.90	271.80
488.26	272.73
488.62	273.68
488.99	274.64
489.35	275.69
489.72	276.80
490.08	278.01
490.44	279.23
490.81	280.58
491.17	281.89
491.54	283.37
491.90	284.94
492.26	286.60
492.63	288.30
492.99	290.05
493.36	291.95
493.72	294.02
494.08	296.11
494.45	298.34
494.81	300.73
495.17	303.17
495.54	305.74
495.90	308.42
496.26	311.26
496.63	314.23
496.99	317.34
497.35	320.65
497.72	324.06
498.08	327.59
498.44	331.28
498.80	335.24
499.17	339.23
499.53	343.41
499.89	347.76
500.26	352.24
500.62	356.93
500.98	361.94
501.34	366.96
501.71	372.29
502.07	377.70
502.43	383.27
502.79	389.07
503.16	395.19
503.52	401.52
503.88	407.85
504.24	414.48
504.60	421.35
504.97	428.46
505.33	435.74
505.69	443.44
506.05	451.16
506.41	459.05
506.78	467.22
507.14	475.67
507.50	484.46
507.86	493.53
508.22	502.76
508.59	511.97
508.95	521.57
509.31	531.33
509.67	541.52
510.03	551.85
510.39	562.49
510.75	573.37
511.12	584.30
511.48	595.76
511.84	607.25
512.20	618.80
512.56	630.77
512.92	642.93
513.28	655.28
513.64	667.76
514.00	680.44
514.37	693.43
514.73	706.50
515.09	719.46
515.45	732.78
515.81	746.34
516.17	760.29
516.53	774.46
516.89	788.67
517.25	802.84
517.61	817.29
517.97	831.69
518.33	846.08
518.69	860.83
519.05	875.79
519.41	891.02
519.77	906.61
520.13	922.04
520.49	937.44
520.85	952.99
521.21	968.76
521.57	984.99
521.93	1000.82
522.29	1017.31
522.65	1033.65
523.01	1049.95
523.37	1065.92
523.73	1082.15
524.09	1098.26
524.45	1114.69
524.81	1131.34
525.17	1148.23
525.53	1165.20
525.89	1182.06
526.25	1198.87
526.61	1215.24
526.97	1231.92
527.33	1248.38
527.68	1265.07
528.04	1281.62
528.40	1298.19
528.76	1315.30
529.12	1332.01
529.48	1348.90
529.84	1364.94
530.20	1381.59
530.56	1398.70
530.91	1416.32
531.27	1433.08
531.63	1449.55
531.99	1466.13
532.35	1482.24
532.71	1498.21
533.07	1514.50
533.42	1530.41
533.78	1546.62
534.14	1562.91
534.50	1578.30
534.86	1594.26
535.21	1609.40
535.57	1625.52
535.93	1641.13
536.29	1656.10
536.65	1671.25
537.00	1686.22
537.36	1701.51
537.72	1716.03
538.08	1730.44
538.44	1744.28
538.79	1758.37
539.15	1772.34
539.51	1786.25
539.87	1800.69
540.22	1814.43
540.58	1828.21
540.94	1841.75
541.29	1854.68
541.65	1867.59
542.01	1880.92
542.37	1893.22
542.72	1905.87
543.08	1917.56
543.44	1929.84
543.79	1940.98
544.15	1952.03
544.51	1963.56
544.87	1974.79
545.22	1985.69
545.58	1995.95
545.94	2005.74
546.29	2015.61
546.65	2025.27
547.01	2034.50
547.36	2043.24
547.72	2051.91
548.07	2059.85
548.43	2068.07
548.79	2076.25
549.14	2083.68
549.50	2091.18
549.86	2098.92
550.21	2106.23
550.57	2113.49
550.92	2120.29
551.28	2127.45
551.64	2134.59
551.99	2141.17
552.35	2147.19
552.70	2153.36
553.06	2159.28
553.41	2165.68
553.77	2171.65
554.13	2177.86
554.48	2184.00
554.84	2189.28
555.19	2194.56
555.55	2199.75
555.90	2204.26
556.26	2209.05
556.61	2213.80
556.97	2217.86
557.32	2222.03
557.68	2226.27
558.03	2230.67
558.39	2234.31
558.74	2238.97
559.10	2242.75
559.45	2246.30
559.81	2250.62
560.16	2254.45
560.52	2257.61
560.87	2260.99
561.23	2263.81
561.58	2266.72
561.94	2269.30
562.29	2271.72
562.64	2274.29
563.00	2276.85
563.35	2280.24
563.71	2283.48
564.06	2286.76
564.42	2289.66
564.77	2292.14
565.12	2294.13
565.48	2295.91
565.83	2297.71
566.19	2298.93
566.54	2299.91
566.89	2300.98
567.25	2301.37
567.60	2302.76
567.96	2304.45
568.31	2305.28
568.66	2306.20
569.02	2306.66
569.37	2306.86
569.72	2307.66
570.08	2307.66
570.43	2307.59
570.78	2306.77
571.14	2305.06
571.49	2303.55
571.84	2303.15
572.20	2301.83
572.55	2300.75
572.90	2299.02
573.26	2297.51
573.61	2295.73
573.96	2293.73
574.31	2290.63
574.67	2287.61
575.02	2283.78
575.37	2280.27
575.72	2276.34
576.08	2273.08
576.43	2269.86
576.78	2266.07
577.13	2262.81
577.49	2259.73
577.84	2256.22
578.19	2252.50
578.54	2248.63
578.90	2244.41
579.25	2238.79
579.60	2233.79
579.95	2228.76
580.30	2223.77
580.66	2218.66
581.01	2213.71
581.36	2208.82
581.71	2204.69
582.06	2200.20
582.42	2195.62
582.77	2190.38
583.12	2185.77
583.47	2180.65
583.82	2175.32
584.17	2170.01
584.53	2164.44
584.88	2158.63
585.23	2152.77
585.58	2147.26
585.93	2141.86
586.28	2137.01
586.63	2131.77
586.98	2126.64
587.34	2121.94
587.69	2117.07
588.04	2111.59
588.39	2105.71
588.74	2099.20
589.09	2092.83
589.44	2085.81
589.79	2079.84
590.14	2074.19
590.49	2067.50
590.84	2061.17
591.19	2055.13
591.54	2048.69
591.89	2041.12
592.25	2034.18
592.60	2026.89
592.95	2019.14
593.30	2011.68
593.65	2003.95
594.00	1997.03
594.35	1989.66
594.70	1981.54
595.05	1973.97
595.40	1966.63
595.75	1959.18
596.10	1952.74
596.45	1945.89
596.80	1939.88
597.15	1933.13
597.50	1925.80
597.85	1919.41
598.19	1912.68
598.54	1905.53
598.89	1898.76
599.24	1892.88
599.59	1886.21
599.94	1879.95
600.29	1873.66
600.64	1867.11
600.99	1859.59
601.34	1852.63
601.69	1845.84
602.04	1838.83
602.39	1831.51
602.74	1824.77
603.08	1817.93
603.43	1811.21
603.78	1804.07
604.13	1796.77
604.48	1789.35
604.83	1782.56
605.18	1775.49
605.53	1767.48
605.87	1759.52
606.22	1752.25
606.57	1744.31
606.92	1737.04
607.27	1729.91
607.62	1722.93
607.96	1715.59
608.31	1708.98
608.66	1701.33
609.01	1693.70
609.36	1686.04
609.70	1678.13
610.05	1669.84
610.40	1662.09
610.75	1653.83
611.10	1646.11
611.44	1637.76
611.79	1629.79
612.14	1621.11
612.49	1612.01
612.83	1603.63
613.18	1595.39
613.53	1587.36
613.88	1578.92
614.22	1570.56
614.57	1561.96
614.92	1553.96
615.27	1546.40
615.61	1538.11
615.96	1530.16
616.31	1522.47
616.65	1515.16
617.00	1507.60
617.35	1500.14
617.70	1491.68
618.04	1482.99
618.39	1474.77
618.74	1467.14
619.08	1458.94
619.43	1451.41
619.78	1444.38
620.12	1437.23
620.47	1429.79
620.82	1421.70
621.16	1414.33
621.51	1406.76
621.85	1399.11
622.20	1390.45
622.55	1382.13
622.89	1374.27
623.24	1366.71
623.59	1359.42
623.93	1351.87
624.28	1344.56
624.62	1336.89
624.97	1329.80
625.32	1323.17
625.66	1316.14
626.01	1308.84
626.35	1301.33
626.70	1293.59
627.04	1285.84
627.39	1278.04
627.73	1270.63
628.08	1263.54
628.43	1256.14
628.77	1248.67
629.12	1241.05
629.46	1233.91
629.81	1226.49
630.15	1219.24
630.50	1211.80
630.84	1203.56
631.19	1195.73
631.53	1188.29
631.88	1180.79
632.22	1173.31
632.57	1165.96
632.91	1158.43
633.26	1151.10
633.60	1143.83
633.95	1136.76
634.29	1129.91
634.64	1123.24
634.98	1115.90
635.32	1108.79
635.67	1102.29
636.01	1095.70
636.36	1088.99
636.70	1082.60
637.05	1075.97
637.39	1069.52
637.73	1062.98
638.08	1057.16
638.42	1051.18
638.77	1044.70
639.11	1038.07
639.45	1031.73
639.80	1025.18
640.14	1018.77
640.49	1012.23
640.83	1005.81
641.17	999.53
641.52	993.13
641.86	986.78
642.20	980.92
642.55	974.65
642.89	968.03
643.23	961.52
643.58	955.73
643.92	949.51
644.26	943.46
644.61	937.43
644.95	931.48
645.29	924.73
645.64	917.97
645.98	911.73
646.32	905.98
646.66	899.84
647.01	893.96
647.35	888.31
647.69	882.54
648.04	877.08
648.38	871.26
648.72	865.28
649.06	859.15
649.41	853.27
649.75	847.27
650.09	841.40
650.43	835.65
650.78	829.50
651.12	823.57
651.46	817.88
651.80	812.03
652.14	806.53
652.49	801.28
652.83	796.07
653.17	790.26
653.51	784.46
653.85	779.03
654.20	773.40
654.54	767.36
654.88	761.60
655.22	755.68
655.56	749.98
655.90	744.46
656.25	739.18
656.59	733.86
656.93	728.71
657.27	723.53
657.61	718.10
657.95	713.04
658.29	707.94
658.64	702.64
658.98	697.47
659.32	691.95
659.66	686.69
660.00	681.39
660.34	676.49
660.68	671.63
661.02	666.67
661.36	661.99
661.70	657.47
662.05	653.17
662.39	648.88
662.73	644.50
663.07	640.16
663.41	635.82
663.75	631.29
664.09	626.82
664.43	622.44
664.77	618.29
665.11	613.98
665.45	609.83
665.79	605.81
666.13	601.66
666.47	597.69
666.81	593.57
667.15	589.45
667.49	585.57
667.83	581.86
668.17	577.94
668.51	573.86
668.85	569.85
669.19	565.96
669.53	562.07
669.87	558.12
670.21	554.41
670.55	550.72
670.89	547.31
671.23	543.88
671.57	540.39
671.91	536.86
672.25	533.43
672.58	529.95
672.92	526.60
673.26	523.46
673.60	520.29
673.94	517.16
674.28	514.34
674.62	511.43
674.96	508.27
675.30	505.33
675.64	502.47
675.97	499.77
676.31	496.94
676.65	494.04
676.99	491.37
677.33	488.51
677.67	485.70
678.01	482.62
678.34	479.63
678.68	476.76
679.02	473.98
679.36	471.21
679.70	468.51
680.04	465.74
680.37	462.82
680.71	460.09
681.05	457.57
681.39	454.81
681.73	452.18
682.06	449.64
682.40	447.16
682.74	444.59
683.08	442.02
683.42	439.40
683.75	436.97
684.09	434.48
684.43	432.01
684.77	429.53
685.10	427.31
685.44	424.99
685.78	422.68
686.12	420.43
686.45	418.13
686.79	415.82
687.13	413.65
687.46	411.53
687.80	409.39
688.14	407.13
688.48	405.06
688.81	402.82
689.15	400.66
689.49	398.50
689.82	396.42
690.16	394.33
690.50	392.40
690.83	390.44
691.17	388.41
691.51	386.51
691.84	384.69
692.18	382.67
692.52	380.69
692.85	378.81
693.19	376.96
693.52	375.17
693.86	373.38
694.20	371.60
694.53	369.80
694.87	367.95
695.21	366.18
695.54	364.36
695.88	362.64
696.21	360.93
696.55	359.24
696.88	357.57
697.22	355.89
697.56	354.27
697.89	352.60
698.23	350.99
698.56	349.36
698.90	347.79
699.23	346.14
699.57	344.60
699.90	343.07
700.24	341.51
700.58	339.97
700.91	338.46
701.25	337.02
701.58	335.67
701.92	334.32
702.25	332.93
702.59	331.56
702.92	330.23
703.26	328.91
703.59	327.64
703.93	326.49
704.26	325.25
704.60	323.92
704.93	322.66
705.26	321.42
705.60	320.31
705.93	319.14
706.27	318.14
706.60	317.10
706.94	316.00
707.27	314.88
707.61	313.82
707.94	312.82
708.27	311.75
708.61	310.67
708.94	309.65
709.28	308.68
709.61	307.75
709.94	306.81
710.28	305.81
710.61	304.83
710.95	303.78
711.28	302.89
711.61	302.00
711.95	301.09
712.28	300.20
712.61	299.23
712.95	298.33
713.28	297.46
713.61	296.56
713.95	295.65
714.28	294.80
714.61	293.95
714.95	293.08
715.28	292.24
715.61	291.39
715.95	290.55
716.28	289.68
716.61	288.87
716.95	288.11
717.28	287.38
717.61	286.61
717.94	285.89
718.28	285.08
718.61	284.35
718.94	283.68
719.27	283.01
719.61	282.38
719.94	281.72
720.27	281.02
720.60	280.40
720.94	279.80
721.27	279.23
721.60	278.63
721.93	278.05
722.27	277.50
722.60	276.95
722.93	276.40
723.26	275.88
723.59	275.33
723.93	274.73
724.26	274.19
724.59	273.63
724.92	273.10
725.25	272.64
725.59	272.14
725.92	271.62
726.25	271.10
726.58	270.61
726.91	270.10
727.24	269.61
727.57	269.11
727.91	268.61
728.24	268.12
728.57	267.62
728.90	267.17
729.23	266.66
729.56	266.21
729.89	265.68
730.22	265.18
730.55	264.68
730.89	264.23
731.22	263.76
731.55	263.34
731.88	262.91
732.21	262.48
732.54	262.03
732.87	261.58
733.20	261.18
733.53	260.77
733.86	260.39
734.19	259.98
734.52	259.58
734.85	259.29
735.18	258.86
735.51	258.52
735.84	258.10
736.17	257.73
736.50	257.33
736.83	257.12
737.16	256.78
737.49	256.43
737.82	256.10
738.15	255.75
738.48	255.45
738.81	255.08
739.14	254.68
739.47	254.35
739.80	254.03
740.13	253.74
740.46	253.37
740.79	253.02
741.12	252.71
741.45	252.38
741.78	252.03
742.11	251.78
742.44	251.43
742.77	251.19
743.10	250.88
743.43	250.59
743.75	250.20
744.08	250.05
744.41	249.82
744.74	249.50
745.07	249.24
745.40	248.98
745.73	248.75
746.06	248.53
746.39	248.27
746.71	248.01
747.04	247.70
747.37	247.47
747.70	247.28
748.03	247.06
748.36	246.87
748.68	246.63
749.01	246.36
749.34	246.15
749.67	245.87
750.00	245.67
750.33	245.52
750.65	245.33
750.98	245.01
751.31	244.77
751.64	244.61
751.97	244.47
752.29	244.27
752.62	244.03
752.95	243.85
753.28	243.65
753.60	243.47
753.93	243.34
754.26	243.16
754.59	242.93
754.91	242.74
755.24	242.53
755.57	242.34
755.90	242.19
756.22	242.02
756.55	241.88
756.88	241.68
757.20	241.47
757.53	241.26
757.86	241.10
758.19	240.94
758.51	240.77
758.84	240.55
759.17	240.35
759.49	240.24
759.82	240.12
760.15	240.01
760.47	239.87
760.80	239.67
761.13	239.53
761.45	239.38
761.78	239.24
762.11	239.12
762.43	238.99
762.76	238.83
763.08	238.70
763.41	238.55
763.74	238.42
764.06	238.27
764.39	238.12
764.71	237.97
765.04	237.83
765.37	237.70
765.69	237.56
766.02	237.40
766.34	237.21
766.67	237.04
767.00	236.90
767.32	236.84
767.65	236.79
767.97	236.65
768.30	236.53
768.62	236.41
768.95	236.25
769.27	236.09
769.60	235.97
769.92	235.84
770.25	235.68
770.57	235.56
770.90	235.45
771.22	235.31
771.55	235.21
771.87	235.10
772.20	234.98
772.52	234.94
772.85	234.98
773.17	234.88
773.50	234.77
773.82	234.63
774.15	234.49
774.47	234.35
774.80	234.27
775.12	234.15
775.45	234.05
775.77	233.99
776.09	233.95
776.42	233.87
776.74	233.81
777.07	233.74
777.39	233.64
777.72	233.55
778.04	233.54
778.36	233.48
778.69	233.42
779.01	233.36
779.33	233.20
779.66	233.03
779.98	232.96
780.31	232.91
780.63	232.85
780.95	232.80
781.28	232.72
781.60	232.64
781.92	232.61
782.25	232.54
782.57	232.47
782.89	232.38
783.22	232.32
783.54	232.24
783.86	232.19
784.19	232.11
784.51	232.10
784.83	232.03
785.16	231.95
785.48	231.90
785.80	231.86
786.12	231.83
786.45	231.76
786.77	231.73
787.09	231.66
