SpectraSuite Data File
++++++++++++++++++++++++++++++++++++
Date: Fri Feb 01 16:17:28 EST 2013
User: group
Dark Spectrum Present: No
Reference Spectrum Present: No
Number of Sampled Component Spectra: 1
Spectrometers: USB2E7196
Integration Time (usec): 35000 (USB2E7196)
Spectra Averaged: 100 (USB2E7196)
Boxcar Smoothing: 10 (USB2E7196)
Correct for Electrical Dark: No (USB2E7196)
Strobe/Lamp Enabled: No (USB2E7196)
Correct for Detector Non-linearity: No (USB2E7196)
Correct for Stray Light: No (USB2E7196)
Number of Pixels in Processed Spectrum: 2048
>>>>>Begin Processed Spectral Data<<<<<
339.09	0.00
339.48	214.85
339.86	215.91
340.24	217.17
340.63	217.99
341.01	221.60
341.39	220.74
341.78	222.05
342.16	223.79
342.54	224.16
342.93	212.55
343.31	223.27
343.69	223.77
344.07	224.22
344.46	224.63
344.84	225.02
345.22	225.23
345.60	225.50
345.99	225.68
346.37	225.81
346.75	225.87
347.13	225.93
347.52	225.99
347.90	226.04
348.28	226.09
348.66	226.12
349.05	226.10
349.43	226.11
349.81	226.14
350.19	226.17
350.57	226.19
350.96	226.26
351.34	226.34
351.72	226.40
352.10	226.49
352.48	226.51
352.87	226.57
353.25	226.62
353.63	226.66
354.01	226.73
354.39	226.76
354.77	226.87
355.15	226.95
355.54	227.02
355.92	227.06
356.30	227.12
356.68	227.27
357.06	227.34
357.44	227.42
357.82	227.50
358.20	227.57
358.58	227.65
358.97	227.69
359.35	227.78
359.73	227.86
360.11	227.90
360.49	227.99
360.87	228.02
361.25	228.08
361.63	228.15
362.01	228.20
362.39	228.22
362.77	228.27
363.15	228.28
363.53	228.29
363.91	228.29
364.29	228.31
364.67	228.19
365.05	228.20
365.43	228.18
365.81	228.19
366.19	228.22
366.57	228.26
366.95	228.29
367.33	228.26
367.71	228.26
368.09	228.25
368.47	228.22
368.85	228.19
369.23	228.19
369.61	228.14
369.99	228.12
370.37	228.11
370.75	228.11
371.13	228.08
371.51	227.99
371.89	227.97
372.27	227.97
372.65	227.93
373.03	227.90
373.41	227.85
373.78	227.82
374.16	227.70
374.54	227.62
374.92	227.52
375.30	227.47
375.68	227.39
376.06	227.34
376.44	227.31
376.82	227.28
377.19	227.20
377.57	227.14
377.95	227.08
378.33	227.00
378.71	226.86
379.09	226.84
379.47	226.80
379.84	226.75
380.22	226.65
380.60	226.59
380.98	226.49
381.36	226.44
381.73	226.35
382.11	226.31
382.49	226.27
382.87	226.21
383.25	226.17
383.62	226.20
384.00	226.11
384.38	226.06
384.76	226.05
385.13	226.06
385.51	225.98
385.89	225.92
386.27	225.88
386.64	225.85
387.02	225.79
387.40	225.77
387.78	225.72
388.15	225.73
388.53	225.75
388.91	225.74
389.29	225.71
389.66	225.72
390.04	225.69
390.42	225.70
390.79	225.69
391.17	225.66
391.55	225.56
391.92	225.55
392.30	225.56
392.68	225.51
393.05	225.51
393.43	225.55
393.81	225.56
394.18	225.57
394.56	225.60
394.94	225.65
395.31	225.65
395.69	225.71
396.06	225.73
396.44	225.74
396.82	225.78
397.19	225.85
397.57	225.87
397.95	225.94
398.32	225.93
398.70	226.01
399.07	226.10
399.45	226.16
399.82	226.25
400.20	226.31
400.58	226.36
400.95	226.42
401.33	226.50
401.70	226.64
402.08	226.74
402.45	226.82
402.83	226.93
403.20	227.06
403.58	227.18
403.95	227.31
404.33	227.42
404.71	227.54
405.08	227.73
405.46	227.88
405.83	228.05
406.21	228.18
406.58	228.33
406.96	228.50
407.33	228.69
407.70	228.87
408.08	229.12
408.45	229.37
408.83	229.57
409.20	229.77
409.58	229.94
409.95	230.19
410.33	230.47
410.70	230.72
411.08	231.01
411.45	231.28
411.82	231.61
412.20	231.97
412.57	232.38
412.95	232.64
413.32	233.02
413.69	233.42
414.07	233.89
414.44	234.36
414.82	234.80
415.19	235.35
415.56	235.90
415.94	236.47
416.31	237.10
416.68	237.69
417.06	238.44
417.43	239.18
417.81	239.93
418.18	240.70
418.55	241.51
418.93	242.38
419.30	243.27
419.67	244.16
420.04	245.09
420.42	246.09
420.79	247.30
421.16	248.45
421.54	249.61
421.91	250.78
422.28	251.99
422.66	253.30
423.03	254.58
423.40	255.92
423.77	257.31
424.15	258.73
424.52	260.22
424.89	261.81
425.26	263.32
425.64	264.76
426.01	266.34
426.38	267.97
426.75	269.61
427.13	271.33
427.50	273.15
427.87	275.04
428.24	276.85
428.61	278.56
428.99	280.51
429.36	282.61
429.73	284.71
430.10	286.78
430.47	288.89
430.85	291.05
431.22	293.29
431.59	295.66
431.96	297.92
432.33	300.42
432.70	302.77
433.08	305.59
433.45	308.27
433.82	310.84
434.19	313.72
434.56	316.54
434.93	319.18
435.30	321.80
435.68	324.68
436.05	327.53
436.42	330.35
436.79	332.84
437.16	335.58
437.53	338.38
437.90	341.13
438.27	343.87
438.64	346.60
439.01	349.23
439.38	351.43
439.75	353.56
440.13	356.08
440.50	358.43
440.87	360.27
441.24	362.17
441.61	364.37
441.98	365.88
442.35	367.68
442.72	369.50
443.09	371.30
443.46	372.29
443.83	372.87
444.20	373.37
444.57	374.18
444.94	374.41
445.31	374.73
445.68	375.11
446.05	375.15
446.42	374.75
446.79	374.25
447.16	373.81
447.53	373.44
447.90	372.23
448.27	371.06
448.64	369.43
449.01	368.32
449.37	366.37
449.74	364.50
450.11	362.24
450.48	359.78
450.85	357.25
451.22	355.11
451.59	353.11
451.96	351.17
452.33	348.59
452.70	346.26
453.07	343.44
453.43	340.52
453.80	337.80
454.17	335.22
454.54	332.69
454.91	329.97
455.28	327.35
455.65	324.90
456.02	322.48
456.38	320.35
456.75	317.68
457.12	315.43
457.49	313.21
457.86	311.06
458.23	309.23
458.59	307.19
458.96	305.11
459.33	303.25
459.70	301.40
460.07	299.91
460.43	298.18
460.80	296.58
461.17	295.19
461.54	293.70
461.91	292.21
462.27	290.81
462.64	289.58
463.01	288.25
463.38	286.92
463.74	285.54
464.11	284.40
464.48	283.37
464.85	282.23
465.21	281.37
465.58	280.43
465.95	279.31
466.32	278.44
466.68	277.51
467.05	276.62
467.42	275.74
467.78	274.81
468.15	273.97
468.52	273.29
468.88	272.40
469.25	271.58
469.62	270.98
469.98	270.27
470.35	269.64
470.72	269.04
471.08	268.40
471.45	267.87
471.82	267.29
472.18	266.67
472.55	266.24
472.92	265.72
473.28	265.28
473.65	264.87
474.02	264.40
474.38	264.07
474.75	263.73
475.11	263.34
475.48	263.10
475.85	262.84
476.21	262.64
476.58	262.50
476.94	262.40
477.31	262.25
477.67	262.13
478.04	262.02
478.41	261.99
478.77	262.04
479.14	261.96
479.50	262.01
479.87	262.11
480.23	262.20
480.60	262.28
480.96	262.41
481.33	262.62
481.69	262.83
482.06	263.01
482.42	263.25
482.79	263.57
483.15	263.84
483.52	264.24
483.88	264.59
484.25	264.95
484.61	265.39
484.98	265.84
485.34	266.40
485.71	266.98
486.07	267.58
486.44	268.18
486.80	268.92
487.17	269.66
487.53	270.46
487.90	271.33
488.26	272.28
488.62	273.24
488.99	274.23
489.35	275.28
489.72	276.47
490.08	277.66
490.44	278.93
490.81	280.28
491.17	281.62
491.54	283.12
491.90	284.69
492.26	286.35
492.63	288.06
492.99	289.89
493.36	291.82
493.72	293.87
494.08	296.00
494.45	298.27
494.81	300.67
495.17	303.13
495.54	305.73
495.90	308.40
496.26	311.23
496.63	314.21
496.99	317.29
497.35	320.57
497.72	323.98
498.08	327.45
498.44	331.17
498.80	335.13
499.17	339.16
499.53	343.32
499.89	347.66
500.26	352.19
500.62	356.84
500.98	361.77
501.34	366.84
501.71	372.16
502.07	377.56
502.43	383.15
502.79	388.98
503.16	395.03
503.52	401.33
503.88	407.75
504.24	414.36
504.60	421.27
504.97	428.37
505.33	435.71
505.69	443.46
506.05	451.22
506.41	459.10
506.78	467.27
507.14	475.73
507.50	484.50
507.86	493.49
508.22	502.70
508.59	511.91
508.95	521.47
509.31	531.27
509.67	541.43
510.03	551.72
510.39	562.24
510.75	573.02
511.12	583.94
511.48	595.15
511.84	606.56
512.20	618.06
512.56	629.96
512.92	642.18
513.28	654.49
513.64	666.97
514.00	679.70
514.37	692.63
514.73	705.77
515.09	718.77
515.45	732.09
515.81	745.68
516.17	759.68
516.53	773.84
516.89	787.97
517.25	802.12
517.61	816.47
517.97	831.04
518.33	845.48
518.69	860.23
519.05	875.24
519.41	890.46
519.77	906.01
520.13	921.48
520.49	936.84
520.85	952.30
521.21	968.00
521.57	984.24
521.93	999.91
522.29	1016.13
522.65	1032.47
523.01	1048.68
523.37	1064.60
523.73	1080.74
524.09	1096.74
524.45	1113.03
524.81	1129.66
525.17	1146.49
525.53	1163.37
525.89	1180.02
526.25	1196.80
526.61	1213.23
526.97	1229.93
527.33	1246.34
527.68	1262.91
528.04	1279.22
528.40	1295.74
528.76	1312.80
529.12	1329.28
529.48	1346.11
529.84	1362.19
530.20	1378.64
530.56	1395.61
530.91	1413.16
531.27	1429.85
531.63	1446.34
531.99	1462.91
532.35	1478.71
532.71	1494.58
533.07	1510.67
533.42	1526.64
533.78	1542.70
534.14	1558.84
534.50	1574.20
534.86	1589.99
535.21	1605.21
535.57	1621.15
535.93	1636.53
536.29	1651.21
536.65	1666.25
537.00	1681.00
537.36	1696.21
537.72	1710.70
538.08	1725.03
538.44	1738.68
538.79	1752.48
539.15	1765.91
539.51	1779.62
539.87	1793.97
540.22	1807.54
540.58	1821.25
540.94	1834.60
541.29	1847.38
541.65	1860.04
542.01	1873.08
542.37	1885.40
542.72	1897.67
543.08	1909.46
543.44	1921.93
543.79	1933.07
544.15	1944.01
544.51	1955.62
544.87	1966.54
545.22	1977.30
545.58	1987.43
545.94	1997.14
546.29	2007.00
546.65	2016.96
547.01	2026.11
547.36	2034.81
547.72	2043.33
548.07	2051.16
548.43	2059.18
548.79	2067.16
549.14	2074.66
549.50	2082.02
549.86	2089.62
550.21	2096.79
550.57	2103.87
550.92	2110.19
551.28	2117.12
551.64	2124.02
551.99	2130.32
552.35	2136.43
552.70	2142.49
553.06	2148.37
553.41	2154.75
553.77	2160.73
554.13	2166.79
554.48	2173.01
554.84	2178.49
555.19	2183.75
555.55	2188.86
555.90	2193.44
556.26	2198.27
556.61	2202.98
556.97	2207.42
557.32	2211.61
557.68	2215.64
558.03	2219.90
558.39	2223.73
558.74	2228.53
559.10	2232.42
559.45	2236.30
559.81	2240.54
560.16	2244.37
560.52	2247.71
560.87	2251.13
561.23	2253.88
561.58	2256.84
561.94	2259.30
562.29	2261.64
562.64	2264.31
563.00	2266.87
563.35	2270.32
563.71	2273.53
564.06	2276.74
564.42	2279.54
564.77	2282.03
565.12	2284.57
565.48	2286.55
565.83	2288.41
566.19	2289.76
566.54	2290.83
566.89	2291.86
567.25	2292.58
567.60	2293.96
567.96	2295.80
568.31	2296.54
568.66	2297.65
569.02	2298.19
569.37	2298.55
569.72	2299.43
570.08	2299.65
570.43	2299.65
570.78	2299.11
571.14	2297.69
571.49	2296.36
571.84	2295.95
572.20	2294.85
572.55	2293.81
572.90	2292.22
573.26	2290.93
573.61	2289.19
573.96	2287.46
574.31	2284.67
574.67	2281.67
575.02	2278.08
575.37	2274.58
575.72	2270.87
576.08	2267.52
576.43	2264.31
576.78	2260.58
577.13	2257.54
577.49	2254.41
577.84	2251.02
578.19	2247.43
578.54	2243.76
578.90	2239.57
579.25	2233.99
579.60	2229.07
579.95	2224.15
580.30	2219.23
580.66	2214.12
581.01	2209.16
581.36	2204.38
581.71	2200.19
582.06	2195.82
582.42	2191.49
582.77	2186.31
583.12	2181.90
583.47	2177.32
583.82	2172.37
584.17	2167.14
584.53	2161.59
584.88	2156.01
585.23	2150.35
585.58	2144.85
585.93	2139.40
586.28	2134.61
586.63	2129.67
586.98	2124.59
587.34	2119.92
587.69	2115.13
588.04	2109.95
588.39	2104.38
588.74	2097.75
589.09	2091.53
589.44	2084.86
589.79	2078.67
590.14	2073.20
590.49	2066.55
590.84	2060.01
591.19	2053.97
591.54	2047.60
591.89	2040.38
592.25	2033.62
592.60	2026.41
592.95	2018.93
593.30	2011.68
593.65	2004.18
594.00	1997.30
594.35	1990.19
594.70	1982.16
595.05	1974.95
595.40	1967.60
595.75	1960.13
596.10	1954.14
596.45	1947.58
596.80	1941.45
597.15	1934.94
597.50	1927.85
597.85	1921.42
598.19	1914.90
598.54	1907.82
598.89	1901.23
599.24	1895.26
599.59	1888.65
599.94	1882.50
600.29	1876.04
600.64	1869.46
600.99	1862.05
601.34	1855.09
601.69	1848.22
602.04	1841.40
602.39	1834.03
602.74	1827.23
603.08	1820.46
603.43	1813.53
603.78	1806.13
604.13	1798.81
604.48	1791.48
604.83	1784.42
605.18	1777.50
605.53	1769.53
605.87	1761.58
606.22	1754.32
606.57	1746.32
606.92	1739.02
607.27	1731.90
607.62	1725.06
607.96	1717.81
608.31	1711.25
608.66	1703.62
609.01	1695.90
609.36	1688.31
609.70	1680.32
610.05	1672.32
610.40	1664.60
610.75	1656.36
611.10	1648.71
611.44	1640.34
611.79	1632.41
612.14	1623.75
612.49	1614.56
612.83	1606.13
613.18	1597.92
613.53	1589.84
613.88	1581.33
614.22	1573.09
614.57	1564.39
614.92	1556.38
615.27	1548.79
615.61	1540.46
615.96	1532.53
616.31	1525.00
616.65	1517.60
617.00	1509.94
617.35	1502.25
617.70	1494.01
618.04	1485.49
618.39	1477.29
618.74	1469.67
619.08	1461.34
619.43	1453.83
619.78	1446.97
620.12	1439.72
620.47	1432.24
620.82	1424.03
621.16	1416.58
621.51	1408.90
621.85	1401.35
622.20	1392.84
622.55	1384.47
622.89	1376.58
623.24	1368.85
623.59	1361.48
623.93	1353.95
624.28	1346.82
624.62	1339.28
624.97	1332.11
625.32	1325.40
625.66	1318.41
626.01	1311.28
626.35	1303.91
626.70	1296.21
627.04	1288.43
627.39	1280.73
627.73	1273.35
628.08	1266.52
628.43	1259.19
628.77	1251.76
629.12	1244.08
629.46	1236.90
629.81	1229.49
630.15	1222.25
630.50	1214.85
630.84	1206.58
631.19	1198.68
631.53	1191.18
631.88	1183.61
632.22	1176.00
632.57	1168.59
632.91	1160.96
633.26	1153.45
633.60	1146.03
633.95	1138.86
634.29	1131.82
634.64	1125.14
634.98	1117.75
635.32	1110.56
635.67	1104.08
636.01	1097.50
636.36	1090.71
636.70	1084.17
637.05	1077.52
637.39	1071.07
637.73	1064.60
638.08	1058.76
638.42	1052.70
638.77	1046.16
639.11	1039.54
639.45	1033.07
639.80	1026.45
640.14	1020.04
640.49	1013.55
640.83	1007.27
641.17	1001.01
641.52	994.67
641.86	988.22
642.20	982.34
642.55	975.91
642.89	969.35
643.23	962.79
643.58	957.06
643.92	950.89
644.26	944.90
644.61	938.83
644.95	932.75
645.29	926.09
645.64	919.35
645.98	913.03
646.32	907.23
646.66	901.17
647.01	895.38
647.35	889.64
647.69	883.73
648.04	878.17
648.38	872.42
648.72	866.44
649.06	860.44
649.41	854.58
649.75	848.71
650.09	842.88
650.43	837.08
650.78	830.91
651.12	824.94
651.46	819.14
651.80	813.38
652.14	808.02
652.49	802.64
652.83	797.46
653.17	791.70
653.51	785.93
653.85	780.56
654.20	774.91
654.54	768.86
654.88	763.09
655.22	757.19
655.56	751.49
655.90	746.00
656.25	740.67
656.59	735.27
656.93	730.23
657.27	724.96
657.61	719.50
657.95	714.40
658.29	709.27
658.64	704.10
658.98	698.78
659.32	693.32
659.66	688.13
660.00	682.83
660.34	677.93
660.68	673.05
661.02	668.06
661.36	663.28
661.70	658.82
662.05	654.45
662.39	650.14
662.73	645.66
663.07	641.29
663.41	636.79
663.75	632.29
664.09	627.71
664.43	623.31
664.77	619.18
665.11	614.89
665.45	610.75
665.79	606.60
666.13	602.52
666.47	598.35
666.81	594.19
667.15	590.07
667.49	586.08
667.83	582.23
668.17	578.26
668.51	574.23
668.85	570.23
669.19	566.39
669.53	562.52
669.87	558.66
670.21	554.97
670.55	551.39
670.89	547.95
671.23	544.50
671.57	540.99
671.91	537.47
672.25	533.98
672.58	530.46
672.92	527.03
673.26	523.80
673.60	520.65
673.94	517.48
674.28	514.56
674.62	511.67
674.96	508.57
675.30	505.68
675.64	502.73
675.97	499.94
676.31	497.11
676.65	494.13
676.99	491.40
677.33	488.52
677.67	485.68
678.01	482.60
678.34	479.59
678.68	476.70
679.02	473.89
679.36	471.13
679.70	468.46
680.04	465.74
680.37	462.87
680.71	460.09
681.05	457.50
681.39	454.80
681.73	452.15
682.06	449.58
682.40	447.02
682.74	444.46
683.08	441.90
683.42	439.28
683.75	436.83
684.09	434.27
684.43	431.82
684.77	429.37
685.10	427.05
685.44	424.76
685.78	422.48
686.12	420.24
686.45	417.86
686.79	415.52
687.13	413.28
687.46	411.15
687.80	409.01
688.14	406.79
688.48	404.75
688.81	402.51
689.15	400.37
689.49	398.20
689.82	396.18
690.16	394.10
690.50	392.14
690.83	390.15
691.17	388.20
691.51	386.24
691.84	384.37
692.18	382.46
692.52	380.46
692.85	378.52
693.19	376.61
693.52	374.85
693.86	373.07
694.20	371.30
694.53	369.48
694.87	367.62
695.21	365.87
695.54	364.00
695.88	362.25
696.21	360.58
696.55	358.88
696.88	357.18
697.22	355.53
697.56	353.93
697.89	352.28
698.23	350.65
698.56	349.05
698.90	347.47
699.23	345.82
699.57	344.28
699.90	342.72
700.24	341.19
700.58	339.67
700.91	338.14
701.25	336.66
701.58	335.28
701.92	333.92
702.25	332.50
702.59	331.12
702.92	329.79
703.26	328.43
703.59	327.17
703.93	325.97
704.26	324.72
704.60	323.39
704.93	322.14
705.26	320.83
705.60	319.69
705.93	318.53
706.27	317.47
706.60	316.40
706.94	315.34
707.27	314.16
707.61	313.09
707.94	312.04
708.27	310.97
708.61	309.89
708.94	308.87
709.28	307.90
709.61	306.92
709.94	306.02
710.28	305.01
710.61	303.99
710.95	302.91
711.28	301.99
711.61	301.04
711.95	300.11
712.28	299.22
712.61	298.20
712.95	297.24
713.28	296.36
713.61	295.48
713.95	294.55
714.28	293.74
714.61	292.84
714.95	292.02
715.28	291.13
715.61	290.25
715.95	289.38
716.28	288.51
716.61	287.68
716.95	286.79
717.28	286.08
717.61	285.30
717.94	284.57
718.28	283.74
718.61	283.01
718.94	282.26
719.27	281.57
719.61	280.91
719.94	280.25
720.27	279.55
720.60	278.84
720.94	278.21
721.27	277.60
721.60	277.06
721.93	276.47
722.27	275.95
722.60	275.40
722.93	274.83
723.26	274.33
723.59	273.80
723.93	273.27
724.26	272.66
724.59	272.13
724.92	271.60
725.25	271.13
725.59	270.65
725.92	270.22
726.25	269.71
726.58	269.23
726.91	268.75
727.24	268.27
727.57	267.82
727.91	267.31
728.24	266.82
728.57	266.29
728.90	265.82
729.23	265.36
729.56	264.93
729.89	264.48
730.22	263.97
730.55	263.48
730.89	263.05
731.22	262.60
731.55	262.12
731.88	261.68
732.21	261.27
732.54	260.80
732.87	260.35
733.20	259.99
733.53	259.59
733.86	259.22
734.19	258.84
734.52	258.46
734.85	258.19
735.18	257.83
735.51	257.53
735.84	257.14
736.17	256.76
736.50	256.37
736.83	256.14
737.16	255.81
737.49	255.52
737.82	255.17
738.15	254.86
738.48	254.53
738.81	254.21
739.14	253.83
739.47	253.54
739.80	253.23
740.13	252.92
740.46	252.57
740.79	252.25
741.12	251.96
741.45	251.66
741.78	251.31
742.11	251.04
742.44	250.71
742.77	250.44
743.10	250.14
743.43	249.85
743.75	249.45
744.08	249.30
744.41	248.99
744.74	248.74
745.07	248.46
745.40	248.26
745.73	248.03
746.06	247.81
746.39	247.57
746.71	247.30
747.04	247.05
747.37	246.83
747.70	246.56
748.03	246.29
748.36	246.07
748.68	245.81
749.01	245.54
749.34	245.30
749.67	245.10
750.00	244.90
750.33	244.71
750.65	244.51
750.98	244.13
751.31	243.94
751.64	243.70
751.97	243.59
752.29	243.34
752.62	243.09
752.95	242.86
753.28	242.64
753.60	242.45
753.93	242.28
754.26	242.09
754.59	241.90
754.91	241.67
755.24	241.42
755.57	241.23
755.90	241.06
756.22	240.87
756.55	240.65
756.88	240.45
757.20	240.22
757.53	240.03
757.86	239.90
758.19	239.74
758.51	239.59
758.84	239.34
759.17	239.16
759.49	239.00
759.82	238.89
760.15	238.72
760.47	238.56
760.80	238.38
761.13	238.21
761.45	238.04
761.78	237.91
762.11	237.81
762.43	237.67
762.76	237.52
763.08	237.43
763.41	237.31
763.74	237.18
764.06	237.07
764.39	236.92
764.71	236.78
765.04	236.60
765.37	236.44
765.69	236.30
766.02	236.20
766.34	236.06
766.67	235.90
767.00	235.84
767.32	235.74
767.65	235.69
767.97	235.57
768.30	235.45
768.62	235.34
768.95	235.21
769.27	235.08
769.60	234.98
769.92	234.79
770.25	234.65
770.57	234.53
770.90	234.41
771.22	234.29
771.55	234.17
771.87	234.09
772.20	233.99
772.52	234.02
772.85	234.03
773.17	233.93
773.50	233.83
773.82	233.68
774.15	233.59
774.47	233.40
774.80	233.32
775.12	233.28
775.45	233.18
775.77	233.11
776.09	233.03
776.42	232.95
776.74	232.92
777.07	232.84
777.39	232.80
777.72	232.70
778.04	232.64
778.36	232.60
778.69	232.53
779.01	232.48
779.33	232.32
779.66	232.16
779.98	232.11
780.31	232.07
780.63	232.05
780.95	232.02
781.28	232.00
781.60	231.94
781.92	231.83
782.25	231.74
782.57	231.66
782.89	231.59
783.22	231.55
783.54	231.47
783.86	231.43
784.19	231.32
784.51	231.32
784.83	231.25
785.16	231.15
785.48	231.09
785.80	231.06
786.12	231.00
786.45	230.93
786.77	230.86
787.09	230.78
