SpectraSuite Data File
++++++++++++++++++++++++++++++++++++
Date: Fri Feb 01 16:02:22 EST 2013
User: group
Dark Spectrum Present: No
Reference Spectrum Present: No
Number of Sampled Component Spectra: 1
Spectrometers: USB2E7196
Integration Time (usec): 35000 (USB2E7196)
Spectra Averaged: 100 (USB2E7196)
Boxcar Smoothing: 10 (USB2E7196)
Correct for Electrical Dark: No (USB2E7196)
Strobe/Lamp Enabled: No (USB2E7196)
Correct for Detector Non-linearity: No (USB2E7196)
Correct for Stray Light: No (USB2E7196)
Number of Pixels in Processed Spectrum: 2048
>>>>>Begin Processed Spectral Data<<<<<
339.09	0.00
339.48	215.29
339.86	216.19
340.24	217.61
340.63	219.32
341.01	221.86
341.39	221.43
341.78	222.58
342.16	224.84
342.54	224.76
342.93	213.21
343.31	224.00
343.69	224.52
344.07	224.96
344.46	225.39
344.84	225.78
345.22	226.02
345.60	226.28
345.99	226.51
346.37	226.60
346.75	226.73
347.13	226.80
347.52	226.87
347.90	226.95
348.28	226.98
348.66	227.00
349.05	227.02
349.43	227.04
349.81	227.10
350.19	227.16
350.57	227.20
350.96	227.25
351.34	227.31
351.72	227.37
352.10	227.50
352.48	227.56
352.87	227.58
353.25	227.63
353.63	227.66
354.01	227.71
354.39	227.80
354.77	227.84
355.15	227.97
355.54	228.01
355.92	228.03
356.30	228.14
356.68	228.28
357.06	228.30
357.44	228.36
357.82	228.38
358.20	228.46
358.58	228.49
358.97	228.54
359.35	228.61
359.73	228.72
360.11	228.77
360.49	228.83
360.87	228.87
361.25	228.94
361.63	229.03
362.01	229.05
362.39	229.06
362.77	229.11
363.15	229.13
363.53	229.18
363.91	229.22
364.29	229.22
364.67	229.13
365.05	229.16
365.43	229.18
365.81	229.20
366.19	229.23
366.57	229.28
366.95	229.28
367.33	229.24
367.71	229.22
368.09	229.21
368.47	229.18
368.85	229.18
369.23	229.17
369.61	229.11
369.99	229.13
370.37	229.09
370.75	229.08
371.13	229.03
371.51	228.97
371.89	228.92
372.27	228.84
372.65	228.83
373.03	228.75
373.41	228.69
373.78	228.66
374.16	228.55
374.54	228.45
374.92	228.39
375.30	228.35
375.68	228.27
376.06	228.20
376.44	228.13
376.82	228.08
377.19	227.99
377.57	227.94
377.95	227.87
378.33	227.81
378.71	227.69
379.09	227.62
379.47	227.57
379.84	227.48
380.22	227.41
380.60	227.30
380.98	227.25
381.36	227.19
381.73	227.10
382.11	227.06
382.49	227.04
382.87	226.95
383.25	226.88
383.62	226.95
384.00	226.90
384.38	226.86
384.76	226.82
385.13	226.81
385.51	226.77
385.89	226.69
386.27	226.66
386.64	226.65
387.02	226.58
387.40	226.52
387.78	226.49
388.15	226.49
388.53	226.46
388.91	226.45
389.29	226.41
389.66	226.41
390.04	226.35
390.42	226.31
390.79	226.32
391.17	226.32
391.55	226.20
391.92	226.20
392.30	226.19
392.68	226.17
393.05	226.15
393.43	226.15
393.81	226.15
394.18	226.12
394.56	226.11
394.94	226.15
395.31	226.19
395.69	226.27
396.06	226.29
396.44	226.34
396.82	226.35
397.19	226.45
397.57	226.48
397.95	226.56
398.32	226.63
398.70	226.68
399.07	226.76
399.45	226.81
399.82	226.85
400.20	226.88
400.58	226.95
400.95	227.01
401.33	227.11
401.70	227.26
402.08	227.39
402.45	227.51
402.83	227.65
403.20	227.76
403.58	227.84
403.95	227.96
404.33	228.10
404.71	228.23
405.08	228.41
405.46	228.54
405.83	228.72
406.21	228.82
406.58	228.98
406.96	229.12
407.33	229.29
407.70	229.49
408.08	229.80
408.45	230.04
408.83	230.27
409.20	230.46
409.58	230.64
409.95	230.88
410.33	231.14
410.70	231.37
411.08	231.65
411.45	231.95
411.82	232.23
412.20	232.57
412.57	232.98
412.95	233.25
413.32	233.66
413.69	234.02
414.07	234.46
414.44	234.89
414.82	235.33
415.19	235.89
415.56	236.44
415.94	236.95
416.31	237.55
416.68	238.16
417.06	238.87
417.43	239.54
417.81	240.27
418.18	241.06
418.55	241.88
418.93	242.73
419.30	243.66
419.67	244.62
420.04	245.55
420.42	246.52
420.79	247.71
421.16	248.87
421.54	250.04
421.91	251.24
422.28	252.53
422.66	253.89
423.03	255.19
423.40	256.49
423.77	257.90
424.15	259.32
424.52	260.85
424.89	262.46
425.26	263.98
425.64	265.44
426.01	267.05
426.38	268.73
426.75	270.40
427.13	272.10
427.50	273.88
427.87	275.76
428.24	277.64
428.61	279.38
428.99	281.32
429.36	283.46
429.73	285.55
430.10	287.58
430.47	289.67
430.85	291.78
431.22	294.05
431.59	296.44
431.96	298.67
432.33	301.12
432.70	303.49
433.08	306.34
433.45	309.00
433.82	311.62
434.19	314.48
434.56	317.31
434.93	319.95
435.30	322.57
435.68	325.46
436.05	328.27
436.42	331.07
436.79	333.56
437.16	336.29
437.53	339.10
437.90	341.92
438.27	344.62
438.64	347.39
439.01	349.98
439.38	352.24
439.75	354.43
440.13	356.91
440.50	359.27
440.87	361.06
441.24	363.01
441.61	365.13
441.98	366.63
442.35	368.44
442.72	370.30
443.09	372.13
443.46	373.14
443.83	373.76
444.20	374.25
444.57	375.12
444.94	375.34
445.31	375.66
445.68	376.02
446.05	376.10
446.42	375.79
446.79	375.32
447.16	374.84
447.53	374.50
447.90	373.37
448.27	372.19
448.64	370.67
449.01	369.51
449.37	367.53
449.74	365.61
450.11	363.36
450.48	360.93
450.85	358.39
451.22	356.26
451.59	354.22
451.96	352.36
452.33	349.78
452.70	347.43
453.07	344.64
453.43	341.71
453.80	338.92
454.17	336.22
454.54	333.71
454.91	331.03
455.28	328.37
455.65	325.86
456.02	323.43
456.38	321.24
456.75	318.60
457.12	316.35
457.49	314.17
457.86	311.99
458.23	310.14
458.59	308.11
458.96	306.03
459.33	304.16
459.70	302.26
460.07	300.74
460.43	299.01
460.80	297.38
461.17	295.96
461.54	294.48
461.91	293.08
462.27	291.63
462.64	290.35
463.01	288.98
463.38	287.69
463.74	286.30
464.11	285.17
464.48	284.16
464.85	283.05
465.21	282.20
465.58	281.26
465.95	280.17
466.32	279.25
466.68	278.28
467.05	277.39
467.42	276.50
467.78	275.52
468.15	274.70
468.52	274.02
468.88	273.11
469.25	272.34
469.62	271.72
469.98	271.04
470.35	270.40
470.72	269.81
471.08	269.18
471.45	268.66
471.82	268.11
472.18	267.48
472.55	267.04
472.92	266.48
473.28	266.06
473.65	265.57
474.02	265.14
474.38	264.78
474.75	264.46
475.11	264.10
475.48	263.85
475.85	263.57
476.21	263.38
476.58	263.22
476.94	263.12
477.31	262.93
477.67	262.83
478.04	262.72
478.41	262.65
478.77	262.68
479.14	262.62
479.50	262.65
479.87	262.75
480.23	262.82
480.60	262.90
480.96	262.98
481.33	263.15
481.69	263.35
482.06	263.60
482.42	263.79
482.79	264.05
483.15	264.38
483.52	264.82
483.88	265.17
484.25	265.61
484.61	266.01
484.98	266.44
485.34	266.99
485.71	267.57
486.07	268.18
486.44	268.76
486.80	269.49
487.17	270.23
487.53	271.00
487.90	271.87
488.26	272.84
488.62	273.82
488.99	274.88
489.35	275.93
489.72	277.01
490.08	278.20
490.44	279.45
490.81	280.78
491.17	282.08
491.54	283.55
491.90	285.04
492.26	286.68
492.63	288.43
492.99	290.21
493.36	292.13
493.72	294.18
494.08	296.29
494.45	298.54
494.81	300.89
495.17	303.37
495.54	305.97
495.90	308.62
496.26	311.41
496.63	314.31
496.99	317.44
497.35	320.73
497.72	324.19
498.08	327.69
498.44	331.41
498.80	335.41
499.17	339.43
499.53	343.63
499.89	348.04
500.26	352.56
500.62	357.23
500.98	362.24
501.34	367.30
501.71	372.60
502.07	378.07
502.43	383.71
502.79	389.56
503.16	395.64
503.52	401.91
503.88	408.35
504.24	414.99
504.60	421.86
504.97	429.01
505.33	436.34
505.69	444.04
506.05	451.84
506.41	459.71
506.78	467.85
507.14	476.34
507.50	485.04
507.86	494.13
508.22	503.33
508.59	512.50
508.95	522.14
509.31	532.00
509.67	542.11
510.03	552.41
510.39	562.95
510.75	573.69
511.12	584.69
511.48	595.97
511.84	607.41
512.20	618.97
512.56	630.90
512.92	643.14
513.28	655.45
513.64	667.94
514.00	680.70
514.37	693.68
514.73	706.77
515.09	719.81
515.45	733.01
515.81	746.59
516.17	760.67
516.53	774.79
516.89	788.97
517.25	803.04
517.61	817.43
517.97	831.88
518.33	846.39
518.69	861.18
519.05	876.15
519.41	891.40
519.77	906.94
520.13	922.39
520.49	937.69
520.85	953.23
521.21	968.82
521.57	985.04
521.93	1000.79
522.29	1017.13
522.65	1033.30
523.01	1049.49
523.37	1065.55
523.73	1081.64
524.09	1097.61
524.45	1113.91
524.81	1130.54
525.17	1147.26
525.53	1164.16
525.89	1180.93
526.25	1197.68
526.61	1214.07
526.97	1230.78
527.33	1247.11
527.68	1263.69
528.04	1280.16
528.40	1296.60
528.76	1313.65
529.12	1330.09
529.48	1346.90
529.84	1362.90
530.20	1379.61
530.56	1396.54
530.91	1413.97
531.27	1430.67
531.63	1447.19
531.99	1463.65
532.35	1479.56
532.71	1495.49
533.07	1511.72
533.42	1527.71
533.78	1543.72
534.14	1559.84
534.50	1575.11
534.86	1591.06
535.21	1606.14
535.57	1621.91
535.93	1637.46
536.29	1652.24
536.65	1667.29
537.00	1682.14
537.36	1697.35
537.72	1711.79
538.08	1726.29
538.44	1739.93
538.79	1753.78
539.15	1767.50
539.51	1781.28
539.87	1795.51
540.22	1809.22
540.58	1822.82
540.94	1835.95
541.29	1848.77
541.65	1861.60
542.01	1874.71
542.37	1886.99
542.72	1899.35
543.08	1911.15
543.44	1923.41
543.79	1934.62
544.15	1945.60
544.51	1957.03
544.87	1967.98
545.22	1978.83
545.58	1988.87
545.94	1998.71
546.29	2008.57
546.65	2018.40
547.01	2027.72
547.36	2036.53
547.72	2045.01
548.07	2052.91
548.43	2061.02
548.79	2069.19
549.14	2076.54
549.50	2083.98
549.86	2091.66
550.21	2099.08
550.57	2106.28
550.92	2112.82
551.28	2119.77
551.64	2126.80
551.99	2133.39
552.35	2139.37
552.70	2145.48
553.06	2151.53
553.41	2157.77
553.77	2163.67
554.13	2169.66
554.48	2175.73
554.84	2181.17
555.19	2186.47
555.55	2191.61
555.90	2196.34
556.26	2201.15
556.61	2205.98
556.97	2210.23
557.32	2214.29
557.68	2218.32
558.03	2222.54
558.39	2226.36
558.74	2231.23
559.10	2235.08
559.45	2238.71
559.81	2243.08
560.16	2247.01
560.52	2250.25
560.87	2253.61
561.23	2256.37
561.58	2259.31
561.94	2261.84
562.29	2264.15
562.64	2266.68
563.00	2269.29
563.35	2272.66
563.71	2275.70
564.06	2278.91
564.42	2281.70
564.77	2284.19
565.12	2286.55
565.48	2288.54
565.83	2290.43
566.19	2291.55
566.54	2292.35
566.89	2293.46
567.25	2294.11
567.60	2295.31
567.96	2297.03
568.31	2297.89
568.66	2299.08
569.02	2299.62
569.37	2299.84
569.72	2300.80
570.08	2301.06
570.43	2301.11
570.78	2300.50
571.14	2298.93
571.49	2297.71
571.84	2297.51
572.20	2296.43
572.55	2295.36
572.90	2293.92
573.26	2292.54
573.61	2291.02
573.96	2289.43
574.31	2286.47
574.67	2283.58
575.02	2279.95
575.37	2276.69
575.72	2272.99
576.08	2269.69
576.43	2266.47
576.78	2262.73
577.13	2259.74
577.49	2256.59
577.84	2253.11
578.19	2249.46
578.54	2245.93
578.90	2241.55
579.25	2236.09
579.60	2231.05
579.95	2226.03
580.30	2220.92
580.66	2215.79
581.01	2210.77
581.36	2205.84
581.71	2201.63
582.06	2197.11
582.42	2192.71
582.77	2187.42
583.12	2182.94
583.47	2177.99
583.82	2172.86
584.17	2167.76
584.53	2162.18
584.88	2156.64
585.23	2151.00
585.58	2145.35
585.93	2140.10
586.28	2135.36
586.63	2130.09
586.98	2125.14
587.34	2120.56
587.69	2115.71
588.04	2110.36
588.39	2104.69
588.74	2098.30
589.09	2092.22
589.44	2085.44
589.79	2079.39
590.14	2073.86
590.49	2067.18
590.84	2060.90
591.19	2055.02
591.54	2048.51
591.89	2041.01
592.25	2034.22
592.60	2026.91
592.95	2019.38
593.30	2011.80
593.65	2004.25
594.00	1997.35
594.35	1990.17
594.70	1982.12
595.05	1974.93
595.40	1967.78
595.75	1960.21
596.10	1953.91
596.45	1947.14
596.80	1941.13
597.15	1934.50
597.50	1927.18
597.85	1920.82
598.19	1914.11
598.54	1906.94
598.89	1900.36
599.24	1894.48
599.59	1887.75
599.94	1881.58
600.29	1875.26
600.64	1868.76
600.99	1861.28
601.34	1854.43
601.69	1847.48
602.04	1840.47
602.39	1833.14
602.74	1826.21
603.08	1819.55
603.43	1812.80
603.78	1805.54
604.13	1798.14
604.48	1790.85
604.83	1784.15
605.18	1777.14
605.53	1769.27
605.87	1761.27
606.22	1754.10
606.57	1746.20
606.92	1738.90
607.27	1731.70
607.62	1724.81
607.96	1717.36
608.31	1710.81
608.66	1703.16
609.01	1695.40
609.36	1687.93
609.70	1679.77
610.05	1671.73
610.40	1663.96
610.75	1655.62
611.10	1647.88
611.44	1639.58
611.79	1631.60
612.14	1622.87
612.49	1613.74
612.83	1605.38
613.18	1597.21
613.53	1589.05
613.88	1580.44
614.22	1572.14
614.57	1563.48
614.92	1555.47
615.27	1548.07
615.61	1539.69
615.96	1531.77
616.31	1524.38
616.65	1517.00
617.00	1509.56
617.35	1501.98
617.70	1493.68
618.04	1485.19
618.39	1477.02
618.74	1469.38
619.08	1461.05
619.43	1453.53
619.78	1446.65
620.12	1439.38
620.47	1431.87
620.82	1423.69
621.16	1416.50
621.51	1408.92
621.85	1401.41
622.20	1392.88
622.55	1384.48
622.89	1376.74
623.24	1368.94
623.59	1361.47
623.93	1353.94
624.28	1346.62
624.62	1338.98
624.97	1331.82
625.32	1325.19
625.66	1318.21
626.01	1310.97
626.35	1303.53
626.70	1295.80
627.04	1287.98
627.39	1280.24
627.73	1272.80
628.08	1265.90
628.43	1258.51
628.77	1251.14
629.12	1243.49
629.46	1236.30
629.81	1228.93
630.15	1221.64
630.50	1214.31
630.84	1206.10
631.19	1198.17
631.53	1190.69
631.88	1183.20
632.22	1175.55
632.57	1168.24
632.91	1160.65
633.26	1153.22
633.60	1145.89
633.95	1138.73
634.29	1131.71
634.64	1125.01
634.98	1117.73
635.32	1110.59
635.67	1103.99
636.01	1097.34
636.36	1090.53
636.70	1084.11
637.05	1077.51
637.39	1070.99
637.73	1064.42
638.08	1058.57
638.42	1052.52
638.77	1046.03
639.11	1039.36
639.45	1033.03
639.80	1026.39
640.14	1020.02
640.49	1013.48
640.83	1007.15
641.17	1000.88
641.52	994.45
641.86	987.95
642.20	982.06
642.55	975.70
642.89	969.18
643.23	962.64
643.58	956.84
643.92	950.57
644.26	944.45
644.61	938.51
644.95	932.56
645.29	925.92
645.64	919.27
645.98	912.96
646.32	907.07
646.66	900.97
647.01	895.09
647.35	889.33
647.69	883.44
648.04	877.91
648.38	872.09
648.72	866.14
649.06	860.14
649.41	854.30
649.75	848.39
650.09	842.40
650.43	836.59
650.78	830.59
651.12	824.67
651.46	818.96
651.80	813.16
652.14	807.71
652.49	802.33
652.83	797.14
653.17	791.45
653.51	785.84
653.85	780.50
654.20	774.85
654.54	768.85
654.88	763.17
655.22	757.26
655.56	751.57
655.90	746.13
656.25	740.92
656.59	735.54
656.93	730.48
657.27	725.36
657.61	719.92
657.95	714.75
658.29	709.61
658.64	704.33
658.98	699.09
659.32	693.62
659.66	688.46
660.00	683.08
660.34	678.21
660.68	673.21
661.02	668.13
661.36	663.41
661.70	658.88
662.05	654.57
662.39	650.29
662.73	645.91
663.07	641.57
663.41	637.08
663.75	632.65
664.09	628.03
664.43	623.62
664.77	619.49
665.11	615.27
665.45	611.17
665.79	607.08
666.13	602.84
666.47	598.79
666.81	594.59
667.15	590.49
667.49	586.54
667.83	582.76
668.17	578.86
668.51	574.76
668.85	570.72
669.19	566.86
669.53	562.98
669.87	559.08
670.21	555.37
670.55	551.73
670.89	548.23
671.23	544.79
671.57	541.24
671.91	537.65
672.25	534.11
672.58	530.57
672.92	527.21
673.26	524.08
673.60	520.83
673.94	517.70
674.28	514.80
674.62	511.86
674.96	508.75
675.30	505.84
675.64	502.90
675.97	500.14
676.31	497.25
676.65	494.31
676.99	491.58
677.33	488.69
677.67	485.86
678.01	482.77
678.34	479.78
678.68	476.91
679.02	474.15
679.36	471.36
679.70	468.61
680.04	465.84
680.37	462.88
680.71	460.13
681.05	457.52
681.39	454.78
681.73	452.11
682.06	449.58
682.40	447.02
682.74	444.50
683.08	441.95
683.42	439.33
683.75	436.84
684.09	434.29
684.43	431.78
684.77	429.35
685.10	427.08
685.44	424.79
685.78	422.57
686.12	420.27
686.45	418.03
686.79	415.74
687.13	413.56
687.46	411.47
687.80	409.28
688.14	407.04
688.48	404.98
688.81	402.70
689.15	400.57
689.49	398.43
689.82	396.35
690.16	394.30
690.50	392.43
690.83	390.48
691.17	388.50
691.51	386.64
691.84	384.77
692.18	382.81
692.52	380.86
692.85	378.94
693.19	377.07
693.52	375.27
693.86	373.52
694.20	371.77
694.53	369.99
694.87	368.19
695.21	366.45
695.54	364.67
695.88	362.98
696.21	361.23
696.55	359.54
696.88	357.87
697.22	356.22
697.56	354.53
697.89	352.85
698.23	351.26
698.56	349.66
698.90	348.10
699.23	346.45
699.57	344.84
699.90	343.27
700.24	341.79
700.58	340.22
700.91	338.68
701.25	337.22
701.58	335.83
701.92	334.52
702.25	333.16
702.59	331.77
702.92	330.45
703.26	329.17
703.59	327.91
703.93	326.74
704.26	325.48
704.60	324.23
704.93	322.97
705.26	321.72
705.60	320.52
705.93	319.30
706.27	318.27
706.60	317.23
706.94	316.13
707.27	314.97
707.61	313.94
707.94	312.92
708.27	311.79
708.61	310.71
708.94	309.68
709.28	308.65
709.61	307.68
709.94	306.72
710.28	305.69
710.61	304.72
710.95	303.63
711.28	302.70
711.61	301.75
711.95	300.84
712.28	299.87
712.61	298.88
712.95	297.95
713.28	297.04
713.61	296.14
713.95	295.24
714.28	294.41
714.61	293.51
714.95	292.64
715.28	291.80
715.61	290.90
715.95	290.01
716.28	289.12
716.61	288.30
716.95	287.46
717.28	286.70
717.61	285.92
717.94	285.19
718.28	284.34
718.61	283.59
718.94	282.88
719.27	282.21
719.61	281.58
719.94	280.91
720.27	280.18
720.60	279.54
720.94	278.90
721.27	278.29
721.60	277.73
721.93	277.14
722.27	276.59
722.60	276.06
722.93	275.51
723.26	275.01
723.59	274.41
723.93	273.85
724.26	273.29
724.59	272.73
724.92	272.21
725.25	271.78
725.59	271.29
725.92	270.82
726.25	270.32
726.58	269.81
726.91	269.35
727.24	268.88
727.57	268.41
727.91	267.90
728.24	267.43
728.57	266.91
728.90	266.47
729.23	265.96
729.56	265.55
729.89	265.07
730.22	264.57
730.55	264.15
730.89	263.71
731.22	263.25
731.55	262.82
731.88	262.33
732.21	261.83
732.54	261.38
732.87	260.94
733.20	260.56
733.53	260.21
733.86	259.82
734.19	259.44
734.52	259.05
734.85	258.73
735.18	258.31
735.51	257.98
735.84	257.62
736.17	257.29
736.50	256.89
736.83	256.65
737.16	256.34
737.49	256.03
737.82	255.69
738.15	255.41
738.48	255.06
738.81	254.77
739.14	254.50
739.47	254.22
739.80	253.91
740.13	253.59
740.46	253.25
740.79	252.95
741.12	252.65
741.45	252.34
741.78	252.04
742.11	251.77
742.44	251.44
742.77	251.16
743.10	250.82
743.43	250.51
743.75	250.12
744.08	249.97
744.41	249.70
744.74	249.44
745.07	249.15
745.40	248.91
745.73	248.69
746.06	248.42
746.39	248.11
746.71	247.86
747.04	247.63
747.37	247.35
747.70	247.08
748.03	246.82
748.36	246.58
748.68	246.32
749.01	246.08
749.34	245.86
749.67	245.61
750.00	245.42
750.33	245.29
750.65	245.08
750.98	244.75
751.31	244.52
751.64	244.30
751.97	244.14
752.29	243.91
752.62	243.67
752.95	243.46
753.28	243.27
753.60	243.06
753.93	242.85
754.26	242.65
754.59	242.47
754.91	242.25
755.24	242.08
755.57	241.87
755.90	241.65
756.22	241.44
756.55	241.24
756.88	241.02
757.20	240.76
757.53	240.56
757.86	240.38
758.19	240.20
758.51	240.02
758.84	239.80
759.17	239.64
759.49	239.47
759.82	239.34
760.15	239.20
760.47	239.06
760.80	238.88
761.13	238.74
761.45	238.53
761.78	238.39
762.11	238.25
762.43	238.10
762.76	237.98
763.08	237.84
763.41	237.71
763.74	237.60
764.06	237.47
764.39	237.32
764.71	237.18
765.04	237.08
765.37	236.95
765.69	236.83
766.02	236.69
766.34	236.58
766.67	236.41
767.00	236.29
767.32	236.23
767.65	236.14
767.97	236.02
768.30	235.92
768.62	235.83
768.95	235.70
769.27	235.60
769.60	235.50
769.92	235.41
770.25	235.30
770.57	235.17
770.90	235.07
771.22	234.97
771.55	234.89
771.87	234.77
772.20	234.66
772.52	234.64
772.85	234.71
773.17	234.61
773.50	234.52
773.82	234.40
774.15	234.24
774.47	234.12
774.80	234.06
775.12	234.02
775.45	233.93
775.77	233.87
776.09	233.80
776.42	233.71
776.74	233.65
777.07	233.59
777.39	233.54
777.72	233.47
778.04	233.42
778.36	233.35
778.69	233.25
779.01	233.21
779.33	233.01
779.66	232.81
779.98	232.73
780.31	232.70
780.63	232.67
780.95	232.65
781.28	232.60
781.60	232.51
781.92	232.42
782.25	232.37
782.57	232.31
782.89	232.25
783.22	232.19
783.54	232.14
783.86	232.07
784.19	232.00
784.51	232.01
784.83	231.94
785.16	231.91
785.48	231.89
785.80	231.84
786.12	231.83
786.45	231.80
786.77	231.79
787.09	231.74
