SpectraSuite Data File
++++++++++++++++++++++++++++++++++++
Date: Fri Feb 01 15:31:53 EST 2013
User: group
Dark Spectrum Present: No
Reference Spectrum Present: No
Number of Sampled Component Spectra: 1
Spectrometers: USB2E7196
Integration Time (usec): 35000 (USB2E7196)
Spectra Averaged: 100 (USB2E7196)
Boxcar Smoothing: 10 (USB2E7196)
Correct for Electrical Dark: No (USB2E7196)
Strobe/Lamp Enabled: No (USB2E7196)
Correct for Detector Non-linearity: No (USB2E7196)
Correct for Stray Light: No (USB2E7196)
Number of Pixels in Processed Spectrum: 2048
>>>>>Begin Processed Spectral Data<<<<<
339.09	0.00
339.48	214.69
339.86	216.75
340.24	217.65
340.63	219.49
341.01	222.54
341.39	221.96
341.78	223.23
342.16	224.80
342.54	225.04
342.93	213.35
343.31	224.13
343.69	224.66
344.07	225.14
344.46	225.55
344.84	225.90
345.22	226.12
345.60	226.37
345.99	226.55
346.37	226.67
346.75	226.74
347.13	226.81
347.52	226.84
347.90	226.90
348.28	226.87
348.66	226.88
349.05	226.84
349.43	226.90
349.81	226.93
350.19	226.96
350.57	227.01
350.96	227.10
351.34	227.15
351.72	227.24
352.10	227.32
352.48	227.38
352.87	227.43
353.25	227.49
353.63	227.51
354.01	227.60
354.39	227.63
354.77	227.71
355.15	227.81
355.54	227.90
355.92	227.93
356.30	228.03
356.68	228.17
357.06	228.30
357.44	228.31
357.82	228.38
358.20	228.46
358.58	228.52
358.97	228.60
359.35	228.70
359.73	228.78
360.11	228.80
360.49	228.89
360.87	228.95
361.25	229.01
361.63	229.11
362.01	229.12
362.39	229.19
362.77	229.23
363.15	229.22
363.53	229.22
363.91	229.29
364.29	229.33
364.67	229.26
365.05	229.23
365.43	229.27
365.81	229.28
366.19	229.33
366.57	229.37
366.95	229.32
367.33	229.29
367.71	229.28
368.09	229.32
368.47	229.30
368.85	229.31
369.23	229.33
369.61	229.26
369.99	229.27
370.37	229.25
370.75	229.29
371.13	229.27
371.51	229.21
371.89	229.13
372.27	229.08
372.65	229.05
373.03	229.02
373.41	228.95
373.78	228.89
374.16	228.75
374.54	228.66
374.92	228.58
375.30	228.54
375.68	228.46
376.06	228.39
376.44	228.31
376.82	228.22
377.19	228.12
377.57	228.04
377.95	227.92
378.33	227.83
378.71	227.68
379.09	227.64
379.47	227.60
379.84	227.52
380.22	227.41
380.60	227.32
380.98	227.28
381.36	227.21
381.73	227.14
382.11	227.13
382.49	227.04
382.87	227.01
383.25	226.96
383.62	227.02
384.00	226.93
384.38	226.88
384.76	226.86
385.13	226.85
385.51	226.81
385.89	226.78
386.27	226.76
386.64	226.72
387.02	226.65
387.40	226.61
387.78	226.58
388.15	226.55
388.53	226.50
388.91	226.45
389.29	226.44
389.66	226.43
390.04	226.41
390.42	226.42
390.79	226.41
391.17	226.39
391.55	226.26
391.92	226.27
392.30	226.27
392.68	226.22
393.05	226.20
393.43	226.20
393.81	226.19
394.18	226.19
394.56	226.20
394.94	226.26
395.31	226.26
395.69	226.34
396.06	226.38
396.44	226.43
396.82	226.47
397.19	226.56
397.57	226.57
397.95	226.62
398.32	226.66
398.70	226.70
399.07	226.74
399.45	226.83
399.82	226.89
400.20	226.93
400.58	227.01
400.95	227.08
401.33	227.20
401.70	227.40
402.08	227.50
402.45	227.62
402.83	227.75
403.20	227.87
403.58	227.96
403.95	228.10
404.33	228.25
404.71	228.38
405.08	228.58
405.46	228.76
405.83	228.91
406.21	229.08
406.58	229.26
406.96	229.46
407.33	229.64
407.70	229.86
408.08	230.17
408.45	230.43
408.83	230.65
409.20	230.85
409.58	231.02
409.95	231.27
410.33	231.54
410.70	231.77
411.08	232.10
411.45	232.41
411.82	232.73
412.20	233.08
412.57	233.52
412.95	233.79
413.32	234.19
413.69	234.60
414.07	235.05
414.44	235.52
414.82	235.98
415.19	236.54
415.56	237.09
415.94	237.64
416.31	238.25
416.68	238.89
417.06	239.61
417.43	240.25
417.81	241.03
418.18	241.83
418.55	242.67
418.93	243.52
419.30	244.44
419.67	245.35
420.04	246.29
420.42	247.26
420.79	248.47
421.16	249.65
421.54	250.86
421.91	252.07
422.28	253.31
422.66	254.66
423.03	255.96
423.40	257.31
423.77	258.70
424.15	260.16
424.52	261.65
424.89	263.26
425.26	264.86
425.64	266.32
426.01	267.89
426.38	269.52
426.75	271.17
427.13	272.88
427.50	274.71
427.87	276.55
428.24	278.40
428.61	280.09
428.99	282.02
429.36	284.11
429.73	286.20
430.10	288.27
430.47	290.34
430.85	292.44
431.22	294.63
431.59	297.03
431.96	299.29
432.33	301.81
432.70	304.18
433.08	307.02
433.45	309.65
433.82	312.30
434.19	315.23
434.56	318.06
434.93	320.75
435.30	323.39
435.68	326.36
436.05	329.22
436.42	332.05
436.79	334.57
437.16	337.26
437.53	340.07
437.90	342.84
438.27	345.58
438.64	348.42
439.01	351.07
439.38	353.26
439.75	355.41
440.13	357.91
440.50	360.26
440.87	362.11
441.24	364.05
441.61	366.17
441.98	367.61
442.35	369.40
442.72	371.21
443.09	373.00
443.46	373.98
443.83	374.58
444.20	375.07
444.57	375.91
444.94	376.20
445.31	376.53
445.68	376.88
446.05	376.92
446.42	376.52
446.79	376.07
447.16	375.62
447.53	375.26
447.90	374.08
448.27	372.91
448.64	371.29
449.01	370.14
449.37	368.19
449.74	366.32
450.11	364.10
450.48	361.68
450.85	359.15
451.22	356.98
451.59	354.98
451.96	353.06
452.33	350.44
452.70	348.10
453.07	345.29
453.43	342.42
453.80	339.65
454.17	337.00
454.54	334.46
454.91	331.75
455.28	329.10
455.65	326.58
456.02	324.10
456.38	321.96
456.75	319.28
457.12	317.05
457.49	314.82
457.86	312.67
458.23	310.81
458.59	308.77
458.96	306.71
459.33	304.82
459.70	302.97
460.07	301.45
460.43	299.70
460.80	298.06
461.17	296.59
461.54	295.12
461.91	293.66
462.27	292.22
462.64	290.99
463.01	289.65
463.38	288.36
463.74	287.03
464.11	285.84
464.48	284.80
464.85	283.70
465.21	282.81
465.58	281.86
465.95	280.78
466.32	279.88
466.68	278.96
467.05	278.07
467.42	277.17
467.78	276.22
468.15	275.37
468.52	274.67
468.88	273.83
469.25	273.02
469.62	272.39
469.98	271.70
470.35	271.05
470.72	270.46
471.08	269.77
471.45	269.22
471.82	268.69
472.18	268.10
472.55	267.66
472.92	267.13
473.28	266.60
473.65	266.11
474.02	265.66
474.38	265.27
474.75	264.93
475.11	264.54
475.48	264.28
475.85	264.01
476.21	263.79
476.58	263.60
476.94	263.47
477.31	263.30
477.67	263.13
478.04	262.99
478.41	262.90
478.77	262.94
479.14	262.87
479.50	262.85
479.87	262.95
480.23	262.99
480.60	263.06
480.96	263.16
481.33	263.37
481.69	263.53
482.06	263.74
482.42	263.95
482.79	264.19
483.15	264.50
483.52	264.85
483.88	265.19
484.25	265.56
484.61	265.96
484.98	266.44
485.34	267.00
485.71	267.59
486.07	268.20
486.44	268.76
486.80	269.42
487.17	270.14
487.53	270.95
487.90	271.82
488.26	272.79
488.62	273.79
488.99	274.78
489.35	275.82
489.72	276.94
490.08	278.13
490.44	279.40
490.81	280.73
491.17	282.13
491.54	283.60
491.90	285.13
492.26	286.80
492.63	288.50
492.99	290.27
493.36	292.21
493.72	294.25
494.08	296.40
494.45	298.67
494.81	301.04
495.17	303.46
495.54	306.01
495.90	308.69
496.26	311.52
496.63	314.49
496.99	317.58
497.35	320.83
497.72	324.23
498.08	327.74
498.44	331.42
498.80	335.36
499.17	339.40
499.53	343.55
499.89	347.97
500.26	352.48
500.62	357.17
500.98	362.11
501.34	367.21
501.71	372.57
502.07	377.98
502.43	383.63
502.79	389.49
503.16	395.57
503.52	401.80
503.88	408.23
504.24	414.88
504.60	421.82
504.97	428.99
505.33	436.31
505.69	444.06
506.05	451.81
506.41	459.69
506.78	467.91
507.14	476.47
507.50	485.17
507.86	494.23
508.22	503.44
508.59	512.64
508.95	522.26
509.31	532.02
509.67	542.23
510.03	552.51
510.39	563.06
510.75	573.97
511.12	584.92
511.48	596.23
511.84	607.71
512.20	619.23
512.56	631.20
512.92	643.39
513.28	655.69
513.64	668.25
514.00	680.96
514.37	693.93
514.73	706.87
515.09	719.86
515.45	733.11
515.81	746.67
516.17	760.67
516.53	774.78
516.89	789.01
517.25	803.18
517.61	817.59
517.97	832.10
518.33	846.37
518.69	861.20
519.05	876.19
519.41	891.34
519.77	906.96
520.13	922.40
520.49	937.82
520.85	953.25
521.21	969.04
521.57	985.33
521.93	1001.15
522.29	1017.70
522.65	1034.04
523.01	1050.37
523.37	1066.51
523.73	1082.75
524.09	1098.80
524.45	1115.18
524.81	1131.86
525.17	1148.75
525.53	1165.69
525.89	1182.76
526.25	1199.58
526.61	1215.94
526.97	1232.72
527.33	1249.19
527.68	1265.87
528.04	1282.43
528.40	1299.06
528.76	1316.09
529.12	1332.71
529.48	1349.59
529.84	1365.55
530.20	1382.12
530.56	1399.26
530.91	1416.70
531.27	1433.48
531.63	1450.08
531.99	1466.64
532.35	1482.61
532.71	1498.49
533.07	1514.74
533.42	1530.62
533.78	1546.74
534.14	1563.13
534.50	1578.55
534.86	1594.52
535.21	1609.74
535.57	1625.67
535.93	1641.21
536.29	1655.99
536.65	1671.18
537.00	1686.00
537.36	1701.43
537.72	1716.03
538.08	1730.47
538.44	1744.35
538.79	1758.35
539.15	1772.10
539.51	1785.78
539.87	1800.22
540.22	1814.16
540.58	1828.01
540.94	1841.32
541.29	1854.37
541.65	1867.21
542.01	1880.50
542.37	1892.85
542.72	1905.26
543.08	1917.13
543.44	1929.70
543.79	1941.15
544.15	1952.15
544.51	1963.74
544.87	1974.74
545.22	1985.69
545.58	1995.80
545.94	2005.64
546.29	2015.56
546.65	2025.37
547.01	2034.75
547.36	2043.57
547.72	2052.10
548.07	2060.05
548.43	2068.44
548.79	2076.53
549.14	2084.00
549.50	2091.27
549.86	2099.06
550.21	2106.51
550.57	2113.65
550.92	2120.11
551.28	2127.15
551.64	2134.26
551.99	2140.82
552.35	2146.91
552.70	2153.06
553.06	2159.05
553.41	2165.37
553.77	2171.30
554.13	2177.51
554.48	2183.52
554.84	2188.86
555.19	2194.12
555.55	2199.21
555.90	2203.51
556.26	2208.35
556.61	2212.99
556.97	2217.28
557.32	2221.30
557.68	2225.41
558.03	2229.74
558.39	2233.62
558.74	2238.26
559.10	2242.22
559.45	2245.89
559.81	2250.39
560.16	2254.17
560.52	2257.36
560.87	2260.86
561.23	2263.50
561.58	2266.35
561.94	2269.09
562.29	2271.45
562.64	2273.95
563.00	2276.64
563.35	2280.27
563.71	2283.28
564.06	2286.64
564.42	2289.54
564.77	2292.00
565.12	2294.27
565.48	2296.12
565.83	2297.88
566.19	2299.03
566.54	2299.74
566.89	2300.91
567.25	2301.23
567.60	2302.60
567.96	2304.50
568.31	2305.26
568.66	2306.30
569.02	2306.92
569.37	2307.12
569.72	2307.89
570.08	2308.02
570.43	2307.87
570.78	2307.27
571.14	2305.74
571.49	2304.27
571.84	2303.98
572.20	2302.83
572.55	2301.68
572.90	2300.15
573.26	2298.70
573.61	2297.10
573.96	2295.29
574.31	2292.19
574.67	2289.15
575.02	2285.35
575.37	2281.77
575.72	2277.83
576.08	2274.58
576.43	2271.29
576.78	2267.52
577.13	2264.40
577.49	2261.35
577.84	2257.81
578.19	2253.93
578.54	2250.08
578.90	2245.71
579.25	2240.07
579.60	2234.93
579.95	2229.83
580.30	2224.71
580.66	2219.29
581.01	2214.07
581.36	2209.06
581.71	2204.83
582.06	2200.49
582.42	2195.97
582.77	2190.67
583.12	2185.97
583.47	2181.05
583.82	2175.68
584.17	2170.41
584.53	2164.71
584.88	2158.87
585.23	2153.01
585.58	2147.47
585.93	2142.15
586.28	2137.45
586.63	2132.27
586.98	2127.15
587.34	2122.28
587.69	2117.36
588.04	2112.13
588.39	2106.51
588.74	2100.04
589.09	2093.77
589.44	2086.82
589.79	2080.91
590.14	2075.34
590.49	2068.88
590.84	2062.48
591.19	2056.62
591.54	2050.14
591.89	2042.72
592.25	2035.95
592.60	2028.79
592.95	2021.14
593.30	2013.66
593.65	2005.91
594.00	1998.82
594.35	1991.64
594.70	1983.75
595.05	1976.44
595.40	1969.13
595.75	1961.61
596.10	1955.27
596.45	1948.41
596.80	1942.32
597.15	1935.66
597.50	1928.36
597.85	1921.81
598.19	1915.07
598.54	1907.94
598.89	1901.31
599.24	1895.46
599.59	1888.71
599.94	1882.47
600.29	1876.31
600.64	1869.66
600.99	1862.19
601.34	1855.35
601.69	1848.38
602.04	1841.44
602.39	1834.07
602.74	1827.26
603.08	1820.54
603.43	1813.88
603.78	1806.66
604.13	1799.31
604.48	1791.83
604.83	1785.06
605.18	1778.02
605.53	1770.00
605.87	1761.87
606.22	1754.60
606.57	1746.52
606.92	1739.22
607.27	1731.96
607.62	1724.99
607.96	1717.69
608.31	1710.99
608.66	1703.27
609.01	1695.71
609.36	1688.04
609.70	1680.13
610.05	1672.08
610.40	1664.32
610.75	1655.85
611.10	1648.18
611.44	1639.76
611.79	1631.74
612.14	1622.89
612.49	1613.73
612.83	1605.36
613.18	1597.24
613.53	1589.12
613.88	1580.68
614.22	1572.38
614.57	1563.83
614.92	1555.65
615.27	1547.95
615.61	1539.58
615.96	1531.60
616.31	1523.98
616.65	1516.61
617.00	1508.91
617.35	1501.25
617.70	1492.79
618.04	1484.22
618.39	1475.88
618.74	1468.26
619.08	1459.85
619.43	1452.35
619.78	1445.50
620.12	1438.24
620.47	1430.68
620.82	1422.47
621.16	1415.01
621.51	1407.47
621.85	1399.77
622.20	1391.18
622.55	1382.93
622.89	1375.23
623.24	1367.58
623.59	1360.20
623.93	1352.64
624.28	1345.47
624.62	1337.78
624.97	1330.65
625.32	1324.06
625.66	1317.05
626.01	1309.80
626.35	1302.39
626.70	1294.58
627.04	1286.75
627.39	1279.01
627.73	1271.60
628.08	1264.75
628.43	1257.44
628.77	1250.05
629.12	1242.42
629.46	1235.32
629.81	1227.91
630.15	1220.66
630.50	1213.24
630.84	1204.92
631.19	1197.04
631.53	1189.50
631.88	1182.01
632.22	1174.43
632.57	1167.09
632.91	1159.62
633.26	1152.25
633.60	1145.03
633.95	1137.99
634.29	1131.00
634.64	1124.30
634.98	1116.90
635.32	1109.72
635.67	1103.13
636.01	1096.50
636.36	1089.74
636.70	1083.16
637.05	1076.64
637.39	1070.16
637.73	1063.65
638.08	1057.84
638.42	1051.84
638.77	1045.34
639.11	1038.76
639.45	1032.32
639.80	1025.65
640.14	1019.21
640.49	1012.67
640.83	1006.30
641.17	1000.01
641.52	993.69
641.86	987.45
642.20	981.64
642.55	975.36
642.89	968.89
643.23	962.27
643.58	956.43
643.92	950.26
644.26	944.16
644.61	938.18
644.95	932.09
645.29	925.52
645.64	918.76
645.98	912.48
646.32	906.72
646.66	900.72
647.01	895.00
647.35	889.29
647.69	883.44
648.04	877.93
648.38	872.15
648.72	866.14
649.06	860.02
649.41	854.12
649.75	848.08
650.09	842.15
650.43	836.36
650.78	830.20
651.12	824.26
651.46	818.50
651.80	812.59
652.14	807.22
652.49	801.83
652.83	796.63
653.17	790.85
653.51	785.08
653.85	779.68
654.20	773.95
654.54	767.92
654.88	762.27
655.22	756.35
655.56	750.65
655.90	745.19
656.25	739.90
656.59	734.58
656.93	729.46
657.27	724.23
657.61	718.78
657.95	713.73
658.29	708.66
658.64	703.49
658.98	698.22
659.32	692.80
659.66	687.56
660.00	682.19
660.34	677.31
660.68	672.41
661.02	667.34
661.36	662.64
661.70	658.13
662.05	653.73
662.39	649.38
662.73	644.95
663.07	640.61
663.41	636.18
663.75	631.61
664.09	627.07
664.43	622.74
664.77	618.64
665.11	614.42
665.45	610.23
665.79	606.17
666.13	602.19
666.47	598.09
666.81	593.97
667.15	589.95
667.49	586.03
667.83	582.19
668.17	578.31
668.51	574.23
668.85	570.20
669.19	566.36
669.53	562.53
669.87	558.68
670.21	554.92
670.55	551.26
670.89	547.87
671.23	544.47
671.57	540.92
671.91	537.43
672.25	533.92
672.58	530.49
672.92	527.06
673.26	523.82
673.60	520.70
673.94	517.53
674.28	514.63
674.62	511.70
674.96	508.64
675.30	505.70
675.64	502.79
675.97	500.08
676.31	497.25
676.65	494.33
676.99	491.62
677.33	488.80
677.67	486.00
678.01	483.00
678.34	480.02
678.68	477.19
679.02	474.36
679.36	471.57
679.70	468.84
680.04	466.00
680.37	463.12
680.71	460.31
681.05	457.74
681.39	455.00
681.73	452.36
682.06	449.84
682.40	447.37
682.74	444.84
683.08	442.29
683.42	439.64
683.75	437.16
684.09	434.62
684.43	432.16
684.77	429.72
685.10	427.41
685.44	425.16
685.78	422.87
686.12	420.63
686.45	418.41
686.79	416.12
687.13	413.95
687.46	411.82
687.80	409.71
688.14	407.52
688.48	405.47
688.81	403.23
689.15	401.06
689.49	398.88
689.82	396.83
690.16	394.74
690.50	392.81
690.83	390.89
691.17	388.91
691.51	387.04
691.84	385.15
692.18	383.22
692.52	381.23
692.85	379.33
693.19	377.47
693.52	375.67
693.86	373.86
694.20	372.11
694.53	370.33
694.87	368.45
695.21	366.65
695.54	364.82
695.88	363.12
696.21	361.39
696.55	359.71
696.88	357.99
697.22	356.32
697.56	354.70
697.89	353.05
698.23	351.47
698.56	349.80
698.90	348.19
699.23	346.49
699.57	344.90
699.90	343.34
700.24	341.78
700.58	340.17
700.91	338.64
701.25	337.19
701.58	335.80
701.92	334.43
702.25	333.09
702.59	331.72
702.92	330.35
703.26	329.04
703.59	327.77
703.93	326.59
704.26	325.36
704.60	324.06
704.93	322.74
705.26	321.45
705.60	320.27
705.93	319.12
706.27	318.08
706.60	317.03
706.94	315.95
707.27	314.82
707.61	313.78
707.94	312.76
708.27	311.63
708.61	310.52
708.94	309.51
709.28	308.50
709.61	307.52
709.94	306.61
710.28	305.58
710.61	304.62
710.95	303.55
711.28	302.61
711.61	301.68
711.95	300.76
712.28	299.81
712.61	298.84
712.95	297.94
713.28	297.05
713.61	296.18
713.95	295.24
714.28	294.43
714.61	293.57
714.95	292.74
715.28	291.91
715.61	291.07
715.95	290.22
716.28	289.37
716.61	288.58
716.95	287.73
717.28	287.01
717.61	286.22
717.94	285.50
718.28	284.69
718.61	283.96
718.94	283.29
719.27	282.64
719.61	281.98
719.94	281.32
720.27	280.61
720.60	279.92
720.94	279.35
721.27	278.74
721.60	278.12
721.93	277.53
722.27	277.01
722.60	276.45
722.93	275.92
723.26	275.38
723.59	274.85
723.93	274.34
724.26	273.80
724.59	273.27
724.92	272.75
725.25	272.30
725.59	271.79
725.92	271.27
726.25	270.80
726.58	270.35
726.91	269.86
727.24	269.41
727.57	268.97
727.91	268.44
728.24	267.98
728.57	267.53
728.90	267.08
729.23	266.60
729.56	266.17
729.89	265.68
730.22	265.21
730.55	264.74
730.89	264.30
731.22	263.85
731.55	263.42
731.88	262.96
732.21	262.50
732.54	262.06
732.87	261.67
733.20	261.23
733.53	260.82
733.86	260.46
734.19	260.08
734.52	259.69
734.85	259.41
735.18	259.00
735.51	258.65
735.84	258.30
736.17	257.94
736.50	257.52
736.83	257.30
737.16	256.93
737.49	256.56
737.82	256.22
738.15	255.89
738.48	255.56
738.81	255.28
739.14	254.94
739.47	254.65
739.80	254.33
740.13	254.05
740.46	253.75
740.79	253.39
741.12	253.07
741.45	252.78
741.78	252.42
742.11	252.14
742.44	251.79
742.77	251.45
743.10	251.12
743.43	250.86
743.75	250.47
744.08	250.34
744.41	250.08
744.74	249.79
745.07	249.49
745.40	249.21
745.73	248.93
746.06	248.64
746.39	248.34
746.71	248.04
747.04	247.76
747.37	247.45
747.70	247.21
748.03	246.97
748.36	246.74
748.68	246.45
749.01	246.17
749.34	245.97
749.67	245.73
750.00	245.50
750.33	245.32
750.65	245.09
750.98	244.75
751.31	244.53
751.64	244.32
751.97	244.11
752.29	243.90
752.62	243.65
752.95	243.48
753.28	243.26
753.60	243.06
753.93	242.89
754.26	242.73
754.59	242.49
754.91	242.28
755.24	242.02
755.57	241.84
755.90	241.67
756.22	241.48
756.55	241.29
756.88	241.13
757.20	240.88
757.53	240.68
757.86	240.51
758.19	240.35
758.51	240.21
758.84	240.05
759.17	239.88
759.49	239.71
759.82	239.57
760.15	239.42
760.47	239.26
760.80	239.06
761.13	238.92
761.45	238.76
761.78	238.60
762.11	238.50
762.43	238.34
762.76	238.19
763.08	238.03
763.41	237.90
763.74	237.77
764.06	237.68
764.39	237.51
764.71	237.35
765.04	237.21
765.37	237.03
765.69	236.88
766.02	236.75
766.34	236.66
766.67	236.51
767.00	236.42
767.32	236.38
767.65	236.31
767.97	236.19
768.30	236.06
768.62	235.97
768.95	235.85
769.27	235.78
769.60	235.71
769.92	235.60
770.25	235.50
770.57	235.36
770.90	235.25
771.22	235.17
771.55	235.08
771.87	234.99
772.20	234.93
772.52	234.95
772.85	234.95
773.17	234.88
773.50	234.76
773.82	234.67
774.15	234.51
774.47	234.39
774.80	234.30
775.12	234.23
775.45	234.14
775.77	234.07
776.09	233.97
776.42	233.88
776.74	233.83
777.07	233.71
777.39	233.66
777.72	233.54
778.04	233.48
778.36	233.43
778.69	233.37
779.01	233.30
779.33	233.11
779.66	232.94
779.98	232.86
780.31	232.81
780.63	232.77
780.95	232.74
781.28	232.68
781.60	232.61
781.92	232.53
782.25	232.48
782.57	232.40
782.89	232.35
783.22	232.25
783.54	232.18
783.86	232.16
784.19	232.09
784.51	232.10
784.83	232.03
785.16	231.98
785.48	231.94
785.80	231.92
786.12	231.90
786.45	231.87
786.77	231.84
787.09	231.79
