SpectraSuite Data File
++++++++++++++++++++++++++++++++++++
Date: Fri Feb 01 14:59:49 EST 2013
User: group
Dark Spectrum Present: No
Reference Spectrum Present: No
Number of Sampled Component Spectra: 1
Spectrometers: USB2E7196
Integration Time (usec): 35000 (USB2E7196)
Spectra Averaged: 100 (USB2E7196)
Boxcar Smoothing: 10 (USB2E7196)
Correct for Electrical Dark: No (USB2E7196)
Strobe/Lamp Enabled: No (USB2E7196)
Correct for Detector Non-linearity: No (USB2E7196)
Correct for Stray Light: No (USB2E7196)
Number of Pixels in Processed Spectrum: 2048
>>>>>Begin Processed Spectral Data<<<<<
339.09	0.00
339.48	215.31
339.86	216.70
340.24	218.37
340.63	219.93
341.01	222.62
341.39	222.22
341.78	223.89
342.16	224.78
342.54	225.29
342.93	213.54
343.31	224.34
343.69	224.87
344.07	225.37
344.46	225.78
344.84	226.16
345.22	226.40
345.60	226.66
345.99	226.81
346.37	226.94
346.75	227.00
347.13	227.06
347.52	227.10
347.90	227.20
348.28	227.24
348.66	227.26
349.05	227.23
349.43	227.29
349.81	227.31
350.19	227.37
350.57	227.44
350.96	227.52
351.34	227.58
351.72	227.66
352.10	227.70
352.48	227.78
352.87	227.79
353.25	227.80
353.63	227.85
354.01	227.93
354.39	228.01
354.77	228.11
355.15	228.22
355.54	228.28
355.92	228.33
356.30	228.39
356.68	228.53
357.06	228.63
357.44	228.70
357.82	228.78
358.20	228.85
358.58	228.92
358.97	228.96
359.35	229.04
359.73	229.10
360.11	229.18
360.49	229.21
360.87	229.27
361.25	229.34
361.63	229.39
362.01	229.44
362.39	229.47
362.77	229.49
363.15	229.51
363.53	229.53
363.91	229.55
364.29	229.56
364.67	229.47
365.05	229.49
365.43	229.48
365.81	229.50
366.19	229.55
366.57	229.56
366.95	229.53
367.33	229.50
367.71	229.46
368.09	229.44
368.47	229.42
368.85	229.39
369.23	229.39
369.61	229.37
369.99	229.31
370.37	229.28
370.75	229.29
371.13	229.23
371.51	229.16
371.89	229.13
372.27	229.12
372.65	229.05
373.03	228.96
373.41	228.92
373.78	228.85
374.16	228.74
374.54	228.64
374.92	228.57
375.30	228.52
375.68	228.44
376.06	228.37
376.44	228.26
376.82	228.20
377.19	228.10
377.57	228.01
377.95	227.94
378.33	227.87
378.71	227.73
379.09	227.65
379.47	227.63
379.84	227.53
380.22	227.43
380.60	227.38
380.98	227.33
381.36	227.24
381.73	227.17
382.11	227.13
382.49	227.07
382.87	227.03
383.25	226.98
383.62	227.02
384.00	226.97
384.38	226.95
384.76	226.90
385.13	226.88
385.51	226.78
385.89	226.74
386.27	226.69
386.64	226.66
387.02	226.60
387.40	226.52
387.78	226.50
388.15	226.47
388.53	226.43
388.91	226.39
389.29	226.39
389.66	226.39
390.04	226.36
390.42	226.38
390.79	226.37
391.17	226.37
391.55	226.26
391.92	226.25
392.30	226.26
392.68	226.26
393.05	226.28
393.43	226.32
393.81	226.35
394.18	226.35
394.56	226.39
394.94	226.46
395.31	226.51
395.69	226.59
396.06	226.60
396.44	226.67
396.82	226.71
397.19	226.81
397.57	226.86
397.95	226.91
398.32	226.95
398.70	226.99
399.07	227.08
399.45	227.17
399.82	227.23
400.20	227.30
400.58	227.38
400.95	227.43
401.33	227.57
401.70	227.71
402.08	227.83
402.45	227.97
402.83	228.08
403.20	228.20
403.58	228.27
403.95	228.43
404.33	228.56
404.71	228.69
405.08	228.84
405.46	228.99
405.83	229.18
406.21	229.31
406.58	229.52
406.96	229.68
407.33	229.86
407.70	230.08
408.08	230.39
408.45	230.63
408.83	230.83
409.20	231.05
409.58	231.24
409.95	231.51
410.33	231.73
410.70	232.00
411.08	232.27
411.45	232.61
411.82	232.91
412.20	233.26
412.57	233.67
412.95	234.01
413.32	234.42
413.69	234.81
414.07	235.23
414.44	235.67
414.82	236.14
415.19	236.71
415.56	237.25
415.94	237.76
416.31	238.38
416.68	239.06
417.06	239.75
417.43	240.44
417.81	241.20
418.18	241.98
418.55	242.78
418.93	243.66
419.30	244.55
419.67	245.48
420.04	246.42
420.42	247.40
420.79	248.55
421.16	249.69
421.54	250.87
421.91	252.10
422.28	253.38
422.66	254.69
423.03	255.95
423.40	257.28
423.77	258.66
424.15	260.08
424.52	261.54
424.89	263.17
425.26	264.69
425.64	266.13
426.01	267.73
426.38	269.40
426.75	271.12
427.13	272.84
427.50	274.66
427.87	276.50
428.24	278.39
428.61	280.14
428.99	282.08
429.36	284.20
429.73	286.30
430.10	288.32
430.47	290.42
430.85	292.55
431.22	294.78
431.59	297.16
431.96	299.42
432.33	301.89
432.70	304.22
433.08	307.05
433.45	309.70
433.82	312.31
434.19	315.25
434.56	318.02
434.93	320.68
435.30	323.33
435.68	326.27
436.05	329.09
436.42	331.90
436.79	334.38
437.16	337.07
437.53	339.90
437.90	342.70
438.27	345.43
438.64	348.30
439.01	350.93
439.38	353.15
439.75	355.32
440.13	357.86
440.50	360.24
440.87	362.07
441.24	364.03
441.61	366.19
441.98	367.64
442.35	369.48
442.72	371.32
443.09	373.10
443.46	374.13
443.83	374.75
444.20	375.24
444.57	376.14
444.94	376.41
445.31	376.79
445.68	377.17
446.05	377.25
446.42	376.85
446.79	376.45
447.16	376.06
447.53	375.75
447.90	374.60
448.27	373.47
448.64	371.90
449.01	370.74
449.37	368.81
449.74	366.89
450.11	364.67
450.48	362.19
450.85	359.64
451.22	357.45
451.59	355.43
451.96	353.49
452.33	350.87
452.70	348.53
453.07	345.67
453.43	342.75
453.80	339.99
454.17	337.30
454.54	334.75
454.91	332.02
455.28	329.37
455.65	326.85
456.02	324.35
456.38	322.21
456.75	319.53
457.12	317.26
457.49	315.01
457.86	312.82
458.23	310.95
458.59	308.93
458.96	306.84
459.33	304.96
459.70	303.07
460.07	301.53
460.43	299.80
460.80	298.19
461.17	296.72
461.54	295.21
461.91	293.76
462.27	292.28
462.64	291.01
463.01	289.60
463.38	288.31
463.74	286.96
464.11	285.78
464.48	284.73
464.85	283.61
465.21	282.76
465.58	281.83
465.95	280.72
466.32	279.80
466.68	278.88
467.05	277.95
467.42	277.06
467.78	276.12
468.15	275.22
468.52	274.53
468.88	273.67
469.25	272.90
469.62	272.27
469.98	271.58
470.35	270.96
470.72	270.38
471.08	269.67
471.45	269.10
471.82	268.56
472.18	267.95
472.55	267.51
472.92	266.97
473.28	266.46
473.65	266.03
474.02	265.54
474.38	265.19
474.75	264.87
475.11	264.51
475.48	264.26
475.85	264.04
476.21	263.75
476.58	263.55
476.94	263.37
477.31	263.19
477.67	262.99
478.04	262.85
478.41	262.75
478.77	262.83
479.14	262.76
479.50	262.72
479.87	262.80
480.23	262.84
480.60	262.87
480.96	262.97
481.33	263.17
481.69	263.36
482.06	263.57
482.42	263.75
482.79	263.99
483.15	264.30
483.52	264.66
483.88	265.03
484.25	265.41
484.61	265.87
484.98	266.29
485.34	266.91
485.71	267.51
486.07	268.11
486.44	268.68
486.80	269.37
487.17	270.10
487.53	270.88
487.90	271.74
488.26	272.72
488.62	273.70
488.99	274.66
489.35	275.68
489.72	276.75
490.08	277.97
490.44	279.21
490.81	280.58
491.17	281.93
491.54	283.40
491.90	284.93
492.26	286.56
492.63	288.28
492.99	290.01
493.36	291.87
493.72	293.92
494.08	295.97
494.45	298.18
494.81	300.56
495.17	302.97
495.54	305.52
495.90	308.16
496.26	310.95
496.63	313.88
496.99	317.01
497.35	320.29
497.72	323.69
498.08	327.20
498.44	330.80
498.80	334.67
499.17	338.69
499.53	342.83
499.89	347.18
500.26	351.74
500.62	356.38
500.98	361.35
501.34	366.40
501.71	371.69
502.07	377.14
502.43	382.68
502.79	388.51
503.16	394.55
503.52	400.81
503.88	407.21
504.24	413.80
504.60	420.65
504.97	427.76
505.33	435.07
505.69	442.73
506.05	450.49
506.41	458.40
506.78	466.55
507.14	475.02
507.50	483.71
507.86	492.66
508.22	501.83
508.59	511.02
508.95	520.58
509.31	530.35
509.67	540.41
510.03	550.74
510.39	561.23
510.75	572.01
511.12	582.93
511.48	594.16
511.84	605.57
512.20	617.09
512.56	629.01
512.92	641.15
513.28	653.51
513.64	665.95
514.00	678.65
514.37	691.57
514.73	704.67
515.09	717.75
515.45	731.03
515.81	744.61
516.17	758.60
516.53	772.70
516.89	786.95
517.25	801.17
517.61	815.61
517.97	830.07
518.33	844.53
518.69	859.39
519.05	874.45
519.41	889.73
519.77	905.31
520.13	920.76
520.49	936.21
520.85	951.64
521.21	967.49
521.57	983.78
521.93	999.67
522.29	1016.03
522.65	1032.34
523.01	1048.61
523.37	1064.81
523.73	1081.09
524.09	1097.30
524.45	1113.65
524.81	1130.37
525.17	1147.32
525.53	1164.41
525.89	1181.37
526.25	1198.16
526.61	1214.60
526.97	1231.46
527.33	1248.02
527.68	1264.80
528.04	1281.35
528.40	1298.08
528.76	1315.25
529.12	1331.91
529.48	1348.80
529.84	1364.85
530.20	1381.50
530.56	1398.60
530.91	1415.96
531.27	1432.80
531.63	1449.32
531.99	1466.08
532.35	1482.14
532.71	1498.09
533.07	1514.33
533.42	1530.26
533.78	1546.40
534.14	1562.81
534.50	1578.27
534.86	1594.28
535.21	1609.49
535.57	1625.59
535.93	1641.23
536.29	1656.02
536.65	1671.19
537.00	1686.11
537.36	1701.49
537.72	1716.19
538.08	1730.69
538.44	1744.64
538.79	1758.54
539.15	1772.35
539.51	1786.09
539.87	1800.51
540.22	1814.23
540.58	1828.23
540.94	1841.65
541.29	1854.79
541.65	1867.56
542.01	1880.74
542.37	1893.02
542.72	1905.56
543.08	1917.32
543.44	1929.76
543.79	1941.12
544.15	1952.12
544.51	1963.62
544.87	1974.73
545.22	1985.47
545.58	1995.74
545.94	2005.58
546.29	2015.52
546.65	2025.36
547.01	2034.57
547.36	2043.29
547.72	2051.74
548.07	2059.61
548.43	2067.80
548.79	2075.76
549.14	2083.26
549.50	2090.69
549.86	2098.46
550.21	2105.63
550.57	2112.87
550.92	2119.34
551.28	2126.53
551.64	2133.56
551.99	2140.23
552.35	2146.43
552.70	2152.66
553.06	2158.72
553.41	2165.03
553.77	2171.14
554.13	2177.15
554.48	2183.26
554.84	2188.59
555.19	2194.01
555.55	2198.98
555.90	2203.47
556.26	2208.23
556.61	2212.84
556.97	2217.05
557.32	2221.15
557.68	2225.30
558.03	2229.37
558.39	2233.14
558.74	2237.56
559.10	2241.35
559.45	2244.83
559.81	2249.05
560.16	2252.67
560.52	2255.69
560.87	2259.16
561.23	2261.61
561.58	2264.62
561.94	2267.10
562.29	2269.64
562.64	2272.23
563.00	2274.79
563.35	2278.32
563.71	2281.50
564.06	2284.70
564.42	2287.35
564.77	2289.70
565.12	2291.96
565.48	2293.76
565.83	2295.32
566.19	2296.33
566.54	2297.25
566.89	2298.21
567.25	2298.70
567.60	2300.01
567.96	2301.49
568.31	2302.14
568.66	2303.01
569.02	2303.41
569.37	2303.66
569.72	2304.16
570.08	2304.03
570.43	2303.95
570.78	2302.91
571.14	2301.18
571.49	2299.66
571.84	2299.28
572.20	2297.96
572.55	2296.71
572.90	2295.06
573.26	2293.53
573.61	2291.82
573.96	2289.89
574.31	2286.79
574.67	2283.54
575.02	2279.70
575.37	2276.30
575.72	2272.27
576.08	2268.89
576.43	2265.39
576.78	2261.54
577.13	2258.29
577.49	2255.18
577.84	2251.48
578.19	2247.82
578.54	2243.86
578.90	2239.34
579.25	2233.62
579.60	2228.43
579.95	2223.28
580.30	2218.09
580.66	2212.75
581.01	2207.60
581.36	2202.59
581.71	2198.30
582.06	2193.70
582.42	2189.07
582.77	2183.64
583.12	2178.87
583.47	2173.94
583.82	2168.78
584.17	2163.33
584.53	2157.71
584.88	2151.91
585.23	2145.94
585.58	2140.36
585.93	2134.98
586.28	2130.32
586.63	2125.20
586.98	2120.13
587.34	2115.42
587.69	2110.46
588.04	2105.24
588.39	2099.53
588.74	2092.96
589.09	2086.70
589.44	2079.84
589.79	2073.75
590.14	2068.10
590.49	2061.48
590.84	2054.92
591.19	2048.79
591.54	2042.29
591.89	2034.84
592.25	2027.89
592.60	2020.58
592.95	2012.76
593.30	2005.32
593.65	1997.53
594.00	1990.41
594.35	1983.07
594.70	1974.84
595.05	1967.50
595.40	1960.19
595.75	1952.64
596.10	1946.12
596.45	1939.27
596.80	1932.97
597.15	1926.30
597.50	1919.00
597.85	1912.55
598.19	1905.91
598.54	1898.69
598.89	1891.98
599.24	1885.95
599.59	1879.15
599.94	1873.01
600.29	1866.73
600.64	1859.94
600.99	1852.43
601.34	1845.52
601.69	1838.46
602.04	1831.57
602.39	1824.24
602.74	1817.22
603.08	1810.42
603.43	1803.82
603.78	1796.54
604.13	1789.34
604.48	1782.02
604.83	1775.26
605.18	1768.19
605.53	1760.12
605.87	1752.19
606.22	1744.96
606.57	1737.13
606.92	1729.76
607.27	1722.46
607.62	1715.51
607.96	1708.24
608.31	1701.58
608.66	1693.97
609.01	1686.41
609.36	1678.86
609.70	1670.88
610.05	1662.80
610.40	1655.09
610.75	1646.67
611.10	1639.04
611.44	1630.72
611.79	1622.69
612.14	1613.99
612.49	1604.88
612.83	1596.60
613.18	1588.56
613.53	1580.44
613.88	1571.85
614.22	1563.72
614.57	1555.26
614.92	1547.29
615.27	1539.83
615.61	1531.58
615.96	1523.51
616.31	1515.91
616.65	1508.55
617.00	1500.96
617.35	1493.35
617.70	1484.93
618.04	1476.53
618.39	1468.34
618.74	1460.72
619.08	1452.50
619.43	1444.96
619.78	1438.05
620.12	1430.93
620.47	1423.32
620.82	1415.32
621.16	1408.00
621.51	1400.40
621.85	1392.91
622.20	1384.38
622.55	1376.05
622.89	1368.26
623.24	1360.93
623.59	1353.70
623.93	1346.22
624.28	1339.01
624.62	1331.65
624.97	1324.68
625.32	1317.96
625.66	1310.90
626.01	1303.72
626.35	1296.25
626.70	1288.64
627.04	1281.07
627.39	1273.34
627.73	1266.02
628.08	1259.13
628.43	1251.74
628.77	1244.35
629.12	1236.77
629.46	1229.65
629.81	1222.42
630.15	1215.13
630.50	1207.58
630.84	1199.38
631.19	1191.44
631.53	1184.04
631.88	1176.52
632.22	1168.91
632.57	1161.66
632.91	1154.25
633.26	1146.83
633.60	1139.56
633.95	1132.47
634.29	1125.42
634.64	1118.67
634.98	1111.33
635.32	1104.12
635.67	1097.70
636.01	1091.20
636.36	1084.42
636.70	1077.98
637.05	1071.35
637.39	1065.05
637.73	1058.59
638.08	1052.80
638.42	1046.82
638.77	1040.39
639.11	1033.76
639.45	1027.43
639.80	1020.78
640.14	1014.28
640.49	1007.81
640.83	1001.56
641.17	995.39
641.52	989.07
641.86	982.77
642.20	976.98
642.55	970.85
642.89	964.34
643.23	957.79
643.58	951.94
643.92	945.71
644.26	939.71
644.61	933.73
644.95	927.77
645.29	921.12
645.64	914.46
645.98	908.15
646.32	902.45
646.66	896.48
647.01	890.74
647.35	885.10
647.69	879.31
648.04	873.79
648.38	867.97
648.72	862.01
649.06	855.99
649.41	850.10
649.75	844.05
650.09	838.07
650.43	832.31
650.78	826.26
651.12	820.38
651.46	814.57
651.80	808.81
652.14	803.42
652.49	798.13
652.83	792.97
653.17	787.26
653.51	781.51
653.85	776.13
654.20	770.46
654.54	764.50
654.88	758.89
655.22	753.00
655.56	747.34
655.90	741.91
656.25	736.73
656.59	731.42
656.93	726.45
657.27	721.39
657.61	715.96
657.95	710.94
658.29	705.87
658.64	700.73
658.98	695.51
659.32	690.06
659.66	684.91
660.00	679.61
660.34	674.78
660.68	669.90
661.02	664.86
661.36	660.23
661.70	655.82
662.05	651.43
662.39	647.19
662.73	642.80
663.07	638.50
663.41	634.04
663.75	629.61
664.09	625.04
664.43	620.67
664.77	616.62
665.11	612.38
665.45	608.40
665.79	604.32
666.13	600.17
666.47	596.07
666.81	591.90
667.15	587.81
667.49	583.98
667.83	580.25
668.17	576.34
668.51	572.30
668.85	568.29
669.19	564.48
669.53	560.63
669.87	556.78
670.21	553.07
670.55	549.46
670.89	546.01
671.23	542.58
671.57	539.13
671.91	535.56
672.25	532.04
672.58	528.50
672.92	525.20
673.26	522.13
673.60	519.09
673.94	516.03
674.28	513.24
674.62	510.24
674.96	507.07
675.30	504.19
675.64	501.34
675.97	498.61
676.31	495.74
676.65	492.83
676.99	490.11
677.33	487.26
677.67	484.47
678.01	481.46
678.34	478.48
678.68	475.64
679.02	472.94
679.36	470.26
679.70	467.48
680.04	464.68
680.37	461.87
680.71	459.03
681.05	456.46
681.39	453.71
681.73	451.09
682.06	448.64
682.40	446.14
682.74	443.57
683.08	441.03
683.42	438.52
683.75	436.07
684.09	433.56
684.43	431.11
684.77	428.69
685.10	426.39
685.44	424.18
685.78	421.89
686.12	419.61
686.45	417.36
686.79	415.13
687.13	412.94
687.46	410.74
687.80	408.63
688.14	406.44
688.48	404.39
688.81	402.15
689.15	400.03
689.49	397.88
689.82	395.84
690.16	393.76
690.50	391.77
690.83	389.82
691.17	387.89
691.51	385.99
691.84	384.15
692.18	382.20
692.52	380.22
692.85	378.32
693.19	376.49
693.52	374.65
693.86	372.89
694.20	371.18
694.53	369.38
694.87	367.54
695.21	365.74
695.54	363.90
695.88	362.24
696.21	360.45
696.55	358.77
696.88	357.10
697.22	355.50
697.56	353.92
697.89	352.30
698.23	350.67
698.56	349.08
698.90	347.44
699.23	345.81
699.57	344.23
699.90	342.71
700.24	341.15
700.58	339.63
700.91	338.10
701.25	336.63
701.58	335.28
701.92	333.94
702.25	332.59
702.59	331.25
702.92	329.93
703.26	328.68
703.59	327.42
703.93	326.26
704.26	324.99
704.60	323.73
704.93	322.43
705.26	321.20
705.60	320.04
705.93	318.94
706.27	317.91
706.60	316.91
706.94	315.80
707.27	314.69
707.61	313.66
707.94	312.64
708.27	311.57
708.61	310.49
708.94	309.48
709.28	308.48
709.61	307.55
709.94	306.61
710.28	305.61
710.61	304.61
710.95	303.54
711.28	302.70
711.61	301.70
711.95	300.83
712.28	299.90
712.61	298.89
712.95	297.94
713.28	297.09
713.61	296.14
713.95	295.30
714.28	294.46
714.61	293.57
714.95	292.74
715.28	291.91
715.61	291.05
715.95	290.22
716.28	289.42
716.61	288.62
716.95	287.80
717.28	287.09
717.61	286.33
717.94	285.63
718.28	284.77
718.61	284.07
718.94	283.36
719.27	282.71
719.61	282.15
719.94	281.52
720.27	280.84
720.60	280.22
720.94	279.61
721.27	279.04
721.60	278.47
721.93	277.86
722.27	277.30
722.60	276.75
722.93	276.20
723.26	275.62
723.59	275.04
723.93	274.53
724.26	273.97
724.59	273.44
724.92	272.90
725.25	272.45
725.59	271.95
725.92	271.44
726.25	270.93
726.58	270.42
726.91	269.91
727.24	269.38
727.57	268.93
727.91	268.39
728.24	267.91
728.57	267.39
728.90	266.94
729.23	266.47
729.56	266.08
729.89	265.59
730.22	265.15
730.55	264.72
730.89	264.23
731.22	263.80
731.55	263.38
731.88	262.95
732.21	262.48
732.54	262.05
732.87	261.63
733.20	261.26
733.53	260.89
733.86	260.50
734.19	260.12
734.52	259.70
734.85	259.41
735.18	259.05
735.51	258.70
735.84	258.31
736.17	257.96
736.50	257.52
736.83	257.29
737.16	256.92
737.49	256.50
737.82	256.11
738.15	255.71
738.48	255.34
738.81	254.99
739.14	254.71
739.47	254.37
739.80	254.05
740.13	253.74
740.46	253.38
740.79	253.03
741.12	252.75
741.45	252.47
741.78	252.09
742.11	251.77
742.44	251.42
742.77	251.16
743.10	250.85
743.43	250.57
743.75	250.20
744.08	250.04
744.41	249.79
744.74	249.57
745.07	249.30
745.40	249.05
745.73	248.84
746.06	248.53
746.39	248.28
746.71	247.99
747.04	247.69
747.37	247.42
747.70	247.20
748.03	246.95
748.36	246.73
748.68	246.52
749.01	246.25
749.34	246.04
749.67	245.80
750.00	245.58
750.33	245.43
750.65	245.21
750.98	244.90
751.31	244.71
751.64	244.47
751.97	244.33
752.29	244.09
752.62	243.81
752.95	243.60
753.28	243.40
753.60	243.20
753.93	243.01
754.26	242.83
754.59	242.64
754.91	242.43
755.24	242.22
755.57	242.03
755.90	241.84
756.22	241.67
756.55	241.50
756.88	241.29
757.20	241.08
757.53	240.90
757.86	240.74
758.19	240.58
758.51	240.43
758.84	240.23
759.17	240.10
759.49	240.00
759.82	239.89
760.15	239.72
760.47	239.62
760.80	239.48
761.13	239.36
761.45	239.17
761.78	239.02
762.11	238.89
762.43	238.78
762.76	238.63
763.08	238.49
763.41	238.36
763.74	238.23
764.06	238.06
764.39	237.94
764.71	237.80
765.04	237.67
765.37	237.57
765.69	237.45
766.02	237.30
766.34	237.16
766.67	237.04
767.00	236.95
767.32	236.89
767.65	236.83
767.97	236.71
768.30	236.63
768.62	236.52
768.95	236.40
769.27	236.26
769.60	236.20
769.92	236.08
770.25	235.93
770.57	235.84
770.90	235.73
771.22	235.62
771.55	235.51
771.87	235.40
772.20	235.27
772.52	235.26
772.85	235.28
773.17	235.18
773.50	235.08
773.82	234.97
774.15	234.80
774.47	234.65
774.80	234.54
775.12	234.44
775.45	234.37
775.77	234.28
776.09	234.19
776.42	234.10
776.74	234.05
777.07	233.98
777.39	233.90
777.72	233.80
778.04	233.72
778.36	233.62
778.69	233.51
779.01	233.44
779.33	233.26
779.66	233.09
779.98	233.00
780.31	232.92
780.63	232.88
780.95	232.85
781.28	232.79
781.60	232.71
781.92	232.66
782.25	232.59
782.57	232.52
782.89	232.46
783.22	232.40
783.54	232.34
783.86	232.29
784.19	232.25
784.51	232.25
784.83	232.17
785.16	232.11
785.48	232.09
785.80	232.02
786.12	232.01
786.45	231.98
786.77	231.97
787.09	231.92
