SpectraSuite Data File
++++++++++++++++++++++++++++++++++++
Date: Fri Feb 01 16:45:50 EST 2013
User: group
Dark Spectrum Present: No
Reference Spectrum Present: No
Number of Sampled Component Spectra: 1
Spectrometers: USB2E7196
Integration Time (usec): 35000 (USB2E7196)
Spectra Averaged: 100 (USB2E7196)
Boxcar Smoothing: 10 (USB2E7196)
Correct for Electrical Dark: No (USB2E7196)
Strobe/Lamp Enabled: No (USB2E7196)
Correct for Detector Non-linearity: No (USB2E7196)
Correct for Stray Light: No (USB2E7196)
Number of Pixels in Processed Spectrum: 2048
>>>>>Begin Processed Spectral Data<<<<<
339.09	0.00
339.48	212.98
339.86	214.53
340.24	216.04
340.63	217.33
341.01	220.65
341.39	219.84
341.78	221.36
342.16	222.16
342.54	223.00
342.93	211.49
343.31	222.18
343.69	222.71
344.07	223.17
344.46	223.57
344.84	223.96
345.22	224.17
345.60	224.44
345.99	224.61
346.37	224.76
346.75	224.84
347.13	224.87
347.52	224.97
347.90	225.06
348.28	225.04
348.66	225.10
349.05	225.06
349.43	225.11
349.81	225.20
350.19	225.25
350.57	225.33
350.96	225.40
351.34	225.49
351.72	225.59
352.10	225.71
352.48	225.78
352.87	225.83
353.25	225.89
353.63	225.93
354.01	226.00
354.39	226.06
354.77	226.17
355.15	226.31
355.54	226.39
355.92	226.45
356.30	226.52
356.68	226.65
357.06	226.75
357.44	226.79
357.82	226.79
358.20	226.88
358.58	226.94
358.97	227.02
359.35	227.07
359.73	227.14
360.11	227.20
360.49	227.32
360.87	227.41
361.25	227.50
361.63	227.60
362.01	227.69
362.39	227.75
362.77	227.79
363.15	227.80
363.53	227.80
363.91	227.79
364.29	227.82
364.67	227.72
365.05	227.75
365.43	227.79
365.81	227.88
366.19	227.91
366.57	227.97
366.95	227.94
367.33	227.94
367.71	227.93
368.09	227.92
368.47	227.87
368.85	227.82
369.23	227.81
369.61	227.76
369.99	227.72
370.37	227.71
370.75	227.74
371.13	227.70
371.51	227.68
371.89	227.69
372.27	227.66
372.65	227.66
373.03	227.59
373.41	227.55
373.78	227.49
374.16	227.40
374.54	227.34
374.92	227.28
375.30	227.22
375.68	227.14
376.06	227.12
376.44	227.04
376.82	226.99
377.19	226.91
377.57	226.86
377.95	226.79
378.33	226.70
378.71	226.57
379.09	226.51
379.47	226.46
379.84	226.35
380.22	226.25
380.60	226.16
380.98	226.10
381.36	226.02
381.73	225.95
382.11	225.90
382.49	225.77
382.87	225.73
383.25	225.65
383.62	225.74
384.00	225.64
384.38	225.59
384.76	225.57
385.13	225.55
385.51	225.49
385.89	225.43
386.27	225.41
386.64	225.37
387.02	225.33
387.40	225.29
387.78	225.28
388.15	225.27
388.53	225.25
388.91	225.22
389.29	225.17
389.66	225.15
390.04	225.11
390.42	225.13
390.79	225.08
391.17	225.09
391.55	224.97
391.92	224.96
392.30	224.95
392.68	224.92
393.05	224.92
393.43	224.92
393.81	224.96
394.18	224.93
394.56	224.95
394.94	225.01
395.31	225.00
395.69	225.04
396.06	225.08
396.44	225.13
396.82	225.14
397.19	225.26
397.57	225.29
397.95	225.35
398.32	225.41
398.70	225.49
399.07	225.56
399.45	225.59
399.82	225.64
400.20	225.70
400.58	225.75
400.95	225.77
401.33	225.85
401.70	225.97
402.08	226.07
402.45	226.15
402.83	226.24
403.20	226.34
403.58	226.43
403.95	226.51
404.33	226.61
404.71	226.78
405.08	226.92
405.46	227.05
405.83	227.18
406.21	227.27
406.58	227.41
406.96	227.56
407.33	227.73
407.70	227.96
408.08	228.20
408.45	228.43
408.83	228.67
409.20	228.90
409.58	229.09
409.95	229.35
410.33	229.62
410.70	229.87
411.08	230.20
411.45	230.49
411.82	230.85
412.20	231.20
412.57	231.57
412.95	231.86
413.32	232.25
413.69	232.66
414.07	233.12
414.44	233.61
414.82	234.07
415.19	234.64
415.56	235.15
415.94	235.68
416.31	236.29
416.68	236.88
417.06	237.58
417.43	238.21
417.81	238.98
418.18	239.73
418.55	240.54
418.93	241.39
419.30	242.26
419.67	243.16
420.04	244.09
420.42	245.07
420.79	246.25
421.16	247.43
421.54	248.60
421.91	249.76
422.28	250.98
422.66	252.32
423.03	253.61
423.40	254.96
423.77	256.38
424.15	257.75
424.52	259.24
424.89	260.84
425.26	262.42
425.64	263.85
426.01	265.42
426.38	267.10
426.75	268.79
427.13	270.50
427.50	272.26
427.87	274.12
428.24	275.96
428.61	277.68
428.99	279.56
429.36	281.66
429.73	283.74
430.10	285.74
430.47	287.76
430.85	289.85
431.22	292.01
431.59	294.39
431.96	296.65
432.33	299.10
432.70	301.41
433.08	304.20
433.45	306.83
433.82	309.42
434.19	312.26
434.56	315.01
434.93	317.67
435.30	320.29
435.68	323.19
436.05	325.98
436.42	328.73
436.79	331.19
437.16	333.84
437.53	336.62
437.90	339.46
438.27	342.18
438.64	345.02
439.01	347.63
439.38	349.83
439.75	351.98
440.13	354.44
440.50	356.76
440.87	358.57
441.24	360.46
441.61	362.65
441.98	364.16
442.35	365.96
442.72	367.79
443.09	369.58
443.46	370.53
443.83	371.11
444.20	371.67
444.57	372.57
444.94	372.85
445.31	373.23
445.68	373.56
446.05	373.62
446.42	373.21
446.79	372.81
447.16	372.42
447.53	372.13
447.90	371.02
448.27	369.90
448.64	368.33
449.01	367.23
449.37	365.28
449.74	363.40
450.11	361.19
450.48	358.74
450.85	356.25
451.22	354.15
451.59	352.22
451.96	350.30
452.33	347.69
452.70	345.37
453.07	342.54
453.43	339.68
453.80	336.97
454.17	334.31
454.54	331.79
454.91	329.10
455.28	326.45
455.65	323.98
456.02	321.61
456.38	319.53
456.75	316.88
457.12	314.64
457.49	312.43
457.86	310.26
458.23	308.43
458.59	306.43
458.96	304.37
459.33	302.49
459.70	300.65
460.07	299.19
460.43	297.49
460.80	295.90
461.17	294.49
461.54	293.03
461.91	291.61
462.27	290.19
462.64	288.90
463.01	287.54
463.38	286.28
463.74	284.89
464.11	283.73
464.48	282.72
464.85	281.62
465.21	280.77
465.58	279.89
465.95	278.82
466.32	277.93
466.68	277.04
467.05	276.17
467.42	275.31
467.78	274.39
468.15	273.50
468.52	272.83
468.88	271.96
469.25	271.17
469.62	270.58
469.98	269.87
470.35	269.30
470.72	268.69
471.08	268.05
471.45	267.51
471.82	266.96
472.18	266.36
472.55	265.93
472.92	265.39
473.28	264.89
473.65	264.44
474.02	263.98
474.38	263.64
474.75	263.29
475.11	262.89
475.48	262.61
475.85	262.42
476.21	262.21
476.58	262.03
476.94	261.89
477.31	261.71
477.67	261.59
478.04	261.47
478.41	261.43
478.77	261.47
479.14	261.40
479.50	261.40
479.87	261.49
480.23	261.55
480.60	261.65
480.96	261.75
481.33	261.94
481.69	262.13
482.06	262.32
482.42	262.56
482.79	262.83
483.15	263.18
483.52	263.53
483.88	263.85
484.25	264.26
484.61	264.72
484.98	265.21
485.34	265.78
485.71	266.35
486.07	266.99
486.44	267.53
486.80	268.26
487.17	269.01
487.53	269.81
487.90	270.69
488.26	271.62
488.62	272.62
488.99	273.62
489.35	274.66
489.72	275.77
490.08	276.98
490.44	278.24
490.81	279.59
491.17	280.98
491.54	282.49
491.90	284.05
492.26	285.69
492.63	287.39
492.99	289.16
493.36	291.08
493.72	293.08
494.08	295.24
494.45	297.50
494.81	299.85
495.17	302.27
495.54	304.83
495.90	307.51
496.26	310.35
496.63	313.35
496.99	316.48
497.35	319.75
497.72	323.15
498.08	326.72
498.44	330.38
498.80	334.33
499.17	338.40
499.53	342.59
499.89	346.97
500.26	351.47
500.62	356.14
500.98	361.13
501.34	366.22
501.71	371.51
502.07	376.92
502.43	382.56
502.79	388.42
503.16	394.50
503.52	400.74
503.88	407.11
504.24	413.69
504.60	420.56
504.97	427.74
505.33	434.99
505.69	442.65
506.05	450.42
506.41	458.23
506.78	466.37
507.14	474.78
507.50	483.43
507.86	492.45
508.22	501.62
508.59	510.75
508.95	520.25
509.31	530.07
509.67	540.18
510.03	550.46
510.39	561.00
510.75	571.69
511.12	582.63
511.48	593.90
511.84	605.33
512.20	616.79
512.56	628.63
512.92	640.78
513.28	653.03
513.64	665.49
514.00	678.24
514.37	691.05
514.73	704.05
515.09	717.06
515.45	730.27
515.81	743.77
516.17	757.67
516.53	771.74
516.89	785.82
517.25	799.86
517.61	814.12
517.97	828.37
518.33	842.76
518.69	857.33
519.05	872.23
519.41	887.26
519.77	902.63
520.13	917.98
520.49	933.25
520.85	948.56
521.21	964.05
521.57	980.11
521.93	995.77
522.29	1011.95
522.65	1028.02
523.01	1044.02
523.37	1059.89
523.73	1075.90
524.09	1091.78
524.45	1107.90
524.81	1124.50
525.17	1141.21
525.53	1157.99
525.89	1174.76
526.25	1191.62
526.61	1207.78
526.97	1224.33
527.33	1240.71
527.68	1257.04
528.04	1273.33
528.40	1289.65
528.76	1306.52
529.12	1322.87
529.48	1339.66
529.84	1355.42
530.20	1371.92
530.56	1388.88
530.91	1406.26
531.27	1422.90
531.63	1439.28
531.99	1455.63
532.35	1471.27
532.71	1486.98
533.07	1503.03
533.42	1518.76
533.78	1534.54
534.14	1550.78
534.50	1566.01
534.86	1581.68
535.21	1596.85
535.57	1612.53
535.93	1627.91
536.29	1642.49
536.65	1657.36
537.00	1671.83
537.36	1687.13
537.72	1701.52
538.08	1715.66
538.44	1729.15
538.79	1742.83
539.15	1756.26
539.51	1769.78
539.87	1784.03
540.22	1797.53
540.58	1811.15
540.94	1824.27
541.29	1836.90
541.65	1849.27
542.01	1862.27
542.37	1874.44
542.72	1886.57
543.08	1898.36
543.44	1910.56
543.79	1921.73
544.15	1932.58
544.51	1944.15
544.87	1954.90
545.22	1965.49
545.58	1975.56
545.94	1985.24
546.29	1995.08
546.65	2004.99
547.01	2014.30
547.36	2022.90
547.72	2031.31
548.07	2039.16
548.43	2047.22
548.79	2055.19
549.14	2062.70
549.50	2069.87
549.86	2077.49
550.21	2084.87
550.57	2091.81
550.92	2098.44
551.28	2105.54
551.64	2112.60
551.99	2118.86
552.35	2124.93
552.70	2131.10
553.06	2137.14
553.41	2143.44
553.77	2149.30
554.13	2155.13
554.48	2161.33
554.84	2166.76
555.19	2171.98
555.55	2177.16
555.90	2181.76
556.26	2186.74
556.61	2191.42
556.97	2195.86
557.32	2199.98
557.68	2204.01
558.03	2208.29
558.39	2211.79
558.74	2216.32
559.10	2220.15
559.45	2223.92
559.81	2228.23
560.16	2232.12
560.52	2235.32
560.87	2238.78
561.23	2241.38
561.58	2244.25
561.94	2246.65
562.29	2248.92
562.64	2251.58
563.00	2254.11
563.35	2257.36
563.71	2260.40
564.06	2263.66
564.42	2266.57
564.77	2269.13
565.12	2271.45
565.48	2273.48
565.83	2275.65
566.19	2277.09
566.54	2278.11
566.89	2279.34
567.25	2280.04
567.60	2281.40
567.96	2283.14
568.31	2283.95
568.66	2285.25
569.02	2286.10
569.37	2286.53
569.72	2287.63
570.08	2287.95
570.43	2287.98
570.78	2287.73
571.14	2286.22
571.49	2284.91
571.84	2284.65
572.20	2283.69
572.55	2282.85
572.90	2281.41
573.26	2280.03
573.61	2278.39
573.96	2276.74
574.31	2273.95
574.67	2271.04
575.02	2267.39
575.37	2264.17
575.72	2260.55
576.08	2257.31
576.43	2253.99
576.78	2250.36
577.13	2247.18
577.49	2244.08
577.84	2240.87
578.19	2237.11
578.54	2233.78
578.90	2229.68
579.25	2224.20
579.60	2219.35
579.95	2214.30
580.30	2209.27
580.66	2204.23
581.01	2199.33
581.36	2194.46
581.71	2190.26
582.06	2186.00
582.42	2181.66
582.77	2176.52
583.12	2172.09
583.47	2167.54
583.82	2162.77
584.17	2157.74
584.53	2152.38
584.88	2146.90
585.23	2141.21
585.58	2135.75
585.93	2130.34
586.28	2125.62
586.63	2120.70
586.98	2115.69
587.34	2111.14
587.69	2106.47
588.04	2101.40
588.39	2095.88
588.74	2089.52
589.09	2083.53
589.44	2076.73
589.79	2070.75
590.14	2065.21
590.49	2058.66
590.84	2052.27
591.19	2046.32
591.54	2039.98
591.89	2032.81
592.25	2026.13
592.60	2019.05
592.95	2011.74
593.30	2004.50
593.65	1997.02
594.00	1990.12
594.35	1982.87
594.70	1974.79
595.05	1967.80
595.40	1960.59
595.75	1953.16
596.10	1947.09
596.45	1940.52
596.80	1934.62
597.15	1928.20
597.50	1921.15
597.85	1914.73
598.19	1908.23
598.54	1901.24
598.89	1894.59
599.24	1888.76
599.59	1882.21
599.94	1876.02
600.29	1869.76
600.64	1863.13
600.99	1855.92
601.34	1849.13
601.69	1842.35
602.04	1835.81
602.39	1828.36
602.74	1821.70
603.08	1815.07
603.43	1808.34
603.78	1801.05
604.13	1793.84
604.48	1786.63
604.83	1779.92
605.18	1773.23
605.53	1765.33
605.87	1757.28
606.22	1750.12
606.57	1742.22
606.92	1734.93
607.27	1727.84
607.62	1720.98
607.96	1713.92
608.31	1707.24
608.66	1699.64
609.01	1692.24
609.36	1684.56
609.70	1676.74
610.05	1668.55
610.40	1660.73
610.75	1652.53
611.10	1644.95
611.44	1636.47
611.79	1628.48
612.14	1619.81
612.49	1610.55
612.83	1602.24
613.18	1594.14
613.53	1586.04
613.88	1577.46
614.22	1569.19
614.57	1560.54
614.92	1552.44
615.27	1545.03
615.61	1536.81
615.96	1528.84
616.31	1521.05
616.65	1513.80
617.00	1506.14
617.35	1498.56
617.70	1490.32
618.04	1481.75
618.39	1473.51
618.74	1465.96
619.08	1457.76
619.43	1450.22
619.78	1443.43
620.12	1436.22
620.47	1428.82
620.82	1420.64
621.16	1413.27
621.51	1405.66
621.85	1398.08
622.20	1389.68
622.55	1381.11
622.89	1373.27
623.24	1365.53
623.59	1358.14
623.93	1350.51
624.28	1343.30
624.62	1335.82
624.97	1328.77
625.32	1321.99
625.66	1315.00
626.01	1307.93
626.35	1300.52
626.70	1292.76
627.04	1285.08
627.39	1277.29
627.73	1269.88
628.08	1263.13
628.43	1255.87
628.77	1248.50
629.12	1240.93
629.46	1233.71
629.81	1226.23
630.15	1219.04
630.50	1211.72
630.84	1203.57
631.19	1195.66
631.53	1188.15
631.88	1180.51
632.22	1172.90
632.57	1165.67
632.91	1158.10
633.26	1150.65
633.60	1143.23
633.95	1136.19
634.29	1129.11
634.64	1122.50
634.98	1115.21
635.32	1108.02
635.67	1101.41
636.01	1094.89
636.36	1088.10
636.70	1081.56
637.05	1075.09
637.39	1068.55
637.73	1062.04
638.08	1056.13
638.42	1050.29
638.77	1043.94
639.11	1037.50
639.45	1031.19
639.80	1024.54
640.14	1018.19
640.49	1011.66
640.83	1005.37
641.17	999.10
641.52	992.70
641.86	986.09
642.20	980.18
642.55	973.79
642.89	967.28
643.23	960.64
643.58	954.93
643.92	948.77
644.26	942.72
644.61	936.76
644.95	930.80
645.29	924.27
645.64	917.48
645.98	911.12
646.32	905.23
646.66	899.13
647.01	893.37
647.35	887.63
647.69	881.75
648.04	876.17
648.38	870.34
648.72	864.41
649.06	858.42
649.41	852.57
649.75	846.67
650.09	840.78
650.43	835.07
650.78	828.94
651.12	822.96
651.46	817.26
651.80	811.46
652.14	806.07
652.49	800.68
652.83	795.50
653.17	789.87
653.51	784.11
653.85	778.69
654.20	773.01
654.54	767.02
654.88	761.30
655.22	755.44
655.56	749.73
655.90	744.29
656.25	739.13
656.59	733.73
656.93	728.63
657.27	723.48
657.61	718.01
657.95	712.85
658.29	707.87
658.64	702.64
658.98	697.33
659.32	691.84
659.66	686.64
660.00	681.35
660.34	676.33
660.68	671.43
661.02	666.41
661.36	661.70
661.70	657.14
662.05	652.83
662.39	648.54
662.73	644.10
663.07	639.69
663.41	635.15
663.75	630.63
664.09	626.05
664.43	621.63
664.77	617.56
665.11	613.37
665.45	609.15
665.79	605.06
666.13	601.02
666.47	596.91
666.81	592.78
667.15	588.65
667.49	584.77
667.83	580.95
668.17	577.05
668.51	572.96
668.85	568.96
669.19	565.17
669.53	561.31
669.87	557.42
670.21	553.71
670.55	550.09
670.89	546.67
671.23	543.24
671.57	539.78
671.91	536.20
672.25	532.63
672.58	529.10
672.92	525.70
673.26	522.48
673.60	519.34
673.94	516.24
674.28	513.32
674.62	510.35
674.96	507.26
675.30	504.32
675.64	501.43
675.97	498.65
676.31	495.73
676.65	492.83
676.99	490.19
677.33	487.36
677.67	484.58
678.01	481.61
678.34	478.66
678.68	475.74
679.02	472.94
679.36	470.26
679.70	467.61
680.04	464.85
680.37	462.00
680.71	459.25
681.05	456.62
681.39	453.89
681.73	451.21
682.06	448.69
682.40	446.17
682.74	443.60
683.08	441.06
683.42	438.46
683.75	435.91
684.09	433.33
684.43	430.85
684.77	428.38
685.10	426.01
685.44	423.75
685.78	421.52
686.12	419.24
686.45	416.91
686.79	414.64
687.13	412.50
687.46	410.32
687.80	408.12
688.14	405.95
688.48	403.90
688.81	401.67
689.15	399.48
689.49	397.33
689.82	395.28
690.16	393.22
690.50	391.31
690.83	389.38
691.17	387.42
691.51	385.52
691.84	383.67
692.18	381.76
692.52	379.73
692.85	377.71
693.19	375.85
693.52	374.00
693.86	372.12
694.20	370.29
694.53	368.54
694.87	366.71
695.21	364.88
695.54	363.02
695.88	361.31
696.21	359.65
696.55	357.95
696.88	356.28
697.22	354.59
697.56	352.94
697.89	351.33
698.23	349.70
698.56	348.11
698.90	346.53
699.23	344.90
699.57	343.39
699.90	341.91
700.24	340.38
700.58	338.90
700.91	337.44
701.25	336.00
701.58	334.65
701.92	333.28
702.25	331.91
702.59	330.61
702.92	329.33
703.26	327.96
703.59	326.71
703.93	325.55
704.26	324.28
704.60	322.97
704.93	321.66
705.26	320.42
705.60	319.19
705.93	318.04
706.27	316.98
706.60	315.93
706.94	314.83
707.27	313.68
707.61	312.58
707.94	311.55
708.27	310.43
708.61	309.32
708.94	308.31
709.28	307.34
709.61	306.34
709.94	305.36
710.28	304.39
710.61	303.38
710.95	302.28
711.28	301.39
711.61	300.43
711.95	299.52
712.28	298.60
712.61	297.66
712.95	296.70
713.28	295.83
713.61	294.92
713.95	294.06
714.28	293.22
714.61	292.36
714.95	291.50
715.28	290.66
715.61	289.79
715.95	288.94
716.28	288.11
716.61	287.27
716.95	286.44
717.28	285.66
717.61	284.88
717.94	284.11
718.28	283.29
718.61	282.59
718.94	281.88
719.27	281.19
719.61	280.52
719.94	279.86
720.27	279.11
720.60	278.41
720.94	277.76
721.27	277.15
721.60	276.60
721.93	276.01
722.27	275.47
722.60	274.92
722.93	274.33
723.26	273.77
723.59	273.19
723.93	272.63
724.26	272.08
724.59	271.52
724.92	271.02
725.25	270.53
725.59	270.00
725.92	269.49
726.25	268.97
726.58	268.49
726.91	268.02
727.24	267.56
727.57	267.07
727.91	266.56
728.24	266.10
728.57	265.60
728.90	265.16
729.23	264.67
729.56	264.24
729.89	263.79
730.22	263.26
730.55	262.81
730.89	262.36
731.22	261.91
731.55	261.53
731.88	261.13
732.21	260.72
732.54	260.30
732.87	259.89
733.20	259.49
733.53	259.11
733.86	258.72
734.19	258.32
734.52	257.96
734.85	257.65
735.18	257.23
735.51	256.86
735.84	256.46
736.17	256.13
736.50	255.71
736.83	255.49
737.16	255.23
737.49	254.87
737.82	254.56
738.15	254.26
738.48	253.88
738.81	253.50
739.14	253.18
739.47	252.88
739.80	252.59
740.13	252.27
740.46	251.92
740.79	251.60
741.12	251.30
741.45	251.01
741.78	250.70
742.11	250.44
742.44	250.12
742.77	249.85
743.10	249.54
743.43	249.22
743.75	248.85
744.08	248.66
744.41	248.41
744.74	248.11
745.07	247.82
745.40	247.59
745.73	247.42
746.06	247.09
746.39	246.80
746.71	246.51
747.04	246.25
747.37	246.00
747.70	245.76
748.03	245.53
748.36	245.32
748.68	245.06
749.01	244.82
749.34	244.61
749.67	244.37
750.00	244.17
750.33	244.05
750.65	243.78
750.98	243.43
751.31	243.21
751.64	242.99
751.97	242.86
752.29	242.64
752.62	242.38
752.95	242.20
753.28	241.97
753.60	241.77
753.93	241.59
754.26	241.39
754.59	241.16
754.91	240.92
755.24	240.70
755.57	240.50
755.90	240.31
756.22	240.11
756.55	239.90
756.88	239.66
757.20	239.41
757.53	239.22
757.86	239.06
758.19	238.87
758.51	238.73
758.84	238.51
759.17	238.35
759.49	238.17
759.82	238.05
760.15	237.93
760.47	237.79
760.80	237.62
761.13	237.47
761.45	237.31
761.78	237.15
762.11	237.00
762.43	236.83
762.76	236.67
763.08	236.53
763.41	236.39
763.74	236.29
764.06	236.14
764.39	236.02
764.71	235.89
765.04	235.78
765.37	235.63
765.69	235.50
766.02	235.34
766.34	235.20
766.67	235.05
767.00	234.97
767.32	234.91
767.65	234.85
767.97	234.75
768.30	234.67
768.62	234.56
768.95	234.45
769.27	234.37
769.60	234.29
769.92	234.16
770.25	234.07
770.57	233.93
770.90	233.85
771.22	233.75
771.55	233.64
771.87	233.56
772.20	233.48
772.52	233.46
772.85	233.49
773.17	233.41
773.50	233.33
773.82	233.21
774.15	233.07
774.47	232.94
774.80	232.86
775.12	232.75
775.45	232.67
775.77	232.61
776.09	232.54
776.42	232.46
776.74	232.43
777.07	232.33
777.39	232.25
777.72	232.17
778.04	232.13
778.36	232.05
778.69	231.97
779.01	231.90
779.33	231.73
779.66	231.55
779.98	231.48
780.31	231.39
780.63	231.33
780.95	231.27
781.28	231.21
781.60	231.14
781.92	231.09
782.25	231.07
782.57	230.97
782.89	230.92
783.22	230.84
783.54	230.75
783.86	230.71
784.19	230.64
784.51	230.62
784.83	230.54
785.16	230.50
785.48	230.46
785.80	230.40
786.12	230.38
786.45	230.33
786.77	230.25
787.09	230.20
