SpectraSuite Data File
++++++++++++++++++++++++++++++++++++
Date: Fri Feb 01 15:05:45 EST 2013
User: group
Dark Spectrum Present: No
Reference Spectrum Present: No
Number of Sampled Component Spectra: 1
Spectrometers: USB2E7196
Integration Time (usec): 35000 (USB2E7196)
Spectra Averaged: 100 (USB2E7196)
Boxcar Smoothing: 10 (USB2E7196)
Correct for Electrical Dark: No (USB2E7196)
Strobe/Lamp Enabled: No (USB2E7196)
Correct for Detector Non-linearity: No (USB2E7196)
Correct for Stray Light: No (USB2E7196)
Number of Pixels in Processed Spectrum: 2048
>>>>>Begin Processed Spectral Data<<<<<
339.09	0.00
339.48	215.16
339.86	216.55
340.24	218.42
340.63	219.20
341.01	222.11
341.39	222.42
341.78	222.98
342.16	224.53
342.54	224.74
342.93	213.49
343.31	224.30
343.69	224.84
344.07	225.31
344.46	225.70
344.84	226.08
345.22	226.28
345.60	226.54
345.99	226.74
346.37	226.86
346.75	226.96
347.13	227.02
347.52	227.04
347.90	227.12
348.28	227.11
348.66	227.14
349.05	227.13
349.43	227.20
349.81	227.24
350.19	227.32
350.57	227.37
350.96	227.46
351.34	227.54
351.72	227.61
352.10	227.71
352.48	227.81
352.87	227.87
353.25	227.98
353.63	228.02
354.01	228.09
354.39	228.18
354.77	228.27
355.15	228.39
355.54	228.47
355.92	228.49
356.30	228.57
356.68	228.68
357.06	228.71
357.44	228.75
357.82	228.83
358.20	228.90
358.58	228.95
358.97	229.01
359.35	229.06
359.73	229.15
360.11	229.19
360.49	229.23
360.87	229.27
361.25	229.30
361.63	229.38
362.01	229.43
362.39	229.45
362.77	229.48
363.15	229.47
363.53	229.48
363.91	229.50
364.29	229.52
364.67	229.45
365.05	229.48
365.43	229.46
365.81	229.46
366.19	229.47
366.57	229.48
366.95	229.46
367.33	229.42
367.71	229.37
368.09	229.35
368.47	229.34
368.85	229.31
369.23	229.29
369.61	229.21
369.99	229.14
370.37	229.11
370.75	229.11
371.13	229.03
371.51	228.98
371.89	228.92
372.27	228.85
372.65	228.84
373.03	228.79
373.41	228.72
373.78	228.64
374.16	228.54
374.54	228.46
374.92	228.35
375.30	228.27
375.68	228.16
376.06	228.10
376.44	228.01
376.82	227.93
377.19	227.86
377.57	227.79
377.95	227.70
378.33	227.62
378.71	227.48
379.09	227.43
379.47	227.36
379.84	227.31
380.22	227.26
380.60	227.16
380.98	227.08
381.36	227.00
381.73	226.91
382.11	226.84
382.49	226.81
382.87	226.71
383.25	226.63
383.62	226.69
384.00	226.60
384.38	226.53
384.76	226.52
385.13	226.50
385.51	226.45
385.89	226.41
386.27	226.35
386.64	226.32
387.02	226.28
387.40	226.23
387.78	226.19
388.15	226.14
388.53	226.08
388.91	226.08
389.29	226.04
389.66	226.03
390.04	226.03
390.42	226.01
390.79	226.05
391.17	226.06
391.55	225.97
391.92	226.00
392.30	226.04
392.68	226.02
393.05	226.02
393.43	226.05
393.81	226.11
394.18	226.15
394.56	226.19
394.94	226.25
395.31	226.28
395.69	226.33
396.06	226.39
396.44	226.43
396.82	226.46
397.19	226.60
397.57	226.65
397.95	226.74
398.32	226.79
398.70	226.87
399.07	227.00
399.45	227.08
399.82	227.16
400.20	227.22
400.58	227.34
400.95	227.39
401.33	227.49
401.70	227.64
402.08	227.75
402.45	227.88
402.83	228.02
403.20	228.14
403.58	228.28
403.95	228.43
404.33	228.60
404.71	228.78
405.08	228.96
405.46	229.10
405.83	229.25
406.21	229.42
406.58	229.59
406.96	229.75
407.33	229.92
407.70	230.10
408.08	230.38
408.45	230.60
408.83	230.82
409.20	231.03
409.58	231.22
409.95	231.49
410.33	231.75
410.70	232.00
411.08	232.31
411.45	232.63
411.82	232.94
412.20	233.29
412.57	233.65
412.95	233.90
413.32	234.33
413.69	234.71
414.07	235.14
414.44	235.60
414.82	236.07
415.19	236.63
415.56	237.16
415.94	237.68
416.31	238.31
416.68	238.94
417.06	239.67
417.43	240.34
417.81	241.07
418.18	241.86
418.55	242.70
418.93	243.58
419.30	244.41
419.67	245.37
420.04	246.30
420.42	247.32
420.79	248.54
421.16	249.66
421.54	250.85
421.91	252.05
422.28	253.31
422.66	254.62
423.03	255.94
423.40	257.31
423.77	258.76
424.15	260.15
424.52	261.66
424.89	263.25
425.26	264.81
425.64	266.23
426.01	267.77
426.38	269.42
426.75	271.08
427.13	272.83
427.50	274.59
427.87	276.51
428.24	278.32
428.61	280.08
428.99	282.04
429.36	284.12
429.73	286.19
430.10	288.22
430.47	290.28
430.85	292.38
431.22	294.62
431.59	296.99
431.96	299.24
432.33	301.71
432.70	304.11
433.08	306.89
433.45	309.60
433.82	312.22
434.19	315.10
434.56	317.91
434.93	320.55
435.30	323.16
435.68	326.05
436.05	328.90
436.42	331.65
436.79	334.18
437.16	336.92
437.53	339.79
437.90	342.61
438.27	345.35
438.64	348.17
439.01	350.73
439.38	352.97
439.75	355.15
440.13	357.66
440.50	359.95
440.87	361.83
441.24	363.76
441.61	365.96
441.98	367.52
442.35	369.31
442.72	371.19
443.09	373.03
443.46	373.98
443.83	374.59
444.20	375.12
444.57	375.94
444.94	376.28
445.31	376.59
445.68	376.95
446.05	377.04
446.42	376.71
446.79	376.33
447.16	375.88
447.53	375.52
447.90	374.34
448.27	373.23
448.64	371.63
449.01	370.49
449.37	368.50
449.74	366.53
450.11	364.29
450.48	361.86
450.85	359.32
451.22	357.20
451.59	355.19
451.96	353.26
452.33	350.70
452.70	348.33
453.07	345.49
453.43	342.58
453.80	339.81
454.17	337.04
454.54	334.46
454.91	331.74
455.28	329.11
455.65	326.64
456.02	324.19
456.38	322.04
456.75	319.35
457.12	317.13
457.49	314.96
457.86	312.79
458.23	310.88
458.59	308.81
458.96	306.71
459.33	304.84
459.70	302.99
460.07	301.43
460.43	299.68
460.80	298.08
461.17	296.66
461.54	295.20
461.91	293.83
462.27	292.37
462.64	291.13
463.01	289.74
463.38	288.43
463.74	287.03
464.11	285.86
464.48	284.85
464.85	283.66
465.21	282.71
465.58	281.80
465.95	280.70
466.32	279.80
466.68	278.89
467.05	277.96
467.42	277.04
467.78	276.09
468.15	275.20
468.52	274.50
468.88	273.62
469.25	272.79
469.62	272.12
469.98	271.44
470.35	270.77
470.72	270.16
471.08	269.47
471.45	268.95
471.82	268.37
472.18	267.71
472.55	267.31
472.92	266.81
473.28	266.33
473.65	265.91
474.02	265.46
474.38	265.09
474.75	264.76
475.11	264.40
475.48	264.13
475.85	263.88
476.21	263.62
476.58	263.43
476.94	263.28
477.31	263.12
477.67	262.95
478.04	262.84
478.41	262.77
478.77	262.79
479.14	262.72
479.50	262.76
479.87	262.87
480.23	262.91
480.60	262.96
480.96	263.04
481.33	263.21
481.69	263.40
482.06	263.58
482.42	263.79
482.79	264.06
483.15	264.37
483.52	264.80
483.88	265.16
484.25	265.53
484.61	265.92
484.98	266.36
485.34	266.93
485.71	267.51
486.07	268.12
486.44	268.73
486.80	269.40
487.17	270.13
487.53	270.91
487.90	271.76
488.26	272.72
488.62	273.70
488.99	274.68
489.35	275.73
489.72	276.87
490.08	278.06
490.44	279.27
490.81	280.60
491.17	281.90
491.54	283.35
491.90	284.90
492.26	286.57
492.63	288.31
492.99	290.05
493.36	291.94
493.72	293.99
494.08	296.09
494.45	298.34
494.81	300.71
495.17	303.14
495.54	305.69
495.90	308.33
496.26	311.10
496.63	314.04
496.99	317.13
497.35	320.35
497.72	323.74
498.08	327.23
498.44	330.88
498.80	334.82
499.17	338.83
499.53	343.01
499.89	347.40
500.26	351.89
500.62	356.59
500.98	361.53
501.34	366.58
501.71	371.90
502.07	377.30
502.43	382.85
502.79	388.67
503.16	394.73
503.52	401.00
503.88	407.41
504.24	413.98
504.60	420.84
504.97	427.94
505.33	435.27
505.69	442.98
506.05	450.71
506.41	458.59
506.78	466.77
507.14	475.16
507.50	483.84
507.86	492.80
508.22	502.01
508.59	511.20
508.95	520.73
509.31	530.56
509.67	540.67
510.03	551.04
510.39	561.52
510.75	572.24
511.12	583.14
511.48	594.46
511.84	605.95
512.20	617.49
512.56	629.42
512.92	641.62
513.28	653.90
513.64	666.42
514.00	679.03
514.37	691.95
514.73	705.01
515.09	718.08
515.45	731.43
515.81	744.97
516.17	758.96
516.53	773.14
516.89	787.22
517.25	801.45
517.61	815.83
517.97	830.30
518.33	844.85
518.69	859.73
519.05	874.74
519.41	889.93
519.77	905.49
520.13	921.01
520.49	936.34
520.85	951.87
521.21	967.61
521.57	983.99
521.93	999.93
522.29	1016.47
522.65	1032.65
523.01	1048.98
523.37	1065.17
523.73	1081.35
524.09	1097.52
524.45	1113.98
524.81	1130.66
525.17	1147.59
525.53	1164.49
525.89	1181.39
526.25	1198.18
526.61	1214.56
526.97	1231.45
527.33	1248.03
527.68	1264.78
528.04	1281.34
528.40	1298.02
528.76	1315.17
529.12	1331.89
529.48	1348.73
529.84	1364.76
530.20	1381.68
530.56	1398.84
530.91	1416.18
531.27	1433.00
531.63	1449.53
531.99	1466.10
532.35	1482.22
532.71	1498.17
533.07	1514.60
533.42	1530.53
533.78	1546.64
534.14	1563.07
534.50	1578.42
534.86	1594.35
535.21	1609.46
535.57	1625.55
535.93	1641.12
536.29	1655.91
536.65	1671.02
537.00	1685.95
537.36	1701.42
537.72	1715.80
538.08	1730.16
538.44	1744.10
538.79	1758.15
539.15	1771.98
539.51	1785.86
539.87	1800.25
540.22	1814.03
540.58	1827.80
540.94	1841.34
541.29	1854.51
541.65	1867.37
542.01	1880.82
542.37	1893.13
542.72	1905.75
543.08	1917.62
543.44	1930.02
543.79	1941.37
544.15	1952.53
544.51	1964.09
544.87	1975.01
545.22	1985.99
545.58	1996.28
545.94	2006.08
546.29	2016.11
546.65	2025.96
547.01	2035.25
547.36	2043.97
547.72	2052.43
548.07	2060.38
548.43	2068.40
548.79	2076.35
549.14	2083.78
549.50	2091.02
549.86	2098.79
550.21	2105.97
550.57	2113.05
550.92	2119.70
551.28	2126.83
551.64	2133.75
551.99	2140.32
552.35	2146.43
552.70	2152.56
553.06	2158.40
553.41	2164.71
553.77	2170.63
554.13	2176.60
554.48	2182.67
554.84	2188.11
555.19	2193.45
555.55	2198.46
555.90	2203.07
556.26	2207.79
556.61	2212.56
556.97	2216.79
557.32	2220.86
557.68	2225.01
558.03	2229.33
558.39	2233.09
558.74	2237.59
559.10	2241.40
559.45	2245.11
559.81	2249.36
560.16	2253.12
560.52	2256.39
560.87	2259.93
561.23	2262.49
561.58	2265.45
561.94	2267.96
562.29	2270.26
562.64	2272.95
563.00	2275.61
563.35	2278.97
563.71	2282.05
564.06	2285.15
564.42	2287.93
564.77	2290.35
565.12	2292.67
565.48	2294.52
565.83	2296.21
566.19	2297.49
566.54	2298.46
566.89	2299.33
567.25	2299.86
567.60	2301.06
567.96	2302.66
568.31	2303.35
568.66	2304.35
569.02	2304.81
569.37	2305.08
569.72	2305.80
570.08	2305.79
570.43	2305.63
570.78	2304.94
571.14	2303.39
571.49	2302.01
571.84	2301.57
572.20	2300.24
572.55	2298.98
572.90	2297.22
573.26	2295.48
573.61	2293.52
573.96	2291.60
574.31	2288.55
574.67	2285.44
575.02	2281.75
575.37	2278.24
575.72	2274.24
576.08	2270.82
576.43	2267.40
576.78	2263.58
577.13	2260.37
577.49	2257.19
577.84	2253.68
578.19	2249.87
578.54	2246.06
578.90	2241.64
579.25	2235.89
579.60	2231.00
579.95	2225.89
580.30	2220.86
580.66	2215.85
581.01	2210.86
581.36	2205.83
581.71	2201.55
582.06	2196.99
582.42	2192.39
582.77	2187.07
583.12	2182.36
583.47	2177.45
583.82	2172.27
584.17	2166.83
584.53	2161.08
584.88	2155.23
585.23	2149.30
585.58	2143.76
585.93	2138.16
586.28	2133.29
586.63	2128.28
586.98	2123.14
587.34	2118.35
587.69	2113.29
588.04	2107.86
588.39	2102.04
588.74	2095.34
589.09	2089.07
589.44	2082.16
589.79	2075.94
590.14	2070.15
590.49	2063.52
590.84	2057.13
591.19	2051.06
591.54	2044.53
591.89	2037.00
592.25	2030.09
592.60	2022.85
592.95	2015.03
593.30	2007.69
593.65	2000.02
594.00	1992.88
594.35	1985.35
594.70	1977.13
595.05	1969.74
595.40	1962.38
595.75	1954.81
596.10	1948.43
596.45	1941.48
596.80	1935.20
597.15	1928.47
597.50	1921.33
597.85	1914.75
598.19	1907.92
598.54	1900.77
598.89	1894.13
599.24	1888.33
599.59	1881.54
599.94	1875.24
600.29	1868.91
600.64	1862.32
600.99	1854.69
601.34	1847.67
601.69	1840.72
602.04	1833.90
602.39	1826.58
602.74	1819.75
603.08	1813.05
603.43	1806.40
603.78	1799.19
604.13	1791.98
604.48	1784.79
604.83	1777.88
605.18	1770.89
605.53	1762.88
605.87	1754.74
606.22	1747.57
606.57	1739.60
606.92	1732.31
607.27	1725.13
607.62	1718.26
607.96	1710.85
608.31	1704.32
608.66	1696.71
609.01	1689.18
609.36	1681.55
609.70	1673.60
610.05	1665.50
610.40	1657.79
610.75	1649.46
611.10	1641.72
611.44	1633.39
611.79	1625.40
612.14	1616.73
612.49	1607.66
612.83	1599.33
613.18	1591.25
613.53	1583.13
613.88	1574.58
614.22	1566.35
614.57	1557.80
614.92	1549.65
615.27	1542.07
615.61	1533.61
615.96	1525.68
616.31	1518.12
616.65	1510.82
617.00	1503.23
617.35	1495.58
617.70	1487.20
618.04	1478.66
618.39	1470.50
618.74	1462.91
619.08	1454.63
619.43	1447.14
619.78	1440.31
620.12	1433.18
620.47	1425.64
620.82	1417.42
621.16	1410.10
621.51	1402.48
621.85	1394.88
622.20	1386.48
622.55	1378.25
622.89	1370.55
623.24	1362.94
623.59	1355.52
623.93	1347.96
624.28	1340.71
624.62	1333.21
624.97	1326.16
625.32	1319.51
625.66	1312.50
626.01	1305.22
626.35	1297.59
626.70	1289.82
627.04	1282.00
627.39	1274.21
627.73	1266.86
628.08	1259.98
628.43	1252.56
628.77	1245.17
629.12	1237.64
629.46	1230.47
629.81	1223.17
630.15	1216.02
630.50	1208.63
630.84	1200.45
631.19	1192.53
631.53	1185.13
631.88	1177.55
632.22	1169.85
632.57	1162.60
632.91	1155.08
633.26	1147.75
633.60	1140.71
633.95	1133.79
634.29	1126.86
634.64	1120.28
634.98	1113.01
635.32	1105.91
635.67	1099.42
636.01	1092.79
636.36	1086.04
636.70	1079.67
637.05	1073.03
637.39	1066.60
637.73	1060.19
638.08	1054.37
638.42	1048.54
638.77	1042.07
639.11	1035.58
639.45	1029.32
639.80	1022.69
640.14	1016.32
640.49	1009.78
640.83	1003.41
641.17	997.06
641.52	990.77
641.86	984.39
642.20	978.56
642.55	972.32
642.89	965.82
643.23	959.41
643.58	953.62
643.92	947.35
644.26	941.22
644.61	935.22
644.95	929.10
645.29	922.53
645.64	915.70
645.98	909.42
646.32	903.59
646.66	897.59
647.01	891.79
647.35	886.12
647.69	880.44
648.04	874.94
648.38	869.24
648.72	863.15
649.06	857.06
649.41	851.24
649.75	845.25
650.09	839.42
650.43	833.63
650.78	827.51
651.12	821.61
651.46	816.01
651.80	810.22
652.14	804.87
652.49	799.59
652.83	794.50
653.17	788.81
653.51	783.07
653.85	777.70
654.20	772.08
654.54	766.12
654.88	760.44
655.22	754.56
655.56	748.91
655.90	743.57
656.25	738.34
656.59	732.96
656.93	727.84
657.27	722.69
657.61	717.26
657.95	712.19
658.29	707.14
658.64	701.91
658.98	696.64
659.32	691.22
659.66	685.98
660.00	680.64
660.34	675.80
660.68	670.97
661.02	665.97
661.36	661.27
661.70	656.79
662.05	652.33
662.39	648.02
662.73	643.57
663.07	639.15
663.41	634.74
663.75	630.32
664.09	625.88
664.43	621.44
664.77	617.28
665.11	613.07
665.45	608.99
665.79	604.97
666.13	600.82
666.47	596.73
666.81	592.53
667.15	588.45
667.49	584.50
667.83	580.71
668.17	576.79
668.51	572.75
668.85	568.76
669.19	565.00
669.53	561.17
669.87	557.26
670.21	553.63
670.55	550.02
670.89	546.57
671.23	543.07
671.57	539.63
671.91	536.19
672.25	532.69
672.58	529.10
672.92	525.65
673.26	522.53
673.60	519.47
673.94	516.42
674.28	513.56
674.62	510.66
674.96	507.54
675.30	504.61
675.64	501.70
675.97	498.91
676.31	496.02
676.65	493.13
676.99	490.41
677.33	487.52
677.67	484.68
678.01	481.64
678.34	478.70
678.68	475.82
679.02	473.01
679.36	470.31
679.70	467.62
680.04	464.91
680.37	462.01
680.71	459.17
681.05	456.56
681.39	453.85
681.73	451.17
682.06	448.64
682.40	446.12
682.74	443.59
683.08	441.08
683.42	438.49
683.75	435.98
684.09	433.53
684.43	431.09
684.77	428.67
685.10	426.37
685.44	424.12
685.78	421.87
686.12	419.63
686.45	417.34
686.79	415.08
687.13	412.90
687.46	410.79
687.80	408.61
688.14	406.42
688.48	404.41
688.81	402.16
689.15	400.04
689.49	397.88
689.82	395.80
690.16	393.71
690.50	391.80
690.83	389.84
691.17	387.87
691.51	385.95
691.84	384.12
692.18	382.21
692.52	380.20
692.85	378.25
693.19	376.37
693.52	374.57
693.86	372.77
694.20	371.03
694.53	369.24
694.87	367.40
695.21	365.66
695.54	363.82
695.88	362.15
696.21	360.49
696.55	358.83
696.88	357.14
697.22	355.52
697.56	353.85
697.89	352.25
698.23	350.61
698.56	349.03
698.90	347.42
699.23	345.74
699.57	344.21
699.90	342.73
700.24	341.23
700.58	339.73
700.91	338.21
701.25	336.75
701.58	335.41
701.92	334.09
702.25	332.71
702.59	331.39
702.92	330.08
703.26	328.76
703.59	327.47
703.93	326.31
704.26	325.06
704.60	323.83
704.93	322.55
705.26	321.36
705.60	320.19
705.93	319.07
706.27	318.08
706.60	317.01
706.94	315.90
707.27	314.77
707.61	313.69
707.94	312.68
708.27	311.62
708.61	310.52
708.94	309.55
709.28	308.60
709.61	307.63
709.94	306.67
710.28	305.66
710.61	304.74
710.95	303.70
711.28	302.79
711.61	301.84
711.95	300.95
712.28	299.98
712.61	298.94
712.95	297.99
713.28	297.08
713.61	296.20
713.95	295.32
714.28	294.50
714.61	293.60
714.95	292.77
715.28	291.88
715.61	291.06
715.95	290.17
716.28	289.29
716.61	288.43
716.95	287.60
717.28	286.89
717.61	286.07
717.94	285.34
718.28	284.56
718.61	283.81
718.94	283.10
719.27	282.44
719.61	281.86
719.94	281.24
720.27	280.53
720.60	279.88
720.94	279.29
721.27	278.64
721.60	278.09
721.93	277.49
722.27	276.97
722.60	276.42
722.93	275.89
723.26	275.37
723.59	274.81
723.93	274.27
724.26	273.66
724.59	273.12
724.92	272.59
725.25	272.06
725.59	271.58
725.92	271.05
726.25	270.54
726.58	270.08
726.91	269.54
727.24	269.09
727.57	268.59
727.91	268.03
728.24	267.57
728.57	267.04
728.90	266.59
729.23	266.08
729.56	265.63
729.89	265.12
730.22	264.63
730.55	264.22
730.89	263.82
731.22	263.41
731.55	262.97
731.88	262.53
732.21	262.13
732.54	261.67
732.87	261.28
733.20	260.87
733.53	260.44
733.86	260.07
734.19	259.66
734.52	259.30
734.85	259.03
735.18	258.64
735.51	258.33
735.84	257.93
736.17	257.63
736.50	257.24
736.83	257.06
737.16	256.73
737.49	256.37
737.82	256.01
738.15	255.67
738.48	255.34
738.81	255.04
739.14	254.70
739.47	254.38
739.80	254.06
740.13	253.78
740.46	253.49
740.79	253.17
741.12	252.90
741.45	252.59
741.78	252.24
742.11	251.99
742.44	251.70
742.77	251.46
743.10	251.16
743.43	250.88
743.75	250.51
744.08	250.37
744.41	250.11
744.74	249.84
745.07	249.55
745.40	249.31
745.73	249.10
746.06	248.85
746.39	248.62
746.71	248.36
747.04	248.10
747.37	247.84
747.70	247.64
748.03	247.35
748.36	247.15
748.68	246.92
749.01	246.64
749.34	246.37
749.67	246.13
750.00	245.89
750.33	245.71
750.65	245.45
750.98	245.12
751.31	244.91
751.64	244.70
751.97	244.57
752.29	244.35
752.62	244.10
752.95	243.88
753.28	243.68
753.60	243.47
753.93	243.30
754.26	243.04
754.59	242.77
754.91	242.57
755.24	242.35
755.57	242.12
755.90	241.93
756.22	241.75
756.55	241.54
756.88	241.33
757.20	241.09
757.53	240.91
757.86	240.74
758.19	240.55
758.51	240.35
758.84	240.09
759.17	239.94
759.49	239.76
759.82	239.66
760.15	239.47
760.47	239.32
760.80	239.11
761.13	238.98
761.45	238.84
761.78	238.69
762.11	238.52
762.43	238.41
762.76	238.26
763.08	238.12
763.41	238.01
763.74	237.86
764.06	237.73
764.39	237.59
764.71	237.41
765.04	237.28
765.37	237.17
765.69	237.06
766.02	236.91
766.34	236.74
766.67	236.56
767.00	236.45
767.32	236.36
767.65	236.30
767.97	236.20
768.30	236.07
768.62	235.94
768.95	235.85
769.27	235.74
769.60	235.65
769.92	235.51
770.25	235.40
770.57	235.26
770.90	235.15
771.22	235.03
771.55	234.95
771.87	234.84
772.20	234.71
772.52	234.69
772.85	234.70
773.17	234.65
773.50	234.58
773.82	234.48
774.15	234.37
774.47	234.23
774.80	234.11
775.12	234.06
775.45	233.95
775.77	233.87
776.09	233.80
776.42	233.72
776.74	233.68
777.07	233.58
777.39	233.54
777.72	233.48
778.04	233.46
778.36	233.37
778.69	233.31
779.01	233.29
779.33	233.16
779.66	233.00
779.98	232.91
780.31	232.87
780.63	232.88
780.95	232.82
781.28	232.78
781.60	232.75
781.92	232.65
782.25	232.65
782.57	232.58
782.89	232.54
783.22	232.45
783.54	232.40
783.86	232.38
784.19	232.33
784.51	232.30
784.83	232.21
785.16	232.20
785.48	232.17
785.80	232.13
786.12	232.11
786.45	232.05
786.77	232.04
787.09	231.95
