SpectraSuite Data File
++++++++++++++++++++++++++++++++++++
Date: Fri Feb 01 18:11:33 EST 2013
User: group
Dark Spectrum Present: No
Reference Spectrum Present: No
Number of Sampled Component Spectra: 1
Spectrometers: USB2E7196
Integration Time (usec): 35000 (USB2E7196)
Spectra Averaged: 100 (USB2E7196)
Boxcar Smoothing: 10 (USB2E7196)
Correct for Electrical Dark: No (USB2E7196)
Strobe/Lamp Enabled: No (USB2E7196)
Correct for Detector Non-linearity: No (USB2E7196)
Correct for Stray Light: No (USB2E7196)
Number of Pixels in Processed Spectrum: 2048
>>>>>Begin Processed Spectral Data<<<<<
339.09	0.00
339.48	213.61
339.86	214.90
340.24	216.17
340.63	217.66
341.01	220.17
341.39	220.15
341.78	221.08
342.16	222.88
342.54	222.68
342.93	211.62
343.31	222.30
343.69	222.79
344.07	223.25
344.46	223.65
344.84	224.01
345.22	224.25
345.60	224.49
345.99	224.70
346.37	224.83
346.75	224.94
347.13	225.00
347.52	225.07
347.90	225.14
348.28	225.17
348.66	225.20
349.05	225.17
349.43	225.21
349.81	225.28
350.19	225.30
350.57	225.36
350.96	225.41
351.34	225.53
351.72	225.64
352.10	225.73
352.48	225.81
352.87	225.87
353.25	225.94
353.63	225.99
354.01	226.05
354.39	226.10
354.77	226.18
355.15	226.27
355.54	226.32
355.92	226.29
356.30	226.34
356.68	226.45
357.06	226.56
357.44	226.62
357.82	226.65
358.20	226.74
358.58	226.83
358.97	226.91
359.35	226.99
359.73	227.05
360.11	227.12
360.49	227.17
360.87	227.22
361.25	227.24
361.63	227.32
362.01	227.35
362.39	227.39
362.77	227.42
363.15	227.45
363.53	227.49
363.91	227.57
364.29	227.58
364.67	227.53
365.05	227.53
365.43	227.55
365.81	227.58
366.19	227.61
366.57	227.62
366.95	227.59
367.33	227.57
367.71	227.58
368.09	227.59
368.47	227.59
368.85	227.58
369.23	227.60
369.61	227.58
369.99	227.63
370.37	227.65
370.75	227.71
371.13	227.65
371.51	227.64
371.89	227.61
372.27	227.65
372.65	227.64
373.03	227.58
373.41	227.53
373.78	227.48
374.16	227.40
374.54	227.37
374.92	227.33
375.30	227.27
375.68	227.20
376.06	227.16
376.44	227.09
376.82	227.03
377.19	226.95
377.57	226.91
377.95	226.80
378.33	226.72
378.71	226.62
379.09	226.58
379.47	226.55
379.84	226.50
380.22	226.40
380.60	226.30
380.98	226.25
381.36	226.20
381.73	226.15
382.11	226.13
382.49	226.07
382.87	226.00
383.25	225.97
383.62	226.04
384.00	225.94
384.38	225.90
384.76	225.87
385.13	225.88
385.51	225.81
385.89	225.75
386.27	225.70
386.64	225.65
387.02	225.62
387.40	225.57
387.78	225.49
388.15	225.49
388.53	225.49
388.91	225.47
389.29	225.45
389.66	225.42
390.04	225.38
390.42	225.35
390.79	225.36
391.17	225.30
391.55	225.15
391.92	225.17
392.30	225.15
392.68	225.10
393.05	225.08
393.43	225.07
393.81	225.07
394.18	225.05
394.56	225.03
394.94	225.06
395.31	225.04
395.69	225.11
396.06	225.11
396.44	225.10
396.82	225.11
397.19	225.20
397.57	225.22
397.95	225.26
398.32	225.28
398.70	225.33
399.07	225.40
399.45	225.46
399.82	225.48
400.20	225.56
400.58	225.65
400.95	225.69
401.33	225.80
401.70	225.94
402.08	226.04
402.45	226.13
402.83	226.24
403.20	226.34
403.58	226.42
403.95	226.56
404.33	226.73
404.71	226.85
405.08	227.01
405.46	227.14
405.83	227.31
406.21	227.46
406.58	227.64
406.96	227.82
407.33	228.06
407.70	228.33
408.08	228.63
408.45	228.91
408.83	229.19
409.20	229.44
409.58	229.70
409.95	230.02
410.33	230.40
410.70	230.74
411.08	231.14
411.45	231.55
411.82	231.92
412.20	232.35
412.57	232.92
412.95	233.35
413.32	233.92
413.69	234.48
414.07	235.07
414.44	235.70
414.82	236.39
415.19	237.10
415.56	237.85
415.94	238.63
416.31	239.50
416.68	240.38
417.06	241.40
417.43	242.34
417.81	243.41
418.18	244.53
418.55	245.70
418.93	246.91
419.30	248.16
419.67	249.47
420.04	250.83
420.42	252.21
420.79	253.86
421.16	255.44
421.54	257.09
421.91	258.84
422.28	260.63
422.66	262.49
423.03	264.33
423.40	266.22
423.77	268.19
424.15	270.22
424.52	272.33
424.89	274.56
425.26	276.79
425.64	278.83
426.01	280.99
426.38	283.30
426.75	285.62
427.13	288.06
427.50	290.66
427.87	293.31
428.24	295.96
428.61	298.40
428.99	301.17
429.36	304.15
429.73	307.01
430.10	309.82
430.47	312.74
430.85	315.72
431.22	318.86
431.59	322.19
431.96	325.34
432.33	328.79
432.70	332.16
433.08	336.07
433.45	339.79
433.82	343.49
434.19	347.57
434.56	351.57
434.93	355.32
435.30	359.00
435.68	363.10
436.05	367.07
436.42	371.03
436.79	374.59
437.16	378.37
437.53	382.38
437.90	386.32
438.27	390.16
438.64	394.15
439.01	397.81
439.38	400.99
439.75	404.10
440.13	407.65
440.50	410.92
440.87	413.55
441.24	416.30
441.61	419.37
441.98	421.49
442.35	424.02
442.72	426.63
443.09	429.21
443.46	430.62
443.83	431.45
444.20	432.20
444.57	433.37
444.94	433.80
445.31	434.30
445.68	434.76
446.05	434.89
446.42	434.36
446.79	433.75
447.16	433.10
447.53	432.60
447.90	430.95
448.27	429.31
448.64	427.09
449.01	425.47
449.37	422.64
449.74	419.98
450.11	416.80
450.48	413.32
450.85	409.70
451.22	406.65
451.59	403.83
451.96	401.07
452.33	397.38
452.70	394.03
453.07	390.04
453.43	386.02
453.80	382.12
454.17	378.38
454.54	374.83
454.91	371.03
455.28	367.25
455.65	363.76
456.02	360.26
456.38	357.23
456.75	353.50
457.12	350.37
457.49	347.19
457.86	344.16
458.23	341.53
458.59	338.66
458.96	335.74
459.33	333.09
459.70	330.43
460.07	328.34
460.43	325.87
460.80	323.57
461.17	321.54
461.54	319.39
461.91	317.31
462.27	315.24
462.64	313.44
463.01	311.51
463.38	309.62
463.74	307.69
464.11	305.99
464.48	304.50
464.85	302.93
465.21	301.68
465.58	300.35
465.95	298.79
466.32	297.50
466.68	296.21
467.05	294.91
467.42	293.64
467.78	292.30
468.15	291.07
468.52	290.13
468.88	288.93
469.25	287.80
469.62	286.91
469.98	285.95
470.35	285.04
470.72	284.19
471.08	283.31
471.45	282.56
471.82	281.81
472.18	280.94
472.55	280.28
472.92	279.56
473.28	278.88
473.65	278.21
474.02	277.57
474.38	276.95
474.75	276.49
475.11	275.97
475.48	275.56
475.85	275.22
476.21	274.79
476.58	274.48
476.94	274.22
477.31	273.94
477.67	273.66
478.04	273.45
478.41	273.30
478.77	273.25
479.14	273.10
479.50	273.02
479.87	273.04
480.23	273.07
480.60	273.06
480.96	273.08
481.33	273.26
481.69	273.46
482.06	273.66
482.42	273.80
482.79	274.02
483.15	274.30
483.52	274.65
483.88	274.96
484.25	275.30
484.61	275.72
484.98	276.15
485.34	276.72
485.71	277.32
486.07	277.88
486.44	278.45
486.80	279.14
487.17	279.88
487.53	280.69
487.90	281.54
488.26	282.49
488.62	283.54
488.99	284.55
489.35	285.56
489.72	286.74
490.08	288.00
490.44	289.29
490.81	290.66
491.17	292.12
491.54	293.71
491.90	295.34
492.26	297.10
492.63	298.93
492.99	300.78
493.36	302.79
493.72	305.03
494.08	307.23
494.45	309.63
494.81	312.20
495.17	314.82
495.54	317.56
495.90	320.45
496.26	323.41
496.63	326.60
496.99	329.95
497.35	333.38
497.72	337.05
498.08	340.85
498.44	344.83
498.80	349.02
499.17	353.40
499.53	357.86
499.89	362.58
500.26	367.42
500.62	372.45
500.98	377.79
501.34	383.15
501.71	388.90
502.07	394.74
502.43	400.72
502.79	406.94
503.16	413.49
503.52	420.17
503.88	427.11
504.24	434.22
504.60	441.60
504.97	449.35
505.33	457.19
505.69	465.53
506.05	473.90
506.41	482.39
506.78	491.18
507.14	500.32
507.50	509.63
507.86	519.38
508.22	529.36
508.59	539.28
508.95	549.68
509.31	560.24
509.67	571.21
510.03	582.34
510.39	593.77
510.75	605.44
511.12	617.31
511.48	629.54
511.84	642.00
512.20	654.49
512.56	667.48
512.92	680.69
513.28	694.17
513.64	707.73
514.00	721.65
514.37	735.76
514.73	750.02
515.09	764.36
515.45	778.92
515.81	793.75
516.17	809.10
516.53	824.64
516.89	840.32
517.25	855.88
517.61	871.74
517.97	887.72
518.33	903.58
518.69	919.94
519.05	936.46
519.41	953.30
519.77	970.54
520.13	987.70
520.49	1004.76
520.85	1021.76
521.21	1039.14
521.57	1057.11
521.93	1074.60
522.29	1092.82
522.65	1110.91
523.01	1128.98
523.37	1146.88
523.73	1164.93
524.09	1182.94
524.45	1201.01
524.81	1219.62
525.17	1238.41
525.53	1257.24
525.89	1276.19
526.25	1295.13
526.61	1313.64
526.97	1332.43
527.33	1351.05
527.68	1369.64
528.04	1388.28
528.40	1407.04
528.76	1426.41
529.12	1445.31
529.48	1464.51
529.84	1482.81
530.20	1501.75
530.56	1521.06
530.91	1540.95
531.27	1560.05
531.63	1578.76
531.99	1597.85
532.35	1616.19
532.71	1634.54
533.07	1653.25
533.42	1671.77
533.78	1690.29
534.14	1709.10
534.50	1726.91
534.86	1745.34
535.21	1763.03
535.57	1781.41
535.93	1799.42
536.29	1816.68
536.65	1834.25
537.00	1851.48
537.36	1869.41
537.72	1886.37
538.08	1903.44
538.44	1919.66
538.79	1936.18
539.15	1952.35
539.51	1968.65
539.87	1985.68
540.22	2001.97
540.58	2018.43
540.94	2034.28
541.29	2049.61
541.65	2064.89
542.01	2080.61
542.37	2095.43
542.72	2110.46
543.08	2125.04
543.44	2140.05
543.79	2153.96
544.15	2167.49
544.51	2181.82
544.87	2195.39
545.22	2208.97
545.58	2221.59
545.94	2233.82
546.29	2246.05
546.65	2258.48
547.01	2270.24
547.36	2281.30
547.72	2292.27
548.07	2302.60
548.43	2312.92
548.79	2323.13
549.14	2332.94
549.50	2342.48
549.86	2352.57
550.21	2362.14
550.57	2371.46
550.92	2380.33
551.28	2389.53
551.64	2398.80
551.99	2407.51
552.35	2415.68
552.70	2423.81
553.06	2432.04
553.41	2440.62
553.77	2448.72
554.13	2456.90
554.48	2465.17
554.84	2472.86
555.19	2480.16
555.55	2487.24
555.90	2493.83
556.26	2501.01
556.61	2507.54
556.97	2514.01
557.32	2519.73
557.68	2525.62
558.03	2531.76
558.39	2537.09
558.74	2543.61
559.10	2549.31
559.45	2554.57
559.81	2560.58
560.16	2566.16
560.52	2571.03
560.87	2576.00
561.23	2580.16
561.58	2584.70
561.94	2588.69
562.29	2592.37
562.64	2596.56
563.00	2600.46
563.35	2605.38
563.71	2609.94
564.06	2614.66
564.42	2618.92
564.77	2623.23
565.12	2627.14
565.48	2630.29
565.83	2633.53
566.19	2636.13
566.54	2638.04
566.89	2640.42
567.25	2642.26
567.60	2644.64
567.96	2647.55
568.31	2649.51
568.66	2651.99
569.02	2653.52
569.37	2654.85
569.72	2656.89
570.08	2657.97
570.43	2658.88
570.78	2659.12
571.14	2658.24
571.49	2657.57
571.84	2657.99
572.20	2657.34
572.55	2656.76
572.90	2655.61
573.26	2654.74
573.61	2653.30
573.96	2652.12
574.31	2649.34
574.67	2646.51
575.02	2643.04
575.37	2639.54
575.72	2635.76
576.08	2632.31
576.43	2629.01
576.78	2625.31
577.13	2621.94
577.49	2618.63
577.84	2615.21
578.19	2611.30
578.54	2607.56
578.90	2603.27
579.25	2597.19
579.60	2591.81
579.95	2586.53
580.30	2581.26
580.66	2575.79
581.01	2570.54
581.36	2565.10
581.71	2560.70
582.06	2555.98
582.42	2551.29
582.77	2545.71
583.12	2540.90
583.47	2535.89
583.82	2530.46
584.17	2524.75
584.53	2518.59
584.88	2512.43
585.23	2506.17
585.58	2500.24
585.93	2494.12
586.28	2488.60
586.63	2483.10
586.98	2477.56
587.34	2472.17
587.69	2466.56
588.04	2460.70
588.39	2454.27
588.74	2446.97
589.09	2439.85
589.44	2432.10
589.79	2424.98
590.14	2418.45
590.49	2410.81
590.84	2403.31
591.19	2396.68
591.54	2389.21
591.89	2380.97
592.25	2373.32
592.60	2364.98
592.95	2356.30
593.30	2347.83
593.65	2339.01
594.00	2330.65
594.35	2322.17
594.70	2312.73
595.05	2304.61
595.40	2296.10
595.75	2287.35
596.10	2280.15
596.45	2272.41
596.80	2265.29
597.15	2257.66
597.50	2249.77
597.85	2242.15
598.19	2234.60
598.54	2226.27
598.89	2218.47
599.24	2211.56
599.59	2203.84
599.94	2196.37
600.29	2188.69
600.64	2180.79
600.99	2172.22
601.34	2164.26
601.69	2155.92
602.04	2148.13
602.39	2139.40
602.74	2131.28
603.08	2123.24
603.43	2115.16
603.78	2106.46
604.13	2097.74
604.48	2089.24
604.83	2080.91
605.18	2072.72
605.53	2063.01
605.87	2053.19
606.22	2044.54
606.57	2034.87
606.92	2025.70
607.27	2017.27
607.62	2009.16
607.96	2000.58
608.31	1992.72
608.66	1983.72
609.01	1974.74
609.36	1965.51
609.70	1955.91
610.05	1946.29
610.40	1937.26
610.75	1927.29
611.10	1918.10
611.44	1908.01
611.79	1898.24
612.14	1887.67
612.49	1876.60
612.83	1866.57
613.18	1856.92
613.53	1847.08
613.88	1836.89
614.22	1827.19
614.57	1816.74
614.92	1807.10
615.27	1798.32
615.61	1788.35
615.96	1778.55
616.31	1769.42
616.65	1760.52
617.00	1751.32
617.35	1742.02
617.70	1731.97
618.04	1721.89
618.39	1711.99
618.74	1702.89
619.08	1692.82
619.43	1683.75
619.78	1675.45
620.12	1666.97
620.47	1657.90
620.82	1648.18
621.16	1639.15
621.51	1629.80
621.85	1620.54
622.20	1610.24
622.55	1599.77
622.89	1590.30
623.24	1581.10
623.59	1571.94
623.93	1562.89
624.28	1554.24
624.62	1545.18
624.97	1536.50
625.32	1528.24
625.66	1519.64
626.01	1511.07
626.35	1502.35
626.70	1493.04
627.04	1483.69
627.39	1474.23
627.73	1465.29
628.08	1456.97
628.43	1448.39
628.77	1439.72
629.12	1430.73
629.46	1422.17
629.81	1413.33
630.15	1404.49
630.50	1395.66
630.84	1386.08
631.19	1376.44
631.53	1367.45
631.88	1358.40
632.22	1349.26
632.57	1340.54
632.91	1331.61
633.26	1322.65
633.60	1313.64
633.95	1304.94
634.29	1296.52
634.64	1288.53
634.98	1279.81
635.32	1271.14
635.67	1263.14
636.01	1255.09
636.36	1247.01
636.70	1239.12
637.05	1231.22
637.39	1223.54
637.73	1215.78
638.08	1208.56
638.42	1201.50
638.77	1193.78
639.11	1185.98
639.45	1178.36
639.80	1170.41
640.14	1162.82
640.49	1155.01
640.83	1147.52
641.17	1140.28
641.52	1132.82
641.86	1124.96
642.20	1117.90
642.55	1110.44
642.89	1102.79
643.23	1094.91
643.58	1088.07
643.92	1080.72
644.26	1073.69
644.61	1066.40
644.95	1059.15
645.29	1051.47
645.64	1043.42
645.98	1035.85
646.32	1028.72
646.66	1021.52
647.01	1014.58
647.35	1007.70
647.69	1000.68
648.04	994.10
648.38	987.23
648.72	980.13
649.06	973.12
649.41	966.11
649.75	959.11
650.09	951.99
650.43	945.24
650.78	937.85
651.12	930.79
651.46	923.92
651.80	917.25
652.14	910.83
652.49	904.42
652.83	898.37
653.17	891.72
653.51	885.08
653.85	878.66
654.20	872.03
654.54	865.00
654.88	858.17
655.22	851.23
655.56	844.45
655.90	837.93
656.25	831.68
656.59	825.32
656.93	819.23
657.27	813.17
657.61	806.75
657.95	800.74
658.29	794.73
658.64	788.47
658.98	782.10
659.32	775.69
659.66	769.57
660.00	763.36
660.34	757.49
660.68	751.66
661.02	745.74
661.36	740.18
661.70	734.89
662.05	729.90
662.39	724.83
662.73	719.56
663.07	714.38
663.41	709.14
663.75	703.92
664.09	698.54
664.43	693.42
664.77	688.59
665.11	683.51
665.45	678.60
665.79	673.86
666.13	669.07
666.47	664.32
666.81	659.44
667.15	654.57
667.49	649.95
667.83	645.43
668.17	640.84
668.51	636.04
668.85	631.25
669.19	626.57
669.53	622.07
669.87	617.56
670.21	613.27
670.55	608.93
670.89	604.86
671.23	600.83
671.57	596.63
671.91	592.49
672.25	588.38
672.58	584.23
672.92	580.22
673.26	576.45
673.60	572.67
673.94	569.00
674.28	565.52
674.62	562.02
674.96	558.37
675.30	554.98
675.64	551.59
675.97	548.35
676.31	545.05
676.65	541.58
676.99	538.40
677.33	534.99
677.67	531.73
678.01	528.17
678.34	524.73
678.68	521.33
679.02	518.00
679.36	514.77
679.70	511.66
680.04	508.38
680.37	505.07
680.71	501.79
681.05	498.72
681.39	495.57
681.73	492.52
682.06	489.59
682.40	486.61
682.74	483.58
683.08	480.56
683.42	477.50
683.75	474.55
684.09	471.52
684.43	468.59
684.77	465.70
685.10	462.93
685.44	460.16
685.78	457.47
686.12	454.80
686.45	452.12
686.79	449.38
687.13	446.78
687.46	444.15
687.80	441.60
688.14	438.92
688.48	436.47
688.81	433.81
689.15	431.25
689.49	428.66
689.82	426.18
690.16	423.72
690.50	421.40
690.83	419.13
691.17	416.79
691.51	414.57
691.84	412.37
692.18	410.15
692.52	407.88
692.85	405.53
693.19	403.30
693.52	401.09
693.86	398.93
694.20	396.81
694.53	394.74
694.87	392.53
695.21	390.42
695.54	388.23
695.88	386.11
696.21	384.06
696.55	382.07
696.88	380.09
697.22	378.10
697.56	376.17
697.89	374.20
698.23	372.26
698.56	370.37
698.90	368.48
699.23	366.48
699.57	364.60
699.90	362.82
700.24	360.99
700.58	359.20
700.91	357.45
701.25	355.76
701.58	354.09
701.92	352.50
702.25	350.90
702.59	349.32
702.92	347.80
703.26	346.24
703.59	344.74
703.93	343.37
704.26	341.92
704.60	340.38
704.93	338.86
705.26	337.40
705.60	335.95
705.93	334.58
706.27	333.38
706.60	332.11
706.94	330.83
707.27	329.50
707.61	328.22
707.94	326.97
708.27	325.64
708.61	324.36
708.94	323.17
709.28	322.02
709.61	320.88
709.94	319.70
710.28	318.52
710.61	317.34
710.95	316.03
711.28	314.89
711.61	313.76
711.95	312.66
712.28	311.54
712.61	310.41
712.95	309.32
713.28	308.23
713.61	307.15
713.95	306.11
714.28	305.11
714.61	304.11
714.95	303.12
715.28	302.15
715.61	301.10
715.95	300.10
716.28	299.08
716.61	298.03
716.95	297.06
717.28	296.14
717.61	295.26
717.94	294.36
718.28	293.44
718.61	292.62
718.94	291.83
719.27	291.03
719.61	290.27
719.94	289.46
720.27	288.63
720.60	287.83
720.94	287.08
721.27	286.39
721.60	285.72
721.93	285.03
722.27	284.38
722.60	283.75
722.93	283.05
723.26	282.41
723.59	281.80
723.93	281.15
724.26	280.48
724.59	279.76
724.92	279.16
725.25	278.54
725.59	277.92
725.92	277.31
726.25	276.71
726.58	276.12
726.91	275.54
727.24	274.97
727.57	274.44
727.91	273.86
728.24	273.27
728.57	272.66
728.90	272.07
729.23	271.46
729.56	270.97
729.89	270.43
730.22	269.83
730.55	269.24
730.89	268.76
731.22	268.27
731.55	267.82
731.88	267.29
732.21	266.82
732.54	266.28
732.87	265.79
733.20	265.29
733.53	264.82
733.86	264.39
734.19	263.93
734.52	263.47
734.85	263.08
735.18	262.62
735.51	262.15
735.84	261.71
736.17	261.30
736.50	260.79
736.83	260.48
737.16	260.11
737.49	259.73
737.82	259.29
738.15	258.88
738.48	258.46
738.81	258.10
739.14	257.67
739.47	257.28
739.80	256.90
740.13	256.53
740.46	256.15
740.79	255.71
741.12	255.35
741.45	255.02
741.78	254.58
742.11	254.24
742.44	253.91
742.77	253.60
743.10	253.23
743.43	252.88
743.75	252.46
744.08	252.26
744.41	251.94
744.74	251.62
745.07	251.30
745.40	250.99
745.73	250.72
746.06	250.39
746.39	250.11
746.71	249.81
747.04	249.49
747.37	249.19
747.70	248.92
748.03	248.61
748.36	248.33
748.68	248.07
749.01	247.77
749.34	247.49
749.67	247.19
750.00	246.96
750.33	246.78
750.65	246.53
750.98	246.12
751.31	245.83
751.64	245.61
751.97	245.41
752.29	245.16
752.62	244.87
752.95	244.66
753.28	244.41
753.60	244.16
753.93	243.98
754.26	243.76
754.59	243.49
754.91	243.24
755.24	243.01
755.57	242.79
755.90	242.59
756.22	242.38
756.55	242.13
756.88	241.86
757.20	241.57
757.53	241.34
757.86	241.17
758.19	241.03
758.51	240.82
758.84	240.57
759.17	240.38
759.49	240.18
759.82	240.01
760.15	239.83
760.47	239.65
760.80	239.45
761.13	239.28
761.45	239.12
761.78	238.95
762.11	238.76
762.43	238.58
762.76	238.42
763.08	238.29
763.41	238.15
763.74	238.02
764.06	237.84
764.39	237.67
764.71	237.48
765.04	237.28
765.37	237.10
765.69	236.96
766.02	236.77
766.34	236.64
766.67	236.50
767.00	236.37
767.32	236.26
767.65	236.17
767.97	236.02
768.30	235.87
768.62	235.75
768.95	235.59
769.27	235.45
769.60	235.31
769.92	235.12
770.25	234.99
770.57	234.85
770.90	234.74
771.22	234.62
771.55	234.50
771.87	234.38
772.20	234.27
772.52	234.20
772.85	234.25
773.17	234.11
773.50	233.98
773.82	233.85
774.15	233.69
774.47	233.52
774.80	233.42
775.12	233.32
775.45	233.20
775.77	233.14
776.09	233.03
776.42	232.96
776.74	232.91
777.07	232.80
777.39	232.72
777.72	232.64
778.04	232.54
778.36	232.46
778.69	232.39
779.01	232.31
779.33	232.16
779.66	231.97
779.98	231.88
780.31	231.77
780.63	231.74
780.95	231.69
781.28	231.64
781.60	231.57
781.92	231.47
782.25	231.41
782.57	231.32
782.89	231.23
783.22	231.13
783.54	231.04
783.86	230.96
784.19	230.89
784.51	230.84
784.83	230.78
785.16	230.70
785.48	230.66
785.80	230.62
786.12	230.55
786.45	230.51
