SpectraSuite Data File
++++++++++++++++++++++++++++++++++++
Date: Fri Feb 01 16:15:52 EST 2013
User: group
Dark Spectrum Present: No
Reference Spectrum Present: No
Number of Sampled Component Spectra: 1
Spectrometers: USB2E7196
Integration Time (usec): 35000 (USB2E7196)
Spectra Averaged: 100 (USB2E7196)
Boxcar Smoothing: 10 (USB2E7196)
Correct for Electrical Dark: No (USB2E7196)
Strobe/Lamp Enabled: No (USB2E7196)
Correct for Detector Non-linearity: No (USB2E7196)
Correct for Stray Light: No (USB2E7196)
Number of Pixels in Processed Spectrum: 2048
>>>>>Begin Processed Spectral Data<<<<<
339.09	0.00
339.48	213.83
339.86	215.66
340.24	217.27
340.63	218.46
341.01	221.31
341.39	221.31
341.78	222.51
342.16	223.92
342.54	224.64
342.93	212.69
343.31	223.44
343.69	223.99
344.07	224.47
344.46	224.87
344.84	225.25
345.22	225.48
345.60	225.71
345.99	225.90
346.37	226.03
346.75	226.10
347.13	226.18
347.52	226.25
347.90	226.30
348.28	226.33
348.66	226.37
349.05	226.32
349.43	226.35
349.81	226.40
350.19	226.45
350.57	226.49
350.96	226.56
351.34	226.65
351.72	226.75
352.10	226.83
352.48	226.91
352.87	226.96
353.25	227.02
353.63	227.07
354.01	227.13
354.39	227.17
354.77	227.26
355.15	227.33
355.54	227.38
355.92	227.41
356.30	227.45
356.68	227.58
357.06	227.69
357.44	227.75
357.82	227.80
358.20	227.86
358.58	227.89
358.97	227.94
359.35	227.98
359.73	228.04
360.11	228.08
360.49	228.14
360.87	228.14
361.25	228.21
361.63	228.31
362.01	228.30
362.39	228.34
362.77	228.34
363.15	228.34
363.53	228.33
363.91	228.38
364.29	228.42
364.67	228.32
365.05	228.32
365.43	228.31
365.81	228.32
366.19	228.33
366.57	228.36
366.95	228.35
367.33	228.31
367.71	228.30
368.09	228.32
368.47	228.32
368.85	228.32
369.23	228.31
369.61	228.23
369.99	228.28
370.37	228.23
370.75	228.27
371.13	228.21
371.51	228.14
371.89	228.09
372.27	228.00
372.65	227.97
373.03	227.93
373.41	227.85
373.78	227.77
374.16	227.67
374.54	227.59
374.92	227.53
375.30	227.50
375.68	227.40
376.06	227.32
376.44	227.25
376.82	227.16
377.19	227.06
377.57	227.00
377.95	226.89
378.33	226.82
378.71	226.70
379.09	226.68
379.47	226.64
379.84	226.55
380.22	226.49
380.60	226.43
380.98	226.37
381.36	226.32
381.73	226.29
382.11	226.28
382.49	226.23
382.87	226.13
383.25	226.04
383.62	226.10
384.00	226.02
384.38	225.98
384.76	225.98
385.13	225.97
385.51	225.92
385.89	225.86
386.27	225.84
386.64	225.84
387.02	225.79
387.40	225.76
387.78	225.73
388.15	225.71
388.53	225.66
388.91	225.61
389.29	225.60
389.66	225.59
390.04	225.53
390.42	225.55
390.79	225.61
391.17	225.64
391.55	225.52
391.92	225.53
392.30	225.50
392.68	225.47
393.05	225.48
393.43	225.50
393.81	225.52
394.18	225.50
394.56	225.47
394.94	225.50
395.31	225.52
395.69	225.59
396.06	225.66
396.44	225.69
396.82	225.70
397.19	225.80
397.57	225.85
397.95	225.91
398.32	225.91
398.70	225.91
399.07	225.95
399.45	226.02
399.82	226.07
400.20	226.13
400.58	226.20
400.95	226.24
401.33	226.31
401.70	226.49
402.08	226.59
402.45	226.70
402.83	226.79
403.20	226.89
403.58	226.97
403.95	227.08
404.33	227.22
404.71	227.38
405.08	227.56
405.46	227.67
405.83	227.83
406.21	227.98
406.58	228.14
406.96	228.31
407.33	228.45
407.70	228.67
408.08	228.93
408.45	229.16
408.83	229.39
409.20	229.61
409.58	229.78
409.95	230.06
410.33	230.33
410.70	230.57
411.08	230.89
411.45	231.19
411.82	231.50
412.20	231.83
412.57	232.25
412.95	232.54
413.32	232.96
413.69	233.34
414.07	233.80
414.44	234.29
414.82	234.76
415.19	235.31
415.56	235.88
415.94	236.40
416.31	237.05
416.68	237.69
417.06	238.40
417.43	239.07
417.81	239.82
418.18	240.59
418.55	241.46
418.93	242.35
419.30	243.25
419.67	244.20
420.04	245.17
420.42	246.13
420.79	247.31
421.16	248.46
421.54	249.66
421.91	250.85
422.28	252.09
422.66	253.44
423.03	254.76
423.40	256.07
423.77	257.58
424.15	259.02
424.52	260.51
424.89	262.14
425.26	263.70
425.64	265.12
426.01	266.71
426.38	268.33
426.75	269.96
427.13	271.70
427.50	273.48
427.87	275.33
428.24	277.22
428.61	278.95
428.99	280.89
429.36	282.97
429.73	285.05
430.10	287.11
430.47	289.17
430.85	291.28
431.22	293.49
431.59	295.79
431.96	298.03
432.33	300.50
432.70	302.86
433.08	305.66
433.45	308.31
433.82	310.92
434.19	313.81
434.56	316.61
434.93	319.22
435.30	321.84
435.68	324.71
436.05	327.55
436.42	330.34
436.79	332.86
437.16	335.54
437.53	338.34
437.90	341.12
438.27	343.88
438.64	346.70
439.01	349.32
439.38	351.57
439.75	353.72
440.13	356.19
440.50	358.52
440.87	360.32
441.24	362.26
441.61	364.41
441.98	365.90
442.35	367.71
442.72	369.57
443.09	371.37
443.46	372.40
443.83	372.96
444.20	373.44
444.57	374.30
444.94	374.61
445.31	374.98
445.68	375.32
446.05	375.36
446.42	374.98
446.79	374.53
447.16	374.10
447.53	373.77
447.90	372.60
448.27	371.45
448.64	369.92
449.01	368.79
449.37	366.82
449.74	364.90
450.11	362.64
450.48	360.16
450.85	357.62
451.22	355.49
451.59	353.44
451.96	351.57
452.33	348.90
452.70	346.52
453.07	343.70
453.43	340.78
453.80	338.02
454.17	335.35
454.54	332.81
454.91	330.08
455.28	327.40
455.65	324.89
456.02	322.41
456.38	320.25
456.75	317.55
457.12	315.33
457.49	313.15
457.86	310.96
458.23	309.12
458.59	307.07
458.96	304.97
459.33	303.12
459.70	301.21
460.07	299.73
460.43	298.03
460.80	296.39
461.17	294.99
461.54	293.46
461.91	292.03
462.27	290.60
462.64	289.32
463.01	287.99
463.38	286.73
463.74	285.40
464.11	284.22
464.48	283.25
464.85	282.14
465.21	281.28
465.58	280.38
465.95	279.31
466.32	278.46
466.68	277.59
467.05	276.74
467.42	275.87
467.78	274.93
468.15	274.06
468.52	273.42
468.88	272.57
469.25	271.85
469.62	271.27
469.98	270.59
470.35	269.97
470.72	269.39
471.08	268.75
471.45	268.21
471.82	267.71
472.18	267.12
472.55	266.69
472.92	266.15
473.28	265.71
473.65	265.27
474.02	264.80
474.38	264.42
474.75	264.09
475.11	263.74
475.48	263.51
475.85	263.34
476.21	263.14
476.58	262.96
476.94	262.81
477.31	262.62
477.67	262.48
478.04	262.38
478.41	262.32
478.77	262.36
479.14	262.34
479.50	262.34
479.87	262.43
480.23	262.53
480.60	262.63
480.96	262.76
481.33	262.94
481.69	263.15
482.06	263.36
482.42	263.59
482.79	263.90
483.15	264.23
483.52	264.57
483.88	264.90
484.25	265.32
484.61	265.74
484.98	266.20
485.34	266.78
485.71	267.41
486.07	268.03
486.44	268.59
486.80	269.26
487.17	270.01
487.53	270.84
487.90	271.70
488.26	272.65
488.62	273.60
488.99	274.63
489.35	275.71
489.72	276.86
490.08	278.07
490.44	279.25
490.81	280.56
491.17	281.88
491.54	283.39
491.90	284.90
492.26	286.55
492.63	288.26
492.99	290.02
493.36	291.92
493.72	294.02
494.08	296.14
494.45	298.41
494.81	300.75
495.17	303.16
495.54	305.76
495.90	308.45
496.26	311.26
496.63	314.20
496.99	317.27
497.35	320.52
497.72	323.92
498.08	327.49
498.44	331.22
498.80	335.18
499.17	339.22
499.53	343.40
499.89	347.79
500.26	352.34
500.62	357.02
500.98	361.94
501.34	366.99
501.71	372.35
502.07	377.79
502.43	383.45
502.79	389.32
503.16	395.37
503.52	401.66
503.88	408.14
504.24	414.78
504.60	421.65
504.97	428.76
505.33	436.08
505.69	443.78
506.05	451.53
506.41	459.46
506.78	467.59
507.14	476.10
507.50	484.88
507.86	493.86
508.22	503.08
508.59	512.32
508.95	521.92
509.31	531.66
509.67	541.79
510.03	552.06
510.39	562.62
510.75	573.44
511.12	584.35
511.48	595.60
511.84	607.06
512.20	618.56
512.56	630.50
512.92	642.62
513.28	654.96
513.64	667.48
514.00	680.13
514.37	693.08
514.73	706.08
515.09	719.00
515.45	732.34
515.81	745.92
516.17	759.84
516.53	773.91
516.89	788.14
517.25	802.30
517.61	816.63
517.97	830.97
518.33	845.32
518.69	860.08
519.05	875.00
519.41	890.15
519.77	905.67
520.13	921.10
520.49	936.48
520.85	951.83
521.21	967.49
521.57	983.70
521.93	999.36
522.29	1015.75
522.65	1031.99
523.01	1048.17
523.37	1064.19
523.73	1080.42
524.09	1096.54
524.45	1112.80
524.81	1129.35
525.17	1146.28
525.53	1163.27
525.89	1180.17
526.25	1196.94
526.61	1213.35
526.97	1230.13
527.33	1246.65
527.68	1263.27
528.04	1279.71
528.40	1296.21
528.76	1313.27
529.12	1329.84
529.48	1346.78
529.84	1362.71
530.20	1379.28
530.56	1396.26
530.91	1413.62
531.27	1430.33
531.63	1446.61
531.99	1463.15
532.35	1479.22
532.71	1495.04
533.07	1511.09
533.42	1526.90
533.78	1542.84
534.14	1558.98
534.50	1574.22
534.86	1589.91
535.21	1604.98
535.57	1620.85
535.93	1636.32
536.29	1651.09
536.65	1665.96
537.00	1680.52
537.36	1695.83
537.72	1710.27
538.08	1724.63
538.44	1738.41
538.79	1752.21
539.15	1765.97
539.51	1779.62
539.87	1793.73
540.22	1807.22
540.58	1820.98
540.94	1834.24
541.29	1847.11
541.65	1859.87
542.01	1872.92
542.37	1885.20
542.72	1897.47
543.08	1909.13
543.44	1921.47
543.79	1932.61
544.15	1943.67
544.51	1955.30
544.87	1966.12
545.22	1976.87
545.58	1987.05
545.94	1996.59
546.29	2006.29
546.65	2015.99
547.01	2025.11
547.36	2033.79
547.72	2042.41
548.07	2050.16
548.43	2058.22
548.79	2066.25
549.14	2073.66
549.50	2080.94
549.86	2088.65
550.21	2096.06
550.57	2103.23
550.92	2109.70
551.28	2116.67
551.64	2123.81
551.99	2130.40
552.35	2136.59
552.70	2142.72
553.06	2148.61
553.41	2155.11
553.77	2161.23
554.13	2167.37
554.48	2173.65
554.84	2179.16
555.19	2184.41
555.55	2189.66
555.90	2194.09
556.26	2199.00
556.61	2203.73
556.97	2208.05
557.32	2212.14
557.68	2216.25
558.03	2220.66
558.39	2224.38
558.74	2228.95
559.10	2232.71
559.45	2236.25
559.81	2240.51
560.16	2244.39
560.52	2247.64
560.87	2250.97
561.23	2253.76
561.58	2256.66
561.94	2259.18
562.29	2261.57
562.64	2264.18
563.00	2266.68
563.35	2270.31
563.71	2273.39
564.06	2276.65
564.42	2279.59
564.77	2282.06
565.12	2284.46
565.48	2286.24
565.83	2288.22
566.19	2289.58
566.54	2290.52
566.89	2291.72
567.25	2292.28
567.60	2293.60
567.96	2295.32
568.31	2296.14
568.66	2297.24
569.02	2297.77
569.37	2298.03
569.72	2298.86
570.08	2299.04
570.43	2299.12
570.78	2298.61
571.14	2297.14
571.49	2295.62
571.84	2295.35
572.20	2294.35
572.55	2293.20
572.90	2291.77
573.26	2290.55
573.61	2288.86
573.96	2287.20
574.31	2284.42
574.67	2281.50
575.02	2277.93
575.37	2274.57
575.72	2270.78
576.08	2267.33
576.43	2264.12
576.78	2260.53
577.13	2257.33
577.49	2254.31
577.84	2250.96
578.19	2247.13
578.54	2243.55
578.90	2239.60
579.25	2233.94
579.60	2229.00
579.95	2224.04
580.30	2219.04
580.66	2213.81
581.01	2208.86
581.36	2203.86
581.71	2199.57
582.06	2195.19
582.42	2190.83
582.77	2185.69
583.12	2181.29
583.47	2176.67
583.82	2171.65
584.17	2166.48
584.53	2161.11
584.88	2155.48
585.23	2149.73
585.58	2144.34
585.93	2138.86
586.28	2134.10
586.63	2128.99
586.98	2123.93
587.34	2119.26
587.69	2114.47
588.04	2109.18
588.39	2103.58
588.74	2097.26
589.09	2091.09
589.44	2084.23
589.79	2078.20
590.14	2072.52
590.49	2065.88
590.84	2059.48
591.19	2053.59
591.54	2047.13
591.89	2039.84
592.25	2032.94
592.60	2025.83
592.95	2018.28
593.30	2010.92
593.65	2003.26
594.00	1996.31
594.35	1989.21
594.70	1981.13
595.05	1973.99
595.40	1966.83
595.75	1959.38
596.10	1953.11
596.45	1946.60
596.80	1940.62
597.15	1933.94
597.50	1926.95
597.85	1920.45
598.19	1913.92
598.54	1906.69
598.89	1899.98
599.24	1894.05
599.59	1887.46
599.94	1881.24
600.29	1874.93
600.64	1868.41
600.99	1861.05
601.34	1854.43
601.69	1847.43
602.04	1840.61
602.39	1833.25
602.74	1826.30
603.08	1819.58
603.43	1812.91
603.78	1805.43
604.13	1798.07
604.48	1790.87
604.83	1784.06
605.18	1777.25
605.53	1769.22
605.87	1761.20
606.22	1754.07
606.57	1746.04
606.92	1738.78
607.27	1731.63
607.62	1724.71
607.96	1717.52
608.31	1710.96
608.66	1703.38
609.01	1695.76
609.36	1688.16
609.70	1680.09
610.05	1672.16
610.40	1664.52
610.75	1656.13
611.10	1648.51
611.44	1640.18
611.79	1632.15
612.14	1623.47
612.49	1614.25
612.83	1605.80
613.18	1597.74
613.53	1589.64
613.88	1581.14
614.22	1572.82
614.57	1564.13
614.92	1556.20
615.27	1548.63
615.61	1540.15
615.96	1531.92
616.31	1524.33
616.65	1517.02
617.00	1509.46
617.35	1501.82
617.70	1493.38
618.04	1484.88
618.39	1476.64
618.74	1469.02
619.08	1460.64
619.43	1453.05
619.78	1446.17
620.12	1439.04
620.47	1431.52
620.82	1423.41
621.16	1416.05
621.51	1408.54
621.85	1400.93
622.20	1392.31
622.55	1383.77
622.89	1376.01
623.24	1368.47
623.59	1361.04
623.93	1353.51
624.28	1346.22
624.62	1338.54
624.97	1331.43
625.32	1324.72
625.66	1317.70
626.01	1310.61
626.35	1303.30
626.70	1295.50
627.04	1287.77
627.39	1279.96
627.73	1272.53
628.08	1265.60
628.43	1258.24
628.77	1250.79
629.12	1243.28
629.46	1236.20
629.81	1228.88
630.15	1221.65
630.50	1214.15
630.84	1205.96
631.19	1197.97
631.53	1190.54
631.88	1183.13
632.22	1175.49
632.57	1168.12
632.91	1160.64
633.26	1153.12
633.60	1145.72
633.95	1138.50
634.29	1131.36
634.64	1124.69
634.98	1117.37
635.32	1110.12
635.67	1103.59
636.01	1096.82
636.36	1089.94
636.70	1083.27
637.05	1076.69
637.39	1070.22
637.73	1063.77
638.08	1057.91
638.42	1051.99
638.77	1045.42
639.11	1038.75
639.45	1032.35
639.80	1025.68
640.14	1019.15
640.49	1012.68
640.83	1006.26
641.17	1000.11
641.52	993.82
641.86	987.28
642.20	981.43
642.55	975.12
642.89	968.61
643.23	962.18
643.58	956.50
643.92	950.35
644.26	944.34
644.61	938.31
644.95	932.25
645.29	925.65
645.64	918.93
645.98	912.70
646.32	906.93
646.66	900.83
647.01	895.03
647.35	889.30
647.69	883.38
648.04	878.00
648.38	872.19
648.72	866.25
649.06	860.23
649.41	854.33
649.75	848.38
650.09	842.49
650.43	836.68
650.78	830.42
651.12	824.51
651.46	818.73
651.80	813.04
652.14	807.68
652.49	802.30
652.83	797.06
653.17	791.32
653.51	785.51
653.85	780.22
654.20	774.60
654.54	768.62
654.88	762.95
655.22	756.95
655.56	751.22
655.90	745.70
656.25	740.47
656.59	735.10
656.93	730.08
657.27	724.84
657.61	719.43
657.95	714.33
658.29	709.17
658.64	703.92
658.98	698.47
659.32	693.00
659.66	687.81
660.00	682.50
660.34	677.53
660.68	672.62
661.02	667.59
661.36	662.86
661.70	658.33
662.05	654.01
662.39	649.72
662.73	645.26
663.07	640.85
663.41	636.42
663.75	631.91
664.09	627.28
664.43	622.86
664.77	618.70
665.11	614.43
665.45	610.32
665.79	606.25
666.13	602.16
666.47	598.10
666.81	593.90
667.15	589.84
667.49	585.96
667.83	582.13
668.17	578.14
668.51	574.06
668.85	570.08
669.19	566.20
669.53	562.27
669.87	558.44
670.21	554.84
670.55	551.18
670.89	547.72
671.23	544.30
671.57	540.82
671.91	537.30
672.25	533.87
672.58	530.38
672.92	526.93
673.26	523.80
673.60	520.64
673.94	517.58
674.28	514.62
674.62	511.64
674.96	508.56
675.30	505.66
675.64	502.76
675.97	499.97
676.31	497.05
676.65	494.22
676.99	491.50
677.33	488.60
677.67	485.76
678.01	482.77
678.34	479.79
678.68	476.95
679.02	474.18
679.36	471.38
679.70	468.65
680.04	465.90
680.37	462.98
680.71	460.14
681.05	457.51
681.39	454.80
681.73	452.10
682.06	449.56
682.40	447.04
682.74	444.51
683.08	441.95
683.42	439.39
683.75	436.81
684.09	434.30
684.43	431.80
684.77	429.37
685.10	427.00
685.44	424.68
685.78	422.35
686.12	420.07
686.45	417.79
686.79	415.54
687.13	413.38
687.46	411.26
687.80	409.10
688.14	406.82
688.48	404.77
688.81	402.56
689.15	400.40
689.49	398.20
689.82	396.10
690.16	394.04
690.50	392.06
690.83	390.13
691.17	388.09
691.51	386.23
691.84	384.40
692.18	382.48
692.52	380.47
692.85	378.59
693.19	376.69
693.52	374.87
693.86	373.02
694.20	371.23
694.53	369.42
694.87	367.56
695.21	365.82
695.54	363.97
695.88	362.27
696.21	360.54
696.55	358.85
696.88	357.16
697.22	355.45
697.56	353.80
697.89	352.19
698.23	350.60
698.56	349.01
698.90	347.38
699.23	345.72
699.57	344.20
699.90	342.64
700.24	341.06
700.58	339.51
700.91	337.99
701.25	336.52
701.58	335.16
701.92	333.83
702.25	332.48
702.59	331.14
702.92	329.83
703.26	328.55
703.59	327.29
703.93	326.13
704.26	324.92
704.60	323.66
704.93	322.37
705.26	321.10
705.60	319.87
705.93	318.76
706.27	317.74
706.60	316.68
706.94	315.59
707.27	314.48
707.61	313.42
707.94	312.39
708.27	311.31
708.61	310.23
708.94	309.23
709.28	308.22
709.61	307.22
709.94	306.23
710.28	305.19
710.61	304.20
710.95	303.11
711.28	302.21
711.61	301.28
711.95	300.35
712.28	299.41
712.61	298.41
712.95	297.46
713.28	296.60
713.61	295.70
713.95	294.83
714.28	294.00
714.61	293.14
714.95	292.26
715.28	291.42
715.61	290.53
715.95	289.66
716.28	288.80
716.61	288.00
716.95	287.15
717.28	286.40
717.61	285.63
717.94	284.91
718.28	284.13
718.61	283.37
718.94	282.68
719.27	282.05
719.61	281.39
719.94	280.73
720.27	279.98
720.60	279.29
720.94	278.62
721.27	278.00
721.60	277.43
721.93	276.86
722.27	276.30
722.60	275.76
722.93	275.18
723.26	274.61
723.59	274.05
723.93	273.55
724.26	273.00
724.59	272.44
724.92	271.91
725.25	271.37
725.59	270.84
725.92	270.33
726.25	269.79
726.58	269.31
726.91	268.82
727.24	268.34
727.57	267.85
727.91	267.34
728.24	266.88
728.57	266.37
728.90	265.91
729.23	265.40
729.56	264.97
729.89	264.52
730.22	264.05
730.55	263.54
730.89	263.09
731.22	262.64
731.55	262.25
731.88	261.80
732.21	261.37
732.54	260.96
732.87	260.53
733.20	260.15
733.53	259.76
733.86	259.36
734.19	258.99
734.52	258.63
734.85	258.34
735.18	257.90
735.51	257.52
735.84	257.14
736.17	256.80
736.50	256.40
736.83	256.18
737.16	255.88
737.49	255.55
737.82	255.21
738.15	254.88
738.48	254.53
738.81	254.22
739.14	253.89
739.47	253.54
739.80	253.25
740.13	252.94
740.46	252.59
740.79	252.29
741.12	251.96
741.45	251.66
741.78	251.34
742.11	251.10
742.44	250.80
742.77	250.54
743.10	250.23
743.43	249.91
743.75	249.48
744.08	249.30
744.41	249.04
744.74	248.76
745.07	248.46
745.40	248.23
745.73	247.99
746.06	247.76
746.39	247.53
746.71	247.26
747.04	246.97
747.37	246.74
747.70	246.49
748.03	246.25
748.36	245.99
748.68	245.75
749.01	245.49
749.34	245.27
749.67	245.02
750.00	244.80
750.33	244.67
750.65	244.49
750.98	244.18
751.31	243.98
751.64	243.78
751.97	243.63
752.29	243.38
752.62	243.13
752.95	242.86
753.28	242.67
753.60	242.45
753.93	242.29
754.26	242.11
754.59	241.87
754.91	241.64
755.24	241.45
755.57	241.27
755.90	241.10
756.22	240.92
756.55	240.70
756.88	240.50
757.20	240.26
757.53	240.08
757.86	239.89
758.19	239.73
758.51	239.58
758.84	239.38
759.17	239.24
759.49	239.09
759.82	239.01
760.15	238.84
760.47	238.71
760.80	238.50
761.13	238.39
761.45	238.28
761.78	238.16
762.11	238.02
762.43	237.84
762.76	237.69
763.08	237.57
763.41	237.45
763.74	237.33
764.06	237.21
764.39	237.05
764.71	236.92
765.04	236.75
765.37	236.63
765.69	236.48
766.02	236.32
766.34	236.19
766.67	236.03
767.00	235.91
767.32	235.85
767.65	235.81
767.97	235.64
768.30	235.53
768.62	235.43
768.95	235.29
769.27	235.20
769.60	235.08
769.92	234.99
770.25	234.88
770.57	234.74
770.90	234.63
771.22	234.52
771.55	234.41
771.87	234.33
772.20	234.21
772.52	234.21
772.85	234.26
773.17	234.18
773.50	234.10
773.82	234.01
774.15	233.85
774.47	233.70
774.80	233.63
775.12	233.54
775.45	233.49
775.77	233.43
776.09	233.34
776.42	233.27
776.74	233.21
777.07	233.11
777.39	233.06
777.72	232.98
778.04	232.91
778.36	232.85
778.69	232.80
779.01	232.72
779.33	232.59
779.66	232.41
779.98	232.31
780.31	232.22
780.63	232.20
780.95	232.12
781.28	232.06
781.60	231.98
781.92	231.91
782.25	231.84
782.57	231.78
782.89	231.74
783.22	231.67
783.54	231.57
783.86	231.54
784.19	231.48
784.51	231.44
784.83	231.40
785.16	231.34
785.48	231.31
785.80	231.26
786.12	231.17
786.45	231.11
786.77	231.05
787.09	231.01
