SpectraSuite Data File
++++++++++++++++++++++++++++++++++++
Date: Fri Feb 01 17:05:38 EST 2013
User: group
Dark Spectrum Present: No
Reference Spectrum Present: No
Number of Sampled Component Spectra: 1
Spectrometers: USB2E7196
Integration Time (usec): 35000 (USB2E7196)
Spectra Averaged: 100 (USB2E7196)
Boxcar Smoothing: 10 (USB2E7196)
Correct for Electrical Dark: No (USB2E7196)
Strobe/Lamp Enabled: No (USB2E7196)
Correct for Detector Non-linearity: No (USB2E7196)
Correct for Stray Light: No (USB2E7196)
Number of Pixels in Processed Spectrum: 2048
>>>>>Begin Processed Spectral Data<<<<<
339.09	0.00
339.48	213.10
339.86	215.22
340.24	215.63
340.63	216.81
341.01	220.08
341.39	220.31
341.78	221.51
342.16	222.62
342.54	223.52
342.93	211.61
343.31	222.31
343.69	222.85
344.07	223.28
344.46	223.68
344.84	224.08
345.22	224.33
345.60	224.56
345.99	224.76
346.37	224.88
346.75	224.95
347.13	225.03
347.52	225.05
347.90	225.09
348.28	225.08
348.66	225.13
349.05	225.14
349.43	225.15
349.81	225.19
350.19	225.24
350.57	225.31
350.96	225.38
351.34	225.46
351.72	225.54
352.10	225.66
352.48	225.78
352.87	225.86
353.25	225.91
353.63	225.97
354.01	226.03
354.39	226.10
354.77	226.20
355.15	226.32
355.54	226.43
355.92	226.52
356.30	226.62
356.68	226.77
357.06	226.86
357.44	226.90
357.82	226.96
358.20	227.02
358.58	227.06
358.97	227.12
359.35	227.25
359.73	227.36
360.11	227.37
360.49	227.43
360.87	227.49
361.25	227.55
361.63	227.64
362.01	227.70
362.39	227.77
362.77	227.81
363.15	227.83
363.53	227.87
363.91	227.92
364.29	227.94
364.67	227.84
365.05	227.84
365.43	227.87
365.81	227.90
366.19	227.99
366.57	228.07
366.95	228.06
367.33	227.99
367.71	227.94
368.09	227.97
368.47	227.98
368.85	227.95
369.23	227.95
369.61	227.89
369.99	227.88
370.37	227.86
370.75	227.85
371.13	227.80
371.51	227.74
371.89	227.68
372.27	227.68
372.65	227.68
373.03	227.66
373.41	227.61
373.78	227.57
374.16	227.46
374.54	227.33
374.92	227.28
375.30	227.24
375.68	227.20
376.06	227.15
376.44	227.09
376.82	227.02
377.19	226.96
377.57	226.90
377.95	226.83
378.33	226.78
378.71	226.68
379.09	226.66
379.47	226.61
379.84	226.55
380.22	226.41
380.60	226.32
380.98	226.25
381.36	226.20
381.73	226.14
382.11	226.08
382.49	226.03
382.87	225.96
383.25	225.92
383.62	225.95
384.00	225.89
384.38	225.81
384.76	225.77
385.13	225.78
385.51	225.73
385.89	225.67
386.27	225.64
386.64	225.58
387.02	225.51
387.40	225.46
387.78	225.42
388.15	225.41
388.53	225.37
388.91	225.33
389.29	225.25
389.66	225.23
390.04	225.21
390.42	225.19
390.79	225.15
391.17	225.12
391.55	225.02
391.92	224.99
392.30	225.00
392.68	224.97
393.05	224.93
393.43	224.91
393.81	224.87
394.18	224.82
394.56	224.83
394.94	224.85
395.31	224.84
395.69	224.88
396.06	224.90
396.44	224.90
396.82	224.91
397.19	225.03
397.57	225.04
397.95	225.04
398.32	225.09
398.70	225.14
399.07	225.21
399.45	225.21
399.82	225.27
400.20	225.31
400.58	225.38
400.95	225.42
401.33	225.53
401.70	225.70
402.08	225.81
402.45	225.91
402.83	226.02
403.20	226.10
403.58	226.19
403.95	226.32
404.33	226.49
404.71	226.61
405.08	226.75
405.46	226.88
405.83	227.04
406.21	227.15
406.58	227.33
406.96	227.50
407.33	227.71
407.70	227.89
408.08	228.14
408.45	228.34
408.83	228.58
409.20	228.76
409.58	228.89
409.95	229.12
410.33	229.39
410.70	229.62
411.08	229.91
411.45	230.21
411.82	230.49
412.20	230.84
412.57	231.24
412.95	231.53
413.32	231.96
413.69	232.36
414.07	232.80
414.44	233.28
414.82	233.74
415.19	234.24
415.56	234.79
415.94	235.36
416.31	236.00
416.68	236.63
417.06	237.36
417.43	238.08
417.81	238.88
418.18	239.60
418.55	240.45
418.93	241.38
419.30	242.26
419.67	243.21
420.04	244.13
420.42	245.11
420.79	246.31
421.16	247.47
421.54	248.67
421.91	249.90
422.28	251.10
422.66	252.42
423.03	253.78
423.40	255.10
423.77	256.52
424.15	257.92
424.52	259.37
424.89	260.96
425.26	262.50
425.64	263.94
426.01	265.56
426.38	267.21
426.75	268.83
427.13	270.57
427.50	272.35
427.87	274.28
428.24	276.14
428.61	277.88
428.99	279.80
429.36	281.88
429.73	283.92
430.10	285.96
430.47	288.03
430.85	290.11
431.22	292.36
431.59	294.67
431.96	296.88
432.33	299.36
432.70	301.71
433.08	304.48
433.45	307.07
433.82	309.65
434.19	312.45
434.56	315.24
434.93	317.87
435.30	320.44
435.68	323.20
436.05	325.98
436.42	328.71
436.79	331.22
437.16	333.85
437.53	336.69
437.90	339.47
438.27	342.17
438.64	344.90
439.01	347.46
439.38	349.66
439.75	351.84
440.13	354.27
440.50	356.58
440.87	358.40
441.24	360.34
441.61	362.46
441.98	363.95
442.35	365.75
442.72	367.56
443.09	369.36
443.46	370.38
443.83	370.97
444.20	371.47
444.57	372.24
444.94	372.59
445.31	372.91
445.68	373.26
446.05	373.34
446.42	372.98
446.79	372.61
447.16	372.20
447.53	371.91
447.90	370.82
448.27	369.71
448.64	368.15
449.01	367.05
449.37	365.15
449.74	363.34
450.11	361.10
450.48	358.67
450.85	356.18
451.22	354.07
451.59	352.11
451.96	350.20
452.33	347.64
452.70	345.29
453.07	342.52
453.43	339.64
453.80	336.92
454.17	334.32
454.54	331.77
454.91	329.08
455.28	326.40
455.65	323.91
456.02	321.53
456.38	319.41
456.75	316.78
457.12	314.51
457.49	312.28
457.86	310.13
458.23	308.31
458.59	306.32
458.96	304.22
459.33	302.41
459.70	300.60
460.07	299.14
460.43	297.45
460.80	295.82
461.17	294.40
461.54	292.93
461.91	291.48
462.27	290.03
462.64	288.80
463.01	287.47
463.38	286.22
463.74	284.85
464.11	283.74
464.48	282.70
464.85	281.62
465.21	280.76
465.58	279.88
465.95	278.83
466.32	277.91
466.68	277.05
467.05	276.15
467.42	275.27
467.78	274.36
468.15	273.50
468.52	272.85
468.88	272.03
469.25	271.26
469.62	270.71
469.98	270.08
470.35	269.45
470.72	268.86
471.08	268.21
471.45	267.66
471.82	267.10
472.18	266.54
472.55	266.11
472.92	265.62
473.28	265.13
473.65	264.69
474.02	264.25
474.38	263.92
474.75	263.60
475.11	263.21
475.48	262.93
475.85	262.68
476.21	262.46
476.58	262.29
476.94	262.17
477.31	261.97
477.67	261.81
478.04	261.71
478.41	261.70
478.77	261.74
479.14	261.66
479.50	261.70
479.87	261.81
480.23	261.92
480.60	261.99
480.96	262.13
481.33	262.32
481.69	262.52
482.06	262.74
482.42	262.92
482.79	263.23
483.15	263.57
483.52	263.99
483.88	264.36
484.25	264.71
484.61	265.12
484.98	265.57
485.34	266.16
485.71	266.77
486.07	267.34
486.44	267.89
486.80	268.60
487.17	269.33
487.53	270.14
487.90	270.95
488.26	271.89
488.62	272.87
488.99	273.85
489.35	274.88
489.72	275.97
490.08	277.18
490.44	278.42
490.81	279.73
491.17	281.06
491.54	282.53
491.90	284.10
492.26	285.71
492.63	287.45
492.99	289.16
493.36	291.03
493.72	293.06
494.08	295.18
494.45	297.42
494.81	299.76
495.17	302.17
495.54	304.73
495.90	307.38
496.26	310.17
496.63	313.09
496.99	316.19
497.35	319.44
497.72	322.84
498.08	326.34
498.44	329.95
498.80	333.84
499.17	337.83
499.53	341.94
499.89	346.36
500.26	350.78
500.62	355.45
500.98	360.41
501.34	365.49
501.71	370.71
502.07	376.13
502.43	381.67
502.79	387.42
503.16	393.43
503.52	399.64
503.88	405.97
504.24	412.57
504.60	419.40
504.97	426.47
505.33	433.72
505.69	441.32
506.05	449.05
506.41	456.87
506.78	464.95
507.14	473.32
507.50	481.81
507.86	490.76
508.22	499.86
508.59	508.98
508.95	518.37
509.31	528.15
509.67	538.12
510.03	548.28
510.39	558.68
510.75	569.32
511.12	580.19
511.48	591.34
511.84	602.64
512.20	613.94
512.56	625.65
512.92	637.54
513.28	649.70
513.64	662.06
514.00	674.56
514.37	687.29
514.73	700.16
515.09	713.05
515.45	726.11
515.81	739.50
516.17	753.23
516.53	767.18
516.89	781.07
517.25	794.97
517.61	809.13
517.97	823.38
518.33	837.48
518.69	851.86
519.05	866.52
519.41	881.38
519.77	896.69
520.13	911.90
520.49	927.04
520.85	942.08
521.21	957.43
521.57	973.23
521.93	988.62
522.29	1004.57
522.65	1020.49
523.01	1036.34
523.37	1051.97
523.73	1067.75
524.09	1083.41
524.45	1099.35
524.81	1115.62
525.17	1132.01
525.53	1148.43
525.89	1165.10
526.25	1181.63
526.61	1197.65
526.97	1213.94
527.33	1229.95
527.68	1246.11
528.04	1262.23
528.40	1278.39
528.76	1294.93
529.12	1311.20
529.48	1327.76
529.84	1343.43
530.20	1359.72
530.56	1376.33
530.91	1393.36
531.27	1409.69
531.63	1425.74
531.99	1442.00
532.35	1457.64
532.71	1473.20
533.07	1489.07
533.42	1504.50
533.78	1520.19
534.14	1536.09
534.50	1551.20
534.86	1566.72
535.21	1581.54
535.57	1597.12
535.93	1612.22
536.29	1626.70
536.65	1641.43
537.00	1655.76
537.36	1670.73
537.72	1684.83
538.08	1698.83
538.44	1712.20
538.79	1725.75
539.15	1739.08
539.51	1752.36
539.87	1766.33
540.22	1779.64
540.58	1793.04
540.94	1805.97
541.29	1818.39
541.65	1830.77
542.01	1843.61
542.37	1855.67
542.72	1867.82
543.08	1879.27
543.44	1891.44
543.79	1902.50
544.15	1913.24
544.51	1924.64
544.87	1935.25
545.22	1945.78
545.58	1955.82
545.94	1965.40
546.29	1975.14
546.65	1984.82
547.01	1993.96
547.36	2002.45
547.72	2010.88
548.07	2018.84
548.43	2026.92
548.79	2034.83
549.14	2042.31
549.50	2049.47
549.86	2057.00
550.21	2064.27
550.57	2071.37
550.92	2077.91
551.28	2084.88
551.64	2091.90
551.99	2098.29
552.35	2104.46
552.70	2110.63
553.06	2116.61
553.41	2123.01
553.77	2128.87
554.13	2134.83
554.48	2141.02
554.84	2146.65
555.19	2151.75
555.55	2156.83
555.90	2161.25
556.26	2166.18
556.61	2170.86
556.97	2175.46
557.32	2179.68
557.68	2183.73
558.03	2187.93
558.39	2191.66
558.74	2196.30
559.10	2200.17
559.45	2203.91
559.81	2208.18
560.16	2212.21
560.52	2215.58
560.87	2218.85
561.23	2221.59
561.58	2224.60
561.94	2227.16
562.29	2229.31
562.64	2232.29
563.00	2234.82
563.35	2238.51
563.71	2241.81
564.06	2245.07
564.42	2247.86
564.77	2250.50
565.12	2253.09
565.48	2255.30
565.83	2257.33
566.19	2258.85
566.54	2259.74
566.89	2261.08
567.25	2261.84
567.60	2263.02
567.96	2264.91
568.31	2265.96
568.66	2267.24
569.02	2268.08
569.37	2268.58
569.72	2269.79
570.08	2270.18
570.43	2270.54
570.78	2270.14
571.14	2268.88
571.49	2267.75
571.84	2267.56
572.20	2266.69
572.55	2265.68
572.90	2264.04
573.26	2262.86
573.61	2261.17
573.96	2259.86
574.31	2257.02
574.67	2254.44
575.02	2251.17
575.37	2247.82
575.72	2244.41
576.08	2241.20
576.43	2237.98
576.78	2234.59
577.13	2231.61
577.49	2228.49
577.84	2225.22
578.19	2221.70
578.54	2218.22
578.90	2214.26
579.25	2208.96
579.60	2204.20
579.95	2199.45
580.30	2194.79
580.66	2189.81
581.01	2185.09
581.36	2180.30
581.71	2176.52
582.06	2172.39
582.42	2168.31
582.77	2163.42
583.12	2159.21
583.47	2154.96
583.82	2150.38
584.17	2145.30
584.53	2140.02
584.88	2134.62
585.23	2129.13
585.58	2123.88
585.93	2118.61
586.28	2113.95
586.63	2109.23
586.98	2104.32
587.34	2099.82
587.69	2095.24
588.04	2090.41
588.39	2085.04
588.74	2078.87
589.09	2072.91
589.44	2066.31
589.79	2060.21
590.14	2054.72
590.49	2048.19
590.84	2041.92
591.19	2036.10
591.54	2029.81
591.89	2022.80
592.25	2016.31
592.60	2009.18
592.95	2001.90
593.30	1994.68
593.65	1987.27
594.00	1980.27
594.35	1973.17
594.70	1965.34
595.05	1958.47
595.40	1951.22
595.75	1943.99
596.10	1938.06
596.45	1931.44
596.80	1925.37
597.15	1919.06
597.50	1912.37
597.85	1906.06
598.19	1899.59
598.54	1892.75
598.89	1886.31
599.24	1880.51
599.59	1874.15
599.94	1868.13
600.29	1861.85
600.64	1855.49
600.99	1848.37
601.34	1841.75
601.69	1834.94
602.04	1828.33
602.39	1821.02
602.74	1814.35
603.08	1807.72
603.43	1801.00
603.78	1793.79
604.13	1786.66
604.48	1779.45
604.83	1772.59
605.18	1765.94
605.53	1758.15
605.87	1750.10
606.22	1742.94
606.57	1735.03
606.92	1727.65
607.27	1720.71
607.62	1714.07
607.96	1706.91
608.31	1700.48
608.66	1693.13
609.01	1685.80
609.36	1678.39
609.70	1670.60
610.05	1662.72
610.40	1655.15
610.75	1646.89
611.10	1639.41
611.44	1631.17
611.79	1623.40
612.14	1614.84
612.49	1605.63
612.83	1597.26
613.18	1589.28
613.53	1581.37
613.88	1572.95
614.22	1564.84
614.57	1556.15
614.92	1548.04
615.27	1540.62
615.61	1532.34
615.96	1524.26
616.31	1516.62
616.65	1509.18
617.00	1501.46
617.35	1493.78
617.70	1485.51
618.04	1477.12
618.39	1468.86
618.74	1461.32
619.08	1452.95
619.43	1445.41
619.78	1438.58
620.12	1431.56
620.47	1424.20
620.82	1416.02
621.16	1408.73
621.51	1401.13
621.85	1393.60
622.20	1385.26
622.55	1376.90
622.89	1368.97
623.24	1361.34
623.59	1353.99
623.93	1346.60
624.28	1339.46
624.62	1332.08
624.97	1324.87
625.32	1318.09
625.66	1311.20
626.01	1304.10
626.35	1296.78
626.70	1288.99
627.04	1281.29
627.39	1273.48
627.73	1266.02
628.08	1259.21
628.43	1251.94
628.77	1244.65
629.12	1237.19
629.46	1230.14
629.81	1222.63
630.15	1215.52
630.50	1208.21
630.84	1200.11
631.19	1192.14
631.53	1184.71
631.88	1177.16
632.22	1169.73
632.57	1162.51
632.91	1154.90
633.26	1147.47
633.60	1140.04
633.95	1132.95
634.29	1125.86
634.64	1119.25
634.98	1111.93
635.32	1104.68
635.67	1098.02
636.01	1091.29
636.36	1084.54
636.70	1077.81
637.05	1071.36
637.39	1064.93
637.73	1058.44
638.08	1052.41
638.42	1046.44
638.77	1040.09
639.11	1033.52
639.45	1027.11
639.80	1020.42
640.14	1014.07
640.49	1007.62
640.83	1001.39
641.17	995.19
641.52	988.96
641.86	982.40
642.20	976.46
642.55	970.15
642.89	963.78
643.23	957.25
643.58	951.48
643.92	945.45
644.26	939.53
644.61	933.46
644.95	927.59
645.29	921.16
645.64	914.45
645.98	908.05
646.32	902.21
646.66	896.18
647.01	890.43
647.35	884.74
647.69	878.86
648.04	873.32
648.38	867.64
648.72	861.72
649.06	855.81
649.41	850.03
649.75	844.22
650.09	838.30
650.43	832.67
650.78	826.51
651.12	820.48
651.46	814.74
651.80	809.09
652.14	803.64
652.49	798.29
652.83	793.14
653.17	787.57
653.51	781.90
653.85	776.51
654.20	770.99
654.54	765.08
654.88	759.38
655.22	753.59
655.56	747.91
655.90	742.41
656.25	737.19
656.59	731.81
656.93	726.73
657.27	721.63
657.61	716.22
657.95	711.16
658.29	706.16
658.64	700.87
658.98	695.57
659.32	690.07
659.66	684.93
660.00	679.68
660.34	674.75
660.68	669.87
661.02	664.89
661.36	660.15
661.70	655.69
662.05	651.36
662.39	647.02
662.73	642.60
663.07	638.33
663.41	633.86
663.75	629.47
664.09	624.97
664.43	620.60
664.77	616.50
665.11	612.26
665.45	608.19
665.79	604.13
666.13	599.98
666.47	595.98
666.81	591.88
667.15	587.79
667.49	583.88
667.83	580.06
668.17	576.15
668.51	572.06
668.85	567.98
669.19	564.09
669.53	560.31
669.87	556.44
670.21	552.68
670.55	549.10
670.89	545.74
671.23	542.31
671.57	538.81
671.91	535.28
672.25	531.83
672.58	528.36
672.92	524.97
673.26	521.85
673.60	518.69
673.94	515.55
674.28	512.67
674.62	509.74
674.96	506.69
675.30	503.74
675.64	500.86
675.97	498.12
676.31	495.32
676.65	492.40
676.99	489.71
677.33	486.89
677.67	484.13
678.01	481.13
678.34	478.14
678.68	475.20
679.02	472.42
679.36	469.68
679.70	466.95
680.04	464.29
680.37	461.47
680.71	458.66
681.05	456.09
681.39	453.34
681.73	450.65
682.06	448.10
682.40	445.62
682.74	443.12
683.08	440.57
683.42	437.94
683.75	435.43
684.09	432.85
684.43	430.37
684.77	427.88
685.10	425.52
685.44	423.26
685.78	421.04
686.12	418.77
686.45	416.46
686.79	414.17
687.13	411.88
687.46	409.69
687.80	407.54
688.14	405.30
688.48	403.27
688.81	401.09
689.15	398.94
689.49	396.75
689.82	394.67
690.16	392.59
690.50	390.64
690.83	388.75
691.17	386.75
691.51	384.86
691.84	383.04
692.18	381.10
692.52	379.12
692.85	377.14
693.19	375.28
693.52	373.49
693.86	371.62
694.20	369.86
694.53	368.08
694.87	366.22
695.21	364.43
695.54	362.64
695.88	360.91
696.21	359.17
696.55	357.52
696.88	355.82
697.22	354.15
697.56	352.57
697.89	350.92
698.23	349.37
698.56	347.76
698.90	346.21
699.23	344.59
699.57	343.05
699.90	341.54
700.24	339.98
700.58	338.46
700.91	337.00
701.25	335.54
701.58	334.16
701.92	332.78
702.25	331.42
702.59	330.04
702.92	328.69
703.26	327.39
703.59	326.12
703.93	324.93
704.26	323.77
704.60	322.50
704.93	321.22
705.26	319.95
705.60	318.79
705.93	317.60
706.27	316.52
706.60	315.43
706.94	314.37
707.27	313.26
707.61	312.17
707.94	311.14
708.27	310.05
708.61	308.99
708.94	308.00
709.28	307.00
709.61	306.03
709.94	305.09
710.28	304.08
710.61	303.10
710.95	302.06
711.28	301.08
711.61	300.08
711.95	299.14
712.28	298.21
712.61	297.22
712.95	296.26
713.28	295.38
713.61	294.49
713.95	293.58
714.28	292.74
714.61	291.84
714.95	291.01
715.28	290.18
715.61	289.31
715.95	288.48
716.28	287.64
716.61	286.80
716.95	286.00
717.28	285.29
717.61	284.54
717.94	283.78
718.28	282.99
718.61	282.31
718.94	281.66
719.27	281.01
719.61	280.34
719.94	279.70
720.27	278.99
720.60	278.33
720.94	277.74
721.27	277.15
721.60	276.62
721.93	276.01
722.27	275.49
722.60	274.93
722.93	274.37
723.26	273.83
723.59	273.26
723.93	272.72
724.26	272.13
724.59	271.51
724.92	270.98
725.25	270.51
725.59	269.96
725.92	269.43
726.25	268.88
726.58	268.42
726.91	267.93
727.24	267.48
727.57	267.04
727.91	266.51
728.24	266.05
728.57	265.57
728.90	265.14
729.23	264.63
729.56	264.25
729.89	263.78
730.22	263.28
730.55	262.83
730.89	262.42
731.22	261.98
731.55	261.61
731.88	261.18
732.21	260.73
732.54	260.33
732.87	259.91
733.20	259.56
733.53	259.17
733.86	258.83
734.19	258.41
734.52	258.03
734.85	257.76
735.18	257.32
735.51	256.98
735.84	256.60
736.17	256.24
736.50	255.80
736.83	255.58
737.16	255.28
737.49	254.99
737.82	254.61
738.15	254.32
738.48	253.99
738.81	253.68
739.14	253.40
739.47	253.10
739.80	252.81
740.13	252.50
740.46	252.19
740.79	251.83
741.12	251.54
741.45	251.23
741.78	250.89
742.11	250.62
742.44	250.29
742.77	249.97
743.10	249.66
743.43	249.36
743.75	248.96
744.08	248.80
744.41	248.46
744.74	248.20
745.07	247.89
745.40	247.65
745.73	247.40
746.06	247.09
746.39	246.81
746.71	246.52
747.04	246.26
747.37	245.97
747.70	245.74
748.03	245.46
748.36	245.22
748.68	244.92
749.01	244.65
749.34	244.40
749.67	244.22
750.00	244.01
750.33	243.87
750.65	243.66
750.98	243.28
751.31	243.09
751.64	242.86
751.97	242.71
752.29	242.44
752.62	242.18
752.95	241.96
753.28	241.70
753.60	241.48
753.93	241.26
754.26	241.06
754.59	240.81
754.91	240.59
755.24	240.42
755.57	240.24
755.90	240.05
756.22	239.85
756.55	239.62
756.88	239.37
757.20	239.14
757.53	238.92
757.86	238.78
758.19	238.62
758.51	238.47
758.84	238.21
759.17	238.05
759.49	237.88
759.82	237.80
760.15	237.68
760.47	237.53
760.80	237.39
761.13	237.30
761.45	237.15
761.78	237.00
762.11	236.82
762.43	236.65
762.76	236.52
763.08	236.39
763.41	236.25
763.74	236.15
764.06	236.00
764.39	235.87
764.71	235.74
765.04	235.56
765.37	235.40
765.69	235.29
766.02	235.17
766.34	235.04
766.67	234.86
767.00	234.74
767.32	234.69
767.65	234.61
767.97	234.49
768.30	234.38
768.62	234.27
768.95	234.14
769.27	234.07
769.60	233.97
769.92	233.86
770.25	233.71
770.57	233.60
770.90	233.50
771.22	233.41
771.55	233.30
771.87	233.25
772.20	233.18
772.52	233.15
772.85	233.20
773.17	233.12
773.50	233.03
773.82	232.94
774.15	232.77
774.47	232.65
774.80	232.52
775.12	232.42
775.45	232.33
775.77	232.27
776.09	232.21
776.42	232.16
776.74	232.11
777.07	232.08
777.39	232.01
777.72	231.93
778.04	231.89
778.36	231.80
778.69	231.71
779.01	231.67
779.33	231.52
779.66	231.32
779.98	231.26
780.31	231.22
780.63	231.19
780.95	231.19
781.28	231.12
781.60	231.02
781.92	231.00
782.25	230.98
782.57	230.96
782.89	230.87
783.22	230.79
783.54	230.73
783.86	230.68
784.19	230.65
784.51	230.65
784.83	230.58
785.16	230.52
785.48	230.50
785.80	230.44
786.12	230.43
786.45	230.39
786.77	230.36
787.09	230.31
