SpectraSuite Data File
++++++++++++++++++++++++++++++++++++
Date: Fri Feb 01 16:53:42 EST 2013
User: group
Dark Spectrum Present: No
Reference Spectrum Present: No
Number of Sampled Component Spectra: 1
Spectrometers: USB2E7196
Integration Time (usec): 35000 (USB2E7196)
Spectra Averaged: 100 (USB2E7196)
Boxcar Smoothing: 10 (USB2E7196)
Correct for Electrical Dark: No (USB2E7196)
Strobe/Lamp Enabled: No (USB2E7196)
Correct for Detector Non-linearity: No (USB2E7196)
Correct for Stray Light: No (USB2E7196)
Number of Pixels in Processed Spectrum: 2048
>>>>>Begin Processed Spectral Data<<<<<
339.09	0.00
339.48	212.98
339.86	214.78
340.24	216.14
340.63	217.40
341.01	220.23
341.39	220.03
341.78	221.88
342.16	222.88
342.54	222.88
342.93	211.64
343.31	222.33
343.69	222.89
344.07	223.34
344.46	223.74
344.84	224.12
345.22	224.34
345.60	224.59
345.99	224.77
346.37	224.88
346.75	224.99
347.13	225.06
347.52	225.11
347.90	225.17
348.28	225.21
348.66	225.28
349.05	225.29
349.43	225.30
349.81	225.34
350.19	225.39
350.57	225.43
350.96	225.49
351.34	225.58
351.72	225.68
352.10	225.79
352.48	225.87
352.87	225.92
353.25	226.02
353.63	226.11
354.01	226.18
354.39	226.27
354.77	226.37
355.15	226.46
355.54	226.52
355.92	226.55
356.30	226.59
356.68	226.74
357.06	226.81
357.44	226.84
357.82	226.91
358.20	226.96
358.58	227.05
358.97	227.09
359.35	227.16
359.73	227.20
360.11	227.26
360.49	227.32
360.87	227.37
361.25	227.44
361.63	227.48
362.01	227.53
362.39	227.55
362.77	227.58
363.15	227.61
363.53	227.64
363.91	227.69
364.29	227.73
364.67	227.67
365.05	227.68
365.43	227.73
365.81	227.78
366.19	227.84
366.57	227.85
366.95	227.85
367.33	227.84
367.71	227.83
368.09	227.81
368.47	227.81
368.85	227.79
369.23	227.73
369.61	227.71
369.99	227.70
370.37	227.68
370.75	227.69
371.13	227.65
371.51	227.65
371.89	227.60
372.27	227.58
372.65	227.54
373.03	227.51
373.41	227.48
373.78	227.42
374.16	227.32
374.54	227.24
374.92	227.18
375.30	227.13
375.68	227.05
376.06	226.99
376.44	226.90
376.82	226.86
377.19	226.83
377.57	226.76
377.95	226.67
378.33	226.58
378.71	226.45
379.09	226.39
379.47	226.30
379.84	226.24
380.22	226.17
380.60	226.06
380.98	225.98
381.36	225.88
381.73	225.79
382.11	225.71
382.49	225.68
382.87	225.59
383.25	225.54
383.62	225.59
384.00	225.53
384.38	225.47
384.76	225.44
385.13	225.41
385.51	225.37
385.89	225.30
386.27	225.29
386.64	225.26
387.02	225.22
387.40	225.17
387.78	225.10
388.15	225.09
388.53	225.08
388.91	225.06
389.29	225.07
389.66	225.07
390.04	225.06
390.42	225.03
390.79	225.03
391.17	224.97
391.55	224.87
391.92	224.85
392.30	224.86
392.68	224.83
393.05	224.82
393.43	224.79
393.81	224.83
394.18	224.80
394.56	224.81
394.94	224.82
395.31	224.82
395.69	224.89
396.06	224.91
396.44	224.91
396.82	224.94
397.19	224.99
397.57	225.02
397.95	225.06
398.32	225.07
398.70	225.12
399.07	225.20
399.45	225.24
399.82	225.31
400.20	225.38
400.58	225.43
400.95	225.47
401.33	225.57
401.70	225.70
402.08	225.79
402.45	225.89
402.83	226.00
403.20	226.14
403.58	226.21
403.95	226.30
404.33	226.45
404.71	226.56
405.08	226.76
405.46	226.88
405.83	227.02
406.21	227.17
406.58	227.33
406.96	227.49
407.33	227.69
407.70	227.88
408.08	228.16
408.45	228.37
408.83	228.62
409.20	228.84
409.58	229.00
409.95	229.24
410.33	229.48
410.70	229.72
411.08	229.98
411.45	230.27
411.82	230.59
412.20	230.91
412.57	231.31
412.95	231.53
413.32	231.91
413.69	232.32
414.07	232.76
414.44	233.22
414.82	233.70
415.19	234.23
415.56	234.77
415.94	235.25
416.31	235.88
416.68	236.48
417.06	237.16
417.43	237.85
417.81	238.62
418.18	239.39
418.55	240.22
418.93	241.09
419.30	241.99
419.67	242.92
420.04	243.87
420.42	244.86
420.79	246.07
421.16	247.24
421.54	248.38
421.91	249.58
422.28	250.79
422.66	252.11
423.03	253.38
423.40	254.71
423.77	256.13
424.15	257.53
424.52	258.99
424.89	260.61
425.26	262.11
425.64	263.53
426.01	265.13
426.38	266.78
426.75	268.42
427.13	270.13
427.50	271.91
427.87	273.80
428.24	275.66
428.61	277.40
428.99	279.31
429.36	281.44
429.73	283.47
430.10	285.51
430.47	287.57
430.85	289.68
431.22	291.90
431.59	294.29
431.96	296.52
432.33	298.99
432.70	301.37
433.08	304.19
433.45	306.86
433.82	309.47
434.19	312.36
434.56	315.14
434.93	317.78
435.30	320.41
435.68	323.28
436.05	326.07
436.42	328.80
436.79	331.30
437.16	333.98
437.53	336.83
437.90	339.63
438.27	342.32
438.64	345.10
439.01	347.66
439.38	349.83
439.75	352.02
440.13	354.52
440.50	356.84
440.87	358.68
441.24	360.55
441.61	362.68
441.98	364.14
442.35	365.94
442.72	367.78
443.09	369.52
443.46	370.53
443.83	371.16
444.20	371.66
444.57	372.53
444.94	372.80
445.31	373.11
445.68	373.45
446.05	373.55
446.42	373.25
446.79	372.83
447.16	372.42
447.53	372.11
447.90	370.93
448.27	369.75
448.64	368.20
449.01	367.10
449.37	365.16
449.74	363.30
450.11	361.08
450.48	358.62
450.85	356.14
451.22	353.99
451.59	351.94
451.96	350.03
452.33	347.48
452.70	345.14
453.07	342.35
453.43	339.47
453.80	336.72
454.17	334.03
454.54	331.54
454.91	328.82
455.28	326.14
455.65	323.71
456.02	321.28
456.38	319.13
456.75	316.48
457.12	314.23
457.49	312.00
457.86	309.86
458.23	308.03
458.59	306.00
458.96	303.93
459.33	302.11
459.70	300.31
460.07	298.79
460.43	297.12
460.80	295.48
461.17	294.09
461.54	292.64
461.91	291.25
462.27	289.77
462.64	288.60
463.01	287.26
463.38	285.97
463.74	284.64
464.11	283.50
464.48	282.47
464.85	281.40
465.21	280.54
465.58	279.66
465.95	278.58
466.32	277.71
466.68	276.81
467.05	275.93
467.42	275.04
467.78	274.11
468.15	273.22
468.52	272.62
468.88	271.74
469.25	270.97
469.62	270.36
469.98	269.75
470.35	269.10
470.72	268.52
471.08	267.85
471.45	267.29
471.82	266.76
472.18	266.21
472.55	265.81
472.92	265.27
473.28	264.81
473.65	264.38
474.02	263.93
474.38	263.57
474.75	263.27
475.11	262.89
475.48	262.66
475.85	262.42
476.21	262.18
476.58	262.02
476.94	261.88
477.31	261.65
477.67	261.52
478.04	261.42
478.41	261.37
478.77	261.43
479.14	261.36
479.50	261.38
479.87	261.46
480.23	261.51
480.60	261.60
480.96	261.67
481.33	261.88
481.69	262.10
482.06	262.30
482.42	262.51
482.79	262.80
483.15	263.12
483.52	263.53
483.88	263.87
484.25	264.28
484.61	264.69
484.98	265.21
485.34	265.75
485.71	266.34
486.07	266.92
486.44	267.46
486.80	268.19
487.17	268.91
487.53	269.72
487.90	270.59
488.26	271.54
488.62	272.55
488.99	273.48
489.35	274.52
489.72	275.67
490.08	276.86
490.44	278.10
490.81	279.43
491.17	280.78
491.54	282.27
491.90	283.79
492.26	285.48
492.63	287.21
492.99	288.99
493.36	290.90
493.72	292.95
494.08	295.06
494.45	297.33
494.81	299.72
495.17	302.15
495.54	304.72
495.90	307.43
496.26	310.22
496.63	313.20
496.99	316.29
497.35	319.52
497.72	322.87
498.08	326.36
498.44	330.01
498.80	333.97
499.17	338.01
499.53	342.18
499.89	346.50
500.26	350.98
500.62	355.64
500.98	360.62
501.34	365.68
501.71	370.97
502.07	376.34
502.43	381.92
502.79	387.70
503.16	393.70
503.52	399.92
503.88	406.32
504.24	412.94
504.60	419.81
504.97	426.91
505.33	434.23
505.69	441.93
506.05	449.67
506.41	457.50
506.78	465.60
507.14	474.01
507.50	482.69
507.86	491.65
508.22	500.80
508.59	509.94
508.95	519.47
509.31	529.28
509.67	539.35
510.03	549.57
510.39	559.99
510.75	570.70
511.12	581.58
511.48	592.78
511.84	604.11
512.20	615.52
512.56	627.43
512.92	639.45
513.28	651.68
513.64	663.98
514.00	676.61
514.37	689.36
514.73	702.27
515.09	715.16
515.45	728.34
515.81	741.77
516.17	755.55
516.53	769.52
516.89	783.53
517.25	797.54
517.61	811.80
517.97	826.11
518.33	840.38
518.69	854.98
519.05	869.76
519.41	884.68
519.77	900.10
520.13	915.25
520.49	930.46
520.85	945.61
521.21	961.08
521.57	976.95
521.93	992.55
522.29	1008.70
522.65	1024.69
523.01	1040.62
523.37	1056.44
523.73	1072.37
524.09	1088.15
524.45	1104.24
524.81	1120.61
525.17	1137.10
525.53	1153.73
525.89	1170.34
526.25	1186.80
526.61	1202.94
526.97	1219.52
527.33	1235.75
527.68	1252.10
528.04	1268.39
528.40	1284.83
528.76	1301.66
529.12	1318.01
529.48	1334.70
529.84	1350.42
530.20	1366.81
530.56	1383.40
530.91	1400.52
531.27	1417.03
531.63	1433.31
531.99	1449.59
532.35	1465.30
532.71	1481.04
533.07	1497.07
533.42	1512.72
533.78	1528.53
534.14	1544.52
534.50	1559.62
534.86	1575.05
535.21	1589.95
535.57	1605.44
535.93	1620.52
536.29	1635.11
536.65	1650.00
537.00	1664.36
537.36	1679.59
537.72	1693.74
538.08	1708.00
538.44	1721.55
538.79	1735.19
539.15	1748.48
539.51	1761.93
539.87	1776.08
540.22	1789.50
540.58	1803.02
540.94	1816.10
541.29	1828.73
541.65	1841.16
542.01	1853.98
542.37	1866.29
542.72	1878.41
543.08	1890.14
543.44	1902.40
543.79	1913.57
544.15	1924.30
544.51	1935.66
544.87	1946.26
545.22	1957.04
545.58	1967.12
545.94	1976.63
546.29	1986.38
546.65	1996.30
547.01	2005.48
547.36	2014.03
547.72	2022.43
548.07	2030.12
548.43	2038.09
548.79	2046.00
549.14	2053.56
549.50	2060.77
549.86	2068.32
550.21	2075.63
550.57	2082.71
550.92	2089.25
551.28	2096.24
551.64	2103.22
551.99	2109.81
552.35	2116.02
552.70	2122.13
553.06	2128.19
553.41	2134.54
553.77	2140.46
554.13	2146.33
554.48	2152.36
554.84	2158.00
555.19	2163.11
555.55	2168.39
555.90	2172.92
556.26	2177.90
556.61	2182.63
556.97	2187.15
557.32	2191.30
557.68	2195.41
558.03	2199.72
558.39	2203.39
558.74	2207.90
559.10	2211.81
559.45	2215.54
559.81	2219.79
560.16	2223.63
560.52	2226.95
560.87	2230.32
561.23	2233.16
561.58	2236.13
561.94	2238.75
562.29	2240.84
562.64	2243.83
563.00	2246.39
563.35	2249.95
563.71	2253.03
564.06	2256.19
564.42	2259.10
564.77	2261.67
565.12	2264.25
565.48	2266.26
565.83	2268.38
566.19	2269.79
566.54	2270.67
566.89	2271.89
567.25	2272.71
567.60	2274.02
567.96	2275.76
568.31	2276.98
568.66	2278.11
569.02	2278.89
569.37	2279.39
569.72	2280.56
570.08	2280.72
570.43	2280.96
570.78	2280.56
571.14	2279.32
571.49	2278.11
571.84	2277.94
572.20	2277.06
572.55	2276.06
572.90	2274.61
573.26	2273.16
573.61	2271.65
573.96	2270.41
574.31	2267.51
574.67	2264.57
575.02	2261.21
575.37	2257.92
575.72	2254.31
576.08	2251.00
576.43	2247.76
576.78	2244.23
577.13	2241.12
577.49	2238.07
577.84	2234.91
578.19	2231.36
578.54	2227.88
578.90	2223.99
579.25	2218.63
579.60	2213.78
579.95	2209.01
580.30	2204.22
580.66	2199.31
581.01	2194.47
581.36	2189.59
581.71	2185.76
582.06	2181.64
582.42	2177.45
582.77	2172.41
583.12	2167.88
583.47	2163.54
583.82	2158.89
584.17	2153.87
584.53	2148.60
584.88	2143.33
585.23	2137.64
585.58	2132.23
585.93	2126.92
586.28	2122.20
586.63	2117.34
586.98	2112.37
587.34	2107.73
587.69	2102.88
588.04	2097.86
588.39	2092.36
588.74	2086.00
589.09	2079.94
589.44	2073.22
589.79	2067.13
590.14	2061.69
590.49	2055.24
590.84	2048.90
591.19	2042.82
591.54	2036.48
591.89	2029.36
592.25	2022.72
592.60	2015.60
592.95	2008.42
593.30	2001.20
593.65	1993.80
594.00	1986.74
594.35	1979.62
594.70	1971.70
595.05	1964.80
595.40	1957.77
595.75	1950.38
596.10	1944.36
596.45	1937.96
596.80	1931.94
597.15	1925.57
597.50	1918.75
597.85	1912.46
598.19	1906.00
598.54	1899.17
598.89	1892.64
599.24	1886.77
599.59	1880.24
599.94	1874.07
600.29	1867.65
600.64	1861.17
600.99	1853.98
601.34	1847.41
601.69	1840.59
602.04	1833.84
602.39	1826.62
602.74	1819.81
603.08	1813.32
603.43	1806.64
603.78	1799.16
604.13	1792.06
604.48	1784.90
604.83	1778.01
605.18	1771.28
605.53	1763.49
605.87	1755.58
606.22	1748.46
606.57	1740.65
606.92	1733.29
607.27	1726.34
607.62	1719.63
607.96	1712.55
608.31	1705.93
608.66	1698.45
609.01	1691.02
609.36	1683.54
609.70	1675.58
610.05	1667.58
610.40	1659.86
610.75	1651.63
611.10	1644.08
611.44	1635.76
611.79	1627.79
612.14	1619.18
612.49	1610.10
612.83	1601.65
613.18	1593.41
613.53	1585.39
613.88	1576.86
614.22	1568.57
614.57	1559.92
614.92	1551.92
615.27	1544.47
615.61	1536.15
615.96	1528.05
616.31	1520.36
616.65	1512.95
617.00	1505.43
617.35	1497.70
617.70	1489.46
618.04	1481.07
618.39	1472.80
618.74	1465.21
619.08	1457.02
619.43	1449.37
619.78	1442.30
620.12	1435.25
620.47	1427.92
620.82	1419.66
621.16	1412.27
621.51	1404.76
621.85	1397.20
622.20	1388.65
622.55	1380.12
622.89	1372.31
623.24	1364.68
623.59	1357.28
623.93	1349.89
624.28	1342.64
624.62	1335.28
624.97	1327.99
625.32	1321.16
625.66	1314.20
626.01	1307.09
626.35	1299.68
626.70	1291.96
627.04	1284.39
627.39	1276.53
627.73	1269.05
628.08	1262.24
628.43	1255.09
628.77	1247.71
629.12	1240.13
629.46	1232.99
629.81	1225.51
630.15	1218.25
630.50	1210.84
630.84	1202.74
631.19	1194.78
631.53	1187.26
631.88	1179.68
632.22	1172.10
632.57	1164.79
632.91	1157.36
633.26	1149.88
633.60	1142.38
633.95	1135.29
634.29	1128.05
634.64	1121.34
634.98	1114.13
635.32	1106.98
635.67	1100.31
636.01	1093.66
636.36	1086.87
636.70	1080.27
637.05	1073.78
637.39	1067.36
637.73	1060.94
638.08	1055.03
638.42	1049.06
638.77	1042.68
639.11	1036.12
639.45	1029.74
639.80	1023.18
640.14	1016.71
640.49	1010.27
640.83	1004.08
641.17	997.95
641.52	991.70
641.86	985.23
642.20	979.36
642.55	973.08
642.89	966.65
643.23	960.20
643.58	954.55
643.92	948.45
644.26	942.56
644.61	936.54
644.95	930.65
645.29	924.19
645.64	917.48
645.98	911.11
646.32	905.21
646.66	899.24
647.01	893.44
647.35	887.82
647.69	881.88
648.04	876.33
648.38	870.55
648.72	864.68
649.06	858.76
649.41	852.84
649.75	846.93
650.09	840.95
650.43	835.19
650.78	828.94
651.12	823.13
651.46	817.32
651.80	811.61
652.14	806.07
652.49	800.63
652.83	795.52
653.17	789.87
653.51	784.18
653.85	778.82
654.20	773.15
654.54	767.14
654.88	761.49
655.22	755.57
655.56	749.90
655.90	744.47
656.25	739.22
656.59	733.87
656.93	728.71
657.27	723.59
657.61	718.08
657.95	713.05
658.29	707.92
658.64	702.69
658.98	697.34
659.32	691.93
659.66	686.81
660.00	681.49
660.34	676.61
660.68	671.71
661.02	666.67
661.36	662.00
661.70	657.45
662.05	653.05
662.39	648.79
662.73	644.33
663.07	639.84
663.41	635.43
663.75	630.95
664.09	626.35
664.43	622.01
664.77	617.99
665.11	613.75
665.45	609.56
665.79	605.50
666.13	601.40
666.47	597.27
666.81	593.10
667.15	588.99
667.49	585.04
667.83	581.18
668.17	577.29
668.51	573.27
668.85	569.21
669.19	565.35
669.53	561.50
669.87	557.57
670.21	553.93
670.55	550.26
670.89	546.84
671.23	543.47
671.57	539.92
671.91	536.29
672.25	532.74
672.58	529.21
672.92	525.73
673.26	522.54
673.60	519.38
673.94	516.29
674.28	513.39
674.62	510.41
674.96	507.31
675.30	504.40
675.64	501.44
675.97	498.68
676.31	495.86
676.65	492.98
676.99	490.33
677.33	487.49
677.67	484.68
678.01	481.63
678.34	478.64
678.68	475.75
679.02	472.99
679.36	470.23
679.70	467.54
680.04	464.85
680.37	462.02
680.71	459.22
681.05	456.60
681.39	453.83
681.73	451.22
682.06	448.73
682.40	446.13
682.74	443.56
683.08	440.98
683.42	438.39
683.75	435.86
684.09	433.29
684.43	430.80
684.77	428.37
685.10	426.05
685.44	423.79
685.78	421.50
686.12	419.19
686.45	416.91
686.79	414.59
687.13	412.41
687.46	410.22
687.80	408.08
688.14	405.82
688.48	403.78
688.81	401.54
689.15	399.39
689.49	397.28
689.82	395.23
690.16	393.18
690.50	391.24
690.83	389.33
691.17	387.28
691.51	385.40
691.84	383.53
692.18	381.59
692.52	379.66
692.85	377.77
693.19	375.96
693.52	374.15
693.86	372.34
694.20	370.53
694.53	368.77
694.87	366.95
695.21	365.18
695.54	363.32
695.88	361.60
696.21	359.87
696.55	358.19
696.88	356.49
697.22	354.78
697.56	353.09
697.89	351.44
698.23	349.88
698.56	348.27
698.90	346.71
699.23	345.05
699.57	343.46
699.90	341.88
700.24	340.35
700.58	338.82
700.91	337.36
701.25	335.90
701.58	334.51
701.92	333.17
702.25	331.80
702.59	330.47
702.92	329.14
703.26	327.82
703.59	326.53
703.93	325.34
704.26	324.19
704.60	322.93
704.93	321.61
705.26	320.37
705.60	319.16
705.93	317.97
706.27	316.95
706.60	315.85
706.94	314.79
707.27	313.63
707.61	312.55
707.94	311.47
708.27	310.38
708.61	309.28
708.94	308.22
709.28	307.24
709.61	306.24
709.94	305.29
710.28	304.25
710.61	303.27
710.95	302.17
711.28	301.19
711.61	300.22
711.95	299.34
712.28	298.39
712.61	297.44
712.95	296.51
713.28	295.60
713.61	294.72
713.95	293.80
714.28	292.97
714.61	292.09
714.95	291.25
715.28	290.41
715.61	289.54
715.95	288.71
716.28	287.82
716.61	286.99
716.95	286.09
717.28	285.36
717.61	284.58
717.94	283.85
718.28	283.02
718.61	282.26
718.94	281.52
719.27	280.84
719.61	280.19
719.94	279.50
720.27	278.78
720.60	278.08
720.94	277.51
721.27	276.92
721.60	276.36
721.93	275.77
722.27	275.26
722.60	274.68
722.93	274.10
723.26	273.59
723.59	273.04
723.93	272.53
724.26	271.97
724.59	271.44
724.92	270.94
725.25	270.44
725.59	269.97
725.92	269.46
726.25	268.94
726.58	268.44
726.91	267.96
727.24	267.47
727.57	267.05
727.91	266.47
728.24	265.98
728.57	265.52
728.90	265.03
729.23	264.50
729.56	264.10
729.89	263.62
730.22	263.12
730.55	262.62
730.89	262.18
731.22	261.72
731.55	261.26
731.88	260.80
732.21	260.42
732.54	259.99
732.87	259.55
733.20	259.14
733.53	258.79
733.86	258.43
734.19	258.02
734.52	257.64
734.85	257.38
735.18	256.94
735.51	256.56
735.84	256.20
736.17	255.86
736.50	255.46
736.83	255.23
737.16	254.91
737.49	254.59
737.82	254.24
738.15	253.94
738.48	253.62
738.81	253.35
739.14	253.00
739.47	252.68
739.80	252.41
740.13	252.12
740.46	251.78
740.79	251.43
741.12	251.13
741.45	250.80
741.78	250.46
742.11	250.19
742.44	249.86
742.77	249.59
743.10	249.26
743.43	248.98
743.75	248.62
744.08	248.48
744.41	248.22
744.74	247.99
745.07	247.69
745.40	247.42
745.73	247.17
746.06	246.92
746.39	246.67
746.71	246.37
747.04	246.08
747.37	245.81
747.70	245.55
748.03	245.34
748.36	245.08
748.68	244.81
749.01	244.57
749.34	244.34
749.67	244.11
750.00	243.90
750.33	243.74
750.65	243.48
750.98	243.14
751.31	242.94
751.64	242.72
751.97	242.58
752.29	242.36
752.62	242.09
752.95	241.86
753.28	241.65
753.60	241.46
753.93	241.31
754.26	241.12
754.59	240.91
754.91	240.69
755.24	240.53
755.57	240.36
755.90	240.15
756.22	239.95
756.55	239.75
756.88	239.57
757.20	239.31
757.53	239.13
757.86	238.96
758.19	238.78
758.51	238.57
758.84	238.34
759.17	238.19
759.49	238.04
759.82	237.91
760.15	237.73
760.47	237.58
760.80	237.40
761.13	237.22
761.45	237.07
761.78	236.91
762.11	236.75
762.43	236.57
762.76	236.44
763.08	236.34
763.41	236.18
763.74	236.05
764.06	235.92
764.39	235.77
764.71	235.61
765.04	235.45
765.37	235.30
765.69	235.16
766.02	235.04
766.34	234.92
766.67	234.78
767.00	234.69
767.32	234.62
767.65	234.55
767.97	234.45
768.30	234.35
768.62	234.22
768.95	234.10
769.27	234.02
769.60	233.94
769.92	233.79
770.25	233.68
770.57	233.52
770.90	233.41
771.22	233.31
771.55	233.22
771.87	233.15
772.20	233.06
772.52	233.04
772.85	233.04
773.17	232.92
773.50	232.82
773.82	232.67
774.15	232.54
774.47	232.40
774.80	232.31
775.12	232.21
775.45	232.15
775.77	232.08
776.09	231.98
776.42	231.87
776.74	231.85
777.07	231.78
777.39	231.76
777.72	231.69
778.04	231.64
778.36	231.56
778.69	231.48
779.01	231.42
779.33	231.27
779.66	231.10
779.98	231.05
780.31	231.02
780.63	231.01
780.95	230.98
781.28	230.93
781.60	230.85
781.92	230.79
782.25	230.73
782.57	230.67
782.89	230.59
783.22	230.55
783.54	230.47
783.86	230.42
784.19	230.34
784.51	230.32
784.83	230.24
785.16	230.22
785.48	230.17
785.80	230.11
786.12	230.10
786.45	230.08
786.77	230.03
787.09	229.97
