SpectraSuite Data File
++++++++++++++++++++++++++++++++++++
Date: Fri Feb 01 15:19:39 EST 2013
User: group
Dark Spectrum Present: No
Reference Spectrum Present: No
Number of Sampled Component Spectra: 1
Spectrometers: USB2E7196
Integration Time (usec): 35000 (USB2E7196)
Spectra Averaged: 100 (USB2E7196)
Boxcar Smoothing: 10 (USB2E7196)
Correct for Electrical Dark: No (USB2E7196)
Strobe/Lamp Enabled: No (USB2E7196)
Correct for Detector Non-linearity: No (USB2E7196)
Correct for Stray Light: No (USB2E7196)
Number of Pixels in Processed Spectrum: 2048
>>>>>Begin Processed Spectral Data<<<<<
339.09	0.00
339.48	214.28
339.86	217.19
340.24	217.71
340.63	219.55
341.01	222.37
341.39	222.28
341.78	223.52
342.16	224.90
342.54	224.97
342.93	213.40
343.31	224.18
343.69	224.79
344.07	225.21
344.46	225.62
344.84	226.03
345.22	226.27
345.60	226.49
345.99	226.69
346.37	226.83
346.75	226.94
347.13	227.04
347.52	227.14
347.90	227.20
348.28	227.20
348.66	227.23
349.05	227.24
349.43	227.31
349.81	227.38
350.19	227.46
350.57	227.53
350.96	227.64
351.34	227.72
351.72	227.81
352.10	227.92
352.48	228.00
352.87	228.03
353.25	228.09
353.63	228.16
354.01	228.21
354.39	228.28
354.77	228.34
355.15	228.44
355.54	228.49
355.92	228.53
356.30	228.61
356.68	228.72
357.06	228.81
357.44	228.86
357.82	228.89
358.20	228.98
358.58	229.02
358.97	229.06
359.35	229.15
359.73	229.16
360.11	229.26
360.49	229.32
360.87	229.37
361.25	229.41
361.63	229.48
362.01	229.55
362.39	229.56
362.77	229.60
363.15	229.60
363.53	229.61
363.91	229.69
364.29	229.71
364.67	229.63
365.05	229.61
365.43	229.63
365.81	229.65
366.19	229.65
366.57	229.71
366.95	229.68
367.33	229.66
367.71	229.65
368.09	229.60
368.47	229.58
368.85	229.54
369.23	229.54
369.61	229.49
369.99	229.46
370.37	229.42
370.75	229.43
371.13	229.32
371.51	229.29
371.89	229.21
372.27	229.19
372.65	229.14
373.03	229.09
373.41	228.98
373.78	228.92
374.16	228.81
374.54	228.66
374.92	228.59
375.30	228.51
375.68	228.41
376.06	228.33
376.44	228.24
376.82	228.16
377.19	228.06
377.57	227.95
377.95	227.85
378.33	227.79
378.71	227.64
379.09	227.60
379.47	227.52
379.84	227.44
380.22	227.36
380.60	227.26
380.98	227.18
381.36	227.12
381.73	227.05
382.11	227.00
382.49	226.97
382.87	226.88
383.25	226.82
383.62	226.91
384.00	226.83
384.38	226.80
384.76	226.78
385.13	226.77
385.51	226.73
385.89	226.64
386.27	226.61
386.64	226.60
387.02	226.56
387.40	226.49
387.78	226.43
388.15	226.38
388.53	226.35
388.91	226.35
389.29	226.32
389.66	226.32
390.04	226.30
390.42	226.27
390.79	226.29
391.17	226.28
391.55	226.15
391.92	226.15
392.30	226.13
392.68	226.09
393.05	226.09
393.43	226.10
393.81	226.14
394.18	226.14
394.56	226.16
394.94	226.22
395.31	226.22
395.69	226.30
396.06	226.34
396.44	226.36
396.82	226.40
397.19	226.49
397.57	226.54
397.95	226.58
398.32	226.63
398.70	226.71
399.07	226.80
399.45	226.88
399.82	226.97
400.20	227.03
400.58	227.14
400.95	227.22
401.33	227.32
401.70	227.47
402.08	227.55
402.45	227.67
402.83	227.79
403.20	227.93
403.58	228.06
403.95	228.23
404.33	228.38
404.71	228.52
405.08	228.70
405.46	228.81
405.83	228.99
406.21	229.17
406.58	229.34
406.96	229.51
407.33	229.68
407.70	229.89
408.08	230.20
408.45	230.41
408.83	230.65
409.20	230.88
409.58	231.06
409.95	231.33
410.33	231.60
410.70	231.86
411.08	232.19
411.45	232.49
411.82	232.76
412.20	233.13
412.57	233.55
412.95	233.84
413.32	234.27
413.69	234.67
414.07	235.10
414.44	235.54
414.82	236.03
415.19	236.59
415.56	237.09
415.94	237.65
416.31	238.28
416.68	238.92
417.06	239.63
417.43	240.32
417.81	241.11
418.18	241.88
418.55	242.71
418.93	243.57
419.30	244.48
419.67	245.44
420.04	246.39
420.42	247.41
420.79	248.64
421.16	249.79
421.54	251.00
421.91	252.24
422.28	253.50
422.66	254.81
423.03	256.14
423.40	257.51
423.77	258.92
424.15	260.34
424.52	261.80
424.89	263.40
425.26	264.97
425.64	266.41
426.01	267.97
426.38	269.65
426.75	271.30
427.13	272.99
427.50	274.76
427.87	276.65
428.24	278.46
428.61	280.20
428.99	282.12
429.36	284.22
429.73	286.29
430.10	288.30
430.47	290.38
430.85	292.48
431.22	294.70
431.59	297.06
431.96	299.36
432.33	301.87
432.70	304.29
433.08	307.11
433.45	309.76
433.82	312.42
434.19	315.32
434.56	318.16
434.93	320.84
435.30	323.53
435.68	326.43
436.05	329.29
436.42	332.12
436.79	334.64
437.16	337.34
437.53	340.22
437.90	343.06
438.27	345.81
438.64	348.65
439.01	351.27
439.38	353.56
439.75	355.66
440.13	358.15
440.50	360.49
440.87	362.37
441.24	364.34
441.61	366.51
441.98	367.99
442.35	369.82
442.72	371.70
443.09	373.52
443.46	374.49
443.83	375.07
444.20	375.56
444.57	376.39
444.94	376.67
445.31	376.97
445.68	377.36
446.05	377.42
446.42	377.04
446.79	376.62
447.16	376.14
447.53	375.82
447.90	374.67
448.27	373.45
448.64	371.83
449.01	370.64
449.37	368.64
449.74	366.74
450.11	364.46
450.48	361.97
450.85	359.40
451.22	357.27
451.59	355.19
451.96	353.27
452.33	350.68
452.70	348.28
453.07	345.43
453.43	342.48
453.80	339.71
454.17	336.99
454.54	334.39
454.91	331.66
455.28	328.98
455.65	326.47
456.02	324.03
456.38	321.86
456.75	319.20
457.12	316.96
457.49	314.70
457.86	312.55
458.23	310.66
458.59	308.61
458.96	306.50
459.33	304.67
459.70	302.73
460.07	301.20
460.43	299.49
460.80	297.84
461.17	296.42
461.54	294.90
461.91	293.51
462.27	292.08
462.64	290.80
463.01	289.45
463.38	288.13
463.74	286.81
464.11	285.64
464.48	284.61
464.85	283.47
465.21	282.61
465.58	281.63
465.95	280.52
466.32	279.58
466.68	278.68
467.05	277.77
467.42	276.90
467.78	275.95
468.15	275.06
468.52	274.40
468.88	273.49
469.25	272.71
469.62	272.05
469.98	271.37
470.35	270.73
470.72	270.14
471.08	269.45
471.45	268.86
471.82	268.30
472.18	267.65
472.55	267.17
472.92	266.61
473.28	266.16
473.65	265.72
474.02	265.26
474.38	264.86
474.75	264.59
475.11	264.20
475.48	263.96
475.85	263.75
476.21	263.47
476.58	263.28
476.94	263.10
477.31	262.94
477.67	262.77
478.04	262.66
478.41	262.58
478.77	262.66
479.14	262.59
479.50	262.60
479.87	262.73
480.23	262.86
480.60	262.95
480.96	263.02
481.33	263.24
481.69	263.45
482.06	263.65
482.42	263.78
482.79	264.04
483.15	264.34
483.52	264.71
483.88	265.07
484.25	265.47
484.61	265.93
484.98	266.34
485.34	266.91
485.71	267.50
486.07	268.11
486.44	268.66
486.80	269.38
487.17	270.11
487.53	270.90
487.90	271.74
488.26	272.63
488.62	273.64
488.99	274.59
489.35	275.65
489.72	276.81
490.08	278.06
490.44	279.33
490.81	280.70
491.17	282.03
491.54	283.51
491.90	285.07
492.26	286.78
492.63	288.54
492.99	290.30
493.36	292.18
493.72	294.24
494.08	296.35
494.45	298.61
494.81	300.96
495.17	303.39
495.54	305.94
495.90	308.65
496.26	311.43
496.63	314.43
496.99	317.50
497.35	320.75
497.72	324.16
498.08	327.68
498.44	331.34
498.80	335.30
499.17	339.35
499.53	343.50
499.89	347.86
500.26	352.39
500.62	357.07
500.98	362.09
501.34	367.14
501.71	372.43
502.07	377.82
502.43	383.46
502.79	389.23
503.16	395.27
503.52	401.55
503.88	407.94
504.24	414.52
504.60	421.43
504.97	428.58
505.33	435.94
505.69	443.58
506.05	451.35
506.41	459.22
506.78	467.35
507.14	475.79
507.50	484.48
507.86	493.51
508.22	502.73
508.59	511.85
508.95	521.46
509.31	531.33
509.67	541.49
510.03	551.77
510.39	562.34
510.75	573.21
511.12	584.16
511.48	595.45
511.84	606.97
512.20	618.47
512.56	630.34
512.92	642.49
513.28	654.84
513.64	667.34
514.00	680.06
514.37	692.96
514.73	706.08
515.09	719.08
515.45	732.38
515.81	746.05
516.17	760.10
516.53	774.19
516.89	788.42
517.25	802.57
517.61	817.02
517.97	831.51
518.33	845.97
518.69	860.86
519.05	875.95
519.41	891.15
519.77	906.74
520.13	922.30
520.49	937.60
520.85	953.15
521.21	968.93
521.57	985.25
521.93	1001.14
522.29	1017.53
522.65	1033.82
523.01	1050.07
523.37	1066.12
523.73	1082.34
524.09	1098.48
524.45	1114.75
524.81	1131.40
525.17	1148.41
525.53	1165.37
525.89	1182.30
526.25	1199.09
526.61	1215.50
526.97	1232.18
527.33	1248.76
527.68	1265.42
528.04	1282.16
528.40	1298.84
528.76	1315.94
529.12	1332.60
529.48	1349.65
529.84	1365.84
530.20	1382.54
530.56	1399.73
530.91	1417.25
531.27	1434.10
531.63	1450.66
531.99	1467.34
532.35	1483.50
532.71	1499.39
533.07	1515.68
533.42	1531.52
533.78	1547.52
534.14	1563.82
534.50	1579.34
534.86	1595.22
535.21	1610.41
535.57	1626.29
535.93	1641.86
536.29	1656.73
536.65	1671.99
537.00	1686.75
537.36	1702.11
537.72	1716.84
538.08	1731.22
538.44	1745.01
538.79	1759.08
539.15	1772.97
539.51	1786.88
539.87	1801.15
540.22	1814.95
540.58	1828.96
540.94	1842.41
541.29	1855.49
541.65	1868.18
542.01	1881.45
542.37	1893.80
542.72	1906.35
543.08	1918.20
543.44	1930.67
543.79	1941.99
544.15	1952.90
544.51	1964.61
544.87	1975.60
545.22	1986.42
545.58	1996.61
545.94	2006.39
546.29	2016.19
546.65	2025.93
547.01	2035.15
547.36	2044.08
547.72	2052.67
548.07	2060.35
548.43	2068.61
548.79	2076.71
549.14	2084.40
549.50	2091.82
549.86	2099.54
550.21	2106.87
550.57	2114.08
550.92	2120.68
551.28	2127.74
551.64	2134.75
551.99	2141.24
552.35	2147.35
552.70	2153.47
553.06	2159.41
553.41	2165.72
553.77	2171.74
554.13	2177.98
554.48	2184.06
554.84	2189.35
555.19	2194.60
555.55	2199.82
555.90	2204.26
556.26	2209.08
556.61	2213.95
556.97	2218.07
557.32	2222.19
557.68	2226.33
558.03	2230.75
558.39	2234.40
558.74	2238.96
559.10	2242.87
559.45	2246.53
559.81	2250.87
560.16	2254.70
560.52	2258.07
560.87	2261.49
561.23	2264.18
561.58	2267.08
561.94	2269.64
562.29	2272.17
562.64	2274.78
563.00	2277.44
563.35	2280.92
563.71	2283.95
564.06	2287.03
564.42	2289.95
564.77	2292.35
565.12	2294.55
565.48	2296.20
565.83	2297.94
566.19	2299.22
566.54	2300.06
566.89	2301.10
567.25	2301.42
567.60	2302.71
567.96	2304.33
568.31	2305.18
568.66	2306.11
569.02	2306.47
569.37	2306.73
569.72	2307.46
570.08	2307.49
570.43	2307.42
570.78	2306.72
571.14	2305.25
571.49	2303.82
571.84	2303.50
572.20	2302.26
572.55	2301.11
572.90	2299.62
573.26	2298.27
573.61	2296.45
573.96	2294.62
574.31	2291.52
574.67	2288.69
575.02	2285.00
575.37	2281.52
575.72	2277.51
576.08	2274.29
576.43	2271.04
576.78	2267.24
577.13	2264.03
577.49	2260.97
577.84	2257.56
578.19	2253.96
578.54	2250.23
578.90	2245.96
579.25	2240.23
579.60	2235.22
579.95	2230.24
580.30	2225.06
580.66	2219.83
581.01	2214.76
581.36	2209.77
581.71	2205.57
582.06	2200.89
582.42	2196.36
582.77	2190.99
583.12	2186.31
583.47	2181.39
583.82	2176.14
584.17	2170.76
584.53	2165.27
584.88	2159.46
585.23	2153.49
585.58	2147.81
585.93	2142.24
586.28	2137.27
586.63	2132.27
586.98	2127.21
587.34	2122.44
587.69	2117.42
588.04	2111.95
588.39	2106.19
588.74	2099.80
589.09	2093.51
589.44	2086.69
589.79	2080.53
590.14	2074.90
590.49	2068.39
590.84	2061.94
591.19	2055.97
591.54	2049.41
591.89	2041.64
592.25	2034.70
592.60	2027.35
592.95	2019.59
593.30	2012.16
593.65	2004.50
594.00	1997.28
594.35	1989.99
594.70	1981.77
595.05	1974.44
595.40	1967.22
595.75	1959.76
596.10	1953.19
596.45	1946.31
596.80	1940.00
597.15	1933.20
597.50	1925.99
597.85	1919.53
598.19	1912.68
598.54	1905.39
598.89	1898.79
599.24	1892.91
599.59	1886.23
599.94	1879.96
600.29	1873.74
600.64	1867.25
600.99	1859.79
601.34	1852.77
601.69	1845.80
602.04	1838.86
602.39	1831.56
602.74	1824.55
603.08	1817.83
603.43	1811.14
603.78	1803.89
604.13	1796.79
604.48	1789.41
604.83	1782.58
605.18	1775.44
605.53	1767.40
605.87	1759.35
606.22	1752.11
606.57	1744.13
606.92	1736.77
607.27	1729.46
607.62	1722.42
607.96	1715.01
608.31	1708.26
608.66	1700.75
609.01	1693.12
609.36	1685.52
609.70	1677.49
610.05	1669.36
610.40	1661.52
610.75	1653.27
611.10	1645.67
611.44	1637.27
611.79	1629.46
612.14	1620.59
612.49	1611.54
612.83	1603.33
613.18	1595.28
613.53	1587.24
613.88	1578.81
614.22	1570.47
614.57	1562.05
614.92	1553.96
615.27	1546.29
615.61	1538.02
615.96	1530.01
616.31	1522.36
616.65	1515.09
617.00	1507.58
617.35	1500.04
617.70	1491.62
618.04	1483.06
618.39	1474.69
618.74	1467.05
619.08	1458.72
619.43	1451.25
619.78	1444.33
620.12	1437.05
620.47	1429.48
620.82	1421.20
621.16	1413.76
621.51	1406.32
621.85	1398.62
622.20	1390.20
622.55	1381.93
622.89	1374.13
623.24	1366.58
623.59	1359.29
623.93	1351.70
624.28	1344.39
624.62	1336.75
624.97	1329.68
625.32	1322.97
625.66	1316.03
626.01	1308.71
626.35	1301.18
626.70	1293.42
627.04	1285.72
627.39	1278.00
627.73	1270.60
628.08	1263.68
628.43	1256.34
628.77	1248.81
629.12	1241.28
629.46	1234.00
629.81	1226.61
630.15	1219.35
630.50	1211.83
630.84	1203.67
631.19	1195.81
631.53	1188.33
631.88	1180.93
632.22	1173.30
632.57	1165.91
632.91	1158.36
633.26	1150.97
633.60	1143.67
633.95	1136.64
634.29	1129.65
634.64	1122.97
634.98	1115.68
635.32	1108.55
635.67	1102.06
636.01	1095.45
636.36	1088.60
636.70	1082.11
637.05	1075.58
637.39	1069.18
637.73	1062.68
638.08	1056.79
638.42	1050.85
638.77	1044.41
639.11	1037.71
639.45	1031.39
639.80	1024.75
640.14	1018.34
640.49	1011.91
640.83	1005.60
641.17	999.35
641.52	992.97
641.86	986.65
642.20	980.79
642.55	974.55
642.89	967.94
643.23	961.46
643.58	955.74
643.92	949.58
644.26	943.43
644.61	937.36
644.95	931.37
645.29	924.66
645.64	917.82
645.98	911.52
646.32	905.75
646.66	899.67
647.01	893.87
647.35	888.14
647.69	882.25
648.04	876.72
648.38	870.93
648.72	864.86
649.06	858.74
649.41	852.89
649.75	846.85
650.09	840.97
650.43	835.16
650.78	829.01
651.12	823.11
651.46	817.37
651.80	811.61
652.14	806.22
652.49	800.95
652.83	795.83
653.17	790.13
653.51	784.31
653.85	778.96
654.20	773.47
654.54	767.50
654.88	761.88
655.22	755.99
655.56	750.31
655.90	744.96
656.25	739.63
656.59	734.30
656.93	729.25
657.27	724.08
657.61	718.66
657.95	713.55
658.29	708.45
658.64	703.26
658.98	698.00
659.32	692.54
659.66	687.35
660.00	682.02
660.34	677.05
660.68	672.25
661.02	667.23
661.36	662.44
661.70	657.98
662.05	653.57
662.39	649.30
662.73	644.87
663.07	640.49
663.41	636.13
663.75	631.61
664.09	627.08
664.43	622.69
664.77	618.59
665.11	614.34
665.45	610.27
665.79	606.19
666.13	602.09
666.47	598.03
666.81	593.77
667.15	589.72
667.49	585.88
667.83	582.11
668.17	578.14
668.51	574.05
668.85	570.02
669.19	566.18
669.53	562.30
669.87	558.38
670.21	554.70
670.55	551.06
670.89	547.68
671.23	544.23
671.57	540.73
671.91	537.17
672.25	533.67
672.58	530.06
672.92	526.75
673.26	523.62
673.60	520.43
673.94	517.36
674.28	514.42
674.62	511.46
674.96	508.35
675.30	505.46
675.64	502.58
675.97	499.84
676.31	497.00
676.65	494.06
676.99	491.39
677.33	488.58
677.67	485.73
678.01	482.65
678.34	479.72
678.68	476.90
679.02	474.10
679.36	471.35
679.70	468.63
680.04	465.81
680.37	462.92
680.71	460.16
681.05	457.60
681.39	454.93
681.73	452.30
682.06	449.78
682.40	447.26
682.74	444.70
683.08	442.12
683.42	439.51
683.75	437.07
684.09	434.50
684.43	431.99
684.77	429.55
685.10	427.22
685.44	424.91
685.78	422.58
686.12	420.34
686.45	418.09
686.79	415.88
687.13	413.70
687.46	411.56
687.80	409.41
688.14	407.18
688.48	405.08
688.81	402.83
689.15	400.67
689.49	398.55
689.82	396.47
690.16	394.36
690.50	392.41
690.83	390.42
691.17	388.48
691.51	386.54
691.84	384.71
692.18	382.77
692.52	380.80
692.85	378.94
693.19	377.05
693.52	375.20
693.86	373.40
694.20	371.62
694.53	369.76
694.87	367.90
695.21	366.10
695.54	364.30
695.88	362.61
696.21	360.88
696.55	359.15
696.88	357.44
697.22	355.82
697.56	354.22
697.89	352.56
698.23	350.93
698.56	349.34
698.90	347.76
699.23	346.09
699.57	344.57
699.90	343.01
700.24	341.47
700.58	339.99
700.91	338.48
701.25	337.06
701.58	335.71
701.92	334.41
702.25	333.03
702.59	331.66
702.92	330.31
703.26	328.99
703.59	327.77
703.93	326.63
704.26	325.39
704.60	324.10
704.93	322.85
705.26	321.62
705.60	320.47
705.93	319.27
706.27	318.28
706.60	317.21
706.94	316.14
707.27	315.02
707.61	313.95
707.94	312.89
708.27	311.77
708.61	310.73
708.94	309.71
709.28	308.71
709.61	307.76
709.94	306.81
710.28	305.81
710.61	304.85
710.95	303.77
711.28	302.89
711.61	301.94
711.95	301.04
712.28	300.11
712.61	299.11
712.95	298.17
713.28	297.28
713.61	296.38
713.95	295.47
714.28	294.63
714.61	293.75
714.95	292.90
715.28	292.07
715.61	291.17
715.95	290.33
716.28	289.51
716.61	288.71
716.95	287.90
717.28	287.13
717.61	286.28
717.94	285.57
718.28	284.74
718.61	284.00
718.94	283.31
719.27	282.66
719.61	282.00
719.94	281.33
720.27	280.57
720.60	279.88
720.94	279.29
721.27	278.69
721.60	278.09
721.93	277.49
722.27	276.89
722.60	276.39
722.93	275.78
723.26	275.24
723.59	274.62
723.93	274.11
724.26	273.58
724.59	273.07
724.92	272.53
725.25	272.07
725.59	271.60
725.92	271.09
726.25	270.53
726.58	270.06
726.91	269.60
727.24	269.17
727.57	268.73
727.91	268.20
728.24	267.72
728.57	267.23
728.90	266.79
729.23	266.34
729.56	265.89
729.89	265.44
730.22	264.99
730.55	264.53
730.89	264.06
731.22	263.62
731.55	263.19
731.88	262.78
732.21	262.31
732.54	261.85
732.87	261.45
733.20	261.10
733.53	260.72
733.86	260.33
734.19	259.90
734.52	259.52
734.85	259.21
735.18	258.76
735.51	258.43
735.84	258.08
736.17	257.76
736.50	257.34
736.83	257.12
737.16	256.74
737.49	256.47
737.82	256.12
738.15	255.81
738.48	255.48
738.81	255.16
739.14	254.84
739.47	254.52
739.80	254.21
740.13	253.91
740.46	253.57
740.79	253.25
741.12	252.95
741.45	252.63
741.78	252.34
742.11	252.08
742.44	251.76
742.77	251.44
743.10	251.11
743.43	250.81
743.75	250.45
744.08	250.29
744.41	250.01
744.74	249.77
745.07	249.45
745.40	249.22
745.73	249.02
746.06	248.74
746.39	248.49
746.71	248.17
747.04	247.90
747.37	247.63
747.70	247.42
748.03	247.19
748.36	246.97
748.68	246.70
749.01	246.47
749.34	246.24
749.67	246.04
750.00	245.81
750.33	245.69
750.65	245.47
750.98	245.16
751.31	244.91
751.64	244.69
751.97	244.52
752.29	244.26
752.62	243.98
752.95	243.79
753.28	243.59
753.60	243.39
753.93	243.21
754.26	243.02
754.59	242.77
754.91	242.55
755.24	242.36
755.57	242.16
755.90	241.98
756.22	241.80
756.55	241.61
756.88	241.42
757.20	241.15
757.53	240.95
757.86	240.77
758.19	240.65
758.51	240.49
758.84	240.28
759.17	240.12
759.49	239.92
759.82	239.80
760.15	239.62
760.47	239.47
760.80	239.30
761.13	239.17
761.45	239.01
761.78	238.88
762.11	238.70
762.43	238.54
762.76	238.38
763.08	238.24
763.41	238.07
763.74	237.92
764.06	237.82
764.39	237.70
764.71	237.56
765.04	237.38
765.37	237.24
765.69	237.12
766.02	236.98
766.34	236.88
766.67	236.71
767.00	236.60
767.32	236.56
767.65	236.49
767.97	236.37
768.30	236.27
768.62	236.16
768.95	236.05
769.27	235.97
769.60	235.89
769.92	235.79
770.25	235.69
770.57	235.59
770.90	235.45
771.22	235.29
771.55	235.17
771.87	235.09
772.20	235.02
772.52	235.00
772.85	235.04
773.17	234.95
773.50	234.87
773.82	234.75
774.15	234.61
774.47	234.46
774.80	234.35
775.12	234.25
775.45	234.17
775.77	234.08
776.09	233.99
776.42	233.91
776.74	233.83
777.07	233.76
777.39	233.69
777.72	233.63
778.04	233.57
778.36	233.50
778.69	233.43
779.01	233.33
779.33	233.20
779.66	233.03
779.98	232.98
780.31	232.90
780.63	232.91
780.95	232.84
781.28	232.77
781.60	232.72
781.92	232.66
782.25	232.58
782.57	232.53
782.89	232.49
783.22	232.42
783.54	232.37
783.86	232.32
784.19	232.26
784.51	232.24
784.83	232.21
785.16	232.16
785.48	232.13
785.80	232.09
786.12	232.04
786.45	232.00
786.77	231.96
787.09	231.93
