SpectraSuite Data File
++++++++++++++++++++++++++++++++++++
Date: Fri Feb 01 15:20:30 EST 2013
User: group
Dark Spectrum Present: No
Reference Spectrum Present: No
Number of Sampled Component Spectra: 1
Spectrometers: USB2E7196
Integration Time (usec): 35000 (USB2E7196)
Spectra Averaged: 100 (USB2E7196)
Boxcar Smoothing: 10 (USB2E7196)
Correct for Electrical Dark: No (USB2E7196)
Strobe/Lamp Enabled: No (USB2E7196)
Correct for Detector Non-linearity: No (USB2E7196)
Correct for Stray Light: No (USB2E7196)
Number of Pixels in Processed Spectrum: 2048
>>>>>Begin Processed Spectral Data<<<<<
339.09	0.00
339.48	215.00
339.86	217.01
340.24	217.41
340.63	219.48
341.01	222.48
341.39	222.21
341.78	223.59
342.16	224.04
342.54	224.74
342.93	213.35
343.31	224.13
343.69	224.66
344.07	225.10
344.46	225.56
344.84	225.91
345.22	226.11
345.60	226.32
345.99	226.52
346.37	226.66
346.75	226.79
347.13	226.86
347.52	226.90
347.90	226.99
348.28	227.03
348.66	227.08
349.05	227.05
349.43	227.08
349.81	227.16
350.19	227.20
350.57	227.27
350.96	227.36
351.34	227.46
351.72	227.55
352.10	227.65
352.48	227.73
352.87	227.82
353.25	227.89
353.63	227.98
354.01	228.02
354.39	228.11
354.77	228.17
355.15	228.30
355.54	228.37
355.92	228.41
356.30	228.49
356.68	228.61
357.06	228.70
357.44	228.76
357.82	228.82
358.20	228.85
358.58	228.88
358.97	228.96
359.35	229.03
359.73	229.13
360.11	229.17
360.49	229.20
360.87	229.23
361.25	229.30
361.63	229.36
362.01	229.40
362.39	229.40
362.77	229.46
363.15	229.47
363.53	229.51
363.91	229.52
364.29	229.56
364.67	229.50
365.05	229.52
365.43	229.53
365.81	229.51
366.19	229.60
366.57	229.62
366.95	229.57
367.33	229.54
367.71	229.49
368.09	229.49
368.47	229.47
368.85	229.44
369.23	229.42
369.61	229.36
369.99	229.35
370.37	229.36
370.75	229.34
371.13	229.29
371.51	229.22
371.89	229.17
372.27	229.10
372.65	229.02
373.03	228.95
373.41	228.90
373.78	228.86
374.16	228.75
374.54	228.68
374.92	228.62
375.30	228.56
375.68	228.47
376.06	228.40
376.44	228.28
376.82	228.24
377.19	228.16
377.57	228.06
377.95	227.96
378.33	227.85
378.71	227.73
379.09	227.64
379.47	227.57
379.84	227.51
380.22	227.40
380.60	227.30
380.98	227.22
381.36	227.12
381.73	227.01
382.11	226.96
382.49	226.88
382.87	226.83
383.25	226.74
383.62	226.79
384.00	226.69
384.38	226.66
384.76	226.58
385.13	226.54
385.51	226.50
385.89	226.45
386.27	226.41
386.64	226.36
387.02	226.30
387.40	226.27
387.78	226.25
388.15	226.21
388.53	226.19
388.91	226.17
389.29	226.13
389.66	226.12
390.04	226.10
390.42	226.10
390.79	226.06
391.17	226.07
391.55	225.95
391.92	225.99
392.30	226.04
392.68	226.05
393.05	226.06
393.43	226.07
393.81	226.08
394.18	226.09
394.56	226.14
394.94	226.19
395.31	226.23
395.69	226.27
396.06	226.35
396.44	226.43
396.82	226.46
397.19	226.58
397.57	226.67
397.95	226.76
398.32	226.80
398.70	226.88
399.07	226.97
399.45	227.04
399.82	227.10
400.20	227.18
400.58	227.25
400.95	227.34
401.33	227.44
401.70	227.60
402.08	227.75
402.45	227.84
402.83	227.97
403.20	228.09
403.58	228.22
403.95	228.36
404.33	228.51
404.71	228.67
405.08	228.87
405.46	229.00
405.83	229.15
406.21	229.34
406.58	229.53
406.96	229.70
407.33	229.91
407.70	230.13
408.08	230.40
408.45	230.64
408.83	230.87
409.20	231.10
409.58	231.30
409.95	231.57
410.33	231.84
410.70	232.12
411.08	232.39
411.45	232.70
411.82	233.02
412.20	233.37
412.57	233.79
412.95	234.08
413.32	234.48
413.69	234.86
414.07	235.29
414.44	235.73
414.82	236.21
415.19	236.75
415.56	237.29
415.94	237.78
416.31	238.43
416.68	239.04
417.06	239.75
417.43	240.42
417.81	241.14
418.18	241.92
418.55	242.73
418.93	243.63
419.30	244.48
419.67	245.36
420.04	246.31
420.42	247.26
420.79	248.42
421.16	249.55
421.54	250.71
421.91	251.90
422.28	253.14
422.66	254.45
423.03	255.74
423.40	257.04
423.77	258.44
424.15	259.83
424.52	261.30
424.89	262.88
425.26	264.42
425.64	265.88
426.01	267.46
426.38	269.13
426.75	270.77
427.13	272.48
427.50	274.28
427.87	276.13
428.24	277.98
428.61	279.73
428.99	281.68
429.36	283.82
429.73	285.88
430.10	287.90
430.47	289.95
430.85	292.06
431.22	294.30
431.59	296.70
431.96	298.96
432.33	301.45
432.70	303.85
433.08	306.64
433.45	309.27
433.82	311.91
434.19	314.80
434.56	317.60
434.93	320.29
435.30	322.89
435.68	325.80
436.05	328.66
436.42	331.48
436.79	334.01
437.16	336.68
437.53	339.54
437.90	342.39
438.27	345.19
438.64	348.05
439.01	350.65
439.38	352.90
439.75	355.08
440.13	357.59
440.50	359.93
440.87	361.84
441.24	363.83
441.61	365.98
441.98	367.49
442.35	369.35
442.72	371.23
443.09	373.10
443.46	374.11
443.83	374.70
444.20	375.22
444.57	376.05
444.94	376.40
445.31	376.75
445.68	377.08
446.05	377.14
446.42	376.74
446.79	376.34
447.16	375.88
447.53	375.55
447.90	374.43
448.27	373.28
448.64	371.65
449.01	370.51
449.37	368.51
449.74	366.63
450.11	364.31
450.48	361.81
450.85	359.30
451.22	357.15
451.59	355.13
451.96	353.15
452.33	350.56
452.70	348.21
453.07	345.36
453.43	342.49
453.80	339.68
454.17	337.02
454.54	334.43
454.91	331.71
455.28	329.04
455.65	326.51
456.02	324.05
456.38	321.92
456.75	319.22
457.12	316.96
457.49	314.73
457.86	312.57
458.23	310.72
458.59	308.63
458.96	306.57
459.33	304.68
459.70	302.86
460.07	301.30
460.43	299.53
460.80	297.92
461.17	296.43
461.54	294.94
461.91	293.49
462.27	292.10
462.64	290.81
463.01	289.44
463.38	288.14
463.74	286.77
464.11	285.61
464.48	284.60
464.85	283.53
465.21	282.61
465.58	281.72
465.95	280.61
466.32	279.72
466.68	278.79
467.05	277.88
467.42	276.96
467.78	276.06
468.15	275.21
468.52	274.52
468.88	273.68
469.25	272.89
469.62	272.25
469.98	271.53
470.35	270.92
470.72	270.30
471.08	269.61
471.45	269.05
471.82	268.51
472.18	267.93
472.55	267.44
472.92	266.94
473.28	266.45
473.65	265.99
474.02	265.53
474.38	265.16
474.75	264.85
475.11	264.49
475.48	264.23
475.85	263.93
476.21	263.71
476.58	263.55
476.94	263.42
477.31	263.25
477.67	263.15
478.04	263.04
478.41	262.97
478.77	263.02
479.14	263.00
479.50	262.99
479.87	263.01
480.23	263.09
480.60	263.16
480.96	263.26
481.33	263.49
481.69	263.64
482.06	263.81
482.42	264.01
482.79	264.27
483.15	264.55
483.52	264.99
483.88	265.35
484.25	265.70
484.61	266.12
484.98	266.57
485.34	267.13
485.71	267.71
486.07	268.34
486.44	268.91
486.80	269.60
487.17	270.31
487.53	271.14
487.90	271.99
488.26	272.94
488.62	273.93
488.99	274.88
489.35	275.94
489.72	277.09
490.08	278.30
490.44	279.54
490.81	280.88
491.17	282.23
491.54	283.71
491.90	285.22
492.26	286.85
492.63	288.61
492.99	290.36
493.36	292.25
493.72	294.27
494.08	296.38
494.45	298.63
494.81	301.05
495.17	303.50
495.54	306.06
495.90	308.74
496.26	311.53
496.63	314.49
496.99	317.63
497.35	320.85
497.72	324.23
498.08	327.73
498.44	331.36
498.80	335.31
499.17	339.33
499.53	343.54
499.89	347.94
500.26	352.44
500.62	357.16
500.98	362.15
501.34	367.21
501.71	372.59
502.07	377.96
502.43	383.59
502.79	389.38
503.16	395.45
503.52	401.72
503.88	408.13
504.24	414.79
504.60	421.69
504.97	428.89
505.33	436.29
505.69	444.04
506.05	451.82
506.41	459.64
506.78	467.79
507.14	476.20
507.50	484.89
507.86	493.90
508.22	503.04
508.59	512.19
508.95	521.86
509.31	531.60
509.67	541.73
510.03	552.01
510.39	562.54
510.75	573.37
511.12	584.27
511.48	595.60
511.84	607.04
512.20	618.56
512.56	630.44
512.92	642.55
513.28	654.77
513.64	667.28
514.00	680.07
514.37	692.97
514.73	705.99
515.09	719.04
515.45	732.38
515.81	746.01
516.17	760.01
516.53	774.06
516.89	788.23
517.25	802.41
517.61	816.88
517.97	831.38
518.33	845.78
518.69	860.64
519.05	875.63
519.41	890.81
519.77	906.42
520.13	921.91
520.49	937.32
520.85	952.89
521.21	968.62
521.57	984.82
521.93	1000.64
522.29	1017.25
522.65	1033.56
523.01	1049.77
523.37	1065.86
523.73	1082.06
524.09	1098.21
524.45	1114.56
524.81	1131.36
525.17	1148.22
525.53	1165.29
525.89	1182.28
526.25	1199.09
526.61	1215.44
526.97	1232.22
527.33	1248.63
527.68	1265.34
528.04	1281.92
528.40	1298.57
528.76	1315.65
529.12	1332.32
529.48	1349.19
529.84	1365.14
530.20	1381.84
530.56	1398.98
530.91	1416.37
531.27	1433.16
531.63	1449.79
531.99	1466.54
532.35	1482.45
532.71	1498.28
533.07	1514.47
533.42	1530.36
533.78	1546.56
534.14	1562.99
534.50	1578.36
534.86	1594.43
535.21	1609.60
535.57	1625.65
535.93	1641.23
536.29	1656.24
536.65	1671.36
537.00	1686.27
537.36	1701.68
537.72	1716.38
538.08	1730.89
538.44	1744.92
538.79	1758.99
539.15	1772.67
539.51	1786.48
539.87	1801.01
540.22	1814.84
540.58	1828.78
540.94	1842.23
541.29	1855.36
541.65	1868.19
542.01	1881.55
542.37	1893.84
542.72	1906.36
543.08	1918.14
543.44	1930.66
543.79	1941.89
544.15	1952.99
544.51	1964.56
544.87	1975.59
545.22	1986.21
545.58	1996.42
545.94	2006.11
546.29	2016.11
546.65	2025.96
547.01	2035.09
547.36	2043.76
547.72	2052.25
548.07	2060.11
548.43	2068.28
548.79	2076.25
549.14	2083.65
549.50	2091.09
549.86	2098.88
550.21	2106.12
550.57	2113.40
550.92	2120.03
551.28	2127.09
551.64	2134.27
551.99	2140.98
552.35	2147.12
552.70	2153.33
553.06	2159.24
553.41	2165.70
553.77	2171.59
554.13	2177.67
554.48	2183.90
554.84	2189.48
555.19	2194.90
555.55	2199.94
555.90	2204.32
556.26	2208.98
556.61	2213.73
556.97	2217.80
557.32	2221.93
557.68	2226.22
558.03	2230.44
558.39	2234.03
558.74	2238.62
559.10	2242.34
559.45	2245.94
559.81	2250.19
560.16	2254.17
560.52	2257.51
560.87	2260.89
561.23	2263.41
561.58	2266.49
561.94	2268.97
562.29	2271.29
562.64	2273.80
563.00	2276.54
563.35	2280.13
563.71	2283.23
564.06	2286.44
564.42	2289.34
564.77	2291.74
565.12	2293.97
565.48	2295.67
565.83	2297.55
566.19	2298.82
566.54	2299.88
566.89	2300.80
567.25	2301.37
567.60	2302.56
567.96	2304.07
568.31	2304.79
568.66	2305.99
569.02	2306.43
569.37	2306.68
569.72	2307.44
570.08	2307.68
570.43	2307.57
570.78	2306.96
571.14	2305.48
571.49	2304.17
571.84	2303.75
572.20	2302.54
572.55	2301.38
572.90	2299.79
573.26	2298.36
573.61	2296.62
573.96	2294.55
574.31	2291.59
574.67	2288.51
575.02	2284.83
575.37	2281.37
575.72	2277.47
576.08	2274.12
576.43	2270.70
576.78	2267.04
577.13	2263.79
577.49	2260.58
577.84	2256.89
578.19	2253.02
578.54	2249.28
578.90	2244.95
579.25	2239.34
579.60	2234.28
579.95	2229.22
580.30	2224.25
580.66	2218.95
581.01	2213.92
581.36	2208.99
581.71	2204.57
582.06	2200.06
582.42	2195.48
582.77	2190.25
583.12	2185.64
583.47	2180.68
583.82	2175.45
584.17	2170.06
584.53	2164.55
584.88	2158.75
585.23	2152.99
585.58	2147.55
585.93	2142.04
586.28	2137.21
586.63	2132.11
586.98	2127.05
587.34	2122.36
587.69	2117.41
588.04	2112.11
588.39	2106.32
588.74	2099.75
589.09	2093.71
589.44	2086.79
589.79	2080.71
590.14	2074.94
590.49	2068.35
590.84	2061.92
591.19	2056.08
591.54	2049.64
591.89	2042.06
592.25	2035.30
592.60	2028.01
592.95	2020.18
593.30	2012.71
593.65	2005.00
594.00	1997.84
594.35	1990.59
594.70	1982.47
595.05	1974.95
595.40	1967.53
595.75	1959.98
596.10	1953.66
596.45	1946.84
596.80	1940.56
597.15	1933.82
597.50	1926.55
597.85	1920.05
598.19	1913.34
598.54	1906.00
598.89	1899.29
599.24	1893.43
599.59	1886.50
599.94	1880.27
600.29	1873.97
600.64	1867.35
600.99	1859.82
601.34	1852.97
601.69	1845.85
602.04	1838.79
602.39	1831.52
602.74	1824.66
603.08	1817.88
603.43	1811.07
603.78	1803.72
604.13	1796.53
604.48	1789.18
604.83	1782.53
605.18	1775.43
605.53	1767.35
605.87	1759.26
606.22	1751.96
606.57	1743.95
606.92	1736.77
607.27	1729.51
607.62	1722.54
607.96	1715.20
608.31	1708.50
608.66	1700.73
609.01	1693.12
609.36	1685.47
609.70	1677.48
610.05	1669.37
610.40	1661.66
610.75	1653.41
611.10	1645.68
611.44	1637.37
611.79	1629.48
612.14	1620.57
612.49	1611.45
612.83	1603.11
613.18	1595.08
613.53	1587.00
613.88	1578.42
614.22	1570.14
614.57	1561.49
614.92	1553.44
615.27	1545.80
615.61	1537.48
615.96	1529.74
616.31	1522.12
616.65	1514.84
617.00	1507.30
617.35	1499.73
617.70	1491.21
618.04	1482.68
618.39	1474.46
618.74	1466.72
619.08	1458.42
619.43	1450.95
619.78	1444.03
620.12	1436.94
620.47	1429.43
620.82	1421.24
621.16	1413.83
621.51	1406.20
621.85	1398.59
622.20	1390.15
622.55	1381.98
622.89	1374.17
623.24	1366.52
623.59	1359.12
623.93	1351.63
624.28	1344.32
624.62	1336.72
624.97	1329.74
625.32	1323.07
625.66	1316.14
626.01	1308.99
626.35	1301.51
626.70	1293.86
627.04	1286.06
627.39	1278.28
627.73	1270.90
628.08	1263.97
628.43	1256.60
628.77	1249.11
629.12	1241.63
629.46	1234.32
629.81	1226.85
630.15	1219.67
630.50	1212.14
630.84	1203.99
631.19	1196.09
631.53	1188.71
631.88	1181.19
632.22	1173.56
632.57	1166.22
632.91	1158.64
633.26	1151.20
633.60	1143.93
633.95	1136.81
634.29	1129.86
634.64	1123.15
634.98	1115.75
635.32	1108.58
635.67	1102.14
636.01	1095.55
636.36	1088.71
636.70	1082.32
637.05	1075.73
637.39	1069.20
637.73	1062.72
638.08	1056.84
638.42	1050.82
638.77	1044.37
639.11	1037.71
639.45	1031.39
639.80	1024.74
640.14	1018.28
640.49	1011.78
640.83	1005.45
641.17	999.09
641.52	992.74
641.86	986.39
642.20	980.54
642.55	974.30
642.89	967.72
643.23	961.27
643.58	955.54
643.92	949.25
644.26	943.25
644.61	937.28
644.95	931.22
645.29	924.63
645.64	917.88
645.98	911.52
646.32	905.80
646.66	899.76
647.01	893.97
647.35	888.30
647.69	882.48
648.04	876.95
648.38	871.20
648.72	865.14
649.06	859.00
649.41	853.14
649.75	847.06
650.09	841.09
650.43	835.26
650.78	829.12
651.12	823.20
651.46	817.38
651.80	811.65
652.14	806.26
652.49	800.83
652.83	795.73
653.17	789.99
653.51	784.14
653.85	778.68
654.20	772.98
654.54	766.96
654.88	761.23
655.22	755.33
655.56	749.65
655.90	744.27
656.25	739.06
656.59	733.74
656.93	728.76
657.27	723.71
657.61	718.31
657.95	713.20
658.29	708.16
658.64	702.95
658.98	697.62
659.32	692.13
659.66	686.97
660.00	681.61
660.34	676.68
660.68	671.82
661.02	666.82
661.36	662.17
661.70	657.74
662.05	653.42
662.39	649.06
662.73	644.64
663.07	640.27
663.41	635.84
663.75	631.30
664.09	626.73
664.43	622.27
664.77	618.14
665.11	613.91
665.45	609.80
665.79	605.81
666.13	601.73
666.47	597.72
666.81	593.60
667.15	589.52
667.49	585.70
667.83	581.94
668.17	577.95
668.51	573.83
668.85	569.81
669.19	565.95
669.53	562.12
669.87	558.24
670.21	554.57
670.55	550.92
670.89	547.50
671.23	544.10
671.57	540.63
671.91	537.06
672.25	533.56
672.58	530.02
672.92	526.64
673.26	523.47
673.60	520.32
673.94	517.23
674.28	514.34
674.62	511.43
674.96	508.31
675.30	505.45
675.64	502.55
675.97	499.81
676.31	496.95
676.65	494.05
676.99	491.35
677.33	488.47
677.67	485.69
678.01	482.63
678.34	479.63
678.68	476.80
679.02	474.04
679.36	471.30
679.70	468.62
680.04	465.81
680.37	462.92
680.71	460.15
681.05	457.57
681.39	454.87
681.73	452.15
682.06	449.60
682.40	447.10
682.74	444.61
683.08	442.02
683.42	439.41
683.75	436.93
684.09	434.43
684.43	431.97
684.77	429.49
685.10	427.20
685.44	424.90
685.78	422.58
686.12	420.35
686.45	418.08
686.79	415.77
687.13	413.57
687.46	411.39
687.80	409.24
688.14	406.99
688.48	404.84
688.81	402.60
689.15	400.51
689.49	398.32
689.82	396.24
690.16	394.20
690.50	392.22
690.83	390.22
691.17	388.23
691.51	386.32
691.84	384.46
692.18	382.50
692.52	380.53
692.85	378.61
693.19	376.71
693.52	374.86
693.86	373.04
694.20	371.31
694.53	369.51
694.87	367.66
695.21	365.88
695.54	364.11
695.88	362.40
696.21	360.63
696.55	358.97
696.88	357.27
697.22	355.61
697.56	354.07
697.89	352.43
698.23	350.80
698.56	349.16
698.90	347.55
699.23	345.92
699.57	344.35
699.90	342.83
700.24	341.30
700.58	339.79
700.91	338.30
701.25	336.78
701.58	335.46
701.92	334.12
702.25	332.77
702.59	331.42
702.92	330.10
703.26	328.80
703.59	327.53
703.93	326.36
704.26	325.14
704.60	323.80
704.93	322.58
705.26	321.31
705.60	320.21
705.93	319.10
706.27	318.11
706.60	317.10
706.94	316.07
707.27	314.92
707.61	313.86
707.94	312.89
708.27	311.82
708.61	310.74
708.94	309.73
709.28	308.75
709.61	307.79
709.94	306.85
710.28	305.85
710.61	304.89
710.95	303.82
711.28	302.93
711.61	302.00
711.95	301.08
712.28	300.16
712.61	299.22
712.95	298.35
713.28	297.43
713.61	296.54
713.95	295.62
714.28	294.80
714.61	293.98
714.95	293.12
715.28	292.28
715.61	291.41
715.95	290.60
716.28	289.71
716.61	288.92
716.95	288.13
717.28	287.40
717.61	286.65
717.94	285.92
718.28	285.12
718.61	284.42
718.94	283.74
719.27	283.13
719.61	282.44
719.94	281.75
720.27	281.04
720.60	280.39
720.94	279.76
721.27	279.15
721.60	278.54
721.93	277.96
722.27	277.44
722.60	276.91
722.93	276.29
723.26	275.78
723.59	275.20
723.93	274.62
724.26	274.06
724.59	273.53
724.92	273.00
725.25	272.49
725.59	271.97
725.92	271.48
726.25	270.93
726.58	270.41
726.91	269.87
727.24	269.38
727.57	268.89
727.91	268.39
728.24	267.94
728.57	267.46
728.90	267.01
729.23	266.49
729.56	266.02
729.89	265.60
730.22	265.14
730.55	264.65
730.89	264.22
731.22	263.78
731.55	263.30
731.88	262.86
732.21	262.42
732.54	261.94
732.87	261.47
733.20	261.04
733.53	260.71
733.86	260.34
734.19	259.91
734.52	259.51
734.85	259.20
735.18	258.75
735.51	258.37
735.84	257.97
736.17	257.60
736.50	257.20
736.83	256.95
737.16	256.57
737.49	256.23
737.82	255.84
738.15	255.50
738.48	255.13
738.81	254.81
739.14	254.47
739.47	254.14
739.80	253.85
740.13	253.57
740.46	253.18
740.79	252.86
741.12	252.57
741.45	252.26
741.78	251.89
742.11	251.63
742.44	251.31
742.77	250.98
743.10	250.72
743.43	250.39
743.75	250.00
744.08	249.88
744.41	249.63
744.74	249.39
745.07	249.12
745.40	248.87
745.73	248.65
746.06	248.40
746.39	248.19
746.71	247.91
747.04	247.63
747.37	247.39
747.70	247.16
748.03	246.94
748.36	246.73
748.68	246.49
749.01	246.25
749.34	246.07
749.67	245.88
750.00	245.63
750.33	245.52
750.65	245.33
750.98	244.98
751.31	244.78
751.64	244.57
751.97	244.42
752.29	244.21
752.62	243.96
752.95	243.76
753.28	243.56
753.60	243.37
753.93	243.26
754.26	243.07
754.59	242.85
754.91	242.67
755.24	242.53
755.57	242.36
755.90	242.14
756.22	241.94
756.55	241.78
756.88	241.61
757.20	241.38
757.53	241.16
757.86	240.97
758.19	240.83
758.51	240.69
758.84	240.50
759.17	240.39
759.49	240.23
759.82	240.14
760.15	239.97
760.47	239.81
760.80	239.59
761.13	239.46
761.45	239.30
761.78	239.16
762.11	239.00
762.43	238.85
762.76	238.76
763.08	238.64
763.41	238.48
763.74	238.34
764.06	238.22
764.39	238.09
764.71	237.99
765.04	237.83
765.37	237.69
765.69	237.54
766.02	237.38
766.34	237.28
766.67	237.13
767.00	237.02
767.32	236.97
767.65	236.92
767.97	236.79
768.30	236.69
768.62	236.57
768.95	236.41
769.27	236.31
769.60	236.18
769.92	236.05
770.25	235.94
770.57	235.81
770.90	235.69
771.22	235.58
771.55	235.47
771.87	235.38
772.20	235.26
772.52	235.24
772.85	235.27
773.17	235.14
773.50	234.99
773.82	234.89
774.15	234.71
774.47	234.56
774.80	234.47
775.12	234.39
775.45	234.30
775.77	234.20
776.09	234.09
776.42	234.02
776.74	233.96
777.07	233.86
777.39	233.81
777.72	233.72
778.04	233.63
778.36	233.54
778.69	233.49
779.01	233.41
779.33	233.27
779.66	233.06
779.98	233.00
780.31	232.94
780.63	232.87
780.95	232.85
781.28	232.78
781.60	232.68
781.92	232.59
782.25	232.52
782.57	232.49
782.89	232.43
783.22	232.37
783.54	232.28
783.86	232.23
784.19	232.15
784.51	232.15
784.83	232.08
785.16	232.02
785.48	231.96
785.80	231.92
786.12	231.88
786.45	231.81
786.77	231.75
787.09	231.71
