SpectraSuite Data File
++++++++++++++++++++++++++++++++++++
Date: Fri Feb 01 15:28:13 EST 2013
User: group
Dark Spectrum Present: No
Reference Spectrum Present: No
Number of Sampled Component Spectra: 1
Spectrometers: USB2E7196
Integration Time (usec): 35000 (USB2E7196)
Spectra Averaged: 100 (USB2E7196)
Boxcar Smoothing: 10 (USB2E7196)
Correct for Electrical Dark: No (USB2E7196)
Strobe/Lamp Enabled: No (USB2E7196)
Correct for Detector Non-linearity: No (USB2E7196)
Correct for Stray Light: No (USB2E7196)
Number of Pixels in Processed Spectrum: 2048
>>>>>Begin Processed Spectral Data<<<<<
339.09	0.00
339.48	214.93
339.86	216.43
340.24	217.76
340.63	219.12
341.01	222.09
341.39	222.03
341.78	223.10
342.16	224.68
342.54	225.34
342.93	213.52
343.31	224.30
343.69	224.86
344.07	225.36
344.46	225.82
344.84	226.21
345.22	226.48
345.60	226.74
345.99	226.96
346.37	227.07
346.75	227.17
347.13	227.26
347.52	227.34
347.90	227.47
348.28	227.50
348.66	227.52
349.05	227.53
349.43	227.54
349.81	227.60
350.19	227.62
350.57	227.67
350.96	227.76
351.34	227.83
351.72	227.92
352.10	228.00
352.48	228.07
352.87	228.14
353.25	228.21
353.63	228.26
354.01	228.32
354.39	228.43
354.77	228.53
355.15	228.59
355.54	228.63
355.92	228.66
356.30	228.73
356.68	228.87
357.06	228.92
357.44	228.99
357.82	229.02
358.20	229.09
358.58	229.17
358.97	229.19
359.35	229.31
359.73	229.37
360.11	229.43
360.49	229.45
360.87	229.49
361.25	229.52
361.63	229.60
362.01	229.66
362.39	229.65
362.77	229.67
363.15	229.69
363.53	229.72
363.91	229.73
364.29	229.76
364.67	229.66
365.05	229.67
365.43	229.70
365.81	229.72
366.19	229.73
366.57	229.73
366.95	229.74
367.33	229.63
367.71	229.59
368.09	229.56
368.47	229.52
368.85	229.49
369.23	229.47
369.61	229.38
369.99	229.34
370.37	229.29
370.75	229.27
371.13	229.20
371.51	229.12
371.89	229.07
372.27	228.97
372.65	228.93
373.03	228.86
373.41	228.78
373.78	228.71
374.16	228.59
374.54	228.52
374.92	228.44
375.30	228.39
375.68	228.32
376.06	228.24
376.44	228.18
376.82	228.13
377.19	228.02
377.57	227.91
377.95	227.82
378.33	227.78
378.71	227.66
379.09	227.60
379.47	227.54
379.84	227.43
380.22	227.36
380.60	227.28
380.98	227.21
381.36	227.14
381.73	227.04
382.11	227.03
382.49	226.96
382.87	226.84
383.25	226.82
383.62	226.84
384.00	226.79
384.38	226.74
384.76	226.67
385.13	226.69
385.51	226.68
385.89	226.61
386.27	226.56
386.64	226.52
387.02	226.47
387.40	226.44
387.78	226.43
388.15	226.42
388.53	226.38
388.91	226.35
389.29	226.30
389.66	226.32
390.04	226.24
390.42	226.26
390.79	226.27
391.17	226.25
391.55	226.17
391.92	226.20
392.30	226.22
392.68	226.24
393.05	226.25
393.43	226.27
393.81	226.33
394.18	226.36
394.56	226.39
394.94	226.43
395.31	226.44
395.69	226.51
396.06	226.56
396.44	226.61
396.82	226.68
397.19	226.79
397.57	226.82
397.95	226.90
398.32	226.94
398.70	227.02
399.07	227.10
399.45	227.17
399.82	227.23
400.20	227.31
400.58	227.37
400.95	227.39
401.33	227.47
401.70	227.60
402.08	227.69
402.45	227.79
402.83	227.94
403.20	228.07
403.58	228.17
403.95	228.29
404.33	228.44
404.71	228.53
405.08	228.69
405.46	228.82
405.83	229.00
406.21	229.14
406.58	229.31
406.96	229.47
407.33	229.65
407.70	229.84
408.08	230.08
408.45	230.30
408.83	230.55
409.20	230.79
409.58	230.99
409.95	231.22
410.33	231.49
410.70	231.70
411.08	232.01
411.45	232.33
411.82	232.61
412.20	232.96
412.57	233.38
412.95	233.71
413.32	234.11
413.69	234.51
414.07	234.93
414.44	235.40
414.82	235.86
415.19	236.39
415.56	236.93
415.94	237.42
416.31	238.05
416.68	238.66
417.06	239.37
417.43	240.02
417.81	240.80
418.18	241.57
418.55	242.44
418.93	243.27
419.30	244.15
419.67	245.12
420.04	246.04
420.42	247.02
420.79	248.22
421.16	249.40
421.54	250.58
421.91	251.81
422.28	253.02
422.66	254.34
423.03	255.64
423.40	256.95
423.77	258.40
424.15	259.83
424.52	261.36
424.89	262.93
425.26	264.53
425.64	265.96
426.01	267.54
426.38	269.18
426.75	270.87
427.13	272.58
427.50	274.42
427.87	276.31
428.24	278.22
428.61	279.95
428.99	281.85
429.36	283.96
429.73	286.01
430.10	288.10
430.47	290.23
430.85	292.34
431.22	294.56
431.59	296.92
431.96	299.19
432.33	301.62
432.70	304.01
433.08	306.76
433.45	309.45
433.82	312.10
434.19	315.00
434.56	317.86
434.93	320.53
435.30	323.15
435.68	326.08
436.05	328.91
436.42	331.71
436.79	334.26
437.16	336.95
437.53	339.80
437.90	342.61
438.27	345.33
438.64	348.18
439.01	350.85
439.38	353.14
439.75	355.31
440.13	357.86
440.50	360.20
440.87	362.10
441.24	364.04
441.61	366.16
441.98	367.63
442.35	369.44
442.72	371.33
443.09	373.15
443.46	374.16
443.83	374.74
444.20	375.24
444.57	376.09
444.94	376.38
445.31	376.74
445.68	377.08
446.05	377.11
446.42	376.76
446.79	376.36
447.16	375.89
447.53	375.59
447.90	374.42
448.27	373.27
448.64	371.68
449.01	370.52
449.37	368.56
449.74	366.69
450.11	364.40
450.48	361.86
450.85	359.32
451.22	357.13
451.59	355.11
451.96	353.15
452.33	350.51
452.70	348.18
453.07	345.36
453.43	342.47
453.80	339.72
454.17	336.99
454.54	334.41
454.91	331.69
455.28	328.97
455.65	326.49
456.02	324.07
456.38	321.88
456.75	319.27
457.12	316.98
457.49	314.74
457.86	312.54
458.23	310.71
458.59	308.63
458.96	306.54
459.33	304.66
459.70	302.80
460.07	301.33
460.43	299.56
460.80	297.91
461.17	296.46
461.54	294.97
461.91	293.57
462.27	292.10
462.64	290.83
463.01	289.48
463.38	288.16
463.74	286.74
464.11	285.61
464.48	284.53
464.85	283.43
465.21	282.55
465.58	281.62
465.95	280.49
466.32	279.59
466.68	278.65
467.05	277.78
467.42	276.88
467.78	275.91
468.15	275.05
468.52	274.34
468.88	273.43
469.25	272.64
469.62	272.02
469.98	271.35
470.35	270.74
470.72	270.10
471.08	269.44
471.45	268.91
471.82	268.34
472.18	267.73
472.55	267.29
472.92	266.76
473.28	266.29
473.65	265.89
474.02	265.44
474.38	265.09
474.75	264.75
475.11	264.42
475.48	264.20
475.85	263.98
476.21	263.76
476.58	263.61
476.94	263.44
477.31	263.23
477.67	263.05
478.04	262.96
478.41	262.94
478.77	262.97
479.14	262.93
479.50	262.93
479.87	263.00
480.23	263.10
480.60	263.18
480.96	263.30
481.33	263.47
481.69	263.67
482.06	263.88
482.42	264.09
482.79	264.35
483.15	264.63
483.52	264.98
483.88	265.36
484.25	265.74
484.61	266.18
484.98	266.68
485.34	267.24
485.71	267.75
486.07	268.33
486.44	268.86
486.80	269.55
487.17	270.26
487.53	271.09
487.90	271.92
488.26	272.89
488.62	273.86
488.99	274.83
489.35	275.89
489.72	276.99
490.08	278.19
490.44	279.44
490.81	280.79
491.17	282.13
491.54	283.58
491.90	285.14
492.26	286.82
492.63	288.53
492.99	290.33
493.36	292.27
493.72	294.36
494.08	296.51
494.45	298.74
494.81	301.12
495.17	303.56
495.54	306.13
495.90	308.77
496.26	311.63
496.63	314.59
496.99	317.70
497.35	320.97
497.72	324.36
498.08	327.83
498.44	331.51
498.80	335.47
499.17	339.51
499.53	343.65
499.89	347.95
500.26	352.46
500.62	357.17
500.98	362.13
501.34	367.17
501.71	372.48
502.07	377.92
502.43	383.54
502.79	389.35
503.16	395.43
503.52	401.65
503.88	408.03
504.24	414.67
504.60	421.62
504.97	428.76
505.33	436.08
505.69	443.82
506.05	451.61
506.41	459.50
506.78	467.67
507.14	476.14
507.50	484.95
507.86	493.97
508.22	503.14
508.59	512.37
508.95	521.92
509.31	531.76
509.67	541.95
510.03	552.30
510.39	562.84
510.75	573.65
511.12	584.65
511.48	595.96
511.84	607.41
512.20	618.85
512.56	630.77
512.92	642.98
513.28	655.27
513.64	667.74
514.00	680.48
514.37	693.49
514.73	706.50
515.09	719.54
515.45	732.85
515.81	746.40
516.17	760.43
516.53	774.57
516.89	788.68
517.25	802.87
517.61	817.28
517.97	831.89
518.33	846.29
518.69	861.12
519.05	876.15
519.41	891.35
519.77	907.03
520.13	922.58
520.49	937.97
520.85	953.52
521.21	969.33
521.57	985.59
521.93	1001.37
522.29	1017.94
522.65	1034.26
523.01	1050.54
523.37	1066.79
523.73	1082.97
524.09	1099.17
524.45	1115.72
524.81	1132.38
525.17	1149.25
525.53	1166.16
525.89	1183.10
526.25	1199.95
526.61	1216.40
526.97	1233.16
527.33	1249.60
527.68	1266.22
528.04	1282.73
528.40	1299.38
528.76	1316.45
529.12	1333.03
529.48	1349.88
529.84	1365.86
530.20	1382.54
530.56	1399.66
530.91	1417.01
531.27	1433.92
531.63	1450.49
531.99	1467.01
532.35	1483.04
532.71	1499.06
533.07	1515.37
533.42	1531.40
533.78	1547.49
534.14	1563.81
534.50	1579.24
534.86	1595.22
535.21	1610.38
535.57	1626.54
535.93	1642.01
536.29	1656.79
536.65	1672.10
537.00	1686.95
537.36	1702.37
537.72	1716.90
538.08	1731.32
538.44	1745.03
538.79	1758.77
539.15	1772.54
539.51	1786.31
539.87	1800.66
540.22	1814.28
540.58	1828.13
540.94	1841.56
541.29	1854.54
541.65	1867.32
542.01	1880.70
542.37	1892.97
542.72	1905.50
543.08	1917.14
543.44	1929.60
543.79	1940.93
544.15	1951.77
544.51	1963.43
544.87	1974.54
545.22	1985.39
545.58	1995.64
545.94	2005.58
546.29	2015.64
546.65	2025.38
547.01	2034.68
547.36	2043.44
547.72	2052.03
548.07	2059.91
548.43	2068.11
548.79	2076.15
549.14	2083.57
549.50	2090.97
549.86	2098.78
550.21	2106.25
550.57	2113.57
550.92	2120.27
551.28	2127.47
551.64	2134.64
551.99	2141.22
552.35	2147.29
552.70	2153.44
553.06	2159.52
553.41	2165.86
553.77	2171.98
554.13	2178.13
554.48	2184.15
554.84	2189.63
555.19	2195.06
555.55	2200.19
555.90	2204.59
556.26	2209.48
556.61	2214.43
556.97	2218.54
557.32	2222.59
557.68	2226.64
558.03	2230.82
558.39	2234.48
558.74	2239.04
559.10	2242.83
559.45	2246.42
559.81	2250.82
560.16	2254.73
560.52	2257.96
560.87	2261.58
561.23	2264.23
561.58	2267.16
561.94	2269.87
562.29	2272.36
562.64	2275.01
563.00	2277.65
563.35	2281.21
563.71	2284.33
564.06	2287.36
564.42	2290.27
564.77	2292.78
565.12	2295.05
565.48	2296.81
565.83	2298.62
566.19	2299.83
566.54	2300.77
566.89	2301.96
567.25	2302.40
567.60	2303.73
567.96	2305.27
568.31	2306.00
568.66	2306.84
569.02	2307.46
569.37	2307.71
569.72	2308.45
570.08	2308.43
570.43	2308.24
570.78	2307.51
571.14	2305.88
571.49	2304.56
571.84	2304.23
572.20	2302.97
572.55	2301.76
572.90	2300.38
573.26	2299.06
573.61	2297.39
573.96	2295.57
574.31	2292.41
574.67	2289.21
575.02	2285.47
575.37	2282.06
575.72	2278.15
576.08	2274.87
576.43	2271.39
576.78	2267.54
577.13	2264.38
577.49	2261.35
577.84	2257.94
578.19	2254.20
578.54	2250.57
578.90	2246.15
579.25	2240.56
579.60	2235.55
579.95	2230.50
580.30	2225.29
580.66	2220.07
581.01	2215.08
581.36	2210.11
581.71	2205.87
582.06	2201.51
582.42	2196.92
582.77	2191.78
583.12	2186.96
583.47	2182.06
583.82	2176.92
584.17	2171.62
584.53	2165.92
584.88	2159.99
585.23	2153.96
585.58	2148.32
585.93	2142.73
586.28	2138.00
586.63	2132.84
586.98	2127.68
587.34	2122.99
587.69	2118.12
588.04	2112.59
588.39	2106.79
588.74	2100.25
589.09	2093.98
589.44	2087.08
589.79	2081.04
590.14	2075.09
590.49	2068.46
590.84	2062.04
591.19	2056.08
591.54	2049.75
591.89	2042.27
592.25	2035.44
592.60	2028.33
592.95	2020.68
593.30	2013.28
593.65	2005.53
594.00	1998.37
594.35	1991.23
594.70	1983.04
595.05	1975.71
595.40	1968.39
595.75	1960.79
596.10	1954.36
596.45	1947.58
596.80	1941.34
597.15	1934.54
597.50	1927.40
597.85	1921.04
598.19	1914.38
598.54	1907.26
598.89	1900.45
599.24	1894.65
599.59	1887.97
599.94	1881.66
600.29	1875.38
600.64	1868.79
600.99	1861.41
601.34	1854.52
601.69	1847.49
602.04	1840.63
602.39	1833.34
602.74	1826.58
603.08	1819.81
603.43	1813.16
603.78	1805.89
604.13	1798.62
604.48	1791.28
604.83	1784.45
605.18	1777.38
605.53	1769.32
605.87	1761.13
606.22	1753.80
606.57	1745.64
606.92	1738.30
607.27	1731.12
607.62	1724.07
607.96	1716.68
608.31	1709.88
608.66	1702.17
609.01	1694.48
609.36	1686.74
609.70	1678.61
610.05	1670.43
610.40	1662.73
610.75	1654.39
611.10	1646.65
611.44	1638.22
611.79	1630.36
612.14	1621.71
612.49	1612.57
612.83	1604.25
613.18	1596.06
613.53	1588.07
613.88	1579.66
614.22	1571.39
614.57	1562.68
614.92	1554.66
615.27	1547.06
615.61	1538.74
615.96	1530.84
616.31	1523.29
616.65	1515.99
617.00	1508.40
617.35	1500.74
617.70	1492.28
618.04	1483.67
618.39	1475.43
618.74	1467.88
619.08	1459.47
619.43	1451.80
619.78	1444.87
620.12	1437.68
620.47	1430.25
620.82	1421.95
621.16	1414.48
621.51	1406.90
621.85	1399.32
622.20	1390.80
622.55	1382.59
622.89	1374.79
623.24	1367.15
623.59	1359.74
623.93	1352.32
624.28	1345.08
624.62	1337.57
624.97	1330.51
625.32	1323.81
625.66	1316.81
626.01	1309.53
626.35	1302.02
626.70	1294.29
627.04	1286.56
627.39	1278.84
627.73	1271.56
628.08	1264.66
628.43	1257.23
628.77	1249.81
629.12	1242.22
629.46	1234.98
629.81	1227.50
630.15	1220.29
630.50	1212.90
630.84	1204.65
631.19	1196.75
631.53	1189.31
631.88	1181.78
632.22	1174.17
632.57	1166.91
632.91	1159.42
633.26	1152.11
633.60	1144.80
633.95	1137.74
634.29	1130.72
634.64	1123.95
634.98	1116.44
635.32	1109.40
635.67	1102.99
636.01	1096.32
636.36	1089.56
636.70	1083.18
637.05	1076.75
637.39	1070.30
637.73	1063.78
638.08	1058.06
638.42	1052.03
638.77	1045.50
639.11	1038.89
639.45	1032.53
639.80	1025.84
640.14	1019.32
640.49	1012.75
640.83	1006.47
641.17	1000.25
641.52	993.88
641.86	987.55
642.20	981.69
642.55	975.43
642.89	968.89
643.23	962.36
643.58	956.56
643.92	950.28
644.26	944.06
644.61	938.13
644.95	932.12
645.29	925.44
645.64	918.61
645.98	912.33
646.32	906.55
646.66	900.46
647.01	894.66
647.35	889.05
647.69	883.26
648.04	877.78
648.38	871.93
648.72	865.92
649.06	859.84
649.41	853.97
649.75	847.88
650.09	841.91
650.43	836.16
650.78	830.02
651.12	823.99
651.46	818.30
651.80	812.45
652.14	807.04
652.49	801.63
652.83	796.43
653.17	790.76
653.51	784.89
653.85	779.50
654.20	773.92
654.54	767.93
654.88	762.17
655.22	756.34
655.56	750.68
655.90	745.23
656.25	739.89
656.59	734.50
656.93	729.45
657.27	724.22
657.61	718.76
657.95	713.63
658.29	708.64
658.64	703.42
658.98	698.08
659.32	692.63
659.66	687.43
660.00	682.21
660.34	677.22
660.68	672.45
661.02	667.42
661.36	662.65
661.70	658.12
662.05	653.74
662.39	649.33
662.73	644.89
663.07	640.53
663.41	636.09
663.75	631.63
664.09	627.09
664.43	622.80
664.77	618.67
665.11	614.43
665.45	610.28
665.79	606.22
666.13	602.08
666.47	597.94
666.81	593.79
667.15	589.64
667.49	585.82
667.83	582.00
668.17	578.09
668.51	574.00
668.85	570.02
669.19	566.22
669.53	562.40
669.87	558.48
670.21	554.79
670.55	551.17
670.89	547.75
671.23	544.30
671.57	540.79
671.91	537.28
672.25	533.83
672.58	530.31
672.92	526.88
673.26	523.79
673.60	520.67
673.94	517.59
674.28	514.73
674.62	511.76
674.96	508.65
675.30	505.72
675.64	502.83
675.97	500.04
676.31	497.15
676.65	494.18
676.99	491.51
677.33	488.64
677.67	485.83
678.01	482.83
678.34	479.85
678.68	476.94
679.02	474.13
679.36	471.37
679.70	468.74
680.04	465.98
680.37	463.05
680.71	460.22
681.05	457.59
681.39	454.81
681.73	452.13
682.06	449.57
682.40	447.05
682.74	444.54
683.08	442.01
683.42	439.38
683.75	436.90
684.09	434.35
684.43	431.92
684.77	429.49
685.10	427.13
685.44	424.85
685.78	422.64
686.12	420.48
686.45	418.18
686.79	415.86
687.13	413.66
687.46	411.52
687.80	409.43
688.14	407.18
688.48	405.16
688.81	402.92
689.15	400.78
689.49	398.64
689.82	396.54
690.16	394.48
690.50	392.55
690.83	390.58
691.17	388.64
691.51	386.75
691.84	384.88
692.18	382.95
692.52	380.93
692.85	378.97
693.19	377.03
693.52	375.25
693.86	373.43
694.20	371.68
694.53	369.90
694.87	368.07
695.21	366.33
695.54	364.51
695.88	362.83
696.21	361.13
696.55	359.46
696.88	357.78
697.22	356.13
697.56	354.51
697.89	352.90
698.23	351.29
698.56	349.62
698.90	348.01
699.23	346.36
699.57	344.84
699.90	343.35
700.24	341.81
700.58	340.23
700.91	338.70
701.25	337.25
701.58	335.87
701.92	334.50
702.25	333.13
702.59	331.78
702.92	330.41
703.26	329.17
703.59	327.84
703.93	326.64
704.26	325.38
704.60	324.10
704.93	322.82
705.26	321.60
705.60	320.46
705.93	319.33
706.27	318.27
706.60	317.25
706.94	316.10
707.27	314.94
707.61	313.91
707.94	312.91
708.27	311.82
708.61	310.76
708.94	309.76
709.28	308.75
709.61	307.78
709.94	306.83
710.28	305.76
710.61	304.85
710.95	303.79
711.28	302.89
711.61	301.99
711.95	301.07
712.28	300.09
712.61	299.09
712.95	298.17
713.28	297.27
713.61	296.37
713.95	295.54
714.28	294.72
714.61	293.85
714.95	293.02
715.28	292.16
715.61	291.30
715.95	290.41
716.28	289.58
716.61	288.73
716.95	287.92
717.28	287.18
717.61	286.36
717.94	285.61
718.28	284.82
718.61	284.05
718.94	283.36
719.27	282.68
719.61	282.05
719.94	281.39
720.27	280.75
720.60	280.06
720.94	279.41
721.27	278.84
721.60	278.25
721.93	277.62
722.27	277.06
722.60	276.51
722.93	275.93
723.26	275.39
723.59	274.82
723.93	274.26
724.26	273.71
724.59	273.17
724.92	272.67
725.25	272.18
725.59	271.66
725.92	271.16
726.25	270.68
726.58	270.15
726.91	269.65
727.24	269.12
727.57	268.66
727.91	268.13
728.24	267.66
728.57	267.19
728.90	266.77
729.23	266.30
729.56	265.89
729.89	265.46
730.22	264.95
730.55	264.51
730.89	264.10
731.22	263.65
731.55	263.23
731.88	262.81
732.21	262.33
732.54	261.92
732.87	261.46
733.20	261.08
733.53	260.74
733.86	260.36
734.19	259.98
734.52	259.62
734.85	259.35
735.18	258.97
735.51	258.60
735.84	258.24
736.17	257.87
736.50	257.46
736.83	257.21
737.16	256.90
737.49	256.59
737.82	256.27
738.15	255.96
738.48	255.61
738.81	255.28
739.14	254.99
739.47	254.68
739.80	254.38
740.13	254.04
740.46	253.70
740.79	253.38
741.12	253.10
741.45	252.76
741.78	252.39
742.11	252.08
742.44	251.76
742.77	251.44
743.10	251.14
743.43	250.83
743.75	250.45
744.08	250.31
744.41	249.99
744.74	249.67
745.07	249.40
745.40	249.18
745.73	248.91
746.06	248.61
746.39	248.34
746.71	248.07
747.04	247.78
747.37	247.52
747.70	247.28
748.03	247.01
748.36	246.78
748.68	246.54
749.01	246.26
749.34	246.05
749.67	245.84
750.00	245.65
750.33	245.52
750.65	245.33
750.98	245.00
751.31	244.82
751.64	244.63
751.97	244.47
752.29	244.22
752.62	243.99
752.95	243.84
753.28	243.61
753.60	243.40
753.93	243.26
754.26	243.08
754.59	242.83
754.91	242.61
755.24	242.43
755.57	242.22
755.90	242.04
756.22	241.83
756.55	241.65
756.88	241.44
757.20	241.20
757.53	240.94
757.86	240.73
758.19	240.53
758.51	240.35
758.84	240.12
759.17	239.95
759.49	239.83
759.82	239.66
760.15	239.51
760.47	239.40
760.80	239.17
761.13	239.03
761.45	238.89
761.78	238.74
762.11	238.59
762.43	238.45
762.76	238.28
763.08	238.14
763.41	237.99
763.74	237.86
764.06	237.67
764.39	237.58
764.71	237.49
765.04	237.38
765.37	237.22
765.69	237.08
766.02	236.94
766.34	236.80
766.67	236.65
767.00	236.57
767.32	236.46
767.65	236.44
767.97	236.29
768.30	236.17
768.62	236.07
768.95	235.94
769.27	235.85
769.60	235.78
769.92	235.70
770.25	235.56
770.57	235.46
770.90	235.37
771.22	235.27
771.55	235.14
771.87	235.05
772.20	234.99
772.52	234.95
772.85	234.98
773.17	234.88
773.50	234.79
773.82	234.67
774.15	234.54
774.47	234.36
774.80	234.27
775.12	234.19
775.45	234.10
775.77	234.01
776.09	233.91
776.42	233.83
776.74	233.73
777.07	233.68
777.39	233.62
777.72	233.53
778.04	233.42
778.36	233.37
778.69	233.29
779.01	233.23
779.33	233.08
779.66	232.90
779.98	232.83
780.31	232.79
780.63	232.77
780.95	232.73
781.28	232.69
781.60	232.62
781.92	232.57
782.25	232.52
782.57	232.53
782.89	232.47
783.22	232.41
783.54	232.36
783.86	232.28
784.19	232.20
784.51	232.21
784.83	232.17
785.16	232.10
785.48	232.07
785.80	232.00
786.12	231.98
786.45	231.93
786.77	231.90
787.09	231.80
