SpectraSuite Data File
++++++++++++++++++++++++++++++++++++
Date: Fri Feb 01 15:34:47 EST 2013
User: group
Dark Spectrum Present: No
Reference Spectrum Present: No
Number of Sampled Component Spectra: 1
Spectrometers: USB2E7196
Integration Time (usec): 35000 (USB2E7196)
Spectra Averaged: 100 (USB2E7196)
Boxcar Smoothing: 10 (USB2E7196)
Correct for Electrical Dark: No (USB2E7196)
Strobe/Lamp Enabled: No (USB2E7196)
Correct for Detector Non-linearity: No (USB2E7196)
Correct for Stray Light: No (USB2E7196)
Number of Pixels in Processed Spectrum: 2048
>>>>>Begin Processed Spectral Data<<<<<
339.09	0.00
339.48	215.02
339.86	216.46
340.24	217.93
340.63	219.67
341.01	221.83
341.39	222.41
341.78	224.54
342.16	224.58
342.54	224.80
342.93	213.42
343.31	224.17
343.69	224.72
344.07	225.18
344.46	225.59
344.84	225.94
345.22	226.20
345.60	226.44
345.99	226.59
346.37	226.68
346.75	226.78
347.13	226.90
347.52	226.96
347.90	227.07
348.28	227.08
348.66	227.11
349.05	227.15
349.43	227.17
349.81	227.18
350.19	227.24
350.57	227.29
350.96	227.37
351.34	227.47
351.72	227.56
352.10	227.69
352.48	227.77
352.87	227.85
353.25	227.88
353.63	227.94
354.01	227.99
354.39	228.11
354.77	228.18
355.15	228.23
355.54	228.29
355.92	228.30
356.30	228.35
356.68	228.46
357.06	228.53
357.44	228.61
357.82	228.67
358.20	228.73
358.58	228.76
358.97	228.81
359.35	228.86
359.73	228.92
360.11	228.95
360.49	228.97
360.87	229.01
361.25	229.07
361.63	229.12
362.01	229.17
362.39	229.17
362.77	229.21
363.15	229.23
363.53	229.24
363.91	229.26
364.29	229.30
364.67	229.23
365.05	229.24
365.43	229.22
365.81	229.24
366.19	229.25
366.57	229.28
366.95	229.27
367.33	229.25
367.71	229.21
368.09	229.20
368.47	229.20
368.85	229.19
369.23	229.19
369.61	229.12
369.99	229.11
370.37	229.04
370.75	229.06
371.13	229.04
371.51	228.94
371.89	228.90
372.27	228.85
372.65	228.80
373.03	228.74
373.41	228.69
373.78	228.64
374.16	228.54
374.54	228.43
374.92	228.37
375.30	228.30
375.68	228.25
376.06	228.17
376.44	228.07
376.82	227.99
377.19	227.91
377.57	227.84
377.95	227.75
378.33	227.71
378.71	227.58
379.09	227.50
379.47	227.49
379.84	227.41
380.22	227.36
380.60	227.30
380.98	227.23
381.36	227.17
381.73	227.10
382.11	227.07
382.49	227.07
382.87	226.98
383.25	226.96
383.62	226.99
384.00	226.92
384.38	226.87
384.76	226.83
385.13	226.80
385.51	226.75
385.89	226.68
386.27	226.64
386.64	226.62
387.02	226.58
387.40	226.54
387.78	226.52
388.15	226.46
388.53	226.42
388.91	226.42
389.29	226.41
389.66	226.38
390.04	226.35
390.42	226.34
390.79	226.32
391.17	226.29
391.55	226.21
391.92	226.18
392.30	226.17
392.68	226.18
393.05	226.19
393.43	226.20
393.81	226.22
394.18	226.23
394.56	226.24
394.94	226.31
395.31	226.31
395.69	226.37
396.06	226.44
396.44	226.48
396.82	226.50
397.19	226.57
397.57	226.61
397.95	226.67
398.32	226.70
398.70	226.78
399.07	226.86
399.45	226.93
399.82	227.05
400.20	227.16
400.58	227.26
400.95	227.32
401.33	227.43
401.70	227.60
402.08	227.67
402.45	227.77
402.83	227.87
403.20	227.97
403.58	228.07
403.95	228.21
404.33	228.34
404.71	228.48
405.08	228.65
405.46	228.81
405.83	228.95
406.21	229.09
406.58	229.24
406.96	229.42
407.33	229.60
407.70	229.80
408.08	230.06
408.45	230.24
408.83	230.46
409.20	230.63
409.58	230.80
409.95	231.09
410.33	231.38
410.70	231.63
411.08	231.94
411.45	232.22
411.82	232.48
412.20	232.85
412.57	233.23
412.95	233.52
413.32	233.92
413.69	234.36
414.07	234.80
414.44	235.25
414.82	235.69
415.19	236.22
415.56	236.76
415.94	237.28
416.31	237.95
416.68	238.57
417.06	239.33
417.43	239.99
417.81	240.77
418.18	241.53
418.55	242.35
418.93	243.22
419.30	244.14
419.67	245.09
420.04	246.02
420.42	247.03
420.79	248.23
421.16	249.38
421.54	250.56
421.91	251.76
422.28	253.04
422.66	254.36
423.03	255.68
423.40	257.02
423.77	258.42
424.15	259.83
424.52	261.32
424.89	262.93
425.26	264.49
425.64	265.91
426.01	267.54
426.38	269.24
426.75	270.93
427.13	272.67
427.50	274.48
427.87	276.36
428.24	278.23
428.61	279.96
428.99	281.92
429.36	284.02
429.73	286.09
430.10	288.11
430.47	290.16
430.85	292.28
431.22	294.48
431.59	296.89
431.96	299.14
432.33	301.64
432.70	303.99
433.08	306.82
433.45	309.46
433.82	312.08
434.19	314.92
434.56	317.72
434.93	320.37
435.30	322.96
435.68	325.90
436.05	328.75
436.42	331.59
436.79	334.09
437.16	336.82
437.53	339.69
437.90	342.52
438.27	345.29
438.64	348.09
439.01	350.71
439.38	352.96
439.75	355.12
440.13	357.59
440.50	359.96
440.87	361.82
441.24	363.80
441.61	365.92
441.98	367.47
442.35	369.34
442.72	371.17
443.09	372.99
443.46	373.97
443.83	374.54
444.20	374.98
444.57	375.84
444.94	376.13
445.31	376.41
445.68	376.78
446.05	376.88
446.42	376.51
446.79	376.08
447.16	375.61
447.53	375.31
447.90	374.18
448.27	372.98
448.64	371.38
449.01	370.20
449.37	368.27
449.74	366.33
450.11	364.00
450.48	361.53
450.85	359.05
451.22	356.89
451.59	354.88
451.96	352.97
452.33	350.34
452.70	347.95
453.07	345.10
453.43	342.16
453.80	339.39
454.17	336.70
454.54	334.16
454.91	331.45
455.28	328.77
455.65	326.27
456.02	323.81
456.38	321.67
456.75	319.03
457.12	316.73
457.49	314.49
457.86	312.33
458.23	310.50
458.59	308.41
458.96	306.31
459.33	304.45
459.70	302.58
460.07	301.07
460.43	299.33
460.80	297.74
461.17	296.32
461.54	294.82
461.91	293.40
462.27	291.98
462.64	290.69
463.01	289.32
463.38	288.06
463.74	286.72
464.11	285.54
464.48	284.52
464.85	283.40
465.21	282.55
465.58	281.63
465.95	280.49
466.32	279.62
466.68	278.76
467.05	277.82
467.42	276.92
467.78	275.98
468.15	275.10
468.52	274.46
468.88	273.59
469.25	272.80
469.62	272.18
469.98	271.48
470.35	270.85
470.72	270.28
471.08	269.60
471.45	269.06
471.82	268.52
472.18	267.94
472.55	267.52
472.92	267.01
473.28	266.56
473.65	266.08
474.02	265.62
474.38	265.23
474.75	264.91
475.11	264.58
475.48	264.32
475.85	264.13
476.21	263.88
476.58	263.70
476.94	263.59
477.31	263.40
477.67	263.25
478.04	263.18
478.41	263.13
478.77	263.16
479.14	263.07
479.50	263.11
479.87	263.16
480.23	263.24
480.60	263.28
480.96	263.39
481.33	263.65
481.69	263.88
482.06	264.09
482.42	264.32
482.79	264.57
483.15	264.90
483.52	265.26
483.88	265.61
484.25	266.00
484.61	266.44
484.98	266.89
485.34	267.48
485.71	268.04
486.07	268.60
486.44	269.19
486.80	269.91
487.17	270.60
487.53	271.42
487.90	272.28
488.26	273.22
488.62	274.21
488.99	275.19
489.35	276.18
489.72	277.29
490.08	278.49
490.44	279.73
490.81	281.09
491.17	282.44
491.54	283.92
491.90	285.47
492.26	287.10
492.63	288.84
492.99	290.58
493.36	292.48
493.72	294.51
494.08	296.57
494.45	298.79
494.81	301.18
495.17	303.60
495.54	306.12
495.90	308.80
496.26	311.59
496.63	314.54
496.99	317.67
497.35	320.96
497.72	324.34
498.08	327.87
498.44	331.51
498.80	335.41
499.17	339.42
499.53	343.58
499.89	347.93
500.26	352.41
500.62	357.08
500.98	362.04
501.34	367.10
501.71	372.49
502.07	377.96
502.43	383.53
502.79	389.36
503.16	395.43
503.52	401.68
503.88	408.06
504.24	414.68
504.60	421.53
504.97	428.61
505.33	435.90
505.69	443.57
506.05	451.35
506.41	459.21
506.78	467.40
507.14	475.83
507.50	484.51
507.86	493.54
508.22	502.76
508.59	511.95
508.95	521.59
509.31	531.39
509.67	541.48
510.03	551.79
510.39	562.34
510.75	573.19
511.12	584.14
511.48	595.47
511.84	606.92
512.20	618.44
512.56	630.42
512.92	642.65
513.28	654.95
513.64	667.45
514.00	680.14
514.37	693.06
514.73	706.13
515.09	719.19
515.45	732.52
515.81	746.09
516.17	760.07
516.53	774.13
516.89	788.24
517.25	802.36
517.61	816.81
517.97	831.26
518.33	845.71
518.69	860.58
519.05	875.58
519.41	890.81
519.77	906.43
520.13	921.92
520.49	937.28
520.85	952.81
521.21	968.51
521.57	984.83
521.93	1000.73
522.29	1017.26
522.65	1033.53
523.01	1049.77
523.37	1065.88
523.73	1082.14
524.09	1098.31
524.45	1114.71
524.81	1131.50
525.17	1148.34
525.53	1165.27
525.89	1182.05
526.25	1198.86
526.61	1215.29
526.97	1232.04
527.33	1248.57
527.68	1265.25
528.04	1281.76
528.40	1298.32
528.76	1315.41
529.12	1332.05
529.48	1348.92
529.84	1364.86
530.20	1381.55
530.56	1398.58
530.91	1415.92
531.27	1432.63
531.63	1449.07
531.99	1465.75
532.35	1481.66
532.71	1497.57
533.07	1513.95
533.42	1530.04
533.78	1546.03
534.14	1562.39
534.50	1577.71
534.86	1593.61
535.21	1608.80
535.57	1624.78
535.93	1640.30
536.29	1655.08
536.65	1670.22
537.00	1685.06
537.36	1700.30
537.72	1714.79
538.08	1729.28
538.44	1743.18
538.79	1757.06
539.15	1770.92
539.51	1784.72
539.87	1799.07
540.22	1812.92
540.58	1826.68
540.94	1840.12
541.29	1853.20
541.65	1865.88
542.01	1879.19
542.37	1891.48
542.72	1903.79
543.08	1915.60
543.44	1928.05
543.79	1939.43
544.15	1950.35
544.51	1961.75
544.87	1972.75
545.22	1983.74
545.58	1993.92
545.94	2003.80
546.29	2013.88
546.65	2023.67
547.01	2032.85
547.36	2041.66
547.72	2050.08
548.07	2058.00
548.43	2066.07
548.79	2073.99
549.14	2081.51
549.50	2088.92
549.86	2096.71
550.21	2104.09
550.57	2111.20
550.92	2117.75
551.28	2124.81
551.64	2131.94
551.99	2138.67
552.35	2144.87
552.70	2150.97
553.06	2156.98
553.41	2163.27
553.77	2169.10
554.13	2175.10
554.48	2181.30
554.84	2186.72
555.19	2192.06
555.55	2197.09
555.90	2201.49
556.26	2206.45
556.61	2211.30
556.97	2215.52
557.32	2219.67
557.68	2223.87
558.03	2228.25
558.39	2232.02
558.74	2236.57
559.10	2240.35
559.45	2243.93
559.81	2248.27
560.16	2252.11
560.52	2255.38
560.87	2258.88
561.23	2261.55
561.58	2264.49
561.94	2267.10
562.29	2269.48
562.64	2272.00
563.00	2274.71
563.35	2278.23
563.71	2281.34
564.06	2284.48
564.42	2287.34
564.77	2289.67
565.12	2291.90
565.48	2293.75
565.83	2295.59
566.19	2296.87
566.54	2297.77
566.89	2298.87
567.25	2299.48
567.60	2300.75
567.96	2302.42
568.31	2303.07
568.66	2304.17
569.02	2304.79
569.37	2304.96
569.72	2305.74
570.08	2305.94
570.43	2305.94
570.78	2305.36
571.14	2303.73
571.49	2302.36
571.84	2301.97
572.20	2300.85
572.55	2299.69
572.90	2298.11
573.26	2296.73
573.61	2294.99
573.96	2293.23
574.31	2290.30
574.67	2287.33
575.02	2283.60
575.37	2280.22
575.72	2276.54
576.08	2273.27
576.43	2269.81
576.78	2266.08
577.13	2262.95
577.49	2259.85
577.84	2256.30
578.19	2252.52
578.54	2248.89
578.90	2244.55
579.25	2239.02
579.60	2233.98
579.95	2228.99
580.30	2223.89
580.66	2218.68
581.01	2213.82
581.36	2208.91
581.71	2204.58
582.06	2200.01
582.42	2195.50
582.77	2190.09
583.12	2185.47
583.47	2180.61
583.82	2175.64
584.17	2170.24
584.53	2164.66
584.88	2158.90
585.23	2152.98
585.58	2147.51
585.93	2142.04
586.28	2137.23
586.63	2132.09
586.98	2126.96
587.34	2122.13
587.69	2117.22
588.04	2111.89
588.39	2106.04
588.74	2099.55
589.09	2093.43
589.44	2086.51
589.79	2080.40
590.14	2074.82
590.49	2068.09
590.84	2061.71
591.19	2055.55
591.54	2049.09
591.89	2041.68
592.25	2034.82
592.60	2027.59
592.95	2019.97
593.30	2012.48
593.65	2004.80
594.00	1997.58
594.35	1990.34
594.70	1982.28
595.05	1974.97
595.40	1967.62
595.75	1960.15
596.10	1953.66
596.45	1946.83
596.80	1940.69
597.15	1934.10
597.50	1926.82
597.85	1920.36
598.19	1913.65
598.54	1906.60
598.89	1899.98
599.24	1894.09
599.59	1887.43
599.94	1881.20
600.29	1874.76
600.64	1868.13
600.99	1860.75
601.34	1853.96
601.69	1846.93
602.04	1840.12
602.39	1832.84
602.74	1825.91
603.08	1819.08
603.43	1812.47
603.78	1805.08
604.13	1797.75
604.48	1790.32
604.83	1783.60
605.18	1776.63
605.53	1768.51
605.87	1760.44
606.22	1753.18
606.57	1745.15
606.92	1737.76
607.27	1730.59
607.62	1723.70
607.96	1716.27
608.31	1709.49
608.66	1701.85
609.01	1694.30
609.36	1686.69
609.70	1678.61
610.05	1670.61
610.40	1662.94
610.75	1654.60
611.10	1646.99
611.44	1638.63
611.79	1630.79
612.14	1621.95
612.49	1612.71
612.83	1604.37
613.18	1596.17
613.53	1588.02
613.88	1579.44
614.22	1571.22
614.57	1562.77
614.92	1554.73
615.27	1547.29
615.61	1538.92
615.96	1530.95
616.31	1523.34
616.65	1515.93
617.00	1508.39
617.35	1500.77
617.70	1492.41
618.04	1483.89
618.39	1475.65
618.74	1468.11
619.08	1459.63
619.43	1452.09
619.78	1445.19
620.12	1438.01
620.47	1430.63
620.82	1422.57
621.16	1415.25
621.51	1407.56
621.85	1399.81
622.20	1391.25
622.55	1382.83
622.89	1375.14
623.24	1367.59
623.59	1360.26
623.93	1352.76
624.28	1345.53
624.62	1337.90
624.97	1330.67
625.32	1323.90
625.66	1316.89
626.01	1309.70
626.35	1302.41
626.70	1294.69
627.04	1286.99
627.39	1279.32
627.73	1271.84
628.08	1264.80
628.43	1257.44
628.77	1250.08
629.12	1242.48
629.46	1235.33
629.81	1228.07
630.15	1220.76
630.50	1213.30
630.84	1205.07
631.19	1197.14
631.53	1189.64
631.88	1182.16
632.22	1174.55
632.57	1167.30
632.91	1159.79
633.26	1152.33
633.60	1144.97
633.95	1137.90
634.29	1130.85
634.64	1124.12
634.98	1116.80
635.32	1109.71
635.67	1103.11
636.01	1096.50
636.36	1089.72
636.70	1083.25
637.05	1076.60
637.39	1070.20
637.73	1063.73
638.08	1057.86
638.42	1051.90
638.77	1045.41
639.11	1038.79
639.45	1032.48
639.80	1025.80
640.14	1019.31
640.49	1012.82
640.83	1006.41
641.17	1000.19
641.52	993.88
641.86	987.49
642.20	981.59
642.55	975.35
642.89	968.84
643.23	962.23
643.58	956.46
643.92	950.20
644.26	944.08
644.61	938.03
644.95	931.98
645.29	925.37
645.64	918.57
645.98	912.23
646.32	906.35
646.66	900.31
647.01	894.58
647.35	888.87
647.69	883.02
648.04	877.46
648.38	871.65
648.72	865.63
649.06	859.50
649.41	853.62
649.75	847.57
650.09	841.69
650.43	836.00
650.78	829.83
651.12	823.87
651.46	818.25
651.80	812.47
652.14	807.06
652.49	801.72
652.83	796.62
653.17	790.94
653.51	785.20
653.85	779.74
654.20	774.07
654.54	768.08
654.88	762.31
655.22	756.54
655.56	750.81
655.90	745.35
656.25	740.09
656.59	734.75
656.93	729.72
657.27	724.53
657.61	719.07
657.95	713.94
658.29	708.83
658.64	703.55
658.98	698.26
659.32	692.77
659.66	687.53
660.00	682.19
660.34	677.30
660.68	672.39
661.02	667.47
661.36	662.75
661.70	658.31
662.05	653.98
662.39	649.60
662.73	645.20
663.07	640.86
663.41	636.43
663.75	631.94
664.09	627.40
664.43	623.07
664.77	618.97
665.11	614.76
665.45	610.71
665.79	606.65
666.13	602.58
666.47	598.51
666.81	594.35
667.15	590.22
667.49	586.33
667.83	582.58
668.17	578.65
668.51	574.54
668.85	570.54
669.19	566.72
669.53	562.93
669.87	558.96
670.21	555.28
670.55	551.70
670.89	548.29
671.23	544.86
671.57	541.35
671.91	537.78
672.25	534.31
672.58	530.77
672.92	527.35
673.26	524.16
673.60	521.03
673.94	517.97
674.28	515.08
674.62	512.16
674.96	509.05
675.30	506.09
675.64	503.18
675.97	500.38
676.31	497.48
676.65	494.50
676.99	491.87
677.33	488.98
677.67	486.11
678.01	483.03
678.34	479.97
678.68	477.07
679.02	474.26
679.36	471.50
679.70	468.79
680.04	466.01
680.37	463.10
680.71	460.28
681.05	457.57
681.39	454.87
681.73	452.13
682.06	449.54
682.40	446.98
682.74	444.47
683.08	441.89
683.42	439.29
683.75	436.84
684.09	434.30
684.43	431.85
684.77	429.40
685.10	427.05
685.44	424.78
685.78	422.45
686.12	420.21
686.45	417.94
686.79	415.68
687.13	413.45
687.46	411.32
687.80	409.14
688.14	407.02
688.48	404.96
688.81	402.72
689.15	400.66
689.49	398.55
689.82	396.51
690.16	394.45
690.50	392.52
690.83	390.55
691.17	388.53
691.51	386.62
691.84	384.79
692.18	382.91
692.52	380.94
692.85	379.02
693.19	377.13
693.52	375.29
693.86	373.49
694.20	371.77
694.53	369.95
694.87	368.16
695.21	366.39
695.54	364.59
695.88	362.90
696.21	361.15
696.55	359.46
696.88	357.77
697.22	356.11
697.56	354.49
697.89	352.85
698.23	351.27
698.56	349.64
698.90	348.04
699.23	346.35
699.57	344.83
699.90	343.33
700.24	341.80
700.58	340.22
700.91	338.73
701.25	337.29
701.58	335.97
701.92	334.60
702.25	333.19
702.59	331.85
702.92	330.54
703.26	329.24
703.59	327.94
703.93	326.72
704.26	325.47
704.60	324.20
704.93	322.91
705.26	321.68
705.60	320.55
705.93	319.39
706.27	318.41
706.60	317.35
706.94	316.27
707.27	315.16
707.61	314.11
707.94	313.07
708.27	311.98
708.61	310.85
708.94	309.82
709.28	308.84
709.61	307.83
709.94	306.85
710.28	305.85
710.61	304.88
710.95	303.84
711.28	302.96
711.61	301.99
711.95	301.05
712.28	300.06
712.61	299.06
712.95	298.15
713.28	297.23
713.61	296.30
713.95	295.43
714.28	294.54
714.61	293.68
714.95	292.80
715.28	291.92
715.61	291.08
715.95	290.26
716.28	289.40
716.61	288.60
716.95	287.79
717.28	287.05
717.61	286.28
717.94	285.51
718.28	284.68
718.61	283.95
718.94	283.29
719.27	282.66
719.61	282.00
719.94	281.32
720.27	280.61
720.60	279.95
720.94	279.30
721.27	278.71
721.60	278.14
721.93	277.56
722.27	277.03
722.60	276.47
722.93	275.85
723.26	275.30
723.59	274.70
723.93	274.14
724.26	273.56
724.59	273.00
724.92	272.49
725.25	271.96
725.59	271.44
725.92	270.95
726.25	270.41
726.58	269.91
726.91	269.44
727.24	268.93
727.57	268.49
727.91	268.01
728.24	267.56
728.57	267.05
728.90	266.61
729.23	266.10
729.56	265.65
729.89	265.17
730.22	264.69
730.55	264.22
730.89	263.76
731.22	263.32
731.55	262.89
731.88	262.47
732.21	262.06
732.54	261.61
732.87	261.17
733.20	260.78
733.53	260.35
733.86	259.94
734.19	259.56
734.52	259.16
734.85	258.84
735.18	258.47
735.51	258.15
735.84	257.74
736.17	257.40
736.50	257.00
736.83	256.77
737.16	256.46
737.49	256.13
737.82	255.79
738.15	255.43
738.48	255.10
738.81	254.80
739.14	254.49
739.47	254.22
739.80	253.91
740.13	253.60
740.46	253.34
740.79	253.00
741.12	252.67
741.45	252.36
741.78	252.00
742.11	251.68
742.44	251.33
742.77	251.06
743.10	250.76
743.43	250.46
743.75	250.11
744.08	249.93
744.41	249.65
744.74	249.43
745.07	249.17
745.40	248.95
745.73	248.70
746.06	248.40
746.39	248.14
746.71	247.89
747.04	247.63
747.37	247.37
747.70	247.13
748.03	246.92
748.36	246.69
748.68	246.47
749.01	246.23
749.34	246.05
749.67	245.80
750.00	245.59
750.33	245.49
750.65	245.27
750.98	244.95
751.31	244.74
751.64	244.53
751.97	244.39
752.29	244.14
752.62	243.90
752.95	243.73
753.28	243.50
753.60	243.30
753.93	243.11
754.26	242.89
754.59	242.74
754.91	242.52
755.24	242.34
755.57	242.13
755.90	241.94
756.22	241.72
756.55	241.55
756.88	241.34
757.20	241.09
757.53	240.89
757.86	240.75
758.19	240.61
758.51	240.42
758.84	240.19
759.17	240.02
759.49	239.87
759.82	239.75
760.15	239.59
760.47	239.41
760.80	239.27
761.13	239.13
761.45	238.92
761.78	238.80
762.11	238.65
762.43	238.48
762.76	238.34
763.08	238.21
763.41	238.08
763.74	237.94
764.06	237.79
764.39	237.63
764.71	237.45
765.04	237.29
765.37	237.13
765.69	237.00
766.02	236.85
766.34	236.70
766.67	236.53
767.00	236.41
767.32	236.36
767.65	236.30
767.97	236.20
768.30	236.11
768.62	235.99
768.95	235.84
769.27	235.73
769.60	235.64
769.92	235.53
770.25	235.40
770.57	235.31
770.90	235.22
771.22	235.12
771.55	235.05
771.87	234.97
772.20	234.93
772.52	234.90
772.85	234.92
773.17	234.83
773.50	234.74
773.82	234.64
774.15	234.49
774.47	234.35
774.80	234.23
775.12	234.12
775.45	234.03
775.77	233.97
776.09	233.90
776.42	233.80
776.74	233.76
777.07	233.70
777.39	233.63
777.72	233.51
778.04	233.43
778.36	233.33
778.69	233.26
779.01	233.18
779.33	233.04
779.66	232.90
779.98	232.84
780.31	232.77
780.63	232.76
780.95	232.74
781.28	232.65
781.60	232.60
781.92	232.58
782.25	232.52
782.57	232.49
782.89	232.42
783.22	232.35
783.54	232.23
783.86	232.18
784.19	232.13
784.51	232.14
784.83	232.11
785.16	232.08
785.48	232.03
785.80	231.97
786.12	231.95
786.45	231.92
786.77	231.87
787.09	231.85
