SpectraSuite Data File
++++++++++++++++++++++++++++++++++++
Date: Fri Feb 01 16:06:45 EST 2013
User: group
Dark Spectrum Present: No
Reference Spectrum Present: No
Number of Sampled Component Spectra: 1
Spectrometers: USB2E7196
Integration Time (usec): 35000 (USB2E7196)
Spectra Averaged: 100 (USB2E7196)
Boxcar Smoothing: 10 (USB2E7196)
Correct for Electrical Dark: No (USB2E7196)
Strobe/Lamp Enabled: No (USB2E7196)
Correct for Detector Non-linearity: No (USB2E7196)
Correct for Stray Light: No (USB2E7196)
Number of Pixels in Processed Spectrum: 2048
>>>>>Begin Processed Spectral Data<<<<<
339.09	0.00
339.48	214.44
339.86	216.16
340.24	217.61
340.63	218.65
341.01	221.44
341.39	221.88
341.78	223.12
342.16	224.74
342.54	225.16
342.93	213.04
343.31	223.83
343.69	224.40
344.07	224.84
344.46	225.28
344.84	225.68
345.22	225.93
345.60	226.15
345.99	226.32
346.37	226.39
346.75	226.44
347.13	226.49
347.52	226.58
347.90	226.62
348.28	226.65
348.66	226.67
349.05	226.65
349.43	226.68
349.81	226.74
350.19	226.79
350.57	226.84
350.96	226.92
351.34	226.99
351.72	227.04
352.10	227.15
352.48	227.21
352.87	227.25
353.25	227.32
353.63	227.40
354.01	227.47
354.39	227.55
354.77	227.63
355.15	227.72
355.54	227.76
355.92	227.81
356.30	227.84
356.68	227.96
357.06	228.05
357.44	228.10
357.82	228.15
358.20	228.20
358.58	228.23
358.97	228.29
359.35	228.35
359.73	228.43
360.11	228.46
360.49	228.50
360.87	228.54
361.25	228.59
361.63	228.63
362.01	228.71
362.39	228.78
362.77	228.81
363.15	228.82
363.53	228.83
363.91	228.88
364.29	228.98
364.67	228.90
365.05	228.90
365.43	228.90
365.81	228.92
366.19	228.96
366.57	229.01
366.95	228.99
367.33	228.93
367.71	228.92
368.09	228.97
368.47	228.92
368.85	228.91
369.23	228.93
369.61	228.86
369.99	228.84
370.37	228.82
370.75	228.84
371.13	228.83
371.51	228.77
371.89	228.73
372.27	228.67
372.65	228.65
373.03	228.62
373.41	228.55
373.78	228.50
374.16	228.39
374.54	228.33
374.92	228.26
375.30	228.24
375.68	228.13
376.06	228.07
376.44	228.05
376.82	227.98
377.19	227.91
377.57	227.89
377.95	227.75
378.33	227.66
378.71	227.54
379.09	227.48
379.47	227.45
379.84	227.36
380.22	227.29
380.60	227.17
380.98	227.10
381.36	227.08
381.73	226.99
382.11	226.98
382.49	226.89
382.87	226.80
383.25	226.75
383.62	226.82
384.00	226.71
384.38	226.63
384.76	226.59
385.13	226.59
385.51	226.53
385.89	226.50
386.27	226.45
386.64	226.44
387.02	226.38
387.40	226.33
387.78	226.30
388.15	226.26
388.53	226.27
388.91	226.24
389.29	226.20
389.66	226.21
390.04	226.18
390.42	226.18
390.79	226.20
391.17	226.19
391.55	226.07
391.92	226.05
392.30	226.08
392.68	226.08
393.05	226.02
393.43	226.00
393.81	225.97
394.18	226.00
394.56	226.00
394.94	226.05
395.31	226.06
395.69	226.11
396.06	226.11
396.44	226.14
396.82	226.16
397.19	226.24
397.57	226.25
397.95	226.32
398.32	226.31
398.70	226.37
399.07	226.43
399.45	226.51
399.82	226.57
400.20	226.63
400.58	226.73
400.95	226.77
401.33	226.90
401.70	227.07
402.08	227.15
402.45	227.23
402.83	227.32
403.20	227.42
403.58	227.50
403.95	227.67
404.33	227.79
404.71	227.92
405.08	228.10
405.46	228.23
405.83	228.37
406.21	228.57
406.58	228.74
406.96	228.93
407.33	229.08
407.70	229.29
408.08	229.54
408.45	229.74
408.83	229.99
409.20	230.18
409.58	230.37
409.95	230.66
410.33	230.97
410.70	231.21
411.08	231.53
411.45	231.87
411.82	232.14
412.20	232.52
412.57	232.97
412.95	233.25
413.32	233.66
413.69	234.07
414.07	234.54
414.44	234.98
414.82	235.45
415.19	236.09
415.56	236.64
415.94	237.17
416.31	237.82
416.68	238.44
417.06	239.19
417.43	239.90
417.81	240.63
418.18	241.38
418.55	242.24
418.93	243.12
419.30	244.04
419.67	245.00
420.04	245.94
420.42	246.95
420.79	248.15
421.16	249.30
421.54	250.49
421.91	251.68
422.28	252.98
422.66	254.29
423.03	255.53
423.40	256.86
423.77	258.29
424.15	259.66
424.52	261.13
424.89	262.71
425.26	264.24
425.64	265.70
426.01	267.34
426.38	269.01
426.75	270.67
427.13	272.34
427.50	274.14
427.87	276.02
428.24	277.85
428.61	279.55
428.99	281.48
429.36	283.57
429.73	285.58
430.10	287.57
430.47	289.66
430.85	291.76
431.22	293.99
431.59	296.33
431.96	298.63
432.33	301.12
432.70	303.46
433.08	306.31
433.45	308.93
433.82	311.48
434.19	314.31
434.56	317.12
434.93	319.81
435.30	322.48
435.68	325.33
436.05	328.15
436.42	330.97
436.79	333.50
437.16	336.20
437.53	339.08
437.90	341.89
438.27	344.63
438.64	347.48
439.01	350.06
439.38	352.32
439.75	354.48
440.13	356.97
440.50	359.30
440.87	361.06
441.24	363.00
441.61	365.16
441.98	366.67
442.35	368.46
442.72	370.30
443.09	372.08
443.46	373.10
443.83	373.67
444.20	374.19
444.57	375.01
444.94	375.27
445.31	375.59
445.68	375.91
446.05	375.93
446.42	375.53
446.79	375.10
447.16	374.65
447.53	374.33
447.90	373.16
448.27	372.03
448.64	370.46
449.01	369.31
449.37	367.34
449.74	365.45
450.11	363.22
450.48	360.68
450.85	358.14
451.22	355.97
451.59	353.98
451.96	352.00
452.33	349.43
452.70	347.06
453.07	344.21
453.43	341.31
453.80	338.55
454.17	335.92
454.54	333.39
454.91	330.68
455.28	328.01
455.65	325.55
456.02	323.11
456.38	320.97
456.75	318.31
457.12	316.05
457.49	313.82
457.86	311.61
458.23	309.77
458.59	307.73
458.96	305.66
459.33	303.75
459.70	301.89
460.07	300.35
460.43	298.66
460.80	297.06
461.17	295.66
461.54	294.16
461.91	292.68
462.27	291.19
462.64	289.94
463.01	288.58
463.38	287.28
463.74	285.89
464.11	284.76
464.48	283.74
464.85	282.66
465.21	281.80
465.58	280.91
465.95	279.86
466.32	278.94
466.68	278.03
467.05	277.18
467.42	276.29
467.78	275.34
468.15	274.44
468.52	273.79
468.88	272.93
469.25	272.22
469.62	271.66
469.98	271.02
470.35	270.38
470.72	269.78
471.08	269.10
471.45	268.61
471.82	268.06
472.18	267.49
472.55	267.06
472.92	266.54
473.28	266.06
473.65	265.61
474.02	265.19
474.38	264.84
474.75	264.52
475.11	264.19
475.48	263.97
475.85	263.79
476.21	263.53
476.58	263.34
476.94	263.19
477.31	263.02
477.67	262.86
478.04	262.71
478.41	262.66
478.77	262.67
479.14	262.59
479.50	262.61
479.87	262.68
480.23	262.76
480.60	262.85
480.96	262.94
481.33	263.19
481.69	263.38
482.06	263.55
482.42	263.77
482.79	264.04
483.15	264.38
483.52	264.75
483.88	265.12
484.25	265.48
484.61	265.91
484.98	266.31
485.34	266.89
485.71	267.52
486.07	268.14
486.44	268.75
486.80	269.45
487.17	270.17
487.53	270.97
487.90	271.82
488.26	272.75
488.62	273.77
488.99	274.74
489.35	275.79
489.72	276.94
490.08	278.12
490.44	279.37
490.81	280.72
491.17	282.05
491.54	283.52
491.90	285.07
492.26	286.69
492.63	288.47
492.99	290.22
493.36	292.14
493.72	294.19
494.08	296.27
494.45	298.54
494.81	300.91
495.17	303.40
495.54	305.94
495.90	308.59
496.26	311.36
496.63	314.28
496.99	317.41
497.35	320.69
497.72	324.12
498.08	327.67
498.44	331.35
498.80	335.32
499.17	339.44
499.53	343.64
499.89	348.02
500.26	352.51
500.62	357.26
500.98	362.24
501.34	367.31
501.71	372.63
502.07	378.06
502.43	383.70
502.79	389.49
503.16	395.61
503.52	401.89
503.88	408.32
504.24	414.94
504.60	421.85
504.97	428.96
505.33	436.27
505.69	443.96
506.05	451.76
506.41	459.60
506.78	467.73
507.14	476.18
507.50	484.92
507.86	493.95
508.22	503.15
508.59	512.36
508.95	521.94
509.31	531.83
509.67	541.90
510.03	552.20
510.39	562.78
510.75	573.54
511.12	584.55
511.48	595.91
511.84	607.36
512.20	618.91
512.56	630.82
512.92	642.97
513.28	655.32
513.64	667.84
514.00	680.62
514.37	693.50
514.73	706.62
515.09	719.64
515.45	733.00
515.81	746.51
516.17	760.51
516.53	774.69
516.89	788.90
517.25	803.13
517.61	817.52
517.97	831.92
518.33	846.38
518.69	861.10
519.05	876.08
519.41	891.32
519.77	906.77
520.13	922.27
520.49	937.56
520.85	952.98
521.21	968.68
521.57	984.87
521.93	1000.64
522.29	1016.93
522.65	1033.12
523.01	1049.33
523.37	1065.44
523.73	1081.61
524.09	1097.61
524.45	1113.82
524.81	1130.46
525.17	1147.25
525.53	1164.15
525.89	1180.93
526.25	1197.83
526.61	1214.20
526.97	1230.87
527.33	1247.34
527.68	1263.86
528.04	1280.45
528.40	1297.00
528.76	1313.95
529.12	1330.46
529.48	1347.30
529.84	1363.31
530.20	1379.93
530.56	1396.83
530.91	1414.07
531.27	1430.66
531.63	1447.23
531.99	1463.73
532.35	1479.57
532.71	1495.41
533.07	1511.54
533.42	1527.38
533.78	1543.20
534.14	1559.30
534.50	1574.64
534.86	1590.42
535.21	1605.56
535.57	1621.43
535.93	1636.79
536.29	1651.52
536.65	1666.65
537.00	1681.35
537.36	1696.44
537.72	1710.86
538.08	1725.28
538.44	1739.03
538.79	1752.91
539.15	1766.31
539.51	1780.03
539.87	1794.33
540.22	1807.92
540.58	1821.67
540.94	1834.93
541.29	1847.86
541.65	1860.56
542.01	1873.68
542.37	1886.00
542.72	1898.49
543.08	1910.23
543.44	1922.64
543.79	1933.77
544.15	1944.63
544.51	1956.21
544.87	1967.24
545.22	1978.11
545.58	1988.15
545.94	1998.02
546.29	2007.90
546.65	2017.80
547.01	2027.00
547.36	2035.65
547.72	2044.03
548.07	2051.86
548.43	2060.08
548.79	2068.06
549.14	2075.68
549.50	2083.05
549.86	2090.67
550.21	2097.93
550.57	2105.07
550.92	2111.55
551.28	2118.75
551.64	2125.70
551.99	2132.17
552.35	2138.27
552.70	2144.45
553.06	2150.56
553.41	2156.76
553.77	2162.76
554.13	2168.89
554.48	2175.07
554.84	2180.60
555.19	2185.93
555.55	2191.19
555.90	2195.69
556.26	2200.47
556.61	2205.13
556.97	2209.37
557.32	2213.49
557.68	2217.45
558.03	2221.71
558.39	2225.48
558.74	2229.94
559.10	2233.96
559.45	2237.72
559.81	2242.06
560.16	2245.79
560.52	2248.94
560.87	2252.46
561.23	2254.96
561.58	2257.82
561.94	2260.32
562.29	2262.75
562.64	2265.58
563.00	2267.99
563.35	2271.48
563.71	2274.90
564.06	2278.14
564.42	2280.96
564.77	2283.56
565.12	2285.94
565.48	2287.97
565.83	2289.81
566.19	2291.21
566.54	2292.07
566.89	2293.22
567.25	2294.02
567.60	2295.30
567.96	2297.11
568.31	2297.92
568.66	2299.28
569.02	2299.98
569.37	2300.38
569.72	2301.27
570.08	2301.48
570.43	2301.67
570.78	2301.00
571.14	2299.23
571.49	2297.90
571.84	2297.59
572.20	2296.60
572.55	2295.56
572.90	2293.78
573.26	2292.30
573.61	2290.60
573.96	2288.84
574.31	2285.87
574.67	2282.87
575.02	2279.35
575.37	2276.00
575.72	2272.25
576.08	2268.87
576.43	2265.52
576.78	2261.87
577.13	2258.64
577.49	2255.40
577.84	2251.95
578.19	2248.28
578.54	2244.70
578.90	2240.43
579.25	2234.96
579.60	2229.90
579.95	2224.97
580.30	2220.08
580.66	2215.07
581.01	2210.07
581.36	2205.28
581.71	2201.12
582.06	2196.57
582.42	2192.17
582.77	2186.95
583.12	2182.35
583.47	2177.64
583.82	2172.63
584.17	2167.42
584.53	2161.96
584.88	2156.42
585.23	2150.64
585.58	2145.18
585.93	2139.77
586.28	2135.17
586.63	2130.15
586.98	2125.10
587.34	2120.37
587.69	2115.40
588.04	2110.06
588.39	2104.41
588.74	2097.84
589.09	2091.61
589.44	2084.72
589.79	2078.72
590.14	2073.07
590.49	2066.52
590.84	2060.11
591.19	2054.13
591.54	2047.60
591.89	2040.22
592.25	2033.40
592.60	2026.19
592.95	2018.67
593.30	2011.25
593.65	2003.50
594.00	1996.43
594.35	1989.16
594.70	1981.12
595.05	1974.06
595.40	1966.96
595.75	1959.54
596.10	1953.42
596.45	1946.78
596.80	1940.73
597.15	1934.07
597.50	1927.09
597.85	1920.66
598.19	1914.07
598.54	1906.91
598.89	1900.36
599.24	1894.42
599.59	1887.86
599.94	1881.74
600.29	1875.38
600.64	1868.87
600.99	1861.61
601.34	1854.83
601.69	1847.89
602.04	1841.07
602.39	1833.61
602.74	1826.78
603.08	1819.99
603.43	1813.14
603.78	1805.85
604.13	1798.69
604.48	1791.42
604.83	1784.53
605.18	1777.58
605.53	1769.59
605.87	1761.68
606.22	1754.29
606.57	1746.46
606.92	1739.00
607.27	1731.74
607.62	1724.91
607.96	1717.67
608.31	1711.16
608.66	1703.50
609.01	1695.92
609.36	1688.32
609.70	1680.46
610.05	1672.41
610.40	1664.85
610.75	1656.55
611.10	1648.86
611.44	1640.38
611.79	1632.31
612.14	1623.63
612.49	1614.34
612.83	1605.94
613.18	1597.85
613.53	1589.91
613.88	1581.32
614.22	1573.22
614.57	1564.69
614.92	1556.67
615.27	1549.09
615.61	1540.51
615.96	1532.44
616.31	1524.80
616.65	1517.49
617.00	1509.80
617.35	1502.13
617.70	1493.73
618.04	1485.18
618.39	1477.01
618.74	1469.51
619.08	1461.18
619.43	1453.51
619.78	1446.69
620.12	1439.46
620.47	1431.80
620.82	1423.59
621.16	1416.17
621.51	1408.53
621.85	1400.86
622.20	1392.33
622.55	1384.03
622.89	1376.22
623.24	1368.59
623.59	1361.13
623.93	1353.58
624.28	1346.45
624.62	1338.94
624.97	1331.74
625.32	1325.15
625.66	1318.04
626.01	1310.71
626.35	1303.31
626.70	1295.52
627.04	1287.83
627.39	1280.07
627.73	1272.70
628.08	1265.72
628.43	1258.41
628.77	1250.93
629.12	1243.33
629.46	1236.13
629.81	1228.60
630.15	1221.42
630.50	1214.10
630.84	1205.92
631.19	1197.94
631.53	1190.38
631.88	1182.71
632.22	1175.14
632.57	1167.70
632.91	1160.13
633.26	1152.72
633.60	1145.30
633.95	1138.18
634.29	1131.10
634.64	1124.37
634.98	1116.96
635.32	1109.88
635.67	1103.20
636.01	1096.56
636.36	1089.75
636.70	1083.23
637.05	1076.68
637.39	1070.20
637.73	1063.59
638.08	1057.72
638.42	1051.79
638.77	1045.32
639.11	1038.77
639.45	1032.34
639.80	1025.76
640.14	1019.43
640.49	1012.98
640.83	1006.73
641.17	1000.48
641.52	994.16
641.86	987.64
642.20	981.82
642.55	975.50
642.89	969.13
643.23	962.66
643.58	956.98
643.92	950.81
644.26	944.76
644.61	938.75
644.95	932.82
645.29	926.23
645.64	919.41
645.98	913.15
646.32	907.34
646.66	901.33
647.01	895.55
647.35	889.79
647.69	883.92
648.04	878.39
648.38	872.61
648.72	866.59
649.06	860.66
649.41	854.79
649.75	848.83
650.09	842.82
650.43	836.93
650.78	830.74
651.12	824.77
651.46	819.09
651.80	813.28
652.14	807.80
652.49	802.46
652.83	797.39
653.17	791.68
653.51	785.97
653.85	780.58
654.20	774.90
654.54	768.88
654.88	763.12
655.22	757.22
655.56	751.62
655.90	746.20
656.25	740.99
656.59	735.60
656.93	730.48
657.27	725.37
657.61	719.99
657.95	714.91
658.29	709.86
658.64	704.57
658.98	699.30
659.32	693.89
659.66	688.73
660.00	683.40
660.34	678.45
660.68	673.51
661.02	668.49
661.36	663.75
661.70	659.29
662.05	654.93
662.39	650.61
662.73	646.08
663.07	641.68
663.41	637.17
663.75	632.74
664.09	628.18
664.43	623.75
664.77	619.64
665.11	615.37
665.45	611.25
665.79	607.13
666.13	602.99
666.47	598.89
666.81	594.67
667.15	590.62
667.49	586.67
667.83	582.82
668.17	578.89
668.51	574.87
668.85	570.78
669.19	566.90
669.53	563.08
669.87	559.19
670.21	555.52
670.55	551.93
670.89	548.51
671.23	545.07
671.57	541.58
671.91	538.01
672.25	534.46
672.58	530.88
672.92	527.53
673.26	524.37
673.60	521.18
673.94	518.07
674.28	515.05
674.62	512.13
674.96	509.05
675.30	506.10
675.64	503.14
675.97	500.39
676.31	497.52
676.65	494.55
676.99	491.86
677.33	488.89
677.67	486.04
678.01	482.93
678.34	479.94
678.68	477.04
679.02	474.24
679.36	471.46
679.70	468.71
680.04	465.93
680.37	463.02
680.71	460.26
681.05	457.66
681.39	454.94
681.73	452.28
682.06	449.71
682.40	447.14
682.74	444.58
683.08	442.00
683.42	439.46
683.75	436.95
684.09	434.40
684.43	432.01
684.77	429.53
685.10	427.24
685.44	424.93
685.78	422.67
686.12	420.43
686.45	418.18
686.79	415.91
687.13	413.74
687.46	411.58
687.80	409.41
688.14	407.19
688.48	405.19
688.81	402.95
689.15	400.81
689.49	398.69
689.82	396.67
690.16	394.62
690.50	392.66
690.83	390.77
691.17	388.77
691.51	386.87
691.84	385.03
692.18	383.09
692.52	381.13
692.85	379.18
693.19	377.27
693.52	375.44
693.86	373.61
694.20	371.74
694.53	369.99
694.87	368.11
695.21	366.35
695.54	364.51
695.88	362.77
696.21	361.08
696.55	359.42
696.88	357.70
697.22	356.04
697.56	354.42
697.89	352.75
698.23	351.15
698.56	349.53
698.90	347.96
699.23	346.30
699.57	344.74
699.90	343.23
700.24	341.72
700.58	340.14
700.91	338.66
701.25	337.26
701.58	335.85
701.92	334.52
702.25	333.12
702.59	331.76
702.92	330.48
703.26	329.17
703.59	327.83
703.93	326.63
704.26	325.42
704.60	324.12
704.93	322.87
705.26	321.60
705.60	320.40
705.93	319.19
706.27	318.13
706.60	317.05
706.94	315.91
707.27	314.79
707.61	313.74
707.94	312.72
708.27	311.58
708.61	310.48
708.94	309.45
709.28	308.49
709.61	307.49
709.94	306.49
710.28	305.44
710.61	304.49
710.95	303.39
711.28	302.43
711.61	301.48
711.95	300.54
712.28	299.61
712.61	298.67
712.95	297.75
713.28	296.86
713.61	296.02
713.95	295.18
714.28	294.31
714.61	293.43
714.95	292.55
715.28	291.72
715.61	290.88
715.95	290.02
716.28	289.14
716.61	288.31
716.95	287.47
717.28	286.72
717.61	285.93
717.94	285.21
718.28	284.41
718.61	283.65
718.94	282.97
719.27	282.27
719.61	281.58
719.94	280.95
720.27	280.28
720.60	279.57
720.94	278.94
721.27	278.33
721.60	277.78
721.93	277.18
722.27	276.64
722.60	276.08
722.93	275.51
723.26	274.98
723.59	274.43
723.93	273.88
724.26	273.33
724.59	272.78
724.92	272.23
725.25	271.74
725.59	271.25
725.92	270.72
726.25	270.27
726.58	269.79
726.91	269.28
727.24	268.79
727.57	268.31
727.91	267.78
728.24	267.33
728.57	266.86
728.90	266.45
729.23	265.99
729.56	265.55
729.89	265.08
730.22	264.60
730.55	264.16
730.89	263.76
731.22	263.31
731.55	262.90
731.88	262.49
732.21	262.08
732.54	261.64
732.87	261.26
733.20	260.85
733.53	260.46
733.86	260.10
734.19	259.68
734.52	259.34
734.85	259.06
735.18	258.64
735.51	258.27
735.84	257.89
736.17	257.51
736.50	257.13
736.83	256.94
737.16	256.60
737.49	256.29
737.82	255.96
738.15	255.67
738.48	255.37
738.81	255.04
739.14	254.73
739.47	254.42
739.80	254.06
740.13	253.73
740.46	253.40
740.79	253.05
741.12	252.75
741.45	252.41
741.78	252.04
742.11	251.77
742.44	251.44
742.77	251.14
743.10	250.82
743.43	250.53
743.75	250.10
744.08	249.97
744.41	249.67
744.74	249.35
745.07	249.03
745.40	248.75
745.73	248.56
746.06	248.27
746.39	248.01
746.71	247.77
747.04	247.53
747.37	247.30
747.70	247.05
748.03	246.76
748.36	246.49
748.68	246.26
749.01	246.00
749.34	245.78
749.67	245.55
750.00	245.35
750.33	245.14
750.65	244.95
750.98	244.58
751.31	244.36
751.64	244.15
751.97	243.97
752.29	243.76
752.62	243.45
752.95	243.23
753.28	242.99
753.60	242.76
753.93	242.54
754.26	242.31
754.59	242.12
754.91	241.93
755.24	241.78
755.57	241.57
755.90	241.38
756.22	241.15
756.55	240.94
756.88	240.72
757.20	240.51
757.53	240.28
757.86	240.10
758.19	239.96
758.51	239.84
758.84	239.62
759.17	239.42
759.49	239.27
759.82	239.14
760.15	239.03
760.47	238.86
760.80	238.69
761.13	238.58
761.45	238.38
761.78	238.30
762.11	238.12
762.43	237.96
762.76	237.82
763.08	237.69
763.41	237.59
763.74	237.46
764.06	237.29
764.39	237.17
764.71	237.05
765.04	236.90
765.37	236.70
765.69	236.56
766.02	236.44
766.34	236.33
766.67	236.14
767.00	236.03
767.32	235.98
767.65	235.95
767.97	235.81
768.30	235.72
768.62	235.57
768.95	235.47
769.27	235.40
769.60	235.30
769.92	235.19
770.25	235.05
770.57	234.97
770.90	234.91
771.22	234.79
771.55	234.71
771.87	234.63
772.20	234.55
772.52	234.58
772.85	234.60
773.17	234.52
773.50	234.47
773.82	234.36
774.15	234.22
774.47	234.07
774.80	234.02
775.12	233.94
775.45	233.88
775.77	233.81
776.09	233.75
776.42	233.69
776.74	233.67
777.07	233.60
777.39	233.54
777.72	233.48
778.04	233.46
778.36	233.37
778.69	233.28
779.01	233.22
779.33	233.05
779.66	232.86
779.98	232.75
780.31	232.72
780.63	232.71
780.95	232.69
781.28	232.65
781.60	232.56
781.92	232.47
782.25	232.40
782.57	232.33
782.89	232.22
783.22	232.15
783.54	232.09
783.86	232.04
784.19	231.97
784.51	231.93
784.83	231.86
785.16	231.82
785.48	231.79
785.80	231.74
786.12	231.71
786.45	231.69
786.77	231.66
787.09	231.59
