SpectraSuite Data File
++++++++++++++++++++++++++++++++++++
Date: Fri Feb 01 14:53:56 EST 2013
User: group
Dark Spectrum Present: No
Reference Spectrum Present: No
Number of Sampled Component Spectra: 1
Spectrometers: USB2E7196
Integration Time (usec): 35000 (USB2E7196)
Spectra Averaged: 100 (USB2E7196)
Boxcar Smoothing: 10 (USB2E7196)
Correct for Electrical Dark: No (USB2E7196)
Strobe/Lamp Enabled: No (USB2E7196)
Correct for Detector Non-linearity: No (USB2E7196)
Correct for Stray Light: No (USB2E7196)
Number of Pixels in Processed Spectrum: 2048
>>>>>Begin Processed Spectral Data<<<<<
339.09	0.00
339.48	215.68
339.86	217.33
340.24	218.09
340.63	219.98
341.01	222.48
341.39	222.23
341.78	223.46
342.16	224.81
342.54	225.32
342.93	213.81
343.31	224.60
343.69	225.15
344.07	225.61
344.46	226.04
344.84	226.42
345.22	226.66
345.60	226.92
345.99	227.14
346.37	227.30
346.75	227.41
347.13	227.47
347.52	227.52
347.90	227.57
348.28	227.61
348.66	227.65
349.05	227.65
349.43	227.68
349.81	227.70
350.19	227.74
350.57	227.78
350.96	227.85
351.34	227.95
351.72	228.02
352.10	228.10
352.48	228.19
352.87	228.22
353.25	228.28
353.63	228.34
354.01	228.37
354.39	228.40
354.77	228.44
355.15	228.53
355.54	228.58
355.92	228.65
356.30	228.72
356.68	228.85
357.06	228.92
357.44	228.96
357.82	229.03
358.20	229.10
358.58	229.13
358.97	229.20
359.35	229.25
359.73	229.31
360.11	229.36
360.49	229.38
360.87	229.45
361.25	229.52
361.63	229.57
362.01	229.64
362.39	229.66
362.77	229.72
363.15	229.72
363.53	229.77
363.91	229.80
364.29	229.80
364.67	229.69
365.05	229.70
365.43	229.72
365.81	229.73
366.19	229.74
366.57	229.81
366.95	229.78
367.33	229.76
367.71	229.76
368.09	229.76
368.47	229.74
368.85	229.68
369.23	229.64
369.61	229.60
369.99	229.57
370.37	229.54
370.75	229.53
371.13	229.47
371.51	229.39
371.89	229.32
372.27	229.28
372.65	229.24
373.03	229.17
373.41	229.07
373.78	229.00
374.16	228.88
374.54	228.77
374.92	228.70
375.30	228.62
375.68	228.51
376.06	228.44
376.44	228.35
376.82	228.30
377.19	228.20
377.57	228.10
377.95	228.00
378.33	227.95
378.71	227.80
379.09	227.72
379.47	227.64
379.84	227.56
380.22	227.47
380.60	227.39
380.98	227.32
381.36	227.24
381.73	227.15
382.11	227.13
382.49	227.02
382.87	226.96
383.25	226.87
383.62	226.91
384.00	226.84
384.38	226.79
384.76	226.73
385.13	226.73
385.51	226.68
385.89	226.60
386.27	226.56
386.64	226.56
387.02	226.54
387.40	226.50
387.78	226.46
388.15	226.43
388.53	226.40
388.91	226.40
389.29	226.43
389.66	226.45
390.04	226.40
390.42	226.43
390.79	226.40
391.17	226.40
391.55	226.26
391.92	226.24
392.30	226.25
392.68	226.22
393.05	226.21
393.43	226.23
393.81	226.24
394.18	226.25
394.56	226.28
394.94	226.32
395.31	226.34
395.69	226.43
396.06	226.48
396.44	226.55
396.82	226.59
397.19	226.66
397.57	226.71
397.95	226.81
398.32	226.85
398.70	226.92
399.07	227.04
399.45	227.16
399.82	227.24
400.20	227.31
400.58	227.44
400.95	227.50
401.33	227.63
401.70	227.82
402.08	227.90
402.45	227.99
402.83	228.16
403.20	228.29
403.58	228.36
403.95	228.49
404.33	228.65
404.71	228.80
405.08	228.99
405.46	229.17
405.83	229.33
406.21	229.50
406.58	229.71
406.96	229.85
407.33	230.04
407.70	230.25
408.08	230.51
408.45	230.75
408.83	231.00
409.20	231.21
409.58	231.40
409.95	231.68
410.33	231.97
410.70	232.19
411.08	232.48
411.45	232.81
411.82	233.12
412.20	233.44
412.57	233.85
412.95	234.15
413.32	234.56
413.69	234.98
414.07	235.41
414.44	235.86
414.82	236.37
415.19	236.93
415.56	237.48
415.94	238.02
416.31	238.63
416.68	239.26
417.06	240.00
417.43	240.69
417.81	241.46
418.18	242.22
418.55	243.06
418.93	243.90
419.30	244.77
419.67	245.70
420.04	246.70
420.42	247.70
420.79	248.87
421.16	249.98
421.54	251.13
421.91	252.32
422.28	253.56
422.66	254.86
423.03	256.13
423.40	257.46
423.77	258.85
424.15	260.24
424.52	261.69
424.89	263.27
425.26	264.77
425.64	266.21
426.01	267.79
426.38	269.46
426.75	271.17
427.13	272.87
427.50	274.70
427.87	276.55
428.24	278.37
428.61	280.11
428.99	282.04
429.36	284.13
429.73	286.22
430.10	288.21
430.47	290.29
430.85	292.40
431.22	294.69
431.59	297.12
431.96	299.41
432.33	301.93
432.70	304.27
433.08	307.15
433.45	309.76
433.82	312.38
434.19	315.28
434.56	318.08
434.93	320.77
435.30	323.40
435.68	326.25
436.05	329.12
436.42	331.92
436.79	334.44
437.16	337.17
437.53	340.00
437.90	342.87
438.27	345.61
438.64	348.48
439.01	351.04
439.38	353.23
439.75	355.40
440.13	357.90
440.50	360.28
440.87	362.10
441.24	364.07
441.61	366.24
441.98	367.69
442.35	369.52
442.72	371.40
443.09	373.19
443.46	374.22
443.83	374.82
444.20	375.32
444.57	376.15
444.94	376.47
445.31	376.82
445.68	377.18
446.05	377.29
446.42	376.90
446.79	376.49
447.16	376.05
447.53	375.71
447.90	374.56
448.27	373.42
448.64	371.81
449.01	370.66
449.37	368.68
449.74	366.80
450.11	364.55
450.48	362.09
450.85	359.61
451.22	357.44
451.59	355.37
451.96	353.39
452.33	350.83
452.70	348.43
453.07	345.59
453.43	342.64
453.80	339.84
454.17	337.18
454.54	334.63
454.91	331.96
455.28	329.31
455.65	326.82
456.02	324.35
456.38	322.21
456.75	319.55
457.12	317.28
457.49	315.08
457.86	312.91
458.23	311.02
458.59	308.97
458.96	306.92
459.33	305.10
459.70	303.23
460.07	301.69
460.43	300.01
460.80	298.35
461.17	296.94
461.54	295.42
461.91	293.95
462.27	292.49
462.64	291.18
463.01	289.80
463.38	288.47
463.74	287.09
464.11	285.92
464.48	284.91
464.85	283.82
465.21	282.95
465.58	282.00
465.95	280.86
466.32	279.93
466.68	278.99
467.05	278.04
467.42	277.16
467.78	276.23
468.15	275.30
468.52	274.67
468.88	273.81
469.25	273.07
469.62	272.48
469.98	271.81
470.35	271.18
470.72	270.56
471.08	269.88
471.45	269.36
471.82	268.81
472.18	268.18
472.55	267.71
472.92	267.15
473.28	266.67
473.65	266.23
474.02	265.74
474.38	265.37
474.75	265.03
475.11	264.67
475.48	264.40
475.85	264.15
476.21	263.88
476.58	263.64
476.94	263.42
477.31	263.21
477.67	263.04
478.04	262.91
478.41	262.83
478.77	262.85
479.14	262.74
479.50	262.74
479.87	262.77
480.23	262.82
480.60	262.86
480.96	262.93
481.33	263.13
481.69	263.36
482.06	263.53
482.42	263.75
482.79	263.99
483.15	264.30
483.52	264.70
483.88	265.02
484.25	265.41
484.61	265.85
484.98	266.29
485.34	266.80
485.71	267.38
486.07	267.99
486.44	268.59
486.80	269.27
487.17	270.02
487.53	270.88
487.90	271.74
488.26	272.67
488.62	273.64
488.99	274.63
489.35	275.65
489.72	276.76
490.08	277.94
490.44	279.17
490.81	280.48
491.17	281.80
491.54	283.27
491.90	284.77
492.26	286.40
492.63	288.12
492.99	289.92
493.36	291.80
493.72	293.82
494.08	295.89
494.45	298.17
494.81	300.48
495.17	302.89
495.54	305.43
495.90	308.08
496.26	310.87
496.63	313.77
496.99	316.84
497.35	320.08
497.72	323.47
498.08	326.95
498.44	330.64
498.80	334.54
499.17	338.61
499.53	342.78
499.89	347.10
500.26	351.60
500.62	356.27
500.98	361.24
501.34	366.30
501.71	371.54
502.07	376.90
502.43	382.48
502.79	388.23
503.16	394.29
503.52	400.62
503.88	407.05
504.24	413.67
504.60	420.57
504.97	427.65
505.33	434.88
505.69	442.55
506.05	450.29
506.41	458.09
506.78	466.25
507.14	474.69
507.50	483.42
507.86	492.32
508.22	501.50
508.59	510.67
508.95	520.22
509.31	530.03
509.67	540.07
510.03	550.37
510.39	560.94
510.75	571.71
511.12	582.54
511.48	593.81
511.84	605.23
512.20	616.70
512.56	628.65
512.92	640.83
513.28	653.14
513.64	665.56
514.00	678.30
514.37	691.21
514.73	704.23
515.09	717.21
515.45	730.58
515.81	744.17
516.17	758.10
516.53	772.28
516.89	786.52
517.25	800.77
517.61	815.22
517.97	829.58
518.33	844.05
518.69	858.94
519.05	873.87
519.41	889.14
519.77	904.72
520.13	920.24
520.49	935.67
520.85	951.15
521.21	966.92
521.57	983.24
521.93	999.06
522.29	1015.57
522.65	1031.91
523.01	1048.15
523.37	1064.32
523.73	1080.61
524.09	1096.70
524.45	1113.09
524.81	1129.75
525.17	1146.71
525.53	1163.66
525.89	1180.61
526.25	1197.44
526.61	1213.94
526.97	1230.67
527.33	1247.21
527.68	1263.89
528.04	1280.50
528.40	1297.27
528.76	1314.40
529.12	1331.05
529.48	1347.95
529.84	1364.11
530.20	1380.86
530.56	1397.99
530.91	1415.32
531.27	1432.13
531.63	1448.66
531.99	1465.30
532.35	1481.38
532.71	1497.28
533.07	1513.73
533.42	1529.62
533.78	1545.73
534.14	1562.12
534.50	1577.49
534.86	1593.56
535.21	1608.72
535.57	1624.77
535.93	1640.22
536.29	1655.13
536.65	1670.20
537.00	1685.13
537.36	1700.36
537.72	1714.98
538.08	1729.39
538.44	1743.41
538.79	1757.31
539.15	1771.21
539.51	1785.07
539.87	1799.52
540.22	1813.20
540.58	1826.98
540.94	1840.37
541.29	1853.51
541.65	1866.28
542.01	1879.66
542.37	1891.94
542.72	1904.43
543.08	1916.27
543.44	1928.71
543.79	1939.92
544.15	1950.92
544.51	1962.45
544.87	1973.49
545.22	1984.35
545.58	1994.70
545.94	2004.40
546.29	2014.45
546.65	2024.17
547.01	2033.27
547.36	2041.99
547.72	2050.60
548.07	2058.48
548.43	2066.82
548.79	2074.66
549.14	2082.07
549.50	2089.40
549.86	2097.12
550.21	2104.42
550.57	2111.61
550.92	2118.17
551.28	2125.24
551.64	2132.34
551.99	2138.90
552.35	2145.03
552.70	2151.12
553.06	2156.97
553.41	2163.27
553.77	2169.16
554.13	2175.10
554.48	2181.26
554.84	2186.68
555.19	2192.01
555.55	2197.15
555.90	2201.39
556.26	2206.18
556.61	2210.88
556.97	2215.03
557.32	2218.99
557.68	2222.88
558.03	2227.00
558.39	2230.65
558.74	2235.10
559.10	2238.83
559.45	2242.34
559.81	2246.56
560.16	2250.16
560.52	2253.45
560.87	2256.83
561.23	2259.36
561.58	2262.30
561.94	2264.80
562.29	2267.09
562.64	2269.59
563.00	2272.05
563.35	2275.64
563.71	2278.67
564.06	2281.58
564.42	2284.43
564.77	2286.78
565.12	2289.09
565.48	2290.77
565.83	2292.47
566.19	2293.76
566.54	2294.72
566.89	2295.73
567.25	2296.09
567.60	2297.39
567.96	2298.92
568.31	2299.49
568.66	2300.45
569.02	2300.83
569.37	2300.96
569.72	2301.71
570.08	2301.56
570.43	2301.41
570.78	2300.31
571.14	2298.59
571.49	2297.25
571.84	2296.67
572.20	2295.31
572.55	2294.10
572.90	2292.46
573.26	2290.87
573.61	2289.01
573.96	2286.98
574.31	2283.77
574.67	2280.59
575.02	2276.71
575.37	2273.03
575.72	2268.93
576.08	2265.48
576.43	2262.10
576.78	2258.19
577.13	2254.68
577.49	2251.50
577.84	2247.97
578.19	2244.29
578.54	2240.52
578.90	2236.05
579.25	2230.42
579.60	2225.43
579.95	2220.30
580.30	2214.94
580.66	2209.62
581.01	2204.42
581.36	2199.34
581.71	2195.02
582.06	2190.38
582.42	2185.75
582.77	2180.31
583.12	2175.69
583.47	2170.73
583.82	2165.42
584.17	2160.03
584.53	2154.48
584.88	2148.62
585.23	2142.49
585.58	2136.95
585.93	2131.38
586.28	2126.52
586.63	2121.26
586.98	2116.07
587.34	2111.28
587.69	2106.38
588.04	2101.06
588.39	2095.27
588.74	2088.55
589.09	2082.26
589.44	2075.32
589.79	2069.10
590.14	2063.28
590.49	2056.48
590.84	2049.92
591.19	2043.73
591.54	2037.13
591.89	2029.47
592.25	2022.52
592.60	2015.27
592.95	2007.41
593.30	1999.89
593.65	1992.13
594.00	1984.98
594.35	1977.60
594.70	1969.48
595.05	1962.20
595.40	1954.82
595.75	1947.32
596.10	1940.97
596.45	1934.04
596.80	1927.91
597.15	1921.14
597.50	1913.99
597.85	1907.61
598.19	1900.94
598.54	1893.83
598.89	1887.11
599.24	1881.14
599.59	1874.45
599.94	1868.06
600.29	1861.72
600.64	1855.19
600.99	1847.67
601.34	1840.70
601.69	1833.60
602.04	1826.66
602.39	1819.22
602.74	1812.26
603.08	1805.52
603.43	1798.92
603.78	1791.72
604.13	1784.32
604.48	1777.17
604.83	1770.42
605.18	1763.45
605.53	1755.45
605.87	1747.44
606.22	1740.24
606.57	1732.40
606.92	1725.02
607.27	1718.06
607.62	1711.20
607.96	1703.79
608.31	1697.21
608.66	1689.54
609.01	1682.12
609.36	1674.61
609.70	1666.70
610.05	1658.76
610.40	1651.03
610.75	1642.61
611.10	1634.99
611.44	1626.84
611.79	1618.87
612.14	1610.07
612.49	1600.91
612.83	1592.54
613.18	1584.59
613.53	1576.61
613.88	1568.15
614.22	1559.96
614.57	1551.27
614.92	1543.27
615.27	1535.75
615.61	1527.51
615.96	1519.77
616.31	1512.21
616.65	1504.82
617.00	1497.38
617.35	1489.69
617.70	1481.43
618.04	1472.96
618.39	1464.82
618.74	1457.23
619.08	1448.97
619.43	1441.59
619.78	1434.81
620.12	1427.75
620.47	1420.10
620.82	1411.93
621.16	1404.58
621.51	1397.16
621.85	1389.80
622.20	1381.37
622.55	1373.17
622.89	1365.45
623.24	1357.82
623.59	1350.47
623.93	1342.91
624.28	1335.61
624.62	1328.17
624.97	1321.03
625.32	1314.42
625.66	1307.45
626.01	1300.34
626.35	1292.95
626.70	1285.25
627.04	1277.50
627.39	1269.78
627.73	1262.56
628.08	1255.75
628.43	1248.48
628.77	1241.11
629.12	1233.51
629.46	1226.29
629.81	1218.96
630.15	1211.83
630.50	1204.52
630.84	1196.31
631.19	1188.51
631.53	1181.17
631.88	1173.74
632.22	1166.31
632.57	1159.11
632.91	1151.66
633.26	1144.35
633.60	1137.06
633.95	1130.13
634.29	1123.16
634.64	1116.52
634.98	1109.24
635.32	1102.17
635.67	1095.71
636.01	1089.12
636.36	1082.44
636.70	1076.01
637.05	1069.49
637.39	1063.05
637.73	1056.59
638.08	1050.90
638.42	1045.12
638.77	1038.66
639.11	1032.08
639.45	1025.69
639.80	1019.11
640.14	1012.68
640.49	1006.26
640.83	1000.03
641.17	993.81
641.52	987.58
641.86	981.28
642.20	975.56
642.55	969.33
642.89	962.92
643.23	956.39
643.58	950.59
643.92	944.47
644.26	938.45
644.61	932.45
644.95	926.53
645.29	919.91
645.64	913.17
645.98	906.90
646.32	901.13
646.66	895.10
647.01	889.30
647.35	883.72
647.69	877.86
648.04	872.38
648.38	866.70
648.72	860.78
649.06	854.74
649.41	848.78
649.75	842.77
650.09	836.78
650.43	831.04
650.78	824.91
651.12	819.02
651.46	813.38
651.80	807.71
652.14	802.30
652.49	796.90
652.83	791.78
653.17	786.12
653.51	780.42
653.85	775.04
654.20	769.43
654.54	763.45
654.88	757.78
655.22	752.00
655.56	746.28
655.90	740.85
656.25	735.64
656.59	730.39
656.93	725.33
657.27	720.23
657.61	714.83
657.95	709.79
658.29	704.76
658.64	699.53
658.98	694.23
659.32	688.79
659.66	683.71
660.00	678.35
660.34	673.42
660.68	668.60
661.02	663.68
661.36	659.00
661.70	654.53
662.05	650.19
662.39	645.84
662.73	641.49
663.07	637.15
663.41	632.69
663.75	628.18
664.09	623.68
664.43	619.35
664.77	615.30
665.11	611.08
665.45	607.02
665.79	602.95
666.13	598.90
666.47	594.81
666.81	590.69
667.15	586.70
667.49	582.90
667.83	579.14
668.17	575.19
668.51	571.20
668.85	567.18
669.19	563.40
669.53	559.54
669.87	555.68
670.21	551.95
670.55	548.42
670.89	545.02
671.23	541.61
671.57	538.15
671.91	534.70
672.25	531.28
672.58	527.84
672.92	524.55
673.26	521.39
673.60	518.36
673.94	515.28
674.28	512.42
674.62	509.47
674.96	506.40
675.30	503.61
675.64	500.74
675.97	498.11
676.31	495.24
676.65	492.42
676.99	489.69
677.33	486.90
677.67	484.13
678.01	481.16
678.34	478.22
678.68	475.40
679.02	472.56
679.36	469.87
679.70	467.15
680.04	464.41
680.37	461.57
680.71	458.82
681.05	456.22
681.39	453.49
681.73	450.88
682.06	448.37
682.40	445.81
682.74	443.33
683.08	440.78
683.42	438.19
683.75	435.68
684.09	433.21
684.43	430.83
684.77	428.37
685.10	426.13
685.44	423.88
685.78	421.61
686.12	419.44
686.45	417.15
686.79	414.88
687.13	412.68
687.46	410.55
687.80	408.37
688.14	406.20
688.48	404.16
688.81	401.99
689.15	399.84
689.49	397.69
689.82	395.65
690.16	393.55
690.50	391.66
690.83	389.73
691.17	387.78
691.51	385.88
691.84	384.06
692.18	382.13
692.52	380.15
692.85	378.24
693.19	376.38
693.52	374.56
693.86	372.75
694.20	370.96
694.53	369.18
694.87	367.40
695.21	365.65
695.54	363.87
695.88	362.11
696.21	360.43
696.55	358.77
696.88	357.06
697.22	355.41
697.56	353.79
697.89	352.14
698.23	350.51
698.56	348.88
698.90	347.32
699.23	345.65
699.57	344.12
699.90	342.60
700.24	341.06
700.58	339.53
700.91	338.10
701.25	336.68
701.58	335.32
701.92	333.95
702.25	332.52
702.59	331.15
702.92	329.85
703.26	328.56
703.59	327.30
703.93	326.12
704.26	324.93
704.60	323.64
704.93	322.43
705.26	321.17
705.60	319.99
705.93	318.82
706.27	317.83
706.60	316.80
706.94	315.69
707.27	314.59
707.61	313.52
707.94	312.45
708.27	311.35
708.61	310.29
708.94	309.26
709.28	308.29
709.61	307.34
709.94	306.34
710.28	305.30
710.61	304.34
710.95	303.26
711.28	302.37
711.61	301.41
711.95	300.47
712.28	299.56
712.61	298.57
712.95	297.63
713.28	296.75
713.61	295.84
713.95	294.98
714.28	294.11
714.61	293.26
714.95	292.40
715.28	291.54
715.61	290.71
715.95	289.93
716.28	289.12
716.61	288.28
716.95	287.53
717.28	286.80
717.61	286.04
717.94	285.34
718.28	284.52
718.61	283.85
718.94	283.20
719.27	282.54
719.61	281.90
719.94	281.31
720.27	280.57
720.60	279.96
720.94	279.36
721.27	278.77
721.60	278.19
721.93	277.64
722.27	277.14
722.60	276.56
722.93	275.98
723.26	275.48
723.59	274.93
723.93	274.38
724.26	273.86
724.59	273.30
724.92	272.81
725.25	272.31
725.59	271.78
725.92	271.27
726.25	270.81
726.58	270.37
726.91	269.85
727.24	269.42
727.57	268.94
727.91	268.45
728.24	268.01
728.57	267.54
728.90	267.07
729.23	266.59
729.56	266.16
729.89	265.72
730.22	265.24
730.55	264.78
730.89	264.34
731.22	263.87
731.55	263.46
731.88	263.03
732.21	262.63
732.54	262.21
732.87	261.78
733.20	261.38
733.53	260.99
733.86	260.64
734.19	260.22
734.52	259.86
734.85	259.50
735.18	259.13
735.51	258.78
735.84	258.44
736.17	258.05
736.50	257.63
736.83	257.39
737.16	257.02
737.49	256.71
737.82	256.37
738.15	256.05
738.48	255.71
738.81	255.36
739.14	255.02
739.47	254.68
739.80	254.37
740.13	254.07
740.46	253.73
740.79	253.36
741.12	253.04
741.45	252.73
741.78	252.43
742.11	252.10
742.44	251.74
742.77	251.40
743.10	251.12
743.43	250.83
743.75	250.41
744.08	250.26
744.41	249.97
744.74	249.69
745.07	249.40
745.40	249.15
745.73	248.94
746.06	248.63
746.39	248.39
746.71	248.11
747.04	247.81
747.37	247.53
747.70	247.26
748.03	247.03
748.36	246.78
748.68	246.53
749.01	246.29
749.34	246.12
749.67	245.94
750.00	245.71
750.33	245.57
750.65	245.39
750.98	245.10
751.31	244.90
751.64	244.69
751.97	244.58
752.29	244.35
752.62	244.08
752.95	243.91
753.28	243.67
753.60	243.47
753.93	243.29
754.26	243.13
754.59	242.92
754.91	242.73
755.24	242.55
755.57	242.35
755.90	242.20
756.22	241.99
756.55	241.78
756.88	241.60
757.20	241.35
757.53	241.15
757.86	240.99
758.19	240.82
758.51	240.67
758.84	240.45
759.17	240.31
759.49	240.19
759.82	240.07
760.15	239.94
760.47	239.81
760.80	239.67
761.13	239.53
761.45	239.41
761.78	239.24
762.11	239.11
762.43	238.98
762.76	238.79
763.08	238.68
763.41	238.55
763.74	238.43
764.06	238.30
764.39	238.17
764.71	237.98
765.04	237.87
765.37	237.75
765.69	237.63
766.02	237.49
766.34	237.36
766.67	237.24
767.00	237.15
767.32	237.04
767.65	237.01
767.97	236.91
768.30	236.82
768.62	236.72
768.95	236.62
769.27	236.51
769.60	236.46
769.92	236.33
770.25	236.19
770.57	236.12
770.90	236.01
771.22	235.91
771.55	235.86
771.87	235.74
772.20	235.61
772.52	235.58
772.85	235.60
773.17	235.51
773.50	235.40
773.82	235.29
774.15	235.17
774.47	235.01
774.80	234.91
775.12	234.79
775.45	234.71
775.77	234.59
776.09	234.48
776.42	234.34
776.74	234.29
777.07	234.25
777.39	234.11
777.72	234.02
778.04	233.96
778.36	233.89
778.69	233.85
779.01	233.80
779.33	233.64
779.66	233.46
779.98	233.38
780.31	233.33
780.63	233.30
780.95	233.25
781.28	233.18
781.60	233.12
781.92	233.10
782.25	233.01
782.57	232.95
782.89	232.90
783.22	232.87
783.54	232.79
783.86	232.74
784.19	232.70
784.51	232.66
784.83	232.59
785.16	232.52
785.48	232.45
785.80	232.40
786.12	232.36
786.45	232.30
786.77	232.25
787.09	232.17
