SpectraSuite Data File
++++++++++++++++++++++++++++++++++++
Date: Fri Feb 01 15:21:54 EST 2013
User: group
Dark Spectrum Present: No
Reference Spectrum Present: No
Number of Sampled Component Spectra: 1
Spectrometers: USB2E7196
Integration Time (usec): 35000 (USB2E7196)
Spectra Averaged: 100 (USB2E7196)
Boxcar Smoothing: 10 (USB2E7196)
Correct for Electrical Dark: No (USB2E7196)
Strobe/Lamp Enabled: No (USB2E7196)
Correct for Detector Non-linearity: No (USB2E7196)
Correct for Stray Light: No (USB2E7196)
Number of Pixels in Processed Spectrum: 2048
>>>>>Begin Processed Spectral Data<<<<<
339.09	0.00
339.48	215.05
339.86	216.08
340.24	217.85
340.63	219.23
341.01	222.13
341.39	222.45
341.78	223.56
342.16	225.37
342.54	224.82
342.93	213.47
343.31	224.26
343.69	224.80
344.07	225.27
344.46	225.66
344.84	226.03
345.22	226.27
345.60	226.48
345.99	226.65
346.37	226.74
346.75	226.86
347.13	226.89
347.52	226.96
347.90	227.03
348.28	227.06
348.66	227.09
349.05	227.09
349.43	227.10
349.81	227.09
350.19	227.15
350.57	227.20
350.96	227.27
351.34	227.35
351.72	227.42
352.10	227.52
352.48	227.60
352.87	227.66
353.25	227.71
353.63	227.75
354.01	227.82
354.39	227.92
354.77	227.97
355.15	228.07
355.54	228.12
355.92	228.14
356.30	228.18
356.68	228.27
357.06	228.37
357.44	228.45
357.82	228.52
358.20	228.59
358.58	228.64
358.97	228.72
359.35	228.78
359.73	228.85
360.11	228.88
360.49	228.96
360.87	229.01
361.25	229.09
361.63	229.18
362.01	229.21
362.39	229.22
362.77	229.25
363.15	229.26
363.53	229.30
363.91	229.36
364.29	229.40
364.67	229.34
365.05	229.31
365.43	229.33
365.81	229.34
366.19	229.34
366.57	229.36
366.95	229.36
367.33	229.31
367.71	229.30
368.09	229.31
368.47	229.32
368.85	229.28
369.23	229.25
369.61	229.20
369.99	229.23
370.37	229.17
370.75	229.20
371.13	229.17
371.51	229.08
371.89	229.02
372.27	228.96
372.65	228.94
373.03	228.90
373.41	228.85
373.78	228.82
374.16	228.71
374.54	228.62
374.92	228.56
375.30	228.53
375.68	228.44
376.06	228.38
376.44	228.30
376.82	228.23
377.19	228.18
377.57	228.10
377.95	228.00
378.33	227.92
378.71	227.81
379.09	227.74
379.47	227.69
379.84	227.61
380.22	227.53
380.60	227.45
380.98	227.39
381.36	227.31
381.73	227.22
382.11	227.19
382.49	227.16
382.87	227.11
383.25	227.06
383.62	227.14
384.00	227.07
384.38	227.01
384.76	226.99
385.13	226.95
385.51	226.92
385.89	226.83
386.27	226.83
386.64	226.78
387.02	226.72
387.40	226.69
387.78	226.64
388.15	226.63
388.53	226.58
388.91	226.54
389.29	226.50
389.66	226.48
390.04	226.44
390.42	226.42
390.79	226.37
391.17	226.34
391.55	226.20
391.92	226.19
392.30	226.19
392.68	226.17
393.05	226.17
393.43	226.16
393.81	226.17
394.18	226.18
394.56	226.21
394.94	226.26
395.31	226.28
395.69	226.39
396.06	226.41
396.44	226.47
396.82	226.53
397.19	226.63
397.57	226.66
397.95	226.73
398.32	226.76
398.70	226.83
399.07	226.93
399.45	227.02
399.82	227.09
400.20	227.14
400.58	227.24
400.95	227.29
401.33	227.41
401.70	227.61
402.08	227.68
402.45	227.77
402.83	227.92
403.20	228.06
403.58	228.14
403.95	228.31
404.33	228.44
404.71	228.56
405.08	228.74
405.46	228.90
405.83	229.06
406.21	229.19
406.58	229.34
406.96	229.52
407.33	229.67
407.70	229.90
408.08	230.17
408.45	230.40
408.83	230.64
409.20	230.85
409.58	231.04
409.95	231.30
410.33	231.58
410.70	231.84
411.08	232.10
411.45	232.39
411.82	232.68
412.20	233.03
412.57	233.48
412.95	233.79
413.32	234.17
413.69	234.62
414.07	235.09
414.44	235.59
414.82	236.08
415.19	236.64
415.56	237.16
415.94	237.67
416.31	238.32
416.68	238.92
417.06	239.63
417.43	240.31
417.81	241.10
418.18	241.89
418.55	242.70
418.93	243.57
419.30	244.48
419.67	245.44
420.04	246.39
420.42	247.36
420.79	248.55
421.16	249.74
421.54	250.90
421.91	252.11
422.28	253.36
422.66	254.65
423.03	255.97
423.40	257.30
423.77	258.72
424.15	260.13
424.52	261.62
424.89	263.24
425.26	264.78
425.64	266.24
426.01	267.82
426.38	269.48
426.75	271.16
427.13	272.94
427.50	274.74
427.87	276.62
428.24	278.47
428.61	280.20
428.99	282.13
429.36	284.26
429.73	286.37
430.10	288.40
430.47	290.49
430.85	292.59
431.22	294.82
431.59	297.23
431.96	299.47
432.33	301.96
432.70	304.37
433.08	307.21
433.45	309.85
433.82	312.45
434.19	315.32
434.56	318.14
434.93	320.75
435.30	323.40
435.68	326.32
436.05	329.16
436.42	331.97
436.79	334.46
437.16	337.16
437.53	339.99
437.90	342.83
438.27	345.59
438.64	348.44
439.01	351.06
439.38	353.32
439.75	355.51
440.13	358.02
440.50	360.36
440.87	362.19
441.24	364.14
441.61	366.36
441.98	367.82
442.35	369.66
442.72	371.53
443.09	373.31
443.46	374.33
443.83	374.97
444.20	375.50
444.57	376.34
444.94	376.61
445.31	376.94
445.68	377.27
446.05	377.32
446.42	376.97
446.79	376.58
447.16	376.13
447.53	375.78
447.90	374.62
448.27	373.42
448.64	371.80
449.01	370.63
449.37	368.59
449.74	366.72
450.11	364.45
450.48	361.94
450.85	359.40
451.22	357.20
451.59	355.11
451.96	353.13
452.33	350.55
452.70	348.19
453.07	345.33
453.43	342.41
453.80	339.64
454.17	336.90
454.54	334.32
454.91	331.59
455.28	328.92
455.65	326.42
456.02	323.95
456.38	321.80
456.75	319.13
457.12	316.92
457.49	314.72
457.86	312.55
458.23	310.70
458.59	308.66
458.96	306.54
459.33	304.70
459.70	302.84
460.07	301.31
460.43	299.55
460.80	297.89
461.17	296.39
461.54	294.92
461.91	293.52
462.27	292.07
462.64	290.80
463.01	289.46
463.38	288.15
463.74	286.78
464.11	285.64
464.48	284.61
464.85	283.49
465.21	282.57
465.58	281.61
465.95	280.52
466.32	279.62
466.68	278.72
467.05	277.79
467.42	276.90
467.78	275.90
468.15	275.05
468.52	274.42
468.88	273.61
469.25	272.81
469.62	272.16
469.98	271.49
470.35	270.85
470.72	270.23
471.08	269.57
471.45	269.03
471.82	268.49
472.18	267.88
472.55	267.43
472.92	266.94
473.28	266.50
473.65	266.04
474.02	265.58
474.38	265.22
474.75	264.94
475.11	264.59
475.48	264.36
475.85	264.12
476.21	263.88
476.58	263.69
476.94	263.54
477.31	263.40
477.67	263.27
478.04	263.16
478.41	263.11
478.77	263.17
479.14	263.09
479.50	263.09
479.87	263.16
480.23	263.27
480.60	263.33
480.96	263.39
481.33	263.59
481.69	263.78
482.06	263.98
482.42	264.20
482.79	264.47
483.15	264.81
483.52	265.21
483.88	265.59
484.25	266.00
484.61	266.45
484.98	266.87
485.34	267.43
485.71	268.04
486.07	268.65
486.44	269.24
486.80	269.94
487.17	270.67
487.53	271.50
487.90	272.32
488.26	273.26
488.62	274.26
488.99	275.25
489.35	276.32
489.72	277.43
490.08	278.59
490.44	279.85
490.81	281.17
491.17	282.49
491.54	283.93
491.90	285.47
492.26	287.10
492.63	288.85
492.99	290.64
493.36	292.53
493.72	294.55
494.08	296.61
494.45	298.90
494.81	301.29
495.17	303.69
495.54	306.27
495.90	308.91
496.26	311.69
496.63	314.62
496.99	317.71
497.35	320.98
497.72	324.40
498.08	327.87
498.44	331.53
498.80	335.43
499.17	339.45
499.53	343.58
499.89	347.94
500.26	352.46
500.62	357.09
500.98	362.02
501.34	367.11
501.71	372.48
502.07	377.84
502.43	383.39
502.79	389.22
503.16	395.25
503.52	401.56
503.88	408.01
504.24	414.65
504.60	421.54
504.97	428.68
505.33	436.00
505.69	443.70
506.05	451.46
506.41	459.39
506.78	467.56
507.14	475.97
507.50	484.68
507.86	493.70
508.22	502.88
508.59	512.09
508.95	521.62
509.31	531.38
509.67	541.51
510.03	551.80
510.39	562.34
510.75	573.17
511.12	584.11
511.48	595.46
511.84	606.97
512.20	618.47
512.56	630.42
512.92	642.61
513.28	654.92
513.64	667.44
514.00	680.15
514.37	693.05
514.73	706.14
515.09	719.22
515.45	732.53
515.81	746.14
516.17	760.18
516.53	774.43
516.89	788.59
517.25	802.80
517.61	817.31
517.97	831.82
518.33	846.23
518.69	861.09
519.05	876.16
519.41	891.30
519.77	906.95
520.13	922.44
520.49	937.89
520.85	953.37
521.21	969.17
521.57	985.54
521.93	1001.41
522.29	1017.89
522.65	1034.15
523.01	1050.46
523.37	1066.63
523.73	1082.81
524.09	1098.94
524.45	1115.48
524.81	1132.17
525.17	1149.12
525.53	1166.07
525.89	1183.06
526.25	1199.91
526.61	1216.18
526.97	1233.02
527.33	1249.41
527.68	1266.14
528.04	1282.67
528.40	1299.35
528.76	1316.43
529.12	1333.07
529.48	1350.09
529.84	1366.19
530.20	1382.95
530.56	1399.99
530.91	1417.36
531.27	1434.23
531.63	1450.78
531.99	1467.36
532.35	1483.45
532.71	1499.42
533.07	1515.76
533.42	1531.70
533.78	1547.87
534.14	1564.27
534.50	1579.73
534.86	1595.81
535.21	1610.93
535.57	1626.87
535.93	1642.37
536.29	1657.35
536.65	1672.41
537.00	1687.24
537.36	1702.58
537.72	1717.21
538.08	1731.67
538.44	1745.49
538.79	1759.44
539.15	1773.21
539.51	1787.08
539.87	1801.49
540.22	1815.22
540.58	1829.08
540.94	1842.62
541.29	1855.67
541.65	1868.49
542.01	1881.82
542.37	1894.06
542.72	1906.57
543.08	1918.53
543.44	1931.08
543.79	1942.20
544.15	1953.26
544.51	1964.83
544.87	1975.80
545.22	1986.59
545.58	1996.73
545.94	2006.60
546.29	2016.39
546.65	2026.06
547.01	2035.15
547.36	2043.92
547.72	2052.49
548.07	2060.23
548.43	2068.35
548.79	2076.23
549.14	2083.74
549.50	2091.08
549.86	2099.01
550.21	2106.43
550.57	2113.50
550.92	2120.08
551.28	2127.33
551.64	2134.38
551.99	2140.94
552.35	2147.22
552.70	2153.35
553.06	2159.32
553.41	2165.84
553.77	2172.10
554.13	2178.37
554.48	2184.49
554.84	2189.90
555.19	2195.24
555.55	2200.49
555.90	2204.98
556.26	2209.77
556.61	2214.52
556.97	2218.62
557.32	2222.60
557.68	2226.72
558.03	2230.96
558.39	2234.63
558.74	2239.02
559.10	2242.86
559.45	2246.42
559.81	2250.73
560.16	2254.45
560.52	2257.95
560.87	2261.17
561.23	2263.61
561.58	2266.59
561.94	2269.08
562.29	2271.49
562.64	2274.06
563.00	2276.68
563.35	2280.22
563.71	2283.41
564.06	2286.69
564.42	2289.54
564.77	2292.16
565.12	2294.27
565.48	2296.16
565.83	2297.99
566.19	2299.39
566.54	2300.46
566.89	2301.60
567.25	2302.11
567.60	2303.62
567.96	2304.99
568.31	2305.77
568.66	2306.80
569.02	2307.21
569.37	2307.70
569.72	2308.49
570.08	2308.47
570.43	2308.43
570.78	2307.72
571.14	2306.22
571.49	2304.82
571.84	2304.50
572.20	2303.07
572.55	2302.07
572.90	2300.65
573.26	2299.28
573.61	2297.48
573.96	2295.45
574.31	2292.39
574.67	2289.14
575.02	2285.30
575.37	2282.09
575.72	2278.22
576.08	2274.92
576.43	2271.64
576.78	2267.80
577.13	2264.61
577.49	2261.69
577.84	2258.04
578.19	2254.24
578.54	2250.39
578.90	2245.99
579.25	2240.41
579.60	2235.40
579.95	2230.38
580.30	2225.08
580.66	2219.80
581.01	2214.72
581.36	2209.74
581.71	2205.45
582.06	2201.10
582.42	2196.46
582.77	2190.96
583.12	2186.37
583.47	2181.56
583.82	2176.23
584.17	2170.76
584.53	2165.16
584.88	2159.26
585.23	2153.54
585.58	2148.00
585.93	2142.54
586.28	2137.85
586.63	2132.68
586.98	2127.56
587.34	2122.59
587.69	2117.75
588.04	2112.42
588.39	2106.67
588.74	2100.28
589.09	2094.23
589.44	2087.16
589.79	2081.22
590.14	2075.53
590.49	2068.87
590.84	2062.31
591.19	2056.37
591.54	2050.02
591.89	2042.41
592.25	2035.51
592.60	2028.20
592.95	2020.43
593.30	2012.97
593.65	2005.16
594.00	1998.14
594.35	1990.95
594.70	1982.99
595.05	1975.59
595.40	1968.19
595.75	1960.75
596.10	1954.23
596.45	1947.29
596.80	1941.22
597.15	1934.50
597.50	1927.20
597.85	1920.74
598.19	1914.12
598.54	1906.87
598.89	1900.10
599.24	1894.24
599.59	1887.46
599.94	1881.19
600.29	1874.98
600.64	1868.42
600.99	1860.81
601.34	1853.79
601.69	1846.68
602.04	1839.63
602.39	1832.36
602.74	1825.53
603.08	1818.68
603.43	1812.08
603.78	1804.85
604.13	1797.61
604.48	1790.08
604.83	1783.45
605.18	1776.42
605.53	1768.37
605.87	1760.36
606.22	1753.19
606.57	1745.26
606.92	1737.93
607.27	1730.66
607.62	1723.62
607.96	1716.25
608.31	1709.61
608.66	1701.98
609.01	1694.41
609.36	1686.85
609.70	1678.80
610.05	1670.61
610.40	1662.84
610.75	1654.46
611.10	1646.56
611.44	1638.24
611.79	1630.42
612.14	1621.62
612.49	1612.41
612.83	1604.02
613.18	1596.01
613.53	1587.92
613.88	1579.31
614.22	1571.13
614.57	1562.53
614.92	1554.46
615.27	1546.76
615.61	1538.48
615.96	1530.49
616.31	1522.77
616.65	1515.48
617.00	1507.90
617.35	1500.25
617.70	1491.82
618.04	1483.22
618.39	1475.02
618.74	1467.34
619.08	1458.91
619.43	1451.33
619.78	1444.46
620.12	1437.29
620.47	1429.73
620.82	1421.56
621.16	1414.20
621.51	1406.48
621.85	1398.81
622.20	1390.32
622.55	1382.12
622.89	1374.26
623.24	1366.59
623.59	1359.38
623.93	1351.79
624.28	1344.51
624.62	1337.03
624.97	1330.00
625.32	1323.28
625.66	1316.25
626.01	1308.99
626.35	1301.51
626.70	1293.81
627.04	1286.01
627.39	1278.26
627.73	1270.77
628.08	1263.73
628.43	1256.35
628.77	1249.01
629.12	1241.57
629.46	1234.34
629.81	1226.92
630.15	1219.72
630.50	1212.33
630.84	1204.02
631.19	1196.08
631.53	1188.64
631.88	1181.16
632.22	1173.50
632.57	1166.27
632.91	1158.83
633.26	1151.53
633.60	1144.33
633.95	1137.30
634.29	1130.37
634.64	1123.62
634.98	1116.24
635.32	1109.10
635.67	1102.57
636.01	1095.93
636.36	1089.05
636.70	1082.58
637.05	1076.02
637.39	1069.55
637.73	1062.99
638.08	1057.26
638.42	1051.32
638.77	1044.84
639.11	1038.13
639.45	1031.81
639.80	1025.10
640.14	1018.62
640.49	1012.11
640.83	1005.83
641.17	999.51
641.52	993.10
641.86	986.78
642.20	981.00
642.55	974.83
642.89	968.27
643.23	961.75
643.58	956.01
643.92	949.84
644.26	943.73
644.61	937.74
644.95	931.84
645.29	925.15
645.64	918.40
645.98	912.07
646.32	906.25
646.66	900.20
647.01	894.43
647.35	888.74
647.69	882.85
648.04	877.29
648.38	871.54
648.72	865.48
649.06	859.34
649.41	853.40
649.75	847.28
650.09	841.33
650.43	835.46
650.78	829.29
651.12	823.29
651.46	817.63
651.80	811.84
652.14	806.33
652.49	800.96
652.83	795.75
653.17	789.98
653.51	784.20
653.85	778.76
654.20	773.14
654.54	767.15
654.88	761.43
655.22	755.50
655.56	749.76
655.90	744.40
656.25	739.13
656.59	733.87
656.93	728.90
657.27	723.81
657.61	718.46
657.95	713.35
658.29	708.31
658.64	703.02
658.98	697.77
659.32	692.30
659.66	687.06
660.00	681.77
660.34	676.92
660.68	672.09
661.02	667.11
661.36	662.39
661.70	657.92
662.05	653.51
662.39	649.23
662.73	644.80
663.07	640.42
663.41	636.03
663.75	631.53
664.09	626.99
664.43	622.60
664.77	618.45
665.11	614.15
665.45	610.02
665.79	605.91
666.13	601.85
666.47	597.82
666.81	593.69
667.15	589.59
667.49	585.76
667.83	582.01
668.17	578.07
668.51	574.02
668.85	569.98
669.19	566.18
669.53	562.33
669.87	558.41
670.21	554.74
670.55	551.13
670.89	547.73
671.23	544.25
671.57	540.74
671.91	537.26
672.25	533.80
672.58	530.28
672.92	526.96
673.26	523.81
673.60	520.64
673.94	517.59
674.28	514.71
674.62	511.73
674.96	508.56
675.30	505.67
675.64	502.69
675.97	499.93
676.31	497.06
676.65	494.11
676.99	491.44
677.33	488.58
677.67	485.69
678.01	482.61
678.34	479.64
678.68	476.79
679.02	473.92
679.36	471.25
679.70	468.53
680.04	465.71
680.37	462.81
680.71	460.05
681.05	457.44
681.39	454.71
681.73	452.07
682.06	449.59
682.40	447.01
682.74	444.53
683.08	442.01
683.42	439.47
683.75	437.03
684.09	434.52
684.43	432.08
684.77	429.67
685.10	427.33
685.44	425.06
685.78	422.76
686.12	420.57
686.45	418.22
686.79	415.91
687.13	413.73
687.46	411.53
687.80	409.35
688.14	407.11
688.48	405.04
688.81	402.74
689.15	400.58
689.49	398.49
689.82	396.41
690.16	394.33
690.50	392.33
690.83	390.35
691.17	388.36
691.51	386.41
691.84	384.55
692.18	382.66
692.52	380.60
692.85	378.65
693.19	376.72
693.52	374.92
693.86	373.15
694.20	371.36
694.53	369.56
694.87	367.72
695.21	365.95
695.54	364.17
695.88	362.51
696.21	360.76
696.55	359.08
696.88	357.36
697.22	355.68
697.56	354.02
697.89	352.38
698.23	350.81
698.56	349.20
698.90	347.62
699.23	345.96
699.57	344.45
699.90	342.97
700.24	341.49
700.58	339.94
700.91	338.45
701.25	337.06
701.58	335.73
701.92	334.39
702.25	333.03
702.59	331.67
702.92	330.33
703.26	329.06
703.59	327.77
703.93	326.65
704.26	325.43
704.60	324.21
704.93	322.94
705.26	321.65
705.60	320.55
705.93	319.35
706.27	318.36
706.60	317.34
706.94	316.26
707.27	315.14
707.61	314.11
707.94	313.11
708.27	312.02
708.61	310.96
708.94	309.96
709.28	308.99
709.61	308.03
709.94	307.08
710.28	306.07
710.61	305.14
710.95	304.05
711.28	303.13
711.61	302.19
711.95	301.29
712.28	300.41
712.61	299.40
712.95	298.52
713.28	297.64
713.61	296.72
713.95	295.82
714.28	294.95
714.61	294.09
714.95	293.21
715.28	292.39
715.61	291.51
715.95	290.67
716.28	289.82
716.61	288.98
716.95	288.16
717.28	287.42
717.61	286.63
717.94	285.93
718.28	285.16
718.61	284.45
718.94	283.80
719.27	283.11
719.61	282.48
719.94	281.80
720.27	281.06
720.60	280.44
720.94	279.81
721.27	279.26
721.60	278.69
721.93	278.14
722.27	277.54
722.60	276.96
722.93	276.36
723.26	275.80
723.59	275.23
723.93	274.68
724.26	274.12
724.59	273.55
724.92	273.01
725.25	272.49
725.59	271.94
725.92	271.42
726.25	270.90
726.58	270.38
726.91	269.88
727.24	269.39
727.57	268.87
727.91	268.33
728.24	267.82
728.57	267.28
728.90	266.80
729.23	266.28
729.56	265.87
729.89	265.43
730.22	264.97
730.55	264.50
730.89	264.03
731.22	263.57
731.55	263.14
731.88	262.70
732.21	262.30
732.54	261.86
732.87	261.39
733.20	260.95
733.53	260.58
733.86	260.21
734.19	259.84
734.52	259.50
734.85	259.21
735.18	258.79
735.51	258.47
735.84	258.14
736.17	257.84
736.50	257.40
736.83	257.15
737.16	256.79
737.49	256.47
737.82	256.13
738.15	255.84
738.48	255.52
738.81	255.23
739.14	254.86
739.47	254.56
739.80	254.26
740.13	253.99
740.46	253.68
740.79	253.37
741.12	253.06
741.45	252.75
741.78	252.42
742.11	252.17
742.44	251.82
742.77	251.49
743.10	251.18
743.43	250.90
743.75	250.51
744.08	250.33
744.41	250.04
744.74	249.78
745.07	249.48
745.40	249.23
745.73	248.98
746.06	248.70
746.39	248.44
746.71	248.19
747.04	247.89
747.37	247.64
747.70	247.37
748.03	247.13
748.36	246.90
748.68	246.64
749.01	246.41
749.34	246.19
749.67	245.96
750.00	245.75
750.33	245.59
750.65	245.41
750.98	245.09
751.31	244.87
751.64	244.66
751.97	244.47
752.29	244.27
752.62	244.02
752.95	243.84
753.28	243.64
753.60	243.42
753.93	243.29
754.26	243.08
754.59	242.86
754.91	242.63
755.24	242.44
755.57	242.24
755.90	242.02
756.22	241.85
756.55	241.70
756.88	241.49
757.20	241.28
757.53	241.05
757.86	240.93
758.19	240.78
758.51	240.63
758.84	240.43
759.17	240.24
759.49	240.09
759.82	239.96
760.15	239.82
760.47	239.67
760.80	239.51
761.13	239.37
761.45	239.24
761.78	239.12
762.11	238.99
762.43	238.87
762.76	238.78
763.08	238.66
763.41	238.52
763.74	238.40
764.06	238.25
764.39	238.12
764.71	237.98
765.04	237.85
765.37	237.73
765.69	237.64
766.02	237.51
766.34	237.41
766.67	237.27
767.00	237.17
767.32	237.12
767.65	237.06
767.97	236.97
768.30	236.82
768.62	236.71
768.95	236.55
769.27	236.43
769.60	236.32
769.92	236.18
770.25	236.06
770.57	235.91
770.90	235.84
771.22	235.75
771.55	235.62
771.87	235.54
772.20	235.41
772.52	235.37
772.85	235.41
773.17	235.27
773.50	235.18
773.82	235.08
774.15	234.96
774.47	234.83
774.80	234.69
775.12	234.63
775.45	234.54
775.77	234.47
776.09	234.40
776.42	234.32
776.74	234.24
777.07	234.15
777.39	234.09
777.72	233.97
778.04	233.92
778.36	233.82
778.69	233.73
779.01	233.67
779.33	233.52
779.66	233.31
779.98	233.26
780.31	233.16
780.63	233.13
780.95	233.03
781.28	232.93
781.60	232.86
781.92	232.80
782.25	232.75
782.57	232.71
782.89	232.61
783.22	232.53
783.54	232.46
783.86	232.39
784.19	232.32
784.51	232.30
784.83	232.21
785.16	232.19
785.48	232.13
785.80	232.07
786.12	232.03
786.45	231.98
786.77	231.93
787.09	231.89
