SpectraSuite Data File
++++++++++++++++++++++++++++++++++++
Date: Fri Feb 01 16:00:41 EST 2013
User: group
Dark Spectrum Present: No
Reference Spectrum Present: No
Number of Sampled Component Spectra: 1
Spectrometers: USB2E7196
Integration Time (usec): 35000 (USB2E7196)
Spectra Averaged: 100 (USB2E7196)
Boxcar Smoothing: 10 (USB2E7196)
Correct for Electrical Dark: No (USB2E7196)
Strobe/Lamp Enabled: No (USB2E7196)
Correct for Detector Non-linearity: No (USB2E7196)
Correct for Stray Light: No (USB2E7196)
Number of Pixels in Processed Spectrum: 2048
>>>>>Begin Processed Spectral Data<<<<<
339.09	0.00
339.48	214.39
339.86	215.84
340.24	217.48
340.63	219.08
341.01	221.25
341.39	222.42
341.78	223.27
342.16	224.45
342.54	224.02
342.93	213.04
343.31	223.79
343.69	224.36
344.07	224.83
344.46	225.27
344.84	225.64
345.22	225.93
345.60	226.17
345.99	226.34
346.37	226.45
346.75	226.62
347.13	226.73
347.52	226.85
347.90	226.95
348.28	226.98
348.66	227.02
349.05	226.99
349.43	227.04
349.81	227.09
350.19	227.14
350.57	227.23
350.96	227.30
351.34	227.43
351.72	227.52
352.10	227.63
352.48	227.67
352.87	227.75
353.25	227.79
353.63	227.85
354.01	227.91
354.39	228.00
354.77	228.06
355.15	228.14
355.54	228.15
355.92	228.18
356.30	228.23
356.68	228.35
357.06	228.44
357.44	228.48
357.82	228.54
358.20	228.63
358.58	228.67
358.97	228.74
359.35	228.78
359.73	228.86
360.11	228.94
360.49	229.01
360.87	229.07
361.25	229.14
361.63	229.20
362.01	229.26
362.39	229.29
362.77	229.28
363.15	229.32
363.53	229.36
363.91	229.40
364.29	229.42
364.67	229.35
365.05	229.38
365.43	229.40
365.81	229.41
366.19	229.46
366.57	229.49
366.95	229.48
367.33	229.47
367.71	229.41
368.09	229.41
368.47	229.38
368.85	229.33
369.23	229.31
369.61	229.25
369.99	229.24
370.37	229.23
370.75	229.25
371.13	229.19
371.51	229.14
371.89	229.07
372.27	229.04
372.65	228.96
373.03	228.92
373.41	228.88
373.78	228.80
374.16	228.67
374.54	228.59
374.92	228.50
375.30	228.44
375.68	228.37
376.06	228.28
376.44	228.24
376.82	228.17
377.19	228.08
377.57	227.99
377.95	227.92
378.33	227.82
378.71	227.71
379.09	227.62
379.47	227.56
379.84	227.50
380.22	227.37
380.60	227.32
380.98	227.21
381.36	227.12
381.73	227.05
382.11	227.00
382.49	226.94
382.87	226.86
383.25	226.78
383.62	226.81
384.00	226.74
384.38	226.66
384.76	226.63
385.13	226.60
385.51	226.55
385.89	226.43
386.27	226.41
386.64	226.41
387.02	226.36
387.40	226.28
387.78	226.27
388.15	226.29
388.53	226.26
388.91	226.22
389.29	226.19
389.66	226.19
390.04	226.17
390.42	226.15
390.79	226.14
391.17	226.14
391.55	226.03
391.92	226.01
392.30	226.01
392.68	225.99
393.05	226.00
393.43	226.01
393.81	226.05
394.18	226.03
394.56	226.03
394.94	226.06
395.31	226.09
395.69	226.12
396.06	226.12
396.44	226.16
396.82	226.23
397.19	226.32
397.57	226.34
397.95	226.39
398.32	226.42
398.70	226.51
399.07	226.60
399.45	226.67
399.82	226.74
400.20	226.82
400.58	226.91
400.95	226.96
401.33	227.07
401.70	227.27
402.08	227.42
402.45	227.49
402.83	227.63
403.20	227.76
403.58	227.86
403.95	228.04
404.33	228.19
404.71	228.33
405.08	228.52
405.46	228.68
405.83	228.83
406.21	228.98
406.58	229.16
406.96	229.35
407.33	229.53
407.70	229.72
408.08	229.96
408.45	230.15
408.83	230.39
409.20	230.55
409.58	230.71
409.95	230.93
410.33	231.19
410.70	231.45
411.08	231.74
411.45	232.06
411.82	232.33
412.20	232.71
412.57	233.11
412.95	233.41
413.32	233.78
413.69	234.19
414.07	234.64
414.44	235.12
414.82	235.57
415.19	236.13
415.56	236.68
415.94	237.23
416.31	237.88
416.68	238.50
417.06	239.26
417.43	239.91
417.81	240.68
418.18	241.50
418.55	242.35
418.93	243.21
419.30	244.12
419.67	245.05
420.04	245.98
420.42	246.94
420.79	248.14
421.16	249.30
421.54	250.48
421.91	251.66
422.28	252.89
422.66	254.22
423.03	255.51
423.40	256.81
423.77	258.21
424.15	259.61
424.52	261.09
424.89	262.66
425.26	264.19
425.64	265.62
426.01	267.15
426.38	268.80
426.75	270.47
427.13	272.14
427.50	273.96
427.87	275.81
428.24	277.67
428.61	279.36
428.99	281.27
429.36	283.37
429.73	285.45
430.10	287.43
430.47	289.49
430.85	291.59
431.22	293.85
431.59	296.20
431.96	298.47
432.33	300.92
432.70	303.36
433.08	306.19
433.45	308.83
433.82	311.46
434.19	314.26
434.56	317.07
434.93	319.70
435.30	322.28
435.68	325.18
436.05	328.00
436.42	330.83
436.79	333.40
437.16	336.05
437.53	338.87
437.90	341.67
438.27	344.40
438.64	347.23
439.01	349.82
439.38	352.10
439.75	354.26
440.13	356.75
440.50	359.03
440.87	360.85
441.24	362.80
441.61	364.90
441.98	366.45
442.35	368.20
442.72	370.10
443.09	371.91
443.46	372.87
443.83	373.41
444.20	373.90
444.57	374.74
444.94	375.07
445.31	375.37
445.68	375.74
446.05	375.83
446.42	375.45
446.79	374.97
447.16	374.46
447.53	374.16
447.90	373.03
448.27	371.87
448.64	370.31
449.01	369.13
449.37	367.20
449.74	365.29
450.11	363.05
450.48	360.61
450.85	358.10
451.22	355.99
451.59	354.04
451.96	352.15
452.33	349.55
452.70	347.19
453.07	344.39
453.43	341.52
453.80	338.77
454.17	336.08
454.54	333.56
454.91	330.88
455.28	328.23
455.65	325.74
456.02	323.31
456.38	321.20
456.75	318.57
457.12	316.33
457.49	314.11
457.86	311.96
458.23	310.07
458.59	308.05
458.96	305.93
459.33	304.02
459.70	302.12
460.07	300.58
460.43	298.86
460.80	297.25
461.17	295.80
461.54	294.29
461.91	292.89
462.27	291.48
462.64	290.24
463.01	288.87
463.38	287.57
463.74	286.24
464.11	285.07
464.48	284.05
464.85	282.93
465.21	282.08
465.58	281.18
465.95	280.05
466.32	279.13
466.68	278.28
467.05	277.42
467.42	276.54
467.78	275.65
468.15	274.80
468.52	274.15
468.88	273.28
469.25	272.52
469.62	271.91
469.98	271.20
470.35	270.56
470.72	269.99
471.08	269.29
471.45	268.76
471.82	268.19
472.18	267.60
472.55	267.21
472.92	266.71
473.28	266.21
473.65	265.79
474.02	265.36
474.38	264.99
474.75	264.67
475.11	264.31
475.48	264.02
475.85	263.78
476.21	263.55
476.58	263.40
476.94	263.23
477.31	263.04
477.67	262.92
478.04	262.79
478.41	262.70
478.77	262.78
479.14	262.73
479.50	262.73
479.87	262.84
480.23	262.86
480.60	262.91
480.96	263.02
481.33	263.26
481.69	263.45
482.06	263.62
482.42	263.81
482.79	264.12
483.15	264.43
483.52	264.84
483.88	265.17
484.25	265.54
484.61	265.97
484.98	266.44
485.34	267.01
485.71	267.63
486.07	268.24
486.44	268.82
486.80	269.52
487.17	270.26
487.53	271.06
487.90	271.94
488.26	272.88
488.62	273.88
488.99	274.90
489.35	275.96
489.72	277.11
490.08	278.33
490.44	279.52
490.81	280.86
491.17	282.17
491.54	283.67
491.90	285.24
492.26	286.92
492.63	288.66
492.99	290.41
493.36	292.31
493.72	294.38
494.08	296.49
494.45	298.77
494.81	301.13
495.17	303.55
495.54	306.15
495.90	308.85
496.26	311.66
496.63	314.56
496.99	317.69
497.35	320.97
497.72	324.35
498.08	327.90
498.44	331.58
498.80	335.59
499.17	339.61
499.53	343.77
499.89	348.15
500.26	352.63
500.62	357.39
500.98	362.38
501.34	367.47
501.71	372.80
502.07	378.23
502.43	383.88
502.79	389.76
503.16	395.80
503.52	402.05
503.88	408.50
504.24	415.13
504.60	421.99
504.97	429.12
505.33	436.57
505.69	444.25
506.05	452.03
506.41	459.84
506.78	468.00
507.14	476.46
507.50	485.22
507.86	494.27
508.22	503.42
508.59	512.63
508.95	522.27
509.31	532.12
509.67	542.23
510.03	552.46
510.39	562.93
510.75	573.79
511.12	584.77
511.48	596.04
511.84	607.47
512.20	619.03
512.56	630.97
512.92	643.07
513.28	655.43
513.64	667.90
514.00	680.62
514.37	693.62
514.73	706.69
515.09	719.68
515.45	732.97
515.81	746.57
516.17	760.57
516.53	774.64
516.89	788.80
517.25	802.96
517.61	817.37
517.97	831.78
518.33	846.18
518.69	860.90
519.05	875.86
519.41	891.08
519.77	906.57
520.13	921.97
520.49	937.33
520.85	952.72
521.21	968.43
521.57	984.67
521.93	1000.38
522.29	1016.76
522.65	1032.90
523.01	1049.12
523.37	1065.14
523.73	1081.21
524.09	1097.29
524.45	1113.51
524.81	1130.07
525.17	1147.01
525.53	1163.95
525.89	1180.79
526.25	1197.60
526.61	1213.94
526.97	1230.66
527.33	1247.08
527.68	1263.68
528.04	1280.12
528.40	1296.64
528.76	1313.74
529.12	1330.18
529.48	1346.93
529.84	1362.78
530.20	1379.41
530.56	1396.40
530.91	1413.84
531.27	1430.58
531.63	1446.99
531.99	1463.56
532.35	1479.55
532.71	1495.37
533.07	1511.59
533.42	1527.50
533.78	1543.42
534.14	1559.68
534.50	1574.97
534.86	1590.89
535.21	1606.05
535.57	1622.00
535.93	1637.53
536.29	1652.23
536.65	1667.39
537.00	1682.09
537.36	1697.44
537.72	1712.02
538.08	1726.41
538.44	1740.02
538.79	1753.88
539.15	1767.51
539.51	1781.14
539.87	1795.38
540.22	1809.00
540.58	1822.70
540.94	1835.80
541.29	1848.71
541.65	1861.42
542.01	1874.46
542.37	1886.70
542.72	1899.03
543.08	1910.78
543.44	1923.11
543.79	1934.15
544.15	1945.17
544.51	1956.81
544.87	1967.85
545.22	1978.55
545.58	1988.67
545.94	1998.46
546.29	2008.34
546.65	2018.19
547.01	2027.51
547.36	2036.19
547.72	2044.71
548.07	2052.55
548.43	2060.87
548.79	2068.91
549.14	2076.28
549.50	2083.75
549.86	2091.45
550.21	2098.80
550.57	2105.88
550.92	2112.36
551.28	2119.45
551.64	2126.47
551.99	2133.03
552.35	2139.05
552.70	2145.21
553.06	2151.21
553.41	2157.54
553.77	2163.41
554.13	2169.52
554.48	2175.66
554.84	2181.11
555.19	2186.35
555.55	2191.38
555.90	2195.78
556.26	2200.64
556.61	2205.58
556.97	2209.94
557.32	2214.07
557.68	2218.21
558.03	2222.55
558.39	2226.26
558.74	2230.95
559.10	2234.79
559.45	2238.41
559.81	2242.79
560.16	2246.59
560.52	2249.82
560.87	2253.25
561.23	2255.94
561.58	2258.91
561.94	2261.38
562.29	2263.77
562.64	2266.32
563.00	2269.05
563.35	2272.73
563.71	2275.83
564.06	2278.84
564.42	2281.65
564.77	2284.17
565.12	2286.43
565.48	2288.41
565.83	2290.36
566.19	2291.67
566.54	2292.65
566.89	2293.74
567.25	2294.13
567.60	2295.44
567.96	2297.01
568.31	2297.88
568.66	2299.10
569.02	2299.63
569.37	2299.94
569.72	2300.85
570.08	2301.08
570.43	2301.03
570.78	2300.32
571.14	2298.87
571.49	2297.58
571.84	2297.32
572.20	2296.19
572.55	2295.23
572.90	2293.73
573.26	2292.30
573.61	2290.76
573.96	2288.84
574.31	2285.93
574.67	2283.24
575.02	2279.68
575.37	2276.48
575.72	2272.67
576.08	2269.27
576.43	2265.91
576.78	2262.28
577.13	2259.22
577.49	2256.09
577.84	2252.69
578.19	2249.04
578.54	2245.47
578.90	2241.25
579.25	2235.55
579.60	2230.42
579.95	2225.46
580.30	2220.39
580.66	2215.34
581.01	2210.35
581.36	2205.61
581.71	2201.42
582.06	2196.82
582.42	2192.42
582.77	2187.14
583.12	2182.68
583.47	2177.97
583.82	2172.94
584.17	2167.69
584.53	2162.14
584.88	2156.52
585.23	2150.81
585.58	2145.32
585.93	2139.92
586.28	2135.33
586.63	2130.25
586.98	2125.37
587.34	2120.57
587.69	2115.70
588.04	2110.39
588.39	2104.67
588.74	2098.19
589.09	2092.12
589.44	2085.43
589.79	2079.50
590.14	2073.96
590.49	2067.38
590.84	2061.13
591.19	2055.26
591.54	2048.82
591.89	2041.41
592.25	2034.72
592.60	2027.45
592.95	2019.90
593.30	2012.46
593.65	2004.80
594.00	1997.86
594.35	1990.61
594.70	1982.56
595.05	1975.20
595.40	1967.86
595.75	1960.30
596.10	1954.12
596.45	1947.39
596.80	1941.16
597.15	1934.39
597.50	1927.23
597.85	1920.65
598.19	1913.94
598.54	1906.64
598.89	1899.97
599.24	1894.24
599.59	1887.41
599.94	1881.26
600.29	1874.93
600.64	1868.36
600.99	1860.85
601.34	1853.97
601.69	1846.98
602.04	1840.14
602.39	1832.90
602.74	1826.23
603.08	1819.51
603.43	1812.65
603.78	1805.28
604.13	1798.11
604.48	1790.82
604.83	1784.08
605.18	1777.16
605.53	1769.09
605.87	1761.18
606.22	1754.02
606.57	1745.97
606.92	1738.81
607.27	1731.68
607.62	1724.73
607.96	1717.44
608.31	1710.87
608.66	1703.22
609.01	1695.67
609.36	1687.96
609.70	1680.01
610.05	1671.73
610.40	1664.15
610.75	1655.83
611.10	1648.21
611.44	1639.74
611.79	1631.70
612.14	1622.92
612.49	1613.80
612.83	1605.49
613.18	1597.43
613.53	1589.24
613.88	1580.69
614.22	1572.32
614.57	1563.67
614.92	1555.57
615.27	1548.09
615.61	1539.83
615.96	1531.93
616.31	1524.29
616.65	1517.01
617.00	1509.38
617.35	1501.88
617.70	1493.46
618.04	1485.10
618.39	1476.88
618.74	1469.28
619.08	1461.02
619.43	1453.39
619.78	1446.48
620.12	1439.32
620.47	1431.79
620.82	1423.67
621.16	1416.36
621.51	1408.81
621.85	1401.22
622.20	1392.80
622.55	1384.35
622.89	1376.36
623.24	1368.76
623.59	1361.38
623.93	1353.84
624.28	1346.62
624.62	1339.04
624.97	1331.87
625.32	1325.06
625.66	1318.02
626.01	1310.93
626.35	1303.52
626.70	1295.76
627.04	1287.97
627.39	1280.13
627.73	1272.69
628.08	1265.83
628.43	1258.38
628.77	1250.95
629.12	1243.46
629.46	1236.31
629.81	1228.96
630.15	1221.77
630.50	1214.28
630.84	1206.11
631.19	1198.36
631.53	1190.83
631.88	1183.39
632.22	1175.73
632.57	1168.40
632.91	1160.82
633.26	1153.33
633.60	1146.06
633.95	1139.07
634.29	1132.09
634.64	1125.53
634.98	1118.10
635.32	1110.90
635.67	1104.37
636.01	1097.75
636.36	1090.79
636.70	1084.19
637.05	1077.51
637.39	1071.08
637.73	1064.61
638.08	1058.67
638.42	1052.55
638.77	1046.09
639.11	1039.33
639.45	1032.96
639.80	1026.31
640.14	1019.88
640.49	1013.35
640.83	1006.94
641.17	1000.59
641.52	994.23
641.86	987.73
642.20	981.95
642.55	975.64
642.89	969.17
643.23	962.61
643.58	956.88
643.92	950.68
644.26	944.64
644.61	938.62
644.95	932.47
645.29	925.96
645.64	919.24
645.98	912.89
646.32	907.15
646.66	901.15
647.01	895.32
647.35	889.65
647.69	883.84
648.04	878.29
648.38	872.51
648.72	866.50
649.06	860.41
649.41	854.56
649.75	848.61
650.09	842.56
650.43	836.83
650.78	830.69
651.12	824.74
651.46	819.07
651.80	813.31
652.14	808.02
652.49	802.64
652.83	797.50
653.17	791.79
653.51	786.01
653.85	780.70
654.20	775.01
654.54	768.99
654.88	763.29
655.22	757.44
655.56	751.78
655.90	746.33
656.25	741.11
656.59	735.66
656.93	730.58
657.27	725.49
657.61	720.00
657.95	714.85
658.29	709.78
658.64	704.49
658.98	699.14
659.32	693.67
659.66	688.45
660.00	683.03
660.34	678.12
660.68	673.21
661.02	668.10
661.36	663.46
661.70	658.96
662.05	654.60
662.39	650.27
662.73	645.79
663.07	641.48
663.41	636.99
663.75	632.59
664.09	628.00
664.43	623.59
664.77	619.52
665.11	615.32
665.45	611.14
665.79	607.05
666.13	603.00
666.47	598.89
666.81	594.68
667.15	590.59
667.49	586.68
667.83	582.94
668.17	579.04
668.51	574.94
668.85	570.91
669.19	567.01
669.53	563.12
669.87	559.28
670.21	555.53
670.55	551.88
670.89	548.47
671.23	545.07
671.57	541.56
671.91	537.97
672.25	534.45
672.58	530.91
672.92	527.51
673.26	524.24
673.60	521.06
673.94	517.90
674.28	515.01
674.62	512.04
674.96	508.92
675.30	505.94
675.64	502.97
675.97	500.21
676.31	497.38
676.65	494.44
676.99	491.69
677.33	488.76
677.67	485.95
678.01	482.85
678.34	479.81
678.68	476.89
679.02	474.11
679.36	471.35
679.70	468.65
680.04	465.86
680.37	463.02
680.71	460.23
681.05	457.66
681.39	454.97
681.73	452.27
682.06	449.76
682.40	447.22
682.74	444.79
683.08	442.19
683.42	439.59
683.75	437.11
684.09	434.57
684.43	432.17
684.77	429.72
685.10	427.35
685.44	425.10
685.78	422.85
686.12	420.57
686.45	418.29
686.79	415.97
687.13	413.76
687.46	411.62
687.80	409.50
688.14	407.30
688.48	405.23
688.81	403.02
689.15	400.83
689.49	398.63
689.82	396.50
690.16	394.48
690.50	392.50
690.83	390.62
691.17	388.64
691.51	386.69
691.84	384.82
692.18	382.91
692.52	380.91
692.85	378.98
693.19	377.07
693.52	375.26
693.86	373.50
694.20	371.76
694.53	369.97
694.87	368.05
695.21	366.28
695.54	364.44
695.88	362.72
696.21	361.00
696.55	359.39
696.88	357.73
697.22	356.11
697.56	354.48
697.89	352.78
698.23	351.18
698.56	349.58
698.90	347.95
699.23	346.33
699.57	344.80
699.90	343.29
700.24	341.80
700.58	340.24
700.91	338.72
701.25	337.28
701.58	335.90
701.92	334.56
702.25	333.19
702.59	331.82
702.92	330.50
703.26	329.20
703.59	327.88
703.93	326.65
704.26	325.36
704.60	324.06
704.93	322.75
705.26	321.51
705.60	320.36
705.93	319.24
706.27	318.15
706.60	317.10
706.94	316.02
707.27	314.88
707.61	313.82
707.94	312.81
708.27	311.71
708.61	310.67
708.94	309.67
709.28	308.66
709.61	307.69
709.94	306.73
710.28	305.69
710.61	304.71
710.95	303.64
711.28	302.73
711.61	301.82
711.95	300.88
712.28	299.92
712.61	298.93
712.95	297.97
713.28	297.13
713.61	296.17
713.95	295.28
714.28	294.42
714.61	293.58
714.95	292.72
715.28	291.86
715.61	290.94
715.95	290.07
716.28	289.21
716.61	288.37
716.95	287.57
717.28	286.83
717.61	286.06
717.94	285.30
718.28	284.46
718.61	283.72
718.94	283.03
719.27	282.35
719.61	281.72
719.94	281.08
720.27	280.34
720.60	279.68
720.94	279.06
721.27	278.48
721.60	277.91
721.93	277.29
722.27	276.76
722.60	276.24
722.93	275.67
723.26	275.17
723.59	274.60
723.93	274.04
724.26	273.52
724.59	272.99
724.92	272.45
725.25	271.96
725.59	271.43
725.92	270.98
726.25	270.44
726.58	269.92
726.91	269.42
727.24	268.96
727.57	268.50
727.91	268.00
728.24	267.50
728.57	266.96
728.90	266.53
729.23	266.03
729.56	265.57
729.89	265.12
730.22	264.63
730.55	264.21
730.89	263.75
731.22	263.29
731.55	262.83
731.88	262.42
732.21	262.00
732.54	261.56
732.87	261.11
733.20	260.75
733.53	260.38
733.86	260.01
734.19	259.61
734.52	259.23
734.85	258.88
735.18	258.48
735.51	258.13
735.84	257.73
736.17	257.38
736.50	257.00
736.83	256.75
737.16	256.42
737.49	256.09
737.82	255.76
738.15	255.40
738.48	255.11
738.81	254.79
739.14	254.45
739.47	254.15
739.80	253.81
740.13	253.49
740.46	253.13
740.79	252.82
741.12	252.53
741.45	252.22
741.78	251.92
742.11	251.65
742.44	251.31
742.77	251.05
743.10	250.71
743.43	250.39
743.75	250.00
744.08	249.84
744.41	249.57
744.74	249.30
745.07	249.04
745.40	248.75
745.73	248.51
746.06	248.26
746.39	247.99
746.71	247.71
747.04	247.44
747.37	247.21
747.70	246.95
748.03	246.70
748.36	246.47
748.68	246.21
749.01	245.93
749.34	245.71
749.67	245.48
750.00	245.31
750.33	245.22
750.65	245.02
750.98	244.66
751.31	244.39
751.64	244.19
751.97	244.03
752.29	243.79
752.62	243.56
752.95	243.32
753.28	243.11
753.60	242.92
753.93	242.76
754.26	242.57
754.59	242.34
754.91	242.08
755.24	241.86
755.57	241.67
755.90	241.48
756.22	241.31
756.55	241.12
756.88	240.88
757.20	240.58
757.53	240.37
757.86	240.19
758.19	240.07
758.51	239.88
758.84	239.66
759.17	239.54
759.49	239.37
759.82	239.23
760.15	239.12
760.47	238.98
760.80	238.80
761.13	238.65
761.45	238.50
761.78	238.37
762.11	238.27
762.43	238.12
762.76	238.00
763.08	237.83
763.41	237.71
763.74	237.60
764.06	237.49
764.39	237.38
764.71	237.27
765.04	237.12
765.37	236.99
765.69	236.89
766.02	236.74
766.34	236.63
766.67	236.51
767.00	236.38
767.32	236.29
767.65	236.21
767.97	236.12
768.30	236.01
768.62	235.92
768.95	235.75
769.27	235.65
769.60	235.55
769.92	235.46
770.25	235.34
770.57	235.23
770.90	235.13
771.22	235.02
771.55	234.91
771.87	234.84
772.20	234.76
772.52	234.77
772.85	234.82
773.17	234.71
773.50	234.60
773.82	234.52
774.15	234.37
774.47	234.26
774.80	234.14
775.12	234.06
775.45	233.96
775.77	233.91
776.09	233.84
776.42	233.74
776.74	233.69
777.07	233.60
777.39	233.52
777.72	233.43
778.04	233.39
778.36	233.33
778.69	233.23
779.01	233.16
779.33	232.96
779.66	232.72
779.98	232.68
780.31	232.63
780.63	232.58
780.95	232.57
781.28	232.51
781.60	232.50
781.92	232.41
782.25	232.35
782.57	232.30
782.89	232.24
783.22	232.16
783.54	232.11
783.86	232.05
784.19	231.99
784.51	231.97
784.83	231.88
785.16	231.82
785.48	231.76
785.80	231.70
786.12	231.65
786.45	231.63
786.77	231.58
787.09	231.52
