SpectraSuite Data File
++++++++++++++++++++++++++++++++++++
Date: Fri Feb 01 15:33:16 EST 2013
User: group
Dark Spectrum Present: No
Reference Spectrum Present: No
Number of Sampled Component Spectra: 1
Spectrometers: USB2E7196
Integration Time (usec): 35000 (USB2E7196)
Spectra Averaged: 100 (USB2E7196)
Boxcar Smoothing: 10 (USB2E7196)
Correct for Electrical Dark: No (USB2E7196)
Strobe/Lamp Enabled: No (USB2E7196)
Correct for Detector Non-linearity: No (USB2E7196)
Correct for Stray Light: No (USB2E7196)
Number of Pixels in Processed Spectrum: 2048
>>>>>Begin Processed Spectral Data<<<<<
339.09	0.00
339.48	214.62
339.86	215.27
340.24	217.73
340.63	218.51
341.01	221.98
341.39	221.60
341.78	222.74
342.16	223.79
342.54	224.61
342.93	213.05
343.31	223.84
343.69	224.42
344.07	224.93
344.46	225.36
344.84	225.76
345.22	225.98
345.60	226.24
345.99	226.45
346.37	226.61
346.75	226.75
347.13	226.81
347.52	226.88
347.90	226.96
348.28	226.99
348.66	227.05
349.05	227.04
349.43	227.12
349.81	227.19
350.19	227.22
350.57	227.29
350.96	227.39
351.34	227.48
351.72	227.53
352.10	227.62
352.48	227.70
352.87	227.80
353.25	227.89
353.63	227.99
354.01	228.03
354.39	228.15
354.77	228.22
355.15	228.35
355.54	228.42
355.92	228.49
356.30	228.58
356.68	228.71
357.06	228.79
357.44	228.83
357.82	228.90
358.20	228.98
358.58	229.06
358.97	229.12
359.35	229.18
359.73	229.27
360.11	229.39
360.49	229.46
360.87	229.48
361.25	229.55
361.63	229.60
362.01	229.67
362.39	229.65
362.77	229.68
363.15	229.67
363.53	229.74
363.91	229.73
364.29	229.74
364.67	229.66
365.05	229.67
365.43	229.69
365.81	229.68
366.19	229.70
366.57	229.72
366.95	229.70
367.33	229.66
367.71	229.64
368.09	229.61
368.47	229.58
368.85	229.59
369.23	229.57
369.61	229.49
369.99	229.46
370.37	229.44
370.75	229.44
371.13	229.40
371.51	229.30
371.89	229.27
372.27	229.23
372.65	229.20
373.03	229.15
373.41	229.10
373.78	229.04
374.16	228.91
374.54	228.80
374.92	228.75
375.30	228.68
375.68	228.61
376.06	228.52
376.44	228.43
376.82	228.29
377.19	228.20
377.57	228.14
377.95	228.07
378.33	227.98
378.71	227.85
379.09	227.76
379.47	227.71
379.84	227.61
380.22	227.52
380.60	227.43
380.98	227.34
381.36	227.27
381.73	227.17
382.11	227.14
382.49	227.10
382.87	227.01
383.25	226.94
383.62	226.96
384.00	226.91
384.38	226.88
384.76	226.89
385.13	226.88
385.51	226.83
385.89	226.75
386.27	226.74
386.64	226.70
387.02	226.68
387.40	226.64
387.78	226.62
388.15	226.61
388.53	226.58
388.91	226.56
389.29	226.54
389.66	226.54
390.04	226.53
390.42	226.50
390.79	226.51
391.17	226.49
391.55	226.37
391.92	226.33
392.30	226.33
392.68	226.32
393.05	226.31
393.43	226.32
393.81	226.34
394.18	226.33
394.56	226.36
394.94	226.38
395.31	226.37
395.69	226.40
396.06	226.45
396.44	226.51
396.82	226.52
397.19	226.59
397.57	226.60
397.95	226.67
398.32	226.70
398.70	226.78
399.07	226.89
399.45	226.95
399.82	227.06
400.20	227.11
400.58	227.19
400.95	227.25
401.33	227.36
401.70	227.50
402.08	227.60
402.45	227.69
402.83	227.80
403.20	227.92
403.58	228.00
403.95	228.16
404.33	228.28
404.71	228.43
405.08	228.64
405.46	228.81
405.83	228.96
406.21	229.10
406.58	229.24
406.96	229.38
407.33	229.56
407.70	229.76
408.08	230.02
408.45	230.24
408.83	230.47
409.20	230.70
409.58	230.90
409.95	231.19
410.33	231.49
410.70	231.74
411.08	232.08
411.45	232.40
411.82	232.69
412.20	233.03
412.57	233.44
412.95	233.74
413.32	234.16
413.69	234.53
414.07	234.98
414.44	235.43
414.82	235.91
415.19	236.49
415.56	237.03
415.94	237.58
416.31	238.21
416.68	238.83
417.06	239.56
417.43	240.22
417.81	240.97
418.18	241.74
418.55	242.55
418.93	243.40
419.30	244.32
419.67	245.24
420.04	246.21
420.42	247.18
420.79	248.36
421.16	249.48
421.54	250.69
421.91	251.92
422.28	253.22
422.66	254.55
423.03	255.86
423.40	257.20
423.77	258.59
424.15	260.01
424.52	261.48
424.89	263.05
425.26	264.63
425.64	266.09
426.01	267.68
426.38	269.35
426.75	271.02
427.13	272.75
427.50	274.54
427.87	276.43
428.24	278.26
428.61	279.98
428.99	281.92
429.36	284.04
429.73	286.11
430.10	288.10
430.47	290.20
430.85	292.27
431.22	294.48
431.59	296.87
431.96	299.12
432.33	301.66
432.70	304.06
433.08	306.88
433.45	309.51
433.82	312.15
434.19	315.07
434.56	317.90
434.93	320.59
435.30	323.24
435.68	326.11
436.05	329.00
436.42	331.84
436.79	334.36
437.16	337.02
437.53	339.86
437.90	342.72
438.27	345.43
438.64	348.30
439.01	350.93
439.38	353.15
439.75	355.32
440.13	357.77
440.50	360.12
440.87	361.95
441.24	363.87
441.61	366.01
441.98	367.46
442.35	369.25
442.72	371.07
443.09	372.87
443.46	373.87
443.83	374.46
444.20	374.95
444.57	375.80
444.94	376.11
445.31	376.45
445.68	376.82
446.05	376.87
446.42	376.52
446.79	376.12
447.16	375.73
447.53	375.43
447.90	374.27
448.27	373.08
448.64	371.52
449.01	370.43
449.37	368.45
449.74	366.58
450.11	364.36
450.48	361.89
450.85	359.37
451.22	357.24
451.59	355.22
451.96	353.31
452.33	350.71
452.70	348.33
453.07	345.49
453.43	342.58
453.80	339.83
454.17	337.10
454.54	334.51
454.91	331.75
455.28	329.09
455.65	326.60
456.02	324.15
456.38	321.95
456.75	319.27
457.12	317.02
457.49	314.79
457.86	312.64
458.23	310.73
458.59	308.66
458.96	306.56
459.33	304.65
459.70	302.75
460.07	301.22
460.43	299.51
460.80	297.91
461.17	296.45
461.54	294.93
461.91	293.53
462.27	292.11
462.64	290.87
463.01	289.47
463.38	288.19
463.74	286.87
464.11	285.72
464.48	284.66
464.85	283.55
465.21	282.64
465.58	281.65
465.95	280.57
466.32	279.70
466.68	278.75
467.05	277.92
467.42	277.02
467.78	276.11
468.15	275.21
468.52	274.53
468.88	273.66
469.25	272.91
469.62	272.26
469.98	271.56
470.35	270.91
470.72	270.26
471.08	269.56
471.45	269.00
471.82	268.42
472.18	267.83
472.55	267.36
472.92	266.88
473.28	266.43
473.65	265.96
474.02	265.48
474.38	265.14
474.75	264.80
475.11	264.46
475.48	264.18
475.85	263.94
476.21	263.71
476.58	263.49
476.94	263.32
477.31	263.16
477.67	263.04
478.04	262.94
478.41	262.88
478.77	263.00
479.14	262.91
479.50	262.95
479.87	263.02
480.23	263.12
480.60	263.16
480.96	263.28
481.33	263.54
481.69	263.76
482.06	263.93
482.42	264.09
482.79	264.34
483.15	264.66
483.52	265.05
483.88	265.39
484.25	265.79
484.61	266.22
484.98	266.64
485.34	267.16
485.71	267.73
486.07	268.36
486.44	268.92
486.80	269.63
487.17	270.32
487.53	271.14
487.90	271.97
488.26	272.93
488.62	273.91
488.99	274.87
489.35	275.89
489.72	277.05
490.08	278.26
490.44	279.52
490.81	280.86
491.17	282.18
491.54	283.65
491.90	285.19
492.26	286.83
492.63	288.55
492.99	290.33
493.36	292.25
493.72	294.35
494.08	296.44
494.45	298.69
494.81	301.10
495.17	303.55
495.54	306.14
495.90	308.84
496.26	311.64
496.63	314.59
496.99	317.72
497.35	320.99
497.72	324.44
498.08	327.98
498.44	331.63
498.80	335.55
499.17	339.63
499.53	343.78
499.89	348.17
500.26	352.70
500.62	357.43
500.98	362.40
501.34	367.38
501.71	372.70
502.07	378.14
502.43	383.77
502.79	389.59
503.16	395.64
503.52	401.90
503.88	408.32
504.24	415.00
504.60	421.89
504.97	428.99
505.33	436.29
505.69	443.95
506.05	451.75
506.41	459.64
506.78	467.73
507.14	476.20
507.50	484.95
507.86	493.97
508.22	503.12
508.59	512.32
508.95	522.02
509.31	531.75
509.67	541.86
510.03	552.16
510.39	562.74
510.75	573.56
511.12	584.47
511.48	595.80
511.84	607.23
512.20	618.77
512.56	630.68
512.92	642.88
513.28	655.26
513.64	667.71
514.00	680.43
514.37	693.43
514.73	706.54
515.09	719.55
515.45	732.91
515.81	746.51
516.17	760.52
516.53	774.55
516.89	788.88
517.25	803.14
517.61	817.55
517.97	832.07
518.33	846.61
518.69	861.50
519.05	876.45
519.41	891.65
519.77	907.18
520.13	922.75
520.49	938.08
520.85	953.56
521.21	969.36
521.57	985.69
521.93	1001.52
522.29	1017.98
522.65	1034.22
523.01	1050.44
523.37	1066.53
523.73	1082.76
524.09	1099.02
524.45	1115.32
524.81	1131.98
525.17	1148.88
525.53	1165.82
525.89	1182.63
526.25	1199.33
526.61	1215.84
526.97	1232.52
527.33	1248.97
527.68	1265.57
528.04	1282.17
528.40	1298.81
528.76	1315.81
529.12	1332.47
529.48	1349.30
529.84	1365.46
530.20	1382.16
530.56	1399.28
530.91	1416.78
531.27	1433.54
531.63	1449.94
531.99	1466.65
532.35	1482.63
532.71	1498.49
533.07	1514.65
533.42	1530.50
533.78	1546.65
534.14	1562.88
534.50	1578.23
534.86	1594.22
535.21	1609.47
535.57	1625.58
535.93	1641.10
536.29	1656.09
536.65	1671.10
537.00	1686.01
537.36	1701.17
537.72	1715.77
538.08	1730.19
538.44	1744.00
538.79	1757.90
539.15	1771.66
539.51	1785.44
539.87	1799.78
540.22	1813.58
540.58	1827.51
540.94	1841.07
541.29	1854.04
541.65	1866.85
542.01	1880.26
542.37	1892.59
542.72	1905.09
543.08	1916.74
543.44	1928.98
543.79	1940.16
544.15	1951.28
544.51	1962.84
544.87	1973.80
545.22	1984.62
545.58	1994.75
545.94	2004.55
546.29	2014.45
546.65	2024.34
547.01	2033.45
547.36	2042.21
547.72	2050.64
548.07	2058.39
548.43	2066.49
548.79	2074.59
549.14	2082.07
549.50	2089.45
549.86	2097.19
550.21	2104.48
550.57	2111.73
550.92	2118.54
551.28	2125.77
551.64	2132.77
551.99	2139.41
552.35	2145.65
552.70	2151.77
553.06	2157.78
553.41	2164.14
553.77	2170.28
554.13	2176.38
554.48	2182.65
554.84	2188.01
555.19	2193.41
555.55	2198.61
555.90	2203.13
556.26	2207.98
556.61	2212.80
556.97	2217.04
557.32	2221.32
557.68	2225.45
558.03	2229.80
558.39	2233.41
558.74	2237.89
559.10	2241.84
559.45	2245.42
559.81	2249.76
560.16	2253.64
560.52	2256.91
560.87	2260.43
561.23	2263.07
561.58	2266.02
561.94	2268.59
562.29	2271.07
562.64	2273.72
563.00	2276.25
563.35	2279.74
563.71	2282.77
564.06	2285.84
564.42	2288.70
564.77	2291.12
565.12	2293.43
565.48	2295.12
565.83	2297.00
566.19	2298.47
566.54	2299.32
566.89	2300.38
567.25	2300.86
567.60	2302.19
567.96	2303.93
568.31	2304.55
568.66	2305.57
569.02	2305.99
569.37	2306.24
569.72	2307.02
570.08	2306.99
570.43	2307.08
570.78	2306.52
571.14	2305.16
571.49	2303.86
571.84	2303.44
572.20	2302.16
572.55	2300.90
572.90	2299.46
573.26	2298.06
573.61	2296.11
573.96	2294.23
574.31	2291.31
574.67	2288.31
575.02	2284.63
575.37	2281.04
575.72	2277.24
576.08	2273.90
576.43	2270.61
576.78	2266.80
577.13	2263.69
577.49	2260.79
577.84	2257.18
578.19	2253.26
578.54	2249.49
578.90	2245.08
579.25	2239.56
579.60	2234.51
579.95	2229.59
580.30	2224.41
580.66	2219.00
581.01	2214.09
581.36	2209.17
581.71	2204.93
582.06	2200.39
582.42	2195.86
582.77	2190.68
583.12	2185.96
583.47	2181.17
583.82	2176.00
584.17	2170.71
584.53	2165.11
584.88	2159.26
585.23	2153.44
585.58	2148.05
585.93	2142.38
586.28	2137.76
586.63	2132.61
586.98	2127.52
587.34	2122.80
587.69	2117.98
588.04	2112.90
588.39	2107.15
588.74	2100.63
589.09	2094.45
589.44	2087.58
589.79	2081.47
590.14	2075.93
590.49	2069.42
590.84	2062.96
591.19	2056.96
591.54	2050.58
591.89	2043.06
592.25	2036.26
592.60	2029.15
592.95	2021.43
593.30	2014.16
593.65	2006.43
594.00	1999.37
594.35	1992.13
594.70	1983.93
595.05	1976.47
595.40	1969.05
595.75	1961.42
596.10	1955.14
596.45	1948.31
596.80	1942.11
597.15	1935.47
597.50	1928.16
597.85	1921.67
598.19	1914.98
598.54	1907.79
598.89	1900.96
599.24	1895.14
599.59	1888.45
599.94	1881.99
600.29	1875.61
600.64	1869.08
600.99	1861.55
601.34	1854.63
601.69	1847.64
602.04	1840.62
602.39	1833.34
602.74	1826.51
603.08	1819.86
603.43	1813.08
603.78	1805.73
604.13	1798.52
604.48	1791.20
604.83	1784.34
605.18	1777.35
605.53	1769.34
605.87	1761.36
606.22	1754.13
606.57	1746.07
606.92	1738.60
607.27	1731.49
607.62	1724.61
607.96	1717.10
608.31	1710.56
608.66	1702.99
609.01	1695.27
609.36	1687.81
609.70	1679.87
610.05	1671.72
610.40	1663.88
610.75	1655.52
611.10	1647.78
611.44	1639.47
611.79	1631.41
612.14	1622.64
612.49	1613.49
612.83	1605.11
613.18	1596.95
613.53	1588.84
613.88	1580.21
614.22	1571.91
614.57	1563.31
614.92	1555.17
615.27	1547.63
615.61	1539.18
615.96	1531.07
616.31	1523.55
616.65	1516.13
617.00	1508.51
617.35	1500.91
617.70	1492.65
618.04	1484.13
618.39	1475.93
618.74	1468.14
619.08	1459.86
619.43	1452.34
619.78	1445.39
620.12	1438.12
620.47	1430.58
620.82	1422.39
621.16	1415.11
621.51	1407.46
621.85	1399.82
622.20	1391.30
622.55	1382.93
622.89	1375.08
623.24	1367.52
623.59	1360.11
623.93	1352.58
624.28	1345.36
624.62	1337.72
624.97	1330.45
625.32	1323.69
625.66	1316.65
626.01	1309.50
626.35	1301.96
626.70	1294.18
627.04	1286.36
627.39	1278.60
627.73	1271.14
628.08	1264.27
628.43	1256.84
628.77	1249.54
629.12	1242.02
629.46	1234.84
629.81	1227.52
630.15	1220.32
630.50	1212.84
630.84	1204.67
631.19	1196.74
631.53	1189.25
631.88	1181.80
632.22	1174.28
632.57	1166.97
632.91	1159.47
633.26	1152.03
633.60	1144.83
633.95	1137.74
634.29	1130.80
634.64	1124.20
634.98	1116.86
635.32	1109.65
635.67	1103.19
636.01	1096.59
636.36	1089.75
636.70	1083.30
637.05	1076.68
637.39	1070.30
637.73	1063.85
638.08	1057.98
638.42	1052.01
638.77	1045.54
639.11	1038.88
639.45	1032.47
639.80	1025.80
640.14	1019.35
640.49	1012.81
640.83	1006.39
641.17	1000.20
641.52	993.84
641.86	987.40
642.20	981.69
642.55	975.59
642.89	969.08
643.23	962.52
643.58	956.77
643.92	950.58
644.26	944.54
644.61	938.41
644.95	932.32
645.29	925.66
645.64	918.94
645.98	912.60
646.32	906.85
646.66	900.80
647.01	895.08
647.35	889.46
647.69	883.63
648.04	878.15
648.38	872.32
648.72	866.30
649.06	860.22
649.41	854.30
649.75	848.21
650.09	842.19
650.43	836.39
650.78	830.24
651.12	824.25
651.46	818.43
651.80	812.69
652.14	807.30
652.49	801.93
652.83	796.72
653.17	790.96
653.51	785.14
653.85	779.77
654.20	774.06
654.54	767.97
654.88	762.26
655.22	756.35
655.56	750.70
655.90	745.23
656.25	739.86
656.59	734.46
656.93	729.37
657.27	724.21
657.61	718.79
657.95	713.65
658.29	708.55
658.64	703.38
658.98	698.04
659.32	692.60
659.66	687.37
660.00	682.05
660.34	677.21
660.68	672.29
661.02	667.25
661.36	662.49
661.70	657.98
662.05	653.64
662.39	649.33
662.73	644.85
663.07	640.54
663.41	636.17
663.75	631.66
664.09	627.10
664.43	622.82
664.77	618.73
665.11	614.47
665.45	610.36
665.79	606.22
666.13	602.15
666.47	598.01
666.81	593.86
667.15	589.79
667.49	585.83
667.83	582.10
668.17	578.21
668.51	574.24
668.85	570.20
669.19	566.32
669.53	562.43
669.87	558.56
670.21	554.77
670.55	551.13
670.89	547.73
671.23	544.29
671.57	540.75
671.91	537.17
672.25	533.76
672.58	530.25
672.92	526.91
673.26	523.73
673.60	520.63
673.94	517.56
674.28	514.65
674.62	511.70
674.96	508.60
675.30	505.70
675.64	502.77
675.97	500.06
676.31	497.23
676.65	494.34
676.99	491.66
677.33	488.88
677.67	486.11
678.01	483.06
678.34	480.09
678.68	477.18
679.02	474.43
679.36	471.70
679.70	469.03
680.04	466.27
680.37	463.43
680.71	460.64
681.05	458.06
681.39	455.34
681.73	452.73
682.06	450.18
682.40	447.58
682.74	445.03
683.08	442.51
683.42	439.92
683.75	437.46
684.09	434.92
684.43	432.47
684.77	429.99
685.10	427.66
685.44	425.34
685.78	423.11
686.12	420.88
686.45	418.52
686.79	416.18
687.13	414.01
687.46	411.81
687.80	409.66
688.14	407.42
688.48	405.39
688.81	403.13
689.15	401.01
689.49	398.90
689.82	396.88
690.16	394.75
690.50	392.79
690.83	390.87
691.17	388.87
691.51	386.91
691.84	385.04
692.18	383.09
692.52	381.12
692.85	379.19
693.19	377.25
693.52	375.46
693.86	373.67
694.20	371.86
694.53	370.09
694.87	368.27
695.21	366.48
695.54	364.63
695.88	362.93
696.21	361.17
696.55	359.48
696.88	357.73
697.22	356.10
697.56	354.51
697.89	352.83
698.23	351.19
698.56	349.61
698.90	348.01
699.23	346.31
699.57	344.77
699.90	343.21
700.24	341.67
700.58	340.11
700.91	338.59
701.25	337.14
701.58	335.77
701.92	334.42
702.25	332.99
702.59	331.62
702.92	330.27
703.26	328.93
703.59	327.63
703.93	326.50
704.26	325.23
704.60	323.87
704.93	322.59
705.26	321.35
705.60	320.18
705.93	319.02
706.27	318.01
706.60	316.96
706.94	315.90
707.27	314.77
707.61	313.69
707.94	312.66
708.27	311.60
708.61	310.45
708.94	309.44
709.28	308.48
709.61	307.52
709.94	306.57
710.28	305.61
710.61	304.64
710.95	303.48
711.28	302.59
711.61	301.67
711.95	300.76
712.28	299.83
712.61	298.81
712.95	297.85
713.28	296.97
713.61	296.04
713.95	295.14
714.28	294.29
714.61	293.42
714.95	292.61
715.28	291.76
715.61	290.92
715.95	290.05
716.28	289.24
716.61	288.40
716.95	287.60
717.28	286.88
717.61	286.10
717.94	285.40
718.28	284.63
718.61	283.91
718.94	283.22
719.27	282.52
719.61	281.91
719.94	281.29
720.27	280.56
720.60	279.93
720.94	279.30
721.27	278.71
721.60	278.15
721.93	277.56
722.27	277.03
722.60	276.51
722.93	275.92
723.26	275.36
723.59	274.83
723.93	274.28
724.26	273.72
724.59	273.19
724.92	272.67
725.25	272.14
725.59	271.61
725.92	271.09
726.25	270.62
726.58	270.12
726.91	269.64
727.24	269.21
727.57	268.75
727.91	268.24
728.24	267.78
728.57	267.34
728.90	266.85
729.23	266.32
729.56	265.89
729.89	265.44
730.22	264.98
730.55	264.51
730.89	264.07
731.22	263.62
731.55	263.22
731.88	262.78
732.21	262.34
732.54	261.89
732.87	261.46
733.20	261.08
733.53	260.67
733.86	260.29
734.19	259.93
734.52	259.57
734.85	259.28
735.18	258.85
735.51	258.48
735.84	258.14
736.17	257.80
736.50	257.35
736.83	257.11
737.16	256.74
737.49	256.39
737.82	256.07
738.15	255.74
738.48	255.39
738.81	255.07
739.14	254.76
739.47	254.48
739.80	254.15
740.13	253.84
740.46	253.52
740.79	253.21
741.12	252.86
741.45	252.51
741.78	252.16
742.11	251.85
742.44	251.49
742.77	251.15
743.10	250.86
743.43	250.55
743.75	250.15
744.08	250.00
744.41	249.74
744.74	249.44
745.07	249.12
745.40	248.84
745.73	248.61
746.06	248.33
746.39	248.05
746.71	247.77
747.04	247.50
747.37	247.22
747.70	246.94
748.03	246.70
748.36	246.47
748.68	246.24
749.01	246.01
749.34	245.81
749.67	245.60
750.00	245.35
750.33	245.24
750.65	245.03
750.98	244.67
751.31	244.46
751.64	244.21
751.97	244.04
752.29	243.85
752.62	243.57
752.95	243.34
753.28	243.13
753.60	242.96
753.93	242.78
754.26	242.60
754.59	242.38
754.91	242.13
755.24	241.95
755.57	241.74
755.90	241.53
756.22	241.34
756.55	241.16
756.88	240.97
757.20	240.69
757.53	240.51
757.86	240.36
758.19	240.18
758.51	240.04
758.84	239.86
759.17	239.66
759.49	239.52
759.82	239.42
760.15	239.26
760.47	239.10
760.80	238.91
761.13	238.79
761.45	238.66
761.78	238.51
762.11	238.34
762.43	238.19
762.76	238.08
763.08	237.92
763.41	237.76
763.74	237.64
764.06	237.55
764.39	237.42
764.71	237.31
765.04	237.19
765.37	237.06
765.69	236.91
766.02	236.80
766.34	236.70
766.67	236.56
767.00	236.46
767.32	236.37
767.65	236.31
767.97	236.17
768.30	236.09
768.62	236.01
768.95	235.95
769.27	235.84
769.60	235.75
769.92	235.68
770.25	235.57
770.57	235.45
770.90	235.34
771.22	235.26
771.55	235.17
771.87	235.11
772.20	235.02
772.52	235.07
772.85	235.11
773.17	235.03
773.50	234.96
773.82	234.89
774.15	234.78
774.47	234.66
774.80	234.60
775.12	234.50
775.45	234.44
775.77	234.37
776.09	234.29
776.42	234.21
776.74	234.16
777.07	234.09
777.39	234.01
777.72	233.97
778.04	233.89
778.36	233.82
778.69	233.74
779.01	233.72
779.33	233.55
779.66	233.36
779.98	233.28
780.31	233.19
780.63	233.17
780.95	233.15
781.28	233.08
781.60	232.98
781.92	232.92
782.25	232.86
782.57	232.79
782.89	232.75
783.22	232.67
783.54	232.61
783.86	232.55
784.19	232.51
784.51	232.44
784.83	232.40
785.16	232.31
785.48	232.26
785.80	232.18
786.12	232.12
786.45	232.07
786.77	232.01
787.09	231.96
