SpectraSuite Data File
++++++++++++++++++++++++++++++++++++
Date: Fri Feb 01 18:11:25 EST 2013
User: group
Dark Spectrum Present: No
Reference Spectrum Present: No
Number of Sampled Component Spectra: 1
Spectrometers: USB2E7196
Integration Time (usec): 35000 (USB2E7196)
Spectra Averaged: 100 (USB2E7196)
Boxcar Smoothing: 10 (USB2E7196)
Correct for Electrical Dark: No (USB2E7196)
Strobe/Lamp Enabled: No (USB2E7196)
Correct for Detector Non-linearity: No (USB2E7196)
Correct for Stray Light: No (USB2E7196)
Number of Pixels in Processed Spectrum: 2048
>>>>>Begin Processed Spectral Data<<<<<
339.09	0.00
339.48	212.91
339.86	214.50
340.24	216.07
340.63	217.37
341.01	220.26
341.39	219.99
341.78	221.31
342.16	222.25
342.54	223.09
342.93	211.36
343.31	222.04
343.69	222.58
344.07	223.06
344.46	223.48
344.84	223.85
345.22	224.09
345.60	224.34
345.99	224.54
346.37	224.71
346.75	224.83
347.13	224.94
347.52	225.01
347.90	225.09
348.28	225.11
348.66	225.17
349.05	225.14
349.43	225.20
349.81	225.28
350.19	225.32
350.57	225.37
350.96	225.46
351.34	225.56
351.72	225.63
352.10	225.72
352.48	225.78
352.87	225.85
353.25	225.91
353.63	225.96
354.01	226.04
354.39	226.10
354.77	226.15
355.15	226.24
355.54	226.29
355.92	226.31
356.30	226.39
356.68	226.52
357.06	226.62
357.44	226.67
357.82	226.72
358.20	226.80
358.58	226.88
358.97	226.93
359.35	227.01
359.73	227.09
360.11	227.13
360.49	227.17
360.87	227.21
361.25	227.26
361.63	227.36
362.01	227.41
362.39	227.40
362.77	227.46
363.15	227.51
363.53	227.53
363.91	227.60
364.29	227.61
364.67	227.54
365.05	227.54
365.43	227.57
365.81	227.61
366.19	227.69
366.57	227.72
366.95	227.73
367.33	227.73
367.71	227.72
368.09	227.73
368.47	227.72
368.85	227.68
369.23	227.66
369.61	227.56
369.99	227.55
370.37	227.52
370.75	227.53
371.13	227.44
371.51	227.42
371.89	227.38
372.27	227.38
372.65	227.35
373.03	227.34
373.41	227.29
373.78	227.21
374.16	227.11
374.54	227.02
374.92	226.97
375.30	226.92
375.68	226.86
376.06	226.79
376.44	226.74
376.82	226.69
377.19	226.64
377.57	226.62
377.95	226.54
378.33	226.49
378.71	226.38
379.09	226.33
379.47	226.27
379.84	226.19
380.22	226.12
380.60	226.03
380.98	225.94
381.36	225.89
381.73	225.81
382.11	225.78
382.49	225.74
382.87	225.68
383.25	225.59
383.62	225.66
384.00	225.60
384.38	225.56
384.76	225.52
385.13	225.49
385.51	225.42
385.89	225.34
386.27	225.32
386.64	225.26
387.02	225.22
387.40	225.18
387.78	225.15
388.15	225.09
388.53	225.08
388.91	225.06
389.29	225.04
389.66	225.05
390.04	224.99
390.42	224.99
390.79	224.99
391.17	224.98
391.55	224.87
391.92	224.89
392.30	224.90
392.68	224.90
393.05	224.91
393.43	224.93
393.81	224.93
394.18	224.93
394.56	224.96
394.94	225.01
395.31	225.00
395.69	225.03
396.06	225.09
396.44	225.10
396.82	225.13
397.19	225.19
397.57	225.19
397.95	225.23
398.32	225.23
398.70	225.25
399.07	225.31
399.45	225.30
399.82	225.36
400.20	225.36
400.58	225.44
400.95	225.47
401.33	225.58
401.70	225.76
402.08	225.86
402.45	225.94
402.83	226.05
403.20	226.20
403.58	226.29
403.95	226.43
404.33	226.56
404.71	226.69
405.08	226.88
405.46	227.04
405.83	227.23
406.21	227.39
406.58	227.58
406.96	227.78
407.33	228.00
407.70	228.22
408.08	228.58
408.45	228.83
408.83	229.14
409.20	229.40
409.58	229.60
409.95	229.93
410.33	230.29
410.70	230.59
411.08	230.97
411.45	231.39
411.82	231.77
412.20	232.25
412.57	232.79
412.95	233.23
413.32	233.80
413.69	234.37
414.07	235.00
414.44	235.65
414.82	236.31
415.19	237.08
415.56	237.84
415.94	238.60
416.31	239.49
416.68	240.38
417.06	241.37
417.43	242.35
417.81	243.42
418.18	244.51
418.55	245.73
418.93	246.95
419.30	248.22
419.67	249.54
420.04	250.89
420.42	252.28
420.79	253.92
421.16	255.53
421.54	257.18
421.91	258.86
422.28	260.66
422.66	262.54
423.03	264.38
423.40	266.30
423.77	268.34
424.15	270.35
424.52	272.45
424.89	274.71
425.26	276.93
425.64	278.97
426.01	281.25
426.38	283.54
426.75	285.93
427.13	288.39
427.50	290.95
427.87	293.57
428.24	296.19
428.61	298.66
428.99	301.41
429.36	304.38
429.73	307.31
430.10	310.13
430.47	313.08
430.85	316.10
431.22	319.22
431.59	322.49
431.96	325.66
432.33	329.12
432.70	332.46
433.08	336.36
433.45	340.07
433.82	343.64
434.19	347.71
434.56	351.59
434.93	355.25
435.30	358.94
435.68	363.04
436.05	367.04
436.42	371.02
436.79	374.47
437.16	378.26
437.53	382.22
437.90	386.16
438.27	389.95
438.64	393.87
439.01	397.52
439.38	400.73
439.75	403.76
440.13	407.30
440.50	410.59
440.87	413.20
441.24	415.93
441.61	418.98
441.98	421.07
442.35	423.70
442.72	426.35
443.09	428.90
443.46	430.30
443.83	431.11
444.20	431.74
444.57	433.00
444.94	433.42
445.31	433.91
445.68	434.37
446.05	434.53
446.42	434.00
446.79	433.39
447.16	432.75
447.53	432.33
447.90	430.68
448.27	429.10
448.64	426.89
449.01	425.32
449.37	422.53
449.74	419.86
450.11	416.62
450.48	413.15
450.85	409.56
451.22	406.54
451.59	403.71
451.96	401.00
452.33	397.32
452.70	394.00
453.07	389.98
453.43	385.94
453.80	382.01
454.17	378.26
454.54	374.70
454.91	370.84
455.28	367.03
455.65	363.56
456.02	360.03
456.38	357.00
456.75	353.19
457.12	350.06
457.49	346.91
457.86	343.86
458.23	341.26
458.59	338.34
458.96	335.38
459.33	332.73
459.70	330.06
460.07	327.94
460.43	325.48
460.80	323.21
461.17	321.15
461.54	319.06
461.91	317.02
462.27	314.95
462.64	313.21
463.01	311.28
463.38	309.41
463.74	307.49
464.11	305.81
464.48	304.37
464.85	302.77
465.21	301.52
465.58	300.21
465.95	298.64
466.32	297.35
466.68	296.06
467.05	294.78
467.42	293.53
467.78	292.20
468.15	290.94
468.52	289.96
468.88	288.75
469.25	287.59
469.62	286.71
469.98	285.76
470.35	284.83
470.72	283.97
471.08	283.03
471.45	282.25
471.82	281.46
472.18	280.59
472.55	279.96
472.92	279.22
473.28	278.61
473.65	277.98
474.02	277.33
474.38	276.78
474.75	276.31
475.11	275.81
475.48	275.42
475.85	275.07
476.21	274.71
476.58	274.47
476.94	274.23
477.31	273.93
477.67	273.62
478.04	273.40
478.41	273.22
478.77	273.15
479.14	272.97
479.50	272.89
479.87	272.89
480.23	272.92
480.60	272.91
480.96	272.86
481.33	272.97
481.69	273.13
482.06	273.28
482.42	273.42
482.79	273.62
483.15	273.89
483.52	274.24
483.88	274.57
484.25	274.87
484.61	275.25
484.98	275.66
485.34	276.24
485.71	276.83
486.07	277.46
486.44	278.02
486.80	278.76
487.17	279.51
487.53	280.32
487.90	281.20
488.26	282.20
488.62	283.25
488.99	284.29
489.35	285.39
489.72	286.60
490.08	287.87
490.44	289.15
490.81	290.53
491.17	291.97
491.54	293.54
491.90	295.10
492.26	296.87
492.63	298.74
492.99	300.61
493.36	302.65
493.72	304.83
494.08	307.10
494.45	309.50
494.81	312.01
495.17	314.62
495.54	317.35
495.90	320.20
496.26	323.22
496.63	326.37
496.99	329.68
497.35	333.18
497.72	336.84
498.08	340.61
498.44	344.59
498.80	348.81
499.17	353.10
499.53	357.63
499.89	362.32
500.26	367.15
500.62	372.14
500.98	377.50
501.34	382.95
501.71	388.72
502.07	394.58
502.43	400.68
502.79	406.92
503.16	413.41
503.52	420.19
503.88	427.05
504.24	434.18
504.60	441.58
504.97	449.25
505.33	457.12
505.69	465.45
506.05	473.82
506.41	482.26
506.78	491.10
507.14	500.22
507.50	509.62
507.86	519.38
508.22	529.37
508.59	539.29
508.95	549.61
509.31	560.15
509.67	571.07
510.03	582.17
510.39	593.67
510.75	605.39
511.12	617.17
511.48	629.43
511.84	641.85
512.20	654.33
512.56	667.32
512.92	680.60
513.28	694.10
513.64	707.71
514.00	721.70
514.37	735.83
514.73	750.09
515.09	764.32
515.45	778.80
515.81	793.71
516.17	809.03
516.53	824.61
516.89	840.29
517.25	855.84
517.61	871.75
517.97	887.61
518.33	903.55
518.69	919.94
519.05	936.51
519.41	953.27
519.77	970.45
520.13	987.52
520.49	1004.65
520.85	1021.61
521.21	1038.97
521.57	1056.95
521.93	1074.47
522.29	1092.65
522.65	1110.80
523.01	1128.91
523.37	1146.83
523.73	1164.84
524.09	1182.78
524.45	1200.88
524.81	1219.50
525.17	1238.23
525.53	1257.20
525.89	1276.08
526.25	1294.94
526.61	1313.36
526.97	1332.31
527.33	1350.94
527.68	1369.76
528.04	1388.18
528.40	1406.93
528.76	1426.25
529.12	1445.08
529.48	1464.35
529.84	1482.58
530.20	1501.46
530.56	1520.63
530.91	1540.28
531.27	1559.49
531.63	1578.23
531.99	1597.27
532.35	1615.63
532.71	1633.96
533.07	1652.68
533.42	1671.08
533.78	1689.65
534.14	1708.42
534.50	1726.15
534.86	1744.56
535.21	1762.13
535.57	1780.64
535.93	1798.70
536.29	1815.91
536.65	1833.42
537.00	1850.48
537.36	1868.52
537.72	1885.67
538.08	1902.90
538.44	1919.26
538.79	1935.61
539.15	1951.86
539.51	1968.09
539.87	1985.00
540.22	2001.33
540.58	2017.70
540.94	2033.50
541.29	2048.92
541.65	2064.24
542.01	2079.96
542.37	2094.71
542.72	2109.70
543.08	2124.18
543.44	2139.21
543.79	2153.14
544.15	2166.69
544.51	2180.97
544.87	2194.24
545.22	2207.48
545.58	2220.17
545.94	2232.51
546.29	2245.00
546.65	2257.40
547.01	2269.40
547.36	2280.53
547.72	2291.37
548.07	2301.69
548.43	2312.24
548.79	2322.49
549.14	2332.41
549.50	2342.09
549.86	2352.18
550.21	2361.75
550.57	2371.14
550.92	2379.94
551.28	2389.35
551.64	2398.68
551.99	2407.38
552.35	2415.75
552.70	2424.03
553.06	2432.02
553.41	2440.39
553.77	2448.35
554.13	2456.50
554.48	2464.58
554.84	2472.31
555.19	2479.36
555.55	2486.52
555.90	2493.08
556.26	2500.22
556.61	2506.67
556.97	2512.98
557.32	2518.95
557.68	2524.95
558.03	2530.97
558.39	2536.40
558.74	2542.74
559.10	2548.41
559.45	2553.79
559.81	2559.90
560.16	2565.46
560.52	2570.51
560.87	2575.50
561.23	2579.75
561.58	2584.19
561.94	2588.20
562.29	2591.83
562.64	2596.38
563.00	2600.41
563.35	2605.33
563.71	2609.77
564.06	2614.42
564.42	2618.74
564.77	2622.67
565.12	2626.55
565.48	2629.92
565.83	2633.32
566.19	2636.04
566.54	2637.92
566.89	2640.39
567.25	2642.20
567.60	2644.59
567.96	2647.35
568.31	2649.28
568.66	2651.52
569.02	2653.08
569.37	2654.42
569.72	2656.47
570.08	2657.39
570.43	2658.14
570.78	2658.42
571.14	2657.47
571.49	2656.66
571.84	2656.94
572.20	2656.47
572.55	2655.86
572.90	2654.58
573.26	2653.51
573.61	2652.03
573.96	2650.86
574.31	2647.96
574.67	2645.06
575.02	2641.61
575.37	2638.29
575.72	2634.80
576.08	2631.29
576.43	2627.92
576.78	2624.29
577.13	2621.06
577.49	2617.88
577.84	2614.47
578.19	2610.45
578.54	2606.89
578.90	2602.71
579.25	2596.79
579.60	2591.42
579.95	2586.30
580.30	2581.07
580.66	2575.51
581.01	2570.00
581.36	2564.65
581.71	2560.20
582.06	2555.44
582.42	2550.79
582.77	2545.15
583.12	2540.10
583.47	2535.33
583.82	2530.10
584.17	2524.32
584.53	2518.09
584.88	2512.11
585.23	2505.70
585.58	2499.68
585.93	2493.59
586.28	2488.17
586.63	2482.72
586.98	2477.25
587.34	2471.62
587.69	2466.02
588.04	2460.31
588.39	2454.16
588.74	2446.75
589.09	2439.77
589.44	2432.22
589.79	2425.04
590.14	2418.52
590.49	2410.95
590.84	2403.34
591.19	2396.27
591.54	2388.92
591.89	2380.68
592.25	2372.88
592.60	2364.42
592.95	2355.81
593.30	2347.12
593.65	2338.29
594.00	2329.86
594.35	2321.27
594.70	2311.97
595.05	2303.71
595.40	2295.10
595.75	2286.19
596.10	2279.16
596.45	2271.38
596.80	2264.13
597.15	2256.67
597.50	2248.72
597.85	2241.02
598.19	2233.47
598.54	2225.48
598.89	2217.48
599.24	2210.36
599.59	2202.63
599.94	2195.37
600.29	2187.91
600.64	2180.08
600.99	2171.39
601.34	2163.47
601.69	2155.13
602.04	2147.05
602.39	2138.47
602.74	2130.39
603.08	2122.42
603.43	2114.30
603.78	2105.54
604.13	2096.86
604.48	2088.20
604.83	2079.83
605.18	2071.84
605.53	2062.30
605.87	2052.53
606.22	2043.79
606.57	2034.27
606.92	2025.20
607.27	2016.79
607.62	2008.51
607.96	2000.05
608.31	1992.23
608.66	1983.11
609.01	1974.28
609.36	1965.33
609.70	1955.69
610.05	1945.99
610.40	1936.90
610.75	1926.90
611.10	1917.70
611.44	1907.72
611.79	1897.95
612.14	1887.57
612.49	1876.45
612.83	1866.31
613.18	1856.71
613.53	1847.17
613.88	1837.12
614.22	1827.21
614.57	1816.65
614.92	1807.00
615.27	1797.88
615.61	1788.00
615.96	1778.34
616.31	1769.10
616.65	1760.16
617.00	1751.00
617.35	1741.76
617.70	1731.92
618.04	1721.71
618.39	1711.91
618.74	1702.70
619.08	1692.89
619.43	1683.75
619.78	1675.30
620.12	1666.68
620.47	1657.54
620.82	1647.57
621.16	1638.48
621.51	1629.21
621.85	1620.11
622.20	1609.82
622.55	1599.62
622.89	1590.06
623.24	1580.85
623.59	1571.86
623.93	1562.76
624.28	1554.06
624.62	1545.05
624.97	1536.17
625.32	1527.96
625.66	1519.37
626.01	1510.77
626.35	1501.90
626.70	1492.55
627.04	1483.40
627.39	1474.01
627.73	1465.12
628.08	1456.82
628.43	1448.24
628.77	1439.53
629.12	1430.49
629.46	1421.83
629.81	1412.89
630.15	1404.16
630.50	1395.24
630.84	1385.50
631.19	1375.96
631.53	1366.97
631.88	1357.88
632.22	1348.78
632.57	1340.01
632.91	1331.01
633.26	1322.14
633.60	1313.08
633.95	1304.44
634.29	1295.88
634.64	1287.85
634.98	1279.04
635.32	1270.50
635.67	1262.42
636.01	1254.38
636.36	1246.25
636.70	1238.48
637.05	1230.68
637.39	1222.94
637.73	1215.16
638.08	1207.99
638.42	1200.86
638.77	1193.13
639.11	1185.37
639.45	1177.72
639.80	1169.81
640.14	1162.24
640.49	1154.48
640.83	1147.05
641.17	1139.83
641.52	1132.35
641.86	1124.71
642.20	1117.76
642.55	1110.12
642.89	1102.50
643.23	1094.64
643.58	1087.83
643.92	1080.47
644.26	1073.42
644.61	1066.11
644.95	1058.99
645.29	1051.28
645.64	1043.30
645.98	1035.81
646.32	1028.74
646.66	1021.60
647.01	1014.78
647.35	1007.95
647.69	1000.87
648.04	994.36
648.38	987.46
648.72	980.44
649.06	973.31
649.41	966.23
649.75	959.32
650.09	952.28
650.43	945.55
650.78	938.21
651.12	931.20
651.46	924.37
651.80	917.71
652.14	911.29
652.49	904.98
652.83	898.83
653.17	892.14
653.51	885.42
653.85	879.10
654.20	872.39
654.54	865.26
654.88	858.50
655.22	851.37
655.56	844.64
655.90	838.15
656.25	831.95
656.59	825.61
656.93	819.61
657.27	813.52
657.61	807.07
657.95	801.04
658.29	795.03
658.64	788.74
658.98	782.45
659.32	776.03
659.66	769.79
660.00	763.60
660.34	757.72
660.68	751.90
661.02	745.88
661.36	740.31
661.70	735.05
662.05	729.99
662.39	724.98
662.73	719.67
663.07	714.46
663.41	709.21
663.75	703.94
664.09	698.49
664.43	693.32
664.77	688.46
665.11	683.44
665.45	678.58
665.79	673.81
666.13	668.99
666.47	664.15
666.81	659.29
667.15	654.43
667.49	649.76
667.83	645.19
668.17	640.60
668.51	635.85
668.85	631.08
669.19	626.44
669.53	621.92
669.87	617.38
670.21	613.06
670.55	608.76
670.89	604.74
671.23	600.74
671.57	596.56
671.91	592.46
672.25	588.32
672.58	584.18
672.92	580.14
673.26	576.37
673.60	572.70
673.94	569.15
674.28	565.67
674.62	562.33
674.96	558.74
675.30	555.31
675.64	551.88
675.97	548.58
676.31	545.25
676.65	541.79
676.99	538.56
677.33	535.10
677.67	531.76
678.01	528.22
678.34	524.72
678.68	521.39
679.02	518.06
679.36	514.78
679.70	511.52
680.04	508.33
680.37	504.98
680.71	501.67
681.05	498.49
681.39	495.29
681.73	492.17
682.06	489.23
682.40	486.25
682.74	483.26
683.08	480.24
683.42	477.20
683.75	474.25
684.09	471.29
684.43	468.41
684.77	465.57
685.10	462.79
685.44	460.08
685.78	457.34
686.12	454.63
686.45	451.99
686.79	449.32
687.13	446.68
687.46	444.07
687.80	441.51
688.14	438.87
688.48	436.44
688.81	433.73
689.15	431.20
689.49	428.66
689.82	426.22
690.16	423.72
690.50	421.37
690.83	419.10
691.17	416.69
691.51	414.46
691.84	412.20
692.18	409.91
692.52	407.57
692.85	405.27
693.19	403.11
693.52	400.85
693.86	398.64
694.20	396.51
694.53	394.42
694.87	392.19
695.21	390.12
695.54	387.93
695.88	385.86
696.21	383.77
696.55	381.75
696.88	379.70
697.22	377.78
697.56	375.82
697.89	373.85
698.23	371.96
698.56	370.02
698.90	368.15
699.23	366.23
699.57	364.41
699.90	362.62
700.24	360.76
700.58	359.07
700.91	357.38
701.25	355.66
701.58	354.03
701.92	352.47
702.25	350.82
702.59	349.26
702.92	347.71
703.26	346.13
703.59	344.62
703.93	343.21
704.26	341.74
704.60	340.29
704.93	338.82
705.26	337.36
705.60	335.95
705.93	334.64
706.27	333.38
706.60	332.14
706.94	330.82
707.27	329.47
707.61	328.10
707.94	326.90
708.27	325.62
708.61	324.35
708.94	323.13
709.28	321.99
709.61	320.82
709.94	319.71
710.28	318.56
710.61	317.37
710.95	316.09
711.28	315.00
711.61	313.89
711.95	312.82
712.28	311.74
712.61	310.62
712.95	309.44
713.28	308.36
713.61	307.28
713.95	306.27
714.28	305.29
714.61	304.29
714.95	303.21
715.28	302.23
715.61	301.21
715.95	300.21
716.28	299.17
716.61	298.20
716.95	297.18
717.28	296.28
717.61	295.41
717.94	294.52
718.28	293.56
718.61	292.66
718.94	291.82
719.27	290.99
719.61	290.24
719.94	289.49
720.27	288.68
720.60	287.93
720.94	287.13
721.27	286.44
721.60	285.75
721.93	285.06
722.27	284.40
722.60	283.71
722.93	283.03
723.26	282.41
723.59	281.74
723.93	281.10
724.26	280.42
724.59	279.74
724.92	279.15
725.25	278.54
725.59	277.94
725.92	277.33
726.25	276.74
726.58	276.13
726.91	275.53
727.24	274.96
727.57	274.37
727.91	273.82
728.24	273.24
728.57	272.65
728.90	272.11
729.23	271.53
729.56	271.03
729.89	270.48
730.22	269.89
730.55	269.33
730.89	268.83
731.22	268.29
731.55	267.76
731.88	267.26
732.21	266.80
732.54	266.28
732.87	265.76
733.20	265.28
733.53	264.82
733.86	264.39
734.19	263.91
734.52	263.45
734.85	263.06
735.18	262.58
735.51	262.17
735.84	261.72
736.17	261.30
736.50	260.82
736.83	260.50
737.16	260.11
737.49	259.71
737.82	259.30
738.15	258.92
738.48	258.53
738.81	258.12
739.14	257.71
739.47	257.32
739.80	256.96
740.13	256.60
740.46	256.20
740.79	255.79
741.12	255.45
741.45	255.07
741.78	254.65
742.11	254.31
742.44	253.90
742.77	253.58
743.10	253.22
743.43	252.88
743.75	252.44
744.08	252.24
744.41	251.92
744.74	251.57
745.07	251.31
745.40	251.02
745.73	250.75
746.06	250.41
746.39	250.14
746.71	249.80
747.04	249.48
747.37	249.19
747.70	248.93
748.03	248.61
748.36	248.35
748.68	248.06
749.01	247.76
749.34	247.52
749.67	247.24
750.00	246.99
750.33	246.82
750.65	246.57
750.98	246.17
751.31	245.89
751.64	245.65
751.97	245.42
752.29	245.15
752.62	244.87
752.95	244.64
753.28	244.34
753.60	244.12
753.93	243.92
754.26	243.68
754.59	243.42
754.91	243.22
755.24	242.98
755.57	242.79
755.90	242.57
756.22	242.34
756.55	242.11
756.88	241.85
757.20	241.55
757.53	241.32
757.86	241.14
758.19	240.97
758.51	240.76
758.84	240.49
759.17	240.28
759.49	240.09
759.82	239.94
760.15	239.80
760.47	239.62
760.80	239.40
761.13	239.25
761.45	239.04
761.78	238.85
762.11	238.65
762.43	238.43
762.76	238.28
763.08	238.11
763.41	237.95
763.74	237.77
764.06	237.60
764.39	237.44
764.71	237.28
765.04	237.14
765.37	236.98
765.69	236.81
766.02	236.64
766.34	236.49
766.67	236.31
767.00	236.16
767.32	236.05
767.65	235.99
767.97	235.85
768.30	235.74
768.62	235.62
768.95	235.45
769.27	235.34
769.60	235.20
769.92	235.06
770.25	234.91
770.57	234.83
770.90	234.73
771.22	234.60
771.55	234.50
771.87	234.38
772.20	234.25
772.52	234.23
772.85	234.26
773.17	234.15
773.50	234.04
773.82	233.93
774.15	233.79
774.47	233.63
774.80	233.53
775.12	233.42
775.45	233.32
775.77	233.24
776.09	233.19
776.42	233.12
776.74	233.06
777.07	232.95
777.39	232.84
777.72	232.74
778.04	232.67
778.36	232.57
778.69	232.47
779.01	232.44
779.33	232.29
779.66	232.11
779.98	232.02
780.31	231.94
780.63	231.89
780.95	231.83
781.28	231.74
781.60	231.64
781.92	231.58
782.25	231.53
782.57	231.48
782.89	231.35
783.22	231.26
783.54	231.18
783.86	231.13
784.19	231.06
784.51	231.03
784.83	230.96
785.16	230.88
785.48	230.81
785.80	230.74
786.12	230.71
786.45	230.63
