SpectraSuite Data File
++++++++++++++++++++++++++++++++++++
Date: Fri Feb 01 15:57:25 EST 2013
User: group
Dark Spectrum Present: No
Reference Spectrum Present: No
Number of Sampled Component Spectra: 1
Spectrometers: USB2E7196
Integration Time (usec): 35000 (USB2E7196)
Spectra Averaged: 100 (USB2E7196)
Boxcar Smoothing: 10 (USB2E7196)
Correct for Electrical Dark: No (USB2E7196)
Strobe/Lamp Enabled: No (USB2E7196)
Correct for Detector Non-linearity: No (USB2E7196)
Correct for Stray Light: No (USB2E7196)
Number of Pixels in Processed Spectrum: 2048
>>>>>Begin Processed Spectral Data<<<<<
339.09	0.00
339.48	215.05
339.86	216.33
340.24	217.86
340.63	218.97
341.01	221.64
341.39	221.68
341.78	223.43
342.16	224.73
342.54	225.13
342.93	213.21
343.31	223.98
343.69	224.52
344.07	224.98
344.46	225.41
344.84	225.78
345.22	226.03
345.60	226.28
345.99	226.47
346.37	226.57
346.75	226.64
347.13	226.70
347.52	226.75
347.90	226.82
348.28	226.82
348.66	226.89
349.05	226.89
349.43	226.94
349.81	226.99
350.19	227.03
350.57	227.13
350.96	227.21
351.34	227.30
351.72	227.40
352.10	227.51
352.48	227.57
352.87	227.65
353.25	227.71
353.63	227.78
354.01	227.82
354.39	227.91
354.77	228.03
355.15	228.12
355.54	228.19
355.92	228.22
356.30	228.30
356.68	228.41
357.06	228.52
357.44	228.62
357.82	228.66
358.20	228.73
358.58	228.79
358.97	228.85
359.35	228.90
359.73	228.99
360.11	229.03
360.49	229.10
360.87	229.12
361.25	229.18
361.63	229.26
362.01	229.29
362.39	229.30
362.77	229.35
363.15	229.35
363.53	229.38
363.91	229.41
364.29	229.44
364.67	229.36
365.05	229.35
365.43	229.31
365.81	229.36
366.19	229.43
366.57	229.45
366.95	229.45
367.33	229.43
367.71	229.37
368.09	229.37
368.47	229.36
368.85	229.32
369.23	229.32
369.61	229.26
369.99	229.30
370.37	229.26
370.75	229.23
371.13	229.21
371.51	229.16
371.89	229.13
372.27	229.07
372.65	229.03
373.03	228.96
373.41	228.91
373.78	228.82
374.16	228.67
374.54	228.57
374.92	228.47
375.30	228.39
375.68	228.30
376.06	228.23
376.44	228.13
376.82	228.11
377.19	228.06
377.57	227.98
377.95	227.85
378.33	227.80
378.71	227.69
379.09	227.63
379.47	227.58
379.84	227.50
380.22	227.42
380.60	227.34
380.98	227.27
381.36	227.19
381.73	227.13
382.11	227.11
382.49	227.05
382.87	227.01
383.25	226.96
383.62	227.02
384.00	226.93
384.38	226.87
384.76	226.81
385.13	226.74
385.51	226.68
385.89	226.64
386.27	226.60
386.64	226.57
387.02	226.50
387.40	226.45
387.78	226.41
388.15	226.41
388.53	226.38
388.91	226.34
389.29	226.34
389.66	226.33
390.04	226.30
390.42	226.28
390.79	226.25
391.17	226.23
391.55	226.12
391.92	226.11
392.30	226.15
392.68	226.15
393.05	226.17
393.43	226.17
393.81	226.15
394.18	226.13
394.56	226.11
394.94	226.17
395.31	226.18
395.69	226.23
396.06	226.27
396.44	226.28
396.82	226.31
397.19	226.37
397.57	226.44
397.95	226.49
398.32	226.53
398.70	226.59
399.07	226.70
399.45	226.77
399.82	226.85
400.20	226.89
400.58	226.96
400.95	226.98
401.33	227.10
401.70	227.27
402.08	227.35
402.45	227.44
402.83	227.54
403.20	227.64
403.58	227.72
403.95	227.83
404.33	227.98
404.71	228.10
405.08	228.28
405.46	228.39
405.83	228.52
406.21	228.65
406.58	228.84
406.96	228.97
407.33	229.15
407.70	229.35
408.08	229.61
408.45	229.84
408.83	230.05
409.20	230.27
409.58	230.48
409.95	230.78
410.33	231.05
410.70	231.28
411.08	231.58
411.45	231.91
411.82	232.23
412.20	232.57
412.57	233.00
412.95	233.30
413.32	233.69
413.69	234.11
414.07	234.58
414.44	235.04
414.82	235.55
415.19	236.09
415.56	236.64
415.94	237.21
416.31	237.84
416.68	238.48
417.06	239.17
417.43	239.85
417.81	240.62
418.18	241.41
418.55	242.28
418.93	243.15
419.30	244.01
419.67	244.97
420.04	245.93
420.42	246.90
420.79	248.10
421.16	249.27
421.54	250.47
421.91	251.68
422.28	252.92
422.66	254.25
423.03	255.54
423.40	256.85
423.77	258.25
424.15	259.67
424.52	261.17
424.89	262.77
425.26	264.30
425.64	265.72
426.01	267.32
426.38	268.98
426.75	270.66
427.13	272.41
427.50	274.19
427.87	276.08
428.24	277.97
428.61	279.68
428.99	281.60
429.36	283.67
429.73	285.72
430.10	287.74
430.47	289.75
430.85	291.89
431.22	294.17
431.59	296.54
431.96	298.77
432.33	301.21
432.70	303.63
433.08	306.43
433.45	309.11
433.82	311.74
434.19	314.57
434.56	317.36
434.93	320.03
435.30	322.64
435.68	325.50
436.05	328.32
436.42	331.11
436.79	333.65
437.16	336.35
437.53	339.21
437.90	342.02
438.27	344.80
438.64	347.57
439.01	350.17
439.38	352.42
439.75	354.60
440.13	357.10
440.50	359.36
440.87	361.20
441.24	363.07
441.61	365.20
441.98	366.69
442.35	368.48
442.72	370.30
443.09	372.07
443.46	373.10
443.83	373.65
444.20	374.17
444.57	374.94
444.94	375.21
445.31	375.53
445.68	375.87
446.05	375.95
446.42	375.59
446.79	375.09
447.16	374.62
447.53	374.25
447.90	373.06
448.27	371.97
448.64	370.40
449.01	369.30
449.37	367.30
449.74	365.40
450.11	363.17
450.48	360.70
450.85	358.21
451.22	356.04
451.59	354.04
451.96	352.13
452.33	349.54
452.70	347.21
453.07	344.39
453.43	341.50
453.80	338.71
454.17	336.05
454.54	333.53
454.91	330.82
455.28	328.20
455.65	325.73
456.02	323.27
456.38	321.08
456.75	318.41
457.12	316.19
457.49	314.01
457.86	311.85
458.23	309.99
458.59	307.92
458.96	305.87
459.33	304.02
459.70	302.16
460.07	300.66
460.43	298.94
460.80	297.28
461.17	295.87
461.54	294.39
461.91	292.93
462.27	291.49
462.64	290.24
463.01	288.90
463.38	287.64
463.74	286.26
464.11	285.14
464.48	284.13
464.85	283.04
465.21	282.18
465.58	281.29
465.95	280.21
466.32	279.32
466.68	278.40
467.05	277.53
467.42	276.63
467.78	275.72
468.15	274.86
468.52	274.25
468.88	273.33
469.25	272.57
469.62	272.00
469.98	271.34
470.35	270.75
470.72	270.15
471.08	269.49
471.45	268.98
471.82	268.42
472.18	267.84
472.55	267.44
472.92	266.91
473.28	266.44
473.65	265.98
474.02	265.55
474.38	265.22
474.75	264.92
475.11	264.53
475.48	264.32
475.85	264.09
476.21	263.85
476.58	263.74
476.94	263.64
477.31	263.45
477.67	263.34
478.04	263.18
478.41	263.11
478.77	263.16
479.14	263.09
479.50	263.10
479.87	263.21
480.23	263.24
480.60	263.33
480.96	263.44
481.33	263.68
481.69	263.89
482.06	264.04
482.42	264.23
482.79	264.54
483.15	264.84
483.52	265.22
483.88	265.57
484.25	265.93
484.61	266.33
484.98	266.75
485.34	267.29
485.71	267.91
486.07	268.54
486.44	269.12
486.80	269.86
487.17	270.61
487.53	271.40
487.90	272.27
488.26	273.22
488.62	274.18
488.99	275.13
489.35	276.20
489.72	277.33
490.08	278.52
490.44	279.77
490.81	281.09
491.17	282.42
491.54	283.92
491.90	285.49
492.26	287.13
492.63	288.87
492.99	290.64
493.36	292.50
493.72	294.54
494.08	296.64
494.45	298.87
494.81	301.23
495.17	303.66
495.54	306.22
495.90	308.92
496.26	311.72
496.63	314.68
496.99	317.80
497.35	321.06
497.72	324.46
498.08	327.93
498.44	331.60
498.80	335.52
499.17	339.52
499.53	343.67
499.89	348.04
500.26	352.54
500.62	357.26
500.98	362.24
501.34	367.32
501.71	372.62
502.07	378.06
502.43	383.66
502.79	389.49
503.16	395.52
503.52	401.78
503.88	408.18
504.24	414.87
504.60	421.77
504.97	428.91
505.33	436.25
505.69	443.97
506.05	451.72
506.41	459.65
506.78	467.87
507.14	476.38
507.50	485.09
507.86	494.17
508.22	503.29
508.59	512.55
508.95	522.10
509.31	531.87
509.67	541.94
510.03	552.24
510.39	562.78
510.75	573.63
511.12	584.54
511.48	595.83
511.84	607.26
512.20	618.76
512.56	630.70
512.92	642.90
513.28	655.21
513.64	667.76
514.00	680.48
514.37	693.40
514.73	706.38
515.09	719.40
515.45	732.61
515.81	746.27
516.17	760.25
516.53	774.38
516.89	788.59
517.25	802.81
517.61	817.24
517.97	831.68
518.33	846.14
518.69	860.98
519.05	876.00
519.41	891.09
519.77	906.60
520.13	921.97
520.49	937.27
520.85	952.69
521.21	968.45
521.57	984.68
521.93	1000.41
522.29	1016.86
522.65	1033.08
523.01	1049.37
523.37	1065.27
523.73	1081.41
524.09	1097.38
524.45	1113.61
524.81	1130.20
525.17	1146.99
525.53	1163.93
525.89	1180.76
526.25	1197.52
526.61	1213.94
526.97	1230.71
527.33	1247.09
527.68	1263.72
528.04	1280.18
528.40	1296.82
528.76	1313.67
529.12	1330.16
529.48	1347.04
529.84	1363.02
530.20	1379.65
530.56	1396.55
530.91	1413.98
531.27	1430.70
531.63	1447.19
531.99	1463.86
532.35	1479.78
532.71	1495.61
533.07	1511.80
533.42	1527.67
533.78	1543.65
534.14	1559.90
534.50	1575.21
534.86	1591.11
535.21	1606.17
535.57	1622.12
535.93	1637.48
536.29	1652.27
536.65	1667.28
537.00	1682.00
537.36	1697.28
537.72	1711.74
538.08	1726.13
538.44	1739.91
538.79	1753.80
539.15	1767.58
539.51	1781.24
539.87	1795.56
540.22	1809.28
540.58	1823.03
540.94	1836.32
541.29	1849.27
541.65	1861.83
542.01	1875.10
542.37	1887.30
542.72	1899.77
543.08	1911.48
543.44	1923.81
543.79	1935.09
544.15	1946.14
544.51	1957.58
544.87	1968.38
545.22	1979.23
545.58	1989.48
545.94	1999.18
546.29	2008.99
546.65	2018.85
547.01	2028.04
547.36	2036.76
547.72	2045.10
548.07	2052.85
548.43	2061.00
548.79	2068.99
549.14	2076.48
549.50	2083.77
549.86	2091.62
550.21	2098.98
550.57	2106.09
550.92	2112.76
551.28	2119.72
551.64	2126.70
551.99	2133.24
552.35	2139.48
552.70	2145.62
553.06	2151.60
553.41	2157.89
553.77	2163.86
554.13	2169.86
554.48	2176.11
554.84	2181.53
555.19	2186.92
555.55	2192.07
555.90	2196.41
556.26	2201.36
556.61	2206.28
556.97	2210.44
557.32	2214.49
557.68	2218.55
558.03	2222.85
558.39	2226.55
558.74	2231.26
559.10	2235.11
559.45	2238.91
559.81	2243.12
560.16	2246.95
560.52	2250.16
560.87	2253.67
561.23	2256.34
561.58	2259.30
561.94	2261.78
562.29	2264.12
562.64	2266.81
563.00	2269.38
563.35	2272.97
563.71	2275.95
564.06	2278.92
564.42	2281.88
564.77	2284.42
565.12	2286.62
565.48	2288.56
565.83	2290.44
566.19	2291.64
566.54	2292.58
566.89	2293.58
567.25	2294.24
567.60	2295.53
567.96	2297.24
568.31	2298.02
568.66	2299.16
569.02	2299.76
569.37	2300.02
569.72	2300.91
570.08	2301.03
570.43	2301.18
570.78	2300.58
571.14	2299.06
571.49	2297.69
571.84	2297.43
572.20	2296.14
572.55	2295.19
572.90	2293.66
573.26	2292.15
573.61	2290.50
573.96	2288.69
574.31	2285.77
574.67	2282.84
575.02	2279.17
575.37	2275.64
575.72	2271.92
576.08	2268.55
576.43	2265.18
576.78	2261.42
577.13	2258.33
577.49	2255.38
577.84	2251.69
578.19	2248.08
578.54	2244.33
578.90	2240.24
579.25	2234.56
579.60	2229.63
579.95	2224.71
580.30	2219.86
580.66	2214.81
581.01	2209.94
581.36	2205.06
581.71	2200.94
582.06	2196.38
582.42	2191.86
582.77	2186.74
583.12	2182.18
583.47	2177.44
583.82	2172.49
584.17	2167.34
584.53	2161.80
584.88	2156.07
585.23	2150.35
585.58	2144.72
585.93	2139.46
586.28	2134.70
586.63	2129.70
586.98	2124.79
587.34	2120.06
587.69	2115.00
588.04	2109.72
588.39	2104.07
588.74	2097.64
589.09	2091.43
589.44	2084.68
589.79	2078.81
590.14	2073.16
590.49	2066.47
590.84	2060.09
591.19	2053.97
591.54	2047.51
591.89	2040.07
592.25	2033.13
592.60	2026.15
592.95	2018.68
593.30	2011.38
593.65	2003.74
594.00	1996.70
594.35	1989.39
594.70	1981.34
595.05	1974.11
595.40	1966.86
595.75	1959.29
596.10	1953.13
596.45	1946.51
596.80	1940.39
597.15	1933.66
597.50	1926.50
597.85	1920.16
598.19	1913.44
598.54	1906.35
598.89	1899.73
599.24	1893.88
599.59	1887.37
599.94	1881.03
600.29	1874.60
600.64	1868.04
600.99	1860.62
601.34	1853.77
601.69	1846.93
602.04	1840.10
602.39	1832.85
602.74	1825.96
603.08	1819.27
603.43	1812.44
603.78	1805.12
604.13	1797.91
604.48	1790.59
604.83	1783.91
605.18	1776.86
605.53	1768.93
605.87	1760.97
606.22	1753.79
606.57	1745.83
606.92	1738.43
607.27	1731.23
607.62	1724.38
607.96	1717.06
608.31	1710.43
608.66	1702.66
609.01	1694.90
609.36	1687.34
609.70	1679.29
610.05	1671.25
610.40	1663.47
610.75	1655.15
611.10	1647.40
611.44	1639.00
611.79	1631.19
612.14	1622.47
612.49	1613.43
612.83	1605.18
613.18	1597.15
613.53	1588.99
613.88	1580.39
614.22	1572.07
614.57	1563.53
614.92	1555.44
615.27	1547.74
615.61	1539.41
615.96	1531.51
616.31	1523.96
616.65	1516.55
617.00	1509.03
617.35	1501.41
617.70	1493.08
618.04	1484.60
618.39	1476.48
618.74	1468.76
619.08	1460.35
619.43	1452.76
619.78	1445.88
620.12	1438.64
620.47	1431.03
620.82	1422.74
621.16	1415.38
621.51	1407.82
621.85	1400.10
622.20	1391.56
622.55	1383.18
622.89	1375.41
623.24	1367.83
623.59	1360.43
623.93	1352.80
624.28	1345.54
624.62	1337.91
624.97	1330.79
625.32	1324.04
625.66	1316.91
626.01	1309.80
626.35	1302.43
626.70	1294.65
627.04	1286.87
627.39	1279.08
627.73	1271.66
628.08	1264.88
628.43	1257.57
628.77	1250.25
629.12	1242.86
629.46	1235.72
629.81	1228.41
630.15	1221.19
630.50	1213.71
630.84	1205.55
631.19	1197.69
631.53	1190.16
631.88	1182.70
632.22	1175.11
632.57	1167.78
632.91	1160.20
633.26	1152.77
633.60	1145.38
633.95	1138.31
634.29	1131.28
634.64	1124.63
634.98	1117.19
635.32	1110.03
635.67	1103.50
636.01	1096.85
636.36	1089.84
636.70	1083.30
637.05	1076.68
637.39	1070.08
637.73	1063.58
638.08	1057.63
638.42	1051.57
638.77	1045.03
639.11	1038.39
639.45	1032.02
639.80	1025.43
640.14	1019.09
640.49	1012.48
640.83	1006.19
641.17	999.88
641.52	993.47
641.86	987.01
642.20	981.22
642.55	974.90
642.89	968.33
643.23	961.69
643.58	955.99
643.92	949.86
644.26	943.82
644.61	937.96
644.95	931.89
645.29	925.31
645.64	918.66
645.98	912.46
646.32	906.69
646.66	900.62
647.01	894.82
647.35	889.11
647.69	883.35
648.04	877.81
648.38	872.09
648.72	866.08
649.06	860.01
649.41	854.14
649.75	848.22
650.09	842.38
650.43	836.65
650.78	830.44
651.12	824.42
651.46	818.72
651.80	812.93
652.14	807.60
652.49	802.32
652.83	797.15
653.17	791.36
653.51	785.59
653.85	780.22
654.20	774.53
654.54	768.57
654.88	762.84
655.22	757.00
655.56	751.37
655.90	745.96
656.25	740.72
656.59	735.34
656.93	730.23
657.27	725.04
657.61	719.69
657.95	714.77
658.29	709.74
658.64	704.43
658.98	699.08
659.32	693.60
659.66	688.32
660.00	683.04
660.34	678.21
660.68	673.34
661.02	668.32
661.36	663.56
661.70	659.04
662.05	654.69
662.39	650.27
662.73	645.70
663.07	641.38
663.41	636.93
663.75	632.46
664.09	627.88
664.43	623.45
664.77	619.26
665.11	614.90
665.45	610.74
665.79	606.65
666.13	602.57
666.47	598.48
666.81	594.37
667.15	590.22
667.49	586.27
667.83	582.48
668.17	578.53
668.51	574.50
668.85	570.40
669.19	566.60
669.53	562.71
669.87	558.82
670.21	555.08
670.55	551.43
670.89	548.02
671.23	544.65
671.57	541.17
671.91	537.64
672.25	534.18
672.58	530.73
672.92	527.37
673.26	524.16
673.60	521.03
673.94	517.90
674.28	515.03
674.62	512.08
674.96	508.92
675.30	505.99
675.64	503.04
675.97	500.30
676.31	497.38
676.65	494.49
676.99	491.85
677.33	488.96
677.67	486.10
678.01	483.05
678.34	480.01
678.68	477.11
679.02	474.29
679.36	471.55
679.70	468.80
680.04	466.04
680.37	463.12
680.71	460.33
681.05	457.73
681.39	454.98
681.73	452.30
682.06	449.78
682.40	447.22
682.74	444.70
683.08	442.18
683.42	439.61
683.75	437.14
684.09	434.53
684.43	432.04
684.77	429.63
685.10	427.28
685.44	425.05
685.78	422.80
686.12	420.55
686.45	418.23
686.79	415.93
687.13	413.77
687.46	411.65
687.80	409.52
688.14	407.28
688.48	405.18
688.81	402.96
689.15	400.79
689.49	398.65
689.82	396.61
690.16	394.54
690.50	392.58
690.83	390.63
691.17	388.66
691.51	386.80
691.84	384.96
692.18	383.01
692.52	381.00
692.85	379.10
693.19	377.21
693.52	375.41
693.86	373.64
694.20	371.83
694.53	370.11
694.87	368.27
695.21	366.52
695.54	364.69
695.88	362.94
696.21	361.24
696.55	359.55
696.88	357.88
697.22	356.20
697.56	354.62
697.89	352.92
698.23	351.32
698.56	349.71
698.90	348.10
699.23	346.44
699.57	344.90
699.90	343.36
700.24	341.83
700.58	340.28
700.91	338.77
701.25	337.31
701.58	335.90
701.92	334.49
702.25	333.07
702.59	331.76
702.92	330.47
703.26	329.15
703.59	327.86
703.93	326.63
704.26	325.40
704.60	324.02
704.93	322.85
705.26	321.62
705.60	320.44
705.93	319.25
706.27	318.25
706.60	317.16
706.94	316.05
707.27	314.91
707.61	313.81
707.94	312.76
708.27	311.67
708.61	310.55
708.94	309.52
709.28	308.56
709.61	307.56
709.94	306.58
710.28	305.56
710.61	304.59
710.95	303.50
711.28	302.55
711.61	301.61
711.95	300.64
712.28	299.69
712.61	298.69
712.95	297.78
713.28	296.89
713.61	296.01
713.95	295.13
714.28	294.27
714.61	293.43
714.95	292.60
715.28	291.75
715.61	290.91
715.95	290.08
716.28	289.17
716.61	288.34
716.95	287.54
717.28	286.80
717.61	286.01
717.94	285.28
718.28	284.52
718.61	283.80
718.94	283.13
719.27	282.46
719.61	281.82
719.94	281.12
720.27	280.41
720.60	279.73
720.94	279.09
721.27	278.51
721.60	277.90
721.93	277.26
722.27	276.69
722.60	276.11
722.93	275.59
723.26	275.08
723.59	274.53
723.93	273.98
724.26	273.46
724.59	272.94
724.92	272.43
725.25	271.91
725.59	271.38
725.92	270.86
726.25	270.33
726.58	269.85
726.91	269.40
727.24	268.91
727.57	268.45
727.91	267.93
728.24	267.50
728.57	267.06
728.90	266.68
729.23	266.17
729.56	265.79
729.89	265.29
730.22	264.78
730.55	264.28
730.89	263.85
731.22	263.39
731.55	262.95
731.88	262.53
732.21	262.08
732.54	261.69
732.87	261.29
733.20	260.93
733.53	260.55
733.86	260.16
734.19	259.77
734.52	259.42
734.85	259.17
735.18	258.73
735.51	258.39
735.84	257.98
736.17	257.67
736.50	257.24
736.83	257.02
737.16	256.75
737.49	256.48
737.82	256.12
738.15	255.78
738.48	255.45
738.81	255.14
739.14	254.80
739.47	254.49
739.80	254.15
740.13	253.80
740.46	253.46
740.79	253.13
741.12	252.86
741.45	252.49
741.78	252.10
742.11	251.82
742.44	251.47
742.77	251.21
743.10	250.87
743.43	250.57
743.75	250.18
744.08	250.00
744.41	249.70
744.74	249.44
745.07	249.15
745.40	248.90
745.73	248.64
746.06	248.37
746.39	248.08
746.71	247.80
747.04	247.56
747.37	247.31
747.70	247.06
748.03	246.78
748.36	246.59
748.68	246.32
749.01	246.11
749.34	245.84
749.67	245.60
750.00	245.43
750.33	245.27
750.65	245.05
750.98	244.72
751.31	244.47
751.64	244.25
751.97	244.12
752.29	243.89
752.62	243.65
752.95	243.47
753.28	243.26
753.60	243.06
753.93	242.88
754.26	242.67
754.59	242.45
754.91	242.24
755.24	242.04
755.57	241.89
755.90	241.71
756.22	241.55
756.55	241.34
756.88	241.08
757.20	240.87
757.53	240.66
757.86	240.46
758.19	240.34
758.51	240.15
758.84	239.94
759.17	239.76
759.49	239.61
759.82	239.49
760.15	239.33
760.47	239.22
760.80	239.06
761.13	238.94
761.45	238.79
761.78	238.64
762.11	238.49
762.43	238.30
762.76	238.11
763.08	237.98
763.41	237.84
763.74	237.73
764.06	237.57
764.39	237.45
764.71	237.32
765.04	237.16
765.37	237.05
765.69	236.91
766.02	236.83
766.34	236.69
766.67	236.51
767.00	236.42
767.32	236.33
767.65	236.26
767.97	236.11
768.30	236.04
768.62	235.93
768.95	235.84
769.27	235.74
769.60	235.65
769.92	235.53
770.25	235.41
770.57	235.32
770.90	235.23
771.22	235.13
771.55	235.03
771.87	234.94
772.20	234.83
772.52	234.82
772.85	234.77
773.17	234.66
773.50	234.55
773.82	234.45
774.15	234.30
774.47	234.17
774.80	234.10
775.12	234.01
775.45	233.92
775.77	233.85
776.09	233.78
776.42	233.68
776.74	233.61
777.07	233.54
777.39	233.46
777.72	233.38
778.04	233.34
778.36	233.27
778.69	233.21
779.01	233.15
779.33	233.00
779.66	232.87
779.98	232.83
780.31	232.79
780.63	232.77
780.95	232.72
781.28	232.66
781.60	232.62
781.92	232.54
782.25	232.49
782.57	232.37
782.89	232.31
783.22	232.25
783.54	232.23
783.86	232.18
784.19	232.11
784.51	232.09
784.83	232.02
785.16	231.95
785.48	231.90
785.80	231.87
786.12	231.83
786.45	231.76
786.77	231.75
787.09	231.71
