SpectraSuite Data File
++++++++++++++++++++++++++++++++++++
Date: Fri Feb 01 17:28:22 EST 2013
User: group
Dark Spectrum Present: No
Reference Spectrum Present: No
Number of Sampled Component Spectra: 1
Spectrometers: USB2E7196
Integration Time (usec): 35000 (USB2E7196)
Spectra Averaged: 100 (USB2E7196)
Boxcar Smoothing: 10 (USB2E7196)
Correct for Electrical Dark: No (USB2E7196)
Strobe/Lamp Enabled: No (USB2E7196)
Correct for Detector Non-linearity: No (USB2E7196)
Correct for Stray Light: No (USB2E7196)
Number of Pixels in Processed Spectrum: 2048
>>>>>Begin Processed Spectral Data<<<<<
339.09	0.00
339.48	213.12
339.86	214.80
340.24	215.91
340.63	217.40
341.01	220.15
341.39	219.46
341.78	221.45
342.16	222.11
342.54	222.73
342.93	211.43
343.31	222.11
343.69	222.64
344.07	223.09
344.46	223.50
344.84	223.87
345.22	224.10
345.60	224.34
345.99	224.51
346.37	224.66
346.75	224.77
347.13	224.84
347.52	224.89
347.90	224.96
348.28	224.99
348.66	225.03
349.05	225.02
349.43	225.01
349.81	225.03
350.19	225.08
350.57	225.12
350.96	225.18
351.34	225.26
351.72	225.33
352.10	225.42
352.48	225.49
352.87	225.53
353.25	225.61
353.63	225.70
354.01	225.74
354.39	225.79
354.77	225.84
355.15	225.90
355.54	225.97
355.92	226.00
356.30	226.06
356.68	226.16
357.06	226.25
357.44	226.34
357.82	226.40
358.20	226.48
358.58	226.57
358.97	226.65
359.35	226.72
359.73	226.82
360.11	226.88
360.49	226.92
360.87	226.98
361.25	227.01
361.63	227.08
362.01	227.13
362.39	227.18
362.77	227.27
363.15	227.33
363.53	227.33
363.91	227.37
364.29	227.38
364.67	227.31
365.05	227.33
365.43	227.35
365.81	227.37
366.19	227.42
366.57	227.45
366.95	227.43
367.33	227.40
367.71	227.39
368.09	227.36
368.47	227.39
368.85	227.40
369.23	227.40
369.61	227.38
369.99	227.44
370.37	227.44
370.75	227.44
371.13	227.37
371.51	227.34
371.89	227.32
372.27	227.27
372.65	227.27
373.03	227.22
373.41	227.15
373.78	227.11
374.16	227.01
374.54	226.95
374.92	226.91
375.30	226.89
375.68	226.81
376.06	226.81
376.44	226.75
376.82	226.67
377.19	226.63
377.57	226.54
377.95	226.39
378.33	226.29
378.71	226.16
379.09	226.10
379.47	226.09
379.84	225.99
380.22	225.94
380.60	225.86
380.98	225.80
381.36	225.77
381.73	225.69
382.11	225.65
382.49	225.59
382.87	225.51
383.25	225.44
383.62	225.48
384.00	225.38
384.38	225.32
384.76	225.28
385.13	225.24
385.51	225.19
385.89	225.16
386.27	225.12
386.64	225.08
387.02	225.04
387.40	224.96
387.78	224.96
388.15	224.93
388.53	224.88
388.91	224.86
389.29	224.81
389.66	224.80
390.04	224.77
390.42	224.74
390.79	224.70
391.17	224.67
391.55	224.55
391.92	224.53
392.30	224.53
392.68	224.51
393.05	224.51
393.43	224.51
393.81	224.51
394.18	224.49
394.56	224.50
394.94	224.54
395.31	224.56
395.69	224.59
396.06	224.63
396.44	224.69
396.82	224.68
397.19	224.77
397.57	224.79
397.95	224.82
398.32	224.85
398.70	224.90
399.07	224.97
399.45	225.02
399.82	225.06
400.20	225.10
400.58	225.14
400.95	225.15
401.33	225.22
401.70	225.36
402.08	225.46
402.45	225.54
402.83	225.65
403.20	225.72
403.58	225.81
403.95	225.94
404.33	226.07
404.71	226.22
405.08	226.39
405.46	226.58
405.83	226.75
406.21	226.94
406.58	227.09
406.96	227.28
407.33	227.44
407.70	227.63
408.08	227.92
408.45	228.14
408.83	228.37
409.20	228.59
409.58	228.78
409.95	229.06
410.33	229.31
410.70	229.52
411.08	229.84
411.45	230.17
411.82	230.44
412.20	230.78
412.57	231.20
412.95	231.48
413.32	231.84
413.69	232.25
414.07	232.70
414.44	233.18
414.82	233.68
415.19	234.26
415.56	234.82
415.94	235.39
416.31	236.07
416.68	236.73
417.06	237.49
417.43	238.21
417.81	239.01
418.18	239.84
418.55	240.75
418.93	241.66
419.30	242.56
419.67	243.54
420.04	244.56
420.42	245.56
420.79	246.79
421.16	247.99
421.54	249.24
421.91	250.49
422.28	251.80
422.66	253.20
423.03	254.56
423.40	255.98
423.77	257.45
424.15	258.93
424.52	260.51
424.89	262.13
425.26	263.73
425.64	265.22
426.01	266.88
426.38	268.57
426.75	270.29
427.13	272.10
427.50	274.00
427.87	275.94
428.24	277.92
428.61	279.80
428.99	281.82
429.36	283.96
429.73	286.08
430.10	288.19
430.47	290.31
430.85	292.52
431.22	294.84
431.59	297.29
431.96	299.62
432.33	302.21
432.70	304.73
433.08	307.70
433.45	310.49
433.82	313.21
434.19	316.21
434.56	319.14
434.93	321.88
435.30	324.60
435.68	327.57
436.05	330.46
436.42	333.33
436.79	335.92
437.16	338.75
437.53	341.69
437.90	344.60
438.27	347.44
438.64	350.34
439.01	353.07
439.38	355.42
439.75	357.69
440.13	360.26
440.50	362.64
440.87	364.52
441.24	366.51
441.61	368.74
441.98	370.34
442.35	372.19
442.72	374.09
443.09	375.98
443.46	377.05
443.83	377.70
444.20	378.22
444.57	379.14
444.94	379.45
445.31	379.85
445.68	380.21
446.05	380.34
446.42	379.98
446.79	379.53
447.16	379.08
447.53	378.72
447.90	377.53
448.27	376.37
448.64	374.74
449.01	373.56
449.37	371.52
449.74	369.54
450.11	367.25
450.48	364.76
450.85	362.15
451.22	359.98
451.59	357.91
451.96	355.90
452.33	353.20
452.70	350.74
453.07	347.84
453.43	344.84
453.80	341.97
454.17	339.21
454.54	336.56
454.91	333.74
455.28	331.02
455.65	328.43
456.02	325.90
456.38	323.66
456.75	320.89
457.12	318.55
457.49	316.26
457.86	314.02
458.23	312.06
458.59	309.89
458.96	307.69
459.33	305.75
459.70	303.79
460.07	302.23
460.43	300.44
460.80	298.73
461.17	297.23
461.54	295.65
461.91	294.13
462.27	292.64
462.64	291.33
463.01	289.92
463.38	288.57
463.74	287.11
464.11	285.91
464.48	284.84
464.85	283.69
465.21	282.76
465.58	281.79
465.95	280.68
466.32	279.77
466.68	278.82
467.05	277.86
467.42	276.97
467.78	276.01
468.15	275.11
468.52	274.41
468.88	273.49
469.25	272.67
469.62	272.05
469.98	271.35
470.35	270.72
470.72	270.11
471.08	269.45
471.45	268.90
471.82	268.38
472.18	267.79
472.55	267.34
472.92	266.83
473.28	266.32
473.65	265.86
474.02	265.41
474.38	265.00
474.75	264.68
475.11	264.32
475.48	264.03
475.85	263.83
476.21	263.58
476.58	263.44
476.94	263.33
477.31	263.15
477.67	262.97
478.04	262.84
478.41	262.72
478.77	262.78
479.14	262.70
479.50	262.69
479.87	262.75
480.23	262.81
480.60	262.88
480.96	262.99
481.33	263.20
481.69	263.38
482.06	263.58
482.42	263.77
482.79	264.00
483.15	264.29
483.52	264.64
483.88	264.99
484.25	265.34
484.61	265.76
484.98	266.21
485.34	266.78
485.71	267.32
486.07	267.95
486.44	268.45
486.80	269.16
487.17	269.89
487.53	270.68
487.90	271.56
488.26	272.50
488.62	273.49
488.99	274.42
489.35	275.44
489.72	276.56
490.08	277.77
490.44	278.97
490.81	280.32
491.17	281.67
491.54	283.13
491.90	284.66
492.26	286.30
492.63	288.02
492.99	289.78
493.36	291.67
493.72	293.70
494.08	295.79
494.45	298.06
494.81	300.42
495.17	302.86
495.54	305.39
495.90	308.01
496.26	310.77
496.63	313.71
496.99	316.82
497.35	320.07
497.72	323.43
498.08	326.98
498.44	330.62
498.80	334.50
499.17	338.51
499.53	342.64
499.89	346.96
500.26	351.41
500.62	356.03
500.98	361.03
501.34	366.05
501.71	371.31
502.07	376.66
502.43	382.21
502.79	387.93
503.16	393.94
503.52	400.11
503.88	406.44
504.24	412.99
504.60	419.76
504.97	426.75
505.33	433.98
505.69	441.52
506.05	449.14
506.41	456.93
506.78	465.01
507.14	473.29
507.50	481.82
507.86	490.66
508.22	499.69
508.59	508.62
508.95	518.05
509.31	527.66
509.67	537.57
510.03	547.63
510.39	558.01
510.75	568.48
511.12	579.22
511.48	590.28
511.84	601.52
512.20	612.78
512.56	624.51
512.92	636.39
513.28	648.45
513.64	660.57
514.00	672.98
514.37	685.50
514.73	698.30
515.09	711.02
515.45	723.98
515.81	737.25
516.17	750.94
516.53	764.65
516.89	778.50
517.25	792.33
517.61	806.42
517.97	820.50
518.33	834.70
518.69	849.03
519.05	863.56
519.41	878.26
519.77	893.38
520.13	908.37
520.49	923.36
520.85	938.28
521.21	953.59
521.57	969.20
521.93	984.57
522.29	1000.42
522.65	1016.23
523.01	1032.06
523.37	1047.62
523.73	1063.25
524.09	1078.95
524.45	1094.70
524.81	1110.78
525.17	1126.98
525.53	1143.36
525.89	1159.62
526.25	1176.01
526.61	1191.99
526.97	1208.29
527.33	1224.22
527.68	1240.30
528.04	1256.17
528.40	1272.29
528.76	1288.89
529.12	1305.12
529.48	1321.54
529.84	1337.10
530.20	1353.26
530.56	1369.56
530.91	1386.53
531.27	1402.89
531.63	1418.84
531.99	1435.07
532.35	1450.60
532.71	1466.13
533.07	1481.99
533.42	1497.53
533.78	1513.16
534.14	1528.99
534.50	1543.89
534.86	1559.39
535.21	1574.23
535.57	1589.94
535.93	1605.15
536.29	1619.49
536.65	1634.16
537.00	1648.63
537.36	1663.66
537.72	1677.88
538.08	1692.21
538.44	1705.72
538.79	1719.38
539.15	1732.72
539.51	1746.27
539.87	1760.49
540.22	1773.95
540.58	1787.49
540.94	1800.48
541.29	1813.11
541.65	1825.76
542.01	1838.73
542.37	1851.02
542.72	1863.21
543.08	1874.93
543.44	1887.23
543.79	1898.67
544.15	1909.69
544.51	1921.11
544.87	1932.02
545.22	1942.88
545.58	1952.99
545.94	1962.86
546.29	1972.77
546.65	1982.94
547.01	1992.28
547.36	2001.00
547.72	2009.74
548.07	2017.69
548.43	2026.22
548.79	2034.30
549.14	2042.00
549.50	2049.66
549.86	2057.44
550.21	2065.08
550.57	2072.37
550.92	2079.14
551.28	2086.28
551.64	2093.56
551.99	2100.35
552.35	2106.78
552.70	2113.17
553.06	2119.51
553.41	2125.97
553.77	2132.27
554.13	2138.37
554.48	2144.81
554.84	2150.79
555.19	2156.19
555.55	2161.65
555.90	2166.34
556.26	2171.81
556.61	2176.70
556.97	2181.51
557.32	2186.06
557.68	2190.51
558.03	2195.14
558.39	2199.24
558.74	2204.20
559.10	2208.44
559.45	2212.51
559.81	2217.11
560.16	2221.21
560.52	2224.83
560.87	2228.58
561.23	2231.55
561.58	2234.79
561.94	2237.61
562.29	2240.04
562.64	2243.21
563.00	2246.07
563.35	2249.88
563.71	2253.25
564.06	2256.80
564.42	2259.97
564.77	2262.88
565.12	2265.76
565.48	2268.21
565.83	2270.42
566.19	2272.19
566.54	2273.42
566.89	2275.01
567.25	2276.16
567.60	2277.93
567.96	2280.11
568.31	2281.36
568.66	2282.88
569.02	2283.89
569.37	2284.62
569.72	2286.05
570.08	2286.60
570.43	2287.17
570.78	2287.12
571.14	2286.03
571.49	2285.03
571.84	2285.00
572.20	2284.26
572.55	2283.37
572.90	2281.98
573.26	2281.05
573.61	2279.56
573.96	2278.38
574.31	2275.83
574.67	2273.17
575.02	2269.83
575.37	2266.68
575.72	2263.40
576.08	2260.35
576.43	2257.40
576.78	2254.27
577.13	2251.34
577.49	2248.41
577.84	2245.27
578.19	2241.82
578.54	2238.57
578.90	2234.96
579.25	2229.75
579.60	2225.13
579.95	2220.59
580.30	2215.83
580.66	2211.00
581.01	2206.53
581.36	2201.82
581.71	2197.99
582.06	2193.98
582.42	2190.04
582.77	2185.17
583.12	2180.95
583.47	2176.73
583.82	2172.25
584.17	2167.24
584.53	2162.01
584.88	2156.72
585.23	2151.42
585.58	2146.04
585.93	2140.87
586.28	2136.18
586.63	2131.45
586.98	2126.76
587.34	2122.30
587.69	2117.71
588.04	2112.92
588.39	2107.49
588.74	2101.26
589.09	2095.33
589.44	2088.76
589.79	2082.65
590.14	2077.30
590.49	2070.87
590.84	2064.48
591.19	2058.59
591.54	2052.25
591.89	2045.40
592.25	2038.96
592.60	2031.94
592.95	2024.81
593.30	2017.57
593.65	2010.13
594.00	2003.31
594.35	1996.12
594.70	1988.07
595.05	1981.31
595.40	1974.12
595.75	1966.84
596.10	1960.90
596.45	1954.26
596.80	1948.26
597.15	1942.06
597.50	1935.31
597.85	1928.85
598.19	1922.51
598.54	1915.68
598.89	1909.23
599.24	1903.47
599.59	1897.09
599.94	1890.88
600.29	1884.68
600.64	1878.31
600.99	1871.15
601.34	1864.34
601.69	1857.34
602.04	1850.73
602.39	1843.50
602.74	1836.70
603.08	1829.91
603.43	1823.18
603.78	1816.08
604.13	1808.94
604.48	1801.84
604.83	1794.94
605.18	1788.31
605.53	1780.60
605.87	1772.67
606.22	1765.45
606.57	1757.35
606.92	1749.86
607.27	1742.93
607.62	1736.09
607.96	1728.83
608.31	1722.30
608.66	1714.85
609.01	1707.56
609.36	1700.19
609.70	1692.01
610.05	1683.93
610.40	1676.43
610.75	1668.15
611.10	1660.43
611.44	1651.81
611.79	1643.49
612.14	1634.74
612.49	1625.42
612.83	1616.74
613.18	1608.39
613.53	1600.33
613.88	1591.75
614.22	1583.46
614.57	1574.55
614.92	1566.37
615.27	1558.81
615.61	1550.42
615.96	1542.12
616.31	1534.32
616.65	1526.71
617.00	1519.17
617.35	1511.38
617.70	1502.98
618.04	1494.32
618.39	1485.86
618.74	1478.32
619.08	1470.07
619.43	1462.40
619.78	1455.39
620.12	1448.17
620.47	1440.70
620.82	1432.37
621.16	1424.76
621.51	1417.00
621.85	1409.33
622.20	1400.77
622.55	1392.28
622.89	1384.31
623.24	1376.68
623.59	1369.05
623.93	1361.44
624.28	1354.07
624.62	1346.44
624.97	1339.22
625.32	1332.39
625.66	1325.35
626.01	1318.05
626.35	1310.66
626.70	1302.77
627.04	1295.05
627.39	1287.16
627.73	1279.55
628.08	1272.43
628.43	1265.22
628.77	1257.89
629.12	1250.25
629.46	1242.97
629.81	1235.36
630.15	1227.90
630.50	1220.40
630.84	1212.27
631.19	1204.12
631.53	1196.41
631.88	1188.71
632.22	1180.94
632.57	1173.49
632.91	1165.93
633.26	1158.43
633.60	1150.86
633.95	1143.64
634.29	1136.37
634.64	1129.57
634.98	1122.26
635.32	1115.13
635.67	1108.42
636.01	1101.64
636.36	1094.82
636.70	1088.22
637.05	1081.72
637.39	1075.28
637.73	1068.76
638.08	1062.79
638.42	1056.75
638.77	1050.37
639.11	1043.94
639.45	1037.50
639.80	1030.86
640.14	1024.37
640.49	1017.94
640.83	1011.60
641.17	1005.44
641.52	999.27
641.86	992.80
642.20	986.86
642.55	980.39
642.89	973.89
643.23	967.24
643.58	961.47
643.92	955.27
644.26	949.27
644.61	943.16
644.95	937.14
645.29	930.62
645.64	923.94
645.98	917.47
646.32	911.39
646.66	905.36
647.01	899.51
647.35	893.79
647.69	887.81
648.04	882.17
648.38	876.39
648.72	870.33
649.06	864.30
649.41	858.31
649.75	852.46
650.09	846.49
650.43	840.79
650.78	834.60
651.12	828.64
651.46	822.82
651.80	817.11
652.14	811.67
652.49	806.23
652.83	801.07
653.17	795.55
653.51	789.95
653.85	784.50
654.20	778.90
654.54	772.86
654.88	767.07
655.22	761.14
655.56	755.23
655.90	749.69
656.25	744.38
656.59	739.02
656.93	733.89
657.27	728.71
657.61	723.17
657.95	718.04
658.29	712.94
658.64	707.63
658.98	702.23
659.32	696.70
659.66	691.49
660.00	686.22
660.34	681.17
660.68	676.17
661.02	671.10
661.36	666.32
661.70	661.81
662.05	657.40
662.39	653.18
662.73	648.77
663.07	644.33
663.41	639.87
663.75	635.42
664.09	630.82
664.43	626.43
664.77	622.38
665.11	618.10
665.45	613.88
665.79	609.77
666.13	605.66
666.47	601.49
666.81	597.33
667.15	593.09
667.49	589.19
667.83	585.35
668.17	581.39
668.51	577.34
668.85	573.25
669.19	569.39
669.53	565.54
669.87	561.68
670.21	557.97
670.55	554.34
670.89	550.86
671.23	547.45
671.57	543.85
671.91	540.24
672.25	536.69
672.58	533.20
672.92	529.78
673.26	526.55
673.60	523.40
673.94	520.31
674.28	517.33
674.62	514.36
674.96	511.23
675.30	508.28
675.64	505.34
675.97	502.49
676.31	499.62
676.65	496.62
676.99	493.89
677.33	490.99
677.67	488.15
678.01	485.07
678.34	482.07
678.68	479.17
679.02	476.34
679.36	473.54
679.70	470.76
680.04	468.05
680.37	465.23
680.71	462.41
681.05	459.72
681.39	457.06
681.73	454.34
682.06	451.79
682.40	449.29
682.74	446.68
683.08	444.15
683.42	441.52
683.75	438.97
684.09	436.36
684.43	433.88
684.77	431.42
685.10	429.04
685.44	426.69
685.78	424.38
686.12	422.05
686.45	419.73
686.79	417.43
687.13	415.15
687.46	412.94
687.80	410.78
688.14	408.50
688.48	406.37
688.81	404.16
689.15	401.96
689.49	399.72
689.82	397.61
690.16	395.49
690.50	393.54
690.83	391.62
691.17	389.65
691.51	387.71
691.84	385.82
692.18	383.90
692.52	381.93
692.85	379.95
693.19	378.07
693.52	376.23
693.86	374.40
694.20	372.61
694.53	370.78
694.87	368.87
695.21	367.12
695.54	365.33
695.88	363.55
696.21	361.78
696.55	360.14
696.88	358.46
697.22	356.74
697.56	355.06
697.89	353.37
698.23	351.75
698.56	350.14
698.90	348.55
699.23	346.90
699.57	345.31
699.90	343.80
700.24	342.26
700.58	340.71
700.91	339.17
701.25	337.65
701.58	336.29
701.92	334.93
702.25	333.51
702.59	332.08
702.92	330.76
703.26	329.45
703.59	328.12
703.93	326.90
704.26	325.67
704.60	324.37
704.93	323.06
705.26	321.76
705.60	320.51
705.93	319.29
706.27	318.20
706.60	317.14
706.94	316.05
707.27	314.88
707.61	313.78
707.94	312.73
708.27	311.64
708.61	310.50
708.94	309.47
709.28	308.48
709.61	307.48
709.94	306.51
710.28	305.45
710.61	304.44
710.95	303.36
711.28	302.40
711.61	301.40
711.95	300.49
712.28	299.51
712.61	298.54
712.95	297.58
713.28	296.72
713.61	295.76
713.95	294.83
714.28	293.96
714.61	293.08
714.95	292.23
715.28	291.36
715.61	290.47
715.95	289.61
716.28	288.69
716.61	287.86
716.95	287.00
717.28	286.22
717.61	285.43
717.94	284.69
718.28	283.91
718.61	283.18
718.94	282.45
719.27	281.82
719.61	281.20
719.94	280.53
720.27	279.78
720.60	279.13
720.94	278.47
721.27	277.92
721.60	277.33
721.93	276.71
722.27	276.19
722.60	275.65
722.93	275.07
723.26	274.55
723.59	273.98
723.93	273.43
724.26	272.91
724.59	272.36
724.92	271.81
725.25	271.31
725.59	270.81
725.92	270.36
726.25	269.83
726.58	269.29
726.91	268.80
727.24	268.30
727.57	267.83
727.91	267.29
728.24	266.78
728.57	266.27
728.90	265.85
729.23	265.30
729.56	264.86
729.89	264.38
730.22	263.84
730.55	263.37
730.89	262.93
731.22	262.49
731.55	262.05
731.88	261.60
732.21	261.15
732.54	260.70
732.87	260.20
733.20	259.76
733.53	259.36
733.86	259.01
734.19	258.61
734.52	258.20
734.85	257.95
735.18	257.53
735.51	257.18
735.84	256.79
736.17	256.43
736.50	256.01
736.83	255.75
737.16	255.45
737.49	255.14
737.82	254.75
738.15	254.39
738.48	254.06
738.81	253.74
739.14	253.43
739.47	253.09
739.80	252.81
740.13	252.52
740.46	252.18
740.79	251.82
741.12	251.47
741.45	251.16
741.78	250.77
742.11	250.49
742.44	250.12
742.77	249.80
743.10	249.49
743.43	249.16
743.75	248.78
744.08	248.60
744.41	248.28
744.74	248.06
745.07	247.74
745.40	247.49
745.73	247.21
746.06	246.89
746.39	246.64
746.71	246.32
747.04	246.01
747.37	245.77
747.70	245.53
748.03	245.30
748.36	245.06
748.68	244.84
749.01	244.58
749.34	244.41
749.67	244.20
750.00	243.99
750.33	243.83
750.65	243.60
750.98	243.24
751.31	243.04
751.64	242.80
751.97	242.67
752.29	242.43
752.62	242.21
752.95	242.02
753.28	241.79
753.60	241.59
753.93	241.42
754.26	241.21
754.59	240.97
754.91	240.77
755.24	240.54
755.57	240.31
755.90	240.09
756.22	239.86
756.55	239.65
756.88	239.44
757.20	239.22
757.53	239.01
757.86	238.88
758.19	238.71
758.51	238.54
758.84	238.31
759.17	238.12
759.49	237.96
759.82	237.83
760.15	237.72
760.47	237.60
760.80	237.43
761.13	237.30
761.45	237.16
761.78	237.01
762.11	236.87
762.43	236.73
762.76	236.63
763.08	236.54
763.41	236.39
763.74	236.26
764.06	236.12
764.39	235.98
764.71	235.82
765.04	235.68
765.37	235.53
765.69	235.42
766.02	235.32
766.34	235.19
766.67	235.08
767.00	234.95
767.32	234.86
767.65	234.80
767.97	234.69
768.30	234.60
768.62	234.50
768.95	234.40
769.27	234.33
769.60	234.22
769.92	234.06
770.25	233.95
770.57	233.80
770.90	233.74
771.22	233.68
771.55	233.57
771.87	233.49
772.20	233.38
772.52	233.36
772.85	233.37
773.17	233.26
773.50	233.16
773.82	233.05
774.15	232.93
774.47	232.78
774.80	232.70
775.12	232.60
775.45	232.50
775.77	232.45
776.09	232.31
776.42	232.23
776.74	232.17
777.07	232.08
777.39	232.02
777.72	231.91
778.04	231.82
778.36	231.76
778.69	231.66
779.01	231.62
779.33	231.45
779.66	231.25
779.98	231.18
780.31	231.08
780.63	231.05
780.95	230.99
781.28	230.90
781.60	230.78
781.92	230.73
782.25	230.63
782.57	230.52
782.89	230.47
783.22	230.38
783.54	230.28
783.86	230.22
784.19	230.17
784.51	230.16
784.83	230.09
785.16	230.02
785.48	229.97
785.80	229.92
786.12	229.87
786.45	229.83
786.77	229.75
787.09	229.72
