SpectraSuite Data File
++++++++++++++++++++++++++++++++++++
Date: Fri Feb 01 16:03:43 EST 2013
User: group
Dark Spectrum Present: No
Reference Spectrum Present: No
Number of Sampled Component Spectra: 1
Spectrometers: USB2E7196
Integration Time (usec): 35000 (USB2E7196)
Spectra Averaged: 100 (USB2E7196)
Boxcar Smoothing: 10 (USB2E7196)
Correct for Electrical Dark: No (USB2E7196)
Strobe/Lamp Enabled: No (USB2E7196)
Correct for Detector Non-linearity: No (USB2E7196)
Correct for Stray Light: No (USB2E7196)
Number of Pixels in Processed Spectrum: 2048
>>>>>Begin Processed Spectral Data<<<<<
339.09	0.00
339.48	214.88
339.86	215.90
340.24	217.86
340.63	219.33
341.01	222.17
341.39	221.72
341.78	223.04
342.16	224.47
342.54	224.77
342.93	213.18
343.31	223.98
343.69	224.50
344.07	224.97
344.46	225.36
344.84	225.74
345.22	225.96
345.60	226.20
345.99	226.40
346.37	226.50
346.75	226.57
347.13	226.61
347.52	226.68
347.90	226.73
348.28	226.74
348.66	226.76
349.05	226.72
349.43	226.77
349.81	226.80
350.19	226.86
350.57	226.91
350.96	226.98
351.34	227.04
351.72	227.16
352.10	227.26
352.48	227.31
352.87	227.36
353.25	227.44
353.63	227.50
354.01	227.60
354.39	227.70
354.77	227.82
355.15	227.98
355.54	228.04
355.92	228.09
356.30	228.22
356.68	228.36
357.06	228.46
357.44	228.50
357.82	228.59
358.20	228.66
358.58	228.74
358.97	228.79
359.35	228.87
359.73	228.93
360.11	229.00
360.49	229.10
360.87	229.14
361.25	229.18
361.63	229.23
362.01	229.26
362.39	229.29
362.77	229.31
363.15	229.32
363.53	229.34
363.91	229.38
364.29	229.40
364.67	229.32
365.05	229.34
365.43	229.36
365.81	229.38
366.19	229.44
366.57	229.45
366.95	229.45
367.33	229.44
367.71	229.43
368.09	229.41
368.47	229.41
368.85	229.38
369.23	229.37
369.61	229.32
369.99	229.31
370.37	229.28
370.75	229.28
371.13	229.22
371.51	229.19
371.89	229.18
372.27	229.13
372.65	229.12
373.03	229.09
373.41	229.04
373.78	228.95
374.16	228.84
374.54	228.76
374.92	228.70
375.30	228.60
375.68	228.55
376.06	228.52
376.44	228.41
376.82	228.35
377.19	228.27
377.57	228.20
377.95	228.09
378.33	228.03
378.71	227.91
379.09	227.84
379.47	227.77
379.84	227.66
380.22	227.55
380.60	227.44
380.98	227.36
381.36	227.27
381.73	227.20
382.11	227.16
382.49	227.08
382.87	226.99
383.25	226.95
383.62	226.97
384.00	226.89
384.38	226.83
384.76	226.82
385.13	226.78
385.51	226.76
385.89	226.68
386.27	226.63
386.64	226.58
387.02	226.54
387.40	226.49
387.78	226.46
388.15	226.43
388.53	226.34
388.91	226.29
389.29	226.27
389.66	226.26
390.04	226.19
390.42	226.20
390.79	226.19
391.17	226.18
391.55	226.00
391.92	225.96
392.30	225.98
392.68	225.93
393.05	225.96
393.43	225.93
393.81	225.95
394.18	225.91
394.56	225.94
394.94	225.95
395.31	225.92
395.69	225.96
396.06	226.01
396.44	226.06
396.82	226.10
397.19	226.17
397.57	226.19
397.95	226.25
398.32	226.27
398.70	226.33
399.07	226.38
399.45	226.49
399.82	226.58
400.20	226.64
400.58	226.71
400.95	226.73
401.33	226.83
401.70	226.98
402.08	227.11
402.45	227.19
402.83	227.32
403.20	227.45
403.58	227.55
403.95	227.64
404.33	227.80
404.71	227.90
405.08	228.07
405.46	228.22
405.83	228.37
406.21	228.52
406.58	228.70
406.96	228.87
407.33	229.05
407.70	229.22
408.08	229.48
408.45	229.73
408.83	229.98
409.20	230.21
409.58	230.42
409.95	230.68
410.33	230.97
410.70	231.23
411.08	231.55
411.45	231.86
411.82	232.20
412.20	232.54
412.57	233.00
412.95	233.31
413.32	233.70
413.69	234.12
414.07	234.59
414.44	235.05
414.82	235.54
415.19	236.07
415.56	236.67
415.94	237.22
416.31	237.84
416.68	238.49
417.06	239.20
417.43	239.87
417.81	240.63
418.18	241.38
418.55	242.20
418.93	243.08
419.30	244.00
419.67	244.93
420.04	245.88
420.42	246.86
420.79	248.06
421.16	249.24
421.54	250.43
421.91	251.65
422.28	252.93
422.66	254.25
423.03	255.56
423.40	256.87
423.77	258.26
424.15	259.68
424.52	261.16
424.89	262.75
425.26	264.30
425.64	265.73
426.01	267.31
426.38	268.96
426.75	270.63
427.13	272.30
427.50	274.12
427.87	276.00
428.24	277.87
428.61	279.57
428.99	281.51
429.36	283.60
429.73	285.62
430.10	287.62
430.47	289.72
430.85	291.82
431.22	294.05
431.59	296.42
431.96	298.65
432.33	301.10
432.70	303.48
433.08	306.27
433.45	308.94
433.82	311.54
434.19	314.42
434.56	317.22
434.93	319.88
435.30	322.47
435.68	325.33
436.05	328.13
436.42	330.92
436.79	333.41
437.16	336.11
437.53	338.94
437.90	341.72
438.27	344.41
438.64	347.21
439.01	349.77
439.38	352.01
439.75	354.20
440.13	356.69
440.50	359.02
440.87	360.85
441.24	362.76
441.61	364.96
441.98	366.42
442.35	368.21
442.72	370.09
443.09	371.92
443.46	372.90
443.83	373.54
444.20	374.06
444.57	374.89
444.94	375.17
445.31	375.51
445.68	375.90
446.05	375.97
446.42	375.60
446.79	375.18
447.16	374.71
447.53	374.39
447.90	373.23
448.27	372.07
448.64	370.47
449.01	369.33
449.37	367.34
449.74	365.49
450.11	363.26
450.48	360.77
450.85	358.22
451.22	356.09
451.59	354.03
451.96	352.05
452.33	349.44
452.70	347.09
453.07	344.27
453.43	341.31
453.80	338.55
454.17	335.91
454.54	333.41
454.91	330.74
455.28	328.07
455.65	325.56
456.02	323.13
456.38	321.04
456.75	318.39
457.12	316.18
457.49	313.96
457.86	311.83
458.23	309.97
458.59	307.93
458.96	305.87
459.33	304.05
459.70	302.26
460.07	300.79
460.43	299.07
460.80	297.47
461.17	296.09
461.54	294.62
461.91	293.18
462.27	291.74
462.64	290.47
463.01	289.15
463.38	287.89
463.74	286.55
464.11	285.37
464.48	284.35
464.85	283.20
465.21	282.32
465.58	281.35
465.95	280.25
466.32	279.35
466.68	278.44
467.05	277.53
467.42	276.64
467.78	275.75
468.15	274.91
468.52	274.25
468.88	273.38
469.25	272.64
469.62	272.00
469.98	271.30
470.35	270.67
470.72	270.04
471.08	269.39
471.45	268.84
471.82	268.27
472.18	267.68
472.55	267.26
472.92	266.73
473.28	266.26
473.65	265.85
474.02	265.44
474.38	265.10
474.75	264.76
475.11	264.42
475.48	264.11
475.85	263.85
476.21	263.62
476.58	263.44
476.94	263.26
477.31	263.13
477.67	262.99
478.04	262.86
478.41	262.81
478.77	262.85
479.14	262.77
479.50	262.77
479.87	262.83
480.23	262.91
480.60	263.01
480.96	263.15
481.33	263.36
481.69	263.50
482.06	263.66
482.42	263.88
482.79	264.09
483.15	264.40
483.52	264.76
483.88	265.09
484.25	265.47
484.61	265.90
484.98	266.33
485.34	266.87
485.71	267.48
486.07	268.08
486.44	268.64
486.80	269.34
487.17	270.11
487.53	270.91
487.90	271.77
488.26	272.66
488.62	273.61
488.99	274.52
489.35	275.57
489.72	276.75
490.08	277.95
490.44	279.21
490.81	280.55
491.17	281.95
491.54	283.47
491.90	284.98
492.26	286.66
492.63	288.39
492.99	290.20
493.36	292.09
493.72	294.14
494.08	296.24
494.45	298.53
494.81	300.89
495.17	303.34
495.54	305.89
495.90	308.61
496.26	311.48
496.63	314.51
496.99	317.61
497.35	320.84
497.72	324.21
498.08	327.74
498.44	331.42
498.80	335.30
499.17	339.36
499.53	343.53
499.89	347.90
500.26	352.45
500.62	357.12
500.98	362.12
501.34	367.19
501.71	372.52
502.07	377.98
502.43	383.60
502.79	389.43
503.16	395.51
503.52	401.79
503.88	408.16
504.24	414.81
504.60	421.77
504.97	428.92
505.33	436.25
505.69	443.98
506.05	451.81
506.41	459.76
506.78	467.89
507.14	476.44
507.50	485.16
507.86	494.23
508.22	503.40
508.59	512.60
508.95	522.22
509.31	532.11
509.67	542.15
510.03	552.40
510.39	562.96
510.75	573.80
511.12	584.73
511.48	596.11
511.84	607.60
512.20	619.13
512.56	631.01
512.92	643.29
513.28	655.59
513.64	668.09
514.00	680.74
514.37	693.72
514.73	706.75
515.09	719.80
515.45	733.00
515.81	746.54
516.17	760.59
516.53	774.72
516.89	788.87
517.25	803.07
517.61	817.55
517.97	831.96
518.33	846.38
518.69	861.09
519.05	876.00
519.41	891.10
519.77	906.54
520.13	922.04
520.49	937.40
520.85	952.90
521.21	968.47
521.57	984.74
521.93	1000.45
522.29	1016.81
522.65	1032.99
523.01	1049.22
523.37	1065.32
523.73	1081.35
524.09	1097.43
524.45	1113.73
524.81	1130.31
525.17	1147.07
525.53	1163.98
525.89	1180.79
526.25	1197.63
526.61	1214.04
526.97	1230.75
527.33	1247.25
527.68	1263.81
528.04	1280.26
528.40	1296.71
528.76	1313.77
529.12	1330.33
529.48	1347.17
529.84	1363.18
530.20	1379.81
530.56	1396.74
530.91	1414.20
531.27	1430.89
531.63	1447.25
531.99	1463.70
532.35	1479.60
532.71	1495.46
533.07	1511.68
533.42	1527.54
533.78	1543.60
534.14	1559.84
534.50	1575.08
534.86	1590.93
535.21	1606.07
535.57	1621.85
535.93	1637.34
536.29	1652.02
536.65	1666.94
537.00	1681.59
537.36	1696.74
537.72	1711.24
538.08	1725.60
538.44	1739.31
538.79	1753.29
539.15	1766.90
539.51	1780.64
539.87	1794.91
540.22	1808.60
540.58	1822.29
540.94	1835.57
541.29	1848.39
541.65	1861.07
542.01	1874.29
542.37	1886.57
542.72	1899.00
543.08	1910.64
543.44	1923.03
543.79	1934.40
544.15	1945.55
544.51	1957.13
544.87	1968.14
545.22	1978.76
545.58	1988.99
545.94	1998.61
546.29	2008.47
546.65	2018.23
547.01	2027.30
547.36	2036.01
547.72	2044.49
548.07	2052.31
548.43	2060.39
548.79	2068.49
549.14	2075.82
549.50	2083.10
549.86	2090.70
550.21	2098.00
550.57	2105.44
550.92	2111.92
551.28	2118.78
551.64	2125.67
551.99	2132.21
552.35	2138.32
552.70	2144.55
553.06	2150.44
553.41	2156.85
553.77	2162.66
554.13	2168.83
554.48	2175.15
554.84	2180.73
555.19	2186.07
555.55	2191.27
555.90	2195.84
556.26	2200.59
556.61	2205.50
556.97	2209.89
557.32	2214.09
557.68	2218.22
558.03	2222.39
558.39	2226.12
558.74	2230.95
559.10	2234.76
559.45	2238.54
559.81	2242.89
560.16	2246.75
560.52	2250.11
560.87	2253.48
561.23	2256.37
561.58	2259.31
561.94	2261.92
562.29	2264.30
562.64	2266.86
563.00	2269.43
563.35	2272.90
563.71	2276.11
564.06	2279.14
564.42	2282.07
564.77	2284.47
565.12	2286.69
565.48	2288.54
565.83	2290.46
566.19	2291.48
566.54	2292.54
566.89	2293.57
567.25	2294.11
567.60	2295.48
567.96	2297.10
568.31	2298.03
568.66	2299.01
569.02	2299.60
569.37	2299.85
569.72	2300.66
570.08	2300.92
570.43	2300.97
570.78	2300.35
571.14	2298.75
571.49	2297.54
571.84	2297.09
572.20	2296.07
572.55	2295.03
572.90	2293.48
573.26	2292.01
573.61	2290.53
573.96	2288.64
574.31	2285.68
574.67	2282.70
575.02	2279.07
575.37	2275.66
575.72	2271.89
576.08	2268.59
576.43	2265.33
576.78	2261.52
577.13	2258.36
577.49	2255.26
577.84	2251.68
578.19	2248.07
578.54	2244.46
578.90	2240.29
579.25	2234.68
579.60	2229.67
579.95	2224.75
580.30	2219.76
580.66	2214.69
581.01	2209.81
581.36	2205.01
581.71	2200.94
582.06	2196.40
582.42	2191.94
582.77	2186.82
583.12	2182.35
583.47	2177.53
583.82	2172.52
584.17	2167.49
584.53	2162.12
584.88	2156.56
585.23	2150.95
585.58	2145.57
585.93	2140.12
586.28	2135.34
586.63	2130.39
586.98	2125.58
587.34	2120.76
587.69	2116.00
588.04	2110.68
588.39	2105.03
588.74	2098.55
589.09	2092.34
589.44	2085.77
589.79	2079.85
590.14	2074.36
590.49	2067.62
590.84	2061.41
591.19	2055.36
591.54	2048.88
591.89	2041.33
592.25	2034.34
592.60	2027.06
592.95	2019.45
593.30	2012.09
593.65	2004.52
594.00	1997.45
594.35	1990.07
594.70	1982.16
595.05	1974.88
595.40	1967.67
595.75	1960.09
596.10	1953.95
596.45	1947.19
596.80	1940.93
597.15	1934.32
597.50	1927.00
597.85	1920.67
598.19	1913.98
598.54	1906.85
598.89	1900.17
599.24	1894.39
599.59	1887.78
599.94	1881.64
600.29	1875.18
600.64	1868.60
600.99	1861.18
601.34	1854.40
601.69	1847.54
602.04	1840.66
602.39	1833.32
602.74	1826.44
603.08	1819.77
603.43	1812.93
603.78	1805.68
604.13	1798.43
604.48	1790.90
604.83	1784.00
605.18	1776.96
605.53	1769.08
605.87	1761.17
606.22	1753.82
606.57	1745.87
606.92	1738.65
607.27	1731.45
607.62	1724.70
607.96	1717.49
608.31	1710.75
608.66	1703.16
609.01	1695.54
609.36	1687.99
609.70	1680.00
610.05	1671.94
610.40	1664.16
610.75	1655.88
611.10	1648.09
611.44	1639.72
611.79	1631.81
612.14	1623.34
612.49	1614.17
612.83	1605.73
613.18	1597.57
613.53	1589.54
613.88	1580.89
614.22	1572.50
614.57	1563.87
614.92	1555.71
615.27	1548.12
615.61	1539.90
615.96	1531.83
616.31	1524.24
616.65	1516.81
617.00	1509.13
617.35	1501.49
617.70	1493.18
618.04	1484.68
618.39	1476.51
618.74	1468.89
619.08	1460.57
619.43	1452.98
619.78	1446.06
620.12	1438.81
620.47	1431.31
620.82	1423.25
621.16	1415.98
621.51	1408.40
621.85	1400.81
622.20	1392.27
622.55	1383.97
622.89	1376.13
623.24	1368.58
623.59	1361.20
623.93	1353.72
624.28	1346.60
624.62	1339.07
624.97	1331.89
625.32	1325.13
625.66	1318.24
626.01	1311.03
626.35	1303.54
626.70	1295.71
627.04	1288.01
627.39	1280.30
627.73	1272.99
628.08	1265.95
628.43	1258.57
628.77	1251.23
629.12	1243.64
629.46	1236.50
629.81	1229.12
630.15	1221.87
630.50	1214.30
630.84	1206.03
631.19	1198.15
631.53	1190.62
631.88	1183.09
632.22	1175.50
632.57	1168.19
632.91	1160.63
633.26	1153.22
633.60	1145.87
633.95	1138.79
634.29	1131.72
634.64	1125.02
634.98	1117.65
635.32	1110.49
635.67	1103.89
636.01	1097.17
636.36	1090.41
636.70	1083.93
637.05	1077.23
637.39	1070.66
637.73	1064.17
638.08	1058.20
638.42	1052.13
638.77	1045.62
639.11	1039.06
639.45	1032.73
639.80	1026.17
640.14	1019.70
640.49	1013.21
640.83	1007.00
641.17	1000.78
641.52	994.40
641.86	987.93
642.20	981.97
642.55	975.71
642.89	969.20
643.23	962.69
643.58	956.85
643.92	950.63
644.26	944.52
644.61	938.58
644.95	932.52
645.29	926.00
645.64	919.29
645.98	912.99
646.32	907.15
646.66	900.98
647.01	895.14
647.35	889.37
647.69	883.46
648.04	877.88
648.38	871.99
648.72	866.16
649.06	860.17
649.41	854.32
649.75	848.38
650.09	842.50
650.43	836.71
650.78	830.57
651.12	824.55
651.46	818.88
651.80	813.08
652.14	807.67
652.49	802.29
652.83	797.14
653.17	791.48
653.51	785.70
653.85	780.34
654.20	774.57
654.54	768.63
654.88	762.95
655.22	757.11
655.56	751.47
655.90	745.91
656.25	740.56
656.59	735.13
656.93	730.02
657.27	724.81
657.61	719.46
657.95	714.47
658.29	709.48
658.64	704.23
658.98	698.90
659.32	693.44
659.66	688.23
660.00	682.77
660.34	677.90
660.68	673.00
661.02	667.96
661.36	663.24
661.70	658.68
662.05	654.34
662.39	649.95
662.73	645.50
663.07	641.07
663.41	636.64
663.75	632.16
664.09	627.61
664.43	623.26
664.77	619.02
665.11	614.70
665.45	610.56
665.79	606.46
666.13	602.42
666.47	598.41
666.81	594.19
667.15	590.18
667.49	586.19
667.83	582.37
668.17	578.44
668.51	574.45
668.85	570.43
669.19	566.61
669.53	562.81
669.87	558.94
670.21	555.32
670.55	551.65
670.89	548.27
671.23	544.83
671.57	541.29
671.91	537.76
672.25	534.27
672.58	530.69
672.92	527.32
673.26	524.12
673.60	520.97
673.94	517.90
674.28	514.99
674.62	512.05
674.96	508.98
675.30	506.07
675.64	503.10
675.97	500.34
676.31	497.40
676.65	494.43
676.99	491.75
677.33	488.86
677.67	486.05
678.01	483.04
678.34	480.02
678.68	477.17
679.02	474.37
679.36	471.64
679.70	468.98
680.04	466.23
680.37	463.36
680.71	460.59
681.05	457.98
681.39	455.21
681.73	452.59
682.06	450.08
682.40	447.53
682.74	445.09
683.08	442.55
683.42	439.99
683.75	437.52
684.09	434.93
684.43	432.46
684.77	430.01
685.10	427.63
685.44	425.40
685.78	423.13
686.12	420.94
686.45	418.63
686.79	416.33
687.13	414.15
687.46	411.97
687.80	409.77
688.14	407.53
688.48	405.48
688.81	403.19
689.15	401.01
689.49	398.87
689.82	396.73
690.16	394.65
690.50	392.72
690.83	390.78
691.17	388.78
691.51	386.88
691.84	385.01
692.18	383.05
692.52	381.00
692.85	379.04
693.19	377.09
693.52	375.25
693.86	373.42
694.20	371.60
694.53	369.83
694.87	368.00
695.21	366.27
695.54	364.44
695.88	362.73
696.21	361.02
696.55	359.32
696.88	357.66
697.22	356.02
697.56	354.35
697.89	352.67
698.23	351.13
698.56	349.48
698.90	347.94
699.23	346.29
699.57	344.75
699.90	343.23
700.24	341.70
700.58	340.16
700.91	338.61
701.25	337.15
701.58	335.76
701.92	334.38
702.25	332.98
702.59	331.60
702.92	330.26
703.26	328.97
703.59	327.70
703.93	326.48
704.26	325.23
704.60	323.93
704.93	322.63
705.26	321.35
705.60	320.15
705.93	318.92
706.27	317.87
706.60	316.82
706.94	315.73
707.27	314.59
707.61	313.51
707.94	312.53
708.27	311.44
708.61	310.33
708.94	309.31
709.28	308.31
709.61	307.36
709.94	306.41
710.28	305.40
710.61	304.42
710.95	303.36
711.28	302.45
711.61	301.51
711.95	300.63
712.28	299.67
712.61	298.69
712.95	297.80
713.28	296.93
713.61	296.06
713.95	295.16
714.28	294.32
714.61	293.45
714.95	292.59
715.28	291.73
715.61	290.90
715.95	290.03
716.28	289.20
716.61	288.36
716.95	287.56
717.28	286.79
717.61	286.01
717.94	285.29
718.28	284.47
718.61	283.73
718.94	283.03
719.27	282.40
719.61	281.77
719.94	281.12
720.27	280.41
720.60	279.72
720.94	279.13
721.27	278.55
721.60	278.01
721.93	277.41
722.27	276.88
722.60	276.32
722.93	275.76
723.26	275.23
723.59	274.69
723.93	274.13
724.26	273.57
724.59	273.01
724.92	272.49
725.25	271.99
725.59	271.50
725.92	271.02
726.25	270.51
726.58	270.03
726.91	269.53
727.24	269.07
727.57	268.60
727.91	268.09
728.24	267.62
728.57	267.12
728.90	266.70
729.23	266.22
729.56	265.79
729.89	265.32
730.22	264.83
730.55	264.36
730.89	263.92
731.22	263.50
731.55	263.07
731.88	262.64
732.21	262.25
732.54	261.82
732.87	261.40
733.20	260.99
733.53	260.61
733.86	260.24
734.19	259.83
734.52	259.43
734.85	259.11
735.18	258.70
735.51	258.35
735.84	257.94
736.17	257.58
736.50	257.18
736.83	256.94
737.16	256.58
737.49	256.29
737.82	255.95
738.15	255.61
738.48	255.27
738.81	254.91
739.14	254.55
739.47	254.20
739.80	253.86
740.13	253.52
740.46	253.16
740.79	252.81
741.12	252.50
741.45	252.22
741.78	251.84
742.11	251.53
742.44	251.19
742.77	250.90
743.10	250.60
743.43	250.32
743.75	249.93
744.08	249.80
744.41	249.49
744.74	249.20
745.07	248.92
745.40	248.68
745.73	248.46
746.06	248.21
746.39	247.95
746.71	247.66
747.04	247.42
747.37	247.18
747.70	246.93
748.03	246.69
748.36	246.42
748.68	246.21
749.01	245.96
749.34	245.70
749.67	245.47
750.00	245.23
750.33	245.05
750.65	244.86
750.98	244.47
751.31	244.26
751.64	244.04
751.97	243.85
752.29	243.62
752.62	243.36
752.95	243.14
753.28	242.93
753.60	242.75
753.93	242.53
754.26	242.36
754.59	242.14
754.91	241.92
755.24	241.72
755.57	241.50
755.90	241.32
756.22	241.16
756.55	240.95
756.88	240.75
757.20	240.50
757.53	240.30
757.86	240.15
758.19	239.99
758.51	239.82
758.84	239.62
759.17	239.42
759.49	239.29
759.82	239.11
760.15	239.00
760.47	238.85
760.80	238.73
761.13	238.58
761.45	238.46
761.78	238.30
762.11	238.19
762.43	238.08
762.76	237.92
763.08	237.80
763.41	237.68
763.74	237.56
764.06	237.44
764.39	237.30
764.71	237.18
765.04	237.03
765.37	236.91
765.69	236.79
766.02	236.69
766.34	236.56
766.67	236.47
767.00	236.34
767.32	236.32
767.65	236.25
767.97	236.15
768.30	236.03
768.62	235.95
768.95	235.81
769.27	235.70
769.60	235.64
769.92	235.50
770.25	235.41
770.57	235.32
770.90	235.24
771.22	235.12
771.55	235.05
771.87	234.99
772.20	234.89
772.52	234.89
772.85	234.92
773.17	234.83
773.50	234.75
773.82	234.67
774.15	234.50
774.47	234.37
774.80	234.29
775.12	234.22
775.45	234.15
775.77	234.05
776.09	233.98
776.42	233.92
776.74	233.89
777.07	233.85
777.39	233.78
777.72	233.70
778.04	233.66
778.36	233.55
778.69	233.45
779.01	233.39
779.33	233.22
779.66	233.04
779.98	232.98
780.31	232.90
780.63	232.85
780.95	232.79
781.28	232.72
781.60	232.61
781.92	232.54
782.25	232.44
782.57	232.42
782.89	232.36
783.22	232.24
783.54	232.11
783.86	232.01
784.19	231.95
784.51	231.89
784.83	231.79
785.16	231.78
785.48	231.72
785.80	231.68
786.12	231.65
786.45	231.60
786.77	231.53
787.09	231.45
