SpectraSuite Data File
++++++++++++++++++++++++++++++++++++
Date: Fri Feb 01 18:03:13 EST 2013
User: group
Dark Spectrum Present: No
Reference Spectrum Present: No
Number of Sampled Component Spectra: 1
Spectrometers: USB2E7196
Integration Time (usec): 35000 (USB2E7196)
Spectra Averaged: 100 (USB2E7196)
Boxcar Smoothing: 10 (USB2E7196)
Correct for Electrical Dark: No (USB2E7196)
Strobe/Lamp Enabled: No (USB2E7196)
Correct for Detector Non-linearity: No (USB2E7196)
Correct for Stray Light: No (USB2E7196)
Number of Pixels in Processed Spectrum: 2048
>>>>>Begin Processed Spectral Data<<<<<
339.09	0.00
339.48	212.36
339.86	213.99
340.24	215.69
340.63	217.02
341.01	219.69
341.39	220.12
341.78	220.75
342.16	222.24
342.54	222.81
342.93	211.18
343.31	221.85
343.69	222.40
344.07	222.88
344.46	223.29
344.84	223.67
345.22	223.91
345.60	224.13
345.99	224.33
346.37	224.45
346.75	224.55
347.13	224.61
347.52	224.68
347.90	224.73
348.28	224.78
348.66	224.80
349.05	224.81
349.43	224.87
349.81	224.94
350.19	224.98
350.57	225.10
350.96	225.15
351.34	225.26
351.72	225.38
352.10	225.49
352.48	225.56
352.87	225.63
353.25	225.71
353.63	225.80
354.01	225.86
354.39	225.95
354.77	226.03
355.15	226.13
355.54	226.19
355.92	226.26
356.30	226.34
356.68	226.49
357.06	226.57
357.44	226.63
357.82	226.67
358.20	226.76
358.58	226.78
358.97	226.89
359.35	227.02
359.73	227.09
360.11	227.14
360.49	227.25
360.87	227.30
361.25	227.38
361.63	227.47
362.01	227.55
362.39	227.58
362.77	227.66
363.15	227.71
363.53	227.74
363.91	227.75
364.29	227.79
364.67	227.74
365.05	227.75
365.43	227.79
365.81	227.86
366.19	227.92
366.57	228.00
366.95	227.98
367.33	227.91
367.71	227.89
368.09	227.89
368.47	227.89
368.85	227.86
369.23	227.87
369.61	227.82
369.99	227.82
370.37	227.83
370.75	227.84
371.13	227.78
371.51	227.73
371.89	227.75
372.27	227.72
372.65	227.67
373.03	227.66
373.41	227.59
373.78	227.55
374.16	227.42
374.54	227.34
374.92	227.28
375.30	227.23
375.68	227.17
376.06	227.15
376.44	227.06
376.82	227.04
377.19	226.97
377.57	226.90
377.95	226.82
378.33	226.73
378.71	226.60
379.09	226.58
379.47	226.54
379.84	226.48
380.22	226.40
380.60	226.33
380.98	226.24
381.36	226.20
381.73	226.12
382.11	226.11
382.49	226.02
382.87	225.95
383.25	225.88
383.62	225.92
384.00	225.85
384.38	225.79
384.76	225.76
385.13	225.73
385.51	225.69
385.89	225.63
386.27	225.59
386.64	225.59
387.02	225.53
387.40	225.48
387.78	225.41
388.15	225.36
388.53	225.34
388.91	225.30
389.29	225.25
389.66	225.22
390.04	225.18
390.42	225.16
390.79	225.13
391.17	225.14
391.55	225.02
391.92	225.00
392.30	224.98
392.68	224.91
393.05	224.89
393.43	224.87
393.81	224.86
394.18	224.84
394.56	224.82
394.94	224.85
395.31	224.85
395.69	224.90
396.06	224.95
396.44	224.97
396.82	224.99
397.19	225.08
397.57	225.09
397.95	225.15
398.32	225.17
398.70	225.25
399.07	225.28
399.45	225.31
399.82	225.33
400.20	225.41
400.58	225.49
400.95	225.49
401.33	225.60
401.70	225.78
402.08	225.89
402.45	225.99
402.83	226.13
403.20	226.24
403.58	226.34
403.95	226.44
404.33	226.60
404.71	226.73
405.08	226.89
405.46	227.04
405.83	227.18
406.21	227.35
406.58	227.54
406.96	227.78
407.33	228.01
407.70	228.29
408.08	228.60
408.45	228.88
408.83	229.16
409.20	229.43
409.58	229.66
409.95	229.99
410.33	230.30
410.70	230.60
411.08	230.99
411.45	231.39
411.82	231.79
412.20	232.20
412.57	232.76
412.95	233.20
413.32	233.75
413.69	234.30
414.07	234.91
414.44	235.53
414.82	236.13
415.19	236.84
415.56	237.55
415.94	238.26
416.31	239.10
416.68	239.98
417.06	240.92
417.43	241.84
417.81	242.84
418.18	243.91
418.55	245.03
418.93	246.21
419.30	247.40
419.67	248.64
420.04	249.94
420.42	251.25
420.79	252.79
421.16	254.33
421.54	255.93
421.91	257.56
422.28	259.23
422.66	261.03
423.03	262.79
423.40	264.58
423.77	266.52
424.15	268.45
424.52	270.45
424.89	272.65
425.26	274.73
425.64	276.71
426.01	278.86
426.38	281.08
426.75	283.31
427.13	285.64
427.50	288.15
427.87	290.67
428.24	293.22
428.61	295.63
428.99	298.28
429.36	301.14
429.73	303.97
430.10	306.74
430.47	309.53
430.85	312.41
431.22	315.46
431.59	318.66
431.96	321.67
432.33	325.04
432.70	328.22
433.08	332.05
433.45	335.65
433.82	339.20
434.19	343.11
434.56	346.89
434.93	350.52
435.30	354.04
435.68	358.01
436.05	361.84
436.42	365.66
436.79	369.07
437.16	372.75
437.53	376.56
437.90	380.35
438.27	384.05
438.64	387.90
439.01	391.39
439.38	394.49
439.75	397.45
440.13	400.80
440.50	403.99
440.87	406.48
441.24	409.15
441.61	412.07
441.98	414.14
442.35	416.64
442.72	419.19
443.09	421.64
443.46	422.99
443.83	423.79
444.20	424.47
444.57	425.66
444.94	426.08
445.31	426.57
445.68	427.10
446.05	427.23
446.42	426.74
446.79	426.24
447.16	425.61
447.53	425.20
447.90	423.71
448.27	422.16
448.64	420.01
449.01	418.42
449.37	415.75
449.74	413.20
450.11	410.12
450.48	406.76
450.85	403.33
451.22	400.45
451.59	397.76
451.96	395.13
452.33	391.55
452.70	388.31
453.07	384.44
453.43	380.49
453.80	376.77
454.17	373.14
454.54	369.64
454.91	365.95
455.28	362.33
455.65	358.90
456.02	355.51
456.38	352.57
456.75	348.95
457.12	345.87
457.49	342.79
457.86	339.90
458.23	337.35
458.59	334.58
458.96	331.69
459.33	329.08
459.70	326.48
460.07	324.42
460.43	322.02
460.80	319.76
461.17	317.75
461.54	315.68
461.91	313.69
462.27	311.71
462.64	309.97
463.01	308.10
463.38	306.34
463.74	304.52
464.11	302.98
464.48	301.60
464.85	300.09
465.21	298.90
465.58	297.62
465.95	296.13
466.32	294.87
466.68	293.64
467.05	292.42
467.42	291.25
467.78	289.97
468.15	288.77
468.52	287.91
468.88	286.74
469.25	285.69
469.62	284.81
469.98	283.91
470.35	283.02
470.72	282.19
471.08	281.27
471.45	280.52
471.82	279.72
472.18	278.86
472.55	278.24
472.92	277.51
473.28	276.84
473.65	276.23
474.02	275.59
474.38	275.06
474.75	274.59
475.11	274.06
475.48	273.67
475.85	273.37
476.21	273.03
476.58	272.75
476.94	272.48
477.31	272.19
477.67	271.91
478.04	271.73
478.41	271.59
478.77	271.54
479.14	271.37
479.50	271.32
479.87	271.36
480.23	271.39
480.60	271.42
480.96	271.46
481.33	271.62
481.69	271.79
482.06	271.96
482.42	272.12
482.79	272.36
483.15	272.62
483.52	272.94
483.88	273.24
484.25	273.59
484.61	273.99
484.98	274.47
485.34	274.99
485.71	275.55
486.07	276.14
486.44	276.71
486.80	277.46
487.17	278.18
487.53	278.96
487.90	279.81
488.26	280.77
488.62	281.83
488.99	282.78
489.35	283.89
489.72	285.05
490.08	286.32
490.44	287.57
490.81	288.97
491.17	290.38
491.54	291.93
491.90	293.53
492.26	295.26
492.63	297.07
492.99	298.97
493.36	300.98
493.72	303.18
494.08	305.44
494.45	307.81
494.81	310.32
495.17	312.90
495.54	315.60
495.90	318.42
496.26	321.33
496.63	324.45
496.99	327.75
497.35	331.23
497.72	334.82
498.08	338.59
498.44	342.48
498.80	346.61
499.17	350.90
499.53	355.35
499.89	359.97
500.26	364.74
500.62	369.72
500.98	374.98
501.34	380.37
501.71	385.98
502.07	391.75
502.43	397.70
502.79	403.91
503.16	410.39
503.52	417.13
503.88	423.93
504.24	431.03
504.60	438.32
504.97	445.88
505.33	453.64
505.69	461.88
506.05	470.21
506.41	478.64
506.78	487.30
507.14	496.38
507.50	505.69
507.86	515.33
508.22	525.13
508.59	534.93
508.95	545.13
509.31	555.60
509.67	566.36
510.03	577.41
510.39	588.69
510.75	600.23
511.12	611.87
511.48	623.97
511.84	636.19
512.20	648.59
512.56	661.44
512.92	674.48
513.28	687.80
513.64	701.20
514.00	714.85
514.37	728.79
514.73	742.79
515.09	756.82
515.45	771.13
515.81	785.74
516.17	800.84
516.53	816.19
516.89	831.63
517.25	846.96
517.61	862.58
517.97	878.38
518.33	893.99
518.69	910.01
519.05	926.33
519.41	942.90
519.77	959.74
520.13	976.57
520.49	993.34
520.85	1010.09
521.21	1027.23
521.57	1044.96
521.93	1062.21
522.29	1080.10
522.65	1097.99
523.01	1115.77
523.37	1133.48
523.73	1151.26
524.09	1168.90
524.45	1186.85
524.81	1205.22
525.17	1223.69
525.53	1242.23
525.89	1260.84
526.25	1279.55
526.61	1297.70
526.97	1316.28
527.33	1334.63
527.68	1352.94
528.04	1371.37
528.40	1389.80
528.76	1408.72
529.12	1427.27
529.48	1446.21
529.84	1464.21
530.20	1482.71
530.56	1501.79
530.91	1521.25
531.27	1540.09
531.63	1558.62
531.99	1577.16
532.35	1595.29
532.71	1613.38
533.07	1631.70
533.42	1649.68
533.78	1667.73
534.14	1686.06
534.50	1703.38
534.86	1721.37
535.21	1738.74
535.57	1756.92
535.93	1774.66
536.29	1791.63
536.65	1808.90
537.00	1825.63
537.36	1843.22
537.72	1859.94
538.08	1876.59
538.44	1892.57
538.79	1908.63
539.15	1924.41
539.51	1940.38
539.87	1956.87
540.22	1972.78
540.58	1988.78
540.94	2004.33
541.29	2019.48
541.65	2034.60
542.01	2050.22
542.37	2064.76
542.72	2079.48
543.08	2093.54
543.44	2108.18
543.79	2121.69
544.15	2134.79
544.51	2148.80
544.87	2161.99
545.22	2175.09
545.58	2187.45
545.94	2199.42
546.29	2211.52
546.65	2223.63
547.01	2235.16
547.36	2246.09
547.72	2256.53
548.07	2266.60
548.43	2277.03
548.79	2287.02
549.14	2296.52
549.50	2305.73
549.86	2315.49
550.21	2324.85
550.57	2333.95
550.92	2342.59
551.28	2351.60
551.64	2360.81
551.99	2369.30
552.35	2377.42
552.70	2385.52
553.06	2393.52
553.41	2401.84
553.77	2409.76
554.13	2417.79
554.48	2425.74
554.84	2433.20
555.19	2440.36
555.55	2447.47
555.90	2453.80
556.26	2460.81
556.61	2467.35
556.97	2473.80
557.32	2479.68
557.68	2485.63
558.03	2491.55
558.39	2496.74
558.74	2503.28
559.10	2508.74
559.45	2513.89
559.81	2519.59
560.16	2525.03
560.52	2529.68
560.87	2534.48
561.23	2538.45
561.58	2542.73
561.94	2546.69
562.29	2550.30
562.64	2554.41
563.00	2558.20
563.35	2563.05
563.71	2567.32
564.06	2571.76
564.42	2575.76
564.77	2579.57
565.12	2583.08
565.48	2586.25
565.83	2589.52
566.19	2591.98
566.54	2593.87
566.89	2596.15
567.25	2598.01
567.60	2600.35
567.96	2603.30
568.31	2605.19
568.66	2607.54
569.02	2609.07
569.37	2610.21
569.72	2612.03
570.08	2613.08
570.43	2613.83
570.78	2614.01
571.14	2613.25
571.49	2612.41
571.84	2612.71
572.20	2612.23
572.55	2611.63
572.90	2610.41
573.26	2609.39
573.61	2607.82
573.96	2606.70
574.31	2603.94
574.67	2601.11
575.02	2597.58
575.37	2594.17
575.72	2590.51
576.08	2587.03
576.43	2583.78
576.78	2580.16
577.13	2576.78
577.49	2573.64
577.84	2570.30
578.19	2566.49
578.54	2562.92
578.90	2558.86
579.25	2552.90
579.60	2547.58
579.95	2542.31
580.30	2537.21
580.66	2531.76
581.01	2526.64
581.36	2521.32
581.71	2517.03
582.06	2512.38
582.42	2507.67
582.77	2502.08
583.12	2497.24
583.47	2492.52
583.82	2487.33
584.17	2481.88
584.53	2476.11
584.88	2470.03
585.23	2463.86
585.58	2457.80
585.93	2451.55
586.28	2446.26
586.63	2440.95
586.98	2435.50
587.34	2430.36
587.69	2424.93
588.04	2419.21
588.39	2412.99
588.74	2405.75
589.09	2398.89
589.44	2391.32
589.79	2384.50
590.14	2378.21
590.49	2370.72
590.84	2363.29
591.19	2356.52
591.54	2349.16
591.89	2341.04
592.25	2333.42
592.60	2324.99
592.95	2316.57
593.30	2308.39
593.65	2299.68
594.00	2291.51
594.35	2283.15
594.70	2273.92
595.05	2265.81
595.40	2257.37
595.75	2248.73
596.10	2241.69
596.45	2234.01
596.80	2226.92
597.15	2219.42
597.50	2211.56
597.85	2204.15
598.19	2196.54
598.54	2188.36
598.89	2180.69
599.24	2173.69
599.59	2166.03
599.94	2158.87
600.29	2151.52
600.64	2143.85
600.99	2135.36
601.34	2127.48
601.69	2119.57
602.04	2111.78
602.39	2103.23
602.74	2095.41
603.08	2087.62
603.43	2079.68
603.78	2071.11
604.13	2062.74
604.48	2054.39
604.83	2046.20
605.18	2038.32
605.53	2029.20
605.87	2019.80
606.22	2011.30
606.57	2002.03
606.92	1993.27
607.27	1984.98
607.62	1976.82
607.96	1968.31
608.31	1960.60
608.66	1951.73
609.01	1942.82
609.36	1933.94
609.70	1924.49
610.05	1915.10
610.40	1906.04
610.75	1896.30
611.10	1887.49
611.44	1877.47
611.79	1867.98
612.14	1857.85
612.49	1846.82
612.83	1836.79
613.18	1827.27
613.53	1817.66
613.88	1807.52
614.22	1797.82
614.57	1787.61
614.92	1778.16
615.27	1769.32
615.61	1759.51
615.96	1750.01
616.31	1740.90
616.65	1732.11
617.00	1723.18
617.35	1713.92
617.70	1704.12
618.04	1694.15
618.39	1684.31
618.74	1675.47
619.08	1665.60
619.43	1656.57
619.78	1648.55
620.12	1640.05
620.47	1631.15
620.82	1621.60
621.16	1612.93
621.51	1603.93
621.85	1595.02
622.20	1584.91
622.55	1574.98
622.89	1565.69
623.24	1556.65
623.59	1547.90
623.93	1539.18
624.28	1530.65
624.62	1521.82
624.97	1513.26
625.32	1505.24
625.66	1496.90
626.01	1488.44
626.35	1479.82
626.70	1470.61
627.04	1461.47
627.39	1452.31
627.73	1443.57
628.08	1435.42
628.43	1426.83
628.77	1418.23
629.12	1409.38
629.46	1400.99
629.81	1392.15
630.15	1383.67
630.50	1375.00
630.84	1365.42
631.19	1356.02
631.53	1347.15
631.88	1338.23
632.22	1329.31
632.57	1320.61
632.91	1311.79
633.26	1302.95
633.60	1294.13
633.95	1285.77
634.29	1277.47
634.64	1269.65
634.98	1260.96
635.32	1252.59
635.67	1244.80
636.01	1237.01
636.36	1229.01
636.70	1221.25
637.05	1213.71
637.39	1206.02
637.73	1198.42
638.08	1191.44
638.42	1184.36
638.77	1176.81
639.11	1169.19
639.45	1161.74
639.80	1153.97
640.14	1146.46
640.49	1138.88
640.83	1131.63
641.17	1124.41
641.52	1116.93
641.86	1109.28
642.20	1102.45
642.55	1094.95
642.89	1087.43
643.23	1079.69
643.58	1072.97
643.92	1065.79
644.26	1058.66
644.61	1051.66
644.95	1044.63
645.29	1037.02
645.64	1029.10
645.98	1021.69
646.32	1014.81
646.66	1007.80
647.01	1001.09
647.35	994.37
647.69	987.52
648.04	980.98
648.38	974.20
648.72	967.36
649.06	960.40
649.41	953.48
649.75	946.64
650.09	939.72
650.43	933.14
650.78	925.86
651.12	918.97
651.46	912.31
651.80	905.59
652.14	899.26
652.49	893.04
652.83	887.05
653.17	880.47
653.51	873.91
653.85	867.62
654.20	861.07
654.54	854.16
654.88	847.47
655.22	840.60
655.56	833.99
655.90	827.60
656.25	821.51
656.59	815.29
656.93	809.37
657.27	803.42
657.61	797.10
657.95	791.31
658.29	785.39
658.64	779.31
658.98	773.16
659.32	766.90
659.66	760.74
660.00	754.63
660.34	748.89
660.68	743.15
661.02	737.31
661.36	731.78
661.70	726.57
662.05	721.53
662.39	716.54
662.73	711.27
663.07	706.20
663.41	701.09
663.75	695.92
664.09	690.61
664.43	685.51
664.77	680.73
665.11	675.73
665.45	670.88
665.79	666.16
666.13	661.36
666.47	656.61
666.81	651.92
667.15	647.13
667.49	642.58
667.83	638.13
668.17	633.62
668.51	628.99
668.85	624.29
669.19	619.84
669.53	615.46
669.87	611.07
670.21	606.73
670.55	602.48
670.89	598.55
671.23	594.56
671.57	590.46
671.91	586.34
672.25	582.26
672.58	578.22
672.92	574.14
673.26	570.48
673.60	566.76
673.94	563.13
674.28	559.76
674.62	556.38
674.96	552.86
675.30	549.41
675.64	545.99
675.97	542.79
676.31	539.49
676.65	536.01
676.99	532.89
677.33	529.58
677.67	526.35
678.01	522.84
678.34	519.39
678.68	516.06
679.02	512.80
679.36	509.68
679.70	506.51
680.04	503.37
680.37	500.09
680.71	496.88
681.05	493.86
681.39	490.74
681.73	487.64
682.06	484.69
682.40	481.79
682.74	478.87
683.08	475.93
683.42	472.98
683.75	470.18
684.09	467.18
684.43	464.33
684.77	461.48
685.10	458.72
685.44	456.04
685.78	453.42
686.12	450.83
686.45	448.11
686.79	445.49
687.13	442.97
687.46	440.46
687.80	437.95
688.14	435.33
688.48	432.93
688.81	430.36
689.15	427.88
689.49	425.38
689.82	422.99
690.16	420.50
690.50	418.19
690.83	415.92
691.17	413.61
691.51	411.39
691.84	409.25
692.18	407.05
692.52	404.79
692.85	402.49
693.19	400.25
693.52	398.14
693.86	396.03
694.20	393.95
694.53	391.83
694.87	389.67
695.21	387.62
695.54	385.44
695.88	383.41
696.21	381.38
696.55	379.41
696.88	377.40
697.22	375.52
697.56	373.61
697.89	371.67
698.23	369.83
698.56	367.99
698.90	366.12
699.23	364.16
699.57	362.35
699.90	360.58
700.24	358.82
700.58	357.05
700.91	355.31
701.25	353.62
701.58	352.03
701.92	350.44
702.25	348.83
702.59	347.21
702.92	345.65
703.26	344.17
703.59	342.73
703.93	341.37
704.26	339.93
704.60	338.46
704.93	337.00
705.26	335.53
705.60	334.11
705.93	332.75
706.27	331.55
706.60	330.31
706.94	329.01
707.27	327.67
707.61	326.42
707.94	325.19
708.27	323.93
708.61	322.66
708.94	321.50
709.28	320.37
709.61	319.27
709.94	318.17
710.28	316.93
710.61	315.72
710.95	314.44
711.28	313.33
711.61	312.16
711.95	311.10
712.28	310.01
712.61	308.86
712.95	307.75
713.28	306.70
713.61	305.65
713.95	304.69
714.28	303.69
714.61	302.69
714.95	301.73
715.28	300.71
715.61	299.69
715.95	298.66
716.28	297.59
716.61	296.63
716.95	295.64
717.28	294.77
717.61	293.84
717.94	292.97
718.28	292.03
718.61	291.22
718.94	290.35
719.27	289.57
719.61	288.80
719.94	288.04
720.27	287.25
720.60	286.46
720.94	285.67
721.27	284.99
721.60	284.32
721.93	283.61
722.27	282.99
722.60	282.34
722.93	281.70
723.26	281.13
723.59	280.50
723.93	279.90
724.26	279.29
724.59	278.68
724.92	278.10
725.25	277.56
725.59	276.95
725.92	276.42
726.25	275.82
726.58	275.26
726.91	274.71
727.24	274.16
727.57	273.62
727.91	273.08
728.24	272.56
728.57	271.98
728.90	271.46
729.23	270.89
729.56	270.40
729.89	269.84
730.22	269.26
730.55	268.73
730.89	268.23
731.22	267.67
731.55	267.19
731.88	266.68
732.21	266.17
732.54	265.70
732.87	265.19
733.20	264.72
733.53	264.27
733.86	263.81
734.19	263.36
734.52	262.91
734.85	262.52
735.18	262.02
735.51	261.60
735.84	261.17
736.17	260.79
736.50	260.33
736.83	260.06
737.16	259.72
737.49	259.31
737.82	258.91
738.15	258.56
738.48	258.15
738.81	257.79
739.14	257.40
739.47	257.01
739.80	256.64
740.13	256.25
740.46	255.90
740.79	255.52
741.12	255.14
741.45	254.77
741.78	254.36
742.11	254.04
742.44	253.64
742.77	253.29
743.10	252.91
743.43	252.57
743.75	252.13
744.08	251.89
744.41	251.58
744.74	251.24
745.07	250.89
745.40	250.60
745.73	250.29
746.06	249.98
746.39	249.69
746.71	249.36
747.04	249.08
747.37	248.76
747.70	248.49
748.03	248.20
748.36	247.96
748.68	247.70
749.01	247.41
749.34	247.16
749.67	246.91
750.00	246.64
750.33	246.44
750.65	246.22
750.98	245.85
751.31	245.59
751.64	245.41
751.97	245.21
752.29	244.97
752.62	244.71
752.95	244.48
753.28	244.22
753.60	244.00
753.93	243.76
754.26	243.53
754.59	243.25
754.91	243.00
755.24	242.74
755.57	242.52
755.90	242.30
756.22	242.05
756.55	241.79
756.88	241.55
757.20	241.30
757.53	241.01
757.86	240.82
758.19	240.63
758.51	240.39
758.84	240.16
759.17	239.94
759.49	239.74
759.82	239.58
760.15	239.39
760.47	239.19
760.80	239.00
761.13	238.88
761.45	238.70
761.78	238.54
762.11	238.36
762.43	238.19
762.76	238.03
763.08	237.86
763.41	237.70
763.74	237.56
764.06	237.39
764.39	237.26
764.71	237.12
765.04	236.94
765.37	236.76
765.69	236.61
766.02	236.45
766.34	236.33
766.67	236.16
767.00	236.01
767.32	235.94
767.65	235.87
767.97	235.68
768.30	235.55
768.62	235.41
768.95	235.26
769.27	235.12
769.60	235.01
769.92	234.91
770.25	234.78
770.57	234.63
770.90	234.51
771.22	234.38
771.55	234.24
771.87	234.14
772.20	234.03
772.52	234.02
772.85	234.03
773.17	233.92
773.50	233.80
773.82	233.69
774.15	233.54
774.47	233.39
774.80	233.29
775.12	233.19
775.45	233.09
775.77	233.01
776.09	232.92
776.42	232.81
776.74	232.74
777.07	232.64
777.39	232.54
777.72	232.43
778.04	232.34
778.36	232.25
778.69	232.21
779.01	232.16
779.33	231.95
779.66	231.73
779.98	231.63
780.31	231.55
780.63	231.49
780.95	231.40
781.28	231.33
781.60	231.26
781.92	231.20
782.25	231.12
782.57	231.04
782.89	230.96
783.22	230.89
783.54	230.79
783.86	230.72
784.19	230.69
784.51	230.68
784.83	230.60
785.16	230.55
785.48	230.45
785.80	230.32
786.12	230.30
786.45	230.27
