SpectraSuite Data File
++++++++++++++++++++++++++++++++++++
Date: Fri Feb 01 15:45:59 EST 2013
User: group
Dark Spectrum Present: No
Reference Spectrum Present: No
Number of Sampled Component Spectra: 1
Spectrometers: USB2E7196
Integration Time (usec): 35000 (USB2E7196)
Spectra Averaged: 100 (USB2E7196)
Boxcar Smoothing: 10 (USB2E7196)
Correct for Electrical Dark: No (USB2E7196)
Strobe/Lamp Enabled: No (USB2E7196)
Correct for Detector Non-linearity: No (USB2E7196)
Correct for Stray Light: No (USB2E7196)
Number of Pixels in Processed Spectrum: 2048
>>>>>Begin Processed Spectral Data<<<<<
339.09	0.00
339.48	214.38
339.86	216.88
340.24	217.25
340.63	218.89
341.01	221.51
341.39	221.96
341.78	222.95
342.16	223.97
342.54	224.71
342.93	213.06
343.31	223.82
343.69	224.36
344.07	224.81
344.46	225.26
344.84	225.65
345.22	225.89
345.60	226.11
345.99	226.28
346.37	226.38
346.75	226.48
347.13	226.56
347.52	226.64
347.90	226.72
348.28	226.73
348.66	226.80
349.05	226.82
349.43	226.84
349.81	226.89
350.19	226.91
350.57	226.97
350.96	227.00
351.34	227.08
351.72	227.16
352.10	227.23
352.48	227.32
352.87	227.37
353.25	227.44
353.63	227.55
354.01	227.64
354.39	227.75
354.77	227.83
355.15	227.95
355.54	228.01
355.92	228.07
356.30	228.15
356.68	228.28
357.06	228.32
357.44	228.39
357.82	228.46
358.20	228.54
358.58	228.62
358.97	228.72
359.35	228.82
359.73	228.93
360.11	228.99
360.49	229.01
360.87	229.05
361.25	229.12
361.63	229.15
362.01	229.22
362.39	229.25
362.77	229.30
363.15	229.31
363.53	229.35
363.91	229.36
364.29	229.40
364.67	229.32
365.05	229.36
365.43	229.40
365.81	229.41
366.19	229.45
366.57	229.47
366.95	229.45
367.33	229.42
367.71	229.39
368.09	229.40
368.47	229.38
368.85	229.35
369.23	229.34
369.61	229.26
369.99	229.23
370.37	229.22
370.75	229.23
371.13	229.13
371.51	229.07
371.89	229.04
372.27	228.98
372.65	228.92
373.03	228.83
373.41	228.74
373.78	228.68
374.16	228.57
374.54	228.48
374.92	228.43
375.30	228.36
375.68	228.29
376.06	228.21
376.44	228.16
376.82	228.11
377.19	228.02
377.57	227.96
377.95	227.86
378.33	227.78
378.71	227.67
379.09	227.66
379.47	227.63
379.84	227.52
380.22	227.45
380.60	227.36
380.98	227.31
381.36	227.27
381.73	227.19
382.11	227.12
382.49	227.05
382.87	226.91
383.25	226.83
383.62	226.90
384.00	226.81
384.38	226.76
384.76	226.73
385.13	226.73
385.51	226.70
385.89	226.64
386.27	226.59
386.64	226.53
387.02	226.49
387.40	226.42
387.78	226.40
388.15	226.39
388.53	226.35
388.91	226.34
389.29	226.29
389.66	226.28
390.04	226.26
390.42	226.28
390.79	226.31
391.17	226.32
391.55	226.18
391.92	226.20
392.30	226.19
392.68	226.12
393.05	226.12
393.43	226.11
393.81	226.10
394.18	226.09
394.56	226.08
394.94	226.10
395.31	226.09
395.69	226.13
396.06	226.11
396.44	226.19
396.82	226.25
397.19	226.36
397.57	226.40
397.95	226.48
398.32	226.49
398.70	226.55
399.07	226.64
399.45	226.69
399.82	226.76
400.20	226.81
400.58	226.93
400.95	226.96
401.33	227.05
401.70	227.22
402.08	227.31
402.45	227.43
402.83	227.55
403.20	227.67
403.58	227.79
403.95	227.96
404.33	228.05
404.71	228.16
405.08	228.29
405.46	228.42
405.83	228.57
406.21	228.71
406.58	228.91
406.96	229.05
407.33	229.24
407.70	229.41
408.08	229.69
408.45	229.90
408.83	230.13
409.20	230.36
409.58	230.52
409.95	230.81
410.33	231.09
410.70	231.31
411.08	231.65
411.45	231.95
411.82	232.26
412.20	232.64
412.57	233.01
412.95	233.34
413.32	233.71
413.69	234.12
414.07	234.58
414.44	234.99
414.82	235.48
415.19	236.06
415.56	236.63
415.94	237.15
416.31	237.81
416.68	238.45
417.06	239.17
417.43	239.88
417.81	240.63
418.18	241.44
418.55	242.27
418.93	243.12
419.30	244.01
419.67	244.95
420.04	245.88
420.42	246.89
420.79	248.09
421.16	249.26
421.54	250.46
421.91	251.65
422.28	252.94
422.66	254.27
423.03	255.54
423.40	256.83
423.77	258.26
424.15	259.66
424.52	261.16
424.89	262.77
425.26	264.28
425.64	265.79
426.01	267.35
426.38	269.03
426.75	270.73
427.13	272.46
427.50	274.24
427.87	276.15
428.24	278.04
428.61	279.78
428.99	281.73
429.36	283.82
429.73	285.91
430.10	287.92
430.47	289.98
430.85	292.12
431.22	294.39
431.59	296.78
431.96	299.02
432.33	301.49
432.70	303.87
433.08	306.69
433.45	309.30
433.82	311.92
434.19	314.82
434.56	317.61
434.93	320.28
435.30	322.93
435.68	325.81
436.05	328.61
436.42	331.39
436.79	333.89
437.16	336.61
437.53	339.46
437.90	342.27
438.27	345.02
438.64	347.82
439.01	350.40
439.38	352.66
439.75	354.86
440.13	357.36
440.50	359.75
440.87	361.63
441.24	363.60
441.61	365.76
441.98	367.26
442.35	369.07
442.72	370.95
443.09	372.70
443.46	373.71
443.83	374.34
444.20	374.86
444.57	375.68
444.94	375.94
445.31	376.29
445.68	376.64
446.05	376.69
446.42	376.33
446.79	375.95
447.16	375.47
447.53	375.13
447.90	373.94
448.27	372.73
448.64	371.16
449.01	369.97
449.37	368.04
449.74	366.09
450.11	363.80
450.48	361.28
450.85	358.80
451.22	356.63
451.59	354.53
451.96	352.58
452.33	349.98
452.70	347.63
453.07	344.79
453.43	341.89
453.80	339.15
454.17	336.49
454.54	333.92
454.91	331.21
455.28	328.55
455.65	326.05
456.02	323.60
456.38	321.43
456.75	318.78
457.12	316.50
457.49	314.31
457.86	312.18
458.23	310.34
458.59	308.29
458.96	306.17
459.33	304.37
459.70	302.54
460.07	301.03
460.43	299.26
460.80	297.61
461.17	296.15
461.54	294.63
461.91	293.17
462.27	291.75
462.64	290.48
463.01	289.13
463.38	287.88
463.74	286.50
464.11	285.33
464.48	284.30
464.85	283.24
465.21	282.36
465.58	281.42
465.95	280.32
466.32	279.40
466.68	278.53
467.05	277.65
467.42	276.74
467.78	275.82
468.15	275.01
468.52	274.37
468.88	273.55
469.25	272.83
469.62	272.22
469.98	271.53
470.35	270.93
470.72	270.34
471.08	269.69
471.45	269.14
471.82	268.59
472.18	267.97
472.55	267.50
472.92	266.96
473.28	266.51
473.65	266.10
474.02	265.70
474.38	265.34
474.75	264.98
475.11	264.64
475.48	264.38
475.85	264.12
476.21	263.89
476.58	263.70
476.94	263.49
477.31	263.28
477.67	263.11
478.04	262.97
478.41	262.91
478.77	262.93
479.14	262.86
479.50	262.86
479.87	262.93
480.23	262.99
480.60	263.07
480.96	263.15
481.33	263.31
481.69	263.51
482.06	263.71
482.42	263.92
482.79	264.15
483.15	264.45
483.52	264.83
483.88	265.14
484.25	265.53
484.61	265.97
484.98	266.46
485.34	267.04
485.71	267.61
486.07	268.21
486.44	268.76
486.80	269.48
487.17	270.25
487.53	271.06
487.90	271.92
488.26	272.86
488.62	273.83
488.99	274.81
489.35	275.85
489.72	276.97
490.08	278.18
490.44	279.44
490.81	280.78
491.17	282.12
491.54	283.63
491.90	285.14
492.26	286.77
492.63	288.50
492.99	290.26
493.36	292.15
493.72	294.17
494.08	296.28
494.45	298.56
494.81	300.89
495.17	303.32
495.54	305.88
495.90	308.57
496.26	311.35
496.63	314.30
496.99	317.40
497.35	320.62
497.72	324.03
498.08	327.55
498.44	331.23
498.80	335.18
499.17	339.19
499.53	343.39
499.89	347.78
500.26	352.29
500.62	357.00
500.98	361.96
501.34	367.05
501.71	372.34
502.07	377.78
502.43	383.45
502.79	389.24
503.16	395.30
503.52	401.53
503.88	408.02
504.24	414.68
504.60	421.62
504.97	428.81
505.33	436.13
505.69	443.89
506.05	451.68
506.41	459.54
506.78	467.73
507.14	476.17
507.50	484.93
507.86	494.02
508.22	503.22
508.59	512.47
508.95	522.10
509.31	531.99
509.67	542.11
510.03	552.37
510.39	562.93
510.75	573.74
511.12	584.70
511.48	595.97
511.84	607.44
512.20	618.93
512.56	630.86
512.92	643.02
513.28	655.29
513.64	667.78
514.00	680.55
514.37	693.53
514.73	706.62
515.09	719.67
515.45	732.90
515.81	746.48
516.17	760.46
516.53	774.63
516.89	788.88
517.25	802.99
517.61	817.41
517.97	831.84
518.33	846.25
518.69	861.14
519.05	876.20
519.41	891.41
519.77	906.99
520.13	922.39
520.49	937.78
520.85	953.29
521.21	969.09
521.57	985.39
521.93	1001.19
522.29	1017.60
522.65	1033.78
523.01	1050.06
523.37	1066.10
523.73	1082.26
524.09	1098.33
524.45	1114.48
524.81	1131.21
525.17	1148.19
525.53	1165.10
525.89	1182.05
526.25	1198.83
526.61	1215.13
526.97	1231.81
527.33	1248.25
527.68	1264.90
528.04	1281.51
528.40	1298.12
528.76	1315.11
529.12	1331.69
529.48	1348.49
529.84	1364.50
530.20	1381.19
530.56	1398.12
530.91	1415.52
531.27	1432.27
531.63	1448.74
531.99	1465.46
532.35	1481.30
532.71	1497.07
533.07	1513.38
533.42	1529.31
533.78	1545.25
534.14	1561.61
534.50	1576.92
534.86	1592.78
535.21	1607.88
535.57	1623.68
535.93	1639.11
536.29	1653.96
536.65	1669.07
537.00	1683.92
537.36	1699.23
537.72	1713.74
538.08	1728.17
538.44	1742.06
538.79	1756.05
539.15	1769.63
539.51	1783.38
539.87	1797.68
540.22	1811.43
540.58	1825.13
540.94	1838.43
541.29	1851.47
541.65	1864.10
542.01	1877.38
542.37	1889.67
542.72	1902.19
543.08	1913.92
543.44	1926.37
543.79	1937.51
544.15	1948.40
544.51	1959.82
544.87	1970.74
545.22	1981.59
545.58	1991.90
545.94	2001.46
546.29	2011.28
546.65	2021.17
547.01	2030.36
547.36	2039.16
547.72	2047.57
548.07	2055.49
548.43	2063.63
548.79	2071.78
549.14	2079.33
549.50	2086.71
549.86	2094.40
550.21	2101.80
550.57	2109.13
550.92	2115.63
551.28	2122.65
551.64	2129.85
551.99	2136.36
552.35	2142.54
552.70	2148.76
553.06	2154.78
553.41	2161.19
553.77	2167.22
554.13	2173.35
554.48	2179.54
554.84	2184.96
555.19	2190.28
555.55	2195.45
555.90	2199.89
556.26	2204.64
556.61	2209.32
556.97	2213.48
557.32	2217.70
557.68	2221.78
558.03	2226.01
558.39	2229.84
558.74	2234.59
559.10	2238.44
559.45	2242.23
559.81	2246.54
560.16	2250.31
560.52	2253.48
560.87	2257.00
561.23	2259.52
561.58	2262.44
561.94	2264.95
562.29	2267.37
562.64	2270.00
563.00	2272.55
563.35	2276.13
563.71	2279.12
564.06	2282.37
564.42	2285.27
564.77	2287.66
565.12	2289.82
565.48	2291.86
565.83	2293.65
566.19	2294.86
566.54	2295.67
566.89	2296.83
567.25	2297.37
567.60	2298.68
567.96	2300.32
568.31	2301.19
568.66	2302.39
569.02	2302.95
569.37	2303.25
569.72	2304.11
570.08	2304.30
570.43	2304.28
570.78	2303.71
571.14	2302.25
571.49	2300.88
571.84	2300.52
572.20	2299.41
572.55	2298.28
572.90	2296.49
573.26	2295.10
573.61	2293.37
573.96	2291.62
574.31	2288.57
574.67	2285.55
575.02	2281.98
575.37	2278.57
575.72	2274.57
576.08	2271.26
576.43	2267.87
576.78	2264.02
577.13	2260.90
577.49	2257.81
577.84	2254.38
578.19	2250.60
578.54	2246.96
578.90	2242.65
579.25	2237.16
579.60	2232.13
579.95	2227.23
580.30	2222.28
580.66	2217.11
581.01	2212.21
581.36	2207.23
581.71	2203.03
582.06	2198.51
582.42	2193.93
582.77	2188.64
583.12	2184.10
583.47	2179.27
583.82	2174.21
584.17	2169.06
584.53	2163.38
584.88	2157.66
585.23	2151.74
585.58	2146.29
585.93	2140.81
586.28	2136.19
586.63	2131.08
586.98	2126.04
587.34	2121.29
587.69	2116.41
588.04	2111.04
588.39	2105.29
588.74	2098.77
589.09	2092.50
589.44	2085.65
589.79	2079.73
590.14	2074.16
590.49	2067.68
590.84	2061.41
591.19	2055.37
591.54	2048.95
591.89	2041.60
592.25	2034.73
592.60	2027.58
592.95	2019.95
593.30	2012.54
593.65	2004.86
594.00	1997.85
594.35	1990.67
594.70	1982.70
595.05	1975.41
595.40	1968.24
595.75	1960.85
596.10	1954.59
596.45	1947.92
596.80	1941.83
597.15	1935.06
597.50	1927.88
597.85	1921.32
598.19	1914.65
598.54	1907.56
598.89	1900.91
599.24	1895.09
599.59	1888.29
599.94	1882.20
600.29	1875.77
600.64	1869.16
600.99	1861.63
601.34	1854.73
601.69	1847.65
602.04	1840.64
602.39	1833.32
602.74	1826.35
603.08	1819.47
603.43	1812.70
603.78	1805.48
604.13	1798.23
604.48	1790.90
604.83	1784.16
605.18	1777.10
605.53	1768.96
605.87	1760.86
606.22	1753.68
606.57	1745.59
606.92	1738.44
607.27	1731.18
607.62	1724.30
607.96	1716.93
608.31	1710.25
608.66	1702.58
609.01	1695.07
609.36	1687.49
609.70	1679.44
610.05	1671.37
610.40	1663.65
610.75	1655.34
611.10	1647.60
611.44	1639.27
611.79	1631.38
612.14	1622.58
612.49	1613.42
612.83	1605.14
613.18	1597.05
613.53	1588.86
613.88	1580.39
614.22	1572.10
614.57	1563.53
614.92	1555.47
615.27	1547.96
615.61	1539.68
615.96	1531.75
616.31	1524.17
616.65	1516.87
617.00	1509.38
617.35	1501.74
617.70	1493.44
618.04	1485.00
618.39	1476.75
618.74	1469.21
619.08	1460.82
619.43	1453.23
619.78	1446.44
620.12	1439.25
620.47	1431.77
620.82	1423.54
621.16	1416.24
621.51	1408.66
621.85	1401.01
622.20	1392.48
622.55	1384.16
622.89	1376.38
623.24	1368.70
623.59	1361.19
623.93	1353.65
624.28	1346.36
624.62	1338.82
624.97	1331.73
625.32	1325.07
625.66	1318.05
626.01	1310.72
626.35	1303.18
626.70	1295.44
627.04	1287.67
627.39	1279.91
627.73	1272.49
628.08	1265.74
628.43	1258.24
628.77	1250.84
629.12	1243.24
629.46	1236.11
629.81	1228.66
630.15	1221.42
630.50	1213.96
630.84	1205.81
631.19	1197.97
631.53	1190.41
631.88	1182.90
632.22	1175.17
632.57	1167.70
632.91	1160.14
633.26	1152.77
633.60	1145.59
633.95	1138.57
634.29	1131.47
634.64	1124.66
634.98	1117.26
635.32	1110.02
635.67	1103.55
636.01	1096.85
636.36	1089.93
636.70	1083.36
637.05	1076.77
637.39	1070.31
637.73	1063.80
638.08	1057.89
638.42	1051.84
638.77	1045.39
639.11	1038.75
639.45	1032.46
639.80	1025.77
640.14	1019.34
640.49	1012.75
640.83	1006.30
641.17	999.95
641.52	993.61
641.86	987.22
642.20	981.41
642.55	975.14
642.89	968.62
643.23	962.16
643.58	956.52
643.92	950.36
644.26	944.31
644.61	938.23
644.95	932.20
645.29	925.67
645.64	918.92
645.98	912.56
646.32	906.77
646.66	900.69
647.01	894.97
647.35	889.34
647.69	883.53
648.04	878.07
648.38	872.27
648.72	866.25
649.06	860.22
649.41	854.34
649.75	848.30
650.09	842.36
650.43	836.58
650.78	830.36
651.12	824.39
651.46	818.59
651.80	812.82
652.14	807.44
652.49	802.13
652.83	796.99
653.17	791.25
653.51	785.53
653.85	780.11
654.20	774.46
654.54	768.39
654.88	762.66
655.22	756.73
655.56	751.03
655.90	745.66
656.25	740.40
656.59	735.04
656.93	729.99
657.27	724.87
657.61	719.40
657.95	714.36
658.29	709.26
658.64	704.11
658.98	698.84
659.32	693.38
659.66	688.08
660.00	682.71
660.34	677.84
660.68	672.90
661.02	667.88
661.36	663.16
661.70	658.70
662.05	654.38
662.39	650.08
662.73	645.66
663.07	641.25
663.41	636.85
663.75	632.37
664.09	627.76
664.43	623.32
664.77	619.18
665.11	614.88
665.45	610.77
665.79	606.67
666.13	602.58
666.47	598.51
666.81	594.33
667.15	590.21
667.49	586.30
667.83	582.53
668.17	578.62
668.51	574.52
668.85	570.47
669.19	566.59
669.53	562.74
669.87	558.86
670.21	555.19
670.55	551.47
670.89	548.07
671.23	544.70
671.57	541.23
671.91	537.69
672.25	534.25
672.58	530.76
672.92	527.33
673.26	524.13
673.60	521.01
673.94	517.96
674.28	515.10
674.62	512.14
674.96	508.94
675.30	505.99
675.64	503.10
675.97	500.42
676.31	497.54
676.65	494.60
676.99	491.91
677.33	489.02
677.67	486.28
678.01	483.20
678.34	480.13
678.68	477.21
679.02	474.43
679.36	471.61
679.70	468.92
680.04	466.21
680.37	463.34
680.71	460.49
681.05	457.80
681.39	455.03
681.73	452.40
682.06	449.95
682.40	447.45
682.74	444.93
683.08	442.30
683.42	439.71
683.75	437.20
684.09	434.66
684.43	432.20
684.77	429.66
685.10	427.36
685.44	425.11
685.78	422.86
686.12	420.61
686.45	418.35
686.79	416.01
687.13	413.84
687.46	411.73
687.80	409.63
688.14	407.46
688.48	405.45
688.81	403.18
689.15	400.97
689.49	398.75
689.82	396.61
690.16	394.53
690.50	392.55
690.83	390.63
691.17	388.65
691.51	386.76
691.84	384.92
692.18	383.00
692.52	381.02
692.85	379.07
693.19	377.19
693.52	375.36
693.86	373.55
694.20	371.71
694.53	369.89
694.87	368.03
695.21	366.25
695.54	364.42
695.88	362.72
696.21	361.03
696.55	359.41
696.88	357.75
697.22	356.08
697.56	354.46
697.89	352.81
698.23	351.19
698.56	349.56
698.90	347.94
699.23	346.26
699.57	344.74
699.90	343.18
700.24	341.63
700.58	340.11
700.91	338.61
701.25	337.18
701.58	335.78
701.92	334.40
702.25	332.97
702.59	331.61
702.92	330.28
703.26	328.98
703.59	327.69
703.93	326.50
704.26	325.28
704.60	324.03
704.93	322.76
705.26	321.54
705.60	320.39
705.93	319.31
706.27	318.29
706.60	317.23
706.94	316.17
707.27	315.08
707.61	314.03
707.94	313.00
708.27	311.89
708.61	310.85
708.94	309.88
709.28	308.93
709.61	307.97
709.94	307.01
710.28	305.94
710.61	304.95
710.95	303.91
711.28	303.04
711.61	302.06
711.95	301.13
712.28	300.16
712.61	299.17
712.95	298.23
713.28	297.37
713.61	296.47
713.95	295.54
714.28	294.68
714.61	293.82
714.95	292.98
715.28	292.14
715.61	291.26
715.95	290.42
716.28	289.56
716.61	288.72
716.95	287.92
717.28	287.25
717.61	286.51
717.94	285.74
718.28	284.88
718.61	284.15
718.94	283.47
719.27	282.82
719.61	282.18
719.94	281.52
720.27	280.82
720.60	280.11
720.94	279.54
721.27	278.93
721.60	278.36
721.93	277.73
722.27	277.19
722.60	276.62
722.93	276.00
723.26	275.48
723.59	274.91
723.93	274.35
724.26	273.78
724.59	273.21
724.92	272.68
725.25	272.20
725.59	271.68
725.92	271.17
726.25	270.69
726.58	270.18
726.91	269.64
727.24	269.17
727.57	268.74
727.91	268.20
728.24	267.77
728.57	267.25
728.90	266.81
729.23	266.29
729.56	265.90
729.89	265.44
730.22	264.94
730.55	264.48
730.89	264.02
731.22	263.55
731.55	263.11
731.88	262.68
732.21	262.23
732.54	261.78
732.87	261.36
733.20	260.93
733.53	260.53
733.86	260.17
734.19	259.73
734.52	259.31
734.85	259.00
735.18	258.52
735.51	258.19
735.84	257.82
736.17	257.48
736.50	257.05
736.83	256.82
737.16	256.49
737.49	256.16
737.82	255.83
738.15	255.48
738.48	255.17
738.81	254.82
739.14	254.51
739.47	254.21
739.80	253.92
740.13	253.62
740.46	253.31
740.79	252.97
741.12	252.70
741.45	252.41
741.78	252.02
742.11	251.79
742.44	251.45
742.77	251.16
743.10	250.91
743.43	250.62
743.75	250.30
744.08	250.15
744.41	249.89
744.74	249.64
745.07	249.38
745.40	249.13
745.73	248.95
746.06	248.67
746.39	248.38
746.71	248.09
747.04	247.82
747.37	247.54
747.70	247.31
748.03	247.03
748.36	246.81
748.68	246.63
749.01	246.37
749.34	246.14
749.67	245.91
750.00	245.67
750.33	245.54
750.65	245.28
750.98	244.93
751.31	244.74
751.64	244.49
751.97	244.31
752.29	244.08
752.62	243.82
752.95	243.62
753.28	243.45
753.60	243.26
753.93	243.11
754.26	242.97
754.59	242.75
754.91	242.54
755.24	242.36
755.57	242.16
755.90	241.98
756.22	241.80
756.55	241.55
756.88	241.34
757.20	241.08
757.53	240.88
757.86	240.72
758.19	240.51
758.51	240.40
758.84	240.23
759.17	240.06
759.49	239.88
759.82	239.75
760.15	239.59
760.47	239.42
760.80	239.21
761.13	239.04
761.45	238.89
761.78	238.76
762.11	238.58
762.43	238.44
762.76	238.31
763.08	238.18
763.41	238.10
763.74	237.94
764.06	237.77
764.39	237.62
764.71	237.44
765.04	237.31
765.37	237.15
765.69	236.98
766.02	236.87
766.34	236.76
766.67	236.59
767.00	236.48
767.32	236.45
767.65	236.41
767.97	236.30
768.30	236.17
768.62	236.08
768.95	235.97
769.27	235.83
769.60	235.72
769.92	235.61
770.25	235.48
770.57	235.38
770.90	235.29
771.22	235.21
771.55	235.12
771.87	235.02
772.20	234.93
772.52	234.97
772.85	234.94
773.17	234.86
773.50	234.77
773.82	234.67
774.15	234.51
774.47	234.29
774.80	234.18
775.12	234.10
775.45	233.97
775.77	233.86
776.09	233.76
776.42	233.66
776.74	233.61
777.07	233.51
777.39	233.43
777.72	233.36
778.04	233.29
778.36	233.22
778.69	233.15
779.01	233.06
779.33	232.89
779.66	232.74
779.98	232.66
780.31	232.63
780.63	232.60
780.95	232.58
781.28	232.56
781.60	232.48
781.92	232.42
782.25	232.38
782.57	232.34
782.89	232.31
783.22	232.25
783.54	232.17
783.86	232.14
784.19	232.12
784.51	232.08
784.83	232.01
785.16	231.96
785.48	231.93
785.80	231.90
786.12	231.86
786.45	231.78
786.77	231.73
787.09	231.66
