SpectraSuite Data File
++++++++++++++++++++++++++++++++++++
Date: Fri Feb 01 16:53:04 EST 2013
User: group
Dark Spectrum Present: No
Reference Spectrum Present: No
Number of Sampled Component Spectra: 1
Spectrometers: USB2E7196
Integration Time (usec): 35000 (USB2E7196)
Spectra Averaged: 100 (USB2E7196)
Boxcar Smoothing: 10 (USB2E7196)
Correct for Electrical Dark: No (USB2E7196)
Strobe/Lamp Enabled: No (USB2E7196)
Correct for Detector Non-linearity: No (USB2E7196)
Correct for Stray Light: No (USB2E7196)
Number of Pixels in Processed Spectrum: 2048
>>>>>Begin Processed Spectral Data<<<<<
339.09	0.00
339.48	212.96
339.86	214.83
340.24	215.82
340.63	216.72
341.01	219.97
341.39	220.06
341.78	220.82
342.16	222.74
342.54	223.22
342.93	211.38
343.31	222.04
343.69	222.55
344.07	223.00
344.46	223.41
344.84	223.81
345.22	224.06
345.60	224.30
345.99	224.52
346.37	224.65
346.75	224.71
347.13	224.79
347.52	224.84
347.90	224.92
348.28	224.97
348.66	225.04
349.05	225.04
349.43	225.10
349.81	225.12
350.19	225.17
350.57	225.24
350.96	225.35
351.34	225.47
351.72	225.60
352.10	225.69
352.48	225.77
352.87	225.85
353.25	225.92
353.63	225.99
354.01	226.06
354.39	226.12
354.77	226.22
355.15	226.32
355.54	226.43
355.92	226.45
356.30	226.55
356.68	226.65
357.06	226.78
357.44	226.85
357.82	226.95
358.20	227.08
358.58	227.15
358.97	227.22
359.35	227.31
359.73	227.40
360.11	227.48
360.49	227.60
360.87	227.65
361.25	227.73
361.63	227.81
362.01	227.85
362.39	227.92
362.77	227.99
363.15	228.03
363.53	228.06
363.91	228.09
364.29	228.13
364.67	228.09
365.05	228.10
365.43	228.14
365.81	228.18
366.19	228.21
366.57	228.24
366.95	228.25
367.33	228.25
367.71	228.24
368.09	228.28
368.47	228.25
368.85	228.21
369.23	228.20
369.61	228.18
369.99	228.20
370.37	228.19
370.75	228.22
371.13	228.15
371.51	228.08
371.89	228.05
372.27	228.01
372.65	227.97
373.03	227.91
373.41	227.87
373.78	227.80
374.16	227.69
374.54	227.63
374.92	227.56
375.30	227.47
375.68	227.38
376.06	227.28
376.44	227.21
376.82	227.16
377.19	227.10
377.57	227.02
377.95	226.89
378.33	226.79
378.71	226.65
379.09	226.59
379.47	226.52
379.84	226.45
380.22	226.32
380.60	226.22
380.98	226.16
381.36	226.06
381.73	225.92
382.11	225.87
382.49	225.81
382.87	225.70
383.25	225.67
383.62	225.73
384.00	225.66
384.38	225.59
384.76	225.54
385.13	225.49
385.51	225.40
385.89	225.33
386.27	225.30
386.64	225.26
387.02	225.22
387.40	225.15
387.78	225.12
388.15	225.11
388.53	225.06
388.91	225.01
389.29	225.00
389.66	225.02
390.04	224.97
390.42	224.93
390.79	224.93
391.17	224.88
391.55	224.71
391.92	224.69
392.30	224.68
392.68	224.63
393.05	224.64
393.43	224.63
393.81	224.65
394.18	224.61
394.56	224.59
394.94	224.62
395.31	224.65
395.69	224.66
396.06	224.66
396.44	224.71
396.82	224.71
397.19	224.77
397.57	224.76
397.95	224.81
398.32	224.83
398.70	224.89
399.07	224.96
399.45	225.04
399.82	225.10
400.20	225.15
400.58	225.24
400.95	225.29
401.33	225.40
401.70	225.56
402.08	225.67
402.45	225.77
402.83	225.87
403.20	225.99
403.58	226.10
403.95	226.26
404.33	226.37
404.71	226.54
405.08	226.69
405.46	226.86
405.83	227.02
406.21	227.17
406.58	227.35
406.96	227.49
407.33	227.67
407.70	227.84
408.08	228.09
408.45	228.30
408.83	228.52
409.20	228.71
409.58	228.85
409.95	229.14
410.33	229.43
410.70	229.69
411.08	230.00
411.45	230.30
411.82	230.56
412.20	230.93
412.57	231.31
412.95	231.61
413.32	232.02
413.69	232.44
414.07	232.87
414.44	233.32
414.82	233.82
415.19	234.38
415.56	234.94
415.94	235.50
416.31	236.12
416.68	236.76
417.06	237.47
417.43	238.17
417.81	238.91
418.18	239.70
418.55	240.55
418.93	241.41
419.30	242.28
419.67	243.25
420.04	244.18
420.42	245.17
420.79	246.36
421.16	247.47
421.54	248.63
421.91	249.83
422.28	251.04
422.66	252.35
423.03	253.65
423.40	254.97
423.77	256.34
424.15	257.76
424.52	259.23
424.89	260.81
425.26	262.36
425.64	263.81
426.01	265.35
426.38	266.94
426.75	268.58
427.13	270.31
427.50	272.06
427.87	273.92
428.24	275.76
428.61	277.48
428.99	279.40
429.36	281.50
429.73	283.55
430.10	285.58
430.47	287.63
430.85	289.69
431.22	291.95
431.59	294.33
431.96	296.53
432.33	299.02
432.70	301.38
433.08	304.17
433.45	306.77
433.82	309.36
434.19	312.22
434.56	315.01
434.93	317.64
435.30	320.29
435.68	323.16
436.05	325.98
436.42	328.77
436.79	331.26
437.16	333.96
437.53	336.76
437.90	339.55
438.27	342.29
438.64	345.08
439.01	347.63
439.38	349.86
439.75	352.03
440.13	354.48
440.50	356.79
440.87	358.61
441.24	360.55
441.61	362.69
441.98	364.18
442.35	365.98
442.72	367.80
443.09	369.60
443.46	370.59
443.83	371.20
444.20	371.67
444.57	372.53
444.94	372.80
445.31	373.15
445.68	373.47
446.05	373.52
446.42	373.18
446.79	372.77
447.16	372.34
447.53	372.02
447.90	370.87
448.27	369.73
448.64	368.12
449.01	367.00
449.37	365.07
449.74	363.25
450.11	361.00
450.48	358.59
450.85	356.02
451.22	353.90
451.59	351.89
451.96	349.97
452.33	347.37
452.70	345.01
453.07	342.23
453.43	339.34
453.80	336.62
454.17	333.89
454.54	331.38
454.91	328.70
455.28	326.02
455.65	323.51
456.02	321.10
456.38	319.02
456.75	316.37
457.12	314.09
457.49	311.85
457.86	309.72
458.23	307.88
458.59	305.89
458.96	303.81
459.33	301.97
459.70	300.13
460.07	298.63
460.43	296.89
460.80	295.30
461.17	293.88
461.54	292.35
461.91	291.01
462.27	289.57
462.64	288.33
463.01	286.99
463.38	285.74
463.74	284.38
464.11	283.22
464.48	282.21
464.85	281.14
465.21	280.29
465.58	279.41
465.95	278.33
466.32	277.43
466.68	276.52
467.05	275.62
467.42	274.74
467.78	273.82
468.15	272.98
468.52	272.30
468.88	271.47
469.25	270.73
469.62	270.09
469.98	269.41
470.35	268.75
470.72	268.18
471.08	267.56
471.45	267.02
471.82	266.50
472.18	265.93
472.55	265.52
472.92	265.01
473.28	264.52
473.65	264.07
474.02	263.63
474.38	263.32
474.75	263.01
475.11	262.69
475.48	262.47
475.85	262.25
476.21	262.00
476.58	261.86
476.94	261.73
477.31	261.58
477.67	261.44
478.04	261.38
478.41	261.33
478.77	261.36
479.14	261.34
479.50	261.35
479.87	261.42
480.23	261.50
480.60	261.57
480.96	261.67
481.33	261.89
481.69	262.11
482.06	262.31
482.42	262.55
482.79	262.77
483.15	263.08
483.52	263.50
483.88	263.86
484.25	264.27
484.61	264.70
484.98	265.17
485.34	265.76
485.71	266.35
486.07	267.00
486.44	267.60
486.80	268.34
487.17	269.06
487.53	269.90
487.90	270.74
488.26	271.66
488.62	272.64
488.99	273.66
489.35	274.70
489.72	275.83
490.08	276.99
490.44	278.26
490.81	279.57
491.17	280.93
491.54	282.48
491.90	284.00
492.26	285.66
492.63	287.42
492.99	289.18
493.36	291.08
493.72	293.08
494.08	295.15
494.45	297.37
494.81	299.76
495.17	302.18
495.54	304.78
495.90	307.48
496.26	310.30
496.63	313.23
496.99	316.33
497.35	319.56
497.72	322.97
498.08	326.49
498.44	330.21
498.80	334.10
499.17	338.10
499.53	342.24
499.89	346.55
500.26	351.03
500.62	355.66
500.98	360.56
501.34	365.67
501.71	370.98
502.07	376.38
502.43	381.98
502.79	387.78
503.16	393.79
503.52	400.02
503.88	406.42
504.24	413.05
504.60	419.88
504.97	426.98
505.33	434.27
505.69	441.94
506.05	449.69
506.41	457.55
506.78	465.63
507.14	474.04
507.50	482.76
507.86	491.73
508.22	500.88
508.59	510.03
508.95	519.47
509.31	529.25
509.67	539.30
510.03	549.49
510.39	559.98
510.75	570.70
511.12	581.54
511.48	592.72
511.84	604.05
512.20	615.49
512.56	627.36
512.92	639.44
513.28	651.68
513.64	664.08
514.00	676.71
514.37	689.58
514.73	702.57
515.09	715.48
515.45	728.62
515.81	742.11
516.17	755.91
516.53	769.87
516.89	783.87
517.25	797.92
517.61	812.19
517.97	826.49
518.33	840.61
518.69	855.18
519.05	869.99
519.41	884.98
519.77	900.34
520.13	915.58
520.49	930.70
520.85	945.87
521.21	961.27
521.57	977.24
521.93	992.75
522.29	1008.84
522.65	1024.85
523.01	1040.81
523.37	1056.60
523.73	1072.55
524.09	1088.48
524.45	1104.57
524.81	1120.88
525.17	1137.41
525.53	1154.00
525.89	1170.75
526.25	1187.35
526.61	1203.53
526.97	1220.08
527.33	1236.28
527.68	1252.63
528.04	1268.91
528.40	1285.27
528.76	1302.06
529.12	1318.38
529.48	1335.00
529.84	1350.76
530.20	1367.12
530.56	1383.84
530.91	1400.97
531.27	1417.57
531.63	1433.80
531.99	1450.07
532.35	1465.84
532.71	1481.50
533.07	1497.49
533.42	1513.21
533.78	1528.98
534.14	1544.90
534.50	1560.01
534.86	1575.59
535.21	1590.52
535.57	1606.19
535.93	1621.45
536.29	1635.99
536.65	1650.74
537.00	1665.24
537.36	1680.35
537.72	1694.59
538.08	1708.85
538.44	1722.50
538.79	1736.08
539.15	1749.43
539.51	1763.02
539.87	1777.02
540.22	1790.54
540.58	1803.99
540.94	1817.04
541.29	1829.78
541.65	1842.20
542.01	1855.13
542.37	1867.33
542.72	1879.57
543.08	1891.21
543.44	1903.37
543.79	1914.50
544.15	1925.50
544.51	1937.04
544.87	1947.87
545.22	1958.64
545.58	1968.60
545.94	1978.08
546.29	1987.98
546.65	1997.83
547.01	2006.86
547.36	2015.52
547.72	2023.93
548.07	2031.77
548.43	2039.77
548.79	2047.68
549.14	2055.21
549.50	2062.32
549.86	2069.78
550.21	2077.07
550.57	2084.20
550.92	2090.71
551.28	2097.52
551.64	2104.50
551.99	2110.82
552.35	2116.94
552.70	2123.03
553.06	2129.10
553.41	2135.48
553.77	2141.19
554.13	2147.26
554.48	2153.56
554.84	2159.31
555.19	2164.44
555.55	2169.60
555.90	2174.14
556.26	2179.03
556.61	2183.79
556.97	2188.24
557.32	2192.44
557.68	2196.50
558.03	2200.73
558.39	2204.40
558.74	2209.29
559.10	2213.09
559.45	2216.84
559.81	2221.12
560.16	2224.96
560.52	2228.30
560.87	2231.77
561.23	2234.64
561.58	2237.52
561.94	2240.01
562.29	2242.13
562.64	2245.11
563.00	2247.66
563.35	2251.23
563.71	2254.41
564.06	2257.66
564.42	2260.70
564.77	2263.30
565.12	2265.81
565.48	2268.02
565.83	2270.19
566.19	2271.63
566.54	2272.60
566.89	2273.80
567.25	2274.50
567.60	2275.89
567.96	2277.66
568.31	2278.62
568.66	2279.95
569.02	2280.62
569.37	2280.96
569.72	2282.04
570.08	2282.21
570.43	2282.45
570.78	2282.18
571.14	2280.85
571.49	2279.70
571.84	2279.42
572.20	2278.63
572.55	2277.68
572.90	2276.07
573.26	2274.86
573.61	2273.13
573.96	2271.74
574.31	2269.08
574.67	2266.17
575.02	2262.69
575.37	2259.52
575.72	2255.95
576.08	2252.70
576.43	2249.63
576.78	2246.18
577.13	2243.10
577.49	2240.24
577.84	2237.13
578.19	2233.51
578.54	2230.09
578.90	2226.03
579.25	2220.62
579.60	2215.65
579.95	2210.75
580.30	2205.88
580.66	2200.89
581.01	2196.06
581.36	2191.12
581.71	2187.03
582.06	2182.94
582.42	2178.74
582.77	2173.71
583.12	2169.32
583.47	2164.77
583.82	2159.94
584.17	2154.98
584.53	2149.76
584.88	2144.21
585.23	2138.57
585.58	2133.12
585.93	2127.81
586.28	2123.22
586.63	2118.37
586.98	2113.52
587.34	2108.97
587.69	2104.14
588.04	2099.00
588.39	2093.62
588.74	2087.32
589.09	2081.30
589.44	2074.53
589.79	2068.61
590.14	2063.00
590.49	2056.50
590.84	2050.23
591.19	2044.35
591.54	2038.01
591.89	2030.76
592.25	2024.01
592.60	2016.79
592.95	2009.42
593.30	2002.23
593.65	1994.73
594.00	1987.82
594.35	1980.76
594.70	1972.81
595.05	1965.95
595.40	1958.62
595.75	1951.27
596.10	1945.30
596.45	1938.76
596.80	1932.90
597.15	1926.33
597.50	1919.51
597.85	1913.19
598.19	1906.69
598.54	1899.76
598.89	1893.13
599.24	1887.31
599.59	1880.83
599.94	1874.77
600.29	1868.46
600.64	1861.96
600.99	1854.73
601.34	1848.02
601.69	1841.04
602.04	1834.33
602.39	1827.00
602.74	1820.32
603.08	1813.70
603.43	1806.97
603.78	1799.61
604.13	1792.38
604.48	1785.24
604.83	1778.36
605.18	1771.59
605.53	1763.43
605.87	1755.52
606.22	1748.40
606.57	1740.57
606.92	1733.24
607.27	1726.26
607.62	1719.60
607.96	1712.34
608.31	1705.86
608.66	1698.35
609.01	1690.99
609.36	1683.53
609.70	1675.63
610.05	1667.77
610.40	1660.13
610.75	1651.91
611.10	1644.43
611.44	1635.98
611.79	1628.15
612.14	1619.49
612.49	1610.31
612.83	1602.10
613.18	1593.92
613.53	1585.90
613.88	1577.37
614.22	1569.14
614.57	1560.54
614.92	1552.45
615.27	1544.87
615.61	1536.51
615.96	1528.54
616.31	1520.89
616.65	1513.58
617.00	1506.02
617.35	1498.35
617.70	1490.16
618.04	1481.67
618.39	1473.38
618.74	1465.90
619.08	1457.62
619.43	1450.03
619.78	1443.10
620.12	1436.08
620.47	1428.55
620.82	1420.44
621.16	1413.12
621.51	1405.59
621.85	1397.88
622.20	1389.38
622.55	1381.07
622.89	1373.24
623.24	1365.47
623.59	1358.04
623.93	1350.45
624.28	1343.28
624.62	1335.80
624.97	1328.52
625.32	1321.75
625.66	1314.80
626.01	1307.66
626.35	1300.17
626.70	1292.50
627.04	1284.77
627.39	1276.98
627.73	1269.77
628.08	1262.75
628.43	1255.49
628.77	1248.12
629.12	1240.68
629.46	1233.59
629.81	1226.13
630.15	1218.85
630.50	1211.52
630.84	1203.36
631.19	1195.48
631.53	1187.94
631.88	1180.34
632.22	1172.80
632.57	1165.55
632.91	1157.95
633.26	1150.55
633.60	1143.19
633.95	1136.06
634.29	1129.07
634.64	1122.43
634.98	1114.98
635.32	1107.92
635.67	1101.24
636.01	1094.66
636.36	1087.85
636.70	1081.32
637.05	1074.82
637.39	1068.35
637.73	1061.91
638.08	1056.02
638.42	1049.98
638.77	1043.54
639.11	1036.96
639.45	1030.48
639.80	1023.79
640.14	1017.49
640.49	1010.98
640.83	1004.73
641.17	998.55
641.52	992.17
641.86	985.64
642.20	979.83
642.55	973.42
642.89	966.96
643.23	960.38
643.58	954.61
643.92	948.37
644.26	942.32
644.61	936.29
644.95	930.27
645.29	923.76
645.64	917.01
645.98	910.75
646.32	904.86
646.66	898.86
647.01	893.10
647.35	887.30
647.69	881.41
648.04	875.76
648.38	869.96
648.72	864.02
649.06	858.01
649.41	852.10
649.75	846.25
650.09	840.38
650.43	834.59
650.78	828.46
651.12	822.56
651.46	816.90
651.80	811.25
652.14	805.82
652.49	800.39
652.83	795.36
653.17	789.70
653.51	784.09
653.85	778.74
654.20	773.11
654.54	767.13
654.88	761.44
655.22	755.61
655.56	749.96
655.90	744.49
656.25	739.28
656.59	733.93
656.93	728.90
657.27	723.73
657.61	718.37
657.95	713.24
658.29	708.18
658.64	702.91
658.98	697.62
659.32	692.26
659.66	687.13
660.00	681.79
660.34	676.82
660.68	671.88
661.02	666.85
661.36	662.13
661.70	657.67
662.05	653.28
662.39	649.04
662.73	644.59
663.07	640.30
663.41	635.85
663.75	631.37
664.09	626.78
664.43	622.43
664.77	618.32
665.11	614.08
665.45	609.92
665.79	605.85
666.13	601.72
666.47	597.60
666.81	593.43
667.15	589.28
667.49	585.35
667.83	581.52
668.17	577.60
668.51	573.52
668.85	569.50
669.19	565.66
669.53	561.79
669.87	557.88
670.21	554.09
670.55	550.42
670.89	547.01
671.23	543.57
671.57	539.96
671.91	536.44
672.25	532.94
672.58	529.37
672.92	525.94
673.26	522.74
673.60	519.57
673.94	516.50
674.28	513.60
674.62	510.67
674.96	507.56
675.30	504.66
675.64	501.71
675.97	498.91
676.31	496.05
676.65	493.15
676.99	490.44
677.33	487.62
677.67	484.86
678.01	481.87
678.34	478.91
678.68	476.03
679.02	473.19
679.36	470.46
679.70	467.79
680.04	465.03
680.37	462.16
680.71	459.38
681.05	456.73
681.39	453.99
681.73	451.31
682.06	448.79
682.40	446.24
682.74	443.72
683.08	441.17
683.42	438.59
683.75	435.97
684.09	433.37
684.43	430.90
684.77	428.42
685.10	425.99
685.44	423.67
685.78	421.40
686.12	419.08
686.45	416.73
686.79	414.42
687.13	412.21
687.46	410.06
687.80	407.89
688.14	405.70
688.48	403.68
688.81	401.46
689.15	399.27
689.49	397.10
689.82	395.09
690.16	392.99
690.50	391.00
690.83	389.13
691.17	387.20
691.51	385.29
691.84	383.40
692.18	381.46
692.52	379.46
692.85	377.54
693.19	375.72
693.52	373.89
693.86	372.05
694.20	370.33
694.53	368.51
694.87	366.67
695.21	364.89
695.54	362.99
695.88	361.27
696.21	359.55
696.55	357.90
696.88	356.15
697.22	354.51
697.56	352.91
697.89	351.25
698.23	349.66
698.56	348.04
698.90	346.49
699.23	344.90
699.57	343.37
699.90	341.86
700.24	340.32
700.58	338.85
700.91	337.44
701.25	335.98
701.58	334.60
701.92	333.25
702.25	331.85
702.59	330.50
702.92	329.13
703.26	327.80
703.59	326.52
703.93	325.36
704.26	324.15
704.60	322.83
704.93	321.56
705.26	320.27
705.60	319.12
705.93	317.96
706.27	316.92
706.60	315.90
706.94	314.79
707.27	313.64
707.61	312.54
707.94	311.46
708.27	310.36
708.61	309.27
708.94	308.27
709.28	307.27
709.61	306.32
709.94	305.40
710.28	304.41
710.61	303.43
710.95	302.35
711.28	301.40
711.61	300.49
711.95	299.57
712.28	298.66
712.61	297.67
712.95	296.74
713.28	295.83
713.61	294.89
713.95	294.01
714.28	293.21
714.61	292.35
714.95	291.51
715.28	290.65
715.61	289.77
715.95	288.92
716.28	288.08
716.61	287.25
716.95	286.43
717.28	285.68
717.61	284.92
717.94	284.20
718.28	283.39
718.61	282.64
718.94	281.93
719.27	281.24
719.61	280.56
719.94	279.89
720.27	279.18
720.60	278.55
720.94	277.90
721.27	277.29
721.60	276.70
721.93	276.10
722.27	275.60
722.60	275.03
722.93	274.42
723.26	273.89
723.59	273.32
723.93	272.77
724.26	272.19
724.59	271.61
724.92	271.05
725.25	270.55
725.59	270.00
725.92	269.52
726.25	269.02
726.58	268.54
726.91	268.04
727.24	267.56
727.57	267.09
727.91	266.58
728.24	266.10
728.57	265.58
728.90	265.14
729.23	264.60
729.56	264.18
729.89	263.71
730.22	263.18
730.55	262.72
730.89	262.30
731.22	261.88
731.55	261.44
731.88	261.03
732.21	260.60
732.54	260.19
732.87	259.73
733.20	259.28
733.53	258.92
733.86	258.55
734.19	258.12
734.52	257.69
734.85	257.39
735.18	256.95
735.51	256.61
735.84	256.24
736.17	255.89
736.50	255.50
736.83	255.27
737.16	254.98
737.49	254.67
737.82	254.32
738.15	254.00
738.48	253.68
738.81	253.34
739.14	253.03
739.47	252.73
739.80	252.44
740.13	252.20
740.46	251.86
740.79	251.54
741.12	251.27
741.45	250.98
741.78	250.63
742.11	250.35
742.44	250.06
742.77	249.76
743.10	249.46
743.43	249.18
743.75	248.80
744.08	248.65
744.41	248.33
744.74	248.07
745.07	247.77
745.40	247.52
745.73	247.29
746.06	247.01
746.39	246.78
746.71	246.52
747.04	246.22
747.37	245.95
747.70	245.72
748.03	245.46
748.36	245.25
748.68	245.00
749.01	244.75
749.34	244.51
749.67	244.31
750.00	244.07
750.33	243.88
750.65	243.65
750.98	243.32
751.31	243.09
751.64	242.88
751.97	242.70
752.29	242.48
752.62	242.22
752.95	242.02
753.28	241.79
753.60	241.59
753.93	241.42
754.26	241.20
754.59	240.96
754.91	240.76
755.24	240.56
755.57	240.39
755.90	240.22
756.22	240.03
756.55	239.83
756.88	239.65
757.20	239.43
757.53	239.25
757.86	239.08
758.19	238.92
758.51	238.76
758.84	238.52
759.17	238.36
759.49	238.21
759.82	238.08
760.15	237.91
760.47	237.75
760.80	237.56
761.13	237.46
761.45	237.30
761.78	237.16
762.11	236.96
762.43	236.80
762.76	236.66
763.08	236.53
763.41	236.38
763.74	236.24
764.06	236.07
764.39	235.90
764.71	235.73
765.04	235.58
765.37	235.45
765.69	235.33
766.02	235.18
766.34	235.04
766.67	234.90
767.00	234.75
767.32	234.68
767.65	234.64
767.97	234.47
768.30	234.38
768.62	234.23
768.95	234.14
769.27	234.03
769.60	233.91
769.92	233.77
770.25	233.63
770.57	233.53
770.90	233.44
771.22	233.39
771.55	233.32
771.87	233.23
772.20	233.13
772.52	233.15
772.85	233.17
773.17	233.08
773.50	232.99
773.82	232.94
774.15	232.80
774.47	232.64
774.80	232.55
775.12	232.44
775.45	232.37
775.77	232.27
776.09	232.18
776.42	232.10
776.74	232.07
777.07	232.01
777.39	231.94
777.72	231.89
778.04	231.82
778.36	231.75
778.69	231.72
779.01	231.68
779.33	231.51
779.66	231.35
779.98	231.32
780.31	231.26
780.63	231.23
780.95	231.21
781.28	231.16
781.60	231.11
781.92	231.05
782.25	231.00
782.57	230.97
782.89	230.91
783.22	230.85
783.54	230.80
783.86	230.77
784.19	230.72
784.51	230.70
784.83	230.61
785.16	230.54
785.48	230.50
785.80	230.48
786.12	230.45
786.45	230.40
786.77	230.32
787.09	230.27
