SpectraSuite Data File
++++++++++++++++++++++++++++++++++++
Date: Fri Feb 01 17:13:01 EST 2013
User: group
Dark Spectrum Present: No
Reference Spectrum Present: No
Number of Sampled Component Spectra: 1
Spectrometers: USB2E7196
Integration Time (usec): 35000 (USB2E7196)
Spectra Averaged: 100 (USB2E7196)
Boxcar Smoothing: 10 (USB2E7196)
Correct for Electrical Dark: No (USB2E7196)
Strobe/Lamp Enabled: No (USB2E7196)
Correct for Detector Non-linearity: No (USB2E7196)
Correct for Stray Light: No (USB2E7196)
Number of Pixels in Processed Spectrum: 2048
>>>>>Begin Processed Spectral Data<<<<<
339.09	0.00
339.48	212.47
339.86	214.63
340.24	215.95
340.63	216.99
341.01	220.34
341.39	220.41
341.78	221.50
342.16	222.31
342.54	222.42
342.93	211.47
343.31	222.17
343.69	222.75
344.07	223.25
344.46	223.70
344.84	224.09
345.22	224.33
345.60	224.56
345.99	224.75
346.37	224.91
346.75	225.03
347.13	225.11
347.52	225.18
347.90	225.23
348.28	225.27
348.66	225.31
349.05	225.29
349.43	225.35
349.81	225.42
350.19	225.48
350.57	225.54
350.96	225.63
351.34	225.72
351.72	225.81
352.10	225.90
352.48	225.95
352.87	226.02
353.25	226.11
353.63	226.19
354.01	226.26
354.39	226.33
354.77	226.44
355.15	226.56
355.54	226.64
355.92	226.68
356.30	226.73
356.68	226.89
357.06	226.98
357.44	227.03
357.82	227.09
358.20	227.16
358.58	227.23
358.97	227.28
359.35	227.37
359.73	227.43
360.11	227.47
360.49	227.51
360.87	227.56
361.25	227.58
361.63	227.66
362.01	227.69
362.39	227.71
362.77	227.73
363.15	227.75
363.53	227.79
363.91	227.84
364.29	227.87
364.67	227.78
365.05	227.79
365.43	227.79
365.81	227.83
366.19	227.91
366.57	227.91
366.95	227.93
367.33	227.87
367.71	227.85
368.09	227.89
368.47	227.91
368.85	227.92
369.23	227.93
369.61	227.85
369.99	227.90
370.37	227.88
370.75	227.92
371.13	227.89
371.51	227.83
371.89	227.80
372.27	227.80
372.65	227.75
373.03	227.71
373.41	227.65
373.78	227.57
374.16	227.43
374.54	227.36
374.92	227.29
375.30	227.25
375.68	227.19
376.06	227.10
376.44	227.01
376.82	226.94
377.19	226.88
377.57	226.81
377.95	226.65
378.33	226.58
378.71	226.45
379.09	226.37
379.47	226.33
379.84	226.22
380.22	226.10
380.60	226.06
380.98	225.98
381.36	225.94
381.73	225.88
382.11	225.85
382.49	225.80
382.87	225.72
383.25	225.66
383.62	225.71
384.00	225.64
384.38	225.61
384.76	225.56
385.13	225.55
385.51	225.54
385.89	225.53
386.27	225.49
386.64	225.43
387.02	225.36
387.40	225.29
387.78	225.26
388.15	225.23
388.53	225.18
388.91	225.16
389.29	225.10
389.66	225.07
390.04	225.03
390.42	225.01
390.79	224.97
391.17	224.96
391.55	224.82
391.92	224.83
392.30	224.81
392.68	224.77
393.05	224.75
393.43	224.73
393.81	224.71
394.18	224.70
394.56	224.71
394.94	224.78
395.31	224.79
395.69	224.84
396.06	224.87
396.44	224.90
396.82	224.91
397.19	224.98
397.57	224.99
397.95	225.02
398.32	225.03
398.70	225.09
399.07	225.15
399.45	225.20
399.82	225.21
400.20	225.25
400.58	225.32
400.95	225.33
401.33	225.40
401.70	225.53
402.08	225.61
402.45	225.68
402.83	225.78
403.20	225.88
403.58	225.95
403.95	226.09
404.33	226.18
404.71	226.33
405.08	226.52
405.46	226.67
405.83	226.84
406.21	226.98
406.58	227.17
406.96	227.30
407.33	227.49
407.70	227.70
408.08	227.99
408.45	228.19
408.83	228.43
409.20	228.65
409.58	228.83
409.95	229.10
410.33	229.39
410.70	229.58
411.08	229.88
411.45	230.18
411.82	230.49
412.20	230.85
412.57	231.24
412.95	231.50
413.32	231.93
413.69	232.34
414.07	232.78
414.44	233.22
414.82	233.72
415.19	234.28
415.56	234.82
415.94	235.37
416.31	236.02
416.68	236.67
417.06	237.40
417.43	238.12
417.81	238.86
418.18	239.65
418.55	240.54
418.93	241.44
419.30	242.39
419.67	243.35
420.04	244.33
420.42	245.35
420.79	246.56
421.16	247.70
421.54	248.92
421.91	250.14
422.28	251.41
422.66	252.76
423.03	254.05
423.40	255.40
423.77	256.85
424.15	258.29
424.52	259.79
424.89	261.44
425.26	263.02
425.64	264.52
426.01	266.16
426.38	267.85
426.75	269.56
427.13	271.28
427.50	273.13
427.87	275.02
428.24	276.88
428.61	278.65
428.99	280.64
429.36	282.77
429.73	284.85
430.10	286.92
430.47	289.00
430.85	291.15
431.22	293.44
431.59	295.84
431.96	298.07
432.33	300.55
432.70	302.93
433.08	305.76
433.45	308.44
433.82	311.05
434.19	314.01
434.56	316.83
434.93	319.54
435.30	322.16
435.68	325.12
436.05	328.05
436.42	330.86
436.79	333.43
437.16	336.15
437.53	339.11
437.90	341.98
438.27	344.77
438.64	347.62
439.01	350.27
439.38	352.56
439.75	354.83
440.13	357.41
440.50	359.79
440.87	361.70
441.24	363.73
441.61	365.92
441.98	367.42
442.35	369.24
442.72	371.15
443.09	373.00
443.46	374.05
443.83	374.63
444.20	375.23
444.57	376.11
444.94	376.42
445.31	376.76
445.68	377.10
446.05	377.20
446.42	376.85
446.79	376.40
447.16	375.94
447.53	375.60
447.90	374.44
448.27	373.27
448.64	371.67
449.01	370.51
449.37	368.56
449.74	366.64
450.11	364.39
450.48	361.90
450.85	359.35
451.22	357.14
451.59	355.09
451.96	353.08
452.33	350.39
452.70	347.99
453.07	345.12
453.43	342.18
453.80	339.35
454.17	336.65
454.54	334.10
454.91	331.35
455.28	328.63
455.65	326.10
456.02	323.65
456.38	321.45
456.75	318.70
457.12	316.38
457.49	314.09
457.86	311.90
458.23	309.97
458.59	307.91
458.96	305.81
459.33	303.93
459.70	302.01
460.07	300.51
460.43	298.76
460.80	297.12
461.17	295.69
461.54	294.17
461.91	292.72
462.27	291.28
462.64	290.02
463.01	288.65
463.38	287.33
463.74	285.93
464.11	284.76
464.48	283.72
464.85	282.58
465.21	281.74
465.58	280.79
465.95	279.70
466.32	278.78
466.68	277.87
467.05	276.99
467.42	276.12
467.78	275.19
468.15	274.35
468.52	273.64
468.88	272.78
469.25	272.03
469.62	271.41
469.98	270.72
470.35	270.09
470.72	269.49
471.08	268.85
471.45	268.30
471.82	267.78
472.18	267.18
472.55	266.79
472.92	266.26
473.28	265.84
473.65	265.39
474.02	264.93
474.38	264.57
474.75	264.26
475.11	263.92
475.48	263.66
475.85	263.42
476.21	263.22
476.58	263.01
476.94	262.88
477.31	262.71
477.67	262.54
478.04	262.38
478.41	262.37
478.77	262.40
479.14	262.34
479.50	262.33
479.87	262.43
480.23	262.48
480.60	262.53
480.96	262.59
481.33	262.82
481.69	263.02
482.06	263.17
482.42	263.35
482.79	263.54
483.15	263.80
483.52	264.11
483.88	264.43
484.25	264.81
484.61	265.20
484.98	265.62
485.34	266.17
485.71	266.76
486.07	267.29
486.44	267.81
486.80	268.50
487.17	269.22
487.53	270.02
487.90	270.90
488.26	271.82
488.62	272.77
488.99	273.74
489.35	274.75
489.72	275.89
490.08	277.06
490.44	278.34
490.81	279.69
491.17	281.08
491.54	282.57
491.90	284.11
492.26	285.75
492.63	287.47
492.99	289.27
493.36	291.19
493.72	293.28
494.08	295.39
494.45	297.63
494.81	300.01
495.17	302.43
495.54	304.97
495.90	307.62
496.26	310.48
496.63	313.40
496.99	316.51
497.35	319.75
497.72	323.16
498.08	326.69
498.44	330.38
498.80	334.29
499.17	338.27
499.53	342.44
499.89	346.83
500.26	351.37
500.62	356.03
500.98	360.97
501.34	366.01
501.71	371.32
502.07	376.75
502.43	382.32
502.79	388.11
503.16	394.13
503.52	400.40
503.88	406.72
504.24	413.29
504.60	420.10
504.97	427.20
505.33	434.49
505.69	442.19
506.05	449.92
506.41	457.69
506.78	465.83
507.14	474.24
507.50	482.85
507.86	491.75
508.22	500.88
508.59	510.06
508.95	519.49
509.31	529.22
509.67	539.21
510.03	549.42
510.39	559.90
510.75	570.58
511.12	581.39
511.48	592.54
511.84	603.93
512.20	615.35
512.56	627.08
512.92	639.05
513.28	651.25
513.64	663.49
514.00	676.07
514.37	688.89
514.73	701.75
515.09	714.63
515.45	727.81
515.81	741.16
516.17	754.83
516.53	768.79
516.89	782.74
517.25	796.70
517.61	810.92
517.97	825.22
518.33	839.43
518.69	853.99
519.05	868.75
519.41	883.54
519.77	898.75
520.13	913.95
520.49	929.13
520.85	944.21
521.21	959.64
521.57	975.54
521.93	991.01
522.29	1006.99
522.65	1022.86
523.01	1038.69
523.37	1054.53
523.73	1070.47
524.09	1086.20
524.45	1102.19
524.81	1118.50
525.17	1134.80
525.53	1151.18
525.89	1167.66
526.25	1184.29
526.61	1200.32
526.97	1216.86
527.33	1233.01
527.68	1249.35
528.04	1265.49
528.40	1281.60
528.76	1298.37
529.12	1314.59
529.48	1331.10
529.84	1346.90
530.20	1363.33
530.56	1380.01
530.91	1397.02
531.27	1413.51
531.63	1429.69
531.99	1445.95
532.35	1461.63
532.71	1477.34
533.07	1493.36
533.42	1509.18
533.78	1524.93
534.14	1540.96
534.50	1556.02
534.86	1571.70
535.21	1586.63
535.57	1602.22
535.93	1617.51
536.29	1631.98
536.65	1646.79
537.00	1661.26
537.36	1676.36
537.72	1690.46
538.08	1704.52
538.44	1717.90
538.79	1731.38
539.15	1744.71
539.51	1758.18
539.87	1772.20
540.22	1785.64
540.58	1799.02
540.94	1811.72
541.29	1823.93
541.65	1836.34
542.01	1849.28
542.37	1861.45
542.72	1873.54
543.08	1885.16
543.44	1897.45
543.79	1908.62
544.15	1919.55
544.51	1931.12
544.87	1941.94
545.22	1952.80
545.58	1963.20
545.94	1973.20
546.29	1983.11
546.65	1993.04
547.01	2002.33
547.36	2011.07
547.72	2019.67
548.07	2027.94
548.43	2036.24
548.79	2044.33
549.14	2052.20
549.50	2059.65
549.86	2067.28
550.21	2074.83
550.57	2082.18
550.92	2088.96
551.28	2096.15
551.64	2103.43
551.99	2109.99
552.35	2116.16
552.70	2122.38
553.06	2128.47
553.41	2134.88
553.77	2140.86
554.13	2147.07
554.48	2153.31
554.84	2159.15
555.19	2164.41
555.55	2169.57
555.90	2174.28
556.26	2179.64
556.61	2184.29
556.97	2188.88
557.32	2193.27
557.68	2197.61
558.03	2201.99
558.39	2205.60
558.74	2210.39
559.10	2214.40
559.45	2218.21
559.81	2222.75
560.16	2226.89
560.52	2230.32
560.87	2233.78
561.23	2236.87
561.58	2239.95
561.94	2242.87
562.29	2245.20
562.64	2248.38
563.00	2251.13
563.35	2254.96
563.71	2258.28
564.06	2261.68
564.42	2264.71
564.77	2267.60
565.12	2270.28
565.48	2272.58
565.83	2274.84
566.19	2276.45
566.54	2277.36
566.89	2278.94
567.25	2279.91
567.60	2281.23
567.96	2283.16
568.31	2284.44
568.66	2285.79
569.02	2286.63
569.37	2287.12
569.72	2288.37
570.08	2288.74
570.43	2288.99
570.78	2288.72
571.14	2287.50
571.49	2286.50
571.84	2286.23
572.20	2285.31
572.55	2284.48
572.90	2282.86
573.26	2281.81
573.61	2280.25
573.96	2279.10
574.31	2276.43
574.67	2273.66
575.02	2270.37
575.37	2267.08
575.72	2263.51
576.08	2260.30
576.43	2257.08
576.78	2253.74
577.13	2250.51
577.49	2247.48
577.84	2244.37
578.19	2240.78
578.54	2237.55
578.90	2233.68
579.25	2228.43
579.60	2223.77
579.95	2219.05
580.30	2214.37
580.66	2209.54
581.01	2204.77
581.36	2199.98
581.71	2196.01
582.06	2191.85
582.42	2187.77
582.77	2182.77
583.12	2178.42
583.47	2174.07
583.82	2169.51
584.17	2164.47
584.53	2159.41
584.88	2154.12
585.23	2148.61
585.58	2143.40
585.93	2138.03
586.28	2133.25
586.63	2128.56
586.98	2123.61
587.34	2118.82
587.69	2114.08
588.04	2109.01
588.39	2103.70
588.74	2097.31
589.09	2091.22
589.44	2084.71
589.79	2078.49
590.14	2073.18
590.49	2066.74
590.84	2060.44
591.19	2054.60
591.54	2048.30
591.89	2041.26
592.25	2034.71
592.60	2027.61
592.95	2020.28
593.30	2013.15
593.65	2005.62
594.00	1998.60
594.35	1991.48
594.70	1983.59
595.05	1976.85
595.40	1969.71
595.75	1962.30
596.10	1956.31
596.45	1949.91
596.80	1943.72
597.15	1937.50
597.50	1930.61
597.85	1924.14
598.19	1917.70
598.54	1910.94
598.89	1904.48
599.24	1898.55
599.59	1892.16
599.94	1885.88
600.29	1879.58
600.64	1872.84
600.99	1865.73
601.34	1859.20
601.69	1852.17
602.04	1845.50
602.39	1838.03
602.74	1831.24
603.08	1824.67
603.43	1818.00
603.78	1810.63
604.13	1803.47
604.48	1796.41
604.83	1789.65
605.18	1783.00
605.53	1775.05
605.87	1766.94
606.22	1759.54
606.57	1751.62
606.92	1743.92
607.27	1736.96
607.62	1730.01
607.96	1722.90
608.31	1716.50
608.66	1708.82
609.01	1701.48
609.36	1693.95
609.70	1685.96
610.05	1677.87
610.40	1670.11
610.75	1661.87
611.10	1654.31
611.44	1645.89
611.79	1637.60
612.14	1628.89
612.49	1619.58
612.83	1611.17
613.18	1603.00
613.53	1594.92
613.88	1586.39
614.22	1578.20
614.57	1569.48
614.92	1561.47
615.27	1554.04
615.61	1545.52
615.96	1537.42
616.31	1529.60
616.65	1522.26
617.00	1514.69
617.35	1507.03
617.70	1498.74
618.04	1490.24
618.39	1481.76
618.74	1474.18
619.08	1465.86
619.43	1458.21
619.78	1451.32
620.12	1444.16
620.47	1436.64
620.82	1428.51
621.16	1421.01
621.51	1413.36
621.85	1405.62
622.20	1397.11
622.55	1388.68
622.89	1380.77
623.24	1373.02
623.59	1365.57
623.93	1357.92
624.28	1350.57
624.62	1343.08
624.97	1335.85
625.32	1328.89
625.66	1321.88
626.01	1314.79
626.35	1307.56
626.70	1299.68
627.04	1291.84
627.39	1283.93
627.73	1276.40
628.08	1269.36
628.43	1262.15
628.77	1254.88
629.12	1247.42
629.46	1240.21
629.81	1232.64
630.15	1225.36
630.50	1217.98
630.84	1209.89
631.19	1201.90
631.53	1194.29
631.88	1186.63
632.22	1179.00
632.57	1171.69
632.91	1164.09
633.26	1156.62
633.60	1149.05
633.95	1141.84
634.29	1134.81
634.64	1128.10
634.98	1120.75
635.32	1113.66
635.67	1106.91
636.01	1100.09
636.36	1093.30
636.70	1086.63
637.05	1080.07
637.39	1073.65
637.73	1067.18
638.08	1061.18
638.42	1055.16
638.77	1048.68
639.11	1042.06
639.45	1035.56
639.80	1028.89
640.14	1022.54
640.49	1015.99
640.83	1009.65
641.17	1003.52
641.52	997.19
641.86	990.66
642.20	984.75
642.55	978.34
642.89	971.90
643.23	965.24
643.58	959.41
643.92	953.30
644.26	947.24
644.61	941.03
644.95	934.98
645.29	928.44
645.64	921.69
645.98	915.31
646.32	909.31
646.66	903.23
647.01	897.37
647.35	891.60
647.69	885.61
648.04	880.00
648.38	874.18
648.72	868.21
649.06	862.23
649.41	856.26
649.75	850.35
650.09	844.35
650.43	838.72
650.78	832.54
651.12	826.56
651.46	820.82
651.80	815.17
652.14	809.74
652.49	804.38
652.83	799.19
653.17	793.69
653.51	788.13
653.85	782.68
654.20	777.05
654.54	771.06
654.88	765.26
655.22	759.39
655.56	753.60
655.90	748.03
656.25	742.75
656.59	737.41
656.93	732.26
657.27	727.17
657.61	721.63
657.95	716.51
658.29	711.35
658.64	706.02
658.98	700.60
659.32	695.06
659.66	689.81
660.00	684.56
660.34	679.51
660.68	674.51
661.02	669.50
661.36	664.72
661.70	660.19
662.05	655.93
662.39	651.61
662.73	647.15
663.07	642.78
663.41	638.27
663.75	633.80
664.09	629.19
664.43	624.77
664.77	620.68
665.11	616.40
665.45	612.28
665.79	608.18
666.13	604.09
666.47	600.02
666.81	595.86
667.15	591.63
667.49	587.65
667.83	583.76
668.17	579.82
668.51	575.81
668.85	571.75
669.19	567.76
669.53	563.94
669.87	560.07
670.21	556.36
670.55	552.74
670.89	549.27
671.23	545.89
671.57	542.30
671.91	538.74
672.25	535.19
672.58	531.66
672.92	528.20
673.26	525.02
673.60	521.82
673.94	518.69
674.28	515.75
674.62	512.84
674.96	509.80
675.30	506.97
675.64	504.04
675.97	501.23
676.31	498.40
676.65	495.40
676.99	492.67
677.33	489.79
677.67	486.97
678.01	483.97
678.34	480.97
678.68	478.08
679.02	475.26
679.36	472.49
679.70	469.74
680.04	467.05
680.37	464.23
680.71	461.42
681.05	458.77
681.39	456.05
681.73	453.37
682.06	450.83
682.40	448.23
682.74	445.63
683.08	443.03
683.42	440.42
683.75	437.93
684.09	435.30
684.43	432.81
684.77	430.32
685.10	427.91
685.44	425.52
685.78	423.24
686.12	420.94
686.45	418.65
686.79	416.40
687.13	414.13
687.46	411.84
687.80	409.66
688.14	407.36
688.48	405.30
688.81	403.05
689.15	400.88
689.49	398.67
689.82	396.60
690.16	394.47
690.50	392.50
690.83	390.54
691.17	388.56
691.51	386.65
691.84	384.72
692.18	382.82
692.52	380.88
692.85	378.94
693.19	377.06
693.52	375.21
693.86	373.34
694.20	371.57
694.53	369.81
694.87	367.97
695.21	366.22
695.54	364.37
695.88	362.64
696.21	360.88
696.55	359.19
696.88	357.49
697.22	355.85
697.56	354.15
697.89	352.50
698.23	350.92
698.56	349.26
698.90	347.78
699.23	346.14
699.57	344.57
699.90	342.96
700.24	341.41
700.58	339.88
700.91	338.42
701.25	336.94
701.58	335.59
701.92	334.21
702.25	332.84
702.59	331.45
702.92	330.14
703.26	328.80
703.59	327.50
703.93	326.31
704.26	325.14
704.60	323.88
704.93	322.60
705.26	321.35
705.60	320.20
705.93	318.96
706.27	317.87
706.60	316.85
706.94	315.85
707.27	314.74
707.61	313.65
707.94	312.58
708.27	311.45
708.61	310.34
708.94	309.30
709.28	308.30
709.61	307.34
709.94	306.36
710.28	305.37
710.61	304.37
710.95	303.30
711.28	302.30
711.61	301.34
711.95	300.43
712.28	299.50
712.61	298.53
712.95	297.59
713.28	296.74
713.61	295.81
713.95	294.86
714.28	293.96
714.61	293.08
714.95	292.21
715.28	291.34
715.61	290.46
715.95	289.58
716.28	288.71
716.61	287.85
716.95	287.01
717.28	286.22
717.61	285.47
717.94	284.67
718.28	283.89
718.61	283.10
718.94	282.37
719.27	281.68
719.61	280.99
719.94	280.29
720.27	279.50
720.60	278.81
720.94	278.18
721.27	277.60
721.60	277.01
721.93	276.44
722.27	275.90
722.60	275.32
722.93	274.77
723.26	274.23
723.59	273.70
723.93	273.15
724.26	272.60
724.59	272.01
724.92	271.50
725.25	270.98
725.59	270.49
725.92	269.98
726.25	269.46
726.58	268.96
726.91	268.47
727.24	268.00
727.57	267.52
727.91	267.00
728.24	266.55
728.57	266.02
728.90	265.53
729.23	265.01
729.56	264.60
729.89	264.13
730.22	263.61
730.55	263.10
730.89	262.66
731.22	262.23
731.55	261.81
731.88	261.39
732.21	260.93
732.54	260.48
732.87	260.06
733.20	259.69
733.53	259.26
733.86	258.93
734.19	258.56
734.52	258.21
734.85	257.91
735.18	257.45
735.51	257.13
735.84	256.77
736.17	256.44
736.50	256.03
736.83	255.79
737.16	255.50
737.49	255.17
737.82	254.80
738.15	254.46
738.48	254.10
738.81	253.74
739.14	253.46
739.47	253.17
739.80	252.85
740.13	252.54
740.46	252.24
740.79	251.90
741.12	251.59
741.45	251.25
741.78	250.83
742.11	250.59
742.44	250.27
742.77	249.95
743.10	249.64
743.43	249.32
743.75	248.90
744.08	248.74
744.41	248.47
744.74	248.22
745.07	247.98
745.40	247.75
745.73	247.53
746.06	247.24
746.39	246.98
746.71	246.71
747.04	246.40
747.37	246.10
747.70	245.83
748.03	245.60
748.36	245.34
748.68	245.16
749.01	244.92
749.34	244.66
749.67	244.44
750.00	244.21
750.33	244.09
750.65	243.91
750.98	243.55
751.31	243.34
751.64	243.09
751.97	242.89
752.29	242.67
752.62	242.42
752.95	242.20
753.28	241.97
753.60	241.75
753.93	241.57
754.26	241.38
754.59	241.16
754.91	240.93
755.24	240.75
755.57	240.54
755.90	240.31
756.22	240.14
756.55	239.94
756.88	239.75
757.20	239.50
757.53	239.31
757.86	239.16
758.19	238.98
758.51	238.85
758.84	238.63
759.17	238.42
759.49	238.29
759.82	238.18
760.15	238.04
760.47	237.88
760.80	237.70
761.13	237.60
761.45	237.44
761.78	237.30
762.11	237.16
762.43	237.02
762.76	236.89
763.08	236.76
763.41	236.62
763.74	236.49
764.06	236.32
764.39	236.19
764.71	236.05
765.04	235.92
765.37	235.79
765.69	235.65
766.02	235.54
766.34	235.35
766.67	235.19
767.00	235.04
767.32	234.97
767.65	234.93
767.97	234.79
768.30	234.65
768.62	234.52
768.95	234.38
769.27	234.26
769.60	234.17
769.92	234.08
770.25	233.95
770.57	233.83
770.90	233.75
771.22	233.64
771.55	233.54
771.87	233.43
772.20	233.30
772.52	233.30
772.85	233.32
773.17	233.26
773.50	233.17
773.82	233.05
774.15	232.90
774.47	232.74
774.80	232.61
775.12	232.58
775.45	232.48
775.77	232.42
776.09	232.32
776.42	232.24
776.74	232.17
777.07	232.08
777.39	231.99
777.72	231.90
778.04	231.82
778.36	231.74
778.69	231.69
779.01	231.63
779.33	231.49
779.66	231.33
779.98	231.26
780.31	231.18
780.63	231.21
780.95	231.20
781.28	231.17
781.60	231.16
781.92	231.08
782.25	231.04
782.57	230.97
782.89	230.93
783.22	230.86
783.54	230.80
783.86	230.79
784.19	230.73
784.51	230.71
784.83	230.66
785.16	230.63
785.48	230.57
785.80	230.52
786.12	230.47
786.45	230.42
786.77	230.36
787.09	230.33
