SpectraSuite Data File
++++++++++++++++++++++++++++++++++++
Date: Fri Feb 01 17:27:12 EST 2013
User: group
Dark Spectrum Present: No
Reference Spectrum Present: No
Number of Sampled Component Spectra: 1
Spectrometers: USB2E7196
Integration Time (usec): 35000 (USB2E7196)
Spectra Averaged: 100 (USB2E7196)
Boxcar Smoothing: 10 (USB2E7196)
Correct for Electrical Dark: No (USB2E7196)
Strobe/Lamp Enabled: No (USB2E7196)
Correct for Detector Non-linearity: No (USB2E7196)
Correct for Stray Light: No (USB2E7196)
Number of Pixels in Processed Spectrum: 2048
>>>>>Begin Processed Spectral Data<<<<<
339.09	0.00
339.48	212.68
339.86	214.40
340.24	216.08
340.63	217.48
341.01	219.95
341.39	219.52
341.78	220.84
342.16	222.18
342.54	222.60
342.93	211.36
343.31	222.03
343.69	222.55
344.07	223.01
344.46	223.41
344.84	223.78
345.22	224.01
345.60	224.28
345.99	224.49
346.37	224.62
346.75	224.73
347.13	224.77
347.52	224.79
347.90	224.88
348.28	224.90
348.66	224.90
349.05	224.89
349.43	224.99
349.81	225.01
350.19	225.05
350.57	225.10
350.96	225.15
351.34	225.24
351.72	225.35
352.10	225.41
352.48	225.50
352.87	225.53
353.25	225.60
353.63	225.63
354.01	225.70
354.39	225.74
354.77	225.83
355.15	225.94
355.54	226.05
355.92	226.09
356.30	226.15
356.68	226.29
357.06	226.37
357.44	226.37
357.82	226.42
358.20	226.49
358.58	226.51
358.97	226.60
359.35	226.66
359.73	226.74
360.11	226.84
360.49	226.88
360.87	226.94
361.25	226.97
361.63	227.07
362.01	227.10
362.39	227.16
362.77	227.19
363.15	227.19
363.53	227.20
363.91	227.22
364.29	227.29
364.67	227.17
365.05	227.18
365.43	227.21
365.81	227.23
366.19	227.28
366.57	227.34
366.95	227.36
367.33	227.37
367.71	227.34
368.09	227.34
368.47	227.33
368.85	227.32
369.23	227.30
369.61	227.27
369.99	227.29
370.37	227.26
370.75	227.29
371.13	227.23
371.51	227.19
371.89	227.16
372.27	227.08
372.65	227.08
373.03	227.02
373.41	227.01
373.78	226.99
374.16	226.90
374.54	226.83
374.92	226.75
375.30	226.69
375.68	226.62
376.06	226.53
376.44	226.49
376.82	226.46
377.19	226.42
377.57	226.33
377.95	226.22
378.33	226.16
378.71	226.04
379.09	226.02
379.47	226.01
379.84	225.95
380.22	225.92
380.60	225.81
380.98	225.72
381.36	225.61
381.73	225.50
382.11	225.43
382.49	225.38
382.87	225.31
383.25	225.24
383.62	225.35
384.00	225.29
384.38	225.22
384.76	225.14
385.13	225.11
385.51	225.07
385.89	224.99
386.27	224.96
386.64	224.90
387.02	224.84
387.40	224.75
387.78	224.71
388.15	224.65
388.53	224.65
388.91	224.63
389.29	224.59
389.66	224.58
390.04	224.56
390.42	224.55
390.79	224.54
391.17	224.49
391.55	224.32
391.92	224.31
392.30	224.34
392.68	224.33
393.05	224.32
393.43	224.34
393.81	224.37
394.18	224.35
394.56	224.36
394.94	224.39
395.31	224.41
395.69	224.41
396.06	224.47
396.44	224.47
396.82	224.49
397.19	224.58
397.57	224.63
397.95	224.66
398.32	224.67
398.70	224.73
399.07	224.81
399.45	224.86
399.82	224.92
400.20	224.95
400.58	225.03
400.95	225.01
401.33	225.09
401.70	225.26
402.08	225.34
402.45	225.44
402.83	225.55
403.20	225.63
403.58	225.73
403.95	225.85
404.33	226.00
404.71	226.13
405.08	226.29
405.46	226.42
405.83	226.58
406.21	226.71
406.58	226.87
406.96	227.03
407.33	227.20
407.70	227.40
408.08	227.67
408.45	227.86
408.83	228.14
409.20	228.39
409.58	228.55
409.95	228.80
410.33	229.06
410.70	229.30
411.08	229.64
411.45	229.97
411.82	230.26
412.20	230.60
412.57	231.04
412.95	231.34
413.32	231.75
413.69	232.17
414.07	232.63
414.44	233.08
414.82	233.60
415.19	234.17
415.56	234.70
415.94	235.27
416.31	235.93
416.68	236.58
417.06	237.30
417.43	238.04
417.81	238.86
418.18	239.64
418.55	240.53
418.93	241.43
419.30	242.35
419.67	243.35
420.04	244.38
420.42	245.38
420.79	246.61
421.16	247.79
421.54	249.05
421.91	250.29
422.28	251.63
422.66	253.00
423.03	254.37
423.40	255.79
423.77	257.27
424.15	258.75
424.52	260.33
424.89	261.96
425.26	263.52
425.64	265.03
426.01	266.71
426.38	268.43
426.75	270.13
427.13	271.96
427.50	273.83
427.87	275.77
428.24	277.74
428.61	279.55
428.99	281.59
429.36	283.71
429.73	285.84
430.10	287.88
430.47	290.00
430.85	292.23
431.22	294.59
431.59	297.03
431.96	299.37
432.33	301.93
432.70	304.45
433.08	307.37
433.45	310.11
433.82	312.82
434.19	315.83
434.56	318.77
434.93	321.49
435.30	324.22
435.68	327.20
436.05	330.13
436.42	333.02
436.79	335.65
437.16	338.48
437.53	341.42
437.90	344.39
438.27	347.24
438.64	350.12
439.01	352.80
439.38	355.08
439.75	357.31
440.13	359.90
440.50	362.29
440.87	364.22
441.24	366.28
441.61	368.60
441.98	370.14
442.35	372.04
442.72	373.98
443.09	375.89
443.46	376.95
443.83	377.61
444.20	378.15
444.57	379.04
444.94	379.38
445.31	379.79
445.68	380.17
446.05	380.27
446.42	379.93
446.79	379.50
447.16	379.11
447.53	378.80
447.90	377.63
448.27	376.45
448.64	374.85
449.01	373.67
449.37	371.60
449.74	369.68
450.11	367.35
450.48	364.83
450.85	362.20
451.22	360.04
451.59	357.89
451.96	355.88
452.33	353.16
452.70	350.73
453.07	347.78
453.43	344.79
453.80	341.92
454.17	339.12
454.54	336.50
454.91	333.65
455.28	330.86
455.65	328.22
456.02	325.68
456.38	323.43
456.75	320.65
457.12	318.27
457.49	315.92
457.86	313.65
458.23	311.73
458.59	309.57
458.96	307.35
459.33	305.43
459.70	303.47
460.07	301.94
460.43	300.14
460.80	298.48
461.17	296.96
461.54	295.38
461.91	293.95
462.27	292.45
462.64	291.16
463.01	289.80
463.38	288.50
463.74	287.10
464.11	285.87
464.48	284.83
464.85	283.67
465.21	282.80
465.58	281.82
465.95	280.68
466.32	279.79
466.68	278.82
467.05	277.89
467.42	276.99
467.78	275.99
468.15	275.05
468.52	274.34
468.88	273.48
469.25	272.69
469.62	272.03
469.98	271.27
470.35	270.65
470.72	270.01
471.08	269.32
471.45	268.71
471.82	268.17
472.18	267.55
472.55	267.11
472.92	266.55
473.28	266.11
473.65	265.65
474.02	265.13
474.38	264.77
474.75	264.47
475.11	264.09
475.48	263.86
475.85	263.65
476.21	263.43
476.58	263.25
476.94	263.10
477.31	262.91
477.67	262.80
478.04	262.63
478.41	262.62
478.77	262.67
479.14	262.63
479.50	262.62
479.87	262.67
480.23	262.78
480.60	262.86
480.96	262.95
481.33	263.14
481.69	263.38
482.06	263.57
482.42	263.72
482.79	264.01
483.15	264.32
483.52	264.68
483.88	265.00
484.25	265.35
484.61	265.76
484.98	266.24
485.34	266.76
485.71	267.37
486.07	267.94
486.44	268.51
486.80	269.25
487.17	269.96
487.53	270.76
487.90	271.58
488.26	272.52
488.62	273.52
488.99	274.46
489.35	275.46
489.72	276.62
490.08	277.83
490.44	279.03
490.81	280.34
491.17	281.70
491.54	283.17
491.90	284.72
492.26	286.36
492.63	288.06
492.99	289.84
493.36	291.69
493.72	293.69
494.08	295.77
494.45	297.97
494.81	300.40
495.17	302.84
495.54	305.36
495.90	308.01
496.26	310.75
496.63	313.66
496.99	316.80
497.35	320.01
497.72	323.38
498.08	326.89
498.44	330.53
498.80	334.39
499.17	338.38
499.53	342.55
499.89	346.84
500.26	351.28
500.62	355.92
500.98	360.85
501.34	365.92
501.71	371.15
502.07	376.55
502.43	382.03
502.79	387.72
503.16	393.69
503.52	399.85
503.88	406.15
504.24	412.70
504.60	419.39
504.97	426.42
505.33	433.56
505.69	441.14
506.05	448.84
506.41	456.56
506.78	464.58
507.14	472.84
507.50	481.39
507.86	490.27
508.22	499.29
508.59	508.31
508.95	517.64
509.31	527.25
509.67	537.13
510.03	547.22
510.39	557.61
510.75	568.21
511.12	578.95
511.48	590.07
511.84	601.24
512.20	612.53
512.56	624.16
512.92	636.15
513.28	648.17
513.64	660.35
514.00	672.88
514.37	685.52
514.73	698.21
515.09	710.95
515.45	723.93
515.81	737.12
516.17	750.77
516.53	764.52
516.89	778.45
517.25	792.26
517.61	806.29
517.97	820.44
518.33	834.50
518.69	848.94
519.05	863.48
519.41	878.29
519.77	893.46
520.13	908.53
520.49	923.55
520.85	938.51
521.21	953.75
521.57	969.41
521.93	984.71
522.29	1000.70
522.65	1016.59
523.01	1032.24
523.37	1047.89
523.73	1063.70
524.09	1079.46
524.45	1095.25
524.81	1111.45
525.17	1127.81
525.53	1144.03
525.89	1160.38
526.25	1176.68
526.61	1192.67
526.97	1209.00
527.33	1225.03
527.68	1241.10
528.04	1257.09
528.40	1273.27
528.76	1289.87
529.12	1306.14
529.48	1322.70
529.84	1338.23
530.20	1354.45
530.56	1371.03
530.91	1388.01
531.27	1404.29
531.63	1420.32
531.99	1436.42
532.35	1452.04
532.71	1467.50
533.07	1483.66
533.42	1499.26
533.78	1514.94
534.14	1530.80
534.50	1545.68
534.86	1561.22
535.21	1576.19
535.57	1591.86
535.93	1607.06
536.29	1621.54
536.65	1636.16
537.00	1650.41
537.36	1665.49
537.72	1679.66
538.08	1693.94
538.44	1707.50
538.79	1721.21
539.15	1734.48
539.51	1748.06
539.87	1762.10
540.22	1775.72
540.58	1789.18
540.94	1802.30
541.29	1814.90
541.65	1827.26
542.01	1840.36
542.37	1852.52
542.72	1864.77
543.08	1876.39
543.44	1888.59
543.79	1899.77
544.15	1910.67
544.51	1922.27
544.87	1933.18
545.22	1943.87
545.58	1954.16
545.94	1963.83
546.29	1973.64
546.65	1983.78
547.01	1993.06
547.36	2001.79
547.72	2010.32
548.07	2018.39
548.43	2026.65
548.79	2034.77
549.14	2042.71
549.50	2050.14
549.86	2057.90
550.21	2065.42
550.57	2072.73
550.92	2079.65
551.28	2086.99
551.64	2094.37
551.99	2101.07
552.35	2107.61
552.70	2114.11
553.06	2120.23
553.41	2126.90
553.77	2133.11
554.13	2139.27
554.48	2145.69
554.84	2151.73
555.19	2157.13
555.55	2162.40
555.90	2167.15
556.26	2172.57
556.61	2177.58
556.97	2182.39
557.32	2186.94
557.68	2191.27
558.03	2195.84
558.39	2199.66
558.74	2204.49
559.10	2208.70
559.45	2212.68
559.81	2217.13
560.16	2221.23
560.52	2224.81
560.87	2228.50
561.23	2231.50
561.58	2234.66
561.94	2237.59
562.29	2239.93
562.64	2243.23
563.00	2246.02
563.35	2249.95
563.71	2253.32
564.06	2256.69
564.42	2259.93
564.77	2262.85
565.12	2265.76
565.48	2268.19
565.83	2270.66
566.19	2272.55
566.54	2273.81
566.89	2275.58
567.25	2276.67
567.60	2278.44
567.96	2280.76
568.31	2282.04
568.66	2283.63
569.02	2284.71
569.37	2285.55
569.72	2287.06
570.08	2287.72
570.43	2288.39
570.78	2288.26
571.14	2287.18
571.49	2286.35
571.84	2286.26
572.20	2285.59
572.55	2284.74
572.90	2283.41
573.26	2282.40
573.61	2280.86
573.96	2279.54
574.31	2276.90
574.67	2274.32
575.02	2270.99
575.37	2267.77
575.72	2264.57
576.08	2261.53
576.43	2258.44
576.78	2255.12
577.13	2252.15
577.49	2249.10
577.84	2246.06
578.19	2242.56
578.54	2239.36
578.90	2235.63
579.25	2230.48
579.60	2225.96
579.95	2221.52
580.30	2216.91
580.66	2212.08
581.01	2207.41
581.36	2202.82
581.71	2198.97
582.06	2194.94
582.42	2190.99
582.77	2186.06
583.12	2181.68
583.47	2177.42
583.82	2173.05
584.17	2168.20
584.53	2163.01
584.88	2157.71
585.23	2152.29
585.58	2147.17
585.93	2141.74
586.28	2136.98
586.63	2132.24
586.98	2127.34
587.34	2122.65
587.69	2117.92
588.04	2113.01
588.39	2107.74
588.74	2101.49
589.09	2095.57
589.44	2088.88
589.79	2082.83
590.14	2077.40
590.49	2071.09
590.84	2064.84
591.19	2058.94
591.54	2052.53
591.89	2045.53
592.25	2039.18
592.60	2031.95
592.95	2024.66
593.30	2017.64
593.65	2010.37
594.00	2003.56
594.35	1996.45
594.70	1988.42
595.05	1981.57
595.40	1974.39
595.75	1966.99
596.10	1961.11
596.45	1954.58
596.80	1948.57
597.15	1942.24
597.50	1935.57
597.85	1929.11
598.19	1922.67
598.54	1916.00
598.89	1909.59
599.24	1903.82
599.59	1897.38
599.94	1891.20
600.29	1885.01
600.64	1878.58
600.99	1871.27
601.34	1864.58
601.69	1857.52
602.04	1851.03
602.39	1843.78
602.74	1837.09
603.08	1830.49
603.43	1823.69
603.78	1816.52
604.13	1809.40
604.48	1802.20
604.83	1795.29
605.18	1788.64
605.53	1780.71
605.87	1772.46
606.22	1765.13
606.57	1757.11
606.92	1749.56
607.27	1742.62
607.62	1735.71
607.96	1728.59
608.31	1722.16
608.66	1714.46
609.01	1707.09
609.36	1699.59
609.70	1691.63
610.05	1683.64
610.40	1676.10
610.75	1667.75
611.10	1659.91
611.44	1651.38
611.79	1643.20
612.14	1634.47
612.49	1625.15
612.83	1616.70
613.18	1608.48
613.53	1600.46
613.88	1591.85
614.22	1583.48
614.57	1574.74
614.92	1566.69
615.27	1559.10
615.61	1550.70
615.96	1542.59
616.31	1534.80
616.65	1527.33
617.00	1519.54
617.35	1511.61
617.70	1503.06
618.04	1494.55
618.39	1486.17
618.74	1478.58
619.08	1470.27
619.43	1462.60
619.78	1455.59
620.12	1448.34
620.47	1440.73
620.82	1432.40
621.16	1424.86
621.51	1417.14
621.85	1409.43
622.20	1400.83
622.55	1392.26
622.89	1384.23
623.24	1376.52
623.59	1369.00
623.93	1361.38
624.28	1354.05
624.62	1346.50
624.97	1339.33
625.32	1332.41
625.66	1325.40
626.01	1318.22
626.35	1310.86
626.70	1302.93
627.04	1295.10
627.39	1287.18
627.73	1279.69
628.08	1272.80
628.43	1265.54
628.77	1258.14
629.12	1250.54
629.46	1243.24
629.81	1235.53
630.15	1228.17
630.50	1220.69
630.84	1212.53
631.19	1204.42
631.53	1196.74
631.88	1189.08
632.22	1181.32
632.57	1173.94
632.91	1166.27
633.26	1158.81
633.60	1151.26
633.95	1144.02
634.29	1136.95
634.64	1130.13
634.98	1122.80
635.32	1115.47
635.67	1108.71
636.01	1101.98
636.36	1095.12
636.70	1088.48
637.05	1082.02
637.39	1075.49
637.73	1068.95
638.08	1062.95
638.42	1056.92
638.77	1050.57
639.11	1044.04
639.45	1037.66
639.80	1030.95
640.14	1024.61
640.49	1018.01
640.83	1011.65
641.17	1005.53
641.52	999.18
641.86	992.71
642.20	986.79
642.55	980.28
642.89	973.91
643.23	967.31
643.58	961.47
643.92	955.26
644.26	949.24
644.61	943.15
644.95	937.17
645.29	930.53
645.64	923.83
645.98	917.42
646.32	911.41
646.66	905.33
647.01	899.52
647.35	893.74
647.69	887.72
648.04	882.12
648.38	876.21
648.72	870.21
649.06	864.25
649.41	858.29
649.75	852.39
650.09	846.36
650.43	840.55
650.78	834.45
651.12	828.45
651.46	822.60
651.80	816.97
652.14	811.50
652.49	806.19
652.83	800.98
653.17	795.36
653.51	789.65
653.85	784.17
654.20	778.57
654.54	772.54
654.88	766.87
655.22	760.89
655.56	755.17
655.90	749.58
656.25	744.30
656.59	738.93
656.93	733.82
657.27	728.65
657.61	723.17
657.95	718.00
658.29	712.90
658.64	707.62
658.98	702.21
659.32	696.72
659.66	691.46
660.00	686.17
660.34	681.11
660.68	676.21
661.02	671.05
661.36	666.34
661.70	661.84
662.05	657.47
662.39	653.28
662.73	648.76
663.07	644.37
663.41	639.85
663.75	635.38
664.09	630.80
664.43	626.42
664.77	622.34
665.11	618.07
665.45	613.89
665.79	609.89
666.13	605.74
666.47	601.57
666.81	597.36
667.15	593.12
667.49	589.24
667.83	585.36
668.17	581.50
668.51	577.38
668.85	573.31
669.19	569.38
669.53	565.54
669.87	561.70
670.21	557.97
670.55	554.28
670.89	550.84
671.23	547.44
671.57	543.85
671.91	540.31
672.25	536.77
672.58	533.22
672.92	529.73
673.26	526.51
673.60	523.36
673.94	520.29
674.28	517.41
674.62	514.41
674.96	511.25
675.30	508.37
675.64	505.44
675.97	502.62
676.31	499.71
676.65	496.75
676.99	494.03
677.33	491.17
677.67	488.39
678.01	485.27
678.34	482.25
678.68	479.34
679.02	476.48
679.36	473.68
679.70	471.02
680.04	468.18
680.37	465.35
680.71	462.52
681.05	459.79
681.39	457.05
681.73	454.37
682.06	451.86
682.40	449.30
682.74	446.67
683.08	444.07
683.42	441.48
683.75	438.93
684.09	436.31
684.43	433.76
684.77	431.23
685.10	428.83
685.44	426.56
685.78	424.24
686.12	421.98
686.45	419.70
686.79	417.31
687.13	415.13
687.46	412.84
687.80	410.65
688.14	408.43
688.48	406.37
688.81	404.14
689.15	401.94
689.49	399.72
689.82	397.63
690.16	395.55
690.50	393.57
690.83	391.59
691.17	389.61
691.51	387.72
691.84	385.87
692.18	383.98
692.52	381.93
692.85	379.95
693.19	378.01
693.52	376.12
693.86	374.32
694.20	372.50
694.53	370.75
694.87	368.86
695.21	367.03
695.54	365.16
695.88	363.36
696.21	361.64
696.55	359.94
696.88	358.24
697.22	356.48
697.56	354.77
697.89	353.10
698.23	351.47
698.56	349.88
698.90	348.26
699.23	346.60
699.57	345.05
699.90	343.51
700.24	341.91
700.58	340.36
700.91	338.88
701.25	337.42
701.58	336.01
701.92	334.67
702.25	333.30
702.59	331.92
702.92	330.60
703.26	329.22
703.59	327.92
703.93	326.68
704.26	325.50
704.60	324.22
704.93	322.93
705.26	321.68
705.60	320.42
705.93	319.25
706.27	318.20
706.60	317.13
706.94	316.03
707.27	314.97
707.61	313.88
707.94	312.84
708.27	311.74
708.61	310.64
708.94	309.59
709.28	308.62
709.61	307.64
709.94	306.67
710.28	305.65
710.61	304.64
710.95	303.58
711.28	302.67
711.61	301.72
711.95	300.76
712.28	299.81
712.61	298.85
712.95	297.93
713.28	296.98
713.61	296.06
713.95	295.17
714.28	294.28
714.61	293.39
714.95	292.50
715.28	291.62
715.61	290.75
715.95	289.88
716.28	288.96
716.61	288.11
716.95	287.30
717.28	286.54
717.61	285.81
717.94	285.08
718.28	284.22
718.61	283.46
718.94	282.76
719.27	282.09
719.61	281.44
719.94	280.73
720.27	280.02
720.60	279.33
720.94	278.65
721.27	278.08
721.60	277.51
721.93	276.89
722.27	276.34
722.60	275.76
722.93	275.19
723.26	274.69
723.59	274.13
723.93	273.50
724.26	272.94
724.59	272.32
724.92	271.76
725.25	271.26
725.59	270.73
725.92	270.22
726.25	269.68
726.58	269.12
726.91	268.63
727.24	268.15
727.57	267.67
727.91	267.17
728.24	266.65
728.57	266.10
728.90	265.62
729.23	265.11
729.56	264.66
729.89	264.18
730.22	263.68
730.55	263.19
730.89	262.76
731.22	262.28
731.55	261.84
731.88	261.39
732.21	260.94
732.54	260.50
732.87	260.08
733.20	259.62
733.53	259.20
733.86	258.83
734.19	258.41
734.52	257.99
734.85	257.68
735.18	257.26
735.51	256.89
735.84	256.53
736.17	256.19
736.50	255.74
736.83	255.46
737.16	255.10
737.49	254.77
737.82	254.44
738.15	254.10
738.48	253.73
738.81	253.40
739.14	253.06
739.47	252.72
739.80	252.39
740.13	252.10
740.46	251.82
740.79	251.47
741.12	251.17
741.45	250.83
741.78	250.47
742.11	250.17
742.44	249.85
742.77	249.53
743.10	249.23
743.43	248.92
743.75	248.57
744.08	248.41
744.41	248.16
744.74	247.86
745.07	247.57
745.40	247.37
745.73	247.11
746.06	246.87
746.39	246.63
746.71	246.32
747.04	246.06
747.37	245.76
747.70	245.48
748.03	245.22
748.36	245.03
748.68	244.77
749.01	244.52
749.34	244.30
749.67	244.06
750.00	243.81
750.33	243.69
750.65	243.44
750.98	243.10
751.31	242.86
751.64	242.63
751.97	242.46
752.29	242.25
752.62	242.01
752.95	241.80
753.28	241.58
753.60	241.39
753.93	241.22
754.26	241.04
754.59	240.82
754.91	240.65
755.24	240.46
755.57	240.27
755.90	240.10
756.22	239.87
756.55	239.70
756.88	239.52
757.20	239.26
757.53	239.09
757.86	238.90
758.19	238.73
758.51	238.57
758.84	238.35
759.17	238.17
759.49	238.00
759.82	237.86
760.15	237.74
760.47	237.62
760.80	237.45
761.13	237.29
761.45	237.14
761.78	236.98
762.11	236.82
762.43	236.65
762.76	236.51
763.08	236.43
763.41	236.31
763.74	236.17
764.06	236.02
764.39	235.91
764.71	235.76
765.04	235.62
765.37	235.50
765.69	235.40
766.02	235.28
766.34	235.16
766.67	234.97
767.00	234.83
767.32	234.76
767.65	234.67
767.97	234.56
768.30	234.45
768.62	234.32
768.95	234.17
769.27	234.09
769.60	233.98
769.92	233.82
770.25	233.67
770.57	233.57
770.90	233.49
771.22	233.33
771.55	233.26
771.87	233.16
772.20	233.04
772.52	233.01
772.85	233.02
773.17	232.90
773.50	232.77
773.82	232.70
774.15	232.54
774.47	232.41
774.80	232.33
775.12	232.23
775.45	232.13
775.77	232.06
776.09	231.97
776.42	231.89
776.74	231.83
777.07	231.75
777.39	231.65
777.72	231.55
778.04	231.50
778.36	231.38
778.69	231.28
779.01	231.19
779.33	231.02
779.66	230.82
779.98	230.72
780.31	230.69
780.63	230.61
780.95	230.53
781.28	230.43
781.60	230.36
781.92	230.31
782.25	230.24
782.57	230.17
782.89	230.09
783.22	230.01
783.54	229.94
783.86	229.85
784.19	229.79
784.51	229.75
784.83	229.70
785.16	229.64
785.48	229.60
785.80	229.57
786.12	229.52
786.45	229.47
786.77	229.49
787.09	229.40
