SpectraSuite Data File
++++++++++++++++++++++++++++++++++++
Date: Fri Feb 01 17:45:46 EST 2013
User: group
Dark Spectrum Present: No
Reference Spectrum Present: No
Number of Sampled Component Spectra: 1
Spectrometers: USB2E7196
Integration Time (usec): 35000 (USB2E7196)
Spectra Averaged: 100 (USB2E7196)
Boxcar Smoothing: 10 (USB2E7196)
Correct for Electrical Dark: No (USB2E7196)
Strobe/Lamp Enabled: No (USB2E7196)
Correct for Detector Non-linearity: No (USB2E7196)
Correct for Stray Light: No (USB2E7196)
Number of Pixels in Processed Spectrum: 2048
>>>>>Begin Processed Spectral Data<<<<<
339.09	0.00
339.48	212.35
339.86	214.32
340.24	215.53
340.63	216.72
341.01	219.67
341.39	220.15
341.78	221.14
342.16	222.47
342.54	221.84
342.93	211.07
343.31	221.74
343.69	222.29
344.07	222.74
344.46	223.18
344.84	223.58
345.22	223.83
345.60	224.07
345.99	224.21
346.37	224.29
346.75	224.44
347.13	224.52
347.52	224.57
347.90	224.67
348.28	224.71
348.66	224.75
349.05	224.75
349.43	224.81
349.81	224.86
350.19	224.92
350.57	224.98
350.96	225.09
351.34	225.17
351.72	225.28
352.10	225.37
352.48	225.41
352.87	225.47
353.25	225.52
353.63	225.56
354.01	225.65
354.39	225.76
354.77	225.84
355.15	225.93
355.54	225.97
355.92	226.01
356.30	226.08
356.68	226.21
357.06	226.27
357.44	226.32
357.82	226.36
358.20	226.42
358.58	226.49
358.97	226.51
359.35	226.63
359.73	226.70
360.11	226.77
360.49	226.84
360.87	226.86
361.25	226.89
361.63	226.98
362.01	227.05
362.39	227.06
362.77	227.15
363.15	227.17
363.53	227.21
363.91	227.24
364.29	227.26
364.67	227.19
365.05	227.21
365.43	227.24
365.81	227.25
366.19	227.31
366.57	227.35
366.95	227.38
367.33	227.29
367.71	227.25
368.09	227.25
368.47	227.23
368.85	227.22
369.23	227.20
369.61	227.14
369.99	227.14
370.37	227.13
370.75	227.07
371.13	227.01
371.51	226.99
371.89	226.99
372.27	226.93
372.65	226.88
373.03	226.84
373.41	226.78
373.78	226.75
374.16	226.63
374.54	226.56
374.92	226.50
375.30	226.45
375.68	226.39
376.06	226.34
376.44	226.31
376.82	226.27
377.19	226.26
377.57	226.23
377.95	226.10
378.33	226.01
378.71	225.93
379.09	225.86
379.47	225.81
379.84	225.72
380.22	225.67
380.60	225.62
380.98	225.55
381.36	225.51
381.73	225.41
382.11	225.37
382.49	225.31
382.87	225.24
383.25	225.18
383.62	225.24
384.00	225.17
384.38	225.10
384.76	225.09
385.13	225.05
385.51	225.00
385.89	224.98
386.27	224.96
386.64	224.89
387.02	224.87
387.40	224.80
387.78	224.76
388.15	224.73
388.53	224.70
388.91	224.67
389.29	224.64
389.66	224.65
390.04	224.64
390.42	224.60
390.79	224.58
391.17	224.59
391.55	224.49
391.92	224.46
392.30	224.45
392.68	224.42
393.05	224.40
393.43	224.40
393.81	224.40
394.18	224.40
394.56	224.42
394.94	224.48
395.31	224.49
395.69	224.54
396.06	224.56
396.44	224.58
396.82	224.60
397.19	224.66
397.57	224.69
397.95	224.73
398.32	224.74
398.70	224.80
399.07	224.85
399.45	224.87
399.82	224.96
400.20	225.01
400.58	225.10
400.95	225.13
401.33	225.19
401.70	225.35
402.08	225.41
402.45	225.50
402.83	225.58
403.20	225.72
403.58	225.78
403.95	225.90
404.33	226.04
404.71	226.20
405.08	226.39
405.46	226.53
405.83	226.68
406.21	226.87
406.58	227.08
406.96	227.27
407.33	227.48
407.70	227.70
408.08	228.01
408.45	228.27
408.83	228.54
409.20	228.82
409.58	229.06
409.95	229.41
410.33	229.75
410.70	230.06
411.08	230.42
411.45	230.81
411.82	231.21
412.20	231.61
412.57	232.08
412.95	232.45
413.32	232.95
413.69	233.48
414.07	234.01
414.44	234.59
414.82	235.19
415.19	235.86
415.56	236.54
415.94	237.21
416.31	237.97
416.68	238.77
417.06	239.66
417.43	240.49
417.81	241.47
418.18	242.44
418.55	243.50
418.93	244.59
419.30	245.74
419.67	246.91
420.04	248.13
420.42	249.37
420.79	250.83
421.16	252.31
421.54	253.80
421.91	255.31
422.28	256.87
422.66	258.51
423.03	260.11
423.40	261.76
423.77	263.53
424.15	265.31
424.52	267.15
424.89	269.17
425.26	271.15
425.64	272.95
426.01	274.91
426.38	276.99
426.75	279.11
427.13	281.26
427.50	283.55
427.87	285.91
428.24	288.30
428.61	290.53
428.99	292.89
429.36	295.59
429.73	298.20
430.10	300.78
430.47	303.38
430.85	306.08
431.22	308.89
431.59	311.88
431.96	314.71
432.33	317.88
432.70	320.88
433.08	324.38
433.45	327.68
433.82	330.95
434.19	334.56
434.56	338.14
434.93	341.47
435.30	344.76
435.68	348.40
436.05	351.93
436.42	355.45
436.79	358.66
437.16	362.01
437.53	365.58
437.90	369.09
438.27	372.56
438.64	376.10
439.01	379.38
439.38	382.18
439.75	384.95
440.13	388.06
440.50	391.00
440.87	393.35
441.24	395.83
441.61	398.56
441.98	400.50
442.35	402.74
442.72	405.14
443.09	407.43
443.46	408.73
443.83	409.47
444.20	410.13
444.57	411.19
444.94	411.61
445.31	412.05
445.68	412.48
446.05	412.58
446.42	412.15
446.79	411.60
447.16	411.12
447.53	410.71
447.90	409.26
448.27	407.81
448.64	405.79
449.01	404.39
449.37	401.98
449.74	399.52
450.11	396.67
450.48	393.51
450.85	390.31
451.22	387.57
451.59	385.04
451.96	382.56
452.33	379.28
452.70	376.30
453.07	372.74
453.43	369.11
453.80	365.64
454.17	362.28
454.54	359.13
454.91	355.67
455.28	352.32
455.65	349.17
456.02	346.03
456.38	343.33
456.75	339.93
457.12	337.06
457.49	334.26
457.86	331.52
458.23	329.15
458.59	326.61
458.96	323.96
459.33	321.63
459.70	319.28
460.07	317.40
460.43	315.20
460.80	313.11
461.17	311.27
461.54	309.35
461.91	307.50
462.27	305.64
462.64	304.07
463.01	302.33
463.38	300.68
463.74	299.04
464.11	297.55
464.48	296.26
464.85	294.87
465.21	293.79
465.58	292.63
465.95	291.25
466.32	290.08
466.68	288.94
467.05	287.78
467.42	286.64
467.78	285.42
468.15	284.30
468.52	283.50
468.88	282.43
469.25	281.50
469.62	280.73
469.98	279.85
470.35	279.02
470.72	278.30
471.08	277.45
471.45	276.73
471.82	276.04
472.18	275.28
472.55	274.72
472.92	274.04
473.28	273.48
473.65	272.96
474.02	272.39
474.38	271.92
474.75	271.51
475.11	271.09
475.48	270.74
475.85	270.44
476.21	270.09
476.58	269.83
476.94	269.60
477.31	269.35
477.67	269.16
478.04	268.98
478.41	268.81
478.77	268.85
479.14	268.73
479.50	268.68
479.87	268.72
480.23	268.76
480.60	268.82
480.96	268.83
481.33	268.97
481.69	269.14
482.06	269.28
482.42	269.46
482.79	269.66
483.15	269.98
483.52	270.30
483.88	270.60
484.25	270.96
484.61	271.36
484.98	271.80
485.34	272.34
485.71	272.93
486.07	273.51
486.44	274.05
486.80	274.75
487.17	275.49
487.53	276.27
487.90	277.09
488.26	278.02
488.62	279.02
488.99	280.03
489.35	281.08
489.72	282.23
490.08	283.44
490.44	284.70
490.81	286.04
491.17	287.45
491.54	288.95
491.90	290.55
492.26	292.22
492.63	294.00
492.99	295.83
493.36	297.78
493.72	299.90
494.08	302.10
494.45	304.45
494.81	306.94
495.17	309.47
495.54	312.13
495.90	314.89
496.26	317.80
496.63	320.83
496.99	324.06
497.35	327.48
497.72	331.00
498.08	334.64
498.44	338.49
498.80	342.54
499.17	346.81
499.53	351.15
499.89	355.70
500.26	360.39
500.62	365.24
500.98	370.40
501.34	375.69
501.71	381.20
502.07	386.81
502.43	392.65
502.79	398.69
503.16	405.00
503.52	411.50
503.88	418.14
504.24	425.04
504.60	432.19
504.97	439.56
505.33	447.20
505.69	455.30
506.05	463.37
506.41	471.62
506.78	480.12
507.14	488.90
507.50	498.03
507.86	507.44
508.22	517.03
508.59	526.66
508.95	536.73
509.31	547.02
509.67	557.59
510.03	568.29
510.39	579.33
510.75	590.62
511.12	602.04
511.48	613.92
511.84	625.97
512.20	638.04
512.56	650.55
512.92	663.28
513.28	676.19
513.64	689.23
514.00	702.66
514.37	716.24
514.73	730.01
515.09	743.72
515.45	757.72
515.81	772.09
516.17	786.79
516.53	801.55
516.89	816.46
517.25	831.44
517.61	846.75
517.97	862.02
518.33	877.24
518.69	892.85
519.05	908.64
519.41	924.60
519.77	941.09
520.13	957.47
520.49	973.84
520.85	990.08
521.21	1006.74
521.57	1023.81
521.93	1040.50
522.29	1057.85
522.65	1075.02
523.01	1092.22
523.37	1109.33
523.73	1126.53
524.09	1143.74
524.45	1161.05
524.81	1178.78
525.17	1196.56
525.53	1214.59
525.89	1232.68
526.25	1250.73
526.61	1268.30
526.97	1286.26
527.33	1303.79
527.68	1321.59
528.04	1339.29
528.40	1357.16
528.76	1375.55
529.12	1393.40
529.48	1411.62
529.84	1428.92
530.20	1446.88
530.56	1465.22
530.91	1483.93
531.27	1502.10
531.63	1519.82
531.99	1537.78
532.35	1555.17
532.71	1572.56
533.07	1590.24
533.42	1607.68
533.78	1625.33
534.14	1642.99
534.50	1659.77
534.86	1677.21
535.21	1693.90
535.57	1711.38
535.93	1728.25
536.29	1744.43
536.65	1761.12
537.00	1777.33
537.36	1794.10
537.72	1810.02
538.08	1826.02
538.44	1841.24
538.79	1856.69
539.15	1871.85
539.51	1887.10
539.87	1903.04
540.22	1918.26
540.58	1933.54
540.94	1948.24
541.29	1962.34
541.65	1976.66
542.01	1991.50
542.37	2005.50
542.72	2019.52
543.08	2032.89
543.44	2047.06
543.79	2060.04
544.15	2072.57
544.51	2085.93
544.87	2098.47
545.22	2111.20
545.58	2122.98
545.94	2134.50
546.29	2145.91
546.65	2157.57
547.01	2168.60
547.36	2178.92
547.72	2188.93
548.07	2198.44
548.43	2208.09
548.79	2217.58
549.14	2226.62
549.50	2235.29
549.86	2244.30
550.21	2253.06
550.57	2261.64
550.92	2269.76
551.28	2278.19
551.64	2286.81
551.99	2294.64
552.35	2302.41
552.70	2309.88
553.06	2317.34
553.41	2325.02
553.77	2332.36
554.13	2339.77
554.48	2347.20
554.84	2354.25
555.19	2360.79
555.55	2367.30
555.90	2373.40
556.26	2379.98
556.61	2386.08
556.97	2391.96
557.32	2397.54
557.68	2402.95
558.03	2408.51
558.39	2413.14
558.74	2419.06
559.10	2424.10
559.45	2429.02
559.81	2434.48
560.16	2439.48
560.52	2443.95
560.87	2448.64
561.23	2452.39
561.58	2456.28
561.94	2459.98
562.29	2462.99
562.64	2467.10
563.00	2470.81
563.35	2475.27
563.71	2479.40
564.06	2483.59
564.42	2487.51
564.77	2491.08
565.12	2494.49
565.48	2497.46
565.83	2500.76
566.19	2503.19
566.54	2505.03
566.89	2507.09
567.25	2508.58
567.60	2510.75
567.96	2513.25
568.31	2514.80
568.66	2516.96
569.02	2518.48
569.37	2519.53
569.72	2521.32
570.08	2522.00
570.43	2522.49
570.78	2522.58
571.14	2521.66
571.49	2520.73
571.84	2520.79
572.20	2520.15
572.55	2519.50
572.90	2518.18
573.26	2517.14
573.61	2515.64
573.96	2514.36
574.31	2511.72
574.67	2508.98
575.02	2505.56
575.37	2502.29
575.72	2498.77
576.08	2495.41
576.43	2492.11
576.78	2488.75
577.13	2485.53
577.49	2482.49
577.84	2479.31
578.19	2475.59
578.54	2471.97
578.90	2468.07
579.25	2462.42
579.60	2457.60
579.95	2452.71
580.30	2447.62
580.66	2442.24
581.01	2436.98
581.36	2431.74
581.71	2427.47
582.06	2422.92
582.42	2418.43
582.77	2413.13
583.12	2408.37
583.47	2403.68
583.82	2398.72
584.17	2393.08
584.53	2387.48
584.88	2381.67
585.23	2375.66
585.58	2369.76
585.93	2363.98
586.28	2358.65
586.63	2353.54
586.98	2347.93
587.34	2342.69
587.69	2337.31
588.04	2331.89
588.39	2326.16
588.74	2319.15
589.09	2312.53
589.44	2305.29
589.79	2298.53
590.14	2292.36
590.49	2285.15
590.84	2278.00
591.19	2271.49
591.54	2264.50
591.89	2256.73
592.25	2249.40
592.60	2241.41
592.95	2233.42
593.30	2225.40
593.65	2217.08
594.00	2209.29
594.35	2201.44
594.70	2192.57
595.05	2185.18
595.40	2176.86
595.75	2168.55
596.10	2161.82
596.45	2154.43
596.80	2147.74
597.15	2140.51
597.50	2133.04
597.85	2125.93
598.19	2118.73
598.54	2110.94
598.89	2103.68
599.24	2096.97
599.59	2089.69
599.94	2082.78
600.29	2075.62
600.64	2068.20
600.99	2060.10
601.34	2052.52
601.69	2044.57
602.04	2037.12
602.39	2028.79
602.74	2021.32
603.08	2013.79
603.43	2006.23
603.78	1998.09
604.13	1989.86
604.48	1982.06
604.83	1974.28
605.18	1966.78
605.53	1957.97
605.87	1949.12
606.22	1940.91
606.57	1932.07
606.92	1923.55
607.27	1915.60
607.62	1907.91
607.96	1900.03
608.31	1892.79
608.66	1884.21
609.01	1875.87
609.36	1867.41
609.70	1858.48
610.05	1849.53
610.40	1840.94
610.75	1831.70
611.10	1823.08
611.44	1813.58
611.79	1804.31
612.14	1794.44
612.49	1783.87
612.83	1774.30
613.18	1764.91
613.53	1755.86
613.88	1746.25
614.22	1737.00
614.57	1727.25
614.92	1718.03
615.27	1709.51
615.61	1700.06
615.96	1690.91
616.31	1682.18
616.65	1673.79
617.00	1665.16
617.35	1656.36
617.70	1646.96
618.04	1637.38
618.39	1628.05
618.74	1619.50
619.08	1610.32
619.43	1601.82
619.78	1594.01
620.12	1585.92
620.47	1577.51
620.82	1568.17
621.16	1559.62
621.51	1550.96
621.85	1542.29
622.20	1532.78
622.55	1523.24
622.89	1514.34
623.24	1505.75
623.59	1497.34
623.93	1488.80
624.28	1480.55
624.62	1472.04
624.97	1463.92
625.32	1456.12
625.66	1448.06
626.01	1439.93
626.35	1431.55
626.70	1422.69
627.04	1413.97
627.39	1405.22
627.73	1396.71
628.08	1388.87
628.43	1380.78
628.77	1372.64
629.12	1364.15
629.46	1355.95
629.81	1347.40
630.15	1339.14
630.50	1330.88
630.84	1321.70
631.19	1312.67
631.53	1304.06
631.88	1295.57
632.22	1286.95
632.57	1278.67
632.91	1270.20
633.26	1261.80
633.60	1253.26
633.95	1245.11
634.29	1237.16
634.64	1229.54
634.98	1221.32
635.32	1213.30
635.67	1205.60
636.01	1198.02
636.36	1190.43
636.70	1183.04
637.05	1175.74
637.39	1168.46
637.73	1161.08
638.08	1154.48
638.42	1147.77
638.77	1140.62
639.11	1133.31
639.45	1126.11
639.80	1118.68
640.14	1111.56
640.49	1104.32
640.83	1097.28
641.17	1090.43
641.52	1083.29
641.86	1075.97
642.20	1069.44
642.55	1062.26
642.89	1055.21
643.23	1047.75
643.58	1041.16
643.92	1034.30
644.26	1027.60
644.61	1020.70
644.95	1013.97
645.29	1006.69
645.64	999.04
645.98	991.95
646.32	985.14
646.66	978.41
647.01	971.89
647.35	965.46
647.69	958.83
648.04	952.65
648.38	946.18
648.72	939.64
649.06	933.02
649.41	926.33
649.75	919.78
650.09	913.09
650.43	906.67
650.78	899.82
651.12	893.21
651.46	886.73
651.80	880.51
652.14	874.38
652.49	868.36
652.83	862.64
653.17	856.41
653.51	850.22
653.85	844.05
654.20	837.79
654.54	831.09
654.88	824.73
655.22	818.09
655.56	811.72
655.90	805.52
656.25	799.62
656.59	793.65
656.93	787.90
657.27	782.12
657.61	776.10
657.95	770.49
658.29	764.77
658.64	758.79
658.98	752.76
659.32	746.66
659.66	740.88
660.00	735.03
660.34	729.51
660.68	723.99
661.02	718.41
661.36	713.19
661.70	708.18
662.05	703.36
662.39	698.59
662.73	693.59
663.07	688.71
663.41	683.71
663.75	678.74
664.09	673.65
664.43	668.76
664.77	664.15
665.11	659.37
665.45	654.75
665.79	650.36
666.13	645.79
666.47	641.27
666.81	636.58
667.15	631.91
667.49	627.50
667.83	623.14
668.17	618.79
668.51	614.27
668.85	609.74
669.19	605.30
669.53	601.10
669.87	596.77
670.21	592.65
670.55	588.58
670.89	584.76
671.23	580.94
671.57	577.04
671.91	573.12
672.25	569.23
672.58	565.27
672.92	561.34
673.26	557.81
673.60	554.28
673.94	550.82
674.28	547.62
674.62	544.33
674.96	540.95
675.30	537.79
675.64	534.56
675.97	531.44
676.31	528.32
676.65	525.02
676.99	522.03
677.33	518.81
677.67	515.65
678.01	512.25
678.34	508.94
678.68	505.71
679.02	502.58
679.36	499.42
679.70	496.46
680.04	493.46
680.37	490.32
680.71	487.20
681.05	484.24
681.39	481.25
681.73	478.29
682.06	475.49
682.40	472.60
682.74	469.74
683.08	466.85
683.42	463.97
683.75	461.13
684.09	458.23
684.43	455.52
684.77	452.79
685.10	450.12
685.44	447.49
685.78	444.92
686.12	442.39
686.45	439.85
686.79	437.21
687.13	434.73
687.46	432.27
687.80	429.85
688.14	427.37
688.48	425.02
688.81	422.54
689.15	420.07
689.49	417.65
689.82	415.29
690.16	413.01
690.50	410.77
690.83	408.64
691.17	406.35
691.51	404.16
691.84	402.07
692.18	399.93
692.52	397.79
692.85	395.62
693.19	393.51
693.52	391.47
693.86	389.44
694.20	387.42
694.53	385.41
694.87	383.30
695.21	381.27
695.54	379.21
695.88	377.24
696.21	375.28
696.55	373.35
696.88	371.49
697.22	369.61
697.56	367.75
697.89	365.92
698.23	364.18
698.56	362.36
698.90	360.60
699.23	358.78
699.57	357.01
699.90	355.27
700.24	353.52
700.58	351.81
700.91	350.20
701.25	348.58
701.58	347.06
701.92	345.52
702.25	343.98
702.59	342.48
702.92	341.04
703.26	339.61
703.59	338.20
703.93	336.83
704.26	335.45
704.60	334.02
704.93	332.58
705.26	331.17
705.60	329.86
705.93	328.53
706.27	327.37
706.60	326.20
706.94	324.99
707.27	323.71
707.61	322.50
707.94	321.31
708.27	320.05
708.61	318.82
708.94	317.72
709.28	316.63
709.61	315.54
709.94	314.45
710.28	313.26
710.61	312.19
710.95	311.00
711.28	309.96
711.61	308.94
711.95	307.92
712.28	306.89
712.61	305.80
712.95	304.76
713.28	303.73
713.61	302.72
713.95	301.71
714.28	300.78
714.61	299.80
714.95	298.84
715.28	297.89
715.61	296.92
715.95	295.94
716.28	294.96
716.61	294.03
716.95	293.08
717.28	292.26
717.61	291.40
717.94	290.62
718.28	289.69
718.61	288.85
718.94	288.04
719.27	287.29
719.61	286.52
719.94	285.79
720.27	285.00
720.60	284.26
720.94	283.60
721.27	282.95
721.60	282.31
721.93	281.65
722.27	281.03
722.60	280.40
722.93	279.77
723.26	279.17
723.59	278.54
723.93	277.92
724.26	277.31
724.59	276.67
724.92	276.02
725.25	275.46
725.59	274.86
725.92	274.29
726.25	273.69
726.58	273.16
726.91	272.59
727.24	272.03
727.57	271.49
727.91	270.90
728.24	270.37
728.57	269.76
728.90	269.22
729.23	268.72
729.56	268.23
729.89	267.71
730.22	267.18
730.55	266.65
730.89	266.15
731.22	265.66
731.55	265.18
731.88	264.71
732.21	264.22
732.54	263.71
732.87	263.25
733.20	262.83
733.53	262.41
733.86	262.02
734.19	261.59
734.52	261.15
734.85	260.79
735.18	260.28
735.51	259.93
735.84	259.51
736.17	259.09
736.50	258.63
736.83	258.35
737.16	257.98
737.49	257.59
737.82	257.22
738.15	256.85
738.48	256.45
738.81	256.07
739.14	255.72
739.47	255.39
739.80	255.05
740.13	254.70
740.46	254.34
740.79	253.94
741.12	253.57
741.45	253.23
741.78	252.88
742.11	252.60
742.44	252.22
742.77	251.90
743.10	251.58
743.43	251.24
743.75	250.80
744.08	250.61
744.41	250.33
744.74	250.05
745.07	249.74
745.40	249.46
745.73	249.23
746.06	248.93
746.39	248.66
746.71	248.36
747.04	248.06
747.37	247.76
747.70	247.48
748.03	247.26
748.36	247.01
748.68	246.71
749.01	246.43
749.34	246.18
749.67	245.93
750.00	245.70
750.33	245.55
750.65	245.34
750.98	245.02
751.31	244.76
751.64	244.53
751.97	244.33
752.29	244.10
752.62	243.78
752.95	243.55
753.28	243.30
753.60	243.09
753.93	242.87
754.26	242.68
754.59	242.43
754.91	242.17
755.24	241.92
755.57	241.71
755.90	241.50
756.22	241.29
756.55	241.10
756.88	240.87
757.20	240.62
757.53	240.40
757.86	240.17
758.19	240.01
758.51	239.81
758.84	239.57
759.17	239.38
759.49	239.20
759.82	239.09
760.15	238.93
760.47	238.75
760.80	238.56
761.13	238.38
761.45	238.24
761.78	238.10
762.11	237.96
762.43	237.79
762.76	237.61
763.08	237.47
763.41	237.29
763.74	237.11
764.06	236.92
764.39	236.75
764.71	236.61
765.04	236.44
765.37	236.31
765.69	236.17
766.02	236.02
766.34	235.87
766.67	235.72
767.00	235.58
767.32	235.50
767.65	235.43
767.97	235.34
768.30	235.22
768.62	235.09
768.95	234.92
769.27	234.83
769.60	234.70
769.92	234.56
770.25	234.44
770.57	234.29
770.90	234.21
771.22	234.08
771.55	233.94
771.87	233.84
772.20	233.72
772.52	233.71
772.85	233.71
773.17	233.59
773.50	233.41
773.82	233.31
774.15	233.14
774.47	232.99
774.80	232.83
775.12	232.71
775.45	232.63
775.77	232.57
776.09	232.47
776.42	232.40
776.74	232.34
777.07	232.22
777.39	232.19
777.72	232.10
778.04	232.03
778.36	231.99
778.69	231.89
779.01	231.79
779.33	231.61
779.66	231.43
779.98	231.38
780.31	231.34
780.63	231.31
780.95	231.25
781.28	231.18
781.60	231.12
781.92	231.03
782.25	230.96
782.57	230.91
782.89	230.84
783.22	230.78
783.54	230.67
783.86	230.63
784.19	230.55
784.51	230.54
784.83	230.46
785.16	230.39
785.48	230.36
785.80	230.33
786.12	230.32
786.45	230.27
786.77	230.25
