SpectraSuite Data File
++++++++++++++++++++++++++++++++++++
Date: Fri Feb 01 16:20:37 EST 2013
User: group
Dark Spectrum Present: No
Reference Spectrum Present: No
Number of Sampled Component Spectra: 1
Spectrometers: USB2E7196
Integration Time (usec): 35000 (USB2E7196)
Spectra Averaged: 100 (USB2E7196)
Boxcar Smoothing: 10 (USB2E7196)
Correct for Electrical Dark: No (USB2E7196)
Strobe/Lamp Enabled: No (USB2E7196)
Correct for Detector Non-linearity: No (USB2E7196)
Correct for Stray Light: No (USB2E7196)
Number of Pixels in Processed Spectrum: 2048
>>>>>Begin Processed Spectral Data<<<<<
339.09	0.00
339.48	214.73
339.86	215.33
340.24	216.75
340.63	218.43
341.01	221.15
341.39	220.95
341.78	222.67
342.16	223.69
342.54	224.02
342.93	212.63
343.31	223.39
343.69	223.91
344.07	224.38
344.46	224.82
344.84	225.20
345.22	225.45
345.60	225.71
345.99	225.85
346.37	226.00
346.75	226.11
347.13	226.16
347.52	226.23
347.90	226.28
348.28	226.27
348.66	226.33
349.05	226.33
349.43	226.33
349.81	226.40
350.19	226.44
350.57	226.48
350.96	226.54
351.34	226.61
351.72	226.67
352.10	226.77
352.48	226.87
352.87	226.94
353.25	226.98
353.63	227.02
354.01	227.10
354.39	227.14
354.77	227.20
355.15	227.29
355.54	227.36
355.92	227.40
356.30	227.47
356.68	227.57
357.06	227.64
357.44	227.70
357.82	227.75
358.20	227.85
358.58	227.91
358.97	227.97
359.35	228.02
359.73	228.12
360.11	228.16
360.49	228.18
360.87	228.17
361.25	228.18
361.63	228.25
362.01	228.30
362.39	228.35
362.77	228.42
363.15	228.46
363.53	228.49
363.91	228.52
364.29	228.52
364.67	228.45
365.05	228.45
365.43	228.49
365.81	228.52
366.19	228.54
366.57	228.57
366.95	228.57
367.33	228.54
367.71	228.52
368.09	228.54
368.47	228.53
368.85	228.55
369.23	228.60
369.61	228.57
369.99	228.57
370.37	228.55
370.75	228.52
371.13	228.46
371.51	228.40
371.89	228.38
372.27	228.35
372.65	228.35
373.03	228.31
373.41	228.25
373.78	228.15
374.16	228.03
374.54	227.96
374.92	227.88
375.30	227.85
375.68	227.77
376.06	227.71
376.44	227.67
376.82	227.62
377.19	227.58
377.57	227.49
377.95	227.41
378.33	227.34
378.71	227.27
379.09	227.23
379.47	227.18
379.84	227.09
380.22	227.06
380.60	226.95
380.98	226.85
381.36	226.79
381.73	226.76
382.11	226.74
382.49	226.66
382.87	226.60
383.25	226.55
383.62	226.59
384.00	226.49
384.38	226.42
384.76	226.35
385.13	226.34
385.51	226.31
385.89	226.27
386.27	226.27
386.64	226.23
387.02	226.18
387.40	226.11
387.78	226.10
388.15	226.08
388.53	226.08
388.91	226.09
389.29	226.06
389.66	226.06
390.04	226.00
390.42	226.01
390.79	225.98
391.17	225.95
391.55	225.82
391.92	225.84
392.30	225.87
392.68	225.88
393.05	225.84
393.43	225.85
393.81	225.85
394.18	225.79
394.56	225.82
394.94	225.85
395.31	225.87
395.69	225.93
396.06	225.97
396.44	225.98
396.82	225.99
397.19	226.08
397.57	226.09
397.95	226.16
398.32	226.18
398.70	226.26
399.07	226.35
399.45	226.44
399.82	226.48
400.20	226.51
400.58	226.57
400.95	226.59
401.33	226.67
401.70	226.82
402.08	226.93
402.45	227.02
402.83	227.15
403.20	227.26
403.58	227.33
403.95	227.41
404.33	227.55
404.71	227.68
405.08	227.84
405.46	227.97
405.83	228.11
406.21	228.23
406.58	228.40
406.96	228.54
407.33	228.70
407.70	228.91
408.08	229.14
408.45	229.34
408.83	229.59
409.20	229.80
409.58	229.96
409.95	230.19
410.33	230.46
410.70	230.69
411.08	230.95
411.45	231.24
411.82	231.53
412.20	231.87
412.57	232.31
412.95	232.57
413.32	232.97
413.69	233.34
414.07	233.77
414.44	234.21
414.82	234.68
415.19	235.25
415.56	235.79
415.94	236.35
416.31	237.00
416.68	237.62
417.06	238.32
417.43	239.00
417.81	239.78
418.18	240.55
418.55	241.38
418.93	242.26
419.30	243.17
419.67	244.15
420.04	245.11
420.42	246.04
420.79	247.24
421.16	248.40
421.54	249.62
421.91	250.83
422.28	252.10
422.66	253.46
423.03	254.76
423.40	256.08
423.77	257.48
424.15	258.91
424.52	260.40
424.89	262.04
425.26	263.61
425.64	265.05
426.01	266.65
426.38	268.30
426.75	269.96
427.13	271.66
427.50	273.47
427.87	275.31
428.24	277.22
428.61	278.96
428.99	280.87
429.36	282.96
429.73	285.05
430.10	287.10
430.47	289.13
430.85	291.27
431.22	293.51
431.59	295.86
431.96	298.07
432.33	300.57
432.70	302.92
433.08	305.72
433.45	308.35
433.82	310.91
434.19	313.80
434.56	316.59
434.93	319.25
435.30	321.82
435.68	324.68
436.05	327.48
436.42	330.24
436.79	332.74
437.16	335.43
437.53	338.26
437.90	341.07
438.27	343.76
438.64	346.53
439.01	349.13
439.38	351.37
439.75	353.53
440.13	355.99
440.50	358.32
440.87	360.15
441.24	362.07
441.61	364.23
441.98	365.71
442.35	367.54
442.72	369.40
443.09	371.20
443.46	372.17
443.83	372.77
444.20	373.38
444.57	374.23
444.94	374.52
445.31	374.86
445.68	375.23
446.05	375.33
446.42	374.95
446.79	374.53
447.16	374.05
447.53	373.74
447.90	372.59
448.27	371.42
448.64	369.84
449.01	368.66
449.37	366.71
449.74	364.82
450.11	362.60
450.48	360.12
450.85	357.61
451.22	355.49
451.59	353.47
451.96	351.43
452.33	348.80
452.70	346.45
453.07	343.62
453.43	340.69
453.80	337.93
454.17	335.25
454.54	332.72
454.91	330.02
455.28	327.32
455.65	324.85
456.02	322.44
456.38	320.30
456.75	317.69
457.12	315.42
457.49	313.21
457.86	311.02
458.23	309.20
458.59	307.18
458.96	305.13
459.33	303.24
459.70	301.39
460.07	299.91
460.43	298.24
460.80	296.64
461.17	295.19
461.54	293.69
461.91	292.25
462.27	290.79
462.64	289.59
463.01	288.28
463.38	286.97
463.74	285.59
464.11	284.45
464.48	283.43
464.85	282.36
465.21	281.52
465.58	280.62
465.95	279.51
466.32	278.60
466.68	277.69
467.05	276.84
467.42	275.99
467.78	275.12
468.15	274.22
468.52	273.56
468.88	272.66
469.25	271.90
469.62	271.32
469.98	270.66
470.35	270.01
470.72	269.41
471.08	268.76
471.45	268.21
471.82	267.66
472.18	267.07
472.55	266.60
472.92	266.03
473.28	265.58
473.65	265.13
474.02	264.68
474.38	264.32
474.75	264.01
475.11	263.66
475.48	263.31
475.85	263.02
476.21	262.75
476.58	262.57
476.94	262.44
477.31	262.24
477.67	262.11
478.04	262.03
478.41	261.96
478.77	262.01
479.14	261.96
479.50	261.98
479.87	262.04
480.23	262.14
480.60	262.24
480.96	262.31
481.33	262.54
481.69	262.73
482.06	262.91
482.42	263.09
482.79	263.36
483.15	263.72
483.52	264.14
483.88	264.51
484.25	264.97
484.61	265.38
484.98	265.86
485.34	266.38
485.71	266.96
486.07	267.58
486.44	268.15
486.80	268.83
487.17	269.56
487.53	270.41
487.90	271.26
488.26	272.21
488.62	273.22
488.99	274.21
489.35	275.29
489.72	276.44
490.08	277.63
490.44	278.87
490.81	280.19
491.17	281.58
491.54	283.08
491.90	284.60
492.26	286.26
492.63	288.03
492.99	289.83
493.36	291.74
493.72	293.81
494.08	295.90
494.45	298.19
494.81	300.53
495.17	302.95
495.54	305.52
495.90	308.20
496.26	311.01
496.63	314.00
496.99	317.13
497.35	320.37
497.72	323.86
498.08	327.40
498.44	331.13
498.80	335.09
499.17	339.10
499.53	343.29
499.89	347.73
500.26	352.22
500.62	356.91
500.98	361.92
501.34	366.99
501.71	372.39
502.07	377.82
502.43	383.53
502.79	389.35
503.16	395.49
503.52	401.82
503.88	408.17
504.24	414.83
504.60	421.75
504.97	428.96
505.33	436.22
505.69	443.96
506.05	451.73
506.41	459.63
506.78	467.82
507.14	476.28
507.50	484.93
507.86	493.94
508.22	503.15
508.59	512.33
508.95	521.97
509.31	531.81
509.67	542.00
510.03	552.27
510.39	562.89
510.75	573.69
511.12	584.56
511.48	595.91
511.84	607.28
512.20	618.76
512.56	630.68
512.92	642.91
513.28	655.23
513.64	667.71
514.00	680.35
514.37	693.31
514.73	706.37
515.09	719.47
515.45	732.88
515.81	746.46
516.17	760.49
516.53	774.58
516.89	788.69
517.25	802.77
517.61	817.21
517.97	831.66
518.33	845.95
518.69	860.73
519.05	875.67
519.41	890.87
519.77	906.40
520.13	921.76
520.49	937.10
520.85	952.45
521.21	968.15
521.57	984.43
521.93	1000.17
522.29	1016.49
522.65	1032.67
523.01	1048.71
523.37	1064.72
523.73	1080.75
524.09	1096.78
524.45	1113.07
524.81	1129.67
525.17	1146.36
525.53	1163.16
525.89	1180.01
526.25	1196.76
526.61	1213.10
526.97	1229.77
527.33	1246.10
527.68	1262.71
528.04	1279.08
528.40	1295.64
528.76	1312.56
529.12	1329.10
529.48	1345.83
529.84	1361.79
530.20	1378.37
530.56	1395.24
530.91	1412.58
531.27	1429.30
531.63	1445.74
531.99	1462.15
532.35	1478.11
532.71	1493.96
533.07	1510.13
533.42	1525.98
533.78	1541.92
534.14	1558.13
534.50	1573.35
534.86	1589.26
535.21	1604.41
535.57	1620.34
535.93	1635.76
536.29	1650.52
536.65	1665.39
537.00	1680.11
537.36	1695.33
537.72	1709.81
538.08	1724.38
538.44	1738.04
538.79	1751.92
539.15	1765.40
539.51	1779.12
539.87	1793.34
540.22	1806.97
540.58	1820.78
540.94	1834.11
541.29	1846.89
541.65	1859.54
542.01	1872.79
542.37	1884.92
542.72	1897.26
543.08	1909.00
543.44	1921.43
543.79	1932.57
544.15	1943.49
544.51	1955.14
544.87	1966.11
545.22	1976.73
545.58	1986.83
545.94	1996.46
546.29	2006.29
546.65	2016.10
547.01	2025.27
547.36	2033.99
547.72	2042.43
548.07	2050.11
548.43	2058.27
548.79	2066.31
549.14	2073.80
549.50	2080.95
549.86	2088.62
550.21	2095.80
550.57	2102.87
550.92	2109.29
551.28	2116.19
551.64	2123.21
551.99	2129.61
552.35	2135.84
552.70	2142.12
553.06	2148.11
553.41	2154.60
553.77	2160.55
554.13	2166.71
554.48	2173.00
554.84	2178.32
555.19	2183.61
555.55	2188.72
555.90	2193.07
556.26	2197.99
556.61	2202.71
556.97	2207.13
557.32	2211.30
557.68	2215.51
558.03	2219.73
558.39	2223.45
558.74	2228.17
559.10	2232.07
559.45	2235.67
559.81	2239.79
560.16	2243.57
560.52	2246.76
560.87	2250.09
561.23	2252.74
561.58	2255.64
561.94	2257.98
562.29	2260.46
562.64	2263.08
563.00	2265.73
563.35	2269.35
563.71	2272.46
564.06	2275.72
564.42	2278.54
564.77	2281.05
565.12	2283.31
565.48	2285.28
565.83	2287.19
566.19	2288.56
566.54	2289.58
566.89	2290.84
567.25	2291.50
567.60	2292.82
567.96	2294.65
568.31	2295.62
568.66	2296.79
569.02	2297.37
569.37	2297.83
569.72	2298.79
570.08	2299.04
570.43	2299.07
570.78	2298.41
571.14	2296.98
571.49	2295.64
571.84	2295.33
572.20	2294.31
572.55	2293.33
572.90	2291.79
573.26	2290.56
573.61	2288.90
573.96	2287.09
574.31	2284.16
574.67	2281.23
575.02	2277.76
575.37	2274.33
575.72	2270.49
576.08	2267.07
576.43	2263.78
576.78	2259.98
577.13	2256.76
577.49	2253.67
577.84	2250.22
578.19	2246.86
578.54	2243.27
578.90	2239.21
579.25	2233.78
579.60	2228.87
579.95	2223.89
580.30	2219.00
580.66	2213.89
581.01	2209.15
581.36	2204.35
581.71	2200.20
582.06	2195.80
582.42	2191.17
582.77	2185.99
583.12	2181.58
583.47	2176.97
583.82	2172.02
584.17	2166.93
584.53	2161.47
584.88	2155.87
585.23	2150.14
585.58	2144.46
585.93	2139.06
586.28	2134.15
586.63	2129.18
586.98	2124.06
587.34	2119.32
587.69	2114.46
588.04	2109.14
588.39	2103.44
588.74	2096.91
589.09	2090.70
589.44	2083.95
589.79	2078.10
590.14	2072.53
590.49	2065.88
590.84	2059.58
591.19	2053.70
591.54	2047.36
591.89	2040.01
592.25	2033.31
592.60	2026.16
592.95	2018.60
593.30	2011.22
593.65	2003.98
594.00	1996.97
594.35	1989.83
594.70	1981.88
595.05	1974.78
595.40	1967.57
595.75	1960.08
596.10	1954.02
596.45	1947.42
596.80	1941.34
597.15	1934.73
597.50	1927.53
597.85	1921.19
598.19	1914.57
598.54	1907.40
598.89	1900.77
599.24	1894.99
599.59	1888.30
599.94	1882.18
600.29	1875.76
600.64	1869.24
600.99	1861.67
601.34	1854.72
601.69	1847.85
602.04	1841.00
602.39	1833.68
602.74	1826.73
603.08	1819.98
603.43	1813.21
603.78	1805.88
604.13	1798.54
604.48	1791.20
604.83	1784.51
605.18	1777.50
605.53	1769.54
605.87	1761.63
606.22	1754.37
606.57	1746.35
606.92	1739.09
607.27	1731.97
607.62	1725.25
607.96	1718.00
608.31	1711.41
608.66	1703.87
609.01	1696.28
609.36	1688.78
609.70	1680.69
610.05	1672.78
610.40	1665.11
610.75	1656.83
611.10	1649.26
611.44	1640.98
611.79	1633.04
612.14	1624.22
612.49	1615.08
612.83	1606.73
613.18	1598.62
613.53	1590.54
613.88	1582.04
614.22	1573.71
614.57	1565.11
614.92	1557.04
615.27	1549.44
615.61	1541.06
615.96	1533.02
616.31	1525.42
616.65	1518.07
617.00	1510.51
617.35	1502.97
617.70	1494.61
618.04	1486.12
618.39	1477.83
618.74	1470.14
619.08	1461.90
619.43	1454.38
619.78	1447.46
620.12	1440.13
620.47	1432.53
620.82	1424.41
621.16	1416.95
621.51	1409.39
621.85	1401.66
622.20	1393.08
622.55	1384.77
622.89	1376.91
623.24	1369.22
623.59	1361.69
623.93	1354.13
624.28	1346.91
624.62	1339.21
624.97	1332.08
625.32	1325.29
625.66	1318.28
626.01	1311.08
626.35	1303.58
626.70	1295.89
627.04	1288.16
627.39	1280.33
627.73	1272.87
628.08	1266.00
628.43	1258.73
628.77	1251.25
629.12	1243.73
629.46	1236.65
629.81	1229.24
630.15	1221.98
630.50	1214.61
630.84	1206.47
631.19	1198.56
631.53	1191.00
631.88	1183.37
632.22	1175.71
632.57	1168.37
632.91	1160.76
633.26	1153.34
633.60	1145.91
633.95	1138.67
634.29	1131.65
634.64	1125.19
634.98	1117.89
635.32	1110.57
635.67	1103.88
636.01	1097.27
636.36	1090.42
636.70	1083.79
637.05	1077.19
637.39	1070.70
637.73	1064.19
638.08	1058.32
638.42	1052.31
638.77	1045.89
639.11	1039.41
639.45	1032.99
639.80	1026.39
640.14	1019.98
640.49	1013.54
640.83	1007.29
641.17	1001.10
641.52	994.66
641.86	988.07
642.20	982.18
642.55	975.96
642.89	969.48
643.23	963.02
643.58	957.21
643.92	951.10
644.26	944.99
644.61	938.98
644.95	932.93
645.29	926.30
645.64	919.52
645.98	913.22
646.32	907.30
646.66	901.22
647.01	895.37
647.35	889.66
647.69	883.67
648.04	878.15
648.38	872.40
648.72	866.40
649.06	860.38
649.41	854.50
649.75	848.57
650.09	842.65
650.43	836.81
650.78	830.72
651.12	824.69
651.46	818.93
651.80	813.10
652.14	807.74
652.49	802.40
652.83	797.22
653.17	791.46
653.51	785.73
653.85	780.35
654.20	774.71
654.54	768.71
654.88	763.00
655.22	757.07
655.56	751.35
655.90	746.01
656.25	740.80
656.59	735.47
656.93	730.38
657.27	725.23
657.61	719.78
657.95	714.67
658.29	709.62
658.64	704.40
658.98	699.22
659.32	693.73
659.66	688.45
660.00	683.13
660.34	678.16
660.68	673.28
661.02	668.23
661.36	663.50
661.70	658.98
662.05	654.68
662.39	650.34
662.73	645.86
663.07	641.46
663.41	636.95
663.75	632.41
664.09	627.81
664.43	623.44
664.77	619.38
665.11	615.12
665.45	611.00
665.79	606.90
666.13	602.72
666.47	598.60
666.81	594.41
667.15	590.29
667.49	586.41
667.83	582.56
668.17	578.66
668.51	574.59
668.85	570.59
669.19	566.75
669.53	562.91
669.87	559.08
670.21	555.34
670.55	551.68
670.89	548.25
671.23	544.80
671.57	541.23
671.91	537.58
672.25	534.07
672.58	530.51
672.92	527.02
673.26	523.82
673.60	520.66
673.94	517.62
674.28	514.66
674.62	511.71
674.96	508.64
675.30	505.76
675.64	502.78
675.97	499.97
676.31	497.07
676.65	494.12
676.99	491.38
677.33	488.45
677.67	485.64
678.01	482.61
678.34	479.61
678.68	476.80
679.02	473.98
679.36	471.24
679.70	468.56
680.04	465.89
680.37	463.02
680.71	460.26
681.05	457.58
681.39	454.85
681.73	452.17
682.06	449.65
682.40	447.03
682.74	444.55
683.08	441.99
683.42	439.40
683.75	436.87
684.09	434.31
684.43	431.90
684.77	429.44
685.10	427.10
685.44	424.80
685.78	422.47
686.12	420.26
686.45	417.94
686.79	415.57
687.13	413.33
687.46	411.16
687.80	408.95
688.14	406.78
688.48	404.76
688.81	402.48
689.15	400.34
689.49	398.21
689.82	396.13
690.16	394.06
690.50	392.11
690.83	390.20
691.17	388.20
691.51	386.32
691.84	384.46
692.18	382.47
692.52	380.46
692.85	378.54
693.19	376.66
693.52	374.80
693.86	373.02
694.20	371.25
694.53	369.48
694.87	367.66
695.21	365.90
695.54	364.07
695.88	362.38
696.21	360.64
696.55	358.96
696.88	357.23
697.22	355.60
697.56	353.99
697.89	352.32
698.23	350.74
698.56	349.08
698.90	347.52
699.23	345.90
699.57	344.38
699.90	342.84
700.24	341.31
700.58	339.83
700.91	338.33
701.25	336.88
701.58	335.44
701.92	334.12
702.25	332.70
702.59	331.37
702.92	330.06
703.26	328.72
703.59	327.48
703.93	326.32
704.26	325.08
704.60	323.77
704.93	322.55
705.26	321.31
705.60	320.17
705.93	318.99
706.27	317.96
706.60	316.89
706.94	315.79
707.27	314.63
707.61	313.54
707.94	312.51
708.27	311.42
708.61	310.37
708.94	309.30
709.28	308.30
709.61	307.36
709.94	306.41
710.28	305.40
710.61	304.42
710.95	303.30
711.28	302.38
711.61	301.41
711.95	300.45
712.28	299.48
712.61	298.47
712.95	297.58
713.28	296.70
713.61	295.81
713.95	294.92
714.28	294.13
714.61	293.29
714.95	292.48
715.28	291.59
715.61	290.74
715.95	289.89
716.28	289.04
716.61	288.15
716.95	287.31
717.28	286.56
717.61	285.77
717.94	285.06
718.28	284.23
718.61	283.50
718.94	282.82
719.27	282.18
719.61	281.53
719.94	280.81
720.27	280.10
720.60	279.44
720.94	278.80
721.27	278.17
721.60	277.59
721.93	276.95
722.27	276.44
722.60	275.89
722.93	275.33
723.26	274.79
723.59	274.22
723.93	273.68
724.26	273.15
724.59	272.55
724.92	272.04
725.25	271.59
725.59	271.05
725.92	270.54
726.25	270.00
726.58	269.51
726.91	269.03
727.24	268.52
727.57	268.05
727.91	267.57
728.24	267.12
728.57	266.60
728.90	266.15
729.23	265.64
729.56	265.20
729.89	264.75
730.22	264.28
730.55	263.84
730.89	263.45
731.22	263.00
731.55	262.57
731.88	262.14
732.21	261.69
732.54	261.29
732.87	260.88
733.20	260.47
733.53	260.10
733.86	259.72
734.19	259.36
734.52	258.97
734.85	258.65
735.18	258.22
735.51	257.87
735.84	257.46
736.17	257.13
736.50	256.71
736.83	256.50
737.16	256.17
737.49	255.82
737.82	255.41
738.15	255.06
738.48	254.75
738.81	254.41
739.14	254.10
739.47	253.78
739.80	253.48
740.13	253.20
740.46	252.86
740.79	252.53
741.12	252.23
741.45	251.91
741.78	251.54
742.11	251.25
742.44	250.94
742.77	250.67
743.10	250.36
743.43	250.06
743.75	249.64
744.08	249.47
744.41	249.19
744.74	248.92
745.07	248.65
745.40	248.42
745.73	248.21
746.06	247.88
746.39	247.64
746.71	247.36
747.04	247.09
747.37	246.83
747.70	246.59
748.03	246.32
748.36	246.07
748.68	245.82
749.01	245.61
749.34	245.38
749.67	245.11
750.00	244.89
750.33	244.74
750.65	244.50
750.98	244.15
751.31	243.93
751.64	243.72
751.97	243.51
752.29	243.24
752.62	242.97
752.95	242.78
753.28	242.52
753.60	242.29
753.93	242.11
754.26	241.91
754.59	241.66
754.91	241.44
755.24	241.26
755.57	241.07
755.90	240.85
756.22	240.65
756.55	240.49
756.88	240.28
757.20	240.07
757.53	239.87
757.86	239.73
758.19	239.56
758.51	239.38
758.84	239.19
759.17	239.02
759.49	238.83
759.82	238.69
760.15	238.57
760.47	238.45
760.80	238.24
761.13	238.10
761.45	237.96
761.78	237.84
762.11	237.71
762.43	237.54
762.76	237.40
763.08	237.27
763.41	237.13
763.74	237.03
764.06	236.90
764.39	236.77
764.71	236.62
765.04	236.50
765.37	236.35
765.69	236.24
766.02	236.09
766.34	236.00
766.67	235.86
767.00	235.73
767.32	235.66
767.65	235.60
767.97	235.50
768.30	235.41
768.62	235.28
768.95	235.14
769.27	235.04
769.60	234.95
769.92	234.85
770.25	234.72
770.57	234.59
770.90	234.49
771.22	234.41
771.55	234.33
771.87	234.21
772.20	234.15
772.52	234.15
772.85	234.23
773.17	234.11
773.50	234.01
773.82	233.90
774.15	233.77
774.47	233.66
774.80	233.58
775.12	233.46
775.45	233.40
775.77	233.32
776.09	233.25
776.42	233.17
776.74	233.11
777.07	233.04
777.39	232.99
777.72	232.88
778.04	232.81
778.36	232.74
778.69	232.67
779.01	232.60
779.33	232.46
779.66	232.27
779.98	232.19
780.31	232.18
780.63	232.16
780.95	232.08
781.28	232.00
781.60	231.91
781.92	231.88
782.25	231.80
782.57	231.74
782.89	231.66
783.22	231.63
783.54	231.52
783.86	231.47
784.19	231.39
784.51	231.38
784.83	231.31
785.16	231.22
785.48	231.19
785.80	231.14
786.12	231.05
786.45	230.99
786.77	230.99
787.09	230.91
