SpectraSuite Data File
++++++++++++++++++++++++++++++++++++
Date: Fri Feb 01 14:54:11 EST 2013
User: group
Dark Spectrum Present: No
Reference Spectrum Present: No
Number of Sampled Component Spectra: 1
Spectrometers: USB2E7196
Integration Time (usec): 35000 (USB2E7196)
Spectra Averaged: 100 (USB2E7196)
Boxcar Smoothing: 10 (USB2E7196)
Correct for Electrical Dark: No (USB2E7196)
Strobe/Lamp Enabled: No (USB2E7196)
Correct for Detector Non-linearity: No (USB2E7196)
Correct for Stray Light: No (USB2E7196)
Number of Pixels in Processed Spectrum: 2048
>>>>>Begin Processed Spectral Data<<<<<
339.09	0.00
339.48	215.23
339.86	216.83
340.24	217.76
340.63	219.23
341.01	222.87
341.39	222.37
341.78	223.27
342.16	224.88
342.54	225.45
342.93	213.69
343.31	224.51
343.69	225.04
344.07	225.50
344.46	225.94
344.84	226.33
345.22	226.56
345.60	226.82
345.99	227.03
346.37	227.18
346.75	227.27
347.13	227.32
347.52	227.36
347.90	227.41
348.28	227.46
348.66	227.50
349.05	227.51
349.43	227.53
349.81	227.55
350.19	227.60
350.57	227.68
350.96	227.76
351.34	227.83
351.72	227.93
352.10	228.07
352.48	228.15
352.87	228.22
353.25	228.25
353.63	228.32
354.01	228.40
354.39	228.47
354.77	228.54
355.15	228.64
355.54	228.73
355.92	228.79
356.30	228.86
356.68	228.99
357.06	229.04
357.44	229.11
357.82	229.19
358.20	229.24
358.58	229.29
358.97	229.32
359.35	229.39
359.73	229.46
360.11	229.48
360.49	229.54
360.87	229.56
361.25	229.65
361.63	229.70
362.01	229.72
362.39	229.73
362.77	229.76
363.15	229.78
363.53	229.77
363.91	229.77
364.29	229.77
364.67	229.67
365.05	229.71
365.43	229.71
365.81	229.73
366.19	229.77
366.57	229.78
366.95	229.77
367.33	229.70
367.71	229.66
368.09	229.65
368.47	229.60
368.85	229.58
369.23	229.55
369.61	229.49
369.99	229.47
370.37	229.45
370.75	229.45
371.13	229.39
371.51	229.32
371.89	229.27
372.27	229.22
372.65	229.15
373.03	229.08
373.41	229.00
373.78	228.90
374.16	228.78
374.54	228.69
374.92	228.63
375.30	228.57
375.68	228.49
376.06	228.42
376.44	228.32
376.82	228.27
377.19	228.18
377.57	228.08
377.95	227.97
378.33	227.87
378.71	227.76
379.09	227.70
379.47	227.65
379.84	227.58
380.22	227.51
380.60	227.42
380.98	227.33
381.36	227.24
381.73	227.15
382.11	227.10
382.49	227.03
382.87	226.93
383.25	226.88
383.62	226.93
384.00	226.85
384.38	226.81
384.76	226.75
385.13	226.73
385.51	226.70
385.89	226.62
386.27	226.60
386.64	226.55
387.02	226.52
387.40	226.46
387.78	226.44
388.15	226.42
388.53	226.42
388.91	226.38
389.29	226.35
389.66	226.36
390.04	226.36
390.42	226.38
390.79	226.37
391.17	226.35
391.55	226.25
391.92	226.26
392.30	226.26
392.68	226.24
393.05	226.26
393.43	226.28
393.81	226.34
394.18	226.32
394.56	226.38
394.94	226.41
395.31	226.45
395.69	226.52
396.06	226.55
396.44	226.59
396.82	226.65
397.19	226.80
397.57	226.88
397.95	226.95
398.32	226.97
398.70	227.07
399.07	227.17
399.45	227.27
399.82	227.35
400.20	227.43
400.58	227.54
400.95	227.58
401.33	227.69
401.70	227.85
402.08	227.98
402.45	228.10
402.83	228.22
403.20	228.34
403.58	228.45
403.95	228.61
404.33	228.76
404.71	228.90
405.08	229.06
405.46	229.19
405.83	229.35
406.21	229.52
406.58	229.73
406.96	229.90
407.33	230.08
407.70	230.31
408.08	230.59
408.45	230.81
408.83	231.09
409.20	231.30
409.58	231.47
409.95	231.75
410.33	232.02
410.70	232.30
411.08	232.58
411.45	232.91
411.82	233.25
412.20	233.59
412.57	234.01
412.95	234.33
413.32	234.76
413.69	235.18
414.07	235.62
414.44	236.07
414.82	236.55
415.19	237.13
415.56	237.66
415.94	238.24
416.31	238.87
416.68	239.45
417.06	240.15
417.43	240.84
417.81	241.59
418.18	242.34
418.55	243.19
418.93	244.05
419.30	244.93
419.67	245.84
420.04	246.80
420.42	247.76
420.79	248.91
421.16	250.04
421.54	251.20
421.91	252.35
422.28	253.56
422.66	254.86
423.03	256.10
423.40	257.38
423.77	258.74
424.15	260.14
424.52	261.63
424.89	263.23
425.26	264.77
425.64	266.19
426.01	267.76
426.38	269.37
426.75	271.05
427.13	272.78
427.50	274.55
427.87	276.41
428.24	278.25
428.61	280.01
428.99	281.92
429.36	284.04
429.73	286.13
430.10	288.18
430.47	290.24
430.85	292.36
431.22	294.60
431.59	296.97
431.96	299.21
432.33	301.68
432.70	304.05
433.08	306.89
433.45	309.56
433.82	312.17
434.19	315.08
434.56	317.90
434.93	320.51
435.30	323.10
435.68	325.99
436.05	328.86
436.42	331.63
436.79	334.17
437.16	336.81
437.53	339.68
437.90	342.49
438.27	345.26
438.64	348.10
439.01	350.69
439.38	352.96
439.75	355.14
440.13	357.62
440.50	359.97
440.87	361.77
441.24	363.72
441.61	365.88
441.98	367.34
442.35	369.15
442.72	371.03
443.09	372.85
443.46	373.86
443.83	374.42
444.20	374.95
444.57	375.73
444.94	376.09
445.31	376.39
445.68	376.74
446.05	376.79
446.42	376.42
446.79	376.04
447.16	375.57
447.53	375.24
447.90	374.08
448.27	372.92
448.64	371.36
449.01	370.23
449.37	368.28
449.74	366.43
450.11	364.16
450.48	361.69
450.85	359.20
451.22	357.08
451.59	355.07
451.96	353.11
452.33	350.56
452.70	348.17
453.07	345.35
453.43	342.44
453.80	339.73
454.17	337.03
454.54	334.49
454.91	331.79
455.28	329.14
455.65	326.66
456.02	324.17
456.38	322.04
456.75	319.33
457.12	317.05
457.49	314.82
457.86	312.64
458.23	310.80
458.59	308.75
458.96	306.64
459.33	304.80
459.70	302.92
460.07	301.42
460.43	299.70
460.80	298.07
461.17	296.65
461.54	295.11
461.91	293.71
462.27	292.25
462.64	291.01
463.01	289.68
463.38	288.42
463.74	287.06
464.11	285.88
464.48	284.87
464.85	283.78
465.21	282.88
465.58	281.98
465.95	280.85
466.32	279.94
466.68	279.02
467.05	278.10
467.42	277.22
467.78	276.25
468.15	275.37
468.52	274.67
468.88	273.76
469.25	272.99
469.62	272.32
469.98	271.64
470.35	270.96
470.72	270.29
471.08	269.59
471.45	269.05
471.82	268.47
472.18	267.86
472.55	267.40
472.92	266.87
473.28	266.36
473.65	265.91
474.02	265.44
474.38	265.09
474.75	264.72
475.11	264.34
475.48	264.05
475.85	263.80
476.21	263.60
476.58	263.44
476.94	263.24
477.31	263.09
477.67	262.92
478.04	262.86
478.41	262.80
478.77	262.80
479.14	262.75
479.50	262.77
479.87	262.81
480.23	262.87
480.60	262.93
480.96	263.00
481.33	263.21
481.69	263.42
482.06	263.61
482.42	263.87
482.79	264.11
483.15	264.46
483.52	264.84
483.88	265.16
484.25	265.50
484.61	265.96
484.98	266.38
485.34	266.96
485.71	267.50
486.07	268.11
486.44	268.68
486.80	269.40
487.17	270.11
487.53	270.96
487.90	271.84
488.26	272.77
488.62	273.79
488.99	274.75
489.35	275.79
489.72	276.91
490.08	278.08
490.44	279.34
490.81	280.64
491.17	281.99
491.54	283.47
491.90	285.08
492.26	286.71
492.63	288.43
492.99	290.17
493.36	292.06
493.72	294.12
494.08	296.24
494.45	298.49
494.81	300.85
495.17	303.27
495.54	305.82
495.90	308.51
496.26	311.25
496.63	314.20
496.99	317.29
497.35	320.48
497.72	323.88
498.08	327.39
498.44	331.07
498.80	335.00
499.17	338.98
499.53	343.08
499.89	347.39
500.26	351.91
500.62	356.57
500.98	361.50
501.34	366.57
501.71	371.83
502.07	377.22
502.43	382.80
502.79	388.55
503.16	394.56
503.52	400.75
503.88	407.16
504.24	413.76
504.60	420.61
504.97	427.73
505.33	435.01
505.69	442.65
506.05	450.38
506.41	458.21
506.78	466.37
507.14	474.79
507.50	483.44
507.86	492.42
508.22	501.61
508.59	510.77
508.95	520.27
509.31	530.06
509.67	540.16
510.03	550.48
510.39	561.04
510.75	571.84
511.12	582.73
511.48	594.04
511.84	605.48
512.20	616.96
512.56	628.92
512.92	641.06
513.28	653.38
513.64	665.87
514.00	678.58
514.37	691.44
514.73	704.46
515.09	717.55
515.45	730.79
515.81	744.37
516.17	758.34
516.53	772.51
516.89	786.74
517.25	800.87
517.61	815.19
517.97	829.66
518.33	844.09
518.69	858.92
519.05	873.90
519.41	889.00
519.77	904.60
520.13	920.02
520.49	935.43
520.85	950.87
521.21	966.59
521.57	982.72
521.93	998.64
522.29	1015.14
522.65	1031.46
523.01	1047.69
523.37	1063.80
523.73	1080.03
524.09	1096.18
524.45	1112.55
524.81	1129.25
525.17	1146.28
525.53	1163.26
525.89	1180.26
526.25	1197.18
526.61	1213.53
526.97	1230.38
527.33	1246.87
527.68	1263.61
528.04	1280.24
528.40	1296.98
528.76	1314.10
529.12	1330.91
529.48	1347.82
529.84	1363.96
530.20	1380.69
530.56	1397.88
530.91	1415.25
531.27	1432.12
531.63	1448.60
531.99	1465.27
532.35	1481.39
532.71	1497.30
533.07	1513.74
533.42	1529.68
533.78	1545.85
534.14	1562.29
534.50	1577.75
534.86	1593.71
535.21	1608.89
535.57	1624.85
535.93	1640.48
536.29	1655.47
536.65	1670.62
537.00	1685.50
537.36	1700.91
537.72	1715.55
538.08	1730.03
538.44	1744.02
538.79	1757.99
539.15	1771.84
539.51	1785.74
539.87	1800.11
540.22	1813.97
540.58	1827.85
540.94	1841.28
541.29	1854.22
541.65	1867.04
542.01	1880.32
542.37	1892.67
542.72	1905.27
543.08	1917.06
543.44	1929.41
543.79	1940.64
544.15	1951.57
544.51	1963.00
544.87	1973.98
545.22	1984.68
545.58	1994.98
545.94	2004.80
546.29	2014.73
546.65	2024.67
547.01	2033.77
547.36	2042.52
547.72	2050.98
548.07	2058.65
548.43	2066.75
548.79	2074.86
549.14	2082.13
549.50	2089.60
549.86	2097.40
550.21	2104.68
550.57	2111.87
550.92	2118.42
551.28	2125.54
551.64	2132.75
551.99	2139.51
552.35	2145.56
552.70	2151.63
553.06	2157.49
553.41	2163.70
553.77	2169.58
554.13	2175.52
554.48	2181.62
554.84	2186.77
555.19	2191.94
555.55	2196.97
555.90	2201.38
556.26	2206.08
556.61	2211.01
556.97	2215.05
557.32	2219.06
557.68	2223.10
558.03	2227.43
558.39	2231.06
558.74	2235.52
559.10	2239.25
559.45	2242.65
559.81	2246.95
560.16	2250.65
560.52	2253.77
560.87	2257.09
561.23	2259.71
561.58	2262.41
561.94	2264.77
562.29	2267.17
562.64	2269.72
563.00	2272.32
563.35	2275.80
563.71	2278.73
564.06	2281.80
564.42	2284.57
564.77	2286.86
565.12	2288.92
565.48	2290.56
565.83	2292.15
566.19	2293.25
566.54	2294.11
566.89	2295.20
567.25	2295.47
567.60	2296.76
567.96	2298.33
568.31	2298.91
568.66	2299.86
569.02	2300.33
569.37	2300.47
569.72	2301.20
570.08	2301.13
570.43	2300.93
570.78	2300.04
571.14	2298.32
571.49	2296.83
571.84	2296.30
572.20	2294.98
572.55	2293.77
572.90	2291.99
573.26	2290.66
573.61	2288.82
573.96	2286.68
574.31	2283.41
574.67	2280.34
575.02	2276.56
575.37	2272.92
575.72	2269.02
576.08	2265.51
576.43	2262.02
576.78	2258.24
577.13	2254.96
577.49	2251.88
577.84	2248.40
578.19	2244.55
578.54	2240.68
578.90	2236.21
579.25	2230.46
579.60	2225.34
579.95	2220.05
580.30	2214.91
580.66	2209.35
581.01	2204.38
581.36	2199.33
581.71	2195.09
582.06	2190.45
582.42	2185.80
582.77	2180.45
583.12	2175.69
583.47	2170.74
583.82	2165.61
584.17	2160.27
584.53	2154.60
584.88	2148.72
585.23	2142.64
585.58	2137.03
585.93	2131.56
586.28	2126.69
586.63	2121.57
586.98	2116.35
587.34	2111.58
587.69	2106.67
588.04	2101.32
588.39	2095.36
588.74	2088.89
589.09	2082.51
589.44	2075.70
589.79	2069.52
590.14	2063.71
590.49	2057.05
590.84	2050.48
591.19	2044.20
591.54	2037.59
591.89	2030.00
592.25	2023.04
592.60	2015.85
592.95	2008.10
593.30	2000.68
593.65	1992.88
594.00	1985.65
594.35	1978.34
594.70	1970.11
595.05	1962.67
595.40	1955.30
595.75	1947.78
596.10	1941.31
596.45	1934.35
596.80	1927.96
597.15	1921.31
597.50	1914.05
597.85	1907.55
598.19	1900.86
598.54	1893.83
598.89	1887.12
599.24	1881.22
599.59	1874.54
599.94	1868.02
600.29	1861.68
600.64	1855.06
600.99	1847.70
601.34	1840.92
601.69	1833.99
602.04	1827.12
602.39	1819.81
602.74	1813.18
603.08	1806.28
603.43	1799.64
603.78	1792.52
604.13	1785.25
604.48	1777.80
604.83	1771.09
605.18	1764.15
605.53	1756.20
605.87	1748.14
606.22	1740.97
606.57	1733.06
606.92	1725.71
607.27	1718.64
607.62	1711.77
607.96	1704.48
608.31	1697.67
608.66	1689.99
609.01	1682.52
609.36	1675.05
609.70	1667.07
610.05	1658.93
610.40	1651.37
610.75	1643.01
611.10	1635.45
611.44	1627.28
611.79	1619.48
612.14	1610.89
612.49	1601.74
612.83	1593.44
613.18	1585.41
613.53	1577.32
613.88	1568.84
614.22	1560.63
614.57	1552.02
614.92	1543.99
615.27	1536.49
615.61	1528.30
615.96	1520.29
616.31	1512.59
616.65	1505.32
617.00	1497.82
617.35	1490.19
617.70	1481.84
618.04	1473.28
618.39	1465.14
618.74	1457.48
619.08	1449.22
619.43	1441.62
619.78	1434.83
620.12	1427.76
620.47	1420.29
620.82	1412.31
621.16	1405.05
621.51	1397.55
621.85	1390.10
622.20	1381.71
622.55	1373.50
622.89	1365.83
623.24	1358.37
623.59	1351.10
623.93	1343.67
624.28	1336.48
624.62	1329.07
624.97	1321.94
625.32	1315.39
625.66	1308.32
626.01	1301.22
626.35	1293.77
626.70	1286.14
627.04	1278.50
627.39	1270.85
627.73	1263.48
628.08	1256.49
628.43	1249.04
628.77	1241.68
629.12	1234.15
629.46	1226.98
629.81	1219.56
630.15	1212.30
630.50	1204.94
630.84	1196.82
631.19	1188.88
631.53	1181.35
631.88	1173.83
632.22	1166.35
632.57	1159.19
632.91	1151.76
633.26	1144.32
633.60	1137.09
633.95	1130.11
634.29	1123.02
634.64	1116.29
634.98	1109.01
635.32	1101.94
635.67	1095.54
636.01	1088.99
636.36	1082.24
636.70	1075.76
637.05	1069.23
637.39	1062.91
637.73	1056.50
638.08	1050.62
638.42	1044.64
638.77	1038.35
639.11	1031.80
639.45	1025.50
639.80	1018.76
640.14	1012.32
640.49	1005.92
640.83	999.58
641.17	993.36
641.52	987.13
641.86	980.77
642.20	974.96
642.55	968.71
642.89	962.26
643.23	955.79
643.58	950.12
643.92	943.96
644.26	937.95
644.61	931.95
644.95	925.94
645.29	919.44
645.64	912.82
645.98	906.49
646.32	900.68
646.66	894.64
647.01	888.89
647.35	883.31
647.69	877.54
648.04	872.16
648.38	866.37
648.72	860.42
649.06	854.44
649.41	848.59
649.75	842.58
650.09	836.62
650.43	830.87
650.78	824.73
651.12	818.82
651.46	813.11
651.80	807.41
652.14	802.06
652.49	796.79
652.83	791.65
653.17	785.97
653.51	780.29
653.85	774.91
654.20	769.31
654.54	763.30
654.88	757.60
655.22	751.73
655.56	746.06
655.90	740.64
656.25	735.42
656.59	730.13
656.93	725.16
657.27	720.07
657.61	714.58
657.95	709.58
658.29	704.59
658.64	699.50
658.98	694.25
659.32	688.88
659.66	683.67
660.00	678.41
660.34	673.60
660.68	668.74
661.02	663.78
661.36	659.16
661.70	654.78
662.05	650.44
662.39	646.16
662.73	641.76
663.07	637.50
663.41	633.01
663.75	628.53
664.09	624.07
664.43	619.70
664.77	615.73
665.11	611.40
665.45	607.36
665.79	603.23
666.13	599.17
666.47	595.07
666.81	590.94
667.15	586.89
667.49	583.01
667.83	579.26
668.17	575.39
668.51	571.41
668.85	567.42
669.19	563.65
669.53	559.87
669.87	556.08
670.21	552.37
670.55	548.84
670.89	545.50
671.23	542.09
671.57	538.68
671.91	535.18
672.25	531.82
672.58	528.32
672.92	524.98
673.26	521.85
673.60	518.72
673.94	515.65
674.28	512.81
674.62	509.88
674.96	506.83
675.30	503.98
675.64	501.04
675.97	498.26
676.31	495.41
676.65	492.47
676.99	489.81
677.33	486.94
677.67	484.18
678.01	481.12
678.34	478.15
678.68	475.32
679.02	472.51
679.36	469.75
679.70	467.02
680.04	464.28
680.37	461.37
680.71	458.58
681.05	455.99
681.39	453.30
681.73	450.68
682.06	448.14
682.40	445.59
682.74	443.10
683.08	440.57
683.42	438.00
683.75	435.57
684.09	433.07
684.43	430.68
684.77	428.17
685.10	425.90
685.44	423.61
685.78	421.35
686.12	419.16
686.45	416.90
686.79	414.64
687.13	412.51
687.46	410.39
687.80	408.30
688.14	406.10
688.48	404.04
688.81	401.77
689.15	399.66
689.49	397.53
689.82	395.49
690.16	393.42
690.50	391.46
690.83	389.47
691.17	387.48
691.51	385.55
691.84	383.79
692.18	381.89
692.52	379.93
692.85	377.97
693.19	376.10
693.52	374.33
693.86	372.53
694.20	370.75
694.53	369.01
694.87	367.18
695.21	365.40
695.54	363.61
695.88	361.96
696.21	360.25
696.55	358.61
696.88	356.91
697.22	355.32
697.56	353.77
697.89	352.15
698.23	350.56
698.56	349.00
698.90	347.42
699.23	345.80
699.57	344.31
699.90	342.81
700.24	341.29
700.58	339.75
700.91	338.26
701.25	336.83
701.58	335.45
701.92	334.10
702.25	332.76
702.59	331.38
702.92	330.07
703.26	328.77
703.59	327.52
703.93	326.38
704.26	325.14
704.60	323.82
704.93	322.58
705.26	321.37
705.60	320.21
705.93	319.01
706.27	317.98
706.60	316.91
706.94	315.84
707.27	314.71
707.61	313.68
707.94	312.67
708.27	311.60
708.61	310.55
708.94	309.54
709.28	308.52
709.61	307.60
709.94	306.68
710.28	305.67
710.61	304.67
710.95	303.64
711.28	302.72
711.61	301.80
711.95	300.89
712.28	299.90
712.61	298.92
712.95	298.06
713.28	297.16
713.61	296.27
713.95	295.43
714.28	294.63
714.61	293.77
714.95	292.92
715.28	292.06
715.61	291.22
715.95	290.41
716.28	289.57
716.61	288.73
716.95	287.91
717.28	287.19
717.61	286.43
717.94	285.65
718.28	284.87
718.61	284.14
718.94	283.45
719.27	282.83
719.61	282.16
719.94	281.47
720.27	280.75
720.60	280.07
720.94	279.39
721.27	278.74
721.60	278.18
721.93	277.59
722.27	277.06
722.60	276.51
722.93	275.94
723.26	275.44
723.59	274.86
723.93	274.30
724.26	273.75
724.59	273.22
724.92	272.74
725.25	272.22
725.59	271.72
725.92	271.22
726.25	270.68
726.58	270.23
726.91	269.74
727.24	269.31
727.57	268.85
727.91	268.36
728.24	267.89
728.57	267.37
728.90	266.93
729.23	266.38
729.56	265.96
729.89	265.47
730.22	264.98
730.55	264.52
730.89	264.10
731.22	263.63
731.55	263.21
731.88	262.73
732.21	262.28
732.54	261.83
732.87	261.39
733.20	261.01
733.53	260.65
733.86	260.29
734.19	259.88
734.52	259.49
734.85	259.19
735.18	258.76
735.51	258.38
735.84	258.02
736.17	257.69
736.50	257.24
736.83	257.01
737.16	256.67
737.49	256.35
737.82	256.03
738.15	255.71
738.48	255.39
738.81	255.07
739.14	254.78
739.47	254.50
739.80	254.20
740.13	253.91
740.46	253.55
740.79	253.22
741.12	252.92
741.45	252.60
741.78	252.27
742.11	252.02
742.44	251.73
742.77	251.43
743.10	251.12
743.43	250.88
743.75	250.50
744.08	250.36
744.41	250.10
744.74	249.82
745.07	249.54
745.40	249.26
745.73	249.00
746.06	248.71
746.39	248.40
746.71	248.14
747.04	247.88
747.37	247.63
747.70	247.35
748.03	247.10
748.36	246.86
748.68	246.63
749.01	246.38
749.34	246.12
749.67	245.92
750.00	245.70
750.33	245.54
750.65	245.35
750.98	245.00
751.31	244.78
751.64	244.57
751.97	244.43
752.29	244.24
752.62	244.05
752.95	243.85
753.28	243.67
753.60	243.47
753.93	243.30
754.26	243.12
754.59	242.92
754.91	242.74
755.24	242.56
755.57	242.34
755.90	242.18
756.22	242.02
756.55	241.82
756.88	241.63
757.20	241.41
757.53	241.20
757.86	241.09
758.19	240.92
758.51	240.75
758.84	240.54
759.17	240.37
759.49	240.20
759.82	240.09
760.15	239.94
760.47	239.82
760.80	239.65
761.13	239.51
761.45	239.38
761.78	239.21
762.11	239.10
762.43	238.97
762.76	238.81
763.08	238.64
763.41	238.51
763.74	238.39
764.06	238.22
764.39	238.11
764.71	237.94
765.04	237.79
765.37	237.65
765.69	237.52
766.02	237.38
766.34	237.24
766.67	237.10
767.00	237.01
767.32	236.90
767.65	236.84
767.97	236.75
768.30	236.61
768.62	236.51
768.95	236.36
769.27	236.27
769.60	236.18
769.92	236.10
770.25	235.98
770.57	235.88
770.90	235.80
771.22	235.65
771.55	235.55
771.87	235.47
772.20	235.38
772.52	235.34
772.85	235.36
773.17	235.29
773.50	235.18
773.82	235.07
774.15	234.93
774.47	234.79
774.80	234.68
775.12	234.61
775.45	234.53
775.77	234.46
776.09	234.35
776.42	234.25
776.74	234.19
777.07	234.10
777.39	233.98
777.72	233.90
778.04	233.84
778.36	233.76
778.69	233.66
779.01	233.57
779.33	233.43
779.66	233.27
779.98	233.21
780.31	233.13
780.63	233.14
780.95	233.08
781.28	233.01
781.60	232.94
781.92	232.89
782.25	232.83
782.57	232.78
782.89	232.72
783.22	232.67
783.54	232.58
783.86	232.57
784.19	232.53
784.51	232.49
784.83	232.42
785.16	232.38
785.48	232.39
785.80	232.36
786.12	232.31
786.45	232.28
786.77	232.22
787.09	232.20
