SpectraSuite Data File
++++++++++++++++++++++++++++++++++++
Date: Fri Feb 01 16:04:19 EST 2013
User: group
Dark Spectrum Present: No
Reference Spectrum Present: No
Number of Sampled Component Spectra: 1
Spectrometers: USB2E7196
Integration Time (usec): 35000 (USB2E7196)
Spectra Averaged: 100 (USB2E7196)
Boxcar Smoothing: 10 (USB2E7196)
Correct for Electrical Dark: No (USB2E7196)
Strobe/Lamp Enabled: No (USB2E7196)
Correct for Detector Non-linearity: No (USB2E7196)
Correct for Stray Light: No (USB2E7196)
Number of Pixels in Processed Spectrum: 2048
>>>>>Begin Processed Spectral Data<<<<<
339.09	0.00
339.48	215.71
339.86	216.05
340.24	217.94
340.63	219.26
341.01	222.36
341.39	221.86
341.78	223.68
342.16	224.27
342.54	225.01
342.93	213.29
343.31	224.05
343.69	224.53
344.07	224.98
344.46	225.40
344.84	225.76
345.22	225.96
345.60	226.20
345.99	226.37
346.37	226.51
346.75	226.61
347.13	226.68
347.52	226.77
347.90	226.84
348.28	226.84
348.66	226.88
349.05	226.86
349.43	226.87
349.81	226.91
350.19	226.91
350.57	226.98
350.96	227.04
351.34	227.14
351.72	227.25
352.10	227.36
352.48	227.43
352.87	227.47
353.25	227.53
353.63	227.58
354.01	227.59
354.39	227.63
354.77	227.66
355.15	227.79
355.54	227.81
355.92	227.85
356.30	227.94
356.68	228.08
357.06	228.11
357.44	228.19
357.82	228.28
358.20	228.39
358.58	228.41
358.97	228.47
359.35	228.52
359.73	228.58
360.11	228.63
360.49	228.67
360.87	228.70
361.25	228.79
361.63	228.88
362.01	228.95
362.39	229.01
362.77	229.09
363.15	229.08
363.53	229.15
363.91	229.18
364.29	229.20
364.67	229.14
365.05	229.20
365.43	229.19
365.81	229.22
366.19	229.25
366.57	229.30
366.95	229.28
367.33	229.30
367.71	229.28
368.09	229.28
368.47	229.26
368.85	229.26
369.23	229.23
369.61	229.20
369.99	229.21
370.37	229.18
370.75	229.18
371.13	229.12
371.51	229.04
371.89	228.99
372.27	228.96
372.65	228.93
373.03	228.86
373.41	228.82
373.78	228.72
374.16	228.60
374.54	228.55
374.92	228.50
375.30	228.42
375.68	228.36
376.06	228.32
376.44	228.26
376.82	228.22
377.19	228.15
377.57	228.05
377.95	227.95
378.33	227.89
378.71	227.77
379.09	227.76
379.47	227.69
379.84	227.62
380.22	227.55
380.60	227.46
380.98	227.39
381.36	227.29
381.73	227.20
382.11	227.16
382.49	227.07
382.87	227.01
383.25	226.93
383.62	226.97
384.00	226.92
384.38	226.85
384.76	226.84
385.13	226.81
385.51	226.78
385.89	226.68
386.27	226.63
386.64	226.62
387.02	226.55
387.40	226.52
387.78	226.49
388.15	226.48
388.53	226.48
388.91	226.48
389.29	226.49
389.66	226.48
390.04	226.45
390.42	226.47
390.79	226.46
391.17	226.45
391.55	226.30
391.92	226.29
392.30	226.32
392.68	226.26
393.05	226.24
393.43	226.24
393.81	226.32
394.18	226.34
394.56	226.36
394.94	226.39
395.31	226.42
395.69	226.47
396.06	226.48
396.44	226.50
396.82	226.49
397.19	226.56
397.57	226.61
397.95	226.65
398.32	226.67
398.70	226.72
399.07	226.81
399.45	226.90
399.82	226.95
400.20	226.98
400.58	227.06
400.95	227.13
401.33	227.23
401.70	227.35
402.08	227.40
402.45	227.48
402.83	227.59
403.20	227.70
403.58	227.79
403.95	227.94
404.33	228.06
404.71	228.22
405.08	228.37
405.46	228.51
405.83	228.67
406.21	228.83
406.58	228.99
406.96	229.13
407.33	229.28
407.70	229.46
408.08	229.73
408.45	229.95
408.83	230.17
409.20	230.38
409.58	230.53
409.95	230.80
410.33	231.07
410.70	231.29
411.08	231.61
411.45	231.92
411.82	232.19
412.20	232.55
412.57	232.98
412.95	233.30
413.32	233.69
413.69	234.08
414.07	234.52
414.44	235.01
414.82	235.51
415.19	236.08
415.56	236.61
415.94	237.12
416.31	237.77
416.68	238.38
417.06	239.09
417.43	239.77
417.81	240.51
418.18	241.29
418.55	242.11
418.93	242.98
419.30	243.88
419.67	244.82
420.04	245.76
420.42	246.76
420.79	247.95
421.16	249.07
421.54	250.28
421.91	251.50
422.28	252.73
422.66	254.05
423.03	255.34
423.40	256.69
423.77	258.10
424.15	259.49
424.52	260.99
424.89	262.62
425.26	264.18
425.64	265.61
426.01	267.23
426.38	268.95
426.75	270.57
427.13	272.31
427.50	274.15
427.87	276.03
428.24	277.85
428.61	279.59
428.99	281.53
429.36	283.60
429.73	285.70
430.10	287.72
430.47	289.80
430.85	291.90
431.22	294.13
431.59	296.50
431.96	298.77
432.33	301.28
432.70	303.64
433.08	306.43
433.45	309.08
433.82	311.63
434.19	314.48
434.56	317.30
434.93	319.91
435.30	322.48
435.68	325.36
436.05	328.19
436.42	330.99
436.79	333.57
437.16	336.27
437.53	339.08
437.90	341.86
438.27	344.59
438.64	347.42
439.01	350.01
439.38	352.23
439.75	354.35
440.13	356.80
440.50	359.11
440.87	360.98
441.24	362.95
441.61	365.12
441.98	366.59
442.35	368.37
442.72	370.28
443.09	372.06
443.46	373.03
443.83	373.62
444.20	374.09
444.57	374.85
444.94	375.13
445.31	375.41
445.68	375.77
446.05	375.86
446.42	375.51
446.79	375.05
447.16	374.63
447.53	374.35
447.90	373.17
448.27	371.99
448.64	370.38
449.01	369.24
449.37	367.28
449.74	365.38
450.11	363.17
450.48	360.68
450.85	358.17
451.22	356.09
451.59	354.06
451.96	352.15
452.33	349.55
452.70	347.21
453.07	344.37
453.43	341.48
453.80	338.68
454.17	335.96
454.54	333.45
454.91	330.74
455.28	328.07
455.65	325.58
456.02	323.15
456.38	321.02
456.75	318.35
457.12	316.07
457.49	313.84
457.86	311.66
458.23	309.79
458.59	307.74
458.96	305.60
459.33	303.72
459.70	301.84
460.07	300.37
460.43	298.64
460.80	297.06
461.17	295.60
461.54	294.11
461.91	292.67
462.27	291.24
462.64	290.01
463.01	288.65
463.38	287.38
463.74	286.02
464.11	284.84
464.48	283.81
464.85	282.73
465.21	281.87
465.58	280.96
465.95	279.90
466.32	279.02
466.68	278.12
467.05	277.26
467.42	276.40
467.78	275.45
468.15	274.59
468.52	273.90
468.88	273.06
469.25	272.29
469.62	271.73
469.98	271.07
470.35	270.44
470.72	269.88
471.08	269.22
471.45	268.69
471.82	268.17
472.18	267.58
472.55	267.17
472.92	266.66
473.28	266.20
473.65	265.75
474.02	265.30
474.38	264.97
474.75	264.66
475.11	264.31
475.48	264.07
475.85	263.85
476.21	263.63
476.58	263.47
476.94	263.35
477.31	263.19
477.67	263.03
478.04	262.91
478.41	262.84
478.77	262.92
479.14	262.86
479.50	262.86
479.87	262.95
480.23	262.97
480.60	263.03
480.96	263.13
481.33	263.32
481.69	263.51
482.06	263.69
482.42	263.85
482.79	264.08
483.15	264.35
483.52	264.75
483.88	265.10
484.25	265.48
484.61	265.87
484.98	266.30
485.34	266.86
485.71	267.43
486.07	267.98
486.44	268.54
486.80	269.23
487.17	269.95
487.53	270.75
487.90	271.60
488.26	272.52
488.62	273.49
488.99	274.46
489.35	275.49
489.72	276.62
490.08	277.85
490.44	279.10
490.81	280.46
491.17	281.76
491.54	283.26
491.90	284.80
492.26	286.47
492.63	288.19
492.99	289.98
493.36	291.93
493.72	293.97
494.08	296.07
494.45	298.35
494.81	300.75
495.17	303.18
495.54	305.82
495.90	308.53
496.26	311.35
496.63	314.32
496.99	317.46
497.35	320.71
497.72	324.11
498.08	327.68
498.44	331.34
498.80	335.27
499.17	339.32
499.53	343.51
499.89	347.90
500.26	352.44
500.62	357.13
500.98	362.15
501.34	367.29
501.71	372.67
502.07	378.16
502.43	383.76
502.79	389.60
503.16	395.64
503.52	401.87
503.88	408.27
504.24	414.93
504.60	421.82
504.97	428.93
505.33	436.31
505.69	444.02
506.05	451.84
506.41	459.77
506.78	467.94
507.14	476.44
507.50	485.13
507.86	494.19
508.22	503.42
508.59	512.57
508.95	522.12
509.31	531.87
509.67	541.98
510.03	552.33
510.39	562.93
510.75	573.79
511.12	584.75
511.48	596.08
511.84	607.53
512.20	619.04
512.56	631.10
512.92	643.28
513.28	655.56
513.64	668.02
514.00	680.74
514.37	693.69
514.73	706.71
515.09	719.69
515.45	732.88
515.81	746.49
516.17	760.51
516.53	774.71
516.89	788.97
517.25	803.11
517.61	817.45
517.97	831.88
518.33	846.32
518.69	861.11
519.05	876.07
519.41	891.19
519.77	906.68
520.13	922.03
520.49	937.33
520.85	952.71
521.21	968.42
521.57	984.44
521.93	1000.22
522.29	1016.63
522.65	1032.96
523.01	1049.15
523.37	1065.04
523.73	1081.16
524.09	1097.15
524.45	1113.41
524.81	1129.96
525.17	1146.78
525.53	1163.70
525.89	1180.57
526.25	1197.46
526.61	1213.78
526.97	1230.56
527.33	1247.14
527.68	1263.76
528.04	1280.28
528.40	1296.85
528.76	1313.85
529.12	1330.62
529.48	1347.40
529.84	1363.39
530.20	1379.95
530.56	1396.93
530.91	1414.37
531.27	1431.10
531.63	1447.43
531.99	1463.91
532.35	1479.88
532.71	1495.79
533.07	1512.07
533.42	1527.85
533.78	1543.81
534.14	1560.16
534.50	1575.57
534.86	1591.29
535.21	1606.35
535.57	1622.14
535.93	1637.63
536.29	1652.44
536.65	1667.38
537.00	1682.14
537.36	1697.32
537.72	1711.75
538.08	1726.07
538.44	1739.81
538.79	1753.54
539.15	1767.27
539.51	1780.83
539.87	1795.02
540.22	1808.61
540.58	1822.05
540.94	1835.23
541.29	1847.90
541.65	1860.27
542.01	1873.38
542.37	1885.64
542.72	1898.02
543.08	1909.67
543.44	1921.94
543.79	1933.14
544.15	1943.95
544.51	1955.35
544.87	1966.21
545.22	1976.93
545.58	1987.30
545.94	1996.99
546.29	2006.96
546.65	2016.80
547.01	2026.09
547.36	2034.87
547.72	2043.30
548.07	2051.16
548.43	2059.40
548.79	2067.51
549.14	2075.23
549.50	2082.45
549.86	2090.15
550.21	2097.52
550.57	2104.83
550.92	2111.46
551.28	2118.46
551.64	2125.70
551.99	2132.36
552.35	2138.45
552.70	2144.71
553.06	2150.52
553.41	2156.92
553.77	2162.89
554.13	2169.01
554.48	2175.20
554.84	2180.71
555.19	2186.14
555.55	2191.47
555.90	2196.05
556.26	2200.97
556.61	2205.78
556.97	2210.23
557.32	2214.42
557.68	2218.47
558.03	2222.78
558.39	2226.36
558.74	2231.02
559.10	2234.92
559.45	2238.54
559.81	2243.01
560.16	2247.03
560.52	2250.22
560.87	2253.81
561.23	2256.49
561.58	2259.36
561.94	2261.87
562.29	2264.35
562.64	2266.86
563.00	2269.34
563.35	2272.83
563.71	2275.87
564.06	2278.96
564.42	2281.63
564.77	2284.22
565.12	2286.65
565.48	2288.49
565.83	2290.53
566.19	2291.79
566.54	2292.62
566.89	2293.82
567.25	2294.48
567.60	2295.68
567.96	2297.51
568.31	2298.17
568.66	2299.41
569.02	2300.08
569.37	2300.49
569.72	2301.31
570.08	2301.59
570.43	2301.65
570.78	2300.98
571.14	2299.73
571.49	2298.43
571.84	2298.31
572.20	2297.10
572.55	2296.01
572.90	2294.50
573.26	2293.13
573.61	2291.50
573.96	2289.79
574.31	2286.92
574.67	2283.81
575.02	2280.10
575.37	2276.81
575.72	2273.00
576.08	2269.50
576.43	2266.15
576.78	2262.44
577.13	2259.22
577.49	2256.17
577.84	2252.75
578.19	2249.03
578.54	2245.23
578.90	2240.99
579.25	2235.27
579.60	2230.19
579.95	2225.09
580.30	2220.08
580.66	2214.86
581.01	2209.86
581.36	2204.89
581.71	2200.62
582.06	2196.23
582.42	2191.76
582.77	2186.50
583.12	2181.87
583.47	2177.20
583.82	2172.18
584.17	2166.96
584.53	2161.49
584.88	2155.80
585.23	2149.92
585.58	2144.38
585.93	2138.93
586.28	2134.17
586.63	2129.27
586.98	2124.36
587.34	2119.64
587.69	2114.79
588.04	2109.51
588.39	2103.87
588.74	2097.45
589.09	2091.20
589.44	2084.44
589.79	2078.42
590.14	2072.76
590.49	2066.26
590.84	2059.83
591.19	2053.88
591.54	2047.54
591.89	2040.23
592.25	2033.48
592.60	2026.35
592.95	2018.90
593.30	2011.38
593.65	2003.76
594.00	1996.66
594.35	1989.37
594.70	1981.54
595.05	1974.26
595.40	1967.08
595.75	1959.71
596.10	1953.56
596.45	1947.06
596.80	1940.91
597.15	1934.40
597.50	1927.37
597.85	1920.98
598.19	1914.44
598.54	1907.37
598.89	1900.68
599.24	1894.77
599.59	1887.98
599.94	1881.85
600.29	1875.64
600.64	1869.22
600.99	1861.83
601.34	1855.07
601.69	1848.27
602.04	1841.35
602.39	1834.11
602.74	1827.27
603.08	1820.37
603.43	1813.74
603.78	1806.38
604.13	1799.18
604.48	1791.75
604.83	1784.84
605.18	1777.72
605.53	1769.67
605.87	1761.51
606.22	1754.27
606.57	1746.19
606.92	1738.85
607.27	1731.58
607.62	1724.42
607.96	1717.21
608.31	1710.63
608.66	1702.81
609.01	1695.02
609.36	1687.30
609.70	1679.17
610.05	1671.14
610.40	1663.52
610.75	1654.96
611.10	1647.14
611.44	1638.66
611.79	1630.73
612.14	1622.04
612.49	1613.06
612.83	1604.61
613.18	1596.46
613.53	1588.32
613.88	1579.86
614.22	1571.72
614.57	1563.13
614.92	1555.33
615.27	1547.72
615.61	1539.28
615.96	1531.45
616.31	1523.98
616.65	1516.68
617.00	1509.20
617.35	1501.47
617.70	1493.07
618.04	1484.67
618.39	1476.62
618.74	1469.05
619.08	1460.82
619.43	1453.27
619.78	1446.36
620.12	1439.15
620.47	1431.76
620.82	1423.57
621.16	1416.20
621.51	1408.64
621.85	1401.06
622.20	1392.46
622.55	1384.12
622.89	1376.34
623.24	1368.69
623.59	1361.23
623.93	1353.79
624.28	1346.62
624.62	1339.04
624.97	1331.95
625.32	1325.23
625.66	1318.15
626.01	1311.00
626.35	1303.58
626.70	1295.93
627.04	1288.16
627.39	1280.54
627.73	1273.08
628.08	1266.26
628.43	1258.98
628.77	1251.52
629.12	1244.00
629.46	1236.74
629.81	1229.32
630.15	1222.12
630.50	1214.77
630.84	1206.62
631.19	1198.56
631.53	1191.03
631.88	1183.55
632.22	1175.91
632.57	1168.63
632.91	1161.08
633.26	1153.64
633.60	1146.18
633.95	1139.02
634.29	1131.99
634.64	1125.29
634.98	1117.90
635.32	1110.71
635.67	1103.98
636.01	1097.44
636.36	1090.64
636.70	1084.17
637.05	1077.62
637.39	1071.18
637.73	1064.59
638.08	1058.70
638.42	1052.69
638.77	1046.26
639.11	1039.63
639.45	1033.30
639.80	1026.58
640.14	1020.11
640.49	1013.54
640.83	1007.25
641.17	1000.98
641.52	994.59
641.86	988.08
642.20	982.29
642.55	975.89
642.89	969.48
643.23	962.82
643.58	957.09
643.92	950.88
644.26	944.82
644.61	938.74
644.95	932.73
645.29	926.06
645.64	919.42
645.98	913.02
646.32	907.25
646.66	901.08
647.01	895.25
647.35	889.55
647.69	883.64
648.04	878.16
648.38	872.32
648.72	866.43
649.06	860.42
649.41	854.48
649.75	848.62
650.09	842.68
650.43	836.87
650.78	830.60
651.12	824.64
651.46	818.89
651.80	813.19
652.14	807.77
652.49	802.45
652.83	797.29
653.17	791.63
653.51	785.82
653.85	780.47
654.20	774.92
654.54	769.06
654.88	763.37
655.22	757.48
655.56	751.80
655.90	746.31
656.25	741.07
656.59	735.70
656.93	730.60
657.27	725.40
657.61	720.01
657.95	714.98
658.29	709.92
658.64	704.65
658.98	699.35
659.32	693.86
659.66	688.67
660.00	683.35
660.34	678.38
660.68	673.54
661.02	668.54
661.36	663.76
661.70	659.21
662.05	654.91
662.39	650.57
662.73	646.13
663.07	641.76
663.41	637.25
663.75	632.81
664.09	628.22
664.43	623.85
664.77	619.70
665.11	615.46
665.45	611.31
665.79	607.23
666.13	603.02
666.47	598.93
666.81	594.73
667.15	590.62
667.49	586.75
667.83	582.87
668.17	578.93
668.51	574.82
668.85	570.69
669.19	566.79
669.53	562.89
669.87	559.01
670.21	555.28
670.55	551.73
670.89	548.29
671.23	544.86
671.57	541.38
671.91	537.87
672.25	534.37
672.58	530.82
672.92	527.34
673.26	524.21
673.60	521.01
673.94	517.92
674.28	515.07
674.62	512.13
674.96	509.07
675.30	506.14
675.64	503.21
675.97	500.46
676.31	497.61
676.65	494.73
676.99	491.99
677.33	489.08
677.67	486.17
678.01	483.09
678.34	480.10
678.68	477.17
679.02	474.33
679.36	471.50
679.70	468.79
680.04	466.06
680.37	463.16
680.71	460.40
681.05	457.81
681.39	455.04
681.73	452.36
682.06	449.85
682.40	447.27
682.74	444.78
683.08	442.22
683.42	439.54
683.75	437.04
684.09	434.49
684.43	432.05
684.77	429.58
685.10	427.29
685.44	424.97
685.78	422.71
686.12	420.49
686.45	418.24
686.79	415.95
687.13	413.77
687.46	411.62
687.80	409.47
688.14	407.27
688.48	405.18
688.81	402.91
689.15	400.72
689.49	398.59
689.82	396.52
690.16	394.44
690.50	392.56
690.83	390.59
691.17	388.62
691.51	386.69
691.84	384.87
692.18	382.95
692.52	380.97
692.85	379.04
693.19	377.14
693.52	375.28
693.86	373.46
694.20	371.67
694.53	369.85
694.87	368.04
695.21	366.23
695.54	364.41
695.88	362.70
696.21	360.95
696.55	359.27
696.88	357.58
697.22	355.90
697.56	354.25
697.89	352.66
698.23	351.05
698.56	349.48
698.90	347.92
699.23	346.23
699.57	344.71
699.90	343.17
700.24	341.66
700.58	340.12
700.91	338.63
701.25	337.23
701.58	335.87
701.92	334.49
702.25	333.08
702.59	331.71
702.92	330.38
703.26	329.13
703.59	327.85
703.93	326.66
704.26	325.46
704.60	324.21
704.93	322.91
705.26	321.63
705.60	320.40
705.93	319.20
706.27	318.17
706.60	317.10
706.94	316.01
707.27	314.83
707.61	313.79
707.94	312.77
708.27	311.64
708.61	310.56
708.94	309.56
709.28	308.62
709.61	307.64
709.94	306.67
710.28	305.65
710.61	304.67
710.95	303.59
711.28	302.70
711.61	301.72
711.95	300.82
712.28	299.91
712.61	298.99
712.95	298.09
713.28	297.19
713.61	296.26
713.95	295.40
714.28	294.58
714.61	293.69
714.95	292.87
715.28	292.05
715.61	291.15
715.95	290.26
716.28	289.37
716.61	288.56
716.95	287.74
717.28	286.98
717.61	286.23
717.94	285.50
718.28	284.64
718.61	283.93
718.94	283.22
719.27	282.58
719.61	281.91
719.94	281.27
720.27	280.58
720.60	279.92
720.94	279.25
721.27	278.64
721.60	278.06
721.93	277.40
722.27	276.83
722.60	276.30
722.93	275.74
723.26	275.23
723.59	274.65
723.93	274.11
724.26	273.52
724.59	272.95
724.92	272.42
725.25	271.93
725.59	271.39
725.92	270.86
726.25	270.31
726.58	269.83
726.91	269.28
727.24	268.80
727.57	268.36
727.91	267.88
728.24	267.44
728.57	266.95
728.90	266.56
729.23	266.07
729.56	265.64
729.89	265.16
730.22	264.66
730.55	264.21
730.89	263.73
731.22	263.33
731.55	262.93
731.88	262.48
732.21	262.04
732.54	261.62
732.87	261.20
733.20	260.83
733.53	260.42
733.86	260.08
734.19	259.71
734.52	259.32
734.85	259.01
735.18	258.56
735.51	258.20
735.84	257.79
736.17	257.45
736.50	257.04
736.83	256.85
737.16	256.55
737.49	256.23
737.82	255.92
738.15	255.60
738.48	255.24
738.81	254.92
739.14	254.64
739.47	254.31
739.80	254.00
740.13	253.69
740.46	253.35
740.79	253.01
741.12	252.71
741.45	252.45
741.78	252.14
742.11	251.88
742.44	251.57
742.77	251.28
743.10	251.00
743.43	250.71
743.75	250.30
744.08	250.13
744.41	249.82
744.74	249.57
745.07	249.26
745.40	249.02
745.73	248.80
746.06	248.52
746.39	248.28
746.71	248.05
747.04	247.77
747.37	247.52
747.70	247.28
748.03	246.99
748.36	246.72
748.68	246.44
749.01	246.20
749.34	245.97
749.67	245.74
750.00	245.48
750.33	245.34
750.65	245.13
750.98	244.81
751.31	244.61
751.64	244.38
751.97	244.22
752.29	244.00
752.62	243.75
752.95	243.52
753.28	243.29
753.60	243.05
753.93	242.88
754.26	242.67
754.59	242.45
754.91	242.26
755.24	242.03
755.57	241.82
755.90	241.61
756.22	241.44
756.55	241.25
756.88	241.06
757.20	240.83
757.53	240.64
757.86	240.41
758.19	240.24
758.51	240.08
758.84	239.91
759.17	239.73
759.49	239.57
759.82	239.47
760.15	239.30
760.47	239.18
760.80	239.00
761.13	238.88
761.45	238.72
761.78	238.57
762.11	238.42
762.43	238.29
762.76	238.14
763.08	238.00
763.41	237.85
763.74	237.74
764.06	237.59
764.39	237.46
764.71	237.36
765.04	237.21
765.37	237.06
765.69	236.89
766.02	236.79
766.34	236.62
766.67	236.50
767.00	236.42
767.32	236.35
767.65	236.30
767.97	236.17
768.30	236.05
768.62	235.96
768.95	235.86
769.27	235.73
769.60	235.66
769.92	235.53
770.25	235.42
770.57	235.30
770.90	235.22
771.22	235.11
771.55	234.99
771.87	234.92
772.20	234.83
772.52	234.82
772.85	234.82
773.17	234.78
773.50	234.65
773.82	234.54
774.15	234.38
774.47	234.22
774.80	234.14
775.12	234.06
775.45	234.00
775.77	233.93
776.09	233.88
776.42	233.80
776.74	233.78
777.07	233.72
777.39	233.66
777.72	233.59
778.04	233.56
778.36	233.52
778.69	233.44
779.01	233.37
779.33	233.22
779.66	233.06
779.98	232.97
780.31	232.91
780.63	232.88
780.95	232.88
781.28	232.80
781.60	232.73
781.92	232.65
782.25	232.56
782.57	232.51
782.89	232.46
783.22	232.40
783.54	232.31
783.86	232.27
784.19	232.18
784.51	232.13
784.83	232.04
785.16	231.97
785.48	231.93
785.80	231.91
786.12	231.89
786.45	231.82
786.77	231.78
787.09	231.71
