SpectraSuite Data File
++++++++++++++++++++++++++++++++++++
Date: Fri Feb 01 16:56:37 EST 2013
User: group
Dark Spectrum Present: No
Reference Spectrum Present: No
Number of Sampled Component Spectra: 1
Spectrometers: USB2E7196
Integration Time (usec): 35000 (USB2E7196)
Spectra Averaged: 100 (USB2E7196)
Boxcar Smoothing: 10 (USB2E7196)
Correct for Electrical Dark: No (USB2E7196)
Strobe/Lamp Enabled: No (USB2E7196)
Correct for Detector Non-linearity: No (USB2E7196)
Correct for Stray Light: No (USB2E7196)
Number of Pixels in Processed Spectrum: 2048
>>>>>Begin Processed Spectral Data<<<<<
339.09	0.00
339.48	213.01
339.86	215.30
340.24	216.78
340.63	218.38
341.01	220.76
341.39	219.99
341.78	222.09
342.16	223.45
342.54	222.71
342.93	211.99
343.31	222.67
343.69	223.25
344.07	223.68
344.46	224.10
344.84	224.44
345.22	224.64
345.60	224.91
345.99	225.06
346.37	225.17
346.75	225.28
347.13	225.34
347.52	225.38
347.90	225.43
348.28	225.40
348.66	225.42
349.05	225.39
349.43	225.43
349.81	225.46
350.19	225.48
350.57	225.52
350.96	225.60
351.34	225.72
351.72	225.81
352.10	225.92
352.48	225.97
352.87	226.01
353.25	226.07
353.63	226.12
354.01	226.18
354.39	226.27
354.77	226.35
355.15	226.45
355.54	226.50
355.92	226.57
356.30	226.65
356.68	226.77
357.06	226.86
357.44	226.93
357.82	226.99
358.20	227.06
358.58	227.10
358.97	227.16
359.35	227.24
359.73	227.26
360.11	227.28
360.49	227.35
360.87	227.44
361.25	227.48
361.63	227.58
362.01	227.64
362.39	227.67
362.77	227.70
363.15	227.73
363.53	227.78
363.91	227.78
364.29	227.82
364.67	227.73
365.05	227.76
365.43	227.77
365.81	227.77
366.19	227.84
366.57	227.92
366.95	227.91
367.33	227.87
367.71	227.85
368.09	227.87
368.47	227.84
368.85	227.78
369.23	227.81
369.61	227.72
369.99	227.72
370.37	227.69
370.75	227.70
371.13	227.61
371.51	227.55
371.89	227.55
372.27	227.48
372.65	227.47
373.03	227.41
373.41	227.33
373.78	227.28
374.16	227.15
374.54	227.01
374.92	226.97
375.30	226.92
375.68	226.87
376.06	226.83
376.44	226.76
376.82	226.73
377.19	226.67
377.57	226.59
377.95	226.49
378.33	226.41
378.71	226.31
379.09	226.26
379.47	226.18
379.84	226.12
380.22	226.10
380.60	225.97
380.98	225.91
381.36	225.88
381.73	225.80
382.11	225.77
382.49	225.80
382.87	225.71
383.25	225.66
383.62	225.72
384.00	225.67
384.38	225.63
384.76	225.57
385.13	225.58
385.51	225.56
385.89	225.50
386.27	225.47
386.64	225.43
387.02	225.39
387.40	225.33
387.78	225.30
388.15	225.24
388.53	225.22
388.91	225.17
389.29	225.10
389.66	225.11
390.04	225.09
390.42	225.06
390.79	225.05
391.17	225.03
391.55	224.89
391.92	224.84
392.30	224.89
392.68	224.92
393.05	224.91
393.43	224.95
393.81	224.97
394.18	224.96
394.56	224.98
394.94	225.03
395.31	225.06
395.69	225.10
396.06	225.12
396.44	225.18
396.82	225.22
397.19	225.33
397.57	225.35
397.95	225.37
398.32	225.35
398.70	225.40
399.07	225.45
399.45	225.50
399.82	225.59
400.20	225.59
400.58	225.62
400.95	225.63
401.33	225.69
401.70	225.80
402.08	225.92
402.45	225.99
402.83	226.08
403.20	226.17
403.58	226.25
403.95	226.36
404.33	226.48
404.71	226.60
405.08	226.75
405.46	226.87
405.83	227.04
406.21	227.20
406.58	227.38
406.96	227.54
407.33	227.73
407.70	227.90
408.08	228.13
408.45	228.35
408.83	228.56
409.20	228.77
409.58	228.96
409.95	229.18
410.33	229.45
410.70	229.72
411.08	230.05
411.45	230.32
411.82	230.66
412.20	231.00
412.57	231.41
412.95	231.70
413.32	232.07
413.69	232.47
414.07	232.87
414.44	233.30
414.82	233.82
415.19	234.35
415.56	234.90
415.94	235.47
416.31	236.07
416.68	236.70
417.06	237.39
417.43	238.06
417.81	238.80
418.18	239.57
418.55	240.36
418.93	241.17
419.30	242.13
419.67	243.03
420.04	243.95
420.42	244.91
420.79	246.10
421.16	247.27
421.54	248.46
421.91	249.67
422.28	250.91
422.66	252.20
423.03	253.52
423.40	254.82
423.77	256.23
424.15	257.68
424.52	259.16
424.89	260.77
425.26	262.29
425.64	263.74
426.01	265.31
426.38	266.97
426.75	268.65
427.13	270.28
427.50	272.10
427.87	274.01
428.24	275.86
428.61	277.58
428.99	279.48
429.36	281.52
429.73	283.53
430.10	285.56
430.47	287.62
430.85	289.71
431.22	291.95
431.59	294.30
431.96	296.52
432.33	298.98
432.70	301.35
433.08	304.15
433.45	306.76
433.82	309.34
434.19	312.20
434.56	315.02
434.93	317.72
435.30	320.35
435.68	323.17
436.05	325.96
436.42	328.76
436.79	331.29
437.16	334.02
437.53	336.84
437.90	339.62
438.27	342.32
438.64	345.15
439.01	347.66
439.38	349.87
439.75	351.99
440.13	354.50
440.50	356.78
440.87	358.62
441.24	360.54
441.61	362.71
441.98	364.20
442.35	365.98
442.72	367.78
443.09	369.49
443.46	370.49
443.83	371.10
444.20	371.58
444.57	372.40
444.94	372.71
445.31	373.11
445.68	373.47
446.05	373.57
446.42	373.15
446.79	372.79
447.16	372.34
447.53	372.04
447.90	370.89
448.27	369.75
448.64	368.21
449.01	367.12
449.37	365.20
449.74	363.35
450.11	361.16
450.48	358.75
450.85	356.28
451.22	354.20
451.59	352.19
451.96	350.30
452.33	347.71
452.70	345.33
453.07	342.53
453.43	339.69
453.80	336.96
454.17	334.34
454.54	331.83
454.91	329.17
455.28	326.50
455.65	324.02
456.02	321.60
456.38	319.49
456.75	316.84
457.12	314.59
457.49	312.38
457.86	310.22
458.23	308.36
458.59	306.33
458.96	304.24
459.33	302.42
459.70	300.57
460.07	299.11
460.43	297.41
460.80	295.77
461.17	294.28
461.54	292.79
461.91	291.35
462.27	289.88
462.64	288.63
463.01	287.29
463.38	286.01
463.74	284.63
464.11	283.45
464.48	282.44
464.85	281.31
465.21	280.43
465.58	279.51
465.95	278.45
466.32	277.58
466.68	276.71
467.05	275.81
467.42	274.93
467.78	274.00
468.15	273.13
468.52	272.48
468.88	271.67
469.25	270.92
469.62	270.31
469.98	269.69
470.35	269.06
470.72	268.51
471.08	267.90
471.45	267.38
471.82	266.88
472.18	266.28
472.55	265.89
472.92	265.41
473.28	264.94
473.65	264.48
474.02	264.01
474.38	263.62
474.75	263.32
475.11	262.99
475.48	262.73
475.85	262.50
476.21	262.30
476.58	262.14
476.94	262.01
477.31	261.87
477.67	261.75
478.04	261.66
478.41	261.59
478.77	261.64
479.14	261.63
479.50	261.61
479.87	261.70
480.23	261.75
480.60	261.84
480.96	261.95
481.33	262.15
481.69	262.37
482.06	262.59
482.42	262.80
482.79	263.06
483.15	263.39
483.52	263.80
483.88	264.13
484.25	264.52
484.61	264.92
484.98	265.34
485.34	265.89
485.71	266.49
486.07	267.13
486.44	267.72
486.80	268.42
487.17	269.16
487.53	269.98
487.90	270.86
488.26	271.75
488.62	272.76
488.99	273.76
489.35	274.78
489.72	275.89
490.08	277.06
490.44	278.29
490.81	279.63
491.17	281.00
491.54	282.50
491.90	284.01
492.26	285.67
492.63	287.40
492.99	289.18
493.36	291.06
493.72	293.07
494.08	295.11
494.45	297.33
494.81	299.67
495.17	302.09
495.54	304.70
495.90	307.38
496.26	310.15
496.63	313.10
496.99	316.26
497.35	319.49
497.72	322.90
498.08	326.40
498.44	330.06
498.80	333.90
499.17	337.94
499.53	342.11
499.89	346.44
500.26	350.92
500.62	355.59
500.98	360.53
501.34	365.59
501.71	370.90
502.07	376.32
502.43	381.93
502.79	387.70
503.16	393.66
503.52	399.93
503.88	406.28
504.24	412.92
504.60	419.76
504.97	426.87
505.33	434.17
505.69	441.83
506.05	449.54
506.41	457.43
506.78	465.48
507.14	473.87
507.50	482.51
507.86	491.45
508.22	500.52
508.59	509.68
508.95	519.13
509.31	528.88
509.67	538.89
510.03	549.14
510.39	559.62
510.75	570.34
511.12	581.09
511.48	592.26
511.84	603.56
512.20	614.90
512.56	626.75
512.92	638.76
513.28	650.99
513.64	663.34
514.00	675.83
514.37	688.66
514.73	701.57
515.09	714.46
515.45	727.63
515.81	741.08
516.17	754.79
516.53	768.79
516.89	782.74
517.25	796.73
517.61	810.85
517.97	825.11
518.33	839.36
518.69	853.99
519.05	868.81
519.41	883.79
519.77	899.12
520.13	914.26
520.49	929.37
520.85	944.47
521.21	959.86
521.57	975.91
521.93	991.36
522.29	1007.50
522.65	1023.50
523.01	1039.33
523.37	1055.11
523.73	1071.08
524.09	1086.81
524.45	1102.80
524.81	1119.13
525.17	1135.72
525.53	1152.21
525.89	1168.72
526.25	1185.18
526.61	1201.28
526.97	1217.71
527.33	1233.84
527.68	1250.14
528.04	1266.43
528.40	1282.76
528.76	1299.54
529.12	1315.75
529.48	1332.44
529.84	1348.11
530.20	1364.43
530.56	1381.14
530.91	1398.20
531.27	1414.64
531.63	1430.75
531.99	1447.08
532.35	1462.79
532.71	1478.38
533.07	1494.52
533.42	1510.26
533.78	1526.08
534.14	1542.05
534.50	1557.06
534.86	1572.66
535.21	1587.54
535.57	1603.09
535.93	1618.24
536.29	1632.65
536.65	1647.46
537.00	1661.74
537.36	1676.78
537.72	1691.03
538.08	1705.36
538.44	1718.87
538.79	1732.52
539.15	1745.95
539.51	1759.43
539.87	1773.46
540.22	1786.84
540.58	1800.15
540.94	1813.01
541.29	1825.60
541.65	1837.95
542.01	1850.93
542.37	1863.02
542.72	1875.16
543.08	1886.73
543.44	1898.88
543.79	1910.00
544.15	1920.85
544.51	1932.41
544.87	1943.19
545.22	1953.96
545.58	1963.90
545.94	1973.55
546.29	1983.28
546.65	1993.09
547.01	2002.32
547.36	2010.80
547.72	2019.24
548.07	2027.10
548.43	2035.29
548.79	2043.17
549.14	2050.74
549.50	2057.85
549.86	2065.39
550.21	2072.76
550.57	2079.89
550.92	2086.48
551.28	2093.51
551.64	2100.43
551.99	2106.71
552.35	2112.86
552.70	2118.94
553.06	2124.89
553.41	2131.12
553.77	2137.07
554.13	2143.16
554.48	2149.20
554.84	2154.96
555.19	2160.12
555.55	2165.33
555.90	2169.80
556.26	2174.78
556.61	2179.43
556.97	2183.99
557.32	2188.23
557.68	2192.40
558.03	2196.73
558.39	2200.43
558.74	2205.19
559.10	2209.16
559.45	2213.02
559.81	2217.31
560.16	2221.19
560.52	2224.52
560.87	2228.11
561.23	2230.81
561.58	2233.74
561.94	2236.30
562.29	2238.47
562.64	2241.32
563.00	2243.94
563.35	2247.52
563.71	2250.76
564.06	2253.99
564.42	2256.90
564.77	2259.58
565.12	2262.11
565.48	2264.17
565.83	2266.30
566.19	2267.76
566.54	2268.78
566.89	2270.07
567.25	2270.86
567.60	2272.08
567.96	2273.90
568.31	2274.76
568.66	2276.12
569.02	2276.83
569.37	2277.31
569.72	2278.54
570.08	2278.83
570.43	2278.94
570.78	2278.65
571.14	2277.26
571.49	2276.16
571.84	2275.94
572.20	2275.09
572.55	2274.10
572.90	2272.48
573.26	2271.13
573.61	2269.51
573.96	2267.95
574.31	2265.10
574.67	2262.26
575.02	2258.90
575.37	2255.49
575.72	2251.87
576.08	2248.51
576.43	2245.37
576.78	2241.83
577.13	2238.71
577.49	2235.79
577.84	2232.63
578.19	2228.94
578.54	2225.57
578.90	2221.67
579.25	2216.29
579.60	2211.42
579.95	2206.52
580.30	2201.91
580.66	2197.03
581.01	2192.24
581.36	2187.57
581.71	2183.68
582.06	2179.47
582.42	2175.13
582.77	2170.28
583.12	2166.07
583.47	2161.70
583.82	2156.98
584.17	2152.10
584.53	2146.68
584.88	2141.13
585.23	2135.51
585.58	2130.15
585.93	2124.75
586.28	2120.04
586.63	2115.19
586.98	2110.20
587.34	2105.65
587.69	2100.80
588.04	2095.75
588.39	2090.19
588.74	2083.71
589.09	2077.76
589.44	2071.13
589.79	2065.37
590.14	2059.92
590.49	2053.48
590.84	2047.27
591.19	2041.24
591.54	2034.93
591.89	2028.00
592.25	2021.43
592.60	2014.39
592.95	2007.11
593.30	1999.92
593.65	1992.39
594.00	1985.45
594.35	1978.33
594.70	1970.46
595.05	1963.65
595.40	1956.34
595.75	1949.05
596.10	1943.17
596.45	1936.47
596.80	1930.46
597.15	1923.90
597.50	1917.04
597.85	1910.68
598.19	1904.14
598.54	1897.34
598.89	1890.66
599.24	1884.80
599.59	1878.40
599.94	1872.22
600.29	1866.02
600.64	1859.53
600.99	1852.32
601.34	1845.67
601.69	1838.87
602.04	1832.18
602.39	1824.77
602.74	1818.28
603.08	1811.62
603.43	1804.96
603.78	1797.75
604.13	1790.69
604.48	1783.61
604.83	1776.81
605.18	1770.04
605.53	1762.16
605.87	1754.18
606.22	1747.13
606.57	1739.21
606.92	1731.87
607.27	1724.96
607.62	1718.05
607.96	1710.97
608.31	1704.45
608.66	1696.89
609.01	1689.56
609.36	1682.14
609.70	1674.21
610.05	1666.09
610.40	1658.57
610.75	1650.38
611.10	1642.82
611.44	1634.36
611.79	1626.46
612.14	1617.93
612.49	1608.70
612.83	1600.33
613.18	1592.38
613.53	1584.36
613.88	1575.92
614.22	1567.72
614.57	1558.99
614.92	1551.04
615.27	1543.48
615.61	1535.23
615.96	1527.38
616.31	1519.72
616.65	1512.27
617.00	1504.82
617.35	1497.26
617.70	1488.99
618.04	1480.51
618.39	1472.32
618.74	1464.76
619.08	1456.41
619.43	1448.71
619.78	1441.92
620.12	1434.83
620.47	1427.34
620.82	1419.09
621.16	1411.59
621.51	1403.96
621.85	1396.41
622.20	1387.98
622.55	1379.61
622.89	1371.75
623.24	1364.04
623.59	1356.58
623.93	1349.05
624.28	1341.88
624.62	1334.44
624.97	1327.19
625.32	1320.34
625.66	1313.35
626.01	1306.17
626.35	1298.85
626.70	1291.11
627.04	1283.39
627.39	1275.64
627.73	1268.11
628.08	1261.32
628.43	1254.12
628.77	1246.90
629.12	1239.45
629.46	1232.23
629.81	1224.87
630.15	1217.66
630.50	1210.22
630.84	1202.06
631.19	1194.17
631.53	1186.57
631.88	1178.95
632.22	1171.39
632.57	1164.08
632.91	1156.54
633.26	1149.23
633.60	1141.80
633.95	1134.60
634.29	1127.50
634.64	1120.80
634.98	1113.53
635.32	1106.40
635.67	1099.80
636.01	1093.14
636.36	1086.33
636.70	1079.81
637.05	1073.24
637.39	1066.92
637.73	1060.56
638.08	1054.71
638.42	1048.69
638.77	1042.36
639.11	1035.80
639.45	1029.35
639.80	1022.66
640.14	1016.31
640.49	1009.77
640.83	1003.47
641.17	997.39
641.52	991.07
641.86	984.61
642.20	978.72
642.55	972.40
642.89	966.01
643.23	959.39
643.58	953.62
643.92	947.55
644.26	941.63
644.61	935.45
644.95	929.48
645.29	922.90
645.64	916.28
645.98	909.94
646.32	904.03
646.66	898.00
647.01	892.34
647.35	886.68
647.69	880.82
648.04	875.28
648.38	869.51
648.72	863.62
649.06	857.56
649.41	851.70
649.75	845.80
650.09	839.86
650.43	834.11
650.78	827.95
651.12	821.99
651.46	816.21
651.80	810.56
652.14	805.07
652.49	799.80
652.83	794.60
653.17	788.96
653.51	783.38
653.85	778.08
654.20	772.51
654.54	766.49
654.88	760.78
655.22	754.95
655.56	749.26
655.90	743.81
656.25	738.57
656.59	733.27
656.93	728.18
657.27	723.10
657.61	717.71
657.95	712.69
658.29	707.58
658.64	702.29
658.98	697.06
659.32	691.63
659.66	686.39
660.00	681.14
660.34	676.20
660.68	671.23
661.02	666.23
661.36	661.49
661.70	656.98
662.05	652.69
662.39	648.40
662.73	643.96
663.07	639.55
663.41	635.17
663.75	630.68
664.09	626.10
664.43	621.64
664.77	617.62
665.11	613.39
665.45	609.23
665.79	605.21
666.13	601.04
666.47	596.93
666.81	592.81
667.15	588.67
667.49	584.74
667.83	580.91
668.17	576.96
668.51	572.87
668.85	568.85
669.19	565.01
669.53	561.20
669.87	557.39
670.21	553.70
670.55	550.04
670.89	546.61
671.23	543.25
671.57	539.74
671.91	536.18
672.25	532.58
672.58	529.12
672.92	525.70
673.26	522.56
673.60	519.50
673.94	516.39
674.28	513.52
674.62	510.57
674.96	507.52
675.30	504.64
675.64	501.77
675.97	499.02
676.31	496.12
676.65	493.16
676.99	490.44
677.33	487.64
677.67	484.81
678.01	481.78
678.34	478.84
678.68	475.93
679.02	473.15
679.36	470.46
679.70	467.75
680.04	464.98
680.37	462.08
680.71	459.17
681.05	456.56
681.39	453.81
681.73	451.14
682.06	448.59
682.40	446.09
682.74	443.49
683.08	440.88
683.42	438.26
683.75	435.79
684.09	433.22
684.43	430.70
684.77	428.23
685.10	425.91
685.44	423.50
685.78	421.26
686.12	418.95
686.45	416.66
686.79	414.36
687.13	412.19
687.46	410.06
687.80	407.94
688.14	405.69
688.48	403.63
688.81	401.48
689.15	399.30
689.49	397.10
689.82	395.10
690.16	393.06
690.50	391.12
690.83	389.19
691.17	387.22
691.51	385.34
691.84	383.54
692.18	381.60
692.52	379.71
692.85	377.74
693.19	375.90
693.52	374.04
693.86	372.21
694.20	370.38
694.53	368.61
694.87	366.79
695.21	365.06
695.54	363.26
695.88	361.49
696.21	359.79
696.55	358.07
696.88	356.37
697.22	354.74
697.56	353.14
697.89	351.48
698.23	349.88
698.56	348.28
698.90	346.71
699.23	345.09
699.57	343.52
699.90	342.01
700.24	340.48
700.58	338.97
700.91	337.49
701.25	336.08
701.58	334.72
701.92	333.35
702.25	331.94
702.59	330.54
702.92	329.22
703.26	327.89
703.59	326.67
703.93	325.47
704.26	324.22
704.60	322.91
704.93	321.66
705.26	320.39
705.60	319.15
705.93	317.95
706.27	316.87
706.60	315.88
706.94	314.81
707.27	313.65
707.61	312.61
707.94	311.57
708.27	310.49
708.61	309.38
708.94	308.37
709.28	307.37
709.61	306.42
709.94	305.46
710.28	304.49
710.61	303.46
710.95	302.40
711.28	301.48
711.61	300.56
711.95	299.63
712.28	298.69
712.61	297.77
712.95	296.86
713.28	295.99
713.61	295.01
713.95	294.13
714.28	293.31
714.61	292.39
714.95	291.53
715.28	290.67
715.61	289.77
715.95	288.94
716.28	288.10
716.61	287.22
716.95	286.38
717.28	285.62
717.61	284.88
717.94	284.12
718.28	283.29
718.61	282.55
718.94	281.83
719.27	281.18
719.61	280.51
719.94	279.81
720.27	279.09
720.60	278.45
720.94	277.79
721.27	277.15
721.60	276.59
721.93	276.02
722.27	275.46
722.60	274.91
722.93	274.27
723.26	273.71
723.59	273.17
723.93	272.65
724.26	272.10
724.59	271.53
724.92	270.98
725.25	270.53
725.59	270.01
725.92	269.52
726.25	269.00
726.58	268.52
726.91	268.06
727.24	267.61
727.57	267.11
727.91	266.57
728.24	266.06
728.57	265.57
728.90	265.11
729.23	264.61
729.56	264.20
729.89	263.77
730.22	263.30
730.55	262.83
730.89	262.38
731.22	261.92
731.55	261.48
731.88	261.08
732.21	260.64
732.54	260.19
732.87	259.73
733.20	259.32
733.53	258.94
733.86	258.58
734.19	258.14
734.52	257.78
734.85	257.52
735.18	257.14
735.51	256.80
735.84	256.44
736.17	256.13
736.50	255.73
736.83	255.50
737.16	255.17
737.49	254.86
737.82	254.49
738.15	254.18
738.48	253.84
738.81	253.49
739.14	253.15
739.47	252.88
739.80	252.59
740.13	252.29
740.46	251.97
740.79	251.65
741.12	251.35
741.45	251.05
741.78	250.71
742.11	250.45
742.44	250.13
742.77	249.82
743.10	249.50
743.43	249.20
743.75	248.84
744.08	248.68
744.41	248.42
744.74	248.17
745.07	247.87
745.40	247.63
745.73	247.40
746.06	247.16
746.39	246.86
746.71	246.58
747.04	246.29
747.37	246.01
747.70	245.74
748.03	245.51
748.36	245.25
748.68	245.01
749.01	244.76
749.34	244.54
749.67	244.29
750.00	244.05
750.33	243.88
750.65	243.66
750.98	243.32
751.31	243.06
751.64	242.80
751.97	242.64
752.29	242.42
752.62	242.15
752.95	241.91
753.28	241.73
753.60	241.52
753.93	241.35
754.26	241.15
754.59	240.94
754.91	240.72
755.24	240.53
755.57	240.35
755.90	240.16
756.22	239.93
756.55	239.74
756.88	239.57
757.20	239.29
757.53	239.04
757.86	238.88
758.19	238.74
758.51	238.61
758.84	238.41
759.17	238.27
759.49	238.13
759.82	238.04
760.15	237.86
760.47	237.70
760.80	237.53
761.13	237.41
761.45	237.25
761.78	237.10
762.11	236.98
762.43	236.81
762.76	236.64
763.08	236.51
763.41	236.39
763.74	236.25
764.06	236.18
764.39	236.06
764.71	235.93
765.04	235.77
765.37	235.66
765.69	235.54
766.02	235.40
766.34	235.29
766.67	235.13
767.00	235.07
767.32	234.99
767.65	234.94
767.97	234.81
768.30	234.70
768.62	234.57
768.95	234.43
769.27	234.33
769.60	234.23
769.92	234.10
770.25	233.96
770.57	233.87
770.90	233.75
771.22	233.66
771.55	233.56
771.87	233.51
772.20	233.38
772.52	233.36
772.85	233.37
773.17	233.29
773.50	233.22
773.82	233.10
774.15	233.00
774.47	232.83
774.80	232.73
775.12	232.66
775.45	232.62
775.77	232.54
776.09	232.48
776.42	232.43
776.74	232.42
777.07	232.36
777.39	232.30
777.72	232.22
778.04	232.12
778.36	232.05
778.69	231.97
779.01	231.91
779.33	231.75
779.66	231.55
779.98	231.47
780.31	231.42
780.63	231.34
780.95	231.30
781.28	231.26
781.60	231.21
781.92	231.16
782.25	231.05
782.57	230.98
782.89	230.92
783.22	230.82
783.54	230.75
783.86	230.70
784.19	230.62
784.51	230.62
784.83	230.59
785.16	230.53
785.48	230.47
785.80	230.41
786.12	230.38
786.45	230.34
786.77	230.28
787.09	230.19
