SpectraSuite Data File
++++++++++++++++++++++++++++++++++++
Date: Fri Feb 01 18:13:04 EST 2013
User: group
Dark Spectrum Present: No
Reference Spectrum Present: No
Number of Sampled Component Spectra: 1
Spectrometers: USB2E7196
Integration Time (usec): 35000 (USB2E7196)
Spectra Averaged: 100 (USB2E7196)
Boxcar Smoothing: 10 (USB2E7196)
Correct for Electrical Dark: No (USB2E7196)
Strobe/Lamp Enabled: No (USB2E7196)
Correct for Detector Non-linearity: No (USB2E7196)
Correct for Stray Light: No (USB2E7196)
Number of Pixels in Processed Spectrum: 2048
>>>>>Begin Processed Spectral Data<<<<<
339.09	0.00
339.48	213.26
339.86	214.74
340.24	215.76
340.63	217.54
341.01	219.77
341.39	220.07
341.78	221.53
342.16	222.40
342.54	223.43
342.93	211.42
343.31	222.10
343.69	222.64
344.07	223.09
344.46	223.53
344.84	223.89
345.22	224.14
345.60	224.37
345.99	224.57
346.37	224.71
346.75	224.80
347.13	224.91
347.52	224.98
347.90	225.05
348.28	225.09
348.66	225.12
349.05	225.14
349.43	225.20
349.81	225.24
350.19	225.29
350.57	225.38
350.96	225.46
351.34	225.56
351.72	225.62
352.10	225.75
352.48	225.81
352.87	225.87
353.25	225.92
353.63	226.01
354.01	226.07
354.39	226.15
354.77	226.22
355.15	226.31
355.54	226.34
355.92	226.37
356.30	226.44
356.68	226.58
357.06	226.66
357.44	226.69
357.82	226.78
358.20	226.84
358.58	226.89
358.97	226.93
359.35	227.00
359.73	227.10
360.11	227.16
360.49	227.22
360.87	227.29
361.25	227.35
361.63	227.41
362.01	227.47
362.39	227.52
362.77	227.54
363.15	227.59
363.53	227.66
363.91	227.74
364.29	227.77
364.67	227.72
365.05	227.75
365.43	227.82
365.81	227.83
366.19	227.90
366.57	227.97
366.95	227.99
367.33	227.99
367.71	227.99
368.09	227.97
368.47	227.97
368.85	227.99
369.23	228.03
369.61	228.01
369.99	228.01
370.37	227.96
370.75	227.99
371.13	227.95
371.51	227.90
371.89	227.87
372.27	227.83
372.65	227.81
373.03	227.79
373.41	227.74
373.78	227.73
374.16	227.64
374.54	227.55
374.92	227.51
375.30	227.49
375.68	227.40
376.06	227.37
376.44	227.31
376.82	227.23
377.19	227.16
377.57	227.09
377.95	227.01
378.33	226.96
378.71	226.85
379.09	226.76
379.47	226.73
379.84	226.61
380.22	226.52
380.60	226.45
380.98	226.37
381.36	226.33
381.73	226.19
382.11	226.15
382.49	226.11
382.87	226.03
383.25	225.96
383.62	226.04
384.00	225.95
384.38	225.88
384.76	225.89
385.13	225.89
385.51	225.82
385.89	225.75
386.27	225.72
386.64	225.70
387.02	225.65
387.40	225.56
387.78	225.57
388.15	225.57
388.53	225.51
388.91	225.46
389.29	225.39
389.66	225.40
390.04	225.37
390.42	225.36
390.79	225.35
391.17	225.29
391.55	225.15
391.92	225.12
392.30	225.09
392.68	225.02
393.05	225.00
393.43	225.03
393.81	225.04
394.18	225.04
394.56	225.04
394.94	225.09
395.31	225.11
395.69	225.14
396.06	225.17
396.44	225.21
396.82	225.23
397.19	225.34
397.57	225.34
397.95	225.36
398.32	225.39
398.70	225.44
399.07	225.53
399.45	225.58
399.82	225.65
400.20	225.72
400.58	225.80
400.95	225.83
401.33	225.90
401.70	226.06
402.08	226.14
402.45	226.24
402.83	226.34
403.20	226.46
403.58	226.55
403.95	226.67
404.33	226.80
404.71	226.92
405.08	227.10
405.46	227.27
405.83	227.46
406.21	227.63
406.58	227.82
406.96	228.03
407.33	228.24
407.70	228.49
408.08	228.81
408.45	229.04
408.83	229.33
409.20	229.59
409.58	229.83
409.95	230.17
410.33	230.52
410.70	230.84
411.08	231.25
411.45	231.65
411.82	232.06
412.20	232.55
412.57	233.09
412.95	233.49
413.32	234.05
413.69	234.59
414.07	235.16
414.44	235.79
414.82	236.44
415.19	237.19
415.56	237.91
415.94	238.66
416.31	239.58
416.68	240.44
417.06	241.43
417.43	242.38
417.81	243.41
418.18	244.48
418.55	245.65
418.93	246.86
419.30	248.10
419.67	249.37
420.04	250.69
420.42	252.10
420.79	253.74
421.16	255.38
421.54	257.07
421.91	258.77
422.28	260.55
422.66	262.39
423.03	264.21
423.40	266.12
423.77	268.11
424.15	270.09
424.52	272.19
424.89	274.43
425.26	276.63
425.64	278.70
426.01	280.96
426.38	283.29
426.75	285.65
427.13	288.08
427.50	290.62
427.87	293.26
428.24	295.90
428.61	298.37
428.99	301.05
429.36	304.02
429.73	306.92
430.10	309.74
430.47	312.65
430.85	315.68
431.22	318.80
431.59	322.13
431.96	325.28
432.33	328.82
432.70	332.20
433.08	336.16
433.45	339.82
433.82	343.47
434.19	347.52
434.56	351.44
434.93	355.17
435.30	358.90
435.68	362.97
436.05	366.93
436.42	370.87
436.79	374.42
437.16	378.19
437.53	382.25
437.90	386.20
438.27	390.09
438.64	394.07
439.01	397.71
439.38	400.82
439.75	403.92
440.13	407.39
440.50	410.68
440.87	413.27
441.24	416.11
441.61	419.18
441.98	421.31
442.35	423.90
442.72	426.54
443.09	429.12
443.46	430.54
443.83	431.39
444.20	432.07
444.57	433.32
444.94	433.71
445.31	434.16
445.68	434.59
446.05	434.73
446.42	434.19
446.79	433.58
447.16	433.01
447.53	432.59
447.90	430.95
448.27	429.29
448.64	427.05
449.01	425.39
449.37	422.62
449.74	419.97
450.11	416.75
450.48	413.25
450.85	409.67
451.22	406.67
451.59	403.79
451.96	401.12
452.33	397.44
452.70	394.15
453.07	390.14
453.43	386.17
453.80	382.26
454.17	378.53
454.54	374.99
454.91	371.19
455.28	367.38
455.65	363.90
456.02	360.42
456.38	357.37
456.75	353.61
457.12	350.42
457.49	347.24
457.86	344.21
458.23	341.60
458.59	338.69
458.96	335.73
459.33	333.16
459.70	330.50
460.07	328.31
460.43	325.89
460.80	323.60
461.17	321.50
461.54	319.32
461.91	317.24
462.27	315.17
462.64	313.40
463.01	311.48
463.38	309.61
463.74	307.73
464.11	306.12
464.48	304.66
464.85	303.12
465.21	301.86
465.58	300.56
465.95	299.00
466.32	297.69
466.68	296.43
467.05	295.12
467.42	293.82
467.78	292.52
468.15	291.28
468.52	290.31
468.88	289.14
469.25	288.05
469.62	287.16
469.98	286.24
470.35	285.31
470.72	284.45
471.08	283.54
471.45	282.77
471.82	281.98
472.18	281.09
472.55	280.44
472.92	279.70
473.28	279.03
473.65	278.37
474.02	277.74
474.38	277.17
474.75	276.65
475.11	276.19
475.48	275.79
475.85	275.45
476.21	275.10
476.58	274.77
476.94	274.54
477.31	274.26
477.67	273.97
478.04	273.80
478.41	273.67
478.77	273.60
479.14	273.38
479.50	273.28
479.87	273.32
480.23	273.30
480.60	273.32
480.96	273.33
481.33	273.46
481.69	273.59
482.06	273.72
482.42	273.88
482.79	274.05
483.15	274.35
483.52	274.66
483.88	274.96
484.25	275.33
484.61	275.68
484.98	276.12
485.34	276.66
485.71	277.20
486.07	277.75
486.44	278.31
486.80	279.06
487.17	279.82
487.53	280.63
487.90	281.52
488.26	282.49
488.62	283.52
488.99	284.53
489.35	285.62
489.72	286.82
490.08	288.10
490.44	289.42
490.81	290.81
491.17	292.21
491.54	293.78
491.90	295.39
492.26	297.12
492.63	298.97
492.99	300.88
493.36	302.88
493.72	305.12
494.08	307.38
494.45	309.80
494.81	312.33
495.17	314.91
495.54	317.67
495.90	320.48
496.26	323.47
496.63	326.67
496.99	330.00
497.35	333.44
497.72	337.09
498.08	340.86
498.44	344.80
498.80	349.07
499.17	353.45
499.53	357.95
499.89	362.67
500.26	367.44
500.62	372.42
500.98	377.78
501.34	383.19
501.71	388.88
502.07	394.73
502.43	400.76
502.79	407.03
503.16	413.55
503.52	420.32
503.88	427.19
504.24	434.34
504.60	441.75
504.97	449.46
505.33	457.35
505.69	465.63
506.05	474.06
506.41	482.43
506.78	491.18
507.14	500.28
507.50	509.72
507.86	519.51
508.22	529.45
508.59	539.38
508.95	549.74
509.31	560.40
509.67	571.30
510.03	582.49
510.39	594.00
510.75	605.73
511.12	617.57
511.48	629.87
511.84	642.32
512.20	654.91
512.56	667.89
512.92	681.12
513.28	694.62
513.64	708.23
514.00	722.19
514.37	736.40
514.73	750.66
515.09	764.86
515.45	779.42
515.81	794.30
516.17	809.59
516.53	825.08
516.89	840.63
517.25	856.25
517.61	872.05
517.97	887.82
518.33	903.73
518.69	920.07
519.05	936.62
519.41	953.36
519.77	970.50
520.13	987.68
520.49	1004.76
520.85	1021.73
521.21	1039.07
521.57	1057.11
521.93	1074.68
522.29	1092.86
522.65	1111.01
523.01	1129.10
523.37	1147.07
523.73	1165.27
524.09	1183.35
524.45	1201.53
524.81	1220.09
525.17	1238.82
525.53	1257.84
525.89	1276.76
526.25	1295.70
526.61	1314.17
526.97	1333.03
527.33	1351.56
527.68	1370.19
528.04	1388.86
528.40	1407.72
528.76	1427.09
529.12	1445.88
529.48	1465.03
529.84	1483.42
530.20	1502.37
530.56	1521.58
530.91	1541.32
531.27	1560.37
531.63	1579.12
531.99	1598.13
532.35	1616.58
532.71	1634.87
533.07	1653.60
533.42	1672.00
533.78	1690.54
534.14	1709.24
534.50	1727.12
534.86	1745.57
535.21	1763.34
535.57	1781.86
535.93	1799.85
536.29	1817.20
536.65	1834.77
537.00	1851.94
537.36	1869.82
537.72	1886.87
538.08	1903.98
538.44	1920.36
538.79	1936.67
539.15	1952.83
539.51	1969.21
539.87	1986.21
540.22	2002.63
540.58	2019.03
540.94	2034.99
541.29	2050.45
541.65	2065.78
542.01	2081.64
542.37	2096.61
542.72	2111.66
543.08	2125.91
543.44	2140.95
543.79	2154.70
544.15	2168.22
544.51	2182.46
544.87	2195.96
545.22	2209.34
545.58	2222.05
545.94	2234.37
546.29	2246.92
546.65	2259.49
547.01	2271.20
547.36	2282.36
547.72	2293.32
548.07	2303.52
548.43	2314.06
548.79	2324.37
549.14	2334.29
549.50	2343.80
549.86	2353.68
550.21	2363.23
550.57	2372.69
550.92	2381.51
551.28	2390.78
551.64	2400.20
551.99	2408.85
552.35	2417.17
552.70	2425.63
553.06	2433.83
553.41	2442.27
553.77	2450.33
554.13	2458.30
554.48	2466.71
554.84	2474.33
555.19	2481.53
555.55	2488.74
555.90	2495.12
556.26	2502.09
556.61	2508.75
556.97	2515.16
557.32	2521.21
557.68	2527.14
558.03	2533.25
558.39	2538.79
558.74	2545.27
559.10	2550.88
559.45	2556.36
559.81	2562.35
560.16	2567.75
560.52	2572.68
560.87	2577.67
561.23	2581.95
561.58	2586.41
561.94	2590.26
562.29	2593.90
562.64	2598.21
563.00	2602.20
563.35	2607.25
563.71	2611.75
564.06	2616.47
564.42	2620.66
564.77	2624.65
565.12	2628.52
565.48	2631.79
565.83	2634.96
566.19	2637.63
566.54	2639.55
566.89	2641.90
567.25	2643.65
567.60	2646.17
567.96	2649.10
568.31	2651.05
568.66	2653.39
569.02	2655.00
569.37	2656.31
569.72	2658.16
570.08	2659.04
570.43	2659.83
570.78	2659.99
571.14	2659.11
571.49	2658.26
571.84	2658.74
572.20	2658.43
572.55	2657.81
572.90	2656.58
573.26	2655.76
573.61	2654.48
573.96	2653.32
574.31	2650.49
574.67	2647.69
575.02	2644.04
575.37	2640.62
575.72	2636.85
576.08	2633.32
576.43	2630.04
576.78	2626.51
577.13	2623.42
577.49	2620.42
577.84	2617.06
578.19	2613.24
578.54	2609.64
578.90	2605.33
579.25	2599.16
579.60	2593.60
579.95	2588.27
580.30	2583.09
580.66	2577.37
581.01	2571.89
581.36	2566.60
581.71	2562.21
582.06	2557.56
582.42	2552.86
582.77	2547.32
583.12	2542.56
583.47	2537.56
583.82	2532.31
584.17	2526.54
584.53	2520.48
584.88	2514.39
585.23	2508.09
585.58	2502.01
585.93	2495.88
586.28	2490.60
586.63	2485.29
586.98	2479.57
587.34	2474.19
587.69	2468.70
588.04	2462.83
588.39	2456.50
588.74	2449.03
589.09	2442.07
589.44	2434.22
589.79	2427.07
590.14	2420.46
590.49	2412.83
590.84	2405.38
591.19	2398.37
591.54	2390.80
591.89	2382.41
592.25	2374.56
592.60	2366.17
592.95	2357.53
593.30	2349.03
593.65	2340.20
594.00	2331.87
594.35	2323.46
594.70	2314.12
595.05	2305.81
595.40	2297.43
595.75	2288.64
596.10	2281.60
596.45	2273.77
596.80	2266.63
597.15	2259.16
597.50	2250.99
597.85	2243.37
598.19	2235.65
598.54	2227.49
598.89	2219.81
599.24	2212.84
599.59	2204.97
599.94	2197.59
600.29	2189.96
600.64	2182.02
600.99	2173.31
601.34	2165.29
601.69	2157.09
602.04	2149.16
602.39	2140.43
602.74	2132.25
603.08	2124.20
603.43	2115.94
603.78	2107.19
604.13	2098.59
604.48	2089.88
604.83	2081.66
605.18	2073.43
605.53	2063.94
605.87	2054.25
606.22	2045.44
606.57	2035.75
606.92	2026.79
607.27	2018.32
607.62	2010.07
607.96	2001.49
608.31	1993.62
608.66	1984.47
609.01	1975.54
609.36	1966.44
609.70	1956.86
610.05	1947.33
610.40	1938.15
610.75	1928.27
611.10	1919.05
611.44	1908.80
611.79	1899.10
612.14	1888.69
612.49	1877.67
612.83	1867.55
613.18	1857.81
613.53	1848.20
613.88	1838.18
614.22	1828.39
614.57	1817.93
614.92	1808.43
615.27	1799.41
615.61	1789.37
615.96	1779.76
616.31	1770.59
616.65	1761.69
617.00	1752.57
617.35	1743.31
617.70	1733.41
618.04	1723.20
618.39	1713.42
618.74	1704.44
619.08	1694.60
619.43	1685.47
619.78	1677.09
620.12	1668.61
620.47	1659.59
620.82	1649.62
621.16	1640.56
621.51	1631.24
621.85	1622.09
622.20	1611.79
622.55	1601.67
622.89	1592.12
623.24	1582.84
623.59	1573.80
623.93	1564.65
624.28	1555.91
624.62	1546.76
624.97	1537.98
625.32	1529.86
625.66	1521.34
626.01	1512.78
626.35	1503.84
626.70	1494.51
627.04	1485.33
627.39	1475.85
627.73	1466.90
628.08	1458.60
628.43	1449.90
628.77	1441.15
629.12	1432.15
629.46	1423.49
629.81	1414.49
630.15	1405.83
630.50	1396.93
630.84	1387.08
631.19	1377.53
631.53	1368.50
631.88	1359.45
632.22	1350.34
632.57	1341.47
632.91	1332.40
633.26	1323.40
633.60	1314.47
633.95	1305.80
634.29	1297.23
634.64	1289.18
634.98	1280.43
635.32	1271.86
635.67	1263.92
636.01	1255.99
636.36	1247.76
636.70	1239.87
637.05	1232.03
637.39	1224.26
637.73	1216.52
638.08	1209.37
638.42	1202.25
638.77	1194.48
639.11	1186.60
639.45	1178.99
639.80	1171.06
640.14	1163.40
640.49	1155.62
640.83	1148.12
641.17	1140.82
641.52	1133.31
641.86	1125.59
642.20	1118.54
642.55	1110.98
642.89	1103.21
643.23	1095.28
643.58	1088.45
643.92	1081.09
644.26	1073.90
644.61	1066.70
644.95	1059.54
645.29	1051.86
645.64	1043.82
645.98	1036.28
646.32	1029.26
646.66	1022.04
647.01	1015.20
647.35	1008.37
647.69	1001.43
648.04	994.77
648.38	987.95
648.72	980.91
649.06	973.74
649.41	966.67
649.75	959.63
650.09	952.69
650.43	945.96
650.78	938.73
651.12	931.65
651.46	924.92
651.80	918.15
652.14	911.66
652.49	905.27
652.83	899.19
653.17	892.59
653.51	885.87
653.85	879.53
654.20	872.88
654.54	865.79
654.88	859.03
655.22	852.10
655.56	845.32
655.90	838.79
656.25	832.63
656.59	826.37
656.93	820.46
657.27	814.26
657.61	807.82
657.95	801.76
658.29	795.79
658.64	789.55
658.98	783.30
659.32	776.87
659.66	770.74
660.00	764.48
660.34	758.61
660.68	752.80
661.02	746.88
661.36	741.29
661.70	736.00
662.05	730.83
662.39	725.74
662.73	720.45
663.07	715.28
663.41	710.02
663.75	704.75
664.09	699.26
664.43	694.10
664.77	689.25
665.11	684.23
665.45	679.35
665.79	674.55
666.13	669.63
666.47	664.83
666.81	659.94
667.15	655.07
667.49	650.46
667.83	645.96
668.17	641.34
668.51	636.57
668.85	631.78
669.19	627.25
669.53	622.80
669.87	618.22
670.21	613.85
670.55	609.56
670.89	605.49
671.23	601.52
671.57	597.38
671.91	593.22
672.25	589.05
672.58	584.85
672.92	580.76
673.26	576.99
673.60	573.20
673.94	569.50
674.28	566.05
674.62	562.51
674.96	558.86
675.30	555.43
675.64	551.94
675.97	548.72
676.31	545.30
676.65	541.85
676.99	538.67
677.33	535.33
677.67	532.06
678.01	528.48
678.34	524.95
678.68	521.57
679.02	518.28
679.36	515.01
679.70	511.85
680.04	508.65
680.37	505.32
680.71	502.04
681.05	498.96
681.39	495.74
681.73	492.64
682.06	489.64
682.40	486.62
682.74	483.64
683.08	480.58
683.42	477.55
683.75	474.54
684.09	471.47
684.43	468.56
684.77	465.56
685.10	462.80
685.44	460.15
685.78	457.47
686.12	454.72
686.45	452.02
686.79	449.28
687.13	446.65
687.46	444.11
687.80	441.57
688.14	438.92
688.48	436.50
688.81	433.88
689.15	431.34
689.49	428.77
689.82	426.29
690.16	423.77
690.50	421.42
690.83	419.16
691.17	416.87
691.51	414.65
691.84	412.47
692.18	410.18
692.52	407.79
692.85	405.46
693.19	403.28
693.52	401.07
693.86	398.97
694.20	396.86
694.53	394.72
694.87	392.54
695.21	390.45
695.54	388.26
695.88	386.18
696.21	384.14
696.55	382.17
696.88	380.18
697.22	378.24
697.56	376.28
697.89	374.28
698.23	372.38
698.56	370.40
698.90	368.52
699.23	366.58
699.57	364.75
699.90	362.94
700.24	361.12
700.58	359.36
700.91	357.58
701.25	355.82
701.58	354.22
701.92	352.58
702.25	350.96
702.59	349.36
702.92	347.78
703.26	346.24
703.59	344.73
703.93	343.33
704.26	341.95
704.60	340.49
704.93	339.02
705.26	337.54
705.60	336.12
705.93	334.79
706.27	333.55
706.60	332.27
706.94	330.96
707.27	329.58
707.61	328.27
707.94	327.01
708.27	325.76
708.61	324.44
708.94	323.23
709.28	322.05
709.61	320.92
709.94	319.82
710.28	318.62
710.61	317.45
710.95	316.15
711.28	314.97
711.61	313.83
711.95	312.73
712.28	311.59
712.61	310.43
712.95	309.26
713.28	308.19
713.61	307.15
713.95	306.09
714.28	305.10
714.61	304.11
714.95	303.14
715.28	302.13
715.61	301.10
715.95	300.06
716.28	299.02
716.61	298.00
716.95	297.02
717.28	296.12
717.61	295.20
717.94	294.37
718.28	293.44
718.61	292.58
718.94	291.75
719.27	290.94
719.61	290.16
719.94	289.39
720.27	288.57
720.60	287.77
720.94	287.06
721.27	286.33
721.60	285.64
721.93	284.90
722.27	284.24
722.60	283.58
722.93	282.90
723.26	282.26
723.59	281.60
723.93	280.93
724.26	280.26
724.59	279.64
724.92	279.00
725.25	278.40
725.59	277.78
725.92	277.16
726.25	276.55
726.58	276.00
726.91	275.41
727.24	274.84
727.57	274.27
727.91	273.63
728.24	273.11
728.57	272.51
728.90	271.98
729.23	271.38
729.56	270.88
729.89	270.33
730.22	269.75
730.55	269.22
730.89	268.69
731.22	268.16
731.55	267.61
731.88	267.07
732.21	266.53
732.54	266.00
732.87	265.49
733.20	265.04
733.53	264.56
733.86	264.10
734.19	263.63
734.52	263.17
734.85	262.83
735.18	262.32
735.51	261.87
735.84	261.46
736.17	261.04
736.50	260.58
736.83	260.30
737.16	259.93
737.49	259.53
737.82	259.13
738.15	258.74
738.48	258.33
738.81	257.98
739.14	257.64
739.47	257.24
739.80	256.86
740.13	256.49
740.46	256.12
740.79	255.75
741.12	255.36
741.45	254.98
741.78	254.58
742.11	254.24
742.44	253.88
742.77	253.49
743.10	253.14
743.43	252.78
743.75	252.36
744.08	252.18
744.41	251.87
744.74	251.55
745.07	251.24
745.40	250.98
745.73	250.67
746.06	250.36
746.39	250.11
746.71	249.80
747.04	249.52
747.37	249.20
747.70	248.93
748.03	248.68
748.36	248.44
748.68	248.17
749.01	247.89
749.34	247.62
749.67	247.37
750.00	247.12
750.33	246.93
750.65	246.70
750.98	246.27
751.31	246.05
751.64	245.82
751.97	245.63
752.29	245.34
752.62	245.07
752.95	244.82
753.28	244.57
753.60	244.37
753.93	244.15
754.26	243.96
754.59	243.69
754.91	243.42
755.24	243.19
755.57	242.97
755.90	242.78
756.22	242.60
756.55	242.37
756.88	242.12
757.20	241.86
757.53	241.63
757.86	241.44
758.19	241.19
758.51	240.97
758.84	240.69
759.17	240.53
759.49	240.35
759.82	240.17
760.15	239.99
760.47	239.78
760.80	239.54
761.13	239.37
761.45	239.17
761.78	239.01
762.11	238.80
762.43	238.61
762.76	238.39
763.08	238.23
763.41	238.08
763.74	237.92
764.06	237.74
764.39	237.57
764.71	237.39
765.04	237.23
765.37	237.08
765.69	236.90
766.02	236.72
766.34	236.54
766.67	236.40
767.00	236.24
767.32	236.13
767.65	236.07
767.97	235.90
768.30	235.77
768.62	235.62
768.95	235.50
769.27	235.36
769.60	235.28
769.92	235.09
770.25	234.92
770.57	234.80
770.90	234.71
771.22	234.56
771.55	234.45
771.87	234.33
772.20	234.20
772.52	234.20
772.85	234.20
773.17	234.11
773.50	233.97
773.82	233.86
774.15	233.69
774.47	233.53
774.80	233.38
775.12	233.29
775.45	233.21
775.77	233.12
776.09	233.03
776.42	232.91
776.74	232.90
777.07	232.82
777.39	232.71
777.72	232.61
778.04	232.57
778.36	232.49
778.69	232.45
779.01	232.42
779.33	232.25
779.66	232.08
779.98	232.00
780.31	231.95
780.63	231.89
780.95	231.86
781.28	231.80
781.60	231.75
781.92	231.69
782.25	231.63
782.57	231.55
782.89	231.51
783.22	231.43
783.54	231.36
783.86	231.30
784.19	231.24
784.51	231.21
784.83	231.11
785.16	231.08
785.48	231.05
785.80	230.98
786.12	230.99
786.45	230.92
