SpectraSuite Data File
++++++++++++++++++++++++++++++++++++
Date: Fri Feb 01 18:11:17 EST 2013
User: group
Dark Spectrum Present: No
Reference Spectrum Present: No
Number of Sampled Component Spectra: 1
Spectrometers: USB2E7196
Integration Time (usec): 35000 (USB2E7196)
Spectra Averaged: 100 (USB2E7196)
Boxcar Smoothing: 10 (USB2E7196)
Correct for Electrical Dark: No (USB2E7196)
Strobe/Lamp Enabled: No (USB2E7196)
Correct for Detector Non-linearity: No (USB2E7196)
Correct for Stray Light: No (USB2E7196)
Number of Pixels in Processed Spectrum: 2048
>>>>>Begin Processed Spectral Data<<<<<
339.09	0.00
339.48	212.62
339.86	214.23
340.24	215.74
340.63	217.36
341.01	220.19
341.39	219.79
341.78	221.16
342.16	221.85
342.54	222.38
342.93	211.33
343.31	222.03
343.69	222.59
344.07	223.06
344.46	223.51
344.84	223.89
345.22	224.13
345.60	224.39
345.99	224.56
346.37	224.74
346.75	224.85
347.13	224.89
347.52	224.96
347.90	225.05
348.28	225.09
348.66	225.16
349.05	225.15
349.43	225.19
349.81	225.25
350.19	225.29
350.57	225.32
350.96	225.40
351.34	225.44
351.72	225.54
352.10	225.63
352.48	225.68
352.87	225.77
353.25	225.83
353.63	225.90
354.01	225.98
354.39	226.06
354.77	226.17
355.15	226.28
355.54	226.32
355.92	226.36
356.30	226.45
356.68	226.60
357.06	226.69
357.44	226.74
357.82	226.82
358.20	226.92
358.58	227.00
358.97	227.05
359.35	227.15
359.73	227.20
360.11	227.27
360.49	227.32
360.87	227.33
361.25	227.39
361.63	227.47
362.01	227.52
362.39	227.53
362.77	227.58
363.15	227.59
363.53	227.64
363.91	227.70
364.29	227.73
364.67	227.62
365.05	227.63
365.43	227.65
365.81	227.65
366.19	227.69
366.57	227.74
366.95	227.73
367.33	227.71
367.71	227.71
368.09	227.72
368.47	227.74
368.85	227.75
369.23	227.76
369.61	227.72
369.99	227.75
370.37	227.76
370.75	227.76
371.13	227.76
371.51	227.71
371.89	227.70
372.27	227.67
372.65	227.65
373.03	227.59
373.41	227.57
373.78	227.52
374.16	227.43
374.54	227.35
374.92	227.29
375.30	227.25
375.68	227.18
376.06	227.14
376.44	227.04
376.82	226.96
377.19	226.88
377.57	226.83
377.95	226.72
378.33	226.64
378.71	226.53
379.09	226.46
379.47	226.44
379.84	226.36
380.22	226.33
380.60	226.25
380.98	226.21
381.36	226.12
381.73	226.04
382.11	226.01
382.49	225.97
382.87	225.91
383.25	225.85
383.62	225.93
384.00	225.86
384.38	225.84
384.76	225.81
385.13	225.80
385.51	225.74
385.89	225.69
386.27	225.64
386.64	225.60
387.02	225.58
387.40	225.50
387.78	225.43
388.15	225.36
388.53	225.35
388.91	225.33
389.29	225.29
389.66	225.28
390.04	225.21
390.42	225.18
390.79	225.16
391.17	225.15
391.55	224.99
391.92	224.97
392.30	224.96
392.68	224.95
393.05	224.94
393.43	224.93
393.81	224.92
394.18	224.94
394.56	224.92
394.94	224.92
395.31	224.91
395.69	224.98
396.06	225.03
396.44	225.03
396.82	225.02
397.19	225.11
397.57	225.18
397.95	225.26
398.32	225.28
398.70	225.36
399.07	225.42
399.45	225.48
399.82	225.50
400.20	225.54
400.58	225.58
400.95	225.60
401.33	225.69
401.70	225.85
402.08	225.94
402.45	226.04
402.83	226.19
403.20	226.35
403.58	226.45
403.95	226.54
404.33	226.72
404.71	226.87
405.08	227.03
405.46	227.13
405.83	227.28
406.21	227.48
406.58	227.65
406.96	227.84
407.33	228.11
407.70	228.38
408.08	228.74
408.45	229.03
408.83	229.36
409.20	229.61
409.58	229.86
409.95	230.19
410.33	230.57
410.70	230.87
411.08	231.24
411.45	231.63
411.82	232.06
412.20	232.50
412.57	233.05
412.95	233.54
413.32	234.10
413.69	234.65
414.07	235.24
414.44	235.94
414.82	236.61
415.19	237.34
415.56	238.08
415.94	238.82
416.31	239.71
416.68	240.56
417.06	241.60
417.43	242.54
417.81	243.58
418.18	244.66
418.55	245.83
418.93	247.07
419.30	248.35
419.67	249.65
420.04	251.04
420.42	252.42
420.79	253.99
421.16	255.66
421.54	257.33
421.91	259.02
422.28	260.76
422.66	262.63
423.03	264.40
423.40	266.30
423.77	268.30
424.15	270.32
424.52	272.42
424.89	274.68
425.26	276.88
425.64	278.92
426.01	281.15
426.38	283.49
426.75	285.80
427.13	288.20
427.50	290.76
427.87	293.40
428.24	296.03
428.61	298.56
428.99	301.22
429.36	304.19
429.73	307.11
430.10	309.96
430.47	312.87
430.85	315.92
431.22	319.05
431.59	322.35
431.96	325.49
432.33	328.96
432.70	332.30
433.08	336.24
433.45	339.96
433.82	343.64
434.19	347.70
434.56	351.66
434.93	355.40
435.30	359.05
435.68	363.12
436.05	367.12
436.42	371.01
436.79	374.57
437.16	378.32
437.53	382.29
437.90	386.20
438.27	390.01
438.64	393.98
439.01	397.57
439.38	400.74
439.75	403.77
440.13	407.27
440.50	410.56
440.87	413.17
441.24	415.94
441.61	418.97
441.98	421.06
442.35	423.60
442.72	426.22
443.09	428.83
443.46	430.20
443.83	430.98
444.20	431.74
444.57	432.91
444.94	433.34
445.31	433.89
445.68	434.39
446.05	434.49
446.42	433.95
446.79	433.40
447.16	432.81
447.53	432.43
447.90	430.82
448.27	429.12
448.64	426.87
449.01	425.23
449.37	422.41
449.74	419.78
450.11	416.54
450.48	413.05
450.85	409.39
451.22	406.38
451.59	403.58
451.96	400.80
452.33	397.14
452.70	393.86
453.07	389.83
453.43	385.80
453.80	382.00
454.17	378.25
454.54	374.67
454.91	370.82
455.28	367.00
455.65	363.52
456.02	360.04
456.38	357.03
456.75	353.31
457.12	350.22
457.49	347.08
457.86	344.08
458.23	341.44
458.59	338.60
458.96	335.64
459.33	333.01
459.70	330.38
460.07	328.26
460.43	325.78
460.80	323.45
461.17	321.36
461.54	319.18
461.91	317.15
462.27	315.08
462.64	313.31
463.01	311.40
463.38	309.55
463.74	307.68
464.11	306.02
464.48	304.53
464.85	302.93
465.21	301.67
465.58	300.37
465.95	298.82
466.32	297.51
466.68	296.23
467.05	294.97
467.42	293.73
467.78	292.40
468.15	291.17
468.52	290.21
468.88	289.02
469.25	287.94
469.62	287.05
469.98	286.10
470.35	285.17
470.72	284.32
471.08	283.40
471.45	282.63
471.82	281.86
472.18	280.99
472.55	280.33
472.92	279.59
473.28	278.92
473.65	278.32
474.02	277.66
474.38	277.12
474.75	276.65
475.11	276.12
475.48	275.69
475.85	275.32
476.21	275.02
476.58	274.71
476.94	274.42
477.31	274.12
477.67	273.86
478.04	273.68
478.41	273.52
478.77	273.44
479.14	273.29
479.50	273.22
479.87	273.23
480.23	273.25
480.60	273.25
480.96	273.29
481.33	273.40
481.69	273.58
482.06	273.72
482.42	273.82
482.79	274.03
483.15	274.34
483.52	274.73
483.88	274.99
484.25	275.32
484.61	275.71
484.98	276.13
485.34	276.68
485.71	277.25
486.07	277.82
486.44	278.40
486.80	279.12
487.17	279.86
487.53	280.69
487.90	281.53
488.26	282.44
488.62	283.44
488.99	284.47
489.35	285.56
489.72	286.75
490.08	288.00
490.44	289.30
490.81	290.69
491.17	292.08
491.54	293.69
491.90	295.30
492.26	297.04
492.63	298.89
492.99	300.77
493.36	302.78
493.72	304.98
494.08	307.20
494.45	309.58
494.81	312.08
495.17	314.68
495.54	317.43
495.90	320.33
496.26	323.31
496.63	326.43
496.99	329.75
497.35	333.18
497.72	336.86
498.08	340.59
498.44	344.52
498.80	348.76
499.17	353.10
499.53	357.61
499.89	362.36
500.26	367.17
500.62	372.18
500.98	377.50
501.34	382.93
501.71	388.63
502.07	394.53
502.43	400.48
502.79	406.77
503.16	413.30
503.52	420.00
503.88	426.91
504.24	434.13
504.60	441.53
504.97	449.30
505.33	457.18
505.69	465.52
506.05	473.90
506.41	482.32
506.78	491.04
507.14	500.08
507.50	509.40
507.86	519.13
508.22	529.09
508.59	539.02
508.95	549.43
509.31	560.09
509.67	570.96
510.03	582.19
510.39	593.59
510.75	605.28
511.12	617.15
511.48	629.46
511.84	641.87
512.20	654.39
512.56	667.27
512.92	680.51
513.28	693.97
513.64	707.56
514.00	721.48
514.37	735.64
514.73	749.97
515.09	764.19
515.45	778.80
515.81	793.70
516.17	809.06
516.53	824.58
516.89	840.27
517.25	855.88
517.61	871.75
517.97	887.66
518.33	903.59
518.69	919.94
519.05	936.41
519.41	953.18
519.77	970.30
520.13	987.54
520.49	1004.63
520.85	1021.61
521.21	1039.04
521.57	1057.03
521.93	1074.62
522.29	1092.86
522.65	1111.04
523.01	1129.00
523.37	1146.81
523.73	1164.86
524.09	1182.78
524.45	1200.88
524.81	1219.53
525.17	1238.31
525.53	1257.24
525.89	1276.19
526.25	1295.10
526.61	1313.57
526.97	1332.41
527.33	1351.00
527.68	1369.58
528.04	1388.12
528.40	1406.88
528.76	1426.24
529.12	1445.06
529.48	1464.14
529.84	1482.34
530.20	1501.24
530.56	1520.56
530.91	1540.40
531.27	1559.62
531.63	1578.38
531.99	1597.33
532.35	1615.67
532.71	1633.99
533.07	1652.80
533.42	1671.28
533.78	1689.83
534.14	1708.60
534.50	1726.44
534.86	1744.87
535.21	1762.58
535.57	1781.02
535.93	1799.02
536.29	1816.27
536.65	1833.72
537.00	1850.99
537.36	1869.05
537.72	1886.04
538.08	1903.20
538.44	1919.53
538.79	1935.76
539.15	1951.94
539.51	1968.20
539.87	1985.04
540.22	2001.40
540.58	2017.63
540.94	2033.11
541.29	2048.48
541.65	2063.98
542.01	2079.69
542.37	2094.71
542.72	2109.74
543.08	2124.13
543.44	2139.36
543.79	2153.23
544.15	2166.79
544.51	2181.10
544.87	2194.43
545.22	2207.79
545.58	2220.37
545.94	2232.74
546.29	2245.26
546.65	2257.77
547.01	2269.58
547.36	2280.77
547.72	2291.71
548.07	2302.06
548.43	2312.78
548.79	2323.05
549.14	2332.90
549.50	2342.43
549.86	2352.15
550.21	2361.83
550.57	2371.27
550.92	2380.03
551.28	2389.09
551.64	2398.51
551.99	2407.04
552.35	2415.43
552.70	2423.78
553.06	2431.98
553.41	2440.38
553.77	2448.40
554.13	2456.44
554.48	2464.70
554.84	2472.42
555.19	2479.48
555.55	2486.54
555.90	2492.95
556.26	2500.03
556.61	2506.45
556.97	2512.97
557.32	2519.09
557.68	2524.92
558.03	2531.06
558.39	2536.31
558.74	2542.89
559.10	2548.40
559.45	2553.72
559.81	2559.64
560.16	2565.22
560.52	2569.99
560.87	2575.04
561.23	2579.23
561.58	2583.75
561.94	2587.69
562.29	2591.17
562.64	2595.72
563.00	2599.65
563.35	2604.81
563.71	2609.40
564.06	2613.98
564.42	2617.96
564.77	2621.80
565.12	2625.59
565.48	2628.75
565.83	2632.22
566.19	2634.99
566.54	2637.11
566.89	2639.72
567.25	2641.57
567.60	2644.00
567.96	2647.12
568.31	2648.99
568.66	2651.28
569.02	2652.85
569.37	2654.14
569.72	2656.19
570.08	2657.12
570.43	2658.10
570.78	2658.34
571.14	2657.26
571.49	2656.50
571.84	2656.99
572.20	2656.66
572.55	2656.07
572.90	2655.03
573.26	2654.00
573.61	2652.35
573.96	2651.11
574.31	2648.23
574.67	2645.32
575.02	2641.68
575.37	2638.22
575.72	2634.59
576.08	2631.18
576.43	2627.90
576.78	2624.39
577.13	2621.13
577.49	2617.81
577.84	2614.32
578.19	2610.36
578.54	2606.79
578.90	2602.57
579.25	2596.63
579.60	2591.31
579.95	2586.01
580.30	2580.58
580.66	2575.00
581.01	2569.71
581.36	2564.23
581.71	2559.94
582.06	2555.33
582.42	2550.74
582.77	2545.10
583.12	2540.08
583.47	2535.19
583.82	2529.86
584.17	2524.08
584.53	2518.04
584.88	2511.91
585.23	2505.69
585.58	2499.53
585.93	2493.42
586.28	2487.90
586.63	2482.33
586.98	2476.54
587.34	2471.28
587.69	2465.74
588.04	2459.89
588.39	2453.43
588.74	2446.12
589.09	2438.85
589.44	2431.20
589.79	2424.01
590.14	2417.35
590.49	2409.75
590.84	2402.08
591.19	2395.07
591.54	2387.57
591.89	2379.19
592.25	2371.43
592.60	2362.98
592.95	2354.42
593.30	2345.95
593.65	2337.21
594.00	2329.02
594.35	2320.65
594.70	2311.09
595.05	2302.87
595.40	2294.37
595.75	2285.74
596.10	2278.70
596.45	2271.02
596.80	2263.71
597.15	2256.30
597.50	2248.36
597.85	2240.71
598.19	2233.16
598.54	2225.02
598.89	2217.32
599.24	2210.34
599.59	2202.71
599.94	2195.32
600.29	2187.72
600.64	2179.80
600.99	2171.15
601.34	2163.04
601.69	2154.79
602.04	2147.02
602.39	2138.33
602.74	2130.25
603.08	2122.31
603.43	2114.04
603.78	2105.29
604.13	2096.65
604.48	2088.02
604.83	2079.66
605.18	2071.64
605.53	2062.15
605.87	2052.56
606.22	2043.73
606.57	2034.07
606.92	2024.88
607.27	2016.50
607.62	2008.30
607.96	1999.84
608.31	1992.01
608.66	1982.97
609.01	1973.93
609.36	1964.86
609.70	1955.30
610.05	1945.73
610.40	1936.65
610.75	1926.72
611.10	1917.63
611.44	1907.42
611.79	1897.64
612.14	1887.35
612.49	1876.32
612.83	1866.25
613.18	1856.35
613.53	1846.72
613.88	1836.69
614.22	1826.88
614.57	1816.32
614.92	1806.77
615.27	1797.71
615.61	1787.73
615.96	1778.14
616.31	1769.02
616.65	1760.00
617.00	1750.89
617.35	1741.49
617.70	1731.35
618.04	1721.33
618.39	1711.38
618.74	1702.33
619.08	1692.50
619.43	1683.35
619.78	1674.91
620.12	1666.32
620.47	1657.40
620.82	1647.50
621.16	1638.48
621.51	1629.35
621.85	1620.21
622.20	1609.84
622.55	1599.66
622.89	1590.17
623.24	1580.80
623.59	1571.82
623.93	1562.80
624.28	1554.08
624.62	1545.17
624.97	1536.59
625.32	1528.35
625.66	1519.82
626.01	1511.30
626.35	1502.34
626.70	1493.10
627.04	1483.77
627.39	1474.42
627.73	1465.42
628.08	1457.27
628.43	1448.67
628.77	1439.83
629.12	1430.83
629.46	1422.31
629.81	1413.20
630.15	1404.42
630.50	1395.73
630.84	1386.01
631.19	1376.47
631.53	1367.39
631.88	1358.25
632.22	1349.12
632.57	1340.33
632.91	1331.26
633.26	1322.35
633.60	1313.41
633.95	1304.60
634.29	1296.17
634.64	1288.04
634.98	1279.28
635.32	1270.64
635.67	1262.55
636.01	1254.51
636.36	1246.36
636.70	1238.41
637.05	1230.64
637.39	1222.96
637.73	1215.11
638.08	1207.92
638.42	1200.75
638.77	1193.10
639.11	1185.29
639.45	1177.56
639.80	1169.54
640.14	1162.01
640.49	1154.24
640.83	1146.76
641.17	1139.48
641.52	1131.95
641.86	1124.15
642.20	1117.09
642.55	1109.49
642.89	1101.88
643.23	1094.07
643.58	1087.23
643.92	1079.93
644.26	1072.91
644.61	1065.58
644.95	1058.45
645.29	1050.76
645.64	1042.75
645.98	1035.15
646.32	1028.07
646.66	1021.03
647.01	1014.25
647.35	1007.38
647.69	1000.33
648.04	993.73
648.38	986.94
648.72	979.95
649.06	972.94
649.41	965.95
649.75	958.98
650.09	951.90
650.43	945.15
650.78	937.76
651.12	930.78
651.46	923.89
651.80	917.24
652.14	910.83
652.49	904.50
652.83	898.37
653.17	891.79
653.51	885.20
653.85	878.78
654.20	872.15
654.54	865.11
654.88	858.31
655.22	851.30
655.56	844.45
655.90	837.96
656.25	831.79
656.59	825.50
656.93	819.45
657.27	813.43
657.61	806.99
657.95	801.06
658.29	795.04
658.64	788.74
658.98	782.49
659.32	776.03
659.66	769.92
660.00	763.74
660.34	757.83
660.68	752.04
661.02	746.11
661.36	740.55
661.70	735.25
662.05	730.23
662.39	725.24
662.73	720.02
663.07	714.80
663.41	709.56
663.75	704.27
664.09	698.88
664.43	693.71
664.77	688.90
665.11	683.91
665.45	678.97
665.79	674.29
666.13	669.48
666.47	664.63
666.81	659.70
667.15	654.81
667.49	650.22
667.83	645.63
668.17	641.00
668.51	636.23
668.85	631.50
669.19	626.83
669.53	622.23
669.87	617.71
670.21	613.35
670.55	609.05
670.89	605.02
671.23	601.01
671.57	596.82
671.91	592.65
672.25	588.45
672.58	584.33
672.92	580.29
673.26	576.46
673.60	572.76
673.94	569.15
674.28	565.73
674.62	562.24
674.96	558.53
675.30	555.19
675.64	551.76
675.97	548.50
676.31	545.19
676.65	541.81
676.99	538.62
677.33	535.29
677.67	531.92
678.01	528.41
678.34	524.88
678.68	521.50
679.02	518.21
679.36	514.98
679.70	511.79
680.04	508.60
680.37	505.31
680.71	501.98
681.05	498.82
681.39	495.69
681.73	492.57
682.06	489.64
682.40	486.58
682.74	483.61
683.08	480.53
683.42	477.44
683.75	474.48
684.09	471.42
684.43	468.52
684.77	465.67
685.10	462.87
685.44	460.13
685.78	457.40
686.12	454.66
686.45	451.90
686.79	449.19
687.13	446.52
687.46	443.87
687.80	441.31
688.14	438.63
688.48	436.11
688.81	433.46
689.15	430.90
689.49	428.31
689.82	425.76
690.16	423.30
690.50	420.98
690.83	418.68
691.17	416.33
691.51	414.06
691.84	411.85
692.18	409.55
692.52	407.22
692.85	404.94
693.19	402.74
693.52	400.55
693.86	398.39
694.20	396.28
694.53	394.17
694.87	391.97
695.21	389.90
695.54	387.73
695.88	385.68
696.21	383.62
696.55	381.68
696.88	379.72
697.22	377.74
697.56	375.82
697.89	373.86
698.23	372.00
698.56	370.08
698.90	368.19
699.23	366.27
699.57	364.41
699.90	362.56
700.24	360.72
700.58	358.99
700.91	357.23
701.25	355.49
701.58	353.86
701.92	352.30
702.25	350.68
702.59	349.08
702.92	347.52
703.26	345.99
703.59	344.44
703.93	343.04
704.26	341.60
704.60	340.09
704.93	338.59
705.26	337.09
705.60	335.69
705.93	334.31
706.27	333.11
706.60	331.90
706.94	330.60
707.27	329.26
707.61	327.98
707.94	326.74
708.27	325.51
708.61	324.23
708.94	322.98
709.28	321.78
709.61	320.63
709.94	319.52
710.28	318.34
710.61	317.21
710.95	315.95
711.28	314.83
711.61	313.71
711.95	312.62
712.28	311.49
712.61	310.36
712.95	309.26
713.28	308.16
713.61	307.13
713.95	306.13
714.28	305.14
714.61	304.12
714.95	303.13
715.28	302.10
715.61	301.11
715.95	300.11
716.28	299.13
716.61	298.11
716.95	297.13
717.28	296.21
717.61	295.32
717.94	294.46
718.28	293.54
718.61	292.68
718.94	291.89
719.27	291.13
719.61	290.34
719.94	289.56
720.27	288.75
720.60	287.90
720.94	287.16
721.27	286.48
721.60	285.81
721.93	285.10
722.27	284.45
722.60	283.81
722.93	283.20
723.26	282.58
723.59	281.97
723.93	281.32
724.26	280.65
724.59	279.96
724.92	279.30
725.25	278.68
725.59	278.04
725.92	277.37
726.25	276.76
726.58	276.20
726.91	275.60
727.24	275.01
727.57	274.50
727.91	273.87
728.24	273.29
728.57	272.68
728.90	272.14
729.23	271.54
729.56	271.00
729.89	270.35
730.22	269.76
730.55	269.21
730.89	268.66
731.22	268.16
731.55	267.63
731.88	267.11
732.21	266.59
732.54	266.08
732.87	265.58
733.20	265.07
733.53	264.58
733.86	264.14
734.19	263.66
734.52	263.19
734.85	262.82
735.18	262.30
735.51	261.85
735.84	261.38
736.17	260.96
736.50	260.47
736.83	260.22
737.16	259.85
737.49	259.47
737.82	259.04
738.15	258.64
738.48	258.21
738.81	257.82
739.14	257.43
739.47	257.07
739.80	256.70
740.13	256.29
740.46	255.89
740.79	255.49
741.12	255.10
741.45	254.71
741.78	254.31
742.11	254.01
742.44	253.62
742.77	253.32
743.10	252.96
743.43	252.61
743.75	252.11
744.08	251.89
744.41	251.57
744.74	251.28
745.07	250.94
745.40	250.68
745.73	250.41
746.06	250.07
746.39	249.73
746.71	249.44
747.04	249.16
747.37	248.86
747.70	248.56
748.03	248.32
748.36	248.08
748.68	247.79
749.01	247.51
749.34	247.27
749.67	246.98
750.00	246.74
750.33	246.58
750.65	246.40
750.98	246.00
751.31	245.69
751.64	245.43
751.97	245.26
752.29	245.01
752.62	244.72
752.95	244.49
753.28	244.27
753.60	244.06
753.93	243.88
754.26	243.68
754.59	243.42
754.91	243.20
755.24	242.94
755.57	242.73
755.90	242.51
756.22	242.27
756.55	242.05
756.88	241.81
757.20	241.52
757.53	241.28
757.86	241.09
758.19	240.91
758.51	240.73
758.84	240.45
759.17	240.27
759.49	240.08
759.82	239.95
760.15	239.79
760.47	239.59
760.80	239.39
761.13	239.20
761.45	239.04
761.78	238.86
762.11	238.71
762.43	238.51
762.76	238.30
763.08	238.17
763.41	238.01
763.74	237.85
764.06	237.70
764.39	237.53
764.71	237.36
765.04	237.21
765.37	237.05
765.69	236.91
766.02	236.72
766.34	236.60
766.67	236.41
767.00	236.26
767.32	236.15
767.65	236.10
767.97	235.95
768.30	235.83
768.62	235.66
768.95	235.52
769.27	235.38
769.60	235.30
769.92	235.14
770.25	234.99
770.57	234.87
770.90	234.74
771.22	234.61
771.55	234.50
771.87	234.36
772.20	234.23
772.52	234.22
772.85	234.26
773.17	234.14
773.50	234.03
773.82	233.90
774.15	233.75
774.47	233.55
774.80	233.46
775.12	233.39
775.45	233.29
775.77	233.21
776.09	233.15
776.42	233.03
776.74	232.96
777.07	232.86
777.39	232.75
777.72	232.66
778.04	232.56
778.36	232.48
778.69	232.43
779.01	232.36
779.33	232.18
779.66	231.98
779.98	231.90
780.31	231.81
780.63	231.77
780.95	231.73
781.28	231.67
781.60	231.58
781.92	231.47
782.25	231.41
782.57	231.33
782.89	231.22
783.22	231.16
783.54	231.06
783.86	230.99
784.19	230.96
784.51	230.87
784.83	230.81
785.16	230.74
785.48	230.65
785.80	230.59
786.12	230.54
786.45	230.46
