SpectraSuite Data File
++++++++++++++++++++++++++++++++++++
Date: Fri Feb 01 14:52:40 EST 2013
User: group
Dark Spectrum Present: No
Reference Spectrum Present: No
Number of Sampled Component Spectra: 1
Spectrometers: USB2E7196
Integration Time (usec): 35000 (USB2E7196)
Spectra Averaged: 100 (USB2E7196)
Boxcar Smoothing: 10 (USB2E7196)
Correct for Electrical Dark: No (USB2E7196)
Strobe/Lamp Enabled: No (USB2E7196)
Correct for Detector Non-linearity: No (USB2E7196)
Correct for Stray Light: No (USB2E7196)
Number of Pixels in Processed Spectrum: 2048
>>>>>Begin Processed Spectral Data<<<<<
339.09	0.00
339.48	215.79
339.86	217.13
340.24	218.63
340.63	219.58
341.01	222.59
341.39	222.82
341.78	224.07
342.16	224.88
342.54	224.92
342.93	213.84
343.31	224.65
343.69	225.17
344.07	225.62
344.46	225.99
344.84	226.37
345.22	226.62
345.60	226.87
345.99	227.04
346.37	227.18
346.75	227.29
347.13	227.38
347.52	227.46
347.90	227.52
348.28	227.54
348.66	227.57
349.05	227.59
349.43	227.66
349.81	227.67
350.19	227.68
350.57	227.69
350.96	227.74
351.34	227.84
351.72	227.91
352.10	228.02
352.48	228.13
352.87	228.19
353.25	228.24
353.63	228.27
354.01	228.33
354.39	228.40
354.77	228.50
355.15	228.58
355.54	228.65
355.92	228.68
356.30	228.76
356.68	228.88
357.06	228.92
357.44	228.95
357.82	229.02
358.20	229.12
358.58	229.19
358.97	229.26
359.35	229.28
359.73	229.38
360.11	229.40
360.49	229.43
360.87	229.48
361.25	229.53
361.63	229.59
362.01	229.63
362.39	229.64
362.77	229.65
363.15	229.64
363.53	229.65
363.91	229.68
364.29	229.70
364.67	229.61
365.05	229.65
365.43	229.67
365.81	229.67
366.19	229.70
366.57	229.69
366.95	229.66
367.33	229.63
367.71	229.61
368.09	229.61
368.47	229.63
368.85	229.57
369.23	229.56
369.61	229.51
369.99	229.51
370.37	229.52
370.75	229.51
371.13	229.45
371.51	229.40
371.89	229.33
372.27	229.30
372.65	229.28
373.03	229.22
373.41	229.15
373.78	229.08
374.16	228.97
374.54	228.90
374.92	228.82
375.30	228.74
375.68	228.62
376.06	228.58
376.44	228.45
376.82	228.41
377.19	228.32
377.57	228.25
377.95	228.11
378.33	227.98
378.71	227.87
379.09	227.83
379.47	227.73
379.84	227.66
380.22	227.56
380.60	227.45
380.98	227.38
381.36	227.30
381.73	227.22
382.11	227.17
382.49	227.09
382.87	227.04
383.25	226.98
383.62	227.03
384.00	226.93
384.38	226.89
384.76	226.83
385.13	226.83
385.51	226.77
385.89	226.74
386.27	226.71
386.64	226.68
387.02	226.65
387.40	226.62
387.78	226.58
388.15	226.54
388.53	226.51
388.91	226.46
389.29	226.42
389.66	226.41
390.04	226.38
390.42	226.39
390.79	226.41
391.17	226.42
391.55	226.31
391.92	226.31
392.30	226.33
392.68	226.31
393.05	226.29
393.43	226.30
393.81	226.32
394.18	226.32
394.56	226.36
394.94	226.39
395.31	226.45
395.69	226.54
396.06	226.61
396.44	226.66
396.82	226.69
397.19	226.84
397.57	226.87
397.95	226.94
398.32	226.96
398.70	227.01
399.07	227.11
399.45	227.16
399.82	227.25
400.20	227.32
400.58	227.42
400.95	227.47
401.33	227.56
401.70	227.75
402.08	227.85
402.45	227.93
402.83	228.06
403.20	228.15
403.58	228.26
403.95	228.40
404.33	228.56
404.71	228.72
405.08	228.87
405.46	229.03
405.83	229.20
406.21	229.40
406.58	229.54
406.96	229.73
407.33	229.91
407.70	230.13
408.08	230.43
408.45	230.65
408.83	230.89
409.20	231.12
409.58	231.29
409.95	231.59
410.33	231.89
410.70	232.16
411.08	232.46
411.45	232.78
411.82	233.10
412.20	233.45
412.57	233.86
412.95	234.17
413.32	234.60
413.69	234.99
414.07	235.43
414.44	235.93
414.82	236.42
415.19	236.97
415.56	237.49
415.94	238.00
416.31	238.67
416.68	239.34
417.06	240.06
417.43	240.72
417.81	241.50
418.18	242.25
418.55	243.08
418.93	243.93
419.30	244.82
419.67	245.72
420.04	246.65
420.42	247.62
420.79	248.80
421.16	249.94
421.54	251.10
421.91	252.29
422.28	253.48
422.66	254.78
423.03	256.10
423.40	257.42
423.77	258.82
424.15	260.22
424.52	261.65
424.89	263.23
425.26	264.79
425.64	266.24
426.01	267.85
426.38	269.45
426.75	271.16
427.13	272.84
427.50	274.63
427.87	276.49
428.24	278.38
428.61	280.09
428.99	282.01
429.36	284.09
429.73	286.19
430.10	288.26
430.47	290.35
430.85	292.42
431.22	294.65
431.59	297.04
431.96	299.30
432.33	301.82
432.70	304.19
433.08	306.98
433.45	309.55
433.82	312.16
434.19	315.11
434.56	317.88
434.93	320.53
435.30	323.16
435.68	326.07
436.05	328.84
436.42	331.66
436.79	334.19
437.16	336.90
437.53	339.75
437.90	342.59
438.27	345.30
438.64	348.14
439.01	350.71
439.38	352.91
439.75	355.07
440.13	357.57
440.50	359.91
440.87	361.73
441.24	363.72
441.61	365.87
441.98	367.35
442.35	369.16
442.72	371.07
443.09	372.89
443.46	373.90
443.83	374.56
444.20	375.06
444.57	375.92
444.94	376.22
445.31	376.53
445.68	376.85
446.05	376.96
446.42	376.63
446.79	376.25
447.16	375.85
447.53	375.55
447.90	374.39
448.27	373.26
448.64	371.70
449.01	370.59
449.37	368.64
449.74	366.75
450.11	364.53
450.48	362.04
450.85	359.49
451.22	357.35
451.59	355.30
451.96	353.39
452.33	350.76
452.70	348.41
453.07	345.64
453.43	342.79
453.80	340.02
454.17	337.33
454.54	334.78
454.91	332.05
455.28	329.41
455.65	326.93
456.02	324.47
456.38	322.34
456.75	319.66
457.12	317.40
457.49	315.16
457.86	312.98
458.23	311.17
458.59	309.15
458.96	307.08
459.33	305.27
459.70	303.38
460.07	301.86
460.43	300.16
460.80	298.51
461.17	297.03
461.54	295.51
461.91	294.08
462.27	292.65
462.64	291.45
463.01	290.08
463.38	288.77
463.74	287.41
464.11	286.24
464.48	285.22
464.85	284.09
465.21	283.28
465.58	282.34
465.95	281.18
466.32	280.26
466.68	279.31
467.05	278.37
467.42	277.44
467.78	276.57
468.15	275.67
468.52	274.98
468.88	274.10
469.25	273.30
469.62	272.66
469.98	271.95
470.35	271.26
470.72	270.61
471.08	269.93
471.45	269.36
471.82	268.80
472.18	268.21
472.55	267.76
472.92	267.17
473.28	266.71
473.65	266.28
474.02	265.81
474.38	265.45
474.75	265.12
475.11	264.79
475.48	264.46
475.85	264.18
476.21	263.91
476.58	263.71
476.94	263.57
477.31	263.38
477.67	263.22
478.04	263.06
478.41	263.01
478.77	263.03
479.14	262.95
479.50	262.93
479.87	262.97
480.23	263.01
480.60	263.07
480.96	263.13
481.33	263.32
481.69	263.50
482.06	263.65
482.42	263.83
482.79	264.07
483.15	264.36
483.52	264.75
483.88	265.07
484.25	265.42
484.61	265.81
484.98	266.26
485.34	266.85
485.71	267.45
486.07	268.03
486.44	268.54
486.80	269.24
487.17	269.96
487.53	270.75
487.90	271.59
488.26	272.51
488.62	273.47
488.99	274.45
489.35	275.50
489.72	276.62
490.08	277.79
490.44	279.02
490.81	280.35
491.17	281.71
491.54	283.24
491.90	284.76
492.26	286.45
492.63	288.15
492.99	289.89
493.36	291.79
493.72	293.81
494.08	295.92
494.45	298.18
494.81	300.56
495.17	302.97
495.54	305.51
495.90	308.16
496.26	310.96
496.63	313.87
496.99	316.92
497.35	320.13
497.72	323.52
498.08	327.04
498.44	330.70
498.80	334.59
499.17	338.57
499.53	342.70
499.89	347.04
500.26	351.51
500.62	356.20
500.98	361.10
501.34	366.16
501.71	371.46
502.07	376.80
502.43	382.39
502.79	388.18
503.16	394.23
503.52	400.47
503.88	406.82
504.24	413.46
504.60	420.32
504.97	427.45
505.33	434.75
505.69	442.37
506.05	450.11
506.41	457.95
506.78	466.09
507.14	474.48
507.50	483.15
507.86	492.11
508.22	501.17
508.59	510.36
508.95	519.89
509.31	529.71
509.67	539.73
510.03	549.96
510.39	560.51
510.75	571.35
511.12	582.25
511.48	593.53
511.84	604.95
512.20	616.44
512.56	628.34
512.92	640.48
513.28	652.82
513.64	665.32
514.00	678.00
514.37	690.98
514.73	704.01
515.09	716.98
515.45	730.30
515.81	743.95
516.17	757.93
516.53	772.08
516.89	786.15
517.25	800.35
517.61	814.83
517.97	829.24
518.33	843.63
518.69	858.48
519.05	873.48
519.41	888.59
519.77	904.19
520.13	919.65
520.49	935.05
520.85	950.51
521.21	966.24
521.57	982.54
521.93	998.33
522.29	1014.82
522.65	1031.19
523.01	1047.51
523.37	1063.68
523.73	1079.94
524.09	1096.14
524.45	1112.64
524.81	1129.38
525.17	1146.22
525.53	1163.23
525.89	1180.13
526.25	1196.94
526.61	1213.37
526.97	1230.21
527.33	1246.65
527.68	1263.29
528.04	1279.85
528.40	1296.53
528.76	1313.58
529.12	1330.22
529.48	1347.12
529.84	1363.23
530.20	1379.92
530.56	1396.95
530.91	1414.19
531.27	1431.06
531.63	1447.56
531.99	1463.96
532.35	1480.07
532.71	1495.96
533.07	1512.41
533.42	1528.30
533.78	1544.43
534.14	1560.55
534.50	1575.93
534.86	1591.86
535.21	1607.09
535.57	1623.12
535.93	1638.69
536.29	1653.63
536.65	1668.86
537.00	1683.77
537.36	1699.20
537.72	1713.78
538.08	1728.27
538.44	1742.18
538.79	1756.11
539.15	1769.86
539.51	1783.79
539.87	1798.19
540.22	1812.00
540.58	1825.61
540.94	1839.04
541.29	1852.03
541.65	1865.05
542.01	1878.39
542.37	1890.83
542.72	1903.40
543.08	1915.22
543.44	1927.66
543.79	1938.89
544.15	1949.91
544.51	1961.48
544.87	1972.39
545.22	1983.19
545.58	1993.40
545.94	2003.30
546.29	2013.20
546.65	2022.99
547.01	2032.38
547.36	2041.12
547.72	2049.59
548.07	2057.59
548.43	2065.74
548.79	2073.55
549.14	2081.14
549.50	2088.47
549.86	2096.15
550.21	2103.37
550.57	2110.38
550.92	2116.88
551.28	2124.01
551.64	2130.88
551.99	2137.31
552.35	2143.53
552.70	2149.66
553.06	2155.62
553.41	2161.86
553.77	2167.76
554.13	2173.64
554.48	2179.52
554.84	2184.77
555.19	2190.04
555.55	2195.12
555.90	2199.66
556.26	2204.70
556.61	2209.27
556.97	2213.45
557.32	2217.68
557.68	2221.75
558.03	2226.05
558.39	2229.60
558.74	2234.02
559.10	2237.82
559.45	2241.35
559.81	2245.49
560.16	2249.14
560.52	2252.19
560.87	2255.66
561.23	2258.08
561.58	2261.01
561.94	2263.58
562.29	2265.88
562.64	2268.42
563.00	2270.94
563.35	2274.29
563.71	2277.23
564.06	2280.21
564.42	2282.87
564.77	2285.02
565.12	2287.17
565.48	2288.93
565.83	2290.73
566.19	2291.98
566.54	2292.79
566.89	2293.92
567.25	2294.26
567.60	2295.52
567.96	2297.10
568.31	2297.45
568.66	2298.31
569.02	2298.71
569.37	2298.73
569.72	2299.33
570.08	2299.21
570.43	2298.84
570.78	2297.86
571.14	2296.19
571.49	2294.74
571.84	2294.19
572.20	2292.85
572.55	2291.42
572.90	2289.61
573.26	2287.90
573.61	2285.94
573.96	2284.00
574.31	2280.72
574.67	2277.46
575.02	2273.44
575.37	2269.76
575.72	2265.86
576.08	2262.50
576.43	2259.12
576.78	2255.49
577.13	2252.13
577.49	2248.83
577.84	2245.38
578.19	2241.55
578.54	2237.50
578.90	2233.05
579.25	2227.52
579.60	2222.37
579.95	2217.21
580.30	2211.84
580.66	2206.50
581.01	2201.30
581.36	2196.18
581.71	2191.74
582.06	2187.20
582.42	2182.73
582.77	2177.31
583.12	2172.62
583.47	2167.67
583.82	2162.42
584.17	2156.88
584.53	2151.26
584.88	2145.35
585.23	2139.21
585.58	2133.64
585.93	2128.06
586.28	2123.09
586.63	2117.71
586.98	2112.61
587.34	2107.93
587.69	2103.13
588.04	2097.72
588.39	2091.93
588.74	2085.41
589.09	2079.18
589.44	2072.26
589.79	2065.93
590.14	2060.13
590.49	2053.40
590.84	2046.82
591.19	2040.39
591.54	2033.80
591.89	2026.33
592.25	2019.67
592.60	2012.47
592.95	2004.68
593.30	1997.26
593.65	1989.59
594.00	1982.47
594.35	1975.04
594.70	1966.85
595.05	1959.48
595.40	1952.20
595.75	1944.60
596.10	1938.16
596.45	1931.13
596.80	1924.80
597.15	1918.18
597.50	1911.15
597.85	1904.68
598.19	1898.00
598.54	1891.18
598.89	1884.42
599.24	1878.46
599.59	1871.70
599.94	1865.35
600.29	1859.10
600.64	1852.46
600.99	1844.87
601.34	1837.96
601.69	1830.91
602.04	1823.90
602.39	1816.59
602.74	1809.79
603.08	1803.11
603.43	1796.45
603.78	1789.35
604.13	1782.10
604.48	1774.93
604.83	1768.02
605.18	1761.10
605.53	1753.05
605.87	1744.84
606.22	1737.75
606.57	1729.81
606.92	1722.47
607.27	1715.21
607.62	1708.22
607.96	1701.07
608.31	1694.63
608.66	1687.03
609.01	1679.45
609.36	1672.11
609.70	1664.10
610.05	1656.14
610.40	1648.51
610.75	1640.14
611.10	1632.50
611.44	1624.27
611.79	1616.29
612.14	1607.56
612.49	1598.46
612.83	1590.30
613.18	1582.43
613.53	1574.33
613.88	1565.82
614.22	1557.67
614.57	1549.17
614.92	1541.42
615.27	1533.95
615.61	1525.70
615.96	1517.81
616.31	1510.40
616.65	1503.11
617.00	1495.61
617.35	1487.74
617.70	1479.41
618.04	1470.88
618.39	1462.73
618.74	1455.31
619.08	1447.04
619.43	1439.64
619.78	1432.73
620.12	1425.55
620.47	1418.05
620.82	1409.96
621.16	1402.58
621.51	1394.99
621.85	1387.59
622.20	1378.96
622.55	1370.75
622.89	1362.95
623.24	1355.43
623.59	1348.18
623.93	1340.59
624.28	1333.49
624.62	1326.24
624.97	1319.11
625.32	1312.52
625.66	1305.59
626.01	1298.37
626.35	1290.97
626.70	1283.40
627.04	1275.79
627.39	1268.08
627.73	1260.74
628.08	1253.92
628.43	1246.86
628.77	1239.56
629.12	1232.01
629.46	1224.97
629.81	1217.52
630.15	1210.40
630.50	1203.10
630.84	1194.91
631.19	1187.00
631.53	1179.54
631.88	1172.02
632.22	1164.59
632.57	1157.40
632.91	1150.01
633.26	1142.59
633.60	1135.31
633.95	1128.32
634.29	1121.40
634.64	1114.94
634.98	1107.60
635.32	1100.55
635.67	1093.97
636.01	1087.44
636.36	1080.74
636.70	1074.24
637.05	1067.73
637.39	1061.37
637.73	1055.01
638.08	1049.23
638.42	1043.46
638.77	1037.13
639.11	1030.59
639.45	1024.29
639.80	1017.65
640.14	1011.28
640.49	1004.84
640.83	998.73
641.17	992.60
641.52	986.34
641.86	979.94
642.20	974.27
642.55	968.04
642.89	961.72
643.23	955.28
643.58	949.61
643.92	943.58
644.26	937.64
644.61	931.65
644.95	925.64
645.29	919.11
645.64	912.49
645.98	906.16
646.32	900.47
646.66	894.40
647.01	888.72
647.35	883.01
647.69	877.35
648.04	871.76
648.38	865.93
648.72	859.99
649.06	853.95
649.41	848.00
649.75	842.01
650.09	835.98
650.43	830.16
650.78	823.98
651.12	818.06
651.46	812.35
651.80	806.68
652.14	801.29
652.49	796.02
652.83	790.82
653.17	785.22
653.51	779.50
653.85	774.23
654.20	768.66
654.54	762.63
654.88	756.89
655.22	751.13
655.56	745.53
655.90	740.09
656.25	734.86
656.59	729.59
656.93	724.57
657.27	719.48
657.61	714.15
657.95	709.16
658.29	704.06
658.64	698.88
658.98	693.61
659.32	688.16
659.66	682.93
660.00	677.72
660.34	672.80
660.68	668.00
661.02	663.00
661.36	658.36
661.70	654.04
662.05	649.72
662.39	645.42
662.73	640.98
663.07	636.70
663.41	632.29
663.75	627.91
664.09	623.44
664.43	619.11
664.77	614.99
665.11	610.76
665.45	606.72
665.79	602.71
666.13	598.62
666.47	594.64
666.81	590.53
667.15	586.44
667.49	582.60
667.83	578.75
668.17	574.86
668.51	570.84
668.85	566.88
669.19	563.10
669.53	559.36
669.87	555.57
670.21	551.85
670.55	548.32
670.89	544.97
671.23	541.57
671.57	538.13
671.91	534.73
672.25	531.33
672.58	527.85
672.92	524.51
673.26	521.39
673.60	518.31
673.94	515.26
674.28	512.36
674.62	509.43
674.96	506.38
675.30	503.52
675.64	500.68
675.97	497.92
676.31	495.07
676.65	492.10
676.99	489.41
677.33	486.64
677.67	483.87
678.01	480.85
678.34	477.91
678.68	475.08
679.02	472.21
679.36	469.45
679.70	466.74
680.04	464.02
680.37	461.15
680.71	458.40
681.05	455.84
681.39	453.23
681.73	450.64
682.06	448.20
682.40	445.68
682.74	443.13
683.08	440.63
683.42	438.07
683.75	435.61
684.09	433.12
684.43	430.69
684.77	428.22
685.10	425.91
685.44	423.61
685.78	421.35
686.12	419.11
686.45	416.83
686.79	414.59
687.13	412.41
687.46	410.27
687.80	408.09
688.14	405.88
688.48	403.83
688.81	401.64
689.15	399.53
689.49	397.42
689.82	395.37
690.16	393.26
690.50	391.30
690.83	389.39
691.17	387.41
691.51	385.43
691.84	383.63
692.18	381.72
692.52	379.78
692.85	377.87
693.19	376.07
693.52	374.30
693.86	372.50
694.20	370.74
694.53	368.98
694.87	367.16
695.21	365.37
695.54	363.56
695.88	361.82
696.21	360.07
696.55	358.38
696.88	356.65
697.22	355.03
697.56	353.43
697.89	351.78
698.23	350.18
698.56	348.65
698.90	347.04
699.23	345.37
699.57	343.88
699.90	342.32
700.24	340.78
700.58	339.22
700.91	337.73
701.25	336.27
701.58	334.91
701.92	333.54
702.25	332.19
702.59	330.81
702.92	329.47
703.26	328.18
703.59	326.94
703.93	325.78
704.26	324.56
704.60	323.33
704.93	322.09
705.26	320.84
705.60	319.66
705.93	318.54
706.27	317.56
706.60	316.46
706.94	315.42
707.27	314.33
707.61	313.30
707.94	312.28
708.27	311.24
708.61	310.16
708.94	309.22
709.28	308.31
709.61	307.41
709.94	306.51
710.28	305.47
710.61	304.48
710.95	303.46
711.28	302.58
711.61	301.62
711.95	300.72
712.28	299.83
712.61	298.88
712.95	297.97
713.28	297.07
713.61	296.24
713.95	295.40
714.28	294.57
714.61	293.76
714.95	292.96
715.28	292.10
715.61	291.28
715.95	290.44
716.28	289.57
716.61	288.73
716.95	287.93
717.28	287.25
717.61	286.52
717.94	285.78
718.28	284.97
718.61	284.28
718.94	283.61
719.27	282.95
719.61	282.33
719.94	281.69
720.27	280.99
720.60	280.30
720.94	279.65
721.27	279.08
721.60	278.48
721.93	277.88
722.27	277.36
722.60	276.82
722.93	276.26
723.26	275.72
723.59	275.16
723.93	274.64
724.26	274.08
724.59	273.52
724.92	273.03
725.25	272.56
725.59	272.04
725.92	271.51
726.25	271.00
726.58	270.52
726.91	269.99
727.24	269.56
727.57	269.11
727.91	268.60
728.24	268.10
728.57	267.65
728.90	267.19
729.23	266.70
729.56	266.27
729.89	265.79
730.22	265.30
730.55	264.84
730.89	264.37
731.22	263.86
731.55	263.42
731.88	262.97
732.21	262.51
732.54	262.07
732.87	261.66
733.20	261.23
733.53	260.83
733.86	260.45
734.19	260.02
734.52	259.61
734.85	259.30
735.18	258.90
735.51	258.52
735.84	258.14
736.17	257.80
736.50	257.33
736.83	257.07
737.16	256.75
737.49	256.40
737.82	256.05
738.15	255.78
738.48	255.44
738.81	255.10
739.14	254.81
739.47	254.53
739.80	254.20
740.13	253.90
740.46	253.58
740.79	253.26
741.12	252.96
741.45	252.66
741.78	252.32
742.11	252.01
742.44	251.68
742.77	251.40
743.10	251.10
743.43	250.83
743.75	250.48
744.08	250.32
744.41	250.05
744.74	249.75
745.07	249.45
745.40	249.20
745.73	248.99
746.06	248.72
746.39	248.44
746.71	248.19
747.04	247.94
747.37	247.68
747.70	247.46
748.03	247.20
748.36	246.98
748.68	246.75
749.01	246.53
749.34	246.32
749.67	246.09
750.00	245.88
750.33	245.74
750.65	245.56
750.98	245.22
751.31	245.00
751.64	244.82
751.97	244.70
752.29	244.47
752.62	244.23
752.95	244.00
753.28	243.82
753.60	243.62
753.93	243.47
754.26	243.26
754.59	243.06
754.91	242.85
755.24	242.65
755.57	242.46
755.90	242.32
756.22	242.14
756.55	241.95
756.88	241.75
757.20	241.54
757.53	241.33
757.86	241.17
758.19	241.02
758.51	240.87
758.84	240.65
759.17	240.51
759.49	240.37
759.82	240.26
760.15	240.12
760.47	239.97
760.80	239.80
761.13	239.69
761.45	239.52
761.78	239.39
762.11	239.26
762.43	239.16
762.76	239.01
763.08	238.89
763.41	238.78
763.74	238.67
764.06	238.52
764.39	238.38
764.71	238.27
765.04	238.15
765.37	238.01
765.69	237.88
766.02	237.77
766.34	237.59
766.67	237.47
767.00	237.34
767.32	237.25
767.65	237.20
767.97	237.06
768.30	236.97
768.62	236.88
768.95	236.77
769.27	236.64
769.60	236.52
769.92	236.37
770.25	236.19
770.57	236.08
770.90	235.96
771.22	235.84
771.55	235.71
771.87	235.61
772.20	235.50
772.52	235.49
772.85	235.46
773.17	235.36
773.50	235.25
773.82	235.16
774.15	235.04
774.47	234.91
774.80	234.83
775.12	234.72
775.45	234.62
775.77	234.53
776.09	234.41
776.42	234.33
776.74	234.30
777.07	234.27
777.39	234.15
777.72	234.09
778.04	234.01
778.36	233.93
778.69	233.89
779.01	233.85
779.33	233.69
779.66	233.51
779.98	233.45
780.31	233.39
780.63	233.35
780.95	233.30
781.28	233.20
781.60	233.12
781.92	233.07
782.25	232.99
782.57	232.92
782.89	232.86
783.22	232.78
783.54	232.68
783.86	232.62
784.19	232.57
784.51	232.54
784.83	232.48
785.16	232.43
785.48	232.34
785.80	232.26
786.12	232.21
786.45	232.16
786.77	232.13
787.09	232.06
