SpectraSuite Data File
++++++++++++++++++++++++++++++++++++
Date: Fri Feb 01 17:35:56 EST 2013
User: group
Dark Spectrum Present: No
Reference Spectrum Present: No
Number of Sampled Component Spectra: 1
Spectrometers: USB2E7196
Integration Time (usec): 35000 (USB2E7196)
Spectra Averaged: 100 (USB2E7196)
Boxcar Smoothing: 10 (USB2E7196)
Correct for Electrical Dark: No (USB2E7196)
Strobe/Lamp Enabled: No (USB2E7196)
Correct for Detector Non-linearity: No (USB2E7196)
Correct for Stray Light: No (USB2E7196)
Number of Pixels in Processed Spectrum: 2048
>>>>>Begin Processed Spectral Data<<<<<
339.09	0.00
339.48	213.02
339.86	214.30
340.24	216.26
340.63	217.89
341.01	220.41
341.39	220.15
341.78	221.09
342.16	222.87
342.54	222.89
342.93	211.44
343.31	222.12
343.69	222.68
344.07	223.13
344.46	223.56
344.84	223.91
345.22	224.13
345.60	224.37
345.99	224.58
346.37	224.71
346.75	224.82
347.13	224.91
347.52	224.97
347.90	225.03
348.28	225.05
348.66	225.10
349.05	225.12
349.43	225.17
349.81	225.20
350.19	225.25
350.57	225.30
350.96	225.36
351.34	225.42
351.72	225.48
352.10	225.60
352.48	225.62
352.87	225.68
353.25	225.73
353.63	225.79
354.01	225.80
354.39	225.84
354.77	225.91
355.15	225.98
355.54	226.01
355.92	226.05
356.30	226.12
356.68	226.28
357.06	226.33
357.44	226.37
357.82	226.44
358.20	226.55
358.58	226.61
358.97	226.69
359.35	226.76
359.73	226.85
360.11	226.88
360.49	226.94
360.87	226.98
361.25	226.98
361.63	227.06
362.01	227.16
362.39	227.20
362.77	227.26
363.15	227.28
363.53	227.31
363.91	227.34
364.29	227.37
364.67	227.29
365.05	227.32
365.43	227.36
365.81	227.41
366.19	227.41
366.57	227.46
366.95	227.45
367.33	227.42
367.71	227.38
368.09	227.40
368.47	227.38
368.85	227.37
369.23	227.44
369.61	227.41
369.99	227.38
370.37	227.35
370.75	227.35
371.13	227.33
371.51	227.30
371.89	227.26
372.27	227.22
372.65	227.16
373.03	227.10
373.41	227.04
373.78	226.97
374.16	226.89
374.54	226.80
374.92	226.74
375.30	226.74
375.68	226.68
376.06	226.64
376.44	226.61
376.82	226.55
377.19	226.47
377.57	226.39
377.95	226.34
378.33	226.25
378.71	226.16
379.09	226.10
379.47	226.04
379.84	225.96
380.22	225.91
380.60	225.84
380.98	225.82
381.36	225.76
381.73	225.70
382.11	225.67
382.49	225.62
382.87	225.58
383.25	225.55
383.62	225.62
384.00	225.55
384.38	225.48
384.76	225.48
385.13	225.47
385.51	225.42
385.89	225.35
386.27	225.32
386.64	225.29
387.02	225.23
387.40	225.18
387.78	225.17
388.15	225.13
388.53	225.09
388.91	225.04
389.29	225.02
389.66	224.98
390.04	224.94
390.42	224.95
390.79	224.95
391.17	224.89
391.55	224.75
391.92	224.75
392.30	224.76
392.68	224.71
393.05	224.70
393.43	224.68
393.81	224.70
394.18	224.68
394.56	224.69
394.94	224.74
395.31	224.76
395.69	224.82
396.06	224.84
396.44	224.87
396.82	224.86
397.19	224.91
397.57	224.93
397.95	224.99
398.32	224.97
398.70	225.00
399.07	225.05
399.45	225.08
399.82	225.11
400.20	225.12
400.58	225.18
400.95	225.18
401.33	225.27
401.70	225.40
402.08	225.47
402.45	225.54
402.83	225.61
403.20	225.70
403.58	225.75
403.95	225.86
404.33	225.98
404.71	226.09
405.08	226.27
405.46	226.43
405.83	226.56
406.21	226.68
406.58	226.84
406.96	226.97
407.33	227.14
407.70	227.32
408.08	227.61
408.45	227.82
408.83	228.06
409.20	228.24
409.58	228.38
409.95	228.67
410.33	228.90
410.70	229.15
411.08	229.44
411.45	229.77
411.82	230.09
412.20	230.47
412.57	230.91
412.95	231.21
413.32	231.59
413.69	231.96
414.07	232.43
414.44	232.87
414.82	233.38
415.19	233.95
415.56	234.54
415.94	235.12
416.31	235.78
416.68	236.41
417.06	237.17
417.43	237.93
417.81	238.73
418.18	239.59
418.55	240.47
418.93	241.39
419.30	242.32
419.67	243.27
420.04	244.27
420.42	245.33
420.79	246.54
421.16	247.76
421.54	249.07
421.91	250.36
422.28	251.67
422.66	253.06
423.03	254.43
423.40	255.81
423.77	257.32
424.15	258.81
424.52	260.35
424.89	262.06
425.26	263.68
425.64	265.18
426.01	266.82
426.38	268.57
426.75	270.33
427.13	272.13
427.50	274.06
427.87	276.00
428.24	277.94
428.61	279.79
428.99	281.86
429.36	284.00
429.73	286.17
430.10	288.31
430.47	290.44
430.85	292.67
431.22	295.03
431.59	297.47
431.96	299.79
432.33	302.46
432.70	304.93
433.08	307.88
433.45	310.67
433.82	313.43
434.19	316.48
434.56	319.42
434.93	322.22
435.30	324.96
435.68	327.98
436.05	330.96
436.42	333.85
436.79	336.50
437.16	339.34
437.53	342.34
437.90	345.26
438.27	348.14
438.64	351.14
439.01	353.82
439.38	356.19
439.75	358.47
440.13	361.04
440.50	363.47
440.87	365.44
441.24	367.45
441.61	369.68
441.98	371.19
442.35	373.08
442.72	375.03
443.09	376.93
443.46	377.99
443.83	378.62
444.20	379.20
444.57	380.06
444.94	380.40
445.31	380.72
445.68	381.14
446.05	381.24
446.42	380.81
446.79	380.42
447.16	379.95
447.53	379.68
447.90	378.50
448.27	377.36
448.64	375.66
449.01	374.51
449.37	372.44
449.74	370.52
450.11	368.19
450.48	365.61
450.85	362.99
451.22	360.77
451.59	358.68
451.96	356.67
452.33	353.92
452.70	351.45
453.07	348.49
453.43	345.49
453.80	342.62
454.17	339.80
454.54	337.17
454.91	334.34
455.28	331.49
455.65	328.91
456.02	326.28
456.38	324.05
456.75	321.22
457.12	318.91
457.49	316.57
457.86	314.28
458.23	312.32
458.59	310.16
458.96	307.96
459.33	306.01
459.70	304.03
460.07	302.49
460.43	300.70
460.80	299.03
461.17	297.47
461.54	295.92
461.91	294.50
462.27	292.99
462.64	291.68
463.01	290.29
463.38	288.94
463.74	287.59
464.11	286.37
464.48	285.32
464.85	284.14
465.21	283.23
465.58	282.31
465.95	281.20
466.32	280.28
466.68	279.35
467.05	278.44
467.42	277.52
467.78	276.55
468.15	275.63
468.52	274.94
468.88	274.10
469.25	273.29
469.62	272.62
469.98	271.92
470.35	271.27
470.72	270.64
471.08	269.96
471.45	269.38
471.82	268.87
472.18	268.26
472.55	267.83
472.92	267.32
473.28	266.84
473.65	266.35
474.02	265.92
474.38	265.55
474.75	265.18
475.11	264.82
475.48	264.57
475.85	264.35
476.21	264.14
476.58	263.97
476.94	263.82
477.31	263.66
477.67	263.50
478.04	263.38
478.41	263.32
478.77	263.35
479.14	263.27
479.50	263.27
479.87	263.33
480.23	263.42
480.60	263.45
480.96	263.53
481.33	263.80
481.69	263.94
482.06	264.13
482.42	264.34
482.79	264.61
483.15	264.95
483.52	265.32
483.88	265.63
484.25	266.02
484.61	266.44
484.98	266.88
485.34	267.46
485.71	268.05
486.07	268.66
486.44	269.24
486.80	269.97
487.17	270.70
487.53	271.54
487.90	272.35
488.26	273.28
488.62	274.24
488.99	275.17
489.35	276.23
489.72	277.34
490.08	278.55
490.44	279.75
490.81	281.02
491.17	282.34
491.54	283.81
491.90	285.30
492.26	286.92
492.63	288.64
492.99	290.37
493.36	292.21
493.72	294.23
494.08	296.28
494.45	298.43
494.81	300.76
495.17	303.14
495.54	305.70
495.90	308.36
496.26	311.09
496.63	313.99
496.99	317.01
497.35	320.18
497.72	323.53
498.08	327.02
498.44	330.65
498.80	334.59
499.17	338.53
499.53	342.67
499.89	346.98
500.26	351.40
500.62	355.96
500.98	360.85
501.34	365.85
501.71	371.10
502.07	376.48
502.43	381.97
502.79	387.67
503.16	393.60
503.52	399.76
503.88	406.05
504.24	412.53
504.60	419.35
504.97	426.41
505.33	433.54
505.69	441.10
506.05	448.73
506.41	456.39
506.78	464.41
507.14	472.64
507.50	481.16
507.86	490.02
508.22	499.07
508.59	508.11
508.95	517.49
509.31	527.06
509.67	536.93
510.03	547.04
510.39	557.39
510.75	567.97
511.12	578.61
511.48	589.69
511.84	600.91
512.20	612.13
512.56	623.69
512.92	635.51
513.28	647.57
513.64	659.61
514.00	672.00
514.37	684.65
514.73	697.35
515.09	710.06
515.45	722.95
515.81	736.12
516.17	749.70
516.53	763.47
516.89	777.33
517.25	791.14
517.61	805.08
517.97	819.11
518.33	833.05
518.69	847.45
519.05	861.90
519.41	876.60
519.77	891.58
520.13	906.60
520.49	921.65
520.85	936.41
521.21	951.71
521.57	967.47
521.93	982.72
522.29	998.61
522.65	1014.33
523.01	1030.04
523.37	1045.51
523.73	1061.04
524.09	1076.52
524.45	1092.13
524.81	1108.14
525.17	1124.35
525.53	1140.61
525.89	1156.96
526.25	1173.27
526.61	1189.18
526.97	1205.33
527.33	1221.26
527.68	1237.36
528.04	1253.14
528.40	1269.36
528.76	1285.89
529.12	1301.88
529.48	1318.25
529.84	1333.76
530.20	1349.90
530.56	1366.30
530.91	1383.29
531.27	1399.79
531.63	1415.79
531.99	1432.04
532.35	1447.60
532.71	1463.13
533.07	1478.89
533.42	1494.38
533.78	1510.06
534.14	1525.86
534.50	1540.79
534.86	1556.37
535.21	1571.15
535.57	1586.72
535.93	1601.71
536.29	1616.15
536.65	1630.96
537.00	1645.29
537.36	1660.23
537.72	1674.40
538.08	1688.61
538.44	1702.10
538.79	1715.69
539.15	1729.02
539.51	1742.45
539.87	1756.58
540.22	1769.97
540.58	1783.47
540.94	1796.50
541.29	1809.08
541.65	1821.58
542.01	1834.53
542.37	1846.74
542.72	1858.95
543.08	1870.73
543.44	1883.08
543.79	1894.27
544.15	1904.97
544.51	1916.49
544.87	1927.38
545.22	1938.28
545.58	1948.44
545.94	1958.17
546.29	1967.90
546.65	1977.93
547.01	1987.30
547.36	1996.09
547.72	2004.70
548.07	2012.91
548.43	2021.22
548.79	2029.21
549.14	2037.00
549.50	2044.51
549.86	2052.17
550.21	2059.63
550.57	2067.04
550.92	2073.83
551.28	2081.07
551.64	2088.48
551.99	2095.24
552.35	2101.70
552.70	2107.93
553.06	2114.18
553.41	2120.86
553.77	2127.15
554.13	2133.39
554.48	2139.63
554.84	2145.60
555.19	2150.97
555.55	2156.43
555.90	2161.36
556.26	2166.82
556.61	2171.68
556.97	2176.52
557.32	2181.13
557.68	2185.72
558.03	2190.15
558.39	2194.15
558.74	2198.99
559.10	2203.19
559.45	2207.17
559.81	2211.75
560.16	2215.90
560.52	2219.56
560.87	2223.19
561.23	2226.31
561.58	2229.53
561.94	2232.46
562.29	2234.89
562.64	2238.31
563.00	2241.19
563.35	2245.03
563.71	2248.48
564.06	2252.03
564.42	2255.31
564.77	2258.26
565.12	2261.07
565.48	2263.60
565.83	2266.12
566.19	2268.16
566.54	2269.37
566.89	2271.14
567.25	2272.20
567.60	2273.94
567.96	2276.12
568.31	2277.47
568.66	2279.05
569.02	2280.13
569.37	2281.15
569.72	2282.62
570.08	2283.23
570.43	2283.69
570.78	2283.58
571.14	2282.48
571.49	2281.68
571.84	2281.50
572.20	2280.78
572.55	2280.01
572.90	2278.72
573.26	2277.65
573.61	2276.14
573.96	2275.14
574.31	2272.53
574.67	2270.03
575.02	2266.89
575.37	2263.81
575.72	2260.50
576.08	2257.54
576.43	2254.51
576.78	2251.22
577.13	2248.29
577.49	2245.15
577.84	2242.12
578.19	2238.68
578.54	2235.46
578.90	2231.76
579.25	2226.80
579.60	2222.39
579.95	2217.88
580.30	2213.32
580.66	2208.50
581.01	2203.87
581.36	2199.19
581.71	2195.47
582.06	2191.29
582.42	2187.27
582.77	2182.46
583.12	2178.33
583.47	2174.15
583.82	2169.81
584.17	2164.89
584.53	2159.66
584.88	2154.60
585.23	2149.12
585.58	2144.00
585.93	2138.86
586.28	2134.27
586.63	2129.57
586.98	2124.62
587.34	2120.14
587.69	2115.55
588.04	2110.70
588.39	2105.43
588.74	2099.13
589.09	2093.14
589.44	2086.89
589.79	2080.88
590.14	2075.43
590.49	2069.03
590.84	2062.71
591.19	2056.88
591.54	2050.71
591.89	2043.74
592.25	2037.45
592.60	2030.56
592.95	2023.16
593.30	2016.04
593.65	2008.60
594.00	2001.70
594.35	1994.78
594.70	1986.80
595.05	1979.88
595.40	1972.69
595.75	1965.41
596.10	1959.54
596.45	1953.06
596.80	1946.90
597.15	1940.66
597.50	1934.08
597.85	1927.89
598.19	1921.50
598.54	1914.68
598.89	1908.01
599.24	1902.24
599.59	1895.75
599.94	1889.54
600.29	1883.28
600.64	1876.75
600.99	1869.63
601.34	1862.95
601.69	1855.81
602.04	1849.33
602.39	1842.03
602.74	1835.23
603.08	1828.66
603.43	1821.88
603.78	1814.72
604.13	1807.72
604.48	1800.59
604.83	1793.66
605.18	1786.88
605.53	1778.85
605.87	1770.82
606.22	1763.80
606.57	1755.90
606.92	1748.25
607.27	1741.40
607.62	1734.71
607.96	1727.61
608.31	1721.10
608.66	1713.62
609.01	1706.39
609.36	1698.81
609.70	1690.80
610.05	1682.88
610.40	1675.23
610.75	1666.99
611.10	1659.33
611.44	1650.73
611.79	1642.51
612.14	1633.77
612.49	1624.41
612.83	1615.97
613.18	1607.62
613.53	1599.31
613.88	1590.81
614.22	1582.65
614.57	1573.73
614.92	1565.60
615.27	1558.01
615.61	1549.66
615.96	1541.48
616.31	1533.54
616.65	1526.06
617.00	1518.53
617.35	1510.65
617.70	1502.20
618.04	1493.63
618.39	1485.12
618.74	1477.64
619.08	1469.37
619.43	1461.60
619.78	1454.66
620.12	1447.49
620.47	1440.07
620.82	1431.85
621.16	1424.30
621.51	1416.53
621.85	1408.86
622.20	1400.23
622.55	1391.71
622.89	1383.60
623.24	1375.89
623.59	1368.32
623.93	1360.77
624.28	1353.30
624.62	1345.88
624.97	1338.62
625.32	1331.77
625.66	1324.68
626.01	1317.27
626.35	1309.97
626.70	1302.14
627.04	1294.37
627.39	1286.37
627.73	1278.89
628.08	1271.92
628.43	1264.55
628.77	1257.18
629.12	1249.65
629.46	1242.44
629.81	1234.93
630.15	1227.70
630.50	1220.19
630.84	1212.16
631.19	1204.03
631.53	1196.47
631.88	1188.68
632.22	1180.99
632.57	1173.49
632.91	1165.87
633.26	1158.48
633.60	1150.80
633.95	1143.52
634.29	1136.30
634.64	1129.57
634.98	1122.02
635.32	1114.83
635.67	1108.07
636.01	1101.31
636.36	1094.48
636.70	1087.86
637.05	1081.26
637.39	1074.72
637.73	1068.27
638.08	1062.26
638.42	1056.29
638.77	1049.88
639.11	1043.46
639.45	1037.01
639.80	1030.46
640.14	1024.14
640.49	1017.55
640.83	1011.17
641.17	1005.06
641.52	998.73
641.86	992.22
642.20	986.32
642.55	979.92
642.89	973.53
643.23	966.94
643.58	961.06
643.92	954.91
644.26	948.96
644.61	942.81
644.95	936.76
645.29	930.24
645.64	923.50
645.98	917.08
646.32	910.98
646.66	904.92
647.01	899.02
647.35	893.27
647.69	887.27
648.04	881.76
648.38	875.86
648.72	869.88
649.06	863.93
649.41	858.00
649.75	852.05
650.09	846.07
650.43	840.26
650.78	834.16
651.12	828.11
651.46	822.29
651.80	816.71
652.14	811.28
652.49	805.84
652.83	800.65
653.17	795.04
653.51	789.45
653.85	783.98
654.20	778.45
654.54	772.36
654.88	766.66
655.22	760.70
655.56	755.04
655.90	749.46
656.25	744.18
656.59	738.93
656.93	733.84
657.27	728.67
657.61	723.27
657.95	718.10
658.29	713.05
658.64	707.69
658.98	702.21
659.32	696.59
659.66	691.36
660.00	686.01
660.34	680.90
660.68	675.86
661.02	670.84
661.36	666.03
661.70	661.49
662.05	657.12
662.39	652.87
662.73	648.38
663.07	644.07
663.41	639.61
663.75	635.03
664.09	630.39
664.43	625.99
664.77	621.87
665.11	617.61
665.45	613.42
665.79	609.38
666.13	605.30
666.47	601.31
666.81	597.15
667.15	592.95
667.49	589.08
667.83	585.28
668.17	581.30
668.51	577.27
668.85	573.27
669.19	569.36
669.53	565.53
669.87	561.65
670.21	557.85
670.55	554.15
670.89	550.71
671.23	547.33
671.57	543.76
671.91	540.24
672.25	536.66
672.58	533.09
672.92	529.63
673.26	526.32
673.60	523.07
673.94	519.98
674.28	517.06
674.62	514.08
674.96	510.97
675.30	508.10
675.64	505.19
675.97	502.36
676.31	499.43
676.65	496.47
676.99	493.76
677.33	490.93
677.67	488.15
678.01	485.17
678.34	482.09
678.68	479.19
679.02	476.35
679.36	473.53
679.70	470.80
680.04	468.06
680.37	465.29
680.71	462.48
681.05	459.82
681.39	457.10
681.73	454.40
682.06	451.91
682.40	449.32
682.74	446.72
683.08	444.18
683.42	441.63
683.75	439.06
684.09	436.44
684.43	433.96
684.77	431.41
685.10	429.01
685.44	426.72
685.78	424.44
686.12	422.11
686.45	419.85
686.79	417.56
687.13	415.33
687.46	413.15
687.80	410.97
688.14	408.70
688.48	406.67
688.81	404.45
689.15	402.20
689.49	399.99
689.82	397.86
690.16	395.74
690.50	393.74
690.83	391.81
691.17	389.80
691.51	387.88
691.84	386.05
692.18	384.13
692.52	382.23
692.85	380.22
693.19	378.32
693.52	376.42
693.86	374.59
694.20	372.75
694.53	370.90
694.87	369.07
695.21	367.25
695.54	365.33
695.88	363.55
696.21	361.84
696.55	360.14
696.88	358.47
697.22	356.78
697.56	355.10
697.89	353.45
698.23	351.82
698.56	350.19
698.90	348.56
699.23	346.85
699.57	345.25
699.90	343.71
700.24	342.12
700.58	340.67
700.91	339.17
701.25	337.71
701.58	336.34
701.92	334.95
702.25	333.58
702.59	332.21
702.92	330.87
703.26	329.52
703.59	328.23
703.93	327.03
704.26	325.83
704.60	324.53
704.93	323.22
705.26	321.96
705.60	320.72
705.93	319.55
706.27	318.51
706.60	317.41
706.94	316.30
707.27	315.17
707.61	314.05
707.94	313.00
708.27	311.86
708.61	310.74
708.94	309.66
709.28	308.62
709.61	307.63
709.94	306.64
710.28	305.61
710.61	304.63
710.95	303.46
711.28	302.47
711.61	301.51
711.95	300.61
712.28	299.65
712.61	298.65
712.95	297.72
713.28	296.79
713.61	295.84
713.95	294.91
714.28	294.06
714.61	293.15
714.95	292.26
715.28	291.41
715.61	290.55
715.95	289.71
716.28	288.84
716.61	287.99
716.95	287.19
717.28	286.40
717.61	285.61
717.94	284.90
718.28	284.04
718.61	283.28
718.94	282.55
719.27	281.87
719.61	281.20
719.94	280.52
720.27	279.79
720.60	279.10
720.94	278.46
721.27	277.84
721.60	277.25
721.93	276.65
722.27	276.13
722.60	275.55
722.93	274.97
723.26	274.43
723.59	273.85
723.93	273.27
724.26	272.69
724.59	272.06
724.92	271.51
725.25	271.06
725.59	270.56
725.92	270.06
726.25	269.56
726.58	269.05
726.91	268.53
727.24	268.06
727.57	267.61
727.91	267.11
728.24	266.61
728.57	266.11
728.90	265.65
729.23	265.09
729.56	264.66
729.89	264.16
730.22	263.67
730.55	263.18
730.89	262.70
731.22	262.30
731.55	261.90
731.88	261.47
732.21	261.02
732.54	260.58
732.87	260.14
733.20	259.74
733.53	259.35
733.86	258.97
734.19	258.55
734.52	258.15
734.85	257.85
735.18	257.46
735.51	257.10
735.84	256.73
736.17	256.40
736.50	256.00
736.83	255.79
737.16	255.47
737.49	255.15
737.82	254.84
738.15	254.49
738.48	254.17
738.81	253.82
739.14	253.50
739.47	253.20
739.80	252.89
740.13	252.58
740.46	252.25
740.79	251.93
741.12	251.63
741.45	251.30
741.78	250.95
742.11	250.68
742.44	250.35
742.77	250.03
743.10	249.71
743.43	249.42
743.75	249.05
744.08	248.89
744.41	248.59
744.74	248.31
745.07	248.00
745.40	247.75
745.73	247.55
746.06	247.26
746.39	246.95
746.71	246.67
747.04	246.42
747.37	246.15
747.70	245.87
748.03	245.62
748.36	245.44
748.68	245.19
749.01	244.88
749.34	244.61
749.67	244.40
750.00	244.17
750.33	244.01
750.65	243.73
750.98	243.38
751.31	243.17
751.64	242.97
751.97	242.82
752.29	242.56
752.62	242.29
752.95	242.08
753.28	241.85
753.60	241.65
753.93	241.42
754.26	241.24
754.59	241.01
754.91	240.81
755.24	240.56
755.57	240.35
755.90	240.19
756.22	239.99
756.55	239.76
756.88	239.58
757.20	239.30
757.53	239.13
757.86	238.96
758.19	238.79
758.51	238.58
758.84	238.37
759.17	238.20
759.49	238.05
759.82	237.93
760.15	237.77
760.47	237.58
760.80	237.40
761.13	237.25
761.45	237.09
761.78	236.96
762.11	236.83
762.43	236.65
762.76	236.52
763.08	236.42
763.41	236.29
763.74	236.13
764.06	235.96
764.39	235.81
764.71	235.67
765.04	235.52
765.37	235.38
765.69	235.21
766.02	235.11
766.34	234.95
766.67	234.76
767.00	234.68
767.32	234.60
767.65	234.53
767.97	234.45
768.30	234.33
768.62	234.20
768.95	234.08
769.27	234.01
769.60	233.90
769.92	233.78
770.25	233.68
770.57	233.56
770.90	233.45
771.22	233.33
771.55	233.21
771.87	233.13
772.20	233.05
772.52	233.06
772.85	233.04
773.17	232.96
773.50	232.87
773.82	232.74
774.15	232.64
774.47	232.48
774.80	232.36
775.12	232.26
775.45	232.17
775.77	232.08
776.09	231.98
776.42	231.94
776.74	231.89
777.07	231.83
777.39	231.79
777.72	231.73
778.04	231.69
778.36	231.64
778.69	231.56
779.01	231.50
779.33	231.37
779.66	231.22
779.98	231.15
780.31	231.08
780.63	231.08
780.95	231.03
781.28	231.00
781.60	230.92
781.92	230.90
782.25	230.86
782.57	230.79
782.89	230.73
783.22	230.65
783.54	230.58
783.86	230.53
784.19	230.46
784.51	230.44
784.83	230.35
785.16	230.28
785.48	230.23
785.80	230.18
786.12	230.09
786.45	230.03
786.77	230.00
787.09	229.97
