SpectraSuite Data File
++++++++++++++++++++++++++++++++++++
Date: Fri Feb 01 16:05:10 EST 2013
User: group
Dark Spectrum Present: No
Reference Spectrum Present: No
Number of Sampled Component Spectra: 1
Spectrometers: USB2E7196
Integration Time (usec): 35000 (USB2E7196)
Spectra Averaged: 100 (USB2E7196)
Boxcar Smoothing: 10 (USB2E7196)
Correct for Electrical Dark: No (USB2E7196)
Strobe/Lamp Enabled: No (USB2E7196)
Correct for Detector Non-linearity: No (USB2E7196)
Correct for Stray Light: No (USB2E7196)
Number of Pixels in Processed Spectrum: 2048
>>>>>Begin Processed Spectral Data<<<<<
339.09	0.00
339.48	214.97
339.86	216.04
340.24	217.41
340.63	218.64
341.01	221.41
341.39	221.79
341.78	223.38
342.16	223.96
342.54	224.60
342.93	213.14
343.31	223.90
343.69	224.44
344.07	224.93
344.46	225.35
344.84	225.75
345.22	226.01
345.60	226.28
345.99	226.45
346.37	226.57
346.75	226.66
347.13	226.74
347.52	226.78
347.90	226.87
348.28	226.90
348.66	226.93
349.05	226.92
349.43	226.94
349.81	226.96
350.19	227.00
350.57	227.06
350.96	227.10
351.34	227.20
351.72	227.29
352.10	227.36
352.48	227.45
352.87	227.49
353.25	227.54
353.63	227.57
354.01	227.66
354.39	227.76
354.77	227.85
355.15	227.95
355.54	228.01
355.92	228.07
356.30	228.14
356.68	228.26
357.06	228.29
357.44	228.35
357.82	228.43
358.20	228.53
358.58	228.55
358.97	228.60
359.35	228.63
359.73	228.69
360.11	228.72
360.49	228.76
360.87	228.81
361.25	228.87
361.63	228.96
362.01	228.97
362.39	228.96
362.77	229.02
363.15	229.01
363.53	229.07
363.91	229.05
364.29	229.05
364.67	228.99
365.05	229.01
365.43	229.02
365.81	229.02
366.19	229.04
366.57	229.06
366.95	229.10
367.33	229.07
367.71	229.04
368.09	229.06
368.47	229.01
368.85	228.96
369.23	228.93
369.61	228.86
369.99	228.89
370.37	228.90
370.75	228.90
371.13	228.84
371.51	228.76
371.89	228.76
372.27	228.72
372.65	228.68
373.03	228.62
373.41	228.55
373.78	228.52
374.16	228.40
374.54	228.29
374.92	228.21
375.30	228.16
375.68	228.08
376.06	228.03
376.44	228.01
376.82	227.97
377.19	227.90
377.57	227.84
377.95	227.73
378.33	227.64
378.71	227.50
379.09	227.49
379.47	227.46
379.84	227.36
380.22	227.32
380.60	227.22
380.98	227.17
381.36	227.14
381.73	227.04
382.11	227.04
382.49	227.02
382.87	226.93
383.25	226.86
383.62	226.96
384.00	226.87
384.38	226.80
384.76	226.80
385.13	226.81
385.51	226.76
385.89	226.68
386.27	226.61
386.64	226.59
387.02	226.49
387.40	226.43
387.78	226.42
388.15	226.37
388.53	226.35
388.91	226.34
389.29	226.31
389.66	226.34
390.04	226.29
390.42	226.29
390.79	226.31
391.17	226.30
391.55	226.17
391.92	226.18
392.30	226.16
392.68	226.12
393.05	226.12
393.43	226.14
393.81	226.17
394.18	226.22
394.56	226.24
394.94	226.29
395.31	226.30
395.69	226.35
396.06	226.40
396.44	226.43
396.82	226.45
397.19	226.54
397.57	226.57
397.95	226.64
398.32	226.65
398.70	226.69
399.07	226.78
399.45	226.84
399.82	226.87
400.20	226.96
400.58	227.04
400.95	227.07
401.33	227.14
401.70	227.27
402.08	227.34
402.45	227.40
402.83	227.52
403.20	227.65
403.58	227.73
403.95	227.82
404.33	227.94
404.71	228.06
405.08	228.24
405.46	228.34
405.83	228.47
406.21	228.64
406.58	228.78
406.96	228.94
407.33	229.09
407.70	229.30
408.08	229.56
408.45	229.77
408.83	230.01
409.20	230.21
409.58	230.41
409.95	230.66
410.33	230.99
410.70	231.21
411.08	231.48
411.45	231.81
411.82	232.12
412.20	232.46
412.57	232.90
412.95	233.19
413.32	233.54
413.69	233.94
414.07	234.37
414.44	234.83
414.82	235.30
415.19	235.86
415.56	236.42
415.94	236.93
416.31	237.57
416.68	238.17
417.06	238.92
417.43	239.58
417.81	240.35
418.18	241.09
418.55	241.96
418.93	242.87
419.30	243.72
419.67	244.66
420.04	245.62
420.42	246.59
420.79	247.77
421.16	248.95
421.54	250.16
421.91	251.35
422.28	252.64
422.66	253.95
423.03	255.24
423.40	256.56
423.77	257.96
424.15	259.38
424.52	260.88
424.89	262.45
425.26	264.01
425.64	265.47
426.01	267.12
426.38	268.75
426.75	270.42
427.13	272.15
427.50	273.94
427.87	275.84
428.24	277.75
428.61	279.49
428.99	281.45
429.36	283.49
429.73	285.56
430.10	287.58
430.47	289.64
430.85	291.76
431.22	293.99
431.59	296.42
431.96	298.69
432.33	301.20
432.70	303.59
433.08	306.40
433.45	309.03
433.82	311.63
434.19	314.53
434.56	317.33
434.93	320.01
435.30	322.66
435.68	325.54
436.05	328.31
436.42	331.11
436.79	333.65
437.16	336.37
437.53	339.22
437.90	342.08
438.27	344.83
438.64	347.71
439.01	350.29
439.38	352.55
439.75	354.66
440.13	357.05
440.50	359.40
440.87	361.22
441.24	363.16
441.61	365.30
441.98	366.77
442.35	368.52
442.72	370.40
443.09	372.18
443.46	373.17
443.83	373.77
444.20	374.26
444.57	375.09
444.94	375.39
445.31	375.71
445.68	376.02
446.05	376.09
446.42	375.70
446.79	375.29
447.16	374.80
447.53	374.48
447.90	373.35
448.27	372.18
448.64	370.59
449.01	369.43
449.37	367.46
449.74	365.57
450.11	363.38
450.48	360.85
450.85	358.32
451.22	356.19
451.59	354.14
451.96	352.20
452.33	349.55
452.70	347.18
453.07	344.34
453.43	341.43
453.80	338.70
454.17	335.99
454.54	333.44
454.91	330.69
455.28	328.02
455.65	325.57
456.02	323.11
456.38	320.99
456.75	318.33
457.12	316.05
457.49	313.83
457.86	311.61
458.23	309.72
458.59	307.68
458.96	305.57
459.33	303.72
459.70	301.88
460.07	300.40
460.43	298.71
460.80	297.11
461.17	295.67
461.54	294.14
461.91	292.72
462.27	291.26
462.64	290.04
463.01	288.75
463.38	287.44
463.74	286.08
464.11	284.89
464.48	283.93
464.85	282.82
465.21	281.98
465.58	281.12
465.95	280.08
466.32	279.19
466.68	278.33
467.05	277.46
467.42	276.55
467.78	275.63
468.15	274.72
468.52	274.05
468.88	273.20
469.25	272.44
469.62	271.82
469.98	271.19
470.35	270.58
470.72	269.96
471.08	269.33
471.45	268.79
471.82	268.28
472.18	267.64
472.55	267.23
472.92	266.69
473.28	266.18
473.65	265.73
474.02	265.29
474.38	264.90
474.75	264.57
475.11	264.25
475.48	263.99
475.85	263.77
476.21	263.54
476.58	263.39
476.94	263.30
477.31	263.14
477.67	262.98
478.04	262.87
478.41	262.82
478.77	262.89
479.14	262.87
479.50	262.88
479.87	263.00
480.23	263.06
480.60	263.13
480.96	263.26
481.33	263.51
481.69	263.71
482.06	263.94
482.42	264.17
482.79	264.45
483.15	264.76
483.52	265.15
483.88	265.53
484.25	265.86
484.61	266.25
484.98	266.68
485.34	267.25
485.71	267.82
486.07	268.41
486.44	269.00
486.80	269.68
487.17	270.36
487.53	271.17
487.90	272.03
488.26	272.96
488.62	273.94
488.99	274.87
489.35	275.93
489.72	277.06
490.08	278.23
490.44	279.46
490.81	280.81
491.17	282.14
491.54	283.59
491.90	285.16
492.26	286.82
492.63	288.58
492.99	290.35
493.36	292.25
493.72	294.29
494.08	296.39
494.45	298.64
494.81	301.04
495.17	303.42
495.54	306.02
495.90	308.70
496.26	311.55
496.63	314.53
496.99	317.62
497.35	320.89
497.72	324.31
498.08	327.82
498.44	331.47
498.80	335.41
499.17	339.45
499.53	343.65
499.89	348.04
500.26	352.54
500.62	357.24
500.98	362.21
501.34	367.25
501.71	372.60
502.07	378.00
502.43	383.58
502.79	389.41
503.16	395.47
503.52	401.74
503.88	408.14
504.24	414.77
504.60	421.70
504.97	428.81
505.33	436.15
505.69	443.83
506.05	451.61
506.41	459.52
506.78	467.74
507.14	476.17
507.50	484.87
507.86	493.88
508.22	503.14
508.59	512.39
508.95	522.04
509.31	531.82
509.67	542.00
510.03	552.37
510.39	562.96
510.75	573.70
511.12	584.72
511.48	596.01
511.84	607.46
512.20	618.95
512.56	630.92
512.92	643.06
513.28	655.53
513.64	668.03
514.00	680.74
514.37	693.69
514.73	706.85
515.09	719.92
515.45	733.20
515.81	746.76
516.17	760.81
516.53	774.90
516.89	789.02
517.25	803.14
517.61	817.59
517.97	832.07
518.33	846.61
518.69	861.34
519.05	876.26
519.41	891.38
519.77	906.99
520.13	922.41
520.49	937.88
520.85	953.23
521.21	968.94
521.57	985.17
521.93	1000.92
522.29	1017.21
522.65	1033.41
523.01	1049.67
523.37	1065.71
523.73	1081.80
524.09	1097.89
524.45	1114.31
524.81	1131.01
525.17	1147.75
525.53	1164.62
525.89	1181.37
526.25	1198.24
526.61	1214.66
526.97	1231.43
527.33	1247.80
527.68	1264.49
528.04	1280.94
528.40	1297.53
528.76	1314.59
529.12	1331.15
529.48	1347.95
529.84	1363.88
530.20	1380.54
530.56	1397.47
530.91	1414.65
531.27	1431.34
531.63	1447.89
531.99	1464.38
532.35	1480.23
532.71	1496.05
533.07	1512.15
533.42	1528.08
533.78	1544.03
534.14	1560.23
534.50	1575.60
534.86	1591.42
535.21	1606.31
535.57	1622.19
535.93	1637.59
536.29	1652.19
536.65	1667.18
537.00	1681.94
537.36	1697.19
537.72	1711.58
538.08	1725.86
538.44	1739.66
538.79	1753.45
539.15	1766.98
539.51	1780.79
539.87	1795.12
540.22	1808.85
540.58	1822.57
540.94	1835.80
541.29	1848.69
541.65	1861.30
542.01	1874.41
542.37	1886.74
542.72	1899.32
543.08	1911.10
543.44	1923.31
543.79	1934.70
544.15	1945.80
544.51	1957.38
544.87	1968.31
545.22	1979.13
545.58	1989.41
545.94	1999.27
546.29	2009.08
546.65	2018.99
547.01	2028.11
547.36	2036.84
547.72	2045.21
548.07	2053.13
548.43	2061.33
548.79	2069.29
549.14	2076.87
549.50	2084.06
549.86	2091.69
550.21	2098.90
550.57	2106.00
550.92	2112.77
551.28	2119.87
551.64	2126.84
551.99	2133.26
552.35	2139.50
552.70	2145.72
553.06	2151.72
553.41	2158.05
553.77	2164.12
554.13	2169.88
554.48	2176.01
554.84	2181.53
555.19	2186.93
555.55	2192.10
555.90	2196.67
556.26	2201.51
556.61	2206.22
556.97	2210.69
557.32	2214.92
557.68	2219.14
558.03	2223.45
558.39	2226.86
558.74	2231.34
559.10	2235.19
559.45	2238.80
559.81	2243.06
560.16	2246.85
560.52	2250.02
560.87	2253.49
561.23	2256.19
561.58	2259.25
561.94	2261.79
562.29	2264.09
562.64	2266.76
563.00	2269.42
563.35	2272.89
563.71	2275.97
564.06	2279.15
564.42	2282.07
564.77	2284.47
565.12	2286.69
565.48	2288.70
565.83	2290.81
566.19	2292.18
566.54	2293.00
566.89	2294.32
567.25	2294.91
567.60	2296.29
567.96	2298.06
568.31	2298.81
568.66	2299.89
569.02	2300.60
569.37	2300.91
569.72	2301.83
570.08	2301.88
570.43	2301.83
570.78	2301.15
571.14	2299.80
571.49	2298.60
571.84	2298.21
572.20	2297.13
572.55	2296.12
572.90	2294.38
573.26	2293.01
573.61	2291.19
573.96	2289.59
574.31	2286.57
574.67	2283.75
575.02	2279.94
575.37	2276.49
575.72	2272.82
576.08	2269.53
576.43	2266.19
576.78	2262.51
577.13	2259.30
577.49	2256.35
577.84	2252.95
578.19	2249.25
578.54	2245.58
578.90	2241.32
579.25	2235.69
579.60	2230.91
579.95	2225.98
580.30	2220.91
580.66	2215.74
581.01	2211.00
581.36	2206.15
581.71	2202.08
582.06	2197.60
582.42	2193.33
582.77	2188.15
583.12	2183.59
583.47	2178.92
583.82	2173.93
584.17	2168.83
584.53	2163.28
584.88	2157.73
585.23	2151.94
585.58	2146.54
585.93	2140.99
586.28	2136.19
586.63	2131.27
586.98	2126.13
587.34	2121.44
587.69	2116.69
588.04	2111.41
588.39	2105.65
588.74	2099.04
589.09	2092.83
589.44	2086.04
589.79	2079.94
590.14	2074.42
590.49	2067.77
590.84	2061.35
591.19	2055.29
591.54	2048.73
591.89	2041.46
592.25	2034.51
592.60	2027.37
592.95	2019.74
593.30	2012.40
593.65	2004.87
594.00	1997.66
594.35	1990.31
594.70	1982.13
595.05	1974.97
595.40	1967.81
595.75	1960.36
596.10	1954.25
596.45	1947.52
596.80	1941.25
597.15	1934.72
597.50	1927.63
597.85	1921.11
598.19	1914.48
598.54	1907.42
598.89	1900.76
599.24	1894.85
599.59	1888.25
599.94	1881.98
600.29	1875.63
600.64	1869.03
600.99	1861.63
601.34	1854.87
601.69	1847.84
602.04	1841.14
602.39	1833.66
602.74	1826.79
603.08	1820.03
603.43	1813.15
603.78	1805.87
604.13	1798.62
604.48	1791.33
604.83	1784.38
605.18	1777.61
605.53	1769.68
605.87	1761.65
606.22	1754.31
606.57	1746.31
606.92	1738.94
607.27	1731.86
607.62	1725.04
607.96	1717.88
608.31	1711.27
608.66	1703.79
609.01	1696.35
609.36	1688.83
609.70	1680.86
610.05	1672.83
610.40	1665.26
610.75	1657.02
611.10	1649.35
611.44	1641.02
611.79	1633.02
612.14	1624.41
612.49	1615.18
612.83	1606.79
613.18	1598.75
613.53	1590.81
613.88	1582.36
614.22	1574.11
614.57	1565.52
614.92	1557.56
615.27	1550.05
615.61	1541.60
615.96	1533.53
616.31	1525.90
616.65	1518.34
617.00	1510.81
617.35	1503.16
617.70	1494.74
618.04	1486.23
618.39	1477.95
618.74	1470.34
619.08	1461.97
619.43	1454.31
619.78	1447.45
620.12	1440.27
620.47	1432.75
620.82	1424.63
621.16	1417.09
621.51	1409.42
621.85	1401.72
622.20	1393.06
622.55	1384.55
622.89	1376.73
623.24	1369.02
623.59	1361.54
623.93	1354.08
624.28	1346.88
624.62	1339.26
624.97	1332.15
625.32	1325.47
625.66	1318.49
626.01	1311.35
626.35	1304.02
626.70	1296.24
627.04	1288.48
627.39	1280.71
627.73	1273.32
628.08	1266.30
628.43	1259.14
628.77	1251.91
629.12	1244.31
629.46	1237.28
629.81	1229.90
630.15	1222.71
630.50	1215.40
630.84	1207.29
631.19	1199.28
631.53	1191.72
631.88	1184.15
632.22	1176.47
632.57	1169.09
632.91	1161.54
633.26	1154.04
633.60	1146.56
633.95	1139.39
634.29	1132.32
634.64	1125.55
634.98	1118.21
635.32	1111.13
635.67	1104.47
636.01	1097.64
636.36	1090.85
636.70	1084.20
637.05	1077.61
637.39	1071.11
637.73	1064.64
638.08	1058.65
638.42	1052.67
638.77	1046.29
639.11	1039.83
639.45	1033.38
639.80	1026.68
640.14	1020.19
640.49	1013.71
640.83	1007.38
641.17	1001.20
641.52	994.84
641.86	988.34
642.20	982.42
642.55	976.07
642.89	969.57
643.23	963.10
643.58	957.36
643.92	951.16
644.26	945.18
644.61	939.08
644.95	932.94
645.29	926.45
645.64	919.67
645.98	913.35
646.32	907.48
646.66	901.51
647.01	895.75
647.35	890.03
647.69	884.14
648.04	878.60
648.38	872.85
648.72	866.82
649.06	860.82
649.41	854.93
649.75	848.97
650.09	843.02
650.43	837.25
650.78	831.11
651.12	825.22
651.46	819.46
651.80	813.82
652.14	808.44
652.49	803.08
652.83	797.91
653.17	792.14
653.51	786.40
653.85	780.94
654.20	775.30
654.54	769.27
654.88	763.56
655.22	757.65
655.56	752.06
655.90	746.61
656.25	741.36
656.59	736.03
656.93	730.97
657.27	725.86
657.61	720.38
657.95	715.21
658.29	709.98
658.64	704.71
658.98	699.38
659.32	693.95
659.66	688.70
660.00	683.47
660.34	678.57
660.68	673.64
661.02	668.67
661.36	663.94
661.70	659.42
662.05	655.08
662.39	650.79
662.73	646.19
663.07	641.78
663.41	637.32
663.75	632.76
664.09	628.14
664.43	623.66
664.77	619.63
665.11	615.38
665.45	611.28
665.79	607.24
666.13	603.09
666.47	598.97
666.81	594.78
667.15	590.62
667.49	586.68
667.83	582.85
668.17	578.85
668.51	574.73
668.85	570.73
669.19	566.87
669.53	563.03
669.87	559.20
670.21	555.52
670.55	551.86
670.89	548.41
671.23	544.97
671.57	541.48
671.91	537.86
672.25	534.42
672.58	530.94
672.92	527.49
673.26	524.30
673.60	521.18
673.94	518.12
674.28	515.19
674.62	512.24
674.96	509.07
675.30	506.24
675.64	503.35
675.97	500.63
676.31	497.75
676.65	494.78
676.99	492.07
677.33	489.19
677.67	486.37
678.01	483.35
678.34	480.39
678.68	477.55
679.02	474.80
679.36	471.99
679.70	469.31
680.04	466.53
680.37	463.64
680.71	460.83
681.05	458.20
681.39	455.53
681.73	452.88
682.06	450.37
682.40	447.79
682.74	445.25
683.08	442.63
683.42	440.00
683.75	437.53
684.09	435.01
684.43	432.52
684.77	430.06
685.10	427.69
685.44	425.39
685.78	423.04
686.12	420.73
686.45	418.47
686.79	416.11
687.13	413.97
687.46	411.82
687.80	409.62
688.14	407.36
688.48	405.27
688.81	402.99
689.15	400.79
689.49	398.64
689.82	396.54
690.16	394.49
690.50	392.59
690.83	390.65
691.17	388.62
691.51	386.75
691.84	384.90
692.18	383.01
692.52	381.02
692.85	379.13
693.19	377.23
693.52	375.36
693.86	373.56
694.20	371.75
694.53	369.95
694.87	368.07
695.21	366.33
695.54	364.51
695.88	362.82
696.21	361.12
696.55	359.41
696.88	357.74
697.22	356.07
697.56	354.38
697.89	352.73
698.23	351.12
698.56	349.47
698.90	347.87
699.23	346.23
699.57	344.64
699.90	343.07
700.24	341.53
700.58	340.03
700.91	338.54
701.25	337.06
701.58	335.72
701.92	334.38
702.25	332.98
702.59	331.61
702.92	330.27
703.26	328.96
703.59	327.73
703.93	326.50
704.26	325.25
704.60	323.97
704.93	322.68
705.26	321.42
705.60	320.25
705.93	319.11
706.27	318.06
706.60	317.03
706.94	315.94
707.27	314.82
707.61	313.71
707.94	312.63
708.27	311.52
708.61	310.43
708.94	309.41
709.28	308.39
709.61	307.42
709.94	306.46
710.28	305.49
710.61	304.50
710.95	303.44
711.28	302.57
711.61	301.59
711.95	300.70
712.28	299.81
712.61	298.86
712.95	297.92
713.28	296.99
713.61	296.10
713.95	295.23
714.28	294.38
714.61	293.54
714.95	292.74
715.28	291.90
715.61	291.01
715.95	290.22
716.28	289.42
716.61	288.58
716.95	287.77
717.28	286.99
717.61	286.23
717.94	285.49
718.28	284.64
718.61	283.95
718.94	283.24
719.27	282.56
719.61	281.90
719.94	281.22
720.27	280.53
720.60	279.87
720.94	279.25
721.27	278.65
721.60	278.10
721.93	277.52
722.27	276.97
722.60	276.44
722.93	275.80
723.26	275.23
723.59	274.68
723.93	274.13
724.26	273.54
724.59	272.97
724.92	272.45
725.25	271.97
725.59	271.42
725.92	270.90
726.25	270.38
726.58	269.86
726.91	269.39
727.24	268.92
727.57	268.45
727.91	267.91
728.24	267.44
728.57	266.93
728.90	266.45
729.23	265.96
729.56	265.55
729.89	265.13
730.22	264.65
730.55	264.19
730.89	263.76
731.22	263.34
731.55	262.91
731.88	262.50
732.21	262.08
732.54	261.68
732.87	261.27
733.20	260.90
733.53	260.55
733.86	260.19
734.19	259.81
734.52	259.43
734.85	259.18
735.18	258.78
735.51	258.45
735.84	258.08
736.17	257.73
736.50	257.31
736.83	257.08
737.16	256.77
737.49	256.44
737.82	256.12
738.15	255.81
738.48	255.49
738.81	255.14
739.14	254.80
739.47	254.51
739.80	254.22
740.13	253.88
740.46	253.58
740.79	253.22
741.12	252.89
741.45	252.59
741.78	252.20
742.11	251.90
742.44	251.55
742.77	251.25
743.10	250.98
743.43	250.70
743.75	250.32
744.08	250.18
744.41	249.89
744.74	249.63
745.07	249.34
745.40	249.07
745.73	248.85
746.06	248.59
746.39	248.30
746.71	248.03
747.04	247.75
747.37	247.44
747.70	247.20
748.03	246.96
748.36	246.73
748.68	246.48
749.01	246.21
749.34	246.00
749.67	245.75
750.00	245.52
750.33	245.32
750.65	245.09
750.98	244.73
751.31	244.54
751.64	244.32
751.97	244.12
752.29	243.87
752.62	243.57
752.95	243.35
753.28	243.14
753.60	242.90
753.93	242.72
754.26	242.51
754.59	242.28
754.91	242.07
755.24	241.82
755.57	241.63
755.90	241.45
756.22	241.23
756.55	241.00
756.88	240.78
757.20	240.54
757.53	240.33
757.86	240.13
758.19	239.92
758.51	239.72
758.84	239.52
759.17	239.35
759.49	239.19
759.82	239.03
760.15	238.89
760.47	238.71
760.80	238.53
761.13	238.39
761.45	238.24
761.78	238.09
762.11	237.97
762.43	237.80
762.76	237.64
763.08	237.51
763.41	237.38
763.74	237.25
764.06	237.10
764.39	236.97
764.71	236.85
765.04	236.72
765.37	236.58
765.69	236.46
766.02	236.33
766.34	236.21
766.67	236.09
767.00	235.96
767.32	235.92
767.65	235.87
767.97	235.77
768.30	235.66
768.62	235.50
768.95	235.37
769.27	235.31
769.60	235.20
769.92	235.12
770.25	235.02
770.57	234.87
770.90	234.77
771.22	234.69
771.55	234.59
771.87	234.52
772.20	234.44
772.52	234.42
772.85	234.44
773.17	234.38
773.50	234.28
773.82	234.20
774.15	234.07
774.47	233.96
774.80	233.87
775.12	233.79
775.45	233.78
775.77	233.72
776.09	233.63
776.42	233.60
776.74	233.51
777.07	233.47
777.39	233.44
777.72	233.40
778.04	233.36
778.36	233.29
778.69	233.23
779.01	233.20
779.33	233.07
779.66	232.92
779.98	232.86
780.31	232.83
780.63	232.78
780.95	232.78
781.28	232.70
781.60	232.62
781.92	232.57
782.25	232.47
782.57	232.41
782.89	232.35
783.22	232.28
783.54	232.24
783.86	232.17
784.19	232.13
784.51	232.09
784.83	232.03
785.16	231.98
785.48	231.92
785.80	231.84
786.12	231.80
786.45	231.76
786.77	231.73
787.09	231.67
