SpectraSuite Data File
++++++++++++++++++++++++++++++++++++
Date: Fri Feb 01 16:25:11 EST 2013
User: group
Dark Spectrum Present: No
Reference Spectrum Present: No
Number of Sampled Component Spectra: 1
Spectrometers: USB2E7196
Integration Time (usec): 35000 (USB2E7196)
Spectra Averaged: 100 (USB2E7196)
Boxcar Smoothing: 10 (USB2E7196)
Correct for Electrical Dark: No (USB2E7196)
Strobe/Lamp Enabled: No (USB2E7196)
Correct for Detector Non-linearity: No (USB2E7196)
Correct for Stray Light: No (USB2E7196)
Number of Pixels in Processed Spectrum: 2048
>>>>>Begin Processed Spectral Data<<<<<
339.09	0.00
339.48	213.87
339.86	215.45
340.24	217.38
340.63	218.73
341.01	220.53
341.39	220.90
341.78	222.00
342.16	223.54
342.54	223.86
342.93	212.49
343.31	223.21
343.69	223.77
344.07	224.24
344.46	224.63
344.84	224.99
345.22	225.24
345.60	225.49
345.99	225.70
346.37	225.85
346.75	225.95
347.13	226.01
347.52	226.08
347.90	226.12
348.28	226.16
348.66	226.25
349.05	226.26
349.43	226.31
349.81	226.37
350.19	226.42
350.57	226.45
350.96	226.52
351.34	226.61
351.72	226.71
352.10	226.81
352.48	226.91
352.87	226.96
353.25	227.04
353.63	227.10
354.01	227.20
354.39	227.28
354.77	227.37
355.15	227.48
355.54	227.54
355.92	227.60
356.30	227.69
356.68	227.77
357.06	227.84
357.44	227.88
357.82	227.96
358.20	228.02
358.58	228.14
358.97	228.18
359.35	228.25
359.73	228.33
360.11	228.39
360.49	228.45
360.87	228.51
361.25	228.58
361.63	228.68
362.01	228.69
362.39	228.70
362.77	228.75
363.15	228.79
363.53	228.81
363.91	228.83
364.29	228.84
364.67	228.78
365.05	228.79
365.43	228.82
365.81	228.83
366.19	228.89
366.57	228.90
366.95	228.90
367.33	228.89
367.71	228.87
368.09	228.85
368.47	228.83
368.85	228.79
369.23	228.76
369.61	228.67
369.99	228.66
370.37	228.62
370.75	228.61
371.13	228.53
371.51	228.45
371.89	228.43
372.27	228.37
372.65	228.35
373.03	228.30
373.41	228.23
373.78	228.13
374.16	228.00
374.54	227.93
374.92	227.88
375.30	227.81
375.68	227.70
376.06	227.66
376.44	227.57
376.82	227.54
377.19	227.47
377.57	227.40
377.95	227.27
378.33	227.20
378.71	227.09
379.09	227.02
379.47	226.97
379.84	226.87
380.22	226.79
380.60	226.67
380.98	226.59
381.36	226.50
381.73	226.46
382.11	226.43
382.49	226.32
382.87	226.23
383.25	226.17
383.62	226.21
384.00	226.14
384.38	226.06
384.76	226.02
385.13	226.00
385.51	225.94
385.89	225.94
386.27	225.88
386.64	225.82
387.02	225.77
387.40	225.73
387.78	225.68
388.15	225.66
388.53	225.62
388.91	225.57
389.29	225.55
389.66	225.52
390.04	225.48
390.42	225.51
390.79	225.49
391.17	225.50
391.55	225.38
391.92	225.32
392.30	225.32
392.68	225.26
393.05	225.27
393.43	225.29
393.81	225.32
394.18	225.33
394.56	225.33
394.94	225.36
395.31	225.37
395.69	225.41
396.06	225.45
396.44	225.48
396.82	225.52
397.19	225.61
397.57	225.65
397.95	225.69
398.32	225.69
398.70	225.76
399.07	225.81
399.45	225.84
399.82	225.92
400.20	225.99
400.58	226.10
400.95	226.12
401.33	226.22
401.70	226.34
402.08	226.44
402.45	226.54
402.83	226.64
403.20	226.77
403.58	226.85
403.95	226.96
404.33	227.10
404.71	227.25
405.08	227.40
405.46	227.52
405.83	227.67
406.21	227.84
406.58	227.95
406.96	228.12
407.33	228.32
407.70	228.53
408.08	228.81
408.45	228.99
408.83	229.20
409.20	229.40
409.58	229.55
409.95	229.77
410.33	230.02
410.70	230.28
411.08	230.57
411.45	230.88
411.82	231.21
412.20	231.56
412.57	231.93
412.95	232.26
413.32	232.67
413.69	233.08
414.07	233.51
414.44	233.96
414.82	234.41
415.19	234.95
415.56	235.47
415.94	235.98
416.31	236.63
416.68	237.22
417.06	237.93
417.43	238.61
417.81	239.38
418.18	240.17
418.55	241.02
418.93	241.85
419.30	242.75
419.67	243.67
420.04	244.61
420.42	245.59
420.79	246.75
421.16	247.87
421.54	249.05
421.91	250.23
422.28	251.48
422.66	252.80
423.03	254.13
423.40	255.46
423.77	256.88
424.15	258.29
424.52	259.84
424.89	261.44
425.26	262.98
425.64	264.43
426.01	266.03
426.38	267.66
426.75	269.35
427.13	271.09
427.50	272.91
427.87	274.79
428.24	276.62
428.61	278.34
428.99	280.30
429.36	282.39
429.73	284.43
430.10	286.47
430.47	288.56
430.85	290.67
431.22	292.90
431.59	295.30
431.96	297.53
432.33	299.98
432.70	302.31
433.08	305.13
433.45	307.75
433.82	310.36
434.19	313.24
434.56	316.05
434.93	318.70
435.30	321.28
435.68	324.17
436.05	327.00
436.42	329.82
436.79	332.34
437.16	335.01
437.53	337.93
437.90	340.71
438.27	343.44
438.64	346.28
439.01	348.92
439.38	351.13
439.75	353.29
440.13	355.78
440.50	358.16
440.87	359.99
441.24	361.97
441.61	364.10
441.98	365.62
442.35	367.40
442.72	369.25
443.09	371.05
443.46	372.05
443.83	372.68
444.20	373.18
444.57	374.01
444.94	374.32
445.31	374.62
445.68	375.01
446.05	375.05
446.42	374.69
446.79	374.21
447.16	373.76
447.53	373.45
447.90	372.25
448.27	371.12
448.64	369.56
449.01	368.42
449.37	366.42
449.74	364.51
450.11	362.29
450.48	359.85
450.85	357.36
451.22	355.25
451.59	353.21
451.96	351.29
452.33	348.71
452.70	346.36
453.07	343.57
453.43	340.71
453.80	337.96
454.17	335.27
454.54	332.75
454.91	330.05
455.28	327.39
455.65	324.95
456.02	322.51
456.38	320.37
456.75	317.73
457.12	315.54
457.49	313.30
457.86	311.13
458.23	309.29
458.59	307.24
458.96	305.16
459.33	303.32
459.70	301.42
460.07	299.87
460.43	298.13
460.80	296.54
461.17	295.09
461.54	293.61
461.91	292.20
462.27	290.81
462.64	289.54
463.01	288.22
463.38	286.93
463.74	285.57
464.11	284.39
464.48	283.39
464.85	282.26
465.21	281.43
465.58	280.54
465.95	279.40
466.32	278.51
466.68	277.58
467.05	276.68
467.42	275.86
467.78	274.97
468.15	274.13
468.52	273.42
468.88	272.56
469.25	271.80
469.62	271.18
469.98	270.46
470.35	269.81
470.72	269.20
471.08	268.56
471.45	268.02
471.82	267.48
472.18	266.84
472.55	266.42
472.92	265.88
473.28	265.39
473.65	264.99
474.02	264.54
474.38	264.17
474.75	263.85
475.11	263.52
475.48	263.28
475.85	263.04
476.21	262.80
476.58	262.63
476.94	262.46
477.31	262.28
477.67	262.14
478.04	262.06
478.41	261.98
478.77	262.03
479.14	261.92
479.50	261.96
479.87	262.05
480.23	262.14
480.60	262.22
480.96	262.32
481.33	262.51
481.69	262.71
482.06	262.94
482.42	263.14
482.79	263.36
483.15	263.68
483.52	264.09
483.88	264.47
484.25	264.88
484.61	265.35
484.98	265.82
485.34	266.42
485.71	267.06
486.07	267.68
486.44	268.29
486.80	269.05
487.17	269.80
487.53	270.64
487.90	271.50
488.26	272.47
488.62	273.47
488.99	274.49
489.35	275.55
489.72	276.67
490.08	277.92
490.44	279.19
490.81	280.51
491.17	281.83
491.54	283.34
491.90	284.91
492.26	286.55
492.63	288.29
492.99	290.05
493.36	291.94
493.72	294.01
494.08	296.13
494.45	298.37
494.81	300.76
495.17	303.20
495.54	305.76
495.90	308.44
496.26	311.29
496.63	314.24
496.99	317.39
497.35	320.63
497.72	324.01
498.08	327.55
498.44	331.26
498.80	335.22
499.17	339.23
499.53	343.38
499.89	347.77
500.26	352.30
500.62	357.05
500.98	362.05
501.34	367.12
501.71	372.44
502.07	377.90
502.43	383.49
502.79	389.34
503.16	395.43
503.52	401.76
503.88	408.15
504.24	414.80
504.60	421.64
504.97	428.77
505.33	436.08
505.69	443.76
506.05	451.53
506.41	459.36
506.78	467.56
507.14	475.95
507.50	484.63
507.86	493.60
508.22	502.77
508.59	511.92
508.95	521.53
509.31	531.27
509.67	541.36
510.03	551.69
510.39	562.21
510.75	572.98
511.12	583.79
511.48	595.12
511.84	606.59
512.20	618.12
512.56	630.09
512.92	642.28
513.28	654.68
513.64	667.19
514.00	679.89
514.37	692.73
514.73	705.81
515.09	718.81
515.45	732.15
515.81	745.73
516.17	759.73
516.53	773.87
516.89	788.06
517.25	802.23
517.61	816.58
517.97	831.02
518.33	845.41
518.69	860.18
519.05	875.08
519.41	890.16
519.77	905.62
520.13	921.00
520.49	936.28
520.85	951.63
521.21	967.26
521.57	983.49
521.93	999.26
522.29	1015.57
522.65	1031.76
523.01	1047.82
523.37	1063.69
523.73	1079.84
524.09	1095.75
524.45	1112.03
524.81	1128.63
525.17	1145.34
525.53	1162.19
525.89	1178.98
526.25	1195.88
526.61	1212.28
526.97	1228.89
527.33	1245.40
527.68	1261.89
528.04	1278.36
528.40	1294.89
528.76	1311.87
529.12	1328.36
529.48	1345.15
529.84	1361.09
530.20	1377.59
530.56	1394.53
530.91	1411.97
531.27	1428.57
531.63	1445.02
531.99	1461.48
532.35	1477.21
532.71	1493.02
533.07	1509.24
533.42	1525.04
533.78	1541.00
534.14	1557.20
534.50	1572.58
534.86	1588.29
535.21	1603.50
535.57	1619.38
535.93	1634.72
536.29	1649.50
536.65	1664.52
537.00	1679.26
537.36	1694.49
537.72	1709.03
538.08	1723.36
538.44	1736.95
538.79	1750.73
539.15	1764.38
539.51	1777.98
539.87	1792.34
540.22	1806.07
540.58	1819.74
540.94	1833.09
541.29	1845.83
541.65	1858.34
542.01	1871.40
542.37	1883.70
542.72	1896.03
543.08	1907.64
543.44	1919.80
543.79	1930.81
544.15	1941.72
544.51	1953.11
544.87	1964.07
545.22	1974.80
545.58	1984.96
545.94	1994.67
546.29	2004.53
546.65	2014.20
547.01	2023.50
547.36	2032.17
547.72	2040.58
548.07	2048.23
548.43	2056.26
548.79	2064.37
549.14	2071.88
549.50	2079.14
549.86	2086.58
550.21	2093.93
550.57	2101.08
550.92	2107.68
551.28	2114.82
551.64	2121.76
551.99	2128.27
552.35	2134.42
552.70	2140.62
553.06	2146.60
553.41	2152.95
553.77	2158.87
554.13	2164.95
554.48	2171.02
554.84	2176.55
555.19	2181.83
555.55	2187.03
555.90	2191.45
556.26	2196.12
556.61	2200.90
556.97	2205.34
557.32	2209.56
557.68	2213.58
558.03	2217.79
558.39	2221.63
558.74	2226.24
559.10	2230.15
559.45	2233.98
559.81	2238.11
560.16	2241.84
560.52	2245.07
560.87	2248.51
561.23	2251.23
561.58	2254.21
561.94	2256.66
562.29	2258.88
562.64	2261.41
563.00	2263.99
563.35	2267.60
563.71	2270.78
564.06	2273.92
564.42	2276.65
564.77	2279.19
565.12	2281.43
565.48	2283.42
565.83	2285.39
566.19	2286.59
566.54	2287.48
566.89	2288.54
567.25	2289.23
567.60	2290.48
567.96	2292.28
568.31	2293.17
568.66	2294.34
569.02	2294.93
569.37	2295.29
569.72	2296.28
570.08	2296.50
570.43	2296.60
570.78	2296.05
571.14	2294.61
571.49	2293.24
571.84	2293.01
572.20	2291.87
572.55	2291.01
572.90	2289.44
573.26	2288.01
573.61	2286.48
573.96	2284.83
574.31	2281.89
574.67	2278.89
575.02	2275.46
575.37	2272.05
575.72	2268.28
576.08	2264.92
576.43	2261.55
576.78	2257.98
577.13	2254.77
577.49	2251.91
577.84	2248.54
578.19	2244.88
578.54	2241.27
578.90	2237.27
579.25	2231.68
579.60	2226.80
579.95	2221.74
580.30	2216.96
580.66	2211.82
581.01	2206.91
581.36	2202.08
581.71	2197.98
582.06	2193.55
582.42	2189.19
582.77	2184.16
583.12	2179.60
583.47	2175.01
583.82	2170.28
584.17	2165.15
584.53	2159.86
584.88	2154.18
585.23	2148.35
585.58	2142.88
585.93	2137.50
586.28	2132.70
586.63	2127.84
586.98	2122.95
587.34	2118.37
587.69	2113.36
588.04	2108.08
588.39	2102.56
588.74	2096.02
589.09	2090.03
589.44	2083.38
589.79	2077.31
590.14	2071.65
590.49	2065.31
590.84	2059.06
591.19	2053.01
591.54	2046.65
591.89	2039.21
592.25	2032.39
592.60	2025.36
592.95	2017.90
593.30	2010.58
593.65	2003.09
594.00	1996.13
594.35	1988.85
594.70	1980.93
595.05	1973.89
595.40	1966.89
595.75	1959.21
596.10	1953.10
596.45	1946.34
596.80	1940.43
597.15	1933.91
597.50	1926.88
597.85	1920.33
598.19	1913.65
598.54	1906.56
598.89	1899.85
599.24	1894.04
599.59	1887.46
599.94	1881.30
600.29	1874.94
600.64	1868.48
600.99	1861.05
601.34	1854.22
601.69	1847.31
602.04	1840.38
602.39	1832.97
602.74	1826.06
603.08	1819.41
603.43	1812.71
603.78	1805.31
604.13	1797.87
604.48	1790.55
604.83	1783.76
605.18	1776.86
605.53	1768.85
605.87	1760.87
606.22	1753.75
606.57	1745.77
606.92	1738.48
607.27	1731.37
607.62	1724.41
607.96	1717.03
608.31	1710.45
608.66	1702.79
609.01	1695.30
609.36	1687.72
609.70	1679.74
610.05	1671.68
610.40	1664.08
610.75	1655.75
611.10	1648.25
611.44	1639.85
611.79	1631.90
612.14	1623.13
612.49	1613.93
612.83	1605.59
613.18	1597.45
613.53	1589.29
613.88	1580.78
614.22	1572.47
614.57	1563.81
614.92	1555.83
615.27	1548.26
615.61	1539.94
615.96	1531.91
616.31	1524.27
616.65	1516.87
617.00	1509.47
617.35	1501.74
617.70	1493.39
618.04	1485.02
618.39	1476.72
618.74	1469.16
619.08	1460.82
619.43	1453.30
619.78	1446.48
620.12	1439.19
620.47	1431.77
620.82	1423.73
621.16	1416.30
621.51	1408.69
621.85	1400.95
622.20	1392.43
622.55	1384.15
622.89	1376.30
623.24	1368.72
623.59	1361.21
623.93	1353.69
624.28	1346.42
624.62	1339.02
624.97	1331.89
625.32	1325.06
625.66	1318.06
626.01	1310.95
626.35	1303.47
626.70	1295.65
627.04	1287.94
627.39	1280.23
627.73	1272.75
628.08	1265.77
628.43	1258.49
628.77	1251.18
629.12	1243.76
629.46	1236.58
629.81	1229.10
630.15	1221.78
630.50	1214.40
630.84	1206.27
631.19	1198.40
631.53	1190.77
631.88	1183.15
632.22	1175.47
632.57	1168.13
632.91	1160.61
633.26	1153.13
633.60	1145.90
633.95	1138.90
634.29	1131.76
634.64	1125.16
634.98	1117.75
635.32	1110.56
635.67	1104.02
636.01	1097.37
636.36	1090.56
636.70	1084.07
637.05	1077.41
637.39	1071.05
637.73	1064.43
638.08	1058.64
638.42	1052.62
638.77	1046.23
639.11	1039.56
639.45	1033.12
639.80	1026.46
640.14	1020.07
640.49	1013.58
640.83	1007.26
641.17	1000.92
641.52	994.56
641.86	988.07
642.20	982.22
642.55	975.89
642.89	969.35
643.23	962.76
643.58	956.91
643.92	950.72
644.26	944.67
644.61	938.53
644.95	932.48
645.29	925.77
645.64	919.03
645.98	912.69
646.32	906.96
646.66	901.00
647.01	895.18
647.35	889.40
647.69	883.51
648.04	877.86
648.38	871.99
648.72	866.02
649.06	859.95
649.41	854.06
649.75	848.07
650.09	842.15
650.43	836.39
650.78	830.28
651.12	824.30
651.46	818.68
651.80	812.90
652.14	807.62
652.49	802.27
652.83	797.03
653.17	791.38
653.51	785.61
653.85	780.23
654.20	774.56
654.54	768.58
654.88	762.77
655.22	756.91
655.56	751.31
655.90	745.89
656.25	740.64
656.59	735.30
656.93	730.28
657.27	725.10
657.61	719.62
657.95	714.53
658.29	709.48
658.64	704.21
658.98	698.99
659.32	693.47
659.66	688.28
660.00	683.04
660.34	678.01
660.68	673.07
661.02	668.00
661.36	663.29
661.70	658.80
662.05	654.58
662.39	650.21
662.73	645.71
663.07	641.31
663.41	636.80
663.75	632.33
664.09	627.73
664.43	623.36
664.77	619.30
665.11	615.00
665.45	610.83
665.79	606.76
666.13	602.56
666.47	598.42
666.81	594.23
667.15	590.07
667.49	586.13
667.83	582.38
668.17	578.47
668.51	574.42
668.85	570.40
669.19	566.49
669.53	562.70
669.87	558.86
670.21	555.15
670.55	551.52
670.89	548.11
671.23	544.70
671.57	541.19
671.91	537.64
672.25	534.16
672.58	530.64
672.92	527.20
673.26	524.03
673.60	520.90
673.94	517.75
674.28	514.85
674.62	511.98
674.96	508.80
675.30	505.85
675.64	502.94
675.97	500.12
676.31	497.26
676.65	494.31
676.99	491.56
677.33	488.74
677.67	485.94
678.01	482.83
678.34	479.79
678.68	476.84
679.02	474.00
679.36	471.23
679.70	468.55
680.04	465.84
680.37	462.99
680.71	460.23
681.05	457.63
681.39	454.90
681.73	452.21
682.06	449.67
682.40	447.15
682.74	444.57
683.08	442.04
683.42	439.39
683.75	436.86
684.09	434.34
684.43	431.82
684.77	429.34
685.10	427.00
685.44	424.74
685.78	422.46
686.12	420.21
686.45	417.91
686.79	415.59
687.13	413.38
687.46	411.14
687.80	408.96
688.14	406.73
688.48	404.64
688.81	402.40
689.15	400.25
689.49	398.11
689.82	396.00
690.16	393.84
690.50	391.92
690.83	389.98
691.17	387.96
691.51	386.09
691.84	384.24
692.18	382.30
692.52	380.27
692.85	378.34
693.19	376.45
693.52	374.59
693.86	372.77
694.20	370.88
694.53	369.14
694.87	367.29
695.21	365.52
695.54	363.72
695.88	361.98
696.21	360.26
696.55	358.55
696.88	356.90
697.22	355.29
697.56	353.65
697.89	352.00
698.23	350.39
698.56	348.72
698.90	347.13
699.23	345.47
699.57	343.94
699.90	342.39
700.24	340.87
700.58	339.35
700.91	337.84
701.25	336.43
701.58	335.02
701.92	333.65
702.25	332.25
702.59	330.89
702.92	329.57
703.26	328.27
703.59	326.98
703.93	325.79
704.26	324.56
704.60	323.25
704.93	321.96
705.26	320.71
705.60	319.55
705.93	318.40
706.27	317.34
706.60	316.30
706.94	315.22
707.27	314.06
707.61	312.97
707.94	311.91
708.27	310.80
708.61	309.75
708.94	308.77
709.28	307.81
709.61	306.81
709.94	305.84
710.28	304.81
710.61	303.79
710.95	302.71
711.28	301.76
711.61	300.82
711.95	299.94
712.28	299.01
712.61	298.01
712.95	297.10
713.28	296.26
713.61	295.32
713.95	294.46
714.28	293.63
714.61	292.76
714.95	291.95
715.28	291.13
715.61	290.26
715.95	289.42
716.28	288.57
716.61	287.79
716.95	287.01
717.28	286.30
717.61	285.57
717.94	284.82
718.28	284.02
718.61	283.28
718.94	282.53
719.27	281.86
719.61	281.24
719.94	280.52
720.27	279.82
720.60	279.23
720.94	278.59
721.27	277.97
721.60	277.38
721.93	276.81
722.27	276.25
722.60	275.68
722.93	275.09
723.26	274.56
723.59	273.94
723.93	273.38
724.26	272.80
724.59	272.24
724.92	271.77
725.25	271.25
725.59	270.77
725.92	270.25
726.25	269.76
726.58	269.24
726.91	268.78
727.24	268.29
727.57	267.82
727.91	267.29
728.24	266.86
728.57	266.41
728.90	265.91
729.23	265.42
729.56	265.00
729.89	264.53
730.22	264.04
730.55	263.61
730.89	263.14
731.22	262.67
731.55	262.26
731.88	261.79
732.21	261.39
732.54	260.94
732.87	260.55
733.20	260.14
733.53	259.75
733.86	259.37
734.19	258.95
734.52	258.54
734.85	258.25
735.18	257.82
735.51	257.45
735.84	257.07
736.17	256.70
736.50	256.26
736.83	256.02
737.16	255.66
737.49	255.32
737.82	254.98
738.15	254.66
738.48	254.31
738.81	253.99
739.14	253.66
739.47	253.32
739.80	253.02
740.13	252.72
740.46	252.40
740.79	252.09
741.12	251.76
741.45	251.43
741.78	251.05
742.11	250.76
742.44	250.43
742.77	250.16
743.10	249.87
743.43	249.59
743.75	249.21
744.08	249.09
744.41	248.81
744.74	248.56
745.07	248.29
745.40	248.04
745.73	247.80
746.06	247.52
746.39	247.32
746.71	247.04
747.04	246.76
747.37	246.47
747.70	246.24
748.03	246.04
748.36	245.83
748.68	245.63
749.01	245.38
749.34	245.16
749.67	244.92
750.00	244.70
750.33	244.54
750.65	244.34
750.98	244.00
751.31	243.76
751.64	243.55
751.97	243.39
752.29	243.17
752.62	242.95
752.95	242.73
753.28	242.49
753.60	242.28
753.93	242.13
754.26	241.94
754.59	241.72
754.91	241.51
755.24	241.31
755.57	241.09
755.90	240.91
756.22	240.72
756.55	240.54
756.88	240.38
757.20	240.19
757.53	240.02
757.86	239.85
758.19	239.71
758.51	239.56
758.84	239.35
759.17	239.19
759.49	239.04
759.82	238.93
760.15	238.78
760.47	238.66
760.80	238.48
761.13	238.40
761.45	238.21
761.78	238.08
762.11	237.93
762.43	237.83
762.76	237.71
763.08	237.59
763.41	237.46
763.74	237.27
764.06	237.09
764.39	236.93
764.71	236.76
765.04	236.64
765.37	236.49
765.69	236.35
766.02	236.24
766.34	236.08
766.67	235.94
767.00	235.82
767.32	235.74
767.65	235.68
767.97	235.54
768.30	235.45
768.62	235.33
768.95	235.22
769.27	235.10
769.60	234.95
769.92	234.85
770.25	234.74
770.57	234.63
770.90	234.56
771.22	234.46
771.55	234.39
771.87	234.31
772.20	234.21
772.52	234.20
772.85	234.20
773.17	234.13
773.50	234.02
773.82	233.90
774.15	233.75
774.47	233.59
774.80	233.51
775.12	233.42
775.45	233.31
775.77	233.23
776.09	233.15
776.42	233.09
776.74	233.00
777.07	232.92
777.39	232.86
777.72	232.79
778.04	232.69
778.36	232.62
778.69	232.52
779.01	232.44
779.33	232.30
779.66	232.13
779.98	232.05
780.31	232.02
780.63	232.01
780.95	231.94
781.28	231.86
781.60	231.80
781.92	231.73
782.25	231.66
782.57	231.57
782.89	231.50
783.22	231.46
783.54	231.37
783.86	231.31
784.19	231.24
784.51	231.19
784.83	231.16
785.16	231.07
785.48	231.06
785.80	231.04
786.12	230.99
786.45	230.91
786.77	230.88
787.09	230.79
