SpectraSuite Data File
++++++++++++++++++++++++++++++++++++
Date: Fri Feb 01 16:50:01 EST 2013
User: group
Dark Spectrum Present: No
Reference Spectrum Present: No
Number of Sampled Component Spectra: 1
Spectrometers: USB2E7196
Integration Time (usec): 35000 (USB2E7196)
Spectra Averaged: 100 (USB2E7196)
Boxcar Smoothing: 10 (USB2E7196)
Correct for Electrical Dark: No (USB2E7196)
Strobe/Lamp Enabled: No (USB2E7196)
Correct for Detector Non-linearity: No (USB2E7196)
Correct for Stray Light: No (USB2E7196)
Number of Pixels in Processed Spectrum: 2048
>>>>>Begin Processed Spectral Data<<<<<
339.09	0.00
339.48	213.36
339.86	215.01
340.24	216.05
340.63	217.40
341.01	220.91
341.39	220.83
341.78	221.58
342.16	222.81
342.54	223.15
342.93	211.86
343.31	222.59
343.69	223.12
344.07	223.58
344.46	224.00
344.84	224.38
345.22	224.62
345.60	224.86
345.99	225.06
346.37	225.20
346.75	225.30
347.13	225.36
347.52	225.39
347.90	225.47
348.28	225.52
348.66	225.56
349.05	225.57
349.43	225.59
349.81	225.64
350.19	225.66
350.57	225.73
350.96	225.79
351.34	225.85
351.72	225.93
352.10	226.02
352.48	226.10
352.87	226.18
353.25	226.21
353.63	226.24
354.01	226.29
354.39	226.36
354.77	226.46
355.15	226.54
355.54	226.58
355.92	226.60
356.30	226.67
356.68	226.78
357.06	226.86
357.44	226.90
357.82	226.93
358.20	227.04
358.58	227.10
358.97	227.17
359.35	227.25
359.73	227.32
360.11	227.37
360.49	227.42
360.87	227.43
361.25	227.49
361.63	227.59
362.01	227.66
362.39	227.65
362.77	227.68
363.15	227.68
363.53	227.74
363.91	227.74
364.29	227.75
364.67	227.71
365.05	227.72
365.43	227.73
365.81	227.72
366.19	227.74
366.57	227.77
366.95	227.74
367.33	227.71
367.71	227.69
368.09	227.70
368.47	227.72
368.85	227.70
369.23	227.69
369.61	227.59
369.99	227.56
370.37	227.58
370.75	227.60
371.13	227.57
371.51	227.51
371.89	227.51
372.27	227.46
372.65	227.42
373.03	227.37
373.41	227.31
373.78	227.27
374.16	227.18
374.54	227.07
374.92	227.01
375.30	226.96
375.68	226.91
376.06	226.88
376.44	226.79
376.82	226.73
377.19	226.68
377.57	226.63
377.95	226.54
378.33	226.46
378.71	226.32
379.09	226.29
379.47	226.24
379.84	226.15
380.22	226.11
380.60	226.05
380.98	226.00
381.36	225.93
381.73	225.87
382.11	225.86
382.49	225.82
382.87	225.77
383.25	225.71
383.62	225.75
384.00	225.64
384.38	225.56
384.76	225.55
385.13	225.53
385.51	225.46
385.89	225.41
386.27	225.39
386.64	225.36
387.02	225.29
387.40	225.26
387.78	225.21
388.15	225.16
388.53	225.12
388.91	225.09
389.29	225.08
389.66	225.07
390.04	225.00
390.42	225.00
390.79	224.99
391.17	224.98
391.55	224.85
391.92	224.88
392.30	224.89
392.68	224.84
393.05	224.81
393.43	224.85
393.81	224.87
394.18	224.86
394.56	224.89
394.94	224.90
395.31	224.90
395.69	224.95
396.06	224.95
396.44	224.99
396.82	224.98
397.19	225.03
397.57	225.05
397.95	225.09
398.32	225.08
398.70	225.11
399.07	225.18
399.45	225.23
399.82	225.27
400.20	225.31
400.58	225.39
400.95	225.43
401.33	225.52
401.70	225.63
402.08	225.70
402.45	225.80
402.83	225.91
403.20	226.00
403.58	226.08
403.95	226.25
404.33	226.33
404.71	226.47
405.08	226.64
405.46	226.75
405.83	226.89
406.21	227.00
406.58	227.15
406.96	227.27
407.33	227.45
407.70	227.64
408.08	227.91
408.45	228.11
408.83	228.37
409.20	228.57
409.58	228.74
409.95	228.97
410.33	229.21
410.70	229.47
411.08	229.77
411.45	230.08
411.82	230.35
412.20	230.71
412.57	231.13
412.95	231.45
413.32	231.86
413.69	232.30
414.07	232.75
414.44	233.26
414.82	233.76
415.19	234.34
415.56	234.85
415.94	235.36
416.31	235.99
416.68	236.60
417.06	237.29
417.43	237.97
417.81	238.78
418.18	239.51
418.55	240.32
418.93	241.20
419.30	242.10
419.67	243.05
420.04	244.01
420.42	244.99
420.79	246.15
421.16	247.30
421.54	248.48
421.91	249.69
422.28	250.91
422.66	252.21
423.03	253.48
423.40	254.84
423.77	256.23
424.15	257.62
424.52	259.11
424.89	260.71
425.26	262.27
425.64	263.71
426.01	265.32
426.38	266.97
426.75	268.62
427.13	270.37
427.50	272.14
427.87	274.00
428.24	275.85
428.61	277.58
428.99	279.46
429.36	281.52
429.73	283.60
430.10	285.62
430.47	287.67
430.85	289.79
431.22	292.01
431.59	294.35
431.96	296.57
432.33	298.99
432.70	301.39
433.08	304.21
433.45	306.85
433.82	309.44
434.19	312.25
434.56	315.04
434.93	317.64
435.30	320.27
435.68	323.12
436.05	325.94
436.42	328.71
436.79	331.25
437.16	333.95
437.53	336.75
437.90	339.54
438.27	342.25
438.64	345.04
439.01	347.57
439.38	349.84
439.75	352.04
440.13	354.54
440.50	356.83
440.87	358.65
441.24	360.54
441.61	362.67
441.98	364.19
442.35	365.96
442.72	367.79
443.09	369.57
443.46	370.53
443.83	371.10
444.20	371.57
444.57	372.44
444.94	372.71
445.31	372.99
445.68	373.35
446.05	373.46
446.42	373.14
446.79	372.76
447.16	372.32
447.53	372.04
447.90	370.92
448.27	369.80
448.64	368.24
449.01	367.12
449.37	365.22
449.74	363.35
450.11	361.16
450.48	358.74
450.85	356.25
451.22	354.18
451.59	352.20
451.96	350.34
452.33	347.78
452.70	345.43
453.07	342.69
453.43	339.81
453.80	337.05
454.17	334.37
454.54	331.89
454.91	329.22
455.28	326.53
455.65	324.05
456.02	321.60
456.38	319.45
456.75	316.81
457.12	314.59
457.49	312.37
457.86	310.24
458.23	308.42
458.59	306.38
458.96	304.35
459.33	302.47
459.70	300.56
460.07	299.06
460.43	297.37
460.80	295.74
461.17	294.31
461.54	292.85
461.91	291.41
462.27	289.97
462.64	288.73
463.01	287.41
463.38	286.11
463.74	284.81
464.11	283.64
464.48	282.66
464.85	281.58
465.21	280.76
465.58	279.80
465.95	278.73
466.32	277.84
466.68	276.90
467.05	276.05
467.42	275.19
467.78	274.25
468.15	273.41
468.52	272.78
468.88	271.93
469.25	271.17
469.62	270.55
469.98	269.83
470.35	269.22
470.72	268.62
471.08	267.98
471.45	267.45
471.82	266.93
472.18	266.33
472.55	265.87
472.92	265.33
473.28	264.91
473.65	264.45
474.02	264.05
474.38	263.69
474.75	263.40
475.11	263.08
475.48	262.83
475.85	262.60
476.21	262.36
476.58	262.22
476.94	262.10
477.31	261.94
477.67	261.81
478.04	261.70
478.41	261.65
478.77	261.70
479.14	261.60
479.50	261.62
479.87	261.67
480.23	261.74
480.60	261.83
480.96	261.91
481.33	262.12
481.69	262.30
482.06	262.54
482.42	262.70
482.79	262.98
483.15	263.32
483.52	263.73
483.88	264.09
484.25	264.47
484.61	264.87
484.98	265.35
485.34	265.93
485.71	266.55
486.07	267.18
486.44	267.77
486.80	268.52
487.17	269.25
487.53	270.11
487.90	270.98
488.26	271.91
488.62	272.92
488.99	273.90
489.35	274.95
489.72	276.07
490.08	277.31
490.44	278.56
490.81	279.90
491.17	281.24
491.54	282.71
491.90	284.29
492.26	285.95
492.63	287.71
492.99	289.49
493.36	291.37
493.72	293.39
494.08	295.46
494.45	297.71
494.81	300.07
495.17	302.50
495.54	305.10
495.90	307.79
496.26	310.59
496.63	313.57
496.99	316.69
497.35	319.91
497.72	323.30
498.08	326.86
498.44	330.52
498.80	334.43
499.17	338.49
499.53	342.65
499.89	347.02
500.26	351.51
500.62	356.15
500.98	361.12
501.34	366.18
501.71	371.49
502.07	376.91
502.43	382.54
502.79	388.29
503.16	394.28
503.52	400.56
503.88	406.95
504.24	413.54
504.60	420.37
504.97	427.48
505.33	434.79
505.69	442.39
506.05	450.11
506.41	457.91
506.78	466.05
507.14	474.45
507.50	483.14
507.86	492.11
508.22	501.29
508.59	510.44
508.95	519.98
509.31	529.79
509.67	539.84
510.03	550.00
510.39	560.49
510.75	571.21
511.12	582.09
511.48	593.31
511.84	604.77
512.20	616.20
512.56	628.06
512.92	640.13
513.28	652.44
513.64	664.81
514.00	677.47
514.37	690.30
514.73	703.19
515.09	716.12
515.45	729.29
515.81	742.72
516.17	756.47
516.53	770.43
516.89	784.46
517.25	798.47
517.61	812.77
517.97	827.09
518.33	841.42
518.69	856.07
519.05	870.88
519.41	885.76
519.77	901.13
520.13	916.45
520.49	931.66
520.85	946.80
521.21	962.32
521.57	978.39
521.93	993.87
522.29	1010.06
522.65	1026.09
523.01	1042.06
523.37	1057.91
523.73	1073.88
524.09	1089.82
524.45	1105.86
524.81	1122.29
525.17	1138.83
525.53	1155.46
525.89	1172.17
526.25	1188.78
526.61	1205.02
526.97	1221.59
527.33	1237.94
527.68	1254.28
528.04	1270.65
528.40	1287.05
528.76	1304.01
529.12	1320.26
529.48	1337.09
529.84	1352.91
530.20	1369.29
530.56	1385.97
530.91	1403.16
531.27	1419.73
531.63	1436.03
531.99	1452.43
532.35	1468.24
532.71	1484.12
533.07	1500.13
533.42	1515.86
533.78	1531.73
534.14	1547.82
534.50	1563.10
534.86	1578.60
535.21	1593.62
535.57	1609.18
535.93	1624.46
536.29	1638.98
536.65	1653.82
537.00	1668.40
537.36	1683.58
537.72	1697.88
538.08	1712.26
538.44	1725.90
538.79	1739.76
539.15	1753.14
539.51	1766.70
539.87	1780.74
540.22	1794.10
540.58	1807.64
540.94	1820.50
541.29	1833.01
541.65	1845.41
542.01	1858.28
542.37	1870.67
542.72	1882.87
543.08	1894.51
543.44	1906.76
543.79	1917.96
544.15	1928.91
544.51	1940.17
544.87	1950.78
545.22	1961.55
545.58	1971.67
545.94	1981.28
546.29	1990.87
546.65	2000.71
547.01	2009.91
547.36	2018.58
547.72	2027.04
548.07	2034.98
548.43	2043.21
548.79	2051.01
549.14	2058.44
549.50	2065.62
549.86	2073.01
550.21	2080.13
550.57	2087.29
550.92	2093.75
551.28	2100.63
551.64	2107.58
551.99	2114.04
552.35	2120.38
552.70	2126.38
553.06	2132.36
553.41	2138.66
553.77	2144.54
554.13	2150.56
554.48	2156.63
554.84	2162.25
555.19	2167.43
555.55	2172.60
555.90	2177.03
556.26	2182.08
556.61	2186.82
556.97	2191.30
557.32	2195.37
557.68	2199.66
558.03	2203.83
558.39	2207.54
558.74	2212.20
559.10	2216.07
559.45	2219.72
559.81	2223.80
560.16	2227.74
560.52	2230.94
560.87	2234.32
561.23	2237.07
561.58	2239.81
561.94	2242.37
562.29	2244.49
562.64	2247.38
563.00	2249.87
563.35	2253.40
563.71	2256.73
564.06	2259.90
564.42	2262.76
564.77	2265.55
565.12	2268.07
565.48	2270.28
565.83	2272.35
566.19	2273.82
566.54	2274.72
566.89	2276.12
567.25	2276.99
567.60	2278.34
567.96	2280.07
568.31	2280.97
568.66	2282.36
569.02	2282.98
569.37	2283.40
569.72	2284.48
570.08	2284.73
570.43	2284.95
570.78	2284.58
571.14	2283.10
571.49	2282.01
571.84	2281.74
572.20	2280.77
572.55	2279.62
572.90	2278.01
573.26	2276.63
573.61	2274.85
573.96	2273.39
574.31	2270.42
574.67	2267.55
575.02	2264.07
575.37	2260.79
575.72	2257.29
576.08	2253.70
576.43	2250.64
576.78	2247.20
577.13	2244.05
577.49	2240.79
577.84	2237.40
578.19	2233.69
578.54	2230.12
578.90	2226.03
579.25	2220.63
579.60	2215.86
579.95	2211.16
580.30	2206.30
580.66	2201.38
581.01	2196.56
581.36	2191.76
581.71	2187.94
582.06	2183.64
582.42	2179.43
582.77	2174.43
583.12	2170.04
583.47	2165.81
583.82	2161.19
584.17	2156.17
584.53	2150.93
584.88	2145.55
585.23	2140.17
585.58	2134.86
585.93	2129.49
586.28	2124.63
586.63	2119.81
586.98	2114.74
587.34	2110.05
587.69	2105.28
588.04	2100.25
588.39	2094.75
588.74	2088.26
589.09	2082.12
589.44	2075.56
589.79	2069.42
590.14	2063.83
590.49	2057.29
590.84	2050.84
591.19	2044.81
591.54	2038.34
591.89	2031.21
592.25	2024.72
592.60	2017.42
592.95	2010.10
593.30	2002.85
593.65	1995.41
594.00	1988.41
594.35	1981.21
594.70	1973.22
595.05	1966.34
595.40	1959.04
595.75	1951.71
596.10	1945.84
596.45	1939.32
596.80	1933.24
597.15	1926.91
597.50	1920.14
597.85	1913.62
598.19	1907.21
598.54	1900.30
598.89	1893.82
599.24	1887.91
599.59	1881.44
599.94	1875.22
600.29	1868.92
600.64	1862.46
600.99	1855.24
601.34	1848.55
601.69	1841.60
602.04	1834.98
602.39	1827.61
602.74	1820.89
603.08	1814.22
603.43	1807.54
603.78	1800.23
604.13	1793.09
604.48	1785.77
604.83	1778.92
605.18	1772.40
605.53	1764.55
605.87	1756.60
606.22	1749.28
606.57	1741.51
606.92	1733.94
607.27	1727.13
607.62	1720.33
607.96	1713.18
608.31	1706.85
608.66	1699.37
609.01	1692.07
609.36	1684.39
609.70	1676.42
610.05	1668.46
610.40	1660.90
610.75	1652.63
611.10	1645.06
611.44	1636.60
611.79	1628.73
612.14	1620.10
612.49	1610.87
612.83	1602.42
613.18	1594.29
613.53	1586.25
613.88	1577.72
614.22	1569.55
614.57	1560.77
614.92	1552.77
615.27	1545.40
615.61	1537.09
615.96	1529.02
616.31	1521.32
616.65	1514.06
617.00	1506.55
617.35	1498.71
617.70	1490.51
618.04	1481.95
618.39	1473.77
618.74	1466.19
619.08	1457.95
619.43	1450.32
619.78	1443.35
620.12	1436.24
620.47	1428.81
620.82	1420.67
621.16	1413.18
621.51	1405.47
621.85	1397.83
622.20	1389.34
622.55	1380.86
622.89	1372.88
623.24	1365.23
623.59	1357.85
623.93	1350.37
624.28	1343.09
624.62	1335.77
624.97	1328.54
625.32	1321.76
625.66	1314.70
626.01	1307.62
626.35	1300.17
626.70	1292.39
627.04	1284.80
627.39	1276.97
627.73	1269.44
628.08	1262.57
628.43	1255.39
628.77	1248.23
629.12	1240.76
629.46	1233.66
629.81	1226.20
630.15	1218.92
630.50	1211.63
630.84	1203.44
631.19	1195.52
631.53	1188.00
631.88	1180.43
632.22	1172.83
632.57	1165.64
632.91	1158.08
633.26	1150.67
633.60	1143.27
633.95	1136.15
634.29	1129.00
634.64	1122.37
634.98	1115.12
635.32	1108.00
635.67	1101.40
636.01	1094.73
636.36	1088.03
636.70	1081.41
637.05	1074.87
637.39	1068.51
637.73	1062.00
638.08	1056.13
638.42	1050.15
638.77	1043.77
639.11	1037.28
639.45	1030.94
639.80	1024.23
640.14	1017.83
640.49	1011.39
640.83	1005.15
641.17	999.11
641.52	992.89
641.86	986.41
642.20	980.62
642.55	974.20
642.89	967.74
643.23	961.16
643.58	955.43
643.92	949.30
644.26	943.38
644.61	937.18
644.95	931.23
645.29	924.74
645.64	918.02
645.98	911.66
646.32	905.66
646.66	899.54
647.01	893.81
647.35	888.14
647.69	882.17
648.04	876.57
648.38	870.74
648.72	864.81
649.06	858.86
649.41	852.90
649.75	847.12
650.09	841.15
650.43	835.38
650.78	829.22
651.12	823.22
651.46	817.38
651.80	811.89
652.14	806.40
652.49	800.97
652.83	795.85
653.17	790.28
653.51	784.76
653.85	779.35
654.20	773.74
654.54	767.75
654.88	762.04
655.22	756.15
655.56	750.40
655.90	744.77
656.25	739.57
656.59	734.20
656.93	729.02
657.27	723.89
657.61	718.47
657.95	713.32
658.29	708.33
658.64	703.13
658.98	697.64
659.32	692.18
659.66	687.05
660.00	681.72
660.34	676.67
660.68	671.64
661.02	666.60
661.36	661.85
661.70	657.37
662.05	653.00
662.39	648.74
662.73	644.26
663.07	639.96
663.41	635.44
663.75	630.98
664.09	626.40
664.43	622.00
664.77	617.93
665.11	613.70
665.45	609.44
665.79	605.49
666.13	601.50
666.47	597.36
666.81	593.21
667.15	589.06
667.49	585.11
667.83	581.26
668.17	577.37
668.51	573.29
668.85	569.28
669.19	565.44
669.53	561.60
669.87	557.74
670.21	554.02
670.55	550.40
670.89	546.98
671.23	543.56
671.57	540.01
671.91	536.48
672.25	533.01
672.58	529.58
672.92	526.07
673.26	522.85
673.60	519.73
673.94	516.63
674.28	513.72
674.62	510.87
674.96	507.86
675.30	504.99
675.64	502.07
675.97	499.28
676.31	496.35
676.65	493.44
676.99	490.76
677.33	487.91
677.67	485.11
678.01	482.05
678.34	479.13
678.68	476.24
679.02	473.42
679.36	470.59
679.70	467.83
680.04	465.03
680.37	462.17
680.71	459.37
681.05	456.68
681.39	453.99
681.73	451.28
682.06	448.70
682.40	446.18
682.74	443.58
683.08	441.04
683.42	438.47
683.75	435.97
684.09	433.41
684.43	430.97
684.77	428.47
685.10	426.12
685.44	423.80
685.78	421.55
686.12	419.32
686.45	417.09
686.79	414.80
687.13	412.63
687.46	410.50
687.80	408.34
688.14	406.15
688.48	404.13
688.81	401.91
689.15	399.77
689.49	397.64
689.82	395.64
690.16	393.52
690.50	391.61
690.83	389.64
691.17	387.64
691.51	385.73
691.84	383.89
692.18	381.94
692.52	380.01
692.85	378.06
693.19	376.14
693.52	374.25
693.86	372.44
694.20	370.64
694.53	368.80
694.87	366.97
695.21	365.14
695.54	363.23
695.88	361.54
696.21	359.83
696.55	358.04
696.88	356.36
697.22	354.68
697.56	352.99
697.89	351.34
698.23	349.79
698.56	348.15
698.90	346.57
699.23	344.99
699.57	343.39
699.90	341.81
700.24	340.28
700.58	338.78
700.91	337.27
701.25	335.81
701.58	334.45
701.92	333.06
702.25	331.69
702.59	330.32
702.92	328.98
703.26	327.62
703.59	326.33
703.93	325.12
704.26	323.93
704.60	322.64
704.93	321.33
705.26	320.02
705.60	318.82
705.93	317.66
706.27	316.61
706.60	315.52
706.94	314.46
707.27	313.31
707.61	312.18
707.94	311.17
708.27	310.12
708.61	309.03
708.94	308.04
709.28	307.07
709.61	306.10
709.94	305.08
710.28	304.07
710.61	303.07
710.95	302.00
711.28	301.07
711.61	300.11
711.95	299.25
712.28	298.30
712.61	297.33
712.95	296.37
713.28	295.47
713.61	294.58
713.95	293.70
714.28	292.87
714.61	292.03
714.95	291.17
715.28	290.29
715.61	289.43
715.95	288.53
716.28	287.69
716.61	286.88
716.95	286.12
717.28	285.36
717.61	284.61
717.94	283.88
718.28	283.04
718.61	282.31
718.94	281.61
719.27	280.98
719.61	280.35
719.94	279.71
720.27	278.99
720.60	278.37
720.94	277.78
721.27	277.19
721.60	276.67
721.93	276.10
722.27	275.60
722.60	275.05
722.93	274.54
723.26	274.04
723.59	273.48
723.93	272.96
724.26	272.46
724.59	271.92
724.92	271.38
725.25	270.92
725.59	270.43
725.92	269.95
726.25	269.44
726.58	268.94
726.91	268.49
727.24	268.02
727.57	267.53
727.91	266.98
728.24	266.51
728.57	266.01
728.90	265.52
729.23	265.00
729.56	264.57
729.89	264.10
730.22	263.59
730.55	263.12
730.89	262.65
731.22	262.19
731.55	261.79
731.88	261.37
732.21	260.95
732.54	260.53
732.87	260.06
733.20	259.67
733.53	259.29
733.86	258.90
734.19	258.50
734.52	258.12
734.85	257.83
735.18	257.44
735.51	257.08
735.84	256.72
736.17	256.36
736.50	255.94
736.83	255.68
737.16	255.35
737.49	255.03
737.82	254.65
738.15	254.31
738.48	253.95
738.81	253.61
739.14	253.29
739.47	252.97
739.80	252.64
740.13	252.34
740.46	251.98
740.79	251.63
741.12	251.33
741.45	251.03
741.78	250.69
742.11	250.39
742.44	250.05
742.77	249.75
743.10	249.44
743.43	249.16
743.75	248.75
744.08	248.58
744.41	248.29
744.74	248.03
745.07	247.71
745.40	247.44
745.73	247.22
746.06	246.92
746.39	246.65
746.71	246.40
747.04	246.09
747.37	245.84
747.70	245.58
748.03	245.31
748.36	245.06
748.68	244.82
749.01	244.52
749.34	244.29
749.67	244.05
750.00	243.82
750.33	243.67
750.65	243.51
750.98	243.16
751.31	242.94
751.64	242.75
751.97	242.60
752.29	242.37
752.62	242.12
752.95	241.91
753.28	241.69
753.60	241.49
753.93	241.32
754.26	241.12
754.59	240.92
754.91	240.71
755.24	240.52
755.57	240.30
755.90	240.19
756.22	239.98
756.55	239.75
756.88	239.58
757.20	239.35
757.53	239.14
757.86	238.98
758.19	238.85
758.51	238.65
758.84	238.45
759.17	238.26
759.49	238.10
759.82	237.98
760.15	237.82
760.47	237.67
760.80	237.50
761.13	237.37
761.45	237.20
761.78	237.05
762.11	236.89
762.43	236.75
762.76	236.56
763.08	236.46
763.41	236.35
763.74	236.20
764.06	236.05
764.39	235.91
764.71	235.79
765.04	235.64
765.37	235.50
765.69	235.40
766.02	235.32
766.34	235.21
766.67	235.02
767.00	234.93
767.32	234.85
767.65	234.81
767.97	234.71
768.30	234.61
768.62	234.51
768.95	234.39
769.27	234.29
769.60	234.20
769.92	234.09
770.25	233.95
770.57	233.89
770.90	233.78
771.22	233.72
771.55	233.66
771.87	233.59
772.20	233.54
772.52	233.54
772.85	233.56
773.17	233.47
773.50	233.40
773.82	233.29
774.15	233.16
774.47	233.02
774.80	232.90
775.12	232.84
775.45	232.78
775.77	232.71
776.09	232.63
776.42	232.56
776.74	232.51
777.07	232.49
777.39	232.39
777.72	232.30
778.04	232.21
778.36	232.10
778.69	231.97
779.01	231.91
779.33	231.74
779.66	231.55
779.98	231.48
780.31	231.39
780.63	231.37
780.95	231.31
781.28	231.23
781.60	231.16
781.92	231.07
782.25	230.98
782.57	230.95
782.89	230.89
783.22	230.83
783.54	230.75
783.86	230.66
784.19	230.57
784.51	230.54
784.83	230.48
785.16	230.41
785.48	230.38
785.80	230.28
786.12	230.21
786.45	230.14
786.77	230.10
787.09	230.06
