SpectraSuite Data File
++++++++++++++++++++++++++++++++++++
Date: Fri Feb 01 18:11:40 EST 2013
User: group
Dark Spectrum Present: No
Reference Spectrum Present: No
Number of Sampled Component Spectra: 1
Spectrometers: USB2E7196
Integration Time (usec): 35000 (USB2E7196)
Spectra Averaged: 100 (USB2E7196)
Boxcar Smoothing: 10 (USB2E7196)
Correct for Electrical Dark: No (USB2E7196)
Strobe/Lamp Enabled: No (USB2E7196)
Correct for Detector Non-linearity: No (USB2E7196)
Correct for Stray Light: No (USB2E7196)
Number of Pixels in Processed Spectrum: 2048
>>>>>Begin Processed Spectral Data<<<<<
339.09	0.00
339.48	213.10
339.86	214.47
340.24	216.21
340.63	217.37
341.01	219.77
341.39	220.34
341.78	221.64
342.16	222.19
342.54	223.62
342.93	211.43
343.31	222.11
343.69	222.63
344.07	223.07
344.46	223.46
344.84	223.85
345.22	224.08
345.60	224.31
345.99	224.48
346.37	224.62
346.75	224.69
347.13	224.74
347.52	224.78
347.90	224.86
348.28	224.90
348.66	224.96
349.05	224.95
349.43	224.99
349.81	225.01
350.19	225.07
350.57	225.14
350.96	225.19
351.34	225.31
351.72	225.38
352.10	225.49
352.48	225.56
352.87	225.60
353.25	225.68
353.63	225.71
354.01	225.77
354.39	225.85
354.77	225.94
355.15	226.07
355.54	226.12
355.92	226.13
356.30	226.18
356.68	226.32
357.06	226.39
357.44	226.44
357.82	226.54
358.20	226.62
358.58	226.68
358.97	226.76
359.35	226.79
359.73	226.90
360.11	226.96
360.49	227.03
360.87	227.07
361.25	227.09
361.63	227.21
362.01	227.28
362.39	227.32
362.77	227.33
363.15	227.38
363.53	227.45
363.91	227.51
364.29	227.55
364.67	227.46
365.05	227.49
365.43	227.53
365.81	227.57
366.19	227.60
366.57	227.63
366.95	227.65
367.33	227.63
367.71	227.62
368.09	227.63
368.47	227.65
368.85	227.66
369.23	227.70
369.61	227.65
369.99	227.64
370.37	227.63
370.75	227.67
371.13	227.63
371.51	227.59
371.89	227.56
372.27	227.52
372.65	227.51
373.03	227.48
373.41	227.45
373.78	227.40
374.16	227.32
374.54	227.24
374.92	227.17
375.30	227.11
375.68	227.08
376.06	227.01
376.44	226.95
376.82	226.87
377.19	226.81
377.57	226.75
377.95	226.68
378.33	226.61
378.71	226.49
379.09	226.44
379.47	226.39
379.84	226.32
380.22	226.26
380.60	226.17
380.98	226.10
381.36	226.04
381.73	225.97
382.11	225.95
382.49	225.91
382.87	225.86
383.25	225.83
383.62	225.84
384.00	225.76
384.38	225.70
384.76	225.69
385.13	225.67
385.51	225.61
385.89	225.52
386.27	225.46
386.64	225.42
387.02	225.34
387.40	225.28
387.78	225.25
388.15	225.22
388.53	225.20
388.91	225.16
389.29	225.08
389.66	225.06
390.04	224.99
390.42	224.96
390.79	224.93
391.17	224.94
391.55	224.80
391.92	224.80
392.30	224.79
392.68	224.79
393.05	224.80
393.43	224.84
393.81	224.85
394.18	224.87
394.56	224.90
394.94	224.95
395.31	224.99
395.69	225.06
396.06	225.09
396.44	225.10
396.82	225.12
397.19	225.22
397.57	225.23
397.95	225.31
398.32	225.35
398.70	225.42
399.07	225.48
399.45	225.59
399.82	225.64
400.20	225.67
400.58	225.76
400.95	225.76
401.33	225.81
401.70	225.98
402.08	226.06
402.45	226.16
402.83	226.26
403.20	226.35
403.58	226.40
403.95	226.54
404.33	226.70
404.71	226.85
405.08	227.06
405.46	227.25
405.83	227.38
406.21	227.55
406.58	227.73
406.96	227.91
407.33	228.11
407.70	228.35
408.08	228.67
408.45	228.93
408.83	229.22
409.20	229.51
409.58	229.75
409.95	230.08
410.33	230.41
410.70	230.76
411.08	231.16
411.45	231.58
411.82	231.97
412.20	232.45
412.57	233.01
412.95	233.41
413.32	233.94
413.69	234.53
414.07	235.13
414.44	235.78
414.82	236.45
415.19	237.20
415.56	237.98
415.94	238.78
416.31	239.67
416.68	240.57
417.06	241.55
417.43	242.49
417.81	243.56
418.18	244.64
418.55	245.78
418.93	247.02
419.30	248.28
419.67	249.57
420.04	250.89
420.42	252.30
420.79	253.89
421.16	255.56
421.54	257.19
421.91	258.92
422.28	260.66
422.66	262.54
423.03	264.36
423.40	266.22
423.77	268.21
424.15	270.19
424.52	272.26
424.89	274.53
425.26	276.72
425.64	278.76
426.01	281.05
426.38	283.40
426.75	285.73
427.13	288.13
427.50	290.69
427.87	293.38
428.24	296.00
428.61	298.52
428.99	301.18
429.36	304.18
429.73	307.08
430.10	309.96
430.47	312.83
430.85	315.79
431.22	318.94
431.59	322.20
431.96	325.39
432.33	328.85
432.70	332.22
433.08	336.15
433.45	339.86
433.82	343.52
434.19	347.59
434.56	351.56
434.93	355.31
435.30	358.99
435.68	363.04
436.05	367.03
436.42	370.98
436.79	374.53
437.16	378.33
437.53	382.31
437.90	386.24
438.27	390.08
438.64	394.07
439.01	397.72
439.38	400.91
439.75	403.97
440.13	407.50
440.50	410.76
440.87	413.41
441.24	416.15
441.61	419.21
441.98	421.28
442.35	423.78
442.72	426.41
443.09	428.99
443.46	430.40
443.83	431.21
444.20	431.99
444.57	433.20
444.94	433.58
445.31	434.07
445.68	434.53
446.05	434.69
446.42	434.18
446.79	433.57
447.16	432.99
447.53	432.51
447.90	430.87
448.27	429.24
448.64	426.99
449.01	425.42
449.37	422.61
449.74	419.94
450.11	416.82
450.48	413.37
450.85	409.80
451.22	406.80
451.59	403.94
451.96	401.16
452.33	397.52
452.70	394.25
453.07	390.30
453.43	386.29
453.80	382.37
454.17	378.59
454.54	375.03
454.91	371.19
455.28	367.44
455.65	363.97
456.02	360.49
456.38	357.47
456.75	353.70
457.12	350.53
457.49	347.42
457.86	344.38
458.23	341.67
458.59	338.79
458.96	335.85
459.33	333.20
459.70	330.51
460.07	328.34
460.43	325.91
460.80	323.59
461.17	321.51
461.54	319.37
461.91	317.36
462.27	315.33
462.64	313.54
463.01	311.65
463.38	309.81
463.74	307.92
464.11	306.22
464.48	304.75
464.85	303.16
465.21	301.93
465.58	300.55
465.95	299.08
466.32	297.79
466.68	296.49
467.05	295.24
467.42	294.01
467.78	292.71
468.15	291.43
468.52	290.42
468.88	289.23
469.25	288.14
469.62	287.24
469.98	286.26
470.35	285.32
470.72	284.44
471.08	283.50
471.45	282.72
471.82	281.94
472.18	281.07
472.55	280.44
472.92	279.66
473.28	279.02
473.65	278.36
474.02	277.69
474.38	277.12
474.75	276.61
475.11	276.07
475.48	275.65
475.85	275.24
476.21	274.92
476.58	274.57
476.94	274.30
477.31	273.97
477.67	273.70
478.04	273.45
478.41	273.28
478.77	273.20
479.14	273.02
479.50	272.99
479.87	273.00
480.23	273.02
480.60	273.04
480.96	273.03
481.33	273.19
481.69	273.33
482.06	273.47
482.42	273.57
482.79	273.79
483.15	274.03
483.52	274.42
483.88	274.69
484.25	275.09
484.61	275.48
484.98	275.91
485.34	276.46
485.71	277.05
486.07	277.66
486.44	278.18
486.80	278.87
487.17	279.58
487.53	280.40
487.90	281.26
488.26	282.25
488.62	283.31
488.99	284.30
489.35	285.38
489.72	286.55
490.08	287.88
490.44	289.18
490.81	290.55
491.17	291.98
491.54	293.60
491.90	295.23
492.26	297.00
492.63	298.84
492.99	300.74
493.36	302.73
493.72	304.93
494.08	307.19
494.45	309.68
494.81	312.17
495.17	314.76
495.54	317.49
495.90	320.31
496.26	323.30
496.63	326.45
496.99	329.82
497.35	333.33
497.72	336.97
498.08	340.77
498.44	344.78
498.80	348.99
499.17	353.31
499.53	357.77
499.89	362.44
500.26	367.29
500.62	372.28
500.98	377.64
501.34	383.09
501.71	388.86
502.07	394.72
502.43	400.78
502.79	407.06
503.16	413.60
503.52	420.35
503.88	427.25
504.24	434.38
504.60	441.77
504.97	449.46
505.33	457.35
505.69	465.66
506.05	474.12
506.41	482.63
506.78	491.41
507.14	500.56
507.50	509.99
507.86	519.76
508.22	529.75
508.59	539.76
508.95	550.04
509.31	560.62
509.67	571.44
510.03	582.63
510.39	594.15
510.75	605.87
511.12	617.77
511.48	630.01
511.84	642.52
512.20	655.05
512.56	667.98
512.92	681.16
513.28	694.67
513.64	708.22
514.00	722.05
514.37	736.20
514.73	750.43
515.09	764.67
515.45	779.27
515.81	794.11
516.17	809.44
516.53	825.06
516.89	840.64
517.25	856.30
517.61	872.14
517.97	888.01
518.33	903.89
518.69	920.16
519.05	936.68
519.41	953.39
519.77	970.57
520.13	987.69
520.49	1004.82
520.85	1021.80
521.21	1039.15
521.57	1057.23
521.93	1074.81
522.29	1093.12
522.65	1111.22
523.01	1129.21
523.37	1147.05
523.73	1165.08
524.09	1183.00
524.45	1201.19
524.81	1219.72
525.17	1238.43
525.53	1257.31
525.89	1276.18
526.25	1295.13
526.61	1313.68
526.97	1332.47
527.33	1350.95
527.68	1369.64
528.04	1388.25
528.40	1406.90
528.76	1426.27
529.12	1445.09
529.48	1464.18
529.84	1482.38
530.20	1501.36
530.56	1520.71
530.91	1540.65
531.27	1559.86
531.63	1578.79
531.99	1597.87
532.35	1616.25
532.71	1634.57
533.07	1653.35
533.42	1671.82
533.78	1690.32
534.14	1709.11
534.50	1727.09
534.86	1745.50
535.21	1763.21
535.57	1781.63
535.93	1799.86
536.29	1816.94
536.65	1834.47
537.00	1851.77
537.36	1869.67
537.72	1886.67
538.08	1903.70
538.44	1919.89
538.79	1936.31
539.15	1952.26
539.51	1968.43
539.87	1985.46
540.22	2001.74
540.58	2018.03
540.94	2033.91
541.29	2049.49
541.65	2064.69
542.01	2080.42
542.37	2095.43
542.72	2110.50
543.08	2124.93
543.44	2139.86
543.79	2153.81
544.15	2167.41
544.51	2181.72
544.87	2195.13
545.22	2208.53
545.58	2221.25
545.94	2233.56
546.29	2245.77
546.65	2258.37
547.01	2270.16
547.36	2281.39
547.72	2292.37
548.07	2302.69
548.43	2313.14
548.79	2323.27
549.14	2333.14
549.50	2342.71
549.86	2352.60
550.21	2362.25
550.57	2371.76
550.92	2380.57
551.28	2389.86
551.64	2399.11
551.99	2407.63
552.35	2415.97
552.70	2424.36
553.06	2432.62
553.41	2441.00
553.77	2449.12
554.13	2457.25
554.48	2465.50
554.84	2472.99
555.19	2480.21
555.55	2487.26
555.90	2493.90
556.26	2500.99
556.61	2507.54
556.97	2513.76
557.32	2519.78
557.68	2525.67
558.03	2531.74
558.39	2537.10
558.74	2543.56
559.10	2549.19
559.45	2554.51
559.81	2560.53
560.16	2566.01
560.52	2570.84
560.87	2575.93
561.23	2580.14
561.58	2584.63
561.94	2588.71
562.29	2592.31
562.64	2596.67
563.00	2600.78
563.35	2605.72
563.71	2610.19
564.06	2614.87
564.42	2619.28
564.77	2623.25
565.12	2627.05
565.48	2630.22
565.83	2633.60
566.19	2636.34
566.54	2638.26
566.89	2640.65
567.25	2642.39
567.60	2644.80
567.96	2647.80
568.31	2649.82
568.66	2652.07
569.02	2653.66
569.37	2654.93
569.72	2656.97
570.08	2657.98
570.43	2658.69
570.78	2658.92
571.14	2658.05
571.49	2657.32
571.84	2657.59
572.20	2657.18
572.55	2656.58
572.90	2655.49
573.26	2654.66
573.61	2653.06
573.96	2652.09
574.31	2649.28
574.67	2646.58
575.02	2643.17
575.37	2639.62
575.72	2635.87
576.08	2632.47
576.43	2629.04
576.78	2625.46
577.13	2622.33
577.49	2619.11
577.84	2615.87
578.19	2611.83
578.54	2608.05
578.90	2603.87
579.25	2597.95
579.60	2592.62
579.95	2587.27
580.30	2581.76
580.66	2576.08
581.01	2570.89
581.36	2565.28
581.71	2560.98
582.06	2556.28
582.42	2551.55
582.77	2546.04
583.12	2541.16
583.47	2536.40
583.82	2531.01
584.17	2525.17
584.53	2518.88
584.88	2512.70
585.23	2506.31
585.58	2500.34
585.93	2494.31
586.28	2488.69
586.63	2483.18
586.98	2477.52
587.34	2472.22
587.69	2466.86
588.04	2461.01
588.39	2454.63
588.74	2447.27
589.09	2440.19
589.44	2432.46
589.79	2425.22
590.14	2418.64
590.49	2411.05
590.84	2403.44
591.19	2396.59
591.54	2389.15
591.89	2381.04
592.25	2373.35
592.60	2364.90
592.95	2356.21
593.30	2347.76
593.65	2339.01
594.00	2330.67
594.35	2322.17
594.70	2312.82
595.05	2304.59
595.40	2296.05
595.75	2287.27
596.10	2280.24
596.45	2272.44
596.80	2265.09
597.15	2257.57
597.50	2249.50
597.85	2241.83
598.19	2234.11
598.54	2225.90
598.89	2218.20
599.24	2211.14
599.59	2203.41
599.94	2196.12
600.29	2188.53
600.64	2180.62
600.99	2171.87
601.34	2163.92
601.69	2155.66
602.04	2147.69
602.39	2139.00
602.74	2130.92
603.08	2122.97
603.43	2114.84
603.78	2106.12
604.13	2097.60
604.48	2089.02
604.83	2080.86
605.18	2072.79
605.53	2063.30
605.87	2053.58
606.22	2044.85
606.57	2035.30
606.92	2026.18
607.27	2017.75
607.62	2009.59
607.96	2001.09
608.31	1993.23
608.66	1984.17
609.01	1975.18
609.36	1966.05
609.70	1956.29
610.05	1946.67
610.40	1937.39
610.75	1927.45
611.10	1918.28
611.44	1908.05
611.79	1898.20
612.14	1887.65
612.49	1876.64
612.83	1866.51
613.18	1856.84
613.53	1847.17
613.88	1836.97
614.22	1827.16
614.57	1816.61
614.92	1806.90
615.27	1797.89
615.61	1788.05
615.96	1778.30
616.31	1769.09
616.65	1760.41
617.00	1751.42
617.35	1742.13
617.70	1732.29
618.04	1722.09
618.39	1712.21
618.74	1703.19
619.08	1693.27
619.43	1684.14
619.78	1675.71
620.12	1667.18
620.47	1658.24
620.82	1648.27
621.16	1639.27
621.51	1630.03
621.85	1620.85
622.20	1610.64
622.55	1600.49
622.89	1590.92
623.24	1581.65
623.59	1572.59
623.93	1563.27
624.28	1554.60
624.62	1545.58
624.97	1536.86
625.32	1528.61
625.66	1520.21
626.01	1511.55
626.35	1502.71
626.70	1493.30
627.04	1483.96
627.39	1474.54
627.73	1465.45
628.08	1457.09
628.43	1448.47
628.77	1439.70
629.12	1430.67
629.46	1422.06
629.81	1412.99
630.15	1404.31
630.50	1395.46
630.84	1385.63
631.19	1376.09
631.53	1366.97
631.88	1357.89
632.22	1348.67
632.57	1339.85
632.91	1330.76
633.26	1321.95
633.60	1312.99
633.95	1304.34
634.29	1295.96
634.64	1288.01
634.98	1279.32
635.32	1270.79
635.67	1262.60
636.01	1254.57
636.36	1246.50
636.70	1238.61
637.05	1230.85
637.39	1223.09
637.73	1215.40
638.08	1208.41
638.42	1201.22
638.77	1193.50
639.11	1185.67
639.45	1178.08
639.80	1170.20
640.14	1162.66
640.49	1154.78
640.83	1147.36
641.17	1140.16
641.52	1132.57
641.86	1124.78
642.20	1117.75
642.55	1110.20
642.89	1102.63
643.23	1094.81
643.58	1087.91
643.92	1080.66
644.26	1073.46
644.61	1066.25
644.95	1059.03
645.29	1051.38
645.64	1043.46
645.98	1035.96
646.32	1028.87
646.66	1021.75
647.01	1014.90
647.35	1008.01
647.69	1001.09
648.04	994.48
648.38	987.49
648.72	980.48
649.06	973.34
649.41	966.28
649.75	959.24
650.09	952.20
650.43	945.45
650.78	938.10
651.12	931.08
651.46	924.25
651.80	917.56
652.14	911.22
652.49	904.75
652.83	898.58
653.17	891.93
653.51	885.33
653.85	878.89
654.20	872.18
654.54	865.03
654.88	858.25
655.22	851.21
655.56	844.49
655.90	837.96
656.25	831.82
656.59	825.61
656.93	819.65
657.27	813.52
657.61	806.96
657.95	800.96
658.29	794.92
658.64	788.74
658.98	782.36
659.32	775.87
659.66	769.74
660.00	763.54
660.34	757.60
660.68	751.70
661.02	745.79
661.36	740.23
661.70	734.88
662.05	729.84
662.39	724.79
662.73	719.52
663.07	714.28
663.41	709.00
663.75	703.65
664.09	698.22
664.43	693.10
664.77	688.37
665.11	683.36
665.45	678.43
665.79	673.62
666.13	668.86
666.47	664.02
666.81	659.20
667.15	654.35
667.49	649.83
667.83	645.29
668.17	640.61
668.51	635.89
668.85	631.23
669.19	626.57
669.53	622.10
669.87	617.61
670.21	613.29
670.55	608.87
670.89	604.80
671.23	600.82
671.57	596.74
671.91	592.55
672.25	588.47
672.58	584.31
672.92	580.23
673.26	576.39
673.60	572.66
673.94	568.95
674.28	565.48
674.62	561.97
674.96	558.41
675.30	554.99
675.64	551.53
675.97	548.22
676.31	544.84
676.65	541.39
676.99	538.18
677.33	534.82
677.67	531.66
678.01	528.15
678.34	524.70
678.68	521.27
679.02	517.99
679.36	514.75
679.70	511.60
680.04	508.43
680.37	505.09
680.71	501.88
681.05	498.77
681.39	495.58
681.73	492.48
682.06	489.54
682.40	486.61
682.74	483.67
683.08	480.66
683.42	477.62
683.75	474.67
684.09	471.64
684.43	468.74
684.77	465.82
685.10	463.02
685.44	460.26
685.78	457.53
686.12	454.83
686.45	452.08
686.79	449.39
687.13	446.75
687.46	444.22
687.80	441.61
688.14	439.00
688.48	436.62
688.81	433.92
689.15	431.25
689.49	428.67
689.82	426.17
690.16	423.67
690.50	421.34
690.83	419.00
691.17	416.68
691.51	414.43
691.84	412.27
692.18	410.01
692.52	407.68
692.85	405.37
693.19	403.13
693.52	400.99
693.86	398.81
694.20	396.67
694.53	394.50
694.87	392.29
695.21	390.17
695.54	387.95
695.88	385.91
696.21	383.92
696.55	381.95
696.88	379.99
697.22	378.02
697.56	376.08
697.89	374.15
698.23	372.24
698.56	370.33
698.90	368.43
699.23	366.50
699.57	364.67
699.90	362.87
700.24	361.03
700.58	359.20
700.91	357.42
701.25	355.72
701.58	354.14
701.92	352.58
702.25	350.96
702.59	349.34
702.92	347.78
703.26	346.24
703.59	344.70
703.93	343.25
704.26	341.83
704.60	340.31
704.93	338.80
705.26	337.33
705.60	335.88
705.93	334.48
706.27	333.23
706.60	331.96
706.94	330.69
707.27	329.32
707.61	328.05
707.94	326.84
708.27	325.53
708.61	324.24
708.94	323.01
709.28	321.79
709.61	320.63
709.94	319.49
710.28	318.25
710.61	317.07
710.95	315.77
711.28	314.63
711.61	313.52
711.95	312.48
712.28	311.36
712.61	310.23
712.95	309.12
713.28	308.06
713.61	306.95
713.95	305.88
714.28	304.92
714.61	303.87
714.95	302.87
715.28	301.86
715.61	300.78
715.95	299.77
716.28	298.76
716.61	297.77
716.95	296.77
717.28	295.91
717.61	295.00
717.94	294.12
718.28	293.19
718.61	292.31
718.94	291.43
719.27	290.69
719.61	289.90
719.94	289.12
720.27	288.30
720.60	287.57
720.94	286.80
721.27	286.09
721.60	285.45
721.93	284.75
722.27	284.08
722.60	283.47
722.93	282.78
723.26	282.20
723.59	281.59
723.93	280.99
724.26	280.33
724.59	279.66
724.92	279.07
725.25	278.49
725.59	277.90
725.92	277.28
726.25	276.65
726.58	276.09
726.91	275.46
727.24	274.90
727.57	274.35
727.91	273.79
728.24	273.21
728.57	272.63
728.90	272.07
729.23	271.52
729.56	270.99
729.89	270.44
730.22	269.86
730.55	269.31
730.89	268.76
731.22	268.24
731.55	267.76
731.88	267.24
732.21	266.77
732.54	266.26
732.87	265.78
733.20	265.32
733.53	264.88
733.86	264.47
734.19	263.99
734.52	263.52
734.85	263.14
735.18	262.66
735.51	262.21
735.84	261.75
736.17	261.33
736.50	260.86
736.83	260.57
737.16	260.16
737.49	259.72
737.82	259.34
738.15	258.97
738.48	258.58
738.81	258.18
739.14	257.76
739.47	257.41
739.80	257.01
740.13	256.61
740.46	256.21
740.79	255.84
741.12	255.48
741.45	255.10
741.78	254.68
742.11	254.36
742.44	253.97
742.77	253.63
743.10	253.29
743.43	252.92
743.75	252.48
744.08	252.29
744.41	251.96
744.74	251.63
745.07	251.31
745.40	251.00
745.73	250.72
746.06	250.41
746.39	250.08
746.71	249.79
747.04	249.46
747.37	249.13
747.70	248.80
748.03	248.51
748.36	248.23
748.68	247.91
749.01	247.60
749.34	247.34
749.67	247.08
750.00	246.77
750.33	246.61
750.65	246.32
750.98	245.90
751.31	245.66
751.64	245.40
751.97	245.15
752.29	244.88
752.62	244.58
752.95	244.33
753.28	244.08
753.60	243.83
753.93	243.63
754.26	243.40
754.59	243.14
754.91	242.88
755.24	242.65
755.57	242.44
755.90	242.20
756.22	241.92
756.55	241.67
756.88	241.46
757.20	241.17
757.53	240.94
757.86	240.76
758.19	240.56
758.51	240.34
758.84	240.09
759.17	239.86
759.49	239.69
759.82	239.53
760.15	239.36
760.47	239.18
760.80	238.99
761.13	238.83
761.45	238.68
761.78	238.52
762.11	238.35
762.43	238.20
762.76	238.07
763.08	237.94
763.41	237.85
763.74	237.69
764.06	237.53
764.39	237.38
764.71	237.23
765.04	237.09
765.37	236.95
765.69	236.81
766.02	236.71
766.34	236.55
766.67	236.37
767.00	236.24
767.32	236.15
767.65	236.08
767.97	235.95
768.30	235.80
768.62	235.67
768.95	235.52
769.27	235.38
769.60	235.30
769.92	235.19
770.25	235.01
770.57	234.90
770.90	234.80
771.22	234.70
771.55	234.58
771.87	234.47
772.20	234.36
772.52	234.36
772.85	234.36
773.17	234.26
773.50	234.13
773.82	233.98
774.15	233.80
774.47	233.62
774.80	233.49
775.12	233.41
775.45	233.31
775.77	233.23
776.09	233.13
776.42	233.01
776.74	232.94
777.07	232.85
777.39	232.80
777.72	232.68
778.04	232.58
778.36	232.47
778.69	232.37
779.01	232.30
779.33	232.12
779.66	231.89
779.98	231.81
780.31	231.78
780.63	231.77
780.95	231.74
781.28	231.65
781.60	231.57
781.92	231.51
782.25	231.43
782.57	231.38
782.89	231.33
783.22	231.27
783.54	231.18
783.86	231.09
784.19	231.00
784.51	230.96
784.83	230.93
785.16	230.87
785.48	230.85
785.80	230.80
786.12	230.76
786.45	230.75
