SpectraSuite Data File
++++++++++++++++++++++++++++++++++++
Date: Fri Feb 01 17:01:19 EST 2013
User: group
Dark Spectrum Present: No
Reference Spectrum Present: No
Number of Sampled Component Spectra: 1
Spectrometers: USB2E7196
Integration Time (usec): 35000 (USB2E7196)
Spectra Averaged: 100 (USB2E7196)
Boxcar Smoothing: 10 (USB2E7196)
Correct for Electrical Dark: No (USB2E7196)
Strobe/Lamp Enabled: No (USB2E7196)
Correct for Detector Non-linearity: No (USB2E7196)
Correct for Stray Light: No (USB2E7196)
Number of Pixels in Processed Spectrum: 2048
>>>>>Begin Processed Spectral Data<<<<<
339.09	0.00
339.48	213.36
339.86	214.95
340.24	216.00
340.63	218.08
341.01	220.24
341.39	220.19
341.78	221.12
342.16	222.43
342.54	223.26
342.93	211.69
343.31	222.38
343.69	222.93
344.07	223.38
344.46	223.81
344.84	224.17
345.22	224.44
345.60	224.68
345.99	224.90
346.37	225.04
346.75	225.13
347.13	225.21
347.52	225.28
347.90	225.33
348.28	225.33
348.66	225.37
349.05	225.36
349.43	225.34
349.81	225.36
350.19	225.41
350.57	225.46
350.96	225.53
351.34	225.63
351.72	225.69
352.10	225.78
352.48	225.85
352.87	225.88
353.25	225.92
353.63	225.98
354.01	226.02
354.39	226.11
354.77	226.16
355.15	226.25
355.54	226.30
355.92	226.34
356.30	226.43
356.68	226.59
357.06	226.66
357.44	226.73
357.82	226.82
358.20	226.94
358.58	227.01
358.97	227.09
359.35	227.16
359.73	227.23
360.11	227.30
360.49	227.33
360.87	227.41
361.25	227.44
361.63	227.49
362.01	227.55
362.39	227.57
362.77	227.64
363.15	227.68
363.53	227.69
363.91	227.71
364.29	227.72
364.67	227.64
365.05	227.66
365.43	227.68
365.81	227.66
366.19	227.68
366.57	227.72
366.95	227.72
367.33	227.68
367.71	227.70
368.09	227.72
368.47	227.71
368.85	227.71
369.23	227.72
369.61	227.67
369.99	227.68
370.37	227.68
370.75	227.72
371.13	227.66
371.51	227.63
371.89	227.61
372.27	227.58
372.65	227.56
373.03	227.50
373.41	227.48
373.78	227.44
374.16	227.35
374.54	227.27
374.92	227.21
375.30	227.17
375.68	227.08
376.06	227.01
376.44	226.95
376.82	226.86
377.19	226.78
377.57	226.72
377.95	226.63
378.33	226.53
378.71	226.42
379.09	226.37
379.47	226.34
379.84	226.25
380.22	226.17
380.60	226.06
380.98	226.01
381.36	225.92
381.73	225.88
382.11	225.81
382.49	225.73
382.87	225.64
383.25	225.57
383.62	225.63
384.00	225.54
384.38	225.51
384.76	225.47
385.13	225.48
385.51	225.44
385.89	225.36
386.27	225.34
386.64	225.29
387.02	225.19
387.40	225.14
387.78	225.11
388.15	225.08
388.53	225.04
388.91	224.98
389.29	224.95
389.66	224.93
390.04	224.89
390.42	224.88
390.79	224.87
391.17	224.84
391.55	224.71
391.92	224.68
392.30	224.67
392.68	224.61
393.05	224.58
393.43	224.53
393.81	224.54
394.18	224.51
394.56	224.48
394.94	224.54
395.31	224.51
395.69	224.56
396.06	224.57
396.44	224.61
396.82	224.64
397.19	224.72
397.57	224.74
397.95	224.80
398.32	224.82
398.70	224.84
399.07	224.91
399.45	224.95
399.82	225.03
400.20	225.07
400.58	225.19
400.95	225.23
401.33	225.35
401.70	225.50
402.08	225.61
402.45	225.70
402.83	225.83
403.20	225.93
403.58	225.98
403.95	226.13
404.33	226.26
404.71	226.37
405.08	226.56
405.46	226.66
405.83	226.79
406.21	226.92
406.58	227.12
406.96	227.24
407.33	227.41
407.70	227.57
408.08	227.84
408.45	228.03
408.83	228.26
409.20	228.47
409.58	228.61
409.95	228.82
410.33	229.10
410.70	229.34
411.08	229.62
411.45	229.93
411.82	230.21
412.20	230.55
412.57	230.98
412.95	231.23
413.32	231.66
413.69	232.11
414.07	232.52
414.44	232.97
414.82	233.47
415.19	234.04
415.56	234.58
415.94	235.11
416.31	235.77
416.68	236.40
417.06	237.09
417.43	237.81
417.81	238.61
418.18	239.37
418.55	240.22
418.93	241.10
419.30	242.01
419.67	242.95
420.04	243.89
420.42	244.88
420.79	246.11
421.16	247.27
421.54	248.42
421.91	249.67
422.28	250.93
422.66	252.28
423.03	253.59
423.40	254.95
423.77	256.39
424.15	257.84
424.52	259.34
424.89	260.97
425.26	262.53
425.64	264.01
426.01	265.62
426.38	267.27
426.75	268.98
427.13	270.70
427.50	272.50
427.87	274.42
428.24	276.28
428.61	278.00
428.99	279.96
429.36	282.07
429.73	284.11
430.10	286.12
430.47	288.17
430.85	290.27
431.22	292.52
431.59	294.85
431.96	297.07
432.33	299.53
432.70	301.90
433.08	304.66
433.45	307.25
433.82	309.81
434.19	312.64
434.56	315.41
434.93	318.06
435.30	320.64
435.68	323.48
436.05	326.29
436.42	329.05
436.79	331.54
437.16	334.21
437.53	337.01
437.90	339.76
438.27	342.45
438.64	345.24
439.01	347.81
439.38	350.02
439.75	352.08
440.13	354.53
440.50	356.82
440.87	358.71
441.24	360.65
441.61	362.80
441.98	364.31
442.35	366.11
442.72	368.00
443.09	369.86
443.46	370.83
443.83	371.39
444.20	371.91
444.57	372.73
444.94	373.02
445.31	373.39
445.68	373.78
446.05	373.86
446.42	373.48
446.79	373.05
447.16	372.62
447.53	372.38
447.90	371.23
448.27	370.11
448.64	368.49
449.01	367.36
449.37	365.41
449.74	363.50
450.11	361.25
450.48	358.75
450.85	356.21
451.22	354.13
451.59	352.16
451.96	350.22
452.33	347.63
452.70	345.34
453.07	342.55
453.43	339.65
453.80	336.91
454.17	334.24
454.54	331.69
454.91	329.00
455.28	326.36
455.65	323.91
456.02	321.49
456.38	319.39
456.75	316.73
457.12	314.46
457.49	312.28
457.86	310.16
458.23	308.34
458.59	306.27
458.96	304.20
459.33	302.33
459.70	300.47
460.07	298.98
460.43	297.22
460.80	295.60
461.17	294.21
461.54	292.73
461.91	291.34
462.27	289.96
462.64	288.73
463.01	287.37
463.38	286.10
463.74	284.72
464.11	283.54
464.48	282.54
464.85	281.49
465.21	280.65
465.58	279.71
465.95	278.66
466.32	277.79
466.68	276.90
467.05	276.05
467.42	275.18
467.78	274.25
468.15	273.39
468.52	272.72
468.88	271.86
469.25	271.10
469.62	270.52
469.98	269.86
470.35	269.23
470.72	268.61
471.08	267.97
471.45	267.46
471.82	266.94
472.18	266.37
472.55	265.95
472.92	265.44
473.28	265.01
473.65	264.58
474.02	264.16
474.38	263.81
474.75	263.45
475.11	263.11
475.48	262.93
475.85	262.74
476.21	262.53
476.58	262.39
476.94	262.24
477.31	262.04
477.67	261.90
478.04	261.84
478.41	261.83
478.77	261.86
479.14	261.80
479.50	261.81
479.87	261.87
480.23	261.97
480.60	262.07
480.96	262.13
481.33	262.30
481.69	262.47
482.06	262.69
482.42	262.93
482.79	263.20
483.15	263.48
483.52	263.86
483.88	264.23
484.25	264.60
484.61	265.05
484.98	265.52
485.34	266.09
485.71	266.67
486.07	267.28
486.44	267.89
486.80	268.62
487.17	269.34
487.53	270.15
487.90	270.97
488.26	271.88
488.62	272.90
488.99	273.88
489.35	274.94
489.72	276.08
490.08	277.25
490.44	278.51
490.81	279.78
491.17	281.11
491.54	282.53
491.90	284.03
492.26	285.65
492.63	287.31
492.99	289.02
493.36	290.84
493.72	292.84
494.08	294.90
494.45	297.13
494.81	299.49
495.17	301.90
495.54	304.47
495.90	307.11
496.26	309.90
496.63	312.83
496.99	315.95
497.35	319.17
497.72	322.57
498.08	326.06
498.44	329.77
498.80	333.68
499.17	337.76
499.53	341.95
499.89	346.33
500.26	350.83
500.62	355.53
500.98	360.51
501.34	365.57
501.71	370.88
502.07	376.28
502.43	381.85
502.79	387.61
503.16	393.65
503.52	399.94
503.88	406.30
504.24	412.90
504.60	419.67
504.97	426.72
505.33	433.96
505.69	441.62
506.05	449.31
506.41	457.09
506.78	465.06
507.14	473.43
507.50	482.04
507.86	491.01
508.22	500.11
508.59	509.14
508.95	518.57
509.31	528.28
509.67	538.24
510.03	548.41
510.39	558.88
510.75	569.51
511.12	580.24
511.48	591.37
511.84	602.61
512.20	614.02
512.56	625.74
512.92	637.75
513.28	649.91
513.64	662.15
514.00	674.68
514.37	687.53
514.73	700.37
515.09	713.26
515.45	726.32
515.81	739.72
516.17	753.53
516.53	767.51
516.89	781.44
517.25	795.40
517.61	809.56
517.97	823.76
518.33	837.96
518.69	852.50
519.05	867.19
519.41	882.15
519.77	897.39
520.13	912.66
520.49	927.75
520.85	942.85
521.21	958.26
521.57	974.24
521.93	989.59
522.29	1005.66
522.65	1021.58
523.01	1037.47
523.37	1053.21
523.73	1069.02
524.09	1084.70
524.45	1100.65
524.81	1116.89
525.17	1133.27
525.53	1149.92
525.89	1166.52
526.25	1183.06
526.61	1199.09
526.97	1215.47
527.33	1231.59
527.68	1247.75
528.04	1263.89
528.40	1280.19
528.76	1297.03
529.12	1313.22
529.48	1329.74
529.84	1345.39
530.20	1361.61
530.56	1378.20
530.91	1395.13
531.27	1411.64
531.63	1427.84
531.99	1444.18
532.35	1459.80
532.71	1475.52
533.07	1491.16
533.42	1506.66
533.78	1522.41
534.14	1538.40
534.50	1553.48
534.86	1569.04
535.21	1583.91
535.57	1599.46
535.93	1614.68
536.29	1629.07
536.65	1643.76
537.00	1658.26
537.36	1673.26
537.72	1687.46
538.08	1701.67
538.44	1715.22
538.79	1728.77
539.15	1742.08
539.51	1755.45
539.87	1769.62
540.22	1783.00
540.58	1796.63
540.94	1809.57
541.29	1822.03
541.65	1834.46
542.01	1847.23
542.37	1859.39
542.72	1871.54
543.08	1883.17
543.44	1895.25
543.79	1906.35
544.15	1917.19
544.51	1928.67
544.87	1939.34
545.22	1950.05
545.58	1960.08
545.94	1969.69
546.29	1979.44
546.65	1989.22
547.01	1998.26
547.36	2006.78
547.72	2015.13
548.07	2022.87
548.43	2031.01
548.79	2038.93
549.14	2046.33
549.50	2053.55
549.86	2060.96
550.21	2068.32
550.57	2075.42
550.92	2081.83
551.28	2088.70
551.64	2095.63
551.99	2101.97
552.35	2108.20
552.70	2114.33
553.06	2120.26
553.41	2126.58
553.77	2132.37
554.13	2138.31
554.48	2144.46
554.84	2150.04
555.19	2155.21
555.55	2160.45
555.90	2164.77
556.26	2169.72
556.61	2174.37
556.97	2178.78
557.32	2183.04
557.68	2187.17
558.03	2191.48
558.39	2195.26
558.74	2199.94
559.10	2203.91
559.45	2207.70
559.81	2211.87
560.16	2215.64
560.52	2218.87
560.87	2222.28
561.23	2225.05
561.58	2228.14
561.94	2230.71
562.29	2233.01
562.64	2235.92
563.00	2238.49
563.35	2242.14
563.71	2245.24
564.06	2248.69
564.42	2251.72
564.77	2254.39
565.12	2256.81
565.48	2258.86
565.83	2260.99
566.19	2262.45
566.54	2263.43
566.89	2264.75
567.25	2265.60
567.60	2267.04
567.96	2269.03
568.31	2269.95
568.66	2271.39
569.02	2272.17
569.37	2272.58
569.72	2273.66
570.08	2274.00
570.43	2274.25
570.78	2274.10
571.14	2272.84
571.49	2271.60
571.84	2271.31
572.20	2270.34
572.55	2269.45
572.90	2268.00
573.26	2266.80
573.61	2265.31
573.96	2263.92
574.31	2261.15
574.67	2258.55
575.02	2255.21
575.37	2251.97
575.72	2248.57
576.08	2245.26
576.43	2241.96
576.78	2238.70
577.13	2235.65
577.49	2232.54
577.84	2229.20
578.19	2225.52
578.54	2222.24
578.90	2218.26
579.25	2213.01
579.60	2208.22
579.95	2203.44
580.30	2198.65
580.66	2193.68
581.01	2188.91
581.36	2184.31
581.71	2180.32
582.06	2175.92
582.42	2171.68
582.77	2166.68
583.12	2162.28
583.47	2157.82
583.82	2153.13
584.17	2148.14
584.53	2142.86
584.88	2137.63
585.23	2132.14
585.58	2126.75
585.93	2121.40
586.28	2116.79
586.63	2112.10
586.98	2107.41
587.34	2102.83
587.69	2098.12
588.04	2093.01
588.39	2087.58
588.74	2081.12
589.09	2075.19
589.44	2068.71
589.79	2062.76
590.14	2057.37
590.49	2051.00
590.84	2044.85
591.19	2039.11
591.54	2032.79
591.89	2025.71
592.25	2019.20
592.60	2012.15
592.95	2004.92
593.30	1997.72
593.65	1990.27
594.00	1983.31
594.35	1976.24
594.70	1968.32
595.05	1961.41
595.40	1954.25
595.75	1946.93
596.10	1941.00
596.45	1934.33
596.80	1928.29
597.15	1922.00
597.50	1915.05
597.85	1908.69
598.19	1902.24
598.54	1895.30
598.89	1888.74
599.24	1882.96
599.59	1876.29
599.94	1870.25
600.29	1863.99
600.64	1857.54
600.99	1850.34
601.34	1843.62
601.69	1836.60
602.04	1829.98
602.39	1822.68
602.74	1815.99
603.08	1809.37
603.43	1802.57
603.78	1795.51
604.13	1788.46
604.48	1781.19
604.83	1774.38
605.18	1767.64
605.53	1759.75
605.87	1751.66
606.22	1744.61
606.57	1736.74
606.92	1729.45
607.27	1722.51
607.62	1715.89
607.96	1708.75
608.31	1702.27
608.66	1694.76
609.01	1687.35
609.36	1679.99
609.70	1672.15
610.05	1664.26
610.40	1656.65
610.75	1648.54
611.10	1640.94
611.44	1632.45
611.79	1624.63
612.14	1616.16
612.49	1607.01
612.83	1598.59
613.18	1590.65
613.53	1582.66
613.88	1574.23
614.22	1566.12
614.57	1557.32
614.92	1549.19
615.27	1541.76
615.61	1533.49
615.96	1525.51
616.31	1517.91
616.65	1510.48
617.00	1502.92
617.35	1495.25
617.70	1486.99
618.04	1478.56
618.39	1470.30
618.74	1462.90
619.08	1454.57
619.43	1446.99
619.78	1440.02
620.12	1433.03
620.47	1425.53
620.82	1417.21
621.16	1409.79
621.51	1402.23
621.85	1394.71
622.20	1386.26
622.55	1377.88
622.89	1370.04
623.24	1362.47
623.59	1355.08
623.93	1347.62
624.28	1340.52
624.62	1333.04
624.97	1325.94
625.32	1319.20
625.66	1312.23
626.01	1305.12
626.35	1297.78
626.70	1289.97
627.04	1282.39
627.39	1274.58
627.73	1267.29
628.08	1260.57
628.43	1253.41
628.77	1246.15
629.12	1238.68
629.46	1231.60
629.81	1224.19
630.15	1217.05
630.50	1209.58
630.84	1201.47
631.19	1193.50
631.53	1185.91
631.88	1178.36
632.22	1170.73
632.57	1163.38
632.91	1155.88
633.26	1148.39
633.60	1140.98
633.95	1133.89
634.29	1126.83
634.64	1120.07
634.98	1112.76
635.32	1105.61
635.67	1099.00
636.01	1092.30
636.36	1085.58
636.70	1079.03
637.05	1072.49
637.39	1066.03
637.73	1059.64
638.08	1053.80
638.42	1047.76
638.77	1041.36
639.11	1034.82
639.45	1028.52
639.80	1021.92
640.14	1015.52
640.49	1009.08
640.83	1002.87
641.17	996.76
641.52	990.48
641.86	984.07
642.20	978.27
642.55	971.86
642.89	965.40
643.23	958.78
643.58	953.04
643.92	946.89
644.26	940.95
644.61	934.90
644.95	928.90
645.29	922.35
645.64	915.74
645.98	909.34
646.32	903.50
646.66	897.43
647.01	891.69
647.35	885.94
647.69	880.09
648.04	874.52
648.38	868.68
648.72	862.77
649.06	856.79
649.41	850.86
649.75	845.02
650.09	839.11
650.43	833.41
650.78	827.32
651.12	821.38
651.46	815.60
651.80	809.98
652.14	804.61
652.49	799.22
652.83	794.06
653.17	788.52
653.51	782.92
653.85	777.59
654.20	771.95
654.54	766.07
654.88	760.38
655.22	754.52
655.56	748.83
655.90	743.40
656.25	738.25
656.59	732.92
656.93	727.82
657.27	722.73
657.61	717.41
657.95	712.26
658.29	707.26
658.64	702.00
658.98	696.64
659.32	691.18
659.66	686.04
660.00	680.80
660.34	675.83
660.68	670.87
661.02	665.89
661.36	661.22
661.70	656.70
662.05	652.31
662.39	648.02
662.73	643.60
663.07	639.20
663.41	634.70
663.75	630.29
664.09	625.74
664.43	621.35
664.77	617.21
665.11	612.98
665.45	608.79
665.79	604.79
666.13	600.74
666.47	596.67
666.81	592.54
667.15	588.42
667.49	584.55
667.83	580.73
668.17	576.72
668.51	572.65
668.85	568.70
669.19	564.91
669.53	561.14
669.87	557.36
670.21	553.69
670.55	550.05
670.89	546.58
671.23	543.20
671.57	539.63
671.91	536.13
672.25	532.64
672.58	529.16
672.92	525.72
673.26	522.50
673.60	519.33
673.94	516.24
674.28	513.32
674.62	510.41
674.96	507.33
675.30	504.48
675.64	501.55
675.97	498.70
676.31	495.78
676.65	492.76
676.99	490.01
677.33	487.12
677.67	484.30
678.01	481.24
678.34	478.32
678.68	475.44
679.02	472.60
679.36	469.85
679.70	467.16
680.04	464.39
680.37	461.55
680.71	458.81
681.05	456.13
681.39	453.42
681.73	450.77
682.06	448.21
682.40	445.65
682.74	443.12
683.08	440.60
683.42	437.99
683.75	435.47
684.09	432.95
684.43	430.46
684.77	428.01
685.10	425.66
685.44	423.24
685.78	420.95
686.12	418.70
686.45	416.39
686.79	414.05
687.13	411.89
687.46	409.73
687.80	407.50
688.14	405.30
688.48	403.33
688.81	401.08
689.15	398.94
689.49	396.73
689.82	394.69
690.16	392.66
690.50	390.75
690.83	388.82
691.17	386.79
691.51	384.93
691.84	383.15
692.18	381.26
692.52	379.37
692.85	377.45
693.19	375.58
693.52	373.73
693.86	371.92
694.20	370.13
694.53	368.29
694.87	366.49
695.21	364.72
695.54	362.85
695.88	361.08
696.21	359.37
696.55	357.74
696.88	356.04
697.22	354.30
697.56	352.69
697.89	351.09
698.23	349.52
698.56	347.91
698.90	346.32
699.23	344.68
699.57	343.12
699.90	341.61
700.24	340.08
700.58	338.64
700.91	337.21
701.25	335.76
701.58	334.44
701.92	333.10
702.25	331.72
702.59	330.34
702.92	329.04
703.26	327.76
703.59	326.50
703.93	325.31
704.26	324.14
704.60	322.81
704.93	321.57
705.26	320.34
705.60	319.15
705.93	317.98
706.27	316.93
706.60	315.86
706.94	314.75
707.27	313.59
707.61	312.51
707.94	311.43
708.27	310.34
708.61	309.24
708.94	308.23
709.28	307.28
709.61	306.34
709.94	305.42
710.28	304.40
710.61	303.41
710.95	302.36
711.28	301.42
711.61	300.47
711.95	299.52
712.28	298.56
712.61	297.57
712.95	296.66
713.28	295.84
713.61	294.97
713.95	294.11
714.28	293.30
714.61	292.41
714.95	291.58
715.28	290.74
715.61	289.89
715.95	289.00
716.28	288.11
716.61	287.27
716.95	286.44
717.28	285.69
717.61	284.91
717.94	284.16
718.28	283.37
718.61	282.61
718.94	281.91
719.27	281.27
719.61	280.62
719.94	279.91
720.27	279.13
720.60	278.43
720.94	277.78
721.27	277.14
721.60	276.54
721.93	275.90
722.27	275.36
722.60	274.79
722.93	274.24
723.26	273.69
723.59	273.11
723.93	272.53
724.26	271.97
724.59	271.40
724.92	270.86
725.25	270.31
725.59	269.82
725.92	269.32
726.25	268.81
726.58	268.33
726.91	267.85
727.24	267.36
727.57	266.90
727.91	266.38
728.24	265.95
728.57	265.48
728.90	265.03
729.23	264.49
729.56	264.04
729.89	263.57
730.22	263.05
730.55	262.59
730.89	262.14
731.22	261.69
731.55	261.25
731.88	260.84
732.21	260.46
732.54	260.05
732.87	259.60
733.20	259.18
733.53	258.79
733.86	258.40
734.19	258.04
734.52	257.68
734.85	257.40
735.18	256.98
735.51	256.65
735.84	256.29
736.17	255.99
736.50	255.61
736.83	255.41
737.16	255.11
737.49	254.79
737.82	254.46
738.15	254.18
738.48	253.86
738.81	253.54
739.14	253.19
739.47	252.89
739.80	252.62
740.13	252.34
740.46	252.03
740.79	251.71
741.12	251.40
741.45	251.08
741.78	250.77
742.11	250.50
742.44	250.14
742.77	249.85
743.10	249.54
743.43	249.27
743.75	248.88
744.08	248.74
744.41	248.49
744.74	248.24
745.07	247.92
745.40	247.67
745.73	247.47
746.06	247.22
746.39	246.94
746.71	246.67
747.04	246.38
747.37	246.12
747.70	245.91
748.03	245.66
748.36	245.45
748.68	245.19
749.01	244.89
749.34	244.66
749.67	244.44
750.00	244.24
750.33	244.05
750.65	243.83
750.98	243.48
751.31	243.27
751.64	243.05
751.97	242.90
752.29	242.66
752.62	242.41
752.95	242.18
753.28	241.97
753.60	241.75
753.93	241.57
754.26	241.38
754.59	241.15
754.91	240.92
755.24	240.65
755.57	240.44
755.90	240.30
756.22	240.13
756.55	239.91
756.88	239.68
757.20	239.44
757.53	239.24
757.86	239.06
758.19	238.87
758.51	238.67
758.84	238.43
759.17	238.22
759.49	238.01
759.82	237.90
760.15	237.74
760.47	237.59
760.80	237.41
761.13	237.23
761.45	237.05
761.78	236.92
762.11	236.80
762.43	236.66
762.76	236.48
763.08	236.34
763.41	236.21
763.74	236.07
764.06	235.93
764.39	235.75
764.71	235.59
765.04	235.44
765.37	235.31
765.69	235.19
766.02	235.08
766.34	234.96
766.67	234.77
767.00	234.66
767.32	234.54
767.65	234.48
767.97	234.37
768.30	234.28
768.62	234.14
768.95	234.01
769.27	233.88
769.60	233.77
769.92	233.64
770.25	233.52
770.57	233.40
770.90	233.28
771.22	233.18
771.55	233.09
771.87	233.00
772.20	232.87
772.52	232.85
772.85	232.85
773.17	232.77
773.50	232.69
773.82	232.57
774.15	232.45
774.47	232.30
774.80	232.17
775.12	232.08
775.45	232.02
775.77	231.95
776.09	231.87
776.42	231.80
776.74	231.75
777.07	231.65
777.39	231.60
777.72	231.51
778.04	231.44
778.36	231.38
778.69	231.32
779.01	231.28
779.33	231.14
779.66	230.97
779.98	230.89
780.31	230.86
780.63	230.85
780.95	230.80
781.28	230.76
781.60	230.70
781.92	230.63
782.25	230.56
782.57	230.54
782.89	230.47
783.22	230.40
783.54	230.31
783.86	230.29
784.19	230.23
784.51	230.25
784.83	230.20
785.16	230.15
785.48	230.09
785.80	230.06
786.12	230.01
786.45	229.98
786.77	229.94
787.09	229.87
