SpectraSuite Data File
++++++++++++++++++++++++++++++++++++
Date: Fri Feb 01 16:50:54 EST 2013
User: group
Dark Spectrum Present: No
Reference Spectrum Present: No
Number of Sampled Component Spectra: 1
Spectrometers: USB2E7196
Integration Time (usec): 35000 (USB2E7196)
Spectra Averaged: 100 (USB2E7196)
Boxcar Smoothing: 10 (USB2E7196)
Correct for Electrical Dark: No (USB2E7196)
Strobe/Lamp Enabled: No (USB2E7196)
Correct for Detector Non-linearity: No (USB2E7196)
Correct for Stray Light: No (USB2E7196)
Number of Pixels in Processed Spectrum: 2048
>>>>>Begin Processed Spectral Data<<<<<
339.09	0.00
339.48	213.20
339.86	215.45
340.24	216.11
340.63	217.73
341.01	220.61
341.39	220.02
341.78	221.70
342.16	222.93
342.54	222.92
342.93	211.76
343.31	222.46
343.69	222.99
344.07	223.41
344.46	223.83
344.84	224.22
345.22	224.42
345.60	224.70
345.99	224.87
346.37	224.98
346.75	225.10
347.13	225.12
347.52	225.18
347.90	225.23
348.28	225.25
348.66	225.26
349.05	225.26
349.43	225.33
349.81	225.33
350.19	225.36
350.57	225.41
350.96	225.49
351.34	225.55
351.72	225.63
352.10	225.74
352.48	225.80
352.87	225.81
353.25	225.90
353.63	225.92
354.01	226.01
354.39	226.08
354.77	226.16
355.15	226.29
355.54	226.36
355.92	226.38
356.30	226.42
356.68	226.57
357.06	226.63
357.44	226.67
357.82	226.77
358.20	226.86
358.58	226.90
358.97	226.95
359.35	227.00
359.73	227.10
360.11	227.13
360.49	227.17
360.87	227.22
361.25	227.28
361.63	227.35
362.01	227.38
362.39	227.39
362.77	227.39
363.15	227.42
363.53	227.43
363.91	227.46
364.29	227.53
364.67	227.44
365.05	227.47
365.43	227.49
365.81	227.50
366.19	227.53
366.57	227.58
366.95	227.58
367.33	227.58
367.71	227.57
368.09	227.59
368.47	227.60
368.85	227.59
369.23	227.61
369.61	227.55
369.99	227.54
370.37	227.56
370.75	227.60
371.13	227.55
371.51	227.52
371.89	227.51
372.27	227.46
372.65	227.45
373.03	227.44
373.41	227.37
373.78	227.32
374.16	227.24
374.54	227.14
374.92	227.07
375.30	227.02
375.68	226.95
376.06	226.91
376.44	226.85
376.82	226.78
377.19	226.70
377.57	226.62
377.95	226.54
378.33	226.48
378.71	226.36
379.09	226.33
379.47	226.26
379.84	226.16
380.22	226.07
380.60	225.98
380.98	225.93
381.36	225.85
381.73	225.80
382.11	225.74
382.49	225.69
382.87	225.64
383.25	225.59
383.62	225.66
384.00	225.58
384.38	225.51
384.76	225.51
385.13	225.49
385.51	225.49
385.89	225.44
386.27	225.39
386.64	225.37
387.02	225.28
387.40	225.24
387.78	225.24
388.15	225.20
388.53	225.17
388.91	225.14
389.29	225.12
389.66	225.08
390.04	225.04
390.42	225.05
390.79	225.04
391.17	225.02
391.55	224.89
391.92	224.87
392.30	224.87
392.68	224.84
393.05	224.86
393.43	224.83
393.81	224.83
394.18	224.83
394.56	224.84
394.94	224.89
395.31	224.90
395.69	224.92
396.06	224.99
396.44	225.00
396.82	225.02
397.19	225.09
397.57	225.13
397.95	225.19
398.32	225.20
398.70	225.22
399.07	225.28
399.45	225.32
399.82	225.36
400.20	225.45
400.58	225.53
400.95	225.53
401.33	225.64
401.70	225.82
402.08	225.89
402.45	225.94
402.83	226.06
403.20	226.16
403.58	226.26
403.95	226.36
404.33	226.48
404.71	226.59
405.08	226.76
405.46	226.88
405.83	227.03
406.21	227.20
406.58	227.36
406.96	227.53
407.33	227.66
407.70	227.86
408.08	228.09
408.45	228.29
408.83	228.53
409.20	228.72
409.58	228.84
409.95	229.11
410.33	229.43
410.70	229.68
411.08	229.97
411.45	230.26
411.82	230.56
412.20	230.92
412.57	231.31
412.95	231.61
413.32	232.03
413.69	232.42
414.07	232.86
414.44	233.34
414.82	233.80
415.19	234.39
415.56	234.94
415.94	235.48
416.31	236.15
416.68	236.74
417.06	237.44
417.43	238.14
417.81	238.91
418.18	239.68
418.55	240.52
418.93	241.36
419.30	242.27
419.67	243.21
420.04	244.18
420.42	245.16
420.79	246.36
421.16	247.50
421.54	248.67
421.91	249.87
422.28	251.14
422.66	252.48
423.03	253.76
423.40	255.10
423.77	256.51
424.15	257.93
424.52	259.42
424.89	261.02
425.26	262.53
425.64	263.93
426.01	265.48
426.38	267.08
426.75	268.77
427.13	270.45
427.50	272.24
427.87	274.07
428.24	275.98
428.61	277.71
428.99	279.63
429.36	281.78
429.73	283.82
430.10	285.81
430.47	287.86
430.85	289.96
431.22	292.15
431.59	294.49
431.96	296.68
432.33	299.11
432.70	301.50
433.08	304.29
433.45	306.94
433.82	309.58
434.19	312.46
434.56	315.26
434.93	317.94
435.30	320.54
435.68	323.43
436.05	326.20
436.42	328.96
436.79	331.43
437.16	334.05
437.53	336.85
437.90	339.66
438.27	342.34
438.64	345.12
439.01	347.70
439.38	349.93
439.75	352.09
440.13	354.60
440.50	356.90
440.87	358.74
441.24	360.65
441.61	362.79
441.98	364.28
442.35	366.01
442.72	367.84
443.09	369.57
443.46	370.48
443.83	371.10
444.20	371.58
444.57	372.42
444.94	372.75
445.31	373.11
445.68	373.45
446.05	373.53
446.42	373.16
446.79	372.77
447.16	372.35
447.53	372.00
447.90	370.86
448.27	369.72
448.64	368.18
449.01	367.07
449.37	365.09
449.74	363.16
450.11	360.97
450.48	358.57
450.85	356.12
451.22	354.07
451.59	352.00
451.96	350.12
452.33	347.55
452.70	345.15
453.07	342.33
453.43	339.40
453.80	336.67
454.17	334.08
454.54	331.53
454.91	328.78
455.28	326.19
455.65	323.69
456.02	321.26
456.38	319.17
456.75	316.50
457.12	314.32
457.49	312.13
457.86	310.00
458.23	308.10
458.59	306.07
458.96	304.01
459.33	302.17
459.70	300.33
460.07	298.84
460.43	297.17
460.80	295.56
461.17	294.17
461.54	292.71
461.91	291.25
462.27	289.83
462.64	288.61
463.01	287.25
463.38	286.02
463.74	284.66
464.11	283.45
464.48	282.48
464.85	281.39
465.21	280.59
465.58	279.64
465.95	278.57
466.32	277.71
466.68	276.79
467.05	275.94
467.42	275.00
467.78	274.08
468.15	273.22
468.52	272.57
468.88	271.72
469.25	270.93
469.62	270.35
469.98	269.71
470.35	269.07
470.72	268.48
471.08	267.81
471.45	267.28
471.82	266.74
472.18	266.14
472.55	265.68
472.92	265.12
473.28	264.72
473.65	264.29
474.02	263.84
474.38	263.53
474.75	263.22
475.11	262.94
475.48	262.69
475.85	262.48
476.21	262.26
476.58	262.15
476.94	262.01
477.31	261.83
477.67	261.67
478.04	261.55
478.41	261.54
478.77	261.61
479.14	261.56
479.50	261.58
479.87	261.67
480.23	261.78
480.60	261.87
480.96	261.96
481.33	262.19
481.69	262.36
482.06	262.55
482.42	262.77
482.79	263.02
483.15	263.34
483.52	263.72
483.88	264.07
484.25	264.43
484.61	264.90
484.98	265.36
485.34	265.95
485.71	266.57
486.07	267.12
486.44	267.69
486.80	268.42
487.17	269.18
487.53	269.99
487.90	270.85
488.26	271.76
488.62	272.73
488.99	273.67
489.35	274.73
489.72	275.85
490.08	277.06
490.44	278.26
490.81	279.58
491.17	280.96
491.54	282.49
491.90	283.99
492.26	285.61
492.63	287.32
492.99	289.09
493.36	290.98
493.72	293.06
494.08	295.14
494.45	297.35
494.81	299.68
495.17	302.09
495.54	304.66
495.90	307.36
496.26	310.17
496.63	313.18
496.99	316.27
497.35	319.49
497.72	322.85
498.08	326.39
498.44	330.05
498.80	333.92
499.17	337.95
499.53	342.15
499.89	346.45
500.26	350.99
500.62	355.64
500.98	360.63
501.34	365.71
501.71	371.05
502.07	376.51
502.43	382.14
502.79	388.02
503.16	394.09
503.52	400.33
503.88	406.74
504.24	413.35
504.60	420.23
504.97	427.29
505.33	434.58
505.69	442.28
506.05	450.01
506.41	457.87
506.78	465.96
507.14	474.31
507.50	483.11
507.86	492.08
508.22	501.23
508.59	510.36
508.95	519.83
509.31	529.55
509.67	539.58
510.03	549.86
510.39	560.27
510.75	570.91
511.12	581.78
511.48	592.99
511.84	604.37
512.20	615.79
512.56	627.76
512.92	639.86
513.28	652.16
513.64	664.53
514.00	677.16
514.37	689.98
514.73	702.95
515.09	715.77
515.45	728.93
515.81	742.45
516.17	756.34
516.53	770.40
516.89	784.43
517.25	798.50
517.61	812.71
517.97	827.06
518.33	841.41
518.69	856.04
519.05	870.77
519.41	885.70
519.77	901.07
520.13	916.38
520.49	931.59
520.85	946.69
521.21	962.21
521.57	978.28
521.93	993.93
522.29	1010.09
522.65	1026.24
523.01	1042.17
523.37	1057.95
523.73	1073.91
524.09	1089.79
524.45	1105.86
524.81	1122.15
525.17	1138.69
525.53	1155.35
525.89	1171.94
526.25	1188.56
526.61	1204.76
526.97	1221.38
527.33	1237.62
527.68	1254.00
528.04	1270.13
528.40	1286.48
528.76	1303.41
529.12	1319.78
529.48	1336.39
529.84	1352.12
530.20	1368.51
530.56	1385.25
530.91	1402.47
531.27	1418.97
531.63	1435.20
531.99	1451.58
532.35	1467.38
532.71	1483.10
533.07	1499.10
533.42	1514.76
533.78	1530.59
534.14	1546.66
534.50	1561.73
534.86	1577.31
535.21	1592.23
535.57	1608.02
535.93	1623.31
536.29	1637.76
536.65	1652.55
537.00	1667.01
537.36	1682.21
537.72	1696.46
538.08	1710.80
538.44	1724.36
538.79	1738.11
539.15	1751.43
539.51	1764.90
539.87	1779.02
540.22	1792.44
540.58	1805.86
540.94	1818.95
541.29	1831.61
541.65	1844.03
542.01	1857.00
542.37	1869.31
542.72	1881.48
543.08	1893.08
543.44	1905.26
543.79	1916.39
544.15	1927.20
544.51	1938.78
544.87	1949.53
545.22	1960.16
545.58	1970.17
545.94	1979.76
546.29	1989.26
546.65	1999.22
547.01	2008.31
547.36	2016.95
547.72	2025.43
548.07	2033.38
548.43	2041.44
548.79	2049.43
549.14	2056.88
549.50	2064.12
549.86	2071.63
550.21	2078.83
550.57	2086.02
550.92	2092.60
551.28	2099.64
551.64	2106.57
551.99	2112.89
552.35	2118.93
552.70	2125.02
553.06	2130.92
553.41	2137.20
553.77	2143.32
554.13	2149.28
554.48	2155.62
554.84	2161.18
555.19	2166.35
555.55	2171.51
555.90	2176.19
556.26	2181.01
556.61	2185.84
556.97	2190.31
557.32	2194.37
557.68	2198.61
558.03	2202.78
558.39	2206.39
558.74	2210.96
559.10	2215.01
559.45	2218.75
559.81	2223.10
560.16	2227.11
560.52	2230.60
560.87	2234.02
561.23	2236.68
561.58	2239.57
561.94	2242.01
562.29	2244.32
562.64	2247.13
563.00	2249.77
563.35	2253.13
563.71	2256.19
564.06	2259.31
564.42	2262.20
564.77	2264.93
565.12	2267.35
565.48	2269.57
565.83	2271.69
566.19	2273.21
566.54	2274.03
566.89	2275.34
567.25	2276.14
567.60	2277.43
567.96	2279.15
568.31	2280.08
568.66	2281.38
569.02	2282.18
569.37	2282.61
569.72	2283.63
570.08	2283.89
570.43	2283.91
570.78	2283.57
571.14	2282.27
571.49	2281.20
571.84	2280.93
572.20	2279.97
572.55	2279.03
572.90	2277.41
573.26	2276.17
573.61	2274.40
573.96	2272.90
574.31	2269.94
574.67	2266.99
575.02	2263.60
575.37	2260.25
575.72	2256.58
576.08	2253.25
576.43	2249.99
576.78	2246.65
577.13	2243.62
577.49	2240.67
577.84	2237.40
578.19	2233.80
578.54	2230.46
578.90	2226.46
579.25	2221.13
579.60	2216.27
579.95	2211.40
580.30	2206.52
580.66	2201.39
581.01	2196.62
581.36	2191.84
581.71	2188.07
582.06	2183.85
582.42	2179.51
582.77	2174.56
583.12	2170.27
583.47	2165.77
583.82	2160.84
584.17	2155.73
584.53	2150.27
584.88	2144.78
585.23	2139.13
585.58	2133.76
585.93	2128.39
586.28	2123.56
586.63	2118.56
586.98	2113.62
587.34	2109.06
587.69	2104.30
588.04	2099.30
588.39	2093.79
588.74	2087.47
589.09	2081.30
589.44	2074.60
589.79	2068.52
590.14	2062.98
590.49	2056.51
590.84	2050.15
591.19	2044.31
591.54	2037.91
591.89	2030.76
592.25	2024.11
592.60	2017.19
592.95	2009.77
593.30	2002.48
593.65	1995.08
594.00	1988.11
594.35	1980.92
594.70	1972.98
595.05	1965.97
595.40	1958.83
595.75	1951.46
596.10	1945.36
596.45	1938.81
596.80	1932.86
597.15	1926.52
597.50	1919.75
597.85	1913.33
598.19	1906.94
598.54	1899.95
598.89	1893.38
599.24	1887.63
599.59	1881.17
599.94	1874.87
600.29	1868.65
600.64	1862.19
600.99	1854.94
601.34	1848.21
601.69	1841.33
602.04	1834.63
602.39	1827.36
602.74	1820.55
603.08	1814.03
603.43	1807.37
603.78	1800.09
604.13	1792.94
604.48	1785.74
604.83	1778.75
605.18	1772.01
605.53	1764.11
605.87	1756.23
606.22	1748.90
606.57	1740.97
606.92	1733.49
607.27	1726.57
607.62	1719.73
607.96	1712.60
608.31	1706.17
608.66	1698.80
609.01	1691.41
609.36	1683.77
609.70	1675.84
610.05	1667.87
610.40	1660.17
610.75	1652.01
611.10	1644.42
611.44	1635.95
611.79	1627.99
612.14	1619.36
612.49	1610.19
612.83	1601.87
613.18	1593.79
613.53	1585.96
613.88	1577.48
614.22	1569.37
614.57	1560.74
614.92	1552.73
615.27	1545.25
615.61	1536.85
615.96	1528.73
616.31	1521.00
616.65	1513.72
617.00	1506.21
617.35	1498.56
617.70	1490.32
618.04	1481.78
618.39	1473.47
618.74	1466.06
619.08	1457.83
619.43	1450.34
619.78	1443.47
620.12	1436.37
620.47	1428.99
620.82	1420.67
621.16	1413.15
621.51	1405.56
621.85	1397.85
622.20	1389.31
622.55	1380.85
622.89	1373.02
623.24	1365.41
623.59	1358.07
623.93	1350.56
624.28	1343.35
624.62	1335.93
624.97	1328.68
625.32	1321.95
625.66	1315.05
626.01	1307.79
626.35	1300.33
626.70	1292.47
627.04	1284.79
627.39	1276.90
627.73	1269.46
628.08	1262.67
628.43	1255.56
628.77	1248.20
629.12	1240.71
629.46	1233.61
629.81	1226.24
630.15	1218.96
630.50	1211.60
630.84	1203.42
631.19	1195.43
631.53	1187.92
631.88	1180.25
632.22	1172.71
632.57	1165.36
632.91	1157.72
633.26	1150.33
633.60	1142.89
633.95	1135.78
634.29	1128.65
634.64	1122.09
634.98	1114.68
635.32	1107.54
635.67	1100.91
636.01	1094.23
636.36	1087.47
636.70	1080.85
637.05	1074.24
637.39	1067.85
637.73	1061.34
638.08	1055.51
638.42	1049.64
638.77	1043.18
639.11	1036.76
639.45	1030.49
639.80	1023.86
640.14	1017.60
640.49	1011.14
640.83	1004.93
641.17	998.83
641.52	992.56
641.86	985.98
642.20	980.19
642.55	973.75
642.89	967.24
643.23	960.71
643.58	954.98
643.92	948.86
644.26	942.88
644.61	936.82
644.95	930.82
645.29	924.28
645.64	917.47
645.98	911.16
646.32	905.18
646.66	899.03
647.01	893.26
647.35	887.57
647.69	881.68
648.04	876.13
648.38	870.29
648.72	864.37
649.06	858.35
649.41	852.46
649.75	846.67
650.09	840.80
650.43	835.06
650.78	828.89
651.12	822.92
651.46	817.26
651.80	811.56
652.14	806.23
652.49	800.87
652.83	795.77
653.17	790.08
653.51	784.48
653.85	779.09
654.20	773.44
654.54	767.45
654.88	761.70
655.22	755.87
655.56	750.16
655.90	744.71
656.25	739.60
656.59	734.21
656.93	729.13
657.27	724.00
657.61	718.55
657.95	713.53
658.29	708.50
658.64	703.15
658.98	697.79
659.32	692.29
659.66	687.08
660.00	681.78
660.34	676.85
660.68	671.89
661.02	666.89
661.36	662.19
661.70	657.59
662.05	653.32
662.39	648.93
662.73	644.46
663.07	640.05
663.41	635.59
663.75	631.14
664.09	626.51
664.43	622.12
664.77	618.09
665.11	613.84
665.45	609.67
665.79	605.61
666.13	601.54
666.47	597.44
666.81	593.25
667.15	589.08
667.49	585.16
667.83	581.27
668.17	577.33
668.51	573.29
668.85	569.26
669.19	565.36
669.53	561.54
669.87	557.69
670.21	554.00
670.55	550.27
670.89	546.84
671.23	543.43
671.57	539.85
671.91	536.26
672.25	532.66
672.58	529.18
672.92	525.71
673.26	522.54
673.60	519.41
673.94	516.39
674.28	513.45
674.62	510.53
674.96	507.45
675.30	504.51
675.64	501.56
675.97	498.80
676.31	495.94
676.65	493.07
676.99	490.37
677.33	487.51
677.67	484.69
678.01	481.68
678.34	478.68
678.68	475.84
679.02	473.02
679.36	470.31
679.70	467.57
680.04	464.84
680.37	461.98
680.71	459.16
681.05	456.46
681.39	453.77
681.73	451.12
682.06	448.65
682.40	446.15
682.74	443.61
683.08	441.04
683.42	438.43
683.75	435.87
684.09	433.32
684.43	430.82
684.77	428.37
685.10	425.99
685.44	423.73
685.78	421.40
686.12	419.12
686.45	416.83
686.79	414.51
687.13	412.31
687.46	410.14
687.80	407.98
688.14	405.76
688.48	403.76
688.81	401.50
689.15	399.30
689.49	397.11
689.82	395.00
690.16	392.91
690.50	391.01
690.83	389.10
691.17	387.13
691.51	385.23
691.84	383.41
692.18	381.51
692.52	379.55
692.85	377.64
693.19	375.79
693.52	373.90
693.86	372.07
694.20	370.31
694.53	368.49
694.87	366.62
695.21	364.81
695.54	362.96
695.88	361.25
696.21	359.55
696.55	357.89
696.88	356.21
697.22	354.57
697.56	352.94
697.89	351.27
698.23	349.71
698.56	348.07
698.90	346.50
699.23	344.86
699.57	343.27
699.90	341.72
700.24	340.21
700.58	338.74
700.91	337.29
701.25	335.86
701.58	334.54
701.92	333.20
702.25	331.84
702.59	330.46
702.92	329.12
703.26	327.82
703.59	326.56
703.93	325.37
704.26	324.19
704.60	322.87
704.93	321.59
705.26	320.27
705.60	319.14
705.93	317.95
706.27	316.85
706.60	315.83
706.94	314.73
707.27	313.57
707.61	312.49
707.94	311.47
708.27	310.35
708.61	309.22
708.94	308.21
709.28	307.23
709.61	306.30
709.94	305.34
710.28	304.30
710.61	303.27
710.95	302.19
711.28	301.21
711.61	300.26
711.95	299.39
712.28	298.51
712.61	297.51
712.95	296.59
713.28	295.76
713.61	294.83
713.95	293.98
714.28	293.16
714.61	292.31
714.95	291.44
715.28	290.59
715.61	289.71
715.95	288.84
716.28	288.00
716.61	287.12
716.95	286.29
717.28	285.54
717.61	284.80
717.94	284.09
718.28	283.28
718.61	282.56
718.94	281.79
719.27	281.09
719.61	280.43
719.94	279.78
720.27	279.03
720.60	278.34
720.94	277.69
721.27	277.10
721.60	276.52
721.93	275.94
722.27	275.40
722.60	274.86
722.93	274.31
723.26	273.75
723.59	273.19
723.93	272.61
724.26	272.07
724.59	271.50
724.92	270.97
725.25	270.49
725.59	269.94
725.92	269.45
726.25	268.97
726.58	268.48
726.91	267.96
727.24	267.50
727.57	267.05
727.91	266.55
728.24	266.10
728.57	265.60
728.90	265.16
729.23	264.65
729.56	264.26
729.89	263.80
730.22	263.28
730.55	262.85
730.89	262.41
731.22	261.99
731.55	261.53
731.88	261.10
732.21	260.69
732.54	260.27
732.87	259.85
733.20	259.43
733.53	259.02
733.86	258.65
734.19	258.24
734.52	257.88
734.85	257.56
735.18	257.13
735.51	256.77
735.84	256.38
736.17	256.04
736.50	255.57
736.83	255.33
737.16	255.05
737.49	254.70
737.82	254.39
738.15	254.05
738.48	253.73
738.81	253.40
739.14	253.06
739.47	252.73
739.80	252.41
740.13	252.10
740.46	251.78
740.79	251.43
741.12	251.15
741.45	250.85
741.78	250.49
742.11	250.21
742.44	249.85
742.77	249.54
743.10	249.28
743.43	249.04
743.75	248.66
744.08	248.47
744.41	248.19
744.74	247.93
745.07	247.64
745.40	247.39
745.73	247.15
746.06	246.86
746.39	246.59
746.71	246.35
747.04	246.10
747.37	245.85
747.70	245.63
748.03	245.35
748.36	245.09
748.68	244.87
749.01	244.60
749.34	244.40
749.67	244.19
750.00	243.95
750.33	243.75
750.65	243.52
750.98	243.19
751.31	243.00
751.64	242.77
751.97	242.60
752.29	242.36
752.62	242.11
752.95	241.88
753.28	241.68
753.60	241.43
753.93	241.25
754.26	241.05
754.59	240.82
754.91	240.63
755.24	240.41
755.57	240.20
755.90	240.00
756.22	239.81
756.55	239.57
756.88	239.32
757.20	239.10
757.53	238.88
757.86	238.68
758.19	238.50
758.51	238.32
758.84	238.11
759.17	237.95
759.49	237.76
759.82	237.64
760.15	237.50
760.47	237.35
760.80	237.17
761.13	237.02
761.45	236.83
761.78	236.68
762.11	236.57
762.43	236.41
762.76	236.31
763.08	236.17
763.41	236.06
763.74	235.97
764.06	235.82
764.39	235.72
764.71	235.63
765.04	235.51
765.37	235.40
765.69	235.32
766.02	235.20
766.34	235.12
766.67	235.01
767.00	234.93
767.32	234.87
767.65	234.84
767.97	234.75
768.30	234.67
768.62	234.58
768.95	234.46
769.27	234.34
769.60	234.24
769.92	234.14
770.25	234.03
770.57	233.91
770.90	233.84
771.22	233.74
771.55	233.63
771.87	233.54
772.20	233.44
772.52	233.40
772.85	233.40
773.17	233.29
773.50	233.16
773.82	233.05
774.15	232.95
774.47	232.82
774.80	232.72
775.12	232.64
775.45	232.55
775.77	232.46
776.09	232.41
776.42	232.31
776.74	232.28
777.07	232.21
777.39	232.12
777.72	232.04
778.04	231.98
778.36	231.88
778.69	231.81
779.01	231.77
779.33	231.62
779.66	231.49
779.98	231.43
780.31	231.37
780.63	231.33
780.95	231.26
781.28	231.18
781.60	231.14
781.92	231.06
782.25	230.99
782.57	230.95
782.89	230.87
783.22	230.78
783.54	230.70
783.86	230.63
784.19	230.58
784.51	230.53
784.83	230.44
785.16	230.39
785.48	230.34
785.80	230.24
786.12	230.16
786.45	230.06
786.77	229.97
787.09	229.92
