SpectraSuite Data File
++++++++++++++++++++++++++++++++++++
Date: Fri Feb 01 15:00:18 EST 2013
User: group
Dark Spectrum Present: No
Reference Spectrum Present: No
Number of Sampled Component Spectra: 1
Spectrometers: USB2E7196
Integration Time (usec): 35000 (USB2E7196)
Spectra Averaged: 100 (USB2E7196)
Boxcar Smoothing: 10 (USB2E7196)
Correct for Electrical Dark: No (USB2E7196)
Strobe/Lamp Enabled: No (USB2E7196)
Correct for Detector Non-linearity: No (USB2E7196)
Correct for Stray Light: No (USB2E7196)
Number of Pixels in Processed Spectrum: 2048
>>>>>Begin Processed Spectral Data<<<<<
339.09	0.00
339.48	214.95
339.86	216.75
340.24	217.82
340.63	219.21
341.01	222.51
341.39	222.05
341.78	223.62
342.16	224.49
342.54	225.18
342.93	213.64
343.31	224.43
343.69	224.98
344.07	225.45
344.46	225.87
344.84	226.25
345.22	226.48
345.60	226.75
345.99	226.93
346.37	227.08
346.75	227.17
347.13	227.23
347.52	227.30
347.90	227.37
348.28	227.38
348.66	227.41
349.05	227.38
349.43	227.45
349.81	227.50
350.19	227.53
350.57	227.56
350.96	227.66
351.34	227.74
351.72	227.82
352.10	227.90
352.48	227.98
352.87	228.03
353.25	228.08
353.63	228.11
354.01	228.17
354.39	228.20
354.77	228.30
355.15	228.40
355.54	228.44
355.92	228.46
356.30	228.54
356.68	228.66
357.06	228.72
357.44	228.75
357.82	228.80
358.20	228.86
358.58	228.91
358.97	228.94
359.35	229.05
359.73	229.11
360.11	229.17
360.49	229.24
360.87	229.28
361.25	229.34
361.63	229.38
362.01	229.41
362.39	229.43
362.77	229.44
363.15	229.46
363.53	229.46
363.91	229.49
364.29	229.51
364.67	229.42
365.05	229.46
365.43	229.47
365.81	229.45
366.19	229.48
366.57	229.49
366.95	229.50
367.33	229.43
367.71	229.40
368.09	229.39
368.47	229.34
368.85	229.32
369.23	229.32
369.61	229.28
369.99	229.29
370.37	229.30
370.75	229.27
371.13	229.17
371.51	229.11
371.89	229.07
372.27	229.02
372.65	228.96
373.03	228.89
373.41	228.83
373.78	228.75
374.16	228.62
374.54	228.54
374.92	228.42
375.30	228.38
375.68	228.30
376.06	228.23
376.44	228.17
376.82	228.09
377.19	228.01
377.57	227.93
377.95	227.84
378.33	227.73
378.71	227.62
379.09	227.60
379.47	227.52
379.84	227.45
380.22	227.36
380.60	227.28
380.98	227.17
381.36	227.08
381.73	227.03
382.11	227.00
382.49	226.95
382.87	226.88
383.25	226.81
383.62	226.87
384.00	226.77
384.38	226.72
384.76	226.68
385.13	226.66
385.51	226.63
385.89	226.55
386.27	226.54
386.64	226.53
387.02	226.47
387.40	226.46
387.78	226.42
388.15	226.41
388.53	226.38
388.91	226.38
389.29	226.36
389.66	226.33
390.04	226.31
390.42	226.31
390.79	226.32
391.17	226.30
391.55	226.21
391.92	226.21
392.30	226.21
392.68	226.18
393.05	226.20
393.43	226.22
393.81	226.24
394.18	226.24
394.56	226.26
394.94	226.30
395.31	226.35
395.69	226.39
396.06	226.43
396.44	226.48
396.82	226.54
397.19	226.65
397.57	226.70
397.95	226.76
398.32	226.79
398.70	226.87
399.07	226.97
399.45	227.03
399.82	227.11
400.20	227.16
400.58	227.28
400.95	227.33
401.33	227.44
401.70	227.62
402.08	227.72
402.45	227.80
402.83	227.94
403.20	228.05
403.58	228.18
403.95	228.30
404.33	228.46
404.71	228.58
405.08	228.79
405.46	228.96
405.83	229.11
406.21	229.28
406.58	229.43
406.96	229.62
407.33	229.79
407.70	230.00
408.08	230.29
408.45	230.50
408.83	230.74
409.20	230.92
409.58	231.08
409.95	231.32
410.33	231.62
410.70	231.85
411.08	232.12
411.45	232.46
411.82	232.79
412.20	233.14
412.57	233.55
412.95	233.83
413.32	234.23
413.69	234.66
414.07	235.12
414.44	235.62
414.82	236.04
415.19	236.60
415.56	237.16
415.94	237.71
416.31	238.34
416.68	238.97
417.06	239.67
417.43	240.37
417.81	241.14
418.18	241.92
418.55	242.76
418.93	243.65
419.30	244.50
419.67	245.45
420.04	246.40
420.42	247.38
420.79	248.57
421.16	249.73
421.54	250.89
421.91	252.07
422.28	253.30
422.66	254.66
423.03	255.96
423.40	257.28
423.77	258.69
424.15	260.13
424.52	261.62
424.89	263.30
425.26	264.84
425.64	266.28
426.01	267.87
426.38	269.55
426.75	271.24
427.13	272.98
427.50	274.76
427.87	276.62
428.24	278.48
428.61	280.24
428.99	282.19
429.36	284.34
429.73	286.41
430.10	288.44
430.47	290.50
430.85	292.67
431.22	294.94
431.59	297.33
431.96	299.55
432.33	302.03
432.70	304.36
433.08	307.15
433.45	309.82
433.82	312.45
434.19	315.35
434.56	318.15
434.93	320.82
435.30	323.44
435.68	326.33
436.05	329.17
436.42	331.95
436.79	334.48
437.16	337.17
437.53	340.00
437.90	342.86
438.27	345.60
438.64	348.37
439.01	350.93
439.38	353.17
439.75	355.36
440.13	357.89
440.50	360.26
440.87	362.13
441.24	364.09
441.61	366.24
441.98	367.72
442.35	369.52
442.72	371.38
443.09	373.21
443.46	374.21
443.83	374.84
444.20	375.36
444.57	376.17
444.94	376.45
445.31	376.79
445.68	377.14
446.05	377.22
446.42	376.88
446.79	376.49
447.16	376.05
447.53	375.73
447.90	374.54
448.27	373.43
448.64	371.91
449.01	370.80
449.37	368.80
449.74	366.87
450.11	364.67
450.48	362.23
450.85	359.70
451.22	357.57
451.59	355.51
451.96	353.51
452.33	350.88
452.70	348.55
453.07	345.73
453.43	342.81
453.80	340.08
454.17	337.38
454.54	334.83
454.91	332.09
455.28	329.41
455.65	326.93
456.02	324.44
456.38	322.26
456.75	319.61
457.12	317.41
457.49	315.20
457.86	312.97
458.23	311.07
458.59	309.03
458.96	306.95
459.33	305.12
459.70	303.28
460.07	301.80
460.43	300.07
460.80	298.43
461.17	296.98
461.54	295.45
461.91	294.01
462.27	292.53
462.64	291.28
463.01	289.91
463.38	288.59
463.74	287.18
464.11	285.98
464.48	284.92
464.85	283.75
465.21	282.86
465.58	281.92
465.95	280.84
466.32	279.92
466.68	278.98
467.05	278.04
467.42	277.12
467.78	276.16
468.15	275.29
468.52	274.61
468.88	273.72
469.25	272.96
469.62	272.35
469.98	271.68
470.35	271.04
470.72	270.44
471.08	269.73
471.45	269.16
471.82	268.60
472.18	267.98
472.55	267.56
472.92	267.04
473.28	266.55
473.65	266.08
474.02	265.61
474.38	265.27
474.75	264.95
475.11	264.63
475.48	264.36
475.85	264.12
476.21	263.94
476.58	263.78
476.94	263.59
477.31	263.42
477.67	263.27
478.04	263.17
478.41	263.12
478.77	263.20
479.14	263.16
479.50	263.17
479.87	263.24
480.23	263.31
480.60	263.37
480.96	263.46
481.33	263.70
481.69	263.90
482.06	264.08
482.42	264.28
482.79	264.55
483.15	264.87
483.52	265.19
483.88	265.51
484.25	265.94
484.61	266.35
484.98	266.81
485.34	267.37
485.71	267.93
486.07	268.53
486.44	269.08
486.80	269.80
487.17	270.52
487.53	271.32
487.90	272.17
488.26	273.10
488.62	274.09
488.99	275.02
489.35	276.05
489.72	277.17
490.08	278.35
490.44	279.58
490.81	280.89
491.17	282.26
491.54	283.75
491.90	285.23
492.26	286.88
492.63	288.60
492.99	290.33
493.36	292.20
493.72	294.23
494.08	296.35
494.45	298.58
494.81	300.96
495.17	303.36
495.54	305.89
495.90	308.54
496.26	311.34
496.63	314.28
496.99	317.35
497.35	320.59
497.72	323.99
498.08	327.45
498.44	331.10
498.80	334.97
499.17	338.90
499.53	343.03
499.89	347.37
500.26	351.85
500.62	356.48
500.98	361.43
501.34	366.49
501.71	371.73
502.07	377.12
502.43	382.71
502.79	388.49
503.16	394.53
503.52	400.76
503.88	407.12
504.24	413.71
504.60	420.52
504.97	427.64
505.33	434.91
505.69	442.56
506.05	450.30
506.41	458.20
506.78	466.31
507.14	474.73
507.50	483.37
507.86	492.31
508.22	501.49
508.59	510.63
508.95	520.13
509.31	530.00
509.67	540.07
510.03	550.30
510.39	560.87
510.75	571.64
511.12	582.52
511.48	593.77
511.84	605.23
512.20	616.78
512.56	628.73
512.92	640.89
513.28	653.13
513.64	665.64
514.00	678.38
514.37	691.33
514.73	704.40
515.09	717.51
515.45	730.78
515.81	744.38
516.17	758.46
516.53	772.68
516.89	786.83
517.25	801.09
517.61	815.54
517.97	829.96
518.33	844.43
518.69	859.25
519.05	874.36
519.41	889.59
519.77	905.16
520.13	920.56
520.49	936.06
520.85	951.65
521.21	967.44
521.57	983.73
521.93	999.65
522.29	1016.11
522.65	1032.44
523.01	1048.75
523.37	1064.82
523.73	1080.98
524.09	1097.17
524.45	1113.67
524.81	1130.43
525.17	1147.35
525.53	1164.46
525.89	1181.43
526.25	1198.41
526.61	1214.78
526.97	1231.59
527.33	1248.16
527.68	1264.87
528.04	1281.41
528.40	1298.16
528.76	1315.28
529.12	1331.91
529.48	1348.80
529.84	1364.94
530.20	1381.70
530.56	1398.91
530.91	1416.48
531.27	1433.24
531.63	1449.76
531.99	1466.32
532.35	1482.31
532.71	1498.30
533.07	1514.67
533.42	1530.68
533.78	1546.71
534.14	1563.20
534.50	1578.62
534.86	1594.60
535.21	1609.85
535.57	1625.91
535.93	1641.53
536.29	1656.45
536.65	1671.70
537.00	1686.66
537.36	1701.93
537.72	1716.52
538.08	1730.84
538.44	1744.72
538.79	1758.79
539.15	1772.49
539.51	1786.27
539.87	1800.75
540.22	1814.49
540.58	1828.30
540.94	1841.70
541.29	1854.84
541.65	1867.59
542.01	1880.98
542.37	1893.28
542.72	1905.90
543.08	1917.70
543.44	1930.11
543.79	1941.34
544.15	1952.31
544.51	1963.86
544.87	1975.05
545.22	1985.77
545.58	1996.13
545.94	2005.95
546.29	2015.86
546.65	2025.63
547.01	2034.90
547.36	2043.61
547.72	2052.17
548.07	2059.94
548.43	2068.17
548.79	2076.08
549.14	2083.40
549.50	2090.75
549.86	2098.51
550.21	2105.82
550.57	2112.95
550.92	2119.45
551.28	2126.45
551.64	2133.53
551.99	2140.13
552.35	2146.17
552.70	2152.29
553.06	2158.11
553.41	2164.39
553.77	2170.41
554.13	2176.64
554.48	2182.77
554.84	2187.96
555.19	2193.34
555.55	2198.34
555.90	2202.72
556.26	2207.52
556.61	2212.40
556.97	2216.42
557.32	2220.51
557.68	2224.56
558.03	2228.86
558.39	2232.61
558.74	2237.27
559.10	2241.02
559.45	2244.53
559.81	2248.78
560.16	2252.63
560.52	2255.87
560.87	2259.20
561.23	2261.72
561.58	2264.53
561.94	2267.01
562.29	2269.49
562.64	2272.03
563.00	2274.77
563.35	2278.31
563.71	2281.32
564.06	2284.46
564.42	2287.45
564.77	2289.75
565.12	2291.77
565.48	2293.49
565.83	2295.15
566.19	2296.27
566.54	2297.18
566.89	2298.25
567.25	2298.75
567.60	2300.01
567.96	2301.71
568.31	2302.42
568.66	2303.37
569.02	2303.89
569.37	2304.04
569.72	2304.75
570.08	2304.78
570.43	2304.59
570.78	2303.74
571.14	2302.11
571.49	2300.64
571.84	2300.09
572.20	2298.74
572.55	2297.70
572.90	2296.16
573.26	2294.78
573.61	2293.03
573.96	2291.05
574.31	2287.91
574.67	2284.77
575.02	2280.95
575.37	2277.41
575.72	2273.48
576.08	2270.08
576.43	2266.60
576.78	2262.68
577.13	2259.46
577.49	2256.16
577.84	2252.55
578.19	2248.71
578.54	2244.93
578.90	2240.50
579.25	2234.93
579.60	2230.01
579.95	2224.82
580.30	2219.53
580.66	2214.12
581.01	2209.08
581.36	2204.03
581.71	2199.71
582.06	2195.11
582.42	2190.53
582.77	2185.10
583.12	2180.40
583.47	2175.46
583.82	2170.30
584.17	2165.03
584.53	2159.39
584.88	2153.66
585.23	2147.70
585.58	2142.13
585.93	2136.70
586.28	2131.89
586.63	2126.73
586.98	2121.46
587.34	2116.74
587.69	2111.78
588.04	2106.25
588.39	2100.42
588.74	2093.85
589.09	2087.68
589.44	2080.74
589.79	2074.63
590.14	2068.75
590.49	2062.11
590.84	2055.62
591.19	2049.34
591.54	2042.79
591.89	2035.18
592.25	2028.24
592.60	2020.95
592.95	2013.21
593.30	2005.52
593.65	1997.67
594.00	1990.40
594.35	1983.20
594.70	1975.12
595.05	1967.71
595.40	1960.47
595.75	1952.78
596.10	1946.36
596.45	1939.36
596.80	1933.02
597.15	1926.18
597.50	1919.11
597.85	1912.72
598.19	1905.84
598.54	1898.76
598.89	1892.14
599.24	1886.19
599.59	1879.30
599.94	1873.05
600.29	1866.67
600.64	1860.30
600.99	1852.82
601.34	1845.87
601.69	1838.76
602.04	1831.58
602.39	1824.23
602.74	1817.29
603.08	1810.52
603.43	1803.76
603.78	1796.54
604.13	1789.27
604.48	1781.93
604.83	1775.11
605.18	1767.93
605.53	1759.98
605.87	1752.02
606.22	1744.74
606.57	1736.98
606.92	1729.75
607.27	1722.50
607.62	1715.46
607.96	1708.02
608.31	1701.35
608.66	1693.74
609.01	1686.07
609.36	1678.66
609.70	1670.67
610.05	1662.69
610.40	1655.04
610.75	1646.84
611.10	1639.12
611.44	1630.86
611.79	1622.99
612.14	1614.23
612.49	1605.14
612.83	1596.80
613.18	1588.85
613.53	1580.77
613.88	1572.14
614.22	1563.87
614.57	1555.43
614.92	1547.61
615.27	1540.02
615.61	1531.88
615.96	1524.00
616.31	1516.47
616.65	1509.16
617.00	1501.61
617.35	1494.05
617.70	1485.74
618.04	1477.22
618.39	1469.00
618.74	1461.42
619.08	1453.17
619.43	1445.76
619.78	1438.92
620.12	1431.94
620.47	1424.34
620.82	1416.22
621.16	1408.88
621.51	1401.31
621.85	1393.67
622.20	1385.03
622.55	1376.79
622.89	1368.97
623.24	1361.32
623.59	1354.13
623.93	1346.58
624.28	1339.33
624.62	1331.69
624.97	1324.65
625.32	1318.01
625.66	1310.98
626.01	1303.77
626.35	1296.34
626.70	1288.61
627.04	1280.97
627.39	1273.20
627.73	1265.84
628.08	1258.91
628.43	1251.47
628.77	1244.15
629.12	1236.69
629.46	1229.71
629.81	1222.45
630.15	1215.20
630.50	1207.80
630.84	1199.58
631.19	1191.79
631.53	1184.56
631.88	1177.08
632.22	1169.43
632.57	1162.10
632.91	1154.70
633.26	1147.37
633.60	1140.12
633.95	1133.09
634.29	1126.03
634.64	1119.41
634.98	1112.01
635.32	1105.01
635.67	1098.61
636.01	1092.03
636.36	1085.19
636.70	1078.71
637.05	1072.10
637.39	1065.72
637.73	1059.31
638.08	1053.45
638.42	1047.41
638.77	1040.85
639.11	1034.19
639.45	1027.86
639.80	1021.22
640.14	1014.82
640.49	1008.29
640.83	1001.96
641.17	995.67
641.52	989.32
641.86	982.95
642.20	977.19
642.55	970.87
642.89	964.34
643.23	957.89
643.58	952.14
643.92	945.88
644.26	939.81
644.61	933.80
644.95	927.74
645.29	921.16
645.64	914.47
645.98	908.14
646.32	902.49
646.66	896.50
647.01	890.81
647.35	885.16
647.69	879.46
648.04	874.00
648.38	868.29
648.72	862.25
649.06	856.20
649.41	850.32
649.75	844.34
650.09	838.41
650.43	832.61
650.78	826.44
651.12	820.54
651.46	814.80
651.80	808.98
652.14	803.68
652.49	798.30
652.83	793.13
653.17	787.53
653.51	781.77
653.85	776.39
654.20	770.65
654.54	764.68
654.88	758.90
655.22	753.00
655.56	747.29
655.90	741.95
656.25	736.68
656.59	731.37
656.93	726.34
657.27	721.27
657.61	715.84
657.95	710.83
658.29	705.72
658.64	700.61
658.98	695.46
659.32	689.97
659.66	684.86
660.00	679.58
660.34	674.64
660.68	669.82
661.02	664.83
661.36	660.22
661.70	655.79
662.05	651.52
662.39	647.23
662.73	642.88
663.07	638.53
663.41	634.07
663.75	629.64
664.09	625.09
664.43	620.73
664.77	616.69
665.11	612.40
665.45	608.39
665.79	604.31
666.13	600.25
666.47	596.28
666.81	592.07
667.15	588.01
667.49	584.17
667.83	580.41
668.17	576.54
668.51	572.46
668.85	568.45
669.19	564.67
669.53	560.82
669.87	556.92
670.21	553.28
670.55	549.73
670.89	546.30
671.23	542.88
671.57	539.42
671.91	535.87
672.25	532.48
672.58	529.00
672.92	525.62
673.26	522.39
673.60	519.23
673.94	516.21
674.28	513.36
674.62	510.42
674.96	507.32
675.30	504.38
675.64	501.56
675.97	498.84
676.31	496.02
676.65	493.10
676.99	490.41
677.33	487.57
677.67	484.79
678.01	481.72
678.34	478.76
678.68	475.91
679.02	473.21
679.36	470.44
679.70	467.75
680.04	465.00
680.37	462.11
680.71	459.35
681.05	456.74
681.39	454.02
681.73	451.37
682.06	448.83
682.40	446.31
682.74	443.77
683.08	441.20
683.42	438.55
683.75	436.13
684.09	433.65
684.43	431.18
684.77	428.75
685.10	426.45
685.44	424.18
685.78	421.87
686.12	419.56
686.45	417.32
686.79	415.00
687.13	412.84
687.46	410.73
687.80	408.54
688.14	406.34
688.48	404.31
688.81	402.07
689.15	399.96
689.49	397.88
689.82	395.77
690.16	393.67
690.50	391.70
690.83	389.73
691.17	387.77
691.51	385.92
691.84	384.07
692.18	382.12
692.52	380.14
692.85	378.27
693.19	376.41
693.52	374.60
693.86	372.80
694.20	370.99
694.53	369.21
694.87	367.44
695.21	365.69
695.54	363.86
695.88	362.17
696.21	360.41
696.55	358.70
696.88	357.08
697.22	355.45
697.56	353.85
697.89	352.22
698.23	350.60
698.56	348.98
698.90	347.37
699.23	345.73
699.57	344.20
699.90	342.69
700.24	341.14
700.58	339.56
700.91	338.08
701.25	336.68
701.58	335.31
701.92	333.94
702.25	332.57
702.59	331.17
702.92	329.88
703.26	328.64
703.59	327.39
703.93	326.23
704.26	325.02
704.60	323.74
704.93	322.46
705.26	321.22
705.60	320.05
705.93	318.89
706.27	317.90
706.60	316.90
706.94	315.84
707.27	314.75
707.61	313.76
707.94	312.78
708.27	311.67
708.61	310.61
708.94	309.61
709.28	308.62
709.61	307.71
709.94	306.77
710.28	305.78
710.61	304.81
710.95	303.69
711.28	302.78
711.61	301.86
711.95	300.98
712.28	300.05
712.61	299.09
712.95	298.20
713.28	297.34
713.61	296.40
713.95	295.47
714.28	294.62
714.61	293.74
714.95	292.88
715.28	292.03
715.61	291.18
715.95	290.35
716.28	289.46
716.61	288.62
716.95	287.81
717.28	287.06
717.61	286.29
717.94	285.54
718.28	284.71
718.61	283.99
718.94	283.29
719.27	282.65
719.61	281.98
719.94	281.33
720.27	280.62
720.60	279.97
720.94	279.38
721.27	278.77
721.60	278.19
721.93	277.61
722.27	277.08
722.60	276.54
722.93	275.98
723.26	275.48
723.59	274.91
723.93	274.37
724.26	273.80
724.59	273.26
724.92	272.78
725.25	272.29
725.59	271.76
725.92	271.24
726.25	270.69
726.58	270.21
726.91	269.67
727.24	269.19
727.57	268.71
727.91	268.20
728.24	267.76
728.57	267.27
728.90	266.82
729.23	266.33
729.56	265.88
729.89	265.41
730.22	264.95
730.55	264.50
730.89	264.06
731.22	263.58
731.55	263.13
731.88	262.70
732.21	262.30
732.54	261.86
732.87	261.47
733.20	261.09
733.53	260.71
733.86	260.34
734.19	259.95
734.52	259.60
734.85	259.25
735.18	258.83
735.51	258.46
735.84	258.07
736.17	257.74
736.50	257.37
736.83	257.16
737.16	256.83
737.49	256.49
737.82	256.15
738.15	255.84
738.48	255.50
738.81	255.20
739.14	254.90
739.47	254.59
739.80	254.28
740.13	254.00
740.46	253.67
740.79	253.40
741.12	253.07
741.45	252.77
741.78	252.44
742.11	252.18
742.44	251.89
742.77	251.59
743.10	251.26
743.43	250.97
743.75	250.56
744.08	250.39
744.41	250.13
744.74	249.84
745.07	249.59
745.40	249.37
745.73	249.13
746.06	248.82
746.39	248.57
746.71	248.33
747.04	248.05
747.37	247.80
747.70	247.54
748.03	247.30
748.36	247.05
748.68	246.84
749.01	246.56
749.34	246.34
749.67	246.14
750.00	245.93
750.33	245.78
750.65	245.58
750.98	245.27
751.31	245.09
751.64	244.87
751.97	244.68
752.29	244.44
752.62	244.17
752.95	243.95
753.28	243.76
753.60	243.51
753.93	243.33
754.26	243.14
754.59	242.89
754.91	242.69
755.24	242.51
755.57	242.34
755.90	242.15
756.22	241.95
756.55	241.73
756.88	241.51
757.20	241.28
757.53	241.09
757.86	240.93
758.19	240.73
758.51	240.56
758.84	240.36
759.17	240.22
759.49	240.07
759.82	239.98
760.15	239.80
760.47	239.66
760.80	239.49
761.13	239.36
761.45	239.21
761.78	239.08
762.11	238.92
762.43	238.74
762.76	238.60
763.08	238.45
763.41	238.32
763.74	238.17
764.06	237.99
764.39	237.85
764.71	237.69
765.04	237.56
765.37	237.43
765.69	237.30
766.02	237.16
766.34	237.02
766.67	236.83
767.00	236.76
767.32	236.71
767.65	236.61
767.97	236.49
768.30	236.38
768.62	236.23
768.95	236.10
769.27	235.98
769.60	235.92
769.92	235.84
770.25	235.71
770.57	235.62
770.90	235.52
771.22	235.39
771.55	235.31
771.87	235.20
772.20	235.09
772.52	235.07
772.85	235.10
773.17	235.02
773.50	234.95
773.82	234.81
774.15	234.63
774.47	234.51
774.80	234.39
775.12	234.28
775.45	234.21
775.77	234.14
776.09	234.08
776.42	234.01
776.74	233.95
777.07	233.86
777.39	233.78
777.72	233.74
778.04	233.68
778.36	233.61
778.69	233.57
779.01	233.52
779.33	233.38
779.66	233.20
779.98	233.05
780.31	232.99
780.63	233.00
780.95	232.99
781.28	232.91
781.60	232.86
781.92	232.82
782.25	232.77
782.57	232.72
782.89	232.67
783.22	232.58
783.54	232.50
783.86	232.50
784.19	232.43
784.51	232.36
784.83	232.33
785.16	232.23
785.48	232.18
785.80	232.12
786.12	232.07
786.45	232.04
786.77	232.05
787.09	232.01
