SpectraSuite Data File
++++++++++++++++++++++++++++++++++++
Date: Fri Feb 01 14:57:49 EST 2013
User: group
Dark Spectrum Present: No
Reference Spectrum Present: No
Number of Sampled Component Spectra: 1
Spectrometers: USB2E7196
Integration Time (usec): 35000 (USB2E7196)
Spectra Averaged: 100 (USB2E7196)
Boxcar Smoothing: 10 (USB2E7196)
Correct for Electrical Dark: No (USB2E7196)
Strobe/Lamp Enabled: No (USB2E7196)
Correct for Detector Non-linearity: No (USB2E7196)
Correct for Stray Light: No (USB2E7196)
Number of Pixels in Processed Spectrum: 2048
>>>>>Begin Processed Spectral Data<<<<<
339.09	0.00
339.48	216.01
339.86	217.38
340.24	218.62
340.63	219.81
341.01	222.15
341.39	221.83
341.78	223.88
342.16	225.03
342.54	225.13
342.93	213.73
343.31	224.54
343.69	225.06
344.07	225.52
344.46	225.92
344.84	226.27
345.22	226.51
345.60	226.78
345.99	226.97
346.37	227.10
346.75	227.20
347.13	227.25
347.52	227.32
347.90	227.43
348.28	227.48
348.66	227.49
349.05	227.47
349.43	227.51
349.81	227.58
350.19	227.63
350.57	227.73
350.96	227.79
351.34	227.83
351.72	227.89
352.10	227.96
352.48	228.05
352.87	228.13
353.25	228.21
353.63	228.29
354.01	228.36
354.39	228.47
354.77	228.57
355.15	228.67
355.54	228.72
355.92	228.73
356.30	228.82
356.68	228.97
357.06	229.04
357.44	229.08
357.82	229.13
358.20	229.20
358.58	229.24
358.97	229.29
359.35	229.42
359.73	229.48
360.11	229.53
360.49	229.56
360.87	229.58
361.25	229.61
361.63	229.63
362.01	229.64
362.39	229.61
362.77	229.61
363.15	229.60
363.53	229.62
363.91	229.66
364.29	229.67
364.67	229.55
365.05	229.56
365.43	229.56
365.81	229.58
366.19	229.63
366.57	229.65
366.95	229.65
367.33	229.61
367.71	229.59
368.09	229.59
368.47	229.56
368.85	229.54
369.23	229.54
369.61	229.49
369.99	229.47
370.37	229.43
370.75	229.44
371.13	229.38
371.51	229.31
371.89	229.24
372.27	229.19
372.65	229.15
373.03	229.08
373.41	229.03
373.78	228.92
374.16	228.78
374.54	228.67
374.92	228.58
375.30	228.50
375.68	228.39
376.06	228.29
376.44	228.17
376.82	228.09
377.19	228.00
377.57	227.92
377.95	227.82
378.33	227.73
378.71	227.56
379.09	227.51
379.47	227.41
379.84	227.35
380.22	227.26
380.60	227.17
380.98	227.08
381.36	226.99
381.73	226.93
382.11	226.88
382.49	226.84
382.87	226.74
383.25	226.65
383.62	226.73
384.00	226.63
384.38	226.62
384.76	226.59
385.13	226.56
385.51	226.51
385.89	226.44
386.27	226.42
386.64	226.42
387.02	226.39
387.40	226.38
387.78	226.34
388.15	226.31
388.53	226.27
388.91	226.26
389.29	226.25
389.66	226.26
390.04	226.23
390.42	226.21
390.79	226.22
391.17	226.23
391.55	226.09
391.92	226.12
392.30	226.14
392.68	226.15
393.05	226.14
393.43	226.15
393.81	226.17
394.18	226.18
394.56	226.22
394.94	226.27
395.31	226.29
395.69	226.37
396.06	226.41
396.44	226.47
396.82	226.51
397.19	226.61
397.57	226.63
397.95	226.70
398.32	226.74
398.70	226.85
399.07	226.94
399.45	227.04
399.82	227.13
400.20	227.18
400.58	227.27
400.95	227.35
401.33	227.47
401.70	227.66
402.08	227.78
402.45	227.87
402.83	227.97
403.20	228.10
403.58	228.23
403.95	228.39
404.33	228.56
404.71	228.68
405.08	228.86
405.46	229.01
405.83	229.16
406.21	229.32
406.58	229.46
406.96	229.64
407.33	229.82
407.70	230.03
408.08	230.36
408.45	230.56
408.83	230.80
409.20	231.06
409.58	231.24
409.95	231.53
410.33	231.80
410.70	232.07
411.08	232.35
411.45	232.64
411.82	232.94
412.20	233.28
412.57	233.70
412.95	233.98
413.32	234.40
413.69	234.82
414.07	235.26
414.44	235.74
414.82	236.23
415.19	236.74
415.56	237.29
415.94	237.78
416.31	238.43
416.68	239.05
417.06	239.74
417.43	240.42
417.81	241.16
418.18	241.97
418.55	242.81
418.93	243.69
419.30	244.58
419.67	245.50
420.04	246.45
420.42	247.45
420.79	248.66
421.16	249.81
421.54	251.00
421.91	252.21
422.28	253.42
422.66	254.73
423.03	256.04
423.40	257.37
423.77	258.78
424.15	260.20
424.52	261.66
424.89	263.24
425.26	264.79
425.64	266.22
426.01	267.79
426.38	269.43
426.75	271.11
427.13	272.82
427.50	274.67
427.87	276.56
428.24	278.41
428.61	280.11
428.99	282.03
429.36	284.13
429.73	286.18
430.10	288.26
430.47	290.34
430.85	292.45
431.22	294.70
431.59	297.09
431.96	299.34
432.33	301.83
432.70	304.24
433.08	307.06
433.45	309.72
433.82	312.36
434.19	315.26
434.56	318.05
434.93	320.75
435.30	323.32
435.68	326.16
436.05	329.01
436.42	331.82
436.79	334.35
437.16	337.06
437.53	339.91
437.90	342.74
438.27	345.51
438.64	348.39
439.01	351.02
439.38	353.27
439.75	355.45
440.13	357.97
440.50	360.30
440.87	362.18
441.24	364.10
441.61	366.20
441.98	367.72
442.35	369.56
442.72	371.38
443.09	373.27
443.46	374.30
443.83	374.90
444.20	375.46
444.57	376.37
444.94	376.67
445.31	377.07
445.68	377.41
446.05	377.48
446.42	377.10
446.79	376.64
447.16	376.18
447.53	375.87
447.90	374.67
448.27	373.46
448.64	371.83
449.01	370.74
449.37	368.82
449.74	366.91
450.11	364.68
450.48	362.23
450.85	359.63
451.22	357.48
451.59	355.45
451.96	353.45
452.33	350.80
452.70	348.42
453.07	345.55
453.43	342.63
453.80	339.86
454.17	337.18
454.54	334.65
454.91	331.89
455.28	329.25
455.65	326.78
456.02	324.38
456.38	322.23
456.75	319.53
457.12	317.27
457.49	315.00
457.86	312.77
458.23	310.93
458.59	308.89
458.96	306.76
459.33	304.88
459.70	303.00
460.07	301.48
460.43	299.75
460.80	298.13
461.17	296.67
461.54	295.11
461.91	293.69
462.27	292.21
462.64	290.96
463.01	289.56
463.38	288.24
463.74	286.86
464.11	285.71
464.48	284.68
464.85	283.53
465.21	282.66
465.58	281.76
465.95	280.64
466.32	279.73
466.68	278.84
467.05	277.95
467.42	277.07
467.78	276.12
468.15	275.26
468.52	274.59
468.88	273.75
469.25	272.98
469.62	272.31
469.98	271.67
470.35	271.01
470.72	270.41
471.08	269.75
471.45	269.19
471.82	268.66
472.18	268.09
472.55	267.69
472.92	267.16
473.28	266.62
473.65	266.17
474.02	265.74
474.38	265.37
474.75	265.02
475.11	264.68
475.48	264.39
475.85	264.15
476.21	263.86
476.58	263.65
476.94	263.51
477.31	263.32
477.67	263.16
478.04	263.08
478.41	263.02
478.77	263.03
479.14	262.95
479.50	262.90
479.87	262.93
480.23	263.01
480.60	263.11
480.96	263.24
481.33	263.45
481.69	263.64
482.06	263.87
482.42	264.10
482.79	264.37
483.15	264.70
483.52	265.07
483.88	265.41
484.25	265.80
484.61	266.20
484.98	266.64
485.34	267.18
485.71	267.75
486.07	268.34
486.44	268.97
486.80	269.67
487.17	270.37
487.53	271.18
487.90	271.99
488.26	272.85
488.62	273.81
488.99	274.73
489.35	275.74
489.72	276.84
490.08	278.03
490.44	279.23
490.81	280.55
491.17	281.85
491.54	283.35
491.90	284.87
492.26	286.53
492.63	288.22
492.99	290.00
493.36	291.85
493.72	293.85
494.08	295.92
494.45	298.15
494.81	300.56
495.17	302.94
495.54	305.49
495.90	308.18
496.26	310.95
496.63	313.89
496.99	317.00
497.35	320.22
497.72	323.60
498.08	327.10
498.44	330.74
498.80	334.63
499.17	338.60
499.53	342.72
499.89	347.07
500.26	351.56
500.62	356.22
500.98	361.15
501.34	366.21
501.71	371.46
502.07	376.89
502.43	382.40
502.79	388.21
503.16	394.22
503.52	400.47
503.88	406.88
504.24	413.52
504.60	420.36
504.97	427.49
505.33	434.79
505.69	442.45
506.05	450.13
506.41	458.02
506.78	466.22
507.14	474.67
507.50	483.36
507.86	492.37
508.22	501.50
508.59	510.69
508.95	520.25
509.31	530.03
509.67	540.10
510.03	550.40
510.39	560.91
510.75	571.68
511.12	582.60
511.48	593.89
511.84	605.30
512.20	616.80
512.56	628.67
512.92	640.81
513.28	653.09
513.64	665.65
514.00	678.31
514.37	691.24
514.73	704.23
515.09	717.26
515.45	730.57
515.81	744.14
516.17	758.17
516.53	772.30
516.89	786.42
517.25	800.67
517.61	815.13
517.97	829.63
518.33	844.17
518.69	859.02
519.05	874.10
519.41	889.29
519.77	904.87
520.13	920.40
520.49	935.71
520.85	951.21
521.21	966.96
521.57	983.32
521.93	999.13
522.29	1015.64
522.65	1031.98
523.01	1048.28
523.37	1064.39
523.73	1080.59
524.09	1096.79
524.45	1113.26
524.81	1130.04
525.17	1146.88
525.53	1163.80
525.89	1180.66
526.25	1197.52
526.61	1213.85
526.97	1230.73
527.33	1247.27
527.68	1264.00
528.04	1280.65
528.40	1297.39
528.76	1314.55
529.12	1331.17
529.48	1348.03
529.84	1364.15
530.20	1380.85
530.56	1397.97
530.91	1415.44
531.27	1432.27
531.63	1448.82
531.99	1465.45
532.35	1481.29
532.71	1497.23
533.07	1513.63
533.42	1529.63
533.78	1545.78
534.14	1562.24
534.50	1577.55
534.86	1593.56
535.21	1608.80
535.57	1624.90
535.93	1640.41
536.29	1655.31
536.65	1670.59
537.00	1685.53
537.36	1700.94
537.72	1715.61
538.08	1730.08
538.44	1744.04
538.79	1758.09
539.15	1771.97
539.51	1785.91
539.87	1800.46
540.22	1814.24
540.58	1828.14
540.94	1841.62
541.29	1854.51
541.65	1867.07
542.01	1880.55
542.37	1892.76
542.72	1905.23
543.08	1916.93
543.44	1929.43
543.79	1940.67
544.15	1951.59
544.51	1963.29
544.87	1974.30
545.22	1985.24
545.58	1995.46
545.94	2005.24
546.29	2015.08
546.65	2024.75
547.01	2033.99
547.36	2042.71
547.72	2051.34
548.07	2059.13
548.43	2067.32
548.79	2075.50
549.14	2083.20
549.50	2090.38
549.86	2098.35
550.21	2105.63
550.57	2112.84
550.92	2119.39
551.28	2126.52
551.64	2133.71
551.99	2139.98
552.35	2145.91
552.70	2151.80
553.06	2157.67
553.41	2164.08
553.77	2170.18
554.13	2176.28
554.48	2182.26
554.84	2187.58
555.19	2192.97
555.55	2197.96
555.90	2202.29
556.26	2206.98
556.61	2211.69
556.97	2215.82
557.32	2219.76
557.68	2223.98
558.03	2228.27
558.39	2232.06
558.74	2236.63
559.10	2240.32
559.45	2243.98
559.81	2248.39
560.16	2252.10
560.52	2255.46
560.87	2258.72
561.23	2261.13
561.58	2264.01
561.94	2266.55
562.29	2269.05
562.64	2271.48
563.00	2274.10
563.35	2277.63
563.71	2280.76
564.06	2283.80
564.42	2286.71
564.77	2289.14
565.12	2291.16
565.48	2292.79
565.83	2294.39
566.19	2295.53
566.54	2296.37
566.89	2297.56
567.25	2297.93
567.60	2299.31
567.96	2300.77
568.31	2301.38
568.66	2302.38
569.02	2302.81
569.37	2303.01
569.72	2303.62
570.08	2303.57
570.43	2303.40
570.78	2302.51
571.14	2300.76
571.49	2299.19
571.84	2298.64
572.20	2297.22
572.55	2295.98
572.90	2294.38
573.26	2292.83
573.61	2291.00
573.96	2289.05
574.31	2285.88
574.67	2282.74
575.02	2278.88
575.37	2275.31
575.72	2271.34
576.08	2267.95
576.43	2264.45
576.78	2260.59
577.13	2257.25
577.49	2254.07
577.84	2250.48
578.19	2246.74
578.54	2243.02
578.90	2238.69
579.25	2233.14
579.60	2228.04
579.95	2222.94
580.30	2217.78
580.66	2212.40
581.01	2207.37
581.36	2202.19
581.71	2197.85
582.06	2193.12
582.42	2188.57
582.77	2183.25
583.12	2178.44
583.47	2173.53
583.82	2168.29
584.17	2162.89
584.53	2157.23
584.88	2151.48
585.23	2145.48
585.58	2139.85
585.93	2134.22
586.28	2129.38
586.63	2124.16
586.98	2119.11
587.34	2114.40
587.69	2109.47
588.04	2104.15
588.39	2098.28
588.74	2091.74
589.09	2085.34
589.44	2078.66
589.79	2072.56
590.14	2066.74
590.49	2060.19
590.84	2053.67
591.19	2047.65
591.54	2041.15
591.89	2033.57
592.25	2026.66
592.60	2019.45
592.95	2011.60
593.30	2004.12
593.65	1996.41
594.00	1989.19
594.35	1981.77
594.70	1973.54
595.05	1966.03
595.40	1958.56
595.75	1950.94
596.10	1944.68
596.45	1937.80
596.80	1931.51
597.15	1924.69
597.50	1917.46
597.85	1911.07
598.19	1904.30
598.54	1897.10
598.89	1890.34
599.24	1884.48
599.59	1877.55
599.94	1871.33
600.29	1865.07
600.64	1858.45
600.99	1850.86
601.34	1843.92
601.69	1836.94
602.04	1829.91
602.39	1822.60
602.74	1815.83
603.08	1809.08
603.43	1802.27
603.78	1795.16
604.13	1787.85
604.48	1780.43
604.83	1773.59
605.18	1766.44
605.53	1758.42
605.87	1750.29
606.22	1743.00
606.57	1735.13
606.92	1727.89
607.27	1720.66
607.62	1713.67
607.96	1706.43
608.31	1699.84
608.66	1692.26
609.01	1684.66
609.36	1677.25
609.70	1669.31
610.05	1661.24
610.40	1653.49
610.75	1645.18
611.10	1637.48
611.44	1629.30
611.79	1621.37
612.14	1612.80
612.49	1603.80
612.83	1595.46
613.18	1587.38
613.53	1579.37
613.88	1570.76
614.22	1562.59
614.57	1554.14
614.92	1546.16
615.27	1538.72
615.61	1530.52
615.96	1522.60
616.31	1514.95
616.65	1507.60
617.00	1499.99
617.35	1492.42
617.70	1484.13
618.04	1475.67
618.39	1467.37
618.74	1459.76
619.08	1451.56
619.43	1444.03
619.78	1437.14
620.12	1429.91
620.47	1422.56
620.82	1414.44
621.16	1407.06
621.51	1399.42
621.85	1391.84
622.20	1383.41
622.55	1375.15
622.89	1367.32
623.24	1359.82
623.59	1352.63
623.93	1345.09
624.28	1338.03
624.62	1330.55
624.97	1323.40
625.32	1316.79
625.66	1309.93
626.01	1302.77
626.35	1295.31
626.70	1287.62
627.04	1279.82
627.39	1272.18
627.73	1264.84
628.08	1257.99
628.43	1250.69
628.77	1243.39
629.12	1235.76
629.46	1228.62
629.81	1221.10
630.15	1214.01
630.50	1206.70
630.84	1198.51
631.19	1190.60
631.53	1183.09
631.88	1175.63
632.22	1168.15
632.57	1160.96
632.91	1153.45
633.26	1146.08
633.60	1138.86
633.95	1131.84
634.29	1124.99
634.64	1118.42
634.98	1111.13
635.32	1104.07
635.67	1097.66
636.01	1091.07
636.36	1084.39
636.70	1077.88
637.05	1071.36
637.39	1064.84
637.73	1058.30
638.08	1052.51
638.42	1046.64
638.77	1040.22
639.11	1033.56
639.45	1027.22
639.80	1020.46
640.14	1014.12
640.49	1007.57
640.83	1001.22
641.17	994.91
641.52	988.59
641.86	982.28
642.20	976.42
642.55	970.15
642.89	963.62
643.23	957.12
643.58	951.38
643.92	945.23
644.26	939.15
644.61	933.12
644.95	927.09
645.29	920.47
645.64	913.69
645.98	907.39
646.32	901.67
646.66	895.66
647.01	889.86
647.35	884.12
647.69	878.36
648.04	872.94
648.38	867.24
648.72	861.25
649.06	855.17
649.41	849.29
649.75	843.30
650.09	837.42
650.43	831.66
650.78	825.45
651.12	819.58
651.46	813.91
651.80	808.22
652.14	802.81
652.49	797.45
652.83	792.40
653.17	786.65
653.51	780.91
653.85	775.50
654.20	769.96
654.54	763.98
654.88	758.27
655.22	752.45
655.56	746.76
655.90	741.35
656.25	736.11
656.59	730.83
656.93	725.81
657.27	720.66
657.61	715.26
657.95	710.25
658.29	705.16
658.64	699.94
658.98	694.76
659.32	689.37
659.66	684.20
660.00	678.88
660.34	674.10
660.68	669.25
661.02	664.32
661.36	659.63
661.70	655.20
662.05	650.95
662.39	646.63
662.73	642.25
663.07	637.96
663.41	633.57
663.75	629.11
664.09	624.52
664.43	620.19
664.77	616.11
665.11	611.88
665.45	607.88
665.79	603.79
666.13	599.62
666.47	595.61
666.81	591.55
667.15	587.52
667.49	583.64
667.83	579.90
668.17	575.94
668.51	571.87
668.85	567.87
669.19	564.01
669.53	560.18
669.87	556.31
670.21	552.64
670.55	549.04
670.89	545.60
671.23	542.32
671.57	538.84
671.91	535.43
672.25	532.01
672.58	528.51
672.92	525.29
673.26	522.23
673.60	519.10
673.94	516.05
674.28	513.20
674.62	510.26
674.96	507.16
675.30	504.30
675.64	501.46
675.97	498.75
676.31	495.97
676.65	493.09
676.99	490.40
677.33	487.52
677.67	484.72
678.01	481.70
678.34	478.64
678.68	475.75
679.02	472.86
679.36	470.11
679.70	467.42
680.04	464.59
680.37	461.66
680.71	458.92
681.05	456.27
681.39	453.55
681.73	450.93
682.06	448.38
682.40	445.87
682.74	443.38
683.08	440.84
683.42	438.21
683.75	435.69
684.09	433.22
684.43	430.77
684.77	428.29
685.10	425.98
685.44	423.71
685.78	421.43
686.12	419.23
686.45	416.95
686.79	414.65
687.13	412.47
687.46	410.34
687.80	408.16
688.14	405.92
688.48	403.85
688.81	401.57
689.15	399.43
689.49	397.30
689.82	395.17
690.16	393.11
690.50	391.15
690.83	389.26
691.17	387.27
691.51	385.40
691.84	383.59
692.18	381.63
692.52	379.63
692.85	377.74
693.19	375.88
693.52	374.07
693.86	372.26
694.20	370.48
694.53	368.72
694.87	366.87
695.21	365.09
695.54	363.28
695.88	361.62
696.21	359.91
696.55	358.21
696.88	356.56
697.22	354.92
697.56	353.32
697.89	351.62
698.23	349.99
698.56	348.39
698.90	346.76
699.23	345.16
699.57	343.65
699.90	342.17
700.24	340.61
700.58	339.08
700.91	337.61
701.25	336.20
701.58	334.86
701.92	333.53
702.25	332.23
702.59	330.90
702.92	329.59
703.26	328.35
703.59	327.12
703.93	325.97
704.26	324.77
704.60	323.52
704.93	322.29
705.26	321.11
705.60	319.96
705.93	318.93
706.27	317.95
706.60	316.95
706.94	315.90
707.27	314.79
707.61	313.79
707.94	312.78
708.27	311.73
708.61	310.70
708.94	309.76
709.28	308.81
709.61	307.86
709.94	306.98
710.28	305.99
710.61	305.03
710.95	304.00
711.28	303.13
711.61	302.22
711.95	301.34
712.28	300.42
712.61	299.45
712.95	298.47
713.28	297.61
713.61	296.75
713.95	295.89
714.28	295.12
714.61	294.26
714.95	293.47
715.28	292.63
715.61	291.78
715.95	290.91
716.28	290.07
716.61	289.27
716.95	288.45
717.28	287.71
717.61	286.96
717.94	286.23
718.28	285.37
718.61	284.64
718.94	283.95
719.27	283.28
719.61	282.64
719.94	281.97
720.27	281.28
720.60	280.56
720.94	279.95
721.27	279.33
721.60	278.72
721.93	278.08
722.27	277.53
722.60	276.97
722.93	276.39
723.26	275.84
723.59	275.28
723.93	274.72
724.26	274.13
724.59	273.53
724.92	272.98
725.25	272.52
725.59	271.97
725.92	271.48
726.25	270.96
726.58	270.49
726.91	270.02
727.24	269.51
727.57	269.05
727.91	268.51
728.24	268.03
728.57	267.57
728.90	267.13
729.23	266.61
729.56	266.15
729.89	265.66
730.22	265.15
730.55	264.67
730.89	264.21
731.22	263.75
731.55	263.34
731.88	262.89
732.21	262.41
732.54	261.95
732.87	261.49
733.20	261.08
733.53	260.63
733.86	260.23
734.19	259.81
734.52	259.41
734.85	259.06
735.18	258.63
735.51	258.24
735.84	257.88
736.17	257.54
736.50	257.14
736.83	256.92
737.16	256.60
737.49	256.24
737.82	255.89
738.15	255.57
738.48	255.21
738.81	254.89
739.14	254.60
739.47	254.29
739.80	253.98
740.13	253.68
740.46	253.38
740.79	253.06
741.12	252.75
741.45	252.48
741.78	252.14
742.11	251.87
742.44	251.52
742.77	251.23
743.10	250.90
743.43	250.62
743.75	250.23
744.08	250.10
744.41	249.86
744.74	249.64
745.07	249.38
745.40	249.18
745.73	248.92
746.06	248.63
746.39	248.40
746.71	248.17
747.04	247.91
747.37	247.67
747.70	247.43
748.03	247.20
748.36	246.97
748.68	246.76
749.01	246.54
749.34	246.36
749.67	246.10
750.00	245.91
750.33	245.77
750.65	245.57
750.98	245.23
751.31	245.03
751.64	244.82
751.97	244.68
752.29	244.46
752.62	244.26
752.95	244.11
753.28	243.89
753.60	243.68
753.93	243.52
754.26	243.35
754.59	243.15
754.91	242.95
755.24	242.79
755.57	242.58
755.90	242.40
756.22	242.20
756.55	242.03
756.88	241.83
757.20	241.60
757.53	241.44
757.86	241.28
758.19	241.12
758.51	240.94
758.84	240.72
759.17	240.57
759.49	240.37
759.82	240.26
760.15	240.11
760.47	239.93
760.80	239.74
761.13	239.59
761.45	239.42
761.78	239.29
762.11	239.14
762.43	239.05
762.76	238.90
763.08	238.80
763.41	238.65
763.74	238.51
764.06	238.37
764.39	238.20
764.71	238.06
765.04	237.89
765.37	237.76
765.69	237.63
766.02	237.48
766.34	237.36
766.67	237.16
767.00	237.06
767.32	237.02
767.65	236.95
767.97	236.84
768.30	236.69
768.62	236.53
768.95	236.38
769.27	236.22
769.60	236.10
769.92	235.94
770.25	235.81
770.57	235.66
770.90	235.51
771.22	235.36
771.55	235.28
771.87	235.17
772.20	235.05
772.52	234.99
772.85	234.99
773.17	234.90
773.50	234.80
773.82	234.68
774.15	234.51
774.47	234.36
774.80	234.24
775.12	234.15
775.45	234.09
775.77	233.99
776.09	233.91
776.42	233.86
776.74	233.80
777.07	233.74
777.39	233.64
777.72	233.57
778.04	233.53
778.36	233.41
778.69	233.36
779.01	233.30
779.33	233.16
779.66	232.97
779.98	232.90
780.31	232.80
780.63	232.78
780.95	232.73
781.28	232.69
781.60	232.60
781.92	232.56
782.25	232.49
782.57	232.43
782.89	232.32
783.22	232.22
783.54	232.12
783.86	232.09
784.19	232.08
784.51	232.04
784.83	231.99
785.16	231.99
785.48	231.94
785.80	231.93
786.12	231.86
786.45	231.82
786.77	231.79
787.09	231.77
