SpectraSuite Data File
++++++++++++++++++++++++++++++++++++
Date: Fri Feb 01 16:05:32 EST 2013
User: group
Dark Spectrum Present: No
Reference Spectrum Present: No
Number of Sampled Component Spectra: 1
Spectrometers: USB2E7196
Integration Time (usec): 35000 (USB2E7196)
Spectra Averaged: 100 (USB2E7196)
Boxcar Smoothing: 10 (USB2E7196)
Correct for Electrical Dark: No (USB2E7196)
Strobe/Lamp Enabled: No (USB2E7196)
Correct for Detector Non-linearity: No (USB2E7196)
Correct for Stray Light: No (USB2E7196)
Number of Pixels in Processed Spectrum: 2048
>>>>>Begin Processed Spectral Data<<<<<
339.09	0.00
339.48	214.47
339.86	215.82
340.24	218.23
340.63	218.75
341.01	221.57
341.39	221.49
341.78	223.13
342.16	224.30
342.54	224.30
342.93	213.03
343.31	223.81
343.69	224.36
344.07	224.82
344.46	225.21
344.84	225.60
345.22	225.85
345.60	226.10
345.99	226.27
346.37	226.39
346.75	226.52
347.13	226.58
347.52	226.59
347.90	226.65
348.28	226.69
348.66	226.75
349.05	226.73
349.43	226.78
349.81	226.82
350.19	226.85
350.57	226.89
350.96	226.98
351.34	227.02
351.72	227.12
352.10	227.23
352.48	227.31
352.87	227.35
353.25	227.42
353.63	227.51
354.01	227.58
354.39	227.65
354.77	227.69
355.15	227.81
355.54	227.89
355.92	227.94
356.30	227.97
356.68	228.11
357.06	228.18
357.44	228.23
357.82	228.28
358.20	228.36
358.58	228.44
358.97	228.50
359.35	228.58
359.73	228.65
360.11	228.69
360.49	228.74
360.87	228.80
361.25	228.85
361.63	228.92
362.01	228.97
362.39	228.97
362.77	229.04
363.15	229.05
363.53	229.08
363.91	229.13
364.29	229.20
364.67	229.09
365.05	229.09
365.43	229.10
365.81	229.14
366.19	229.16
366.57	229.19
366.95	229.19
367.33	229.16
367.71	229.14
368.09	229.12
368.47	229.11
368.85	229.09
369.23	229.09
369.61	229.01
369.99	228.99
370.37	229.01
370.75	229.02
371.13	228.98
371.51	228.91
371.89	228.83
372.27	228.79
372.65	228.75
373.03	228.71
373.41	228.67
373.78	228.59
374.16	228.47
374.54	228.37
374.92	228.30
375.30	228.28
375.68	228.21
376.06	228.15
376.44	228.08
376.82	228.01
377.19	227.93
377.57	227.85
377.95	227.77
378.33	227.69
378.71	227.58
379.09	227.51
379.47	227.49
379.84	227.45
380.22	227.34
380.60	227.25
380.98	227.21
381.36	227.14
381.73	227.07
382.11	227.03
382.49	226.99
382.87	226.92
383.25	226.84
383.62	226.89
384.00	226.84
384.38	226.78
384.76	226.74
385.13	226.71
385.51	226.67
385.89	226.62
386.27	226.55
386.64	226.48
387.02	226.42
387.40	226.36
387.78	226.32
388.15	226.30
388.53	226.29
388.91	226.24
389.29	226.21
389.66	226.21
390.04	226.19
390.42	226.21
390.79	226.19
391.17	226.18
391.55	226.04
391.92	226.02
392.30	226.03
392.68	226.00
393.05	225.99
393.43	225.98
393.81	225.98
394.18	225.99
394.56	226.02
394.94	226.05
395.31	226.05
395.69	226.10
396.06	226.12
396.44	226.16
396.82	226.20
397.19	226.29
397.57	226.32
397.95	226.39
398.32	226.35
398.70	226.42
399.07	226.48
399.45	226.55
399.82	226.62
400.20	226.71
400.58	226.78
400.95	226.82
401.33	226.91
401.70	227.09
402.08	227.19
402.45	227.30
402.83	227.41
403.20	227.52
403.58	227.63
403.95	227.79
404.33	227.91
404.71	228.00
405.08	228.16
405.46	228.29
405.83	228.42
406.21	228.56
406.58	228.74
406.96	228.90
407.33	229.08
407.70	229.26
408.08	229.52
408.45	229.78
408.83	230.03
409.20	230.25
409.58	230.43
409.95	230.69
410.33	230.95
410.70	231.20
411.08	231.51
411.45	231.80
411.82	232.08
412.20	232.43
412.57	232.87
412.95	233.16
413.32	233.62
413.69	234.02
414.07	234.49
414.44	234.97
414.82	235.47
415.19	236.04
415.56	236.59
415.94	237.13
416.31	237.75
416.68	238.37
417.06	239.08
417.43	239.74
417.81	240.52
418.18	241.31
418.55	242.16
418.93	243.04
419.30	243.93
419.67	244.88
420.04	245.84
420.42	246.84
420.79	247.99
421.16	249.11
421.54	250.31
421.91	251.51
422.28	252.75
422.66	254.09
423.03	255.39
423.40	256.72
423.77	258.13
424.15	259.58
424.52	261.04
424.89	262.64
425.26	264.17
425.64	265.60
426.01	267.19
426.38	268.91
426.75	270.58
427.13	272.32
427.50	274.13
427.87	276.04
428.24	277.89
428.61	279.67
428.99	281.60
429.36	283.70
429.73	285.78
430.10	287.81
430.47	289.85
430.85	292.00
431.22	294.27
431.59	296.64
431.96	298.84
432.33	301.35
432.70	303.78
433.08	306.61
433.45	309.25
433.82	311.90
434.19	314.73
434.56	317.54
434.93	320.23
435.30	322.85
435.68	325.70
436.05	328.52
436.42	331.29
436.79	333.78
437.16	336.45
437.53	339.24
437.90	342.01
438.27	344.72
438.64	347.52
439.01	350.08
439.38	352.28
439.75	354.43
440.13	356.87
440.50	359.15
440.87	360.99
441.24	362.93
441.61	365.01
441.98	366.46
442.35	368.22
442.72	370.01
443.09	371.81
443.46	372.80
443.83	373.40
444.20	373.92
444.57	374.74
444.94	375.00
445.31	375.34
445.68	375.68
446.05	375.77
446.42	375.33
446.79	374.86
447.16	374.43
447.53	374.12
447.90	373.01
448.27	371.81
448.64	370.24
449.01	369.05
449.37	367.03
449.74	365.15
450.11	362.92
450.48	360.48
450.85	357.88
451.22	355.72
451.59	353.69
451.96	351.76
452.33	349.21
452.70	346.88
453.07	344.01
453.43	341.10
453.80	338.36
454.17	335.77
454.54	333.25
454.91	330.55
455.28	327.84
455.65	325.30
456.02	322.92
456.38	320.76
456.75	318.13
457.12	315.93
457.49	313.72
457.86	311.57
458.23	309.69
458.59	307.70
458.96	305.62
459.33	303.76
459.70	301.88
460.07	300.34
460.43	298.66
460.80	297.08
461.17	295.67
461.54	294.14
461.91	292.68
462.27	291.26
462.64	289.98
463.01	288.67
463.38	287.41
463.74	286.04
464.11	284.87
464.48	283.88
464.85	282.79
465.21	281.92
465.58	280.95
465.95	279.87
466.32	279.00
466.68	278.12
467.05	277.22
467.42	276.33
467.78	275.43
468.15	274.56
468.52	273.93
468.88	273.07
469.25	272.30
469.62	271.67
469.98	270.98
470.35	270.39
470.72	269.79
471.08	269.14
471.45	268.59
471.82	268.07
472.18	267.48
472.55	267.04
472.92	266.54
473.28	266.12
473.65	265.70
474.02	265.23
474.38	264.88
474.75	264.61
475.11	264.25
475.48	264.02
475.85	263.80
476.21	263.58
476.58	263.43
476.94	263.32
477.31	263.17
477.67	263.04
478.04	262.94
478.41	262.91
478.77	262.94
479.14	262.90
479.50	262.95
479.87	263.00
480.23	263.10
480.60	263.19
480.96	263.30
481.33	263.50
481.69	263.71
482.06	263.90
482.42	264.09
482.79	264.37
483.15	264.69
483.52	265.03
483.88	265.38
484.25	265.77
484.61	266.22
484.98	266.71
485.34	267.30
485.71	267.90
486.07	268.50
486.44	269.08
486.80	269.80
487.17	270.51
487.53	271.33
487.90	272.18
488.26	273.13
488.62	274.12
488.99	275.07
489.35	276.10
489.72	277.23
490.08	278.45
490.44	279.67
490.81	280.97
491.17	282.34
491.54	283.80
491.90	285.36
492.26	286.98
492.63	288.73
492.99	290.49
493.36	292.38
493.72	294.40
494.08	296.48
494.45	298.72
494.81	301.09
495.17	303.53
495.54	306.08
495.90	308.76
496.26	311.55
496.63	314.55
496.99	317.71
497.35	320.99
497.72	324.39
498.08	327.94
498.44	331.66
498.80	335.63
499.17	339.63
499.53	343.76
499.89	348.17
500.26	352.65
500.62	357.32
500.98	362.30
501.34	367.40
501.71	372.77
502.07	378.24
502.43	383.83
502.79	389.73
503.16	395.88
503.52	402.14
503.88	408.55
504.24	415.22
504.60	422.06
504.97	429.20
505.33	436.52
505.69	444.26
506.05	452.09
506.41	459.94
506.78	468.21
507.14	476.77
507.50	485.51
507.86	494.54
508.22	503.78
508.59	513.03
508.95	522.64
509.31	532.42
509.67	542.53
510.03	552.88
510.39	563.38
510.75	574.15
511.12	585.08
511.48	596.34
511.84	607.72
512.20	619.22
512.56	631.16
512.92	643.38
513.28	655.76
513.64	668.20
514.00	681.02
514.37	694.01
514.73	706.99
515.09	719.97
515.45	733.24
515.81	746.86
516.17	760.81
516.53	774.90
516.89	789.09
517.25	803.29
517.61	817.73
517.97	832.09
518.33	846.50
518.69	861.29
519.05	876.33
519.41	891.59
519.77	907.19
520.13	922.64
520.49	937.95
520.85	953.26
521.21	968.90
521.57	985.08
521.93	1000.74
522.29	1017.15
522.65	1033.38
523.01	1049.55
523.37	1065.54
523.73	1081.63
524.09	1097.72
524.45	1114.03
524.81	1130.62
525.17	1147.34
525.53	1164.40
525.89	1181.32
526.25	1198.14
526.61	1214.44
526.97	1231.15
527.33	1247.58
527.68	1264.13
528.04	1280.60
528.40	1297.13
528.76	1314.26
529.12	1330.76
529.48	1347.53
529.84	1363.54
530.20	1380.15
530.56	1397.17
530.91	1414.50
531.27	1431.27
531.63	1447.66
531.99	1464.24
532.35	1480.26
532.71	1496.07
533.07	1512.33
533.42	1528.21
533.78	1544.25
534.14	1560.56
534.50	1575.76
534.86	1591.56
535.21	1606.77
535.57	1622.72
535.93	1638.32
536.29	1652.99
536.65	1667.99
537.00	1682.79
537.36	1697.83
537.72	1712.24
538.08	1726.61
538.44	1740.29
538.79	1754.10
539.15	1767.78
539.51	1781.52
539.87	1795.73
540.22	1809.41
540.58	1823.04
540.94	1836.11
541.29	1848.89
541.65	1861.50
542.01	1874.70
542.37	1887.06
542.72	1899.44
543.08	1911.12
543.44	1923.39
543.79	1934.54
544.15	1945.60
544.51	1957.00
544.87	1968.06
545.22	1978.89
545.58	1989.02
545.94	1998.94
546.29	2008.94
546.65	2018.85
547.01	2028.13
547.36	2036.73
547.72	2045.27
548.07	2053.12
548.43	2061.35
548.79	2069.40
549.14	2076.91
549.50	2084.24
549.86	2091.74
550.21	2098.95
550.57	2106.13
550.92	2112.65
551.28	2119.85
551.64	2126.77
551.99	2133.55
552.35	2139.83
552.70	2145.91
553.06	2151.99
553.41	2158.12
553.77	2163.96
554.13	2169.83
554.48	2175.77
554.84	2181.40
555.19	2186.62
555.55	2191.76
555.90	2196.26
556.26	2201.17
556.61	2205.95
556.97	2210.22
557.32	2214.39
557.68	2218.71
558.03	2222.92
558.39	2226.59
558.74	2231.15
559.10	2235.16
559.45	2238.60
559.81	2242.79
560.16	2246.82
560.52	2249.99
560.87	2253.52
561.23	2256.19
561.58	2259.21
561.94	2261.75
562.29	2263.94
562.64	2266.69
563.00	2269.10
563.35	2272.65
563.71	2275.70
564.06	2278.82
564.42	2281.78
564.77	2284.47
565.12	2286.79
565.48	2288.82
565.83	2290.68
566.19	2291.92
566.54	2292.76
566.89	2293.90
567.25	2294.48
567.60	2295.67
567.96	2297.42
568.31	2298.29
568.66	2299.39
569.02	2299.97
569.37	2300.39
569.72	2301.33
570.08	2301.47
570.43	2301.68
570.78	2301.04
571.14	2299.40
571.49	2298.23
571.84	2297.84
572.20	2296.57
572.55	2295.34
572.90	2293.68
573.26	2292.36
573.61	2290.75
573.96	2289.01
574.31	2286.11
574.67	2283.15
575.02	2279.40
575.37	2275.96
575.72	2272.03
576.08	2268.80
576.43	2265.45
576.78	2261.77
577.13	2258.46
577.49	2255.34
577.84	2251.91
578.19	2248.23
578.54	2244.84
578.90	2240.63
579.25	2235.15
579.60	2230.31
579.95	2225.32
580.30	2220.27
580.66	2215.07
581.01	2210.22
581.36	2205.27
581.71	2201.08
582.06	2196.65
582.42	2192.37
582.77	2187.31
583.12	2182.99
583.47	2178.29
583.82	2173.45
584.17	2168.20
584.53	2162.92
584.88	2157.27
585.23	2151.51
585.58	2145.86
585.93	2140.21
586.28	2135.29
586.63	2130.32
586.98	2125.18
587.34	2120.57
587.69	2115.68
588.04	2110.49
588.39	2104.81
588.74	2098.43
589.09	2092.28
589.44	2085.48
589.79	2079.37
590.14	2073.58
590.49	2066.95
590.84	2060.45
591.19	2054.17
591.54	2047.72
591.89	2040.36
592.25	2033.59
592.60	2026.43
592.95	2019.07
593.30	2011.81
593.65	2004.22
594.00	1997.07
594.35	1989.78
594.70	1981.63
595.05	1974.64
595.40	1967.30
595.75	1959.77
596.10	1953.56
596.45	1946.94
596.80	1940.84
597.15	1934.26
597.50	1927.29
597.85	1920.88
598.19	1914.30
598.54	1907.37
598.89	1900.70
599.24	1894.80
599.59	1888.26
599.94	1881.96
600.29	1875.60
600.64	1868.95
600.99	1861.49
601.34	1854.79
601.69	1847.92
602.04	1841.05
602.39	1833.65
602.74	1826.91
603.08	1820.18
603.43	1813.41
603.78	1806.07
604.13	1798.82
604.48	1791.60
604.83	1784.64
605.18	1777.67
605.53	1769.64
605.87	1761.57
606.22	1754.39
606.57	1746.35
606.92	1738.90
607.27	1731.78
607.62	1724.83
607.96	1717.65
608.31	1711.14
608.66	1703.45
609.01	1695.89
609.36	1688.38
609.70	1680.38
610.05	1672.42
610.40	1664.86
610.75	1656.40
611.10	1648.74
611.44	1640.32
611.79	1632.32
612.14	1623.74
612.49	1614.54
612.83	1606.21
613.18	1598.14
613.53	1590.03
613.88	1581.49
614.22	1573.18
614.57	1564.48
614.92	1556.63
615.27	1549.15
615.61	1540.84
615.96	1532.77
616.31	1525.19
616.65	1517.76
617.00	1510.10
617.35	1502.21
617.70	1493.73
618.04	1485.36
618.39	1477.20
618.74	1469.73
619.08	1461.41
619.43	1453.75
619.78	1446.84
620.12	1439.62
620.47	1432.05
620.82	1423.83
621.16	1416.39
621.51	1408.87
621.85	1401.30
622.20	1392.63
622.55	1384.17
622.89	1376.24
623.24	1368.61
623.59	1361.17
623.93	1353.59
624.28	1346.39
624.62	1339.06
624.97	1331.91
625.32	1325.07
625.66	1317.92
626.01	1310.59
626.35	1303.17
626.70	1295.38
627.04	1287.70
627.39	1279.98
627.73	1272.60
628.08	1265.81
628.43	1258.67
628.77	1251.24
629.12	1243.58
629.46	1236.41
629.81	1228.99
630.15	1221.81
630.50	1214.42
630.84	1206.21
631.19	1198.34
631.53	1190.83
631.88	1183.15
632.22	1175.52
632.57	1168.25
632.91	1160.78
633.26	1153.43
633.60	1146.04
633.95	1138.96
634.29	1131.87
634.64	1125.18
634.98	1117.87
635.32	1110.67
635.67	1104.00
636.01	1097.44
636.36	1090.71
636.70	1084.17
637.05	1077.64
637.39	1071.28
637.73	1064.81
638.08	1058.89
638.42	1052.88
638.77	1046.47
639.11	1039.94
639.45	1033.56
639.80	1026.83
640.14	1020.42
640.49	1013.86
640.83	1007.52
641.17	1001.33
641.52	994.97
641.86	988.48
642.20	982.61
642.55	976.25
642.89	969.75
643.23	963.12
643.58	957.36
643.92	951.21
644.26	945.11
644.61	938.98
644.95	932.85
645.29	926.31
645.64	919.58
645.98	913.20
646.32	907.41
646.66	901.37
647.01	895.66
647.35	889.89
647.69	884.06
648.04	878.44
648.38	872.64
648.72	866.62
649.06	860.55
649.41	854.62
649.75	848.73
650.09	842.74
650.43	836.98
650.78	830.83
651.12	824.91
651.46	819.20
651.80	813.45
652.14	808.11
652.49	802.72
652.83	797.59
653.17	791.97
653.51	786.22
653.85	780.84
654.20	775.14
654.54	769.09
654.88	763.31
655.22	757.52
655.56	751.85
655.90	746.44
656.25	741.19
656.59	735.81
656.93	730.74
657.27	725.57
657.61	720.15
657.95	715.05
658.29	709.87
658.64	704.58
658.98	699.21
659.32	693.75
659.66	688.53
660.00	683.16
660.34	678.09
660.68	673.14
661.02	668.03
661.36	663.40
661.70	658.93
662.05	654.56
662.39	650.21
662.73	645.70
663.07	641.34
663.41	636.89
663.75	632.50
664.09	627.84
664.43	623.47
664.77	619.30
665.11	615.11
665.45	611.02
665.79	606.99
666.13	602.87
666.47	598.69
666.81	594.53
667.15	590.45
667.49	586.59
667.83	582.73
668.17	578.78
668.51	574.65
668.85	570.66
669.19	566.80
669.53	563.00
669.87	559.13
670.21	555.43
670.55	551.80
670.89	548.30
671.23	544.87
671.57	541.36
671.91	537.84
672.25	534.22
672.58	530.69
672.92	527.25
673.26	524.11
673.60	521.06
673.94	517.93
674.28	514.99
674.62	512.09
674.96	509.02
675.30	506.16
675.64	503.28
675.97	500.49
676.31	497.68
676.65	494.69
676.99	491.97
677.33	489.04
677.67	486.21
678.01	483.20
678.34	480.23
678.68	477.39
679.02	474.61
679.36	471.83
679.70	469.14
680.04	466.43
680.37	463.56
680.71	460.68
681.05	458.12
681.39	455.40
681.73	452.67
682.06	450.16
682.40	447.62
682.74	445.02
683.08	442.50
683.42	439.89
683.75	437.39
684.09	434.80
684.43	432.34
684.77	429.89
685.10	427.57
685.44	425.26
685.78	422.97
686.12	420.66
686.45	418.38
686.79	416.04
687.13	413.75
687.46	411.59
687.80	409.42
688.14	407.16
688.48	405.11
688.81	402.86
689.15	400.70
689.49	398.57
689.82	396.55
690.16	394.47
690.50	392.46
690.83	390.55
691.17	388.59
691.51	386.73
691.84	384.89
692.18	382.91
692.52	380.93
692.85	378.94
693.19	377.07
693.52	375.23
693.86	373.43
694.20	371.68
694.53	369.88
694.87	368.08
695.21	366.32
695.54	364.47
695.88	362.80
696.21	361.07
696.55	359.38
696.88	357.65
697.22	355.96
697.56	354.40
697.89	352.73
698.23	351.08
698.56	349.44
698.90	347.85
699.23	346.21
699.57	344.72
699.90	343.20
700.24	341.68
700.58	340.17
700.91	338.67
701.25	337.23
701.58	335.88
701.92	334.48
702.25	333.11
702.59	331.76
702.92	330.43
703.26	329.14
703.59	327.83
703.93	326.66
704.26	325.43
704.60	324.07
704.93	322.80
705.26	321.62
705.60	320.45
705.93	319.28
706.27	318.23
706.60	317.10
706.94	316.02
707.27	314.86
707.61	313.82
707.94	312.80
708.27	311.70
708.61	310.63
708.94	309.61
709.28	308.63
709.61	307.65
709.94	306.67
710.28	305.63
710.61	304.66
710.95	303.57
711.28	302.66
711.61	301.75
711.95	300.87
712.28	299.90
712.61	298.91
712.95	297.98
713.28	297.13
713.61	296.28
713.95	295.41
714.28	294.59
714.61	293.73
714.95	292.84
715.28	291.98
715.61	291.09
715.95	290.25
716.28	289.39
716.61	288.57
716.95	287.73
717.28	286.96
717.61	286.22
717.94	285.50
718.28	284.67
718.61	283.95
718.94	283.24
719.27	282.58
719.61	281.96
719.94	281.32
720.27	280.62
720.60	279.97
720.94	279.37
721.27	278.77
721.60	278.17
721.93	277.62
722.27	277.10
722.60	276.55
722.93	276.00
723.26	275.44
723.59	274.92
723.93	274.39
724.26	273.85
724.59	273.28
724.92	272.74
725.25	272.30
725.59	271.74
725.92	271.19
726.25	270.70
726.58	270.18
726.91	269.66
727.24	269.16
727.57	268.66
727.91	268.09
728.24	267.64
728.57	267.16
728.90	266.69
729.23	266.16
729.56	265.74
729.89	265.29
730.22	264.86
730.55	264.37
730.89	263.92
731.22	263.49
731.55	263.03
731.88	262.61
732.21	262.15
732.54	261.75
732.87	261.37
733.20	260.94
733.53	260.58
733.86	260.22
734.19	259.85
734.52	259.47
734.85	259.16
735.18	258.73
735.51	258.35
735.84	257.99
736.17	257.67
736.50	257.24
736.83	257.02
737.16	256.66
737.49	256.31
737.82	255.98
738.15	255.64
738.48	255.33
738.81	255.03
739.14	254.71
739.47	254.39
739.80	254.07
740.13	253.78
740.46	253.44
740.79	253.09
741.12	252.77
741.45	252.48
741.78	252.14
742.11	251.87
742.44	251.56
742.77	251.25
743.10	250.94
743.43	250.66
743.75	250.26
744.08	250.10
744.41	249.85
744.74	249.61
745.07	249.30
745.40	249.05
745.73	248.79
746.06	248.46
746.39	248.21
746.71	247.90
747.04	247.60
747.37	247.33
747.70	247.02
748.03	246.72
748.36	246.47
748.68	246.25
749.01	245.98
749.34	245.75
749.67	245.54
750.00	245.29
750.33	245.11
750.65	244.85
750.98	244.52
751.31	244.29
751.64	244.08
751.97	243.96
752.29	243.75
752.62	243.45
752.95	243.23
753.28	243.02
753.60	242.85
753.93	242.67
754.26	242.48
754.59	242.32
754.91	242.14
755.24	241.92
755.57	241.71
755.90	241.54
756.22	241.35
756.55	241.11
756.88	240.95
757.20	240.73
757.53	240.59
757.86	240.42
758.19	240.24
758.51	240.05
758.84	239.80
759.17	239.64
759.49	239.53
759.82	239.44
760.15	239.31
760.47	239.16
760.80	239.02
761.13	238.91
761.45	238.75
761.78	238.61
762.11	238.48
762.43	238.31
762.76	238.17
763.08	238.06
763.41	237.95
763.74	237.81
764.06	237.68
764.39	237.52
764.71	237.39
765.04	237.27
765.37	237.15
765.69	237.06
766.02	236.88
766.34	236.75
766.67	236.60
767.00	236.49
767.32	236.39
767.65	236.34
767.97	236.23
768.30	236.15
768.62	236.07
768.95	235.96
769.27	235.88
769.60	235.80
769.92	235.65
770.25	235.53
770.57	235.42
770.90	235.32
771.22	235.21
771.55	235.09
771.87	235.00
772.20	234.87
772.52	234.86
772.85	234.91
773.17	234.81
773.50	234.71
773.82	234.61
774.15	234.48
774.47	234.29
774.80	234.17
775.12	234.05
775.45	233.96
775.77	233.87
776.09	233.79
776.42	233.71
776.74	233.66
777.07	233.58
777.39	233.50
777.72	233.42
778.04	233.37
778.36	233.32
778.69	233.26
779.01	233.21
779.33	233.02
779.66	232.82
779.98	232.75
780.31	232.68
780.63	232.67
780.95	232.63
781.28	232.57
781.60	232.51
781.92	232.48
782.25	232.38
782.57	232.33
782.89	232.28
783.22	232.20
783.54	232.12
783.86	232.08
784.19	232.02
784.51	231.95
784.83	231.88
785.16	231.79
785.48	231.76
785.80	231.70
786.12	231.67
786.45	231.62
786.77	231.59
787.09	231.56
