SpectraSuite Data File
++++++++++++++++++++++++++++++++++++
Date: Fri Feb 01 15:59:10 EST 2013
User: group
Dark Spectrum Present: No
Reference Spectrum Present: No
Number of Sampled Component Spectra: 1
Spectrometers: USB2E7196
Integration Time (usec): 35000 (USB2E7196)
Spectra Averaged: 100 (USB2E7196)
Boxcar Smoothing: 10 (USB2E7196)
Correct for Electrical Dark: No (USB2E7196)
Strobe/Lamp Enabled: No (USB2E7196)
Correct for Detector Non-linearity: No (USB2E7196)
Correct for Stray Light: No (USB2E7196)
Number of Pixels in Processed Spectrum: 2048
>>>>>Begin Processed Spectral Data<<<<<
339.09	0.00
339.48	214.83
339.86	216.51
340.24	217.52
340.63	218.99
341.01	222.25
341.39	221.64
341.78	223.06
342.16	224.11
342.54	225.10
342.93	213.16
343.31	223.96
343.69	224.51
344.07	224.95
344.46	225.38
344.84	225.77
345.22	225.97
345.60	226.25
345.99	226.44
346.37	226.57
346.75	226.63
347.13	226.72
347.52	226.77
347.90	226.84
348.28	226.86
348.66	226.92
349.05	226.90
349.43	226.91
349.81	226.95
350.19	227.00
350.57	227.05
350.96	227.13
351.34	227.19
351.72	227.26
352.10	227.37
352.48	227.45
352.87	227.48
353.25	227.55
353.63	227.57
354.01	227.65
354.39	227.73
354.77	227.83
355.15	227.94
355.54	228.01
355.92	228.05
356.30	228.16
356.68	228.29
357.06	228.38
357.44	228.48
357.82	228.55
358.20	228.63
358.58	228.71
358.97	228.73
359.35	228.81
359.73	228.90
360.11	228.95
360.49	228.99
360.87	229.04
361.25	229.11
361.63	229.23
362.01	229.23
362.39	229.26
362.77	229.27
363.15	229.25
363.53	229.27
363.91	229.29
364.29	229.26
364.67	229.17
365.05	229.20
365.43	229.20
365.81	229.19
366.19	229.20
366.57	229.22
366.95	229.26
367.33	229.20
367.71	229.17
368.09	229.16
368.47	229.13
368.85	229.12
369.23	229.10
369.61	229.01
369.99	229.02
370.37	229.02
370.75	229.03
371.13	229.00
371.51	228.95
371.89	228.92
372.27	228.86
372.65	228.81
373.03	228.76
373.41	228.71
373.78	228.67
374.16	228.57
374.54	228.50
374.92	228.39
375.30	228.35
375.68	228.28
376.06	228.23
376.44	228.18
376.82	228.11
377.19	228.06
377.57	227.99
377.95	227.90
378.33	227.81
378.71	227.72
379.09	227.67
379.47	227.64
379.84	227.55
380.22	227.50
380.60	227.43
380.98	227.36
381.36	227.27
381.73	227.21
382.11	227.17
382.49	227.11
382.87	227.05
383.25	226.97
383.62	227.01
384.00	226.95
384.38	226.92
384.76	226.87
385.13	226.83
385.51	226.78
385.89	226.72
386.27	226.67
386.64	226.63
387.02	226.56
387.40	226.47
387.78	226.44
388.15	226.41
388.53	226.38
388.91	226.35
389.29	226.32
389.66	226.31
390.04	226.27
390.42	226.26
390.79	226.26
391.17	226.25
391.55	226.15
391.92	226.13
392.30	226.12
392.68	226.12
393.05	226.09
393.43	226.10
393.81	226.12
394.18	226.15
394.56	226.16
394.94	226.19
395.31	226.23
395.69	226.28
396.06	226.31
396.44	226.33
396.82	226.35
397.19	226.47
397.57	226.51
397.95	226.60
398.32	226.62
398.70	226.69
399.07	226.78
399.45	226.84
399.82	226.91
400.20	226.96
400.58	227.04
400.95	227.06
401.33	227.16
401.70	227.29
402.08	227.36
402.45	227.47
402.83	227.60
403.20	227.69
403.58	227.82
403.95	227.95
404.33	228.07
404.71	228.22
405.08	228.35
405.46	228.48
405.83	228.61
406.21	228.79
406.58	228.94
406.96	229.10
407.33	229.28
407.70	229.45
408.08	229.72
408.45	229.94
408.83	230.22
409.20	230.42
409.58	230.62
409.95	230.90
410.33	231.16
410.70	231.42
411.08	231.72
411.45	231.99
411.82	232.30
412.20	232.65
412.57	233.07
412.95	233.36
413.32	233.75
413.69	234.16
414.07	234.55
414.44	235.01
414.82	235.46
415.19	236.01
415.56	236.55
415.94	237.09
416.31	237.72
416.68	238.36
417.06	239.11
417.43	239.81
417.81	240.58
418.18	241.35
418.55	242.17
418.93	243.06
419.30	243.96
419.67	244.86
420.04	245.83
420.42	246.81
420.79	248.03
421.16	249.20
421.54	250.39
421.91	251.61
422.28	252.88
422.66	254.23
423.03	255.51
423.40	256.85
423.77	258.26
424.15	259.69
424.52	261.17
424.89	262.74
425.26	264.23
425.64	265.66
426.01	267.23
426.38	268.86
426.75	270.52
427.13	272.24
427.50	274.05
427.87	275.94
428.24	277.78
428.61	279.47
428.99	281.39
429.36	283.49
429.73	285.52
430.10	287.56
430.47	289.60
430.85	291.74
431.22	294.01
431.59	296.38
431.96	298.62
432.33	301.07
432.70	303.45
433.08	306.30
433.45	308.98
433.82	311.66
434.19	314.55
434.56	317.40
434.93	320.05
435.30	322.67
435.68	325.50
436.05	328.33
436.42	331.12
436.79	333.65
437.16	336.37
437.53	339.20
437.90	341.98
438.27	344.75
438.64	347.60
439.01	350.15
439.38	352.37
439.75	354.55
440.13	357.07
440.50	359.34
440.87	361.16
441.24	363.07
441.61	365.18
441.98	366.66
442.35	368.44
442.72	370.28
443.09	372.08
443.46	373.08
443.83	373.70
444.20	374.21
444.57	375.00
444.94	375.30
445.31	375.67
445.68	376.02
446.05	376.08
446.42	375.66
446.79	375.27
447.16	374.84
447.53	374.50
447.90	373.34
448.27	372.22
448.64	370.65
449.01	369.49
449.37	367.49
449.74	365.62
450.11	363.37
450.48	360.91
450.85	358.41
451.22	356.28
451.59	354.24
451.96	352.33
452.33	349.77
452.70	347.41
453.07	344.56
453.43	341.68
453.80	338.91
454.17	336.21
454.54	333.65
454.91	330.91
455.28	328.23
455.65	325.71
456.02	323.25
456.38	321.12
456.75	318.48
457.12	316.25
457.49	314.00
457.86	311.79
458.23	309.96
458.59	307.90
458.96	305.84
459.33	303.94
459.70	302.06
460.07	300.51
460.43	298.75
460.80	297.15
461.17	295.71
461.54	294.22
461.91	292.84
462.27	291.41
462.64	290.20
463.01	288.83
463.38	287.57
463.74	286.27
464.11	285.09
464.48	284.07
464.85	282.96
465.21	282.09
465.58	281.20
465.95	280.07
466.32	279.22
466.68	278.30
467.05	277.42
467.42	276.55
467.78	275.64
468.15	274.80
468.52	274.10
468.88	273.24
469.25	272.48
469.62	271.85
469.98	271.15
470.35	270.49
470.72	269.89
471.08	269.21
471.45	268.61
471.82	268.06
472.18	267.45
472.55	267.01
472.92	266.51
473.28	266.01
473.65	265.58
474.02	265.14
474.38	264.79
474.75	264.51
475.11	264.14
475.48	263.87
475.85	263.64
476.21	263.43
476.58	263.25
476.94	263.12
477.31	262.97
477.67	262.84
478.04	262.74
478.41	262.72
478.77	262.79
479.14	262.76
479.50	262.78
479.87	262.87
480.23	262.95
480.60	263.02
480.96	263.10
481.33	263.34
481.69	263.51
482.06	263.73
482.42	263.94
482.79	264.20
483.15	264.53
483.52	264.96
483.88	265.33
484.25	265.75
484.61	266.15
484.98	266.58
485.34	267.15
485.71	267.73
486.07	268.32
486.44	268.86
486.80	269.60
487.17	270.34
487.53	271.15
487.90	272.02
488.26	272.95
488.62	274.01
488.99	274.97
489.35	275.97
489.72	277.05
490.08	278.24
490.44	279.49
490.81	280.82
491.17	282.12
491.54	283.61
491.90	285.09
492.26	286.78
492.63	288.53
492.99	290.33
493.36	292.22
493.72	294.26
494.08	296.38
494.45	298.62
494.81	300.97
495.17	303.39
495.54	305.93
495.90	308.59
496.26	311.36
496.63	314.30
496.99	317.46
497.35	320.73
497.72	324.12
498.08	327.63
498.44	331.36
498.80	335.27
499.17	339.27
499.53	343.49
499.89	347.83
500.26	352.32
500.62	357.01
500.98	361.99
501.34	367.07
501.71	372.40
502.07	377.83
502.43	383.49
502.79	389.35
503.16	395.43
503.52	401.76
503.88	408.18
504.24	414.85
504.60	421.72
504.97	428.85
505.33	436.16
505.69	443.83
506.05	451.58
506.41	459.47
506.78	467.64
507.14	476.12
507.50	484.84
507.86	493.86
508.22	503.01
508.59	512.18
508.95	521.72
509.31	531.53
509.67	541.71
510.03	552.00
510.39	562.60
510.75	573.45
511.12	584.38
511.48	595.70
511.84	607.17
512.20	618.72
512.56	630.71
512.92	642.91
513.28	655.37
513.64	667.87
514.00	680.57
514.37	693.50
514.73	706.52
515.09	719.57
515.45	732.79
515.81	746.38
516.17	760.38
516.53	774.56
516.89	788.84
517.25	802.92
517.61	817.27
517.97	831.69
518.33	846.21
518.69	860.95
519.05	875.85
519.41	890.97
519.77	906.44
520.13	921.83
520.49	937.14
520.85	952.46
521.21	968.02
521.57	984.35
521.93	1000.09
522.29	1016.55
522.65	1032.79
523.01	1049.06
523.37	1065.08
523.73	1081.16
524.09	1097.24
524.45	1113.42
524.81	1130.05
525.17	1146.77
525.53	1163.61
525.89	1180.44
526.25	1197.26
526.61	1213.63
526.97	1230.35
527.33	1246.79
527.68	1263.39
528.04	1279.93
528.40	1296.55
528.76	1313.72
529.12	1330.12
529.48	1347.01
529.84	1362.86
530.20	1379.43
530.56	1396.47
530.91	1413.85
531.27	1430.56
531.63	1447.03
531.99	1463.58
532.35	1479.44
532.71	1495.35
533.07	1511.63
533.42	1527.32
533.78	1543.29
534.14	1559.69
534.50	1575.07
534.86	1590.95
535.21	1606.12
535.57	1621.95
535.93	1637.44
536.29	1652.11
536.65	1667.16
537.00	1681.89
537.36	1697.22
537.72	1711.78
538.08	1726.09
538.44	1739.71
538.79	1753.64
539.15	1767.15
539.51	1780.83
539.87	1795.18
540.22	1808.87
540.58	1822.55
540.94	1835.93
541.29	1848.79
541.65	1861.38
542.01	1874.46
542.37	1886.78
542.72	1899.13
543.08	1910.74
543.44	1923.04
543.79	1934.29
544.15	1945.28
544.51	1956.77
544.87	1967.81
545.22	1978.55
545.58	1988.78
545.94	1998.66
546.29	2008.52
546.65	2018.45
547.01	2027.63
547.36	2036.37
547.72	2044.91
548.07	2052.54
548.43	2060.61
548.79	2068.70
549.14	2075.98
549.50	2083.28
549.86	2090.86
550.21	2098.16
550.57	2105.46
550.92	2111.95
551.28	2119.00
551.64	2126.01
551.99	2132.53
552.35	2138.59
552.70	2144.72
553.06	2150.72
553.41	2157.12
553.77	2163.13
554.13	2169.28
554.48	2175.56
554.84	2181.03
555.19	2186.27
555.55	2191.57
555.90	2196.09
556.26	2200.87
556.61	2205.69
556.97	2210.11
557.32	2214.23
557.68	2218.26
558.03	2222.49
558.39	2226.23
558.74	2230.81
559.10	2234.75
559.45	2238.45
559.81	2242.80
560.16	2246.58
560.52	2249.78
560.87	2253.02
561.23	2255.72
561.58	2258.68
561.94	2261.09
562.29	2263.57
562.64	2266.26
563.00	2268.77
563.35	2272.25
563.71	2275.33
564.06	2278.60
564.42	2281.26
564.77	2283.77
565.12	2286.13
565.48	2288.10
565.83	2290.05
566.19	2291.25
566.54	2292.10
566.89	2293.31
567.25	2293.89
567.60	2295.30
567.96	2296.87
568.31	2297.73
568.66	2298.91
569.02	2299.29
569.37	2299.60
569.72	2300.36
570.08	2300.37
570.43	2300.46
570.78	2299.83
571.14	2298.34
571.49	2297.08
571.84	2296.88
572.20	2295.86
572.55	2294.85
572.90	2293.31
573.26	2291.83
573.61	2290.30
573.96	2288.59
574.31	2285.47
574.67	2282.48
575.02	2278.85
575.37	2275.62
575.72	2271.84
576.08	2268.45
576.43	2265.27
576.78	2261.62
577.13	2258.51
577.49	2255.59
577.84	2252.12
578.19	2248.50
578.54	2244.94
578.90	2240.71
579.25	2235.24
579.60	2230.33
579.95	2225.29
580.30	2220.26
580.66	2215.24
581.01	2210.30
581.36	2205.35
581.71	2201.08
582.06	2196.55
582.42	2192.04
582.77	2186.78
583.12	2182.28
583.47	2177.56
583.82	2172.65
584.17	2167.51
584.53	2161.92
584.88	2156.19
585.23	2150.55
585.58	2145.11
585.93	2139.66
586.28	2134.84
586.63	2129.79
586.98	2124.78
587.34	2120.03
587.69	2115.35
588.04	2110.09
588.39	2104.46
588.74	2098.07
589.09	2092.11
589.44	2085.30
589.79	2079.37
590.14	2073.82
590.49	2067.27
590.84	2060.90
591.19	2054.75
591.54	2048.20
591.89	2040.88
592.25	2034.25
592.60	2026.88
592.95	2019.36
593.30	2011.92
593.65	2004.34
594.00	1997.32
594.35	1989.93
594.70	1982.06
595.05	1974.76
595.40	1967.47
595.75	1959.93
596.10	1953.65
596.45	1946.96
596.80	1940.80
597.15	1934.23
597.50	1927.10
597.85	1920.72
598.19	1914.14
598.54	1907.02
598.89	1900.38
599.24	1894.48
599.59	1887.56
599.94	1881.51
600.29	1875.02
600.64	1868.60
600.99	1861.14
601.34	1854.25
601.69	1847.27
602.04	1840.30
602.39	1832.87
602.74	1825.99
603.08	1819.33
603.43	1812.74
603.78	1805.40
604.13	1798.23
604.48	1790.78
604.83	1783.93
605.18	1776.87
605.53	1768.76
605.87	1760.72
606.22	1753.61
606.57	1745.69
606.92	1738.55
607.27	1731.35
607.62	1724.35
607.96	1717.04
608.31	1710.52
608.66	1702.92
609.01	1695.44
609.36	1687.93
609.70	1679.95
610.05	1671.70
610.40	1663.87
610.75	1655.50
611.10	1647.80
611.44	1639.44
611.79	1631.55
612.14	1622.82
612.49	1613.71
612.83	1605.29
613.18	1597.28
613.53	1589.11
613.88	1580.60
614.22	1572.24
614.57	1563.65
614.92	1555.71
615.27	1547.99
615.61	1539.56
615.96	1531.55
616.31	1523.95
616.65	1516.57
617.00	1508.91
617.35	1501.36
617.70	1493.10
618.04	1484.54
618.39	1476.30
618.74	1468.67
619.08	1460.26
619.43	1452.60
619.78	1445.64
620.12	1438.50
620.47	1430.92
620.82	1422.74
621.16	1415.27
621.51	1407.71
621.85	1400.03
622.20	1391.61
622.55	1383.38
622.89	1375.60
623.24	1368.01
623.59	1360.65
623.93	1353.08
624.28	1345.99
624.62	1338.49
624.97	1331.31
625.32	1324.58
625.66	1317.55
626.01	1310.36
626.35	1302.95
626.70	1295.33
627.04	1287.65
627.39	1279.89
627.73	1272.47
628.08	1265.62
628.43	1258.24
628.77	1250.77
629.12	1243.28
629.46	1236.04
629.81	1228.63
630.15	1221.35
630.50	1213.87
630.84	1205.57
631.19	1197.68
631.53	1190.15
631.88	1182.64
632.22	1174.97
632.57	1167.70
632.91	1160.15
633.26	1152.71
633.60	1145.38
633.95	1138.28
634.29	1131.28
634.64	1124.57
634.98	1117.21
635.32	1109.96
635.67	1103.41
636.01	1096.82
636.36	1089.94
636.70	1083.39
637.05	1076.83
637.39	1070.37
637.73	1063.83
638.08	1058.01
638.42	1051.96
638.77	1045.51
639.11	1038.80
639.45	1032.48
639.80	1025.75
640.14	1019.39
640.49	1012.88
640.83	1006.56
641.17	1000.34
641.52	993.90
641.86	987.51
642.20	981.63
642.55	975.38
642.89	968.95
643.23	962.52
643.58	956.78
643.92	950.65
644.26	944.49
644.61	938.54
644.95	932.48
645.29	925.81
645.64	919.09
645.98	912.79
646.32	907.01
646.66	900.94
647.01	895.21
647.35	889.43
647.69	883.58
648.04	878.03
648.38	872.17
648.72	866.25
649.06	860.17
649.41	854.35
649.75	848.43
650.09	842.43
650.43	836.59
650.78	830.41
651.12	824.44
651.46	818.76
651.80	812.87
652.14	807.57
652.49	802.29
652.83	797.09
653.17	791.32
653.51	785.58
653.85	780.25
654.20	774.54
654.54	768.57
654.88	762.78
655.22	756.89
655.56	751.21
655.90	745.79
656.25	740.51
656.59	735.17
656.93	730.05
657.27	724.90
657.61	719.46
657.95	714.45
658.29	709.37
658.64	704.16
658.98	698.89
659.32	693.37
659.66	688.13
660.00	682.80
660.34	677.84
660.68	673.02
661.02	667.95
661.36	663.25
661.70	658.76
662.05	654.50
662.39	650.15
662.73	645.71
663.07	641.30
663.41	636.86
663.75	632.29
664.09	627.73
664.43	623.33
664.77	619.19
665.11	614.83
665.45	610.78
665.79	606.72
666.13	602.62
666.47	598.59
666.81	594.44
667.15	590.36
667.49	586.55
667.83	582.73
668.17	578.82
668.51	574.74
668.85	570.67
669.19	566.78
669.53	562.98
669.87	559.07
670.21	555.30
670.55	551.67
670.89	548.25
671.23	544.80
671.57	541.35
671.91	537.82
672.25	534.35
672.58	530.77
672.92	527.38
673.26	524.21
673.60	521.02
673.94	517.86
674.28	514.92
674.62	511.95
674.96	508.86
675.30	505.97
675.64	503.07
675.97	500.35
676.31	497.48
676.65	494.50
676.99	491.85
677.33	489.04
677.67	486.22
678.01	483.19
678.34	480.18
678.68	477.26
679.02	474.44
679.36	471.70
679.70	468.99
680.04	466.18
680.37	463.27
680.71	460.48
681.05	457.93
681.39	455.24
681.73	452.54
682.06	449.97
682.40	447.38
682.74	444.83
683.08	442.29
683.42	439.70
683.75	437.18
684.09	434.63
684.43	432.17
684.77	429.71
685.10	427.33
685.44	425.04
685.78	422.74
686.12	420.48
686.45	418.20
686.79	415.86
687.13	413.69
687.46	411.50
687.80	409.36
688.14	407.11
688.48	405.02
688.81	402.77
689.15	400.61
689.49	398.44
689.82	396.34
690.16	394.27
690.50	392.36
690.83	390.44
691.17	388.43
691.51	386.52
691.84	384.67
692.18	382.74
692.52	380.75
692.85	378.87
693.19	377.01
693.52	375.15
693.86	373.40
694.20	371.67
694.53	369.92
694.87	368.06
695.21	366.28
695.54	364.47
695.88	362.79
696.21	361.10
696.55	359.41
696.88	357.74
697.22	356.09
697.56	354.42
697.89	352.73
698.23	351.13
698.56	349.53
698.90	347.91
699.23	346.30
699.57	344.76
699.90	343.14
700.24	341.62
700.58	340.10
700.91	338.56
701.25	337.06
701.58	335.67
701.92	334.35
702.25	332.96
702.59	331.63
702.92	330.32
703.26	329.00
703.59	327.77
703.93	326.62
704.26	325.38
704.60	324.06
704.93	322.82
705.26	321.58
705.60	320.40
705.93	319.26
706.27	318.28
706.60	317.27
706.94	316.23
707.27	315.08
707.61	314.02
707.94	313.01
708.27	311.93
708.61	310.86
708.94	309.85
709.28	308.87
709.61	307.90
709.94	306.91
710.28	305.89
710.61	304.94
710.95	303.86
711.28	302.92
711.61	302.01
711.95	301.12
712.28	300.15
712.61	299.15
712.95	298.22
713.28	297.31
713.61	296.40
713.95	295.49
714.28	294.63
714.61	293.78
714.95	292.91
715.28	292.02
715.61	291.18
715.95	290.30
716.28	289.45
716.61	288.60
716.95	287.80
717.28	287.08
717.61	286.27
717.94	285.54
718.28	284.71
718.61	283.98
718.94	283.29
719.27	282.62
719.61	281.99
719.94	281.33
720.27	280.58
720.60	279.90
720.94	279.30
721.27	278.77
721.60	278.16
721.93	277.54
722.27	277.00
722.60	276.43
722.93	275.86
723.26	275.33
723.59	274.78
723.93	274.23
724.26	273.69
724.59	273.13
724.92	272.59
725.25	272.13
725.59	271.59
725.92	271.06
726.25	270.57
726.58	270.06
726.91	269.57
727.24	269.13
727.57	268.65
727.91	268.15
728.24	267.63
728.57	267.18
728.90	266.75
729.23	266.23
729.56	265.80
729.89	265.36
730.22	264.90
730.55	264.40
730.89	263.96
731.22	263.47
731.55	263.04
731.88	262.59
732.21	262.15
732.54	261.72
732.87	261.32
733.20	260.93
733.53	260.56
733.86	260.17
734.19	259.78
734.52	259.41
734.85	259.08
735.18	258.68
735.51	258.28
735.84	257.92
736.17	257.61
736.50	257.21
736.83	256.96
737.16	256.59
737.49	256.31
737.82	255.94
738.15	255.60
738.48	255.24
738.81	254.93
739.14	254.60
739.47	254.31
739.80	253.96
740.13	253.67
740.46	253.34
740.79	253.02
741.12	252.69
741.45	252.38
741.78	252.07
742.11	251.80
742.44	251.50
742.77	251.22
743.10	250.91
743.43	250.60
743.75	250.21
744.08	250.08
744.41	249.76
744.74	249.50
745.07	249.25
745.40	249.02
745.73	248.76
746.06	248.52
746.39	248.29
746.71	248.06
747.04	247.77
747.37	247.52
747.70	247.26
748.03	247.02
748.36	246.83
748.68	246.60
749.01	246.34
749.34	246.12
749.67	245.87
750.00	245.64
750.33	245.48
750.65	245.23
750.98	244.90
751.31	244.71
751.64	244.51
751.97	244.36
752.29	244.14
752.62	243.92
752.95	243.67
753.28	243.41
753.60	243.18
753.93	243.02
754.26	242.80
754.59	242.60
754.91	242.40
755.24	242.19
755.57	241.98
755.90	241.76
756.22	241.57
756.55	241.35
756.88	241.19
757.20	240.93
757.53	240.76
757.86	240.61
758.19	240.45
758.51	240.22
758.84	239.97
759.17	239.79
759.49	239.63
759.82	239.53
760.15	239.43
760.47	239.25
760.80	239.05
761.13	238.91
761.45	238.76
761.78	238.59
762.11	238.39
762.43	238.22
762.76	238.11
763.08	237.97
763.41	237.86
763.74	237.70
764.06	237.59
764.39	237.46
764.71	237.29
765.04	237.14
765.37	237.03
765.69	236.92
766.02	236.79
766.34	236.64
766.67	236.44
767.00	236.31
767.32	236.26
767.65	236.22
767.97	236.09
768.30	235.96
768.62	235.86
768.95	235.77
769.27	235.66
769.60	235.53
769.92	235.41
770.25	235.26
770.57	235.16
770.90	235.06
771.22	234.92
771.55	234.84
771.87	234.73
772.20	234.64
772.52	234.62
772.85	234.67
773.17	234.58
773.50	234.51
773.82	234.37
774.15	234.25
774.47	234.12
774.80	234.05
775.12	233.98
775.45	233.92
775.77	233.81
776.09	233.72
776.42	233.68
776.74	233.66
777.07	233.60
777.39	233.52
777.72	233.42
778.04	233.38
778.36	233.29
778.69	233.23
779.01	233.18
779.33	233.05
779.66	232.86
779.98	232.78
780.31	232.73
780.63	232.74
780.95	232.71
781.28	232.66
781.60	232.57
781.92	232.51
782.25	232.42
782.57	232.38
782.89	232.35
783.22	232.29
783.54	232.18
783.86	232.16
784.19	232.07
784.51	232.04
784.83	231.98
785.16	231.95
785.48	231.91
785.80	231.85
786.12	231.82
786.45	231.75
786.77	231.75
787.09	231.69
