SpectraSuite Data File
++++++++++++++++++++++++++++++++++++
Date: Fri Feb 01 17:13:51 EST 2013
User: group
Dark Spectrum Present: No
Reference Spectrum Present: No
Number of Sampled Component Spectra: 1
Spectrometers: USB2E7196
Integration Time (usec): 35000 (USB2E7196)
Spectra Averaged: 100 (USB2E7196)
Boxcar Smoothing: 10 (USB2E7196)
Correct for Electrical Dark: No (USB2E7196)
Strobe/Lamp Enabled: No (USB2E7196)
Correct for Detector Non-linearity: No (USB2E7196)
Correct for Stray Light: No (USB2E7196)
Number of Pixels in Processed Spectrum: 2048
>>>>>Begin Processed Spectral Data<<<<<
339.09	0.00
339.48	213.02
339.86	214.55
340.24	216.30
340.63	217.98
341.01	220.17
341.39	219.95
341.78	221.68
342.16	222.81
342.54	222.88
342.93	211.70
343.31	222.41
343.69	222.95
344.07	223.41
344.46	223.83
344.84	224.18
345.22	224.41
345.60	224.64
345.99	224.80
346.37	224.94
346.75	225.05
347.13	225.14
347.52	225.15
347.90	225.22
348.28	225.24
348.66	225.26
349.05	225.20
349.43	225.19
349.81	225.21
350.19	225.24
350.57	225.30
350.96	225.32
351.34	225.38
351.72	225.43
352.10	225.52
352.48	225.57
352.87	225.63
353.25	225.67
353.63	225.75
354.01	225.82
354.39	225.86
354.77	225.92
355.15	226.02
355.54	226.10
355.92	226.13
356.30	226.19
356.68	226.31
357.06	226.42
357.44	226.49
357.82	226.57
358.20	226.63
358.58	226.69
358.97	226.80
359.35	226.88
359.73	226.99
360.11	227.05
360.49	227.11
360.87	227.14
361.25	227.19
361.63	227.26
362.01	227.33
362.39	227.34
362.77	227.38
363.15	227.41
363.53	227.45
363.91	227.49
364.29	227.50
364.67	227.42
365.05	227.42
365.43	227.46
365.81	227.48
366.19	227.54
366.57	227.59
366.95	227.57
367.33	227.53
367.71	227.49
368.09	227.47
368.47	227.48
368.85	227.47
369.23	227.50
369.61	227.43
369.99	227.40
370.37	227.43
370.75	227.43
371.13	227.37
371.51	227.33
371.89	227.31
372.27	227.33
372.65	227.30
373.03	227.24
373.41	227.19
373.78	227.12
374.16	227.04
374.54	226.99
374.92	226.95
375.30	226.87
375.68	226.83
376.06	226.79
376.44	226.74
376.82	226.65
377.19	226.57
377.57	226.53
377.95	226.46
378.33	226.40
378.71	226.32
379.09	226.27
379.47	226.22
379.84	226.11
380.22	226.00
380.60	225.93
380.98	225.88
381.36	225.81
381.73	225.76
382.11	225.71
382.49	225.60
382.87	225.54
383.25	225.52
383.62	225.59
384.00	225.52
384.38	225.46
384.76	225.46
385.13	225.47
385.51	225.42
385.89	225.37
386.27	225.32
386.64	225.31
387.02	225.25
387.40	225.19
387.78	225.18
388.15	225.15
388.53	225.13
388.91	225.08
389.29	225.02
389.66	225.00
390.04	224.95
390.42	224.99
390.79	224.94
391.17	224.91
391.55	224.79
391.92	224.78
392.30	224.81
392.68	224.78
393.05	224.76
393.43	224.79
393.81	224.80
394.18	224.80
394.56	224.81
394.94	224.84
395.31	224.86
395.69	224.94
396.06	224.96
396.44	224.98
396.82	225.05
397.19	225.14
397.57	225.17
397.95	225.22
398.32	225.19
398.70	225.26
399.07	225.35
399.45	225.36
399.82	225.39
400.20	225.44
400.58	225.49
400.95	225.53
401.33	225.58
401.70	225.71
402.08	225.79
402.45	225.84
402.83	225.95
403.20	226.03
403.58	226.09
403.95	226.24
404.33	226.36
404.71	226.48
405.08	226.67
405.46	226.76
405.83	226.92
406.21	227.12
406.58	227.30
406.96	227.44
407.33	227.64
407.70	227.82
408.08	228.08
408.45	228.32
408.83	228.56
409.20	228.77
409.58	228.93
409.95	229.20
410.33	229.50
410.70	229.71
411.08	230.06
411.45	230.35
411.82	230.63
412.20	230.98
412.57	231.38
412.95	231.65
413.32	232.09
413.69	232.49
414.07	232.90
414.44	233.38
414.82	233.85
415.19	234.40
415.56	234.98
415.94	235.49
416.31	236.11
416.68	236.74
417.06	237.47
417.43	238.21
417.81	238.95
418.18	239.71
418.55	240.55
418.93	241.42
419.30	242.32
419.67	243.27
420.04	244.24
420.42	245.26
420.79	246.44
421.16	247.65
421.54	248.86
421.91	250.10
422.28	251.33
422.66	252.69
423.03	254.02
423.40	255.36
423.77	256.85
424.15	258.31
424.52	259.80
424.89	261.46
425.26	263.04
425.64	264.53
426.01	266.16
426.38	267.89
426.75	269.56
427.13	271.31
427.50	273.17
427.87	275.11
428.24	276.98
428.61	278.75
428.99	280.67
429.36	282.81
429.73	284.92
430.10	287.00
430.47	289.09
430.85	291.23
431.22	293.52
431.59	295.91
431.96	298.17
432.33	300.70
432.70	303.08
433.08	305.94
433.45	308.65
433.82	311.29
434.19	314.23
434.56	317.09
434.93	319.83
435.30	322.47
435.68	325.35
436.05	328.27
436.42	331.13
436.79	333.74
437.16	336.50
437.53	339.38
437.90	342.22
438.27	345.02
438.64	347.96
439.01	350.59
439.38	352.84
439.75	355.13
440.13	357.67
440.50	360.06
440.87	361.92
441.24	363.88
441.61	366.12
441.98	367.62
442.35	369.44
442.72	371.35
443.09	373.18
443.46	374.29
443.83	374.83
444.20	375.38
444.57	376.20
444.94	376.46
445.31	376.77
445.68	377.18
446.05	377.27
446.42	376.84
446.79	376.43
447.16	376.01
447.53	375.64
447.90	374.46
448.27	373.28
448.64	371.71
449.01	370.59
449.37	368.60
449.74	366.72
450.11	364.51
450.48	362.02
450.85	359.49
451.22	357.23
451.59	355.21
451.96	353.22
452.33	350.58
452.70	348.20
453.07	345.35
453.43	342.39
453.80	339.58
454.17	336.87
454.54	334.26
454.91	331.51
455.28	328.78
455.65	326.28
456.02	323.80
456.38	321.59
456.75	318.86
457.12	316.52
457.49	314.21
457.86	311.91
458.23	310.01
458.59	307.95
458.96	305.86
459.33	303.99
459.70	302.10
460.07	300.59
460.43	298.80
460.80	297.13
461.17	295.69
461.54	294.20
461.91	292.73
462.27	291.27
462.64	290.01
463.01	288.67
463.38	287.31
463.74	285.92
464.11	284.75
464.48	283.72
464.85	282.61
465.21	281.75
465.58	280.89
465.95	279.79
466.32	278.84
466.68	277.93
467.05	277.01
467.42	276.10
467.78	275.17
468.15	274.33
468.52	273.70
468.88	272.82
469.25	272.02
469.62	271.40
469.98	270.74
470.35	270.10
470.72	269.48
471.08	268.85
471.45	268.32
471.82	267.77
472.18	267.14
472.55	266.73
472.92	266.19
473.28	265.71
473.65	265.24
474.02	264.78
474.38	264.41
474.75	264.09
475.11	263.79
475.48	263.53
475.85	263.30
476.21	263.07
476.58	262.86
476.94	262.68
477.31	262.51
477.67	262.37
478.04	262.26
478.41	262.20
478.77	262.26
479.14	262.17
479.50	262.17
479.87	262.26
480.23	262.33
480.60	262.40
480.96	262.47
481.33	262.65
481.69	262.83
482.06	262.98
482.42	263.17
482.79	263.40
483.15	263.69
483.52	264.05
483.88	264.39
484.25	264.80
484.61	265.24
484.98	265.71
485.34	266.23
485.71	266.81
486.07	267.39
486.44	267.92
486.80	268.62
487.17	269.33
487.53	270.11
487.90	270.93
488.26	271.86
488.62	272.85
488.99	273.83
489.35	274.87
489.72	276.03
490.08	277.23
490.44	278.44
490.81	279.78
491.17	281.14
491.54	282.63
491.90	284.21
492.26	285.85
492.63	287.57
492.99	289.36
493.36	291.24
493.72	293.27
494.08	295.39
494.45	297.66
494.81	300.09
495.17	302.57
495.54	305.10
495.90	307.78
496.26	310.59
496.63	313.58
496.99	316.75
497.35	320.02
497.72	323.47
498.08	326.98
498.44	330.64
498.80	334.54
499.17	338.56
499.53	342.70
499.89	347.09
500.26	351.57
500.62	356.20
500.98	361.14
501.34	366.17
501.71	371.45
502.07	376.83
502.43	382.34
502.79	388.12
503.16	394.15
503.52	400.43
503.88	406.77
504.24	413.34
504.60	420.14
504.97	427.19
505.33	434.44
505.69	442.10
506.05	449.86
506.41	457.69
506.78	465.75
507.14	474.08
507.50	482.72
507.86	491.64
508.22	500.75
508.59	509.86
508.95	519.34
509.31	529.07
509.67	539.10
510.03	549.31
510.39	559.76
510.75	570.51
511.12	581.31
511.48	592.51
511.84	603.85
512.20	615.24
512.56	627.00
512.92	638.99
513.28	651.18
513.64	663.45
514.00	676.03
514.37	688.90
514.73	701.76
515.09	714.63
515.45	727.73
515.81	741.04
516.17	754.85
516.53	768.76
516.89	782.73
517.25	796.66
517.61	810.86
517.97	825.03
518.33	839.14
518.69	853.65
519.05	868.35
519.41	883.20
519.77	898.48
520.13	913.68
520.49	928.89
520.85	944.00
521.21	959.39
521.57	975.22
521.93	990.69
522.29	1006.72
522.65	1022.56
523.01	1038.50
523.37	1054.39
523.73	1070.25
524.09	1086.05
524.45	1102.01
524.81	1118.40
525.17	1134.83
525.53	1151.32
525.89	1167.85
526.25	1184.30
526.61	1200.38
526.97	1216.82
527.33	1232.98
527.68	1249.25
528.04	1265.30
528.40	1281.45
528.76	1298.20
529.12	1314.48
529.48	1330.99
529.84	1346.65
530.20	1363.01
530.56	1379.63
530.91	1396.57
531.27	1413.03
531.63	1429.26
531.99	1445.48
532.35	1461.16
532.71	1476.69
533.07	1492.75
533.42	1508.45
533.78	1524.37
534.14	1540.26
534.50	1555.35
534.86	1570.82
535.21	1585.75
535.57	1601.40
535.93	1616.60
536.29	1631.01
536.65	1645.89
537.00	1660.37
537.36	1675.44
537.72	1689.58
538.08	1703.71
538.44	1717.21
538.79	1730.67
539.15	1743.92
539.51	1757.40
539.87	1771.39
540.22	1784.80
540.58	1798.02
540.94	1810.96
541.29	1823.34
541.65	1835.64
542.01	1848.49
542.37	1860.63
542.72	1872.78
543.08	1884.43
543.44	1896.67
543.79	1907.92
544.15	1918.60
544.51	1930.02
544.87	1940.92
545.22	1951.78
545.58	1961.94
545.94	1971.78
546.29	1981.70
546.65	1991.79
547.01	2001.10
547.36	2009.80
547.72	2018.44
548.07	2026.76
548.43	2035.10
548.79	2043.14
549.14	2051.06
549.50	2058.62
549.86	2066.33
550.21	2073.86
550.57	2081.09
550.92	2087.98
551.28	2095.22
551.64	2102.50
551.99	2109.19
552.35	2115.50
552.70	2121.83
553.06	2128.05
553.41	2134.46
553.77	2140.49
554.13	2146.50
554.48	2152.74
554.84	2158.57
555.19	2164.02
555.55	2169.32
555.90	2173.96
556.26	2179.29
556.61	2184.22
556.97	2188.82
557.32	2193.35
557.68	2197.63
558.03	2202.19
558.39	2205.91
558.74	2210.76
559.10	2214.85
559.45	2218.71
559.81	2223.28
560.16	2227.33
560.52	2230.95
560.87	2234.57
561.23	2237.72
561.58	2240.86
561.94	2243.73
562.29	2246.16
562.64	2249.25
563.00	2252.04
563.35	2255.83
563.71	2259.17
564.06	2262.36
564.42	2265.48
564.77	2268.29
565.12	2271.11
565.48	2273.41
565.83	2275.73
566.19	2277.29
566.54	2278.41
566.89	2279.97
567.25	2280.94
567.60	2282.25
567.96	2284.29
568.31	2285.48
568.66	2286.80
569.02	2287.75
569.37	2288.41
569.72	2289.67
570.08	2290.03
570.43	2290.21
570.78	2289.96
571.14	2288.63
571.49	2287.70
571.84	2287.40
572.20	2286.56
572.55	2285.46
572.90	2283.94
573.26	2282.87
573.61	2281.31
573.96	2280.04
574.31	2277.35
574.67	2274.60
575.02	2271.43
575.37	2267.88
575.72	2264.45
576.08	2261.19
576.43	2257.96
576.78	2254.61
577.13	2251.46
577.49	2248.41
577.84	2245.23
578.19	2241.60
578.54	2238.38
578.90	2234.56
579.25	2229.47
579.60	2224.93
579.95	2220.30
580.30	2215.49
580.66	2210.41
581.01	2205.58
581.36	2200.74
581.71	2196.79
582.06	2192.63
582.42	2188.51
582.77	2183.83
583.12	2179.50
583.47	2175.39
583.82	2170.79
584.17	2165.64
584.53	2160.45
584.88	2155.14
585.23	2149.80
585.58	2144.56
585.93	2139.21
586.28	2134.40
586.63	2129.49
586.98	2124.41
587.34	2119.77
587.69	2115.05
588.04	2110.15
588.39	2104.75
588.74	2098.38
589.09	2092.32
589.44	2085.67
589.79	2079.50
590.14	2073.80
590.49	2067.27
590.84	2060.84
591.19	2054.93
591.54	2048.61
591.89	2041.63
592.25	2035.15
592.60	2028.08
592.95	2020.82
593.30	2013.67
593.65	2006.18
594.00	1999.27
594.35	1992.17
594.70	1984.20
595.05	1977.37
595.40	1970.04
595.75	1962.77
596.10	1956.88
596.45	1950.40
596.80	1944.34
597.15	1938.11
597.50	1931.48
597.85	1925.13
598.19	1918.63
598.54	1911.94
598.89	1905.49
599.24	1899.56
599.59	1893.08
599.94	1886.79
600.29	1880.52
600.64	1873.91
600.99	1866.82
601.34	1860.10
601.69	1853.11
602.04	1846.61
602.39	1839.23
602.74	1832.60
603.08	1826.06
603.43	1819.34
603.78	1812.14
604.13	1804.96
604.48	1797.74
604.83	1790.81
605.18	1784.15
605.53	1776.30
605.87	1768.16
606.22	1760.74
606.57	1752.77
606.92	1745.17
607.27	1738.21
607.62	1731.25
607.96	1724.09
608.31	1717.48
608.66	1709.95
609.01	1702.51
609.36	1694.85
609.70	1686.92
610.05	1678.79
610.40	1670.96
610.75	1662.67
611.10	1654.98
611.44	1646.42
611.79	1638.28
612.14	1629.56
612.49	1620.27
612.83	1611.69
613.18	1603.39
613.53	1595.28
613.88	1586.71
614.22	1578.45
614.57	1569.70
614.92	1561.66
615.27	1554.22
615.61	1545.95
615.96	1537.79
616.31	1530.05
616.65	1522.65
617.00	1515.04
617.35	1507.45
617.70	1499.13
618.04	1490.66
618.39	1482.21
618.74	1474.76
619.08	1466.57
619.43	1458.91
619.78	1451.88
620.12	1444.76
620.47	1437.30
620.82	1429.16
621.16	1421.70
621.51	1414.10
621.85	1406.37
622.20	1397.83
622.55	1389.29
622.89	1381.31
623.24	1373.59
623.59	1366.14
623.93	1358.51
624.28	1351.17
624.62	1343.63
624.97	1336.46
625.32	1329.50
625.66	1322.42
626.01	1315.17
626.35	1307.75
626.70	1299.93
627.04	1292.24
627.39	1284.37
627.73	1276.88
628.08	1269.92
628.43	1262.73
628.77	1255.40
629.12	1247.89
629.46	1240.61
629.81	1233.00
630.15	1225.67
630.50	1218.29
630.84	1210.05
631.19	1201.96
631.53	1194.32
631.88	1186.60
632.22	1178.92
632.57	1171.63
632.91	1164.10
633.26	1156.70
633.60	1149.12
633.95	1141.80
634.29	1134.61
634.64	1127.81
634.98	1120.45
635.32	1113.27
635.67	1106.40
636.01	1099.64
636.36	1092.79
636.70	1086.25
637.05	1079.73
637.39	1073.30
637.73	1066.82
638.08	1060.83
638.42	1054.85
638.77	1048.49
639.11	1041.94
639.45	1035.53
639.80	1028.76
640.14	1022.41
640.49	1015.83
640.83	1009.54
641.17	1003.38
641.52	997.08
641.86	990.70
642.20	984.81
642.55	978.42
642.89	972.08
643.23	965.45
643.58	959.64
643.92	953.42
644.26	947.55
644.61	941.41
644.95	935.35
645.29	928.90
645.64	922.31
645.98	915.88
646.32	909.85
646.66	903.76
647.01	898.05
647.35	892.26
647.69	886.28
648.04	880.67
648.38	874.94
648.72	869.02
649.06	862.98
649.41	857.06
649.75	851.18
650.09	845.18
650.43	839.42
650.78	833.33
651.12	827.40
651.46	821.53
651.80	815.90
652.14	810.46
652.49	805.11
652.83	799.84
653.17	794.35
653.51	788.84
653.85	783.40
654.20	777.70
654.54	771.60
654.88	765.96
655.22	760.10
655.56	754.28
655.90	748.71
656.25	743.35
656.59	738.01
656.93	732.85
657.27	727.76
657.61	722.32
657.95	717.19
658.29	712.12
658.64	706.80
658.98	701.29
659.32	695.75
659.66	690.55
660.00	685.28
660.34	680.24
660.68	675.18
661.02	670.14
661.36	665.38
661.70	660.98
662.05	656.60
662.39	652.28
662.73	647.87
663.07	643.53
663.41	639.10
663.75	634.60
664.09	630.06
664.43	625.61
664.77	621.56
665.11	617.26
665.45	613.00
665.79	608.97
666.13	605.00
666.47	600.89
666.81	596.61
667.15	592.46
667.49	588.45
667.83	584.56
668.17	580.56
668.51	576.52
668.85	572.35
669.19	568.44
669.53	564.55
669.87	560.69
670.21	556.97
670.55	553.29
670.89	549.82
671.23	546.32
671.57	542.76
671.91	539.16
672.25	535.64
672.58	532.11
672.92	528.65
673.26	525.34
673.60	522.11
673.94	519.05
674.28	516.05
674.62	513.12
674.96	510.05
675.30	507.18
675.64	504.23
675.97	501.50
676.31	498.61
676.65	495.68
676.99	492.90
677.33	489.97
677.67	487.12
678.01	484.11
678.34	481.17
678.68	478.22
679.02	475.36
679.36	472.54
679.70	469.82
680.04	467.02
680.37	464.16
680.71	461.40
681.05	458.70
681.39	455.98
681.73	453.24
682.06	450.67
682.40	448.13
682.74	445.57
683.08	442.98
683.42	440.34
683.75	437.82
684.09	435.26
684.43	432.77
684.77	430.32
685.10	427.92
685.44	425.53
685.78	423.27
686.12	421.01
686.45	418.71
686.79	416.45
687.13	414.22
687.46	412.02
687.80	409.86
688.14	407.65
688.48	405.55
688.81	403.43
689.15	401.29
689.49	399.10
689.82	397.02
690.16	394.87
690.50	392.91
690.83	390.98
691.17	388.97
691.51	387.09
691.84	385.27
692.18	383.40
692.52	381.47
692.85	379.51
693.19	377.63
693.52	375.77
693.86	373.86
694.20	372.09
694.53	370.27
694.87	368.43
695.21	366.59
695.54	364.75
695.88	362.96
696.21	361.17
696.55	359.46
696.88	357.78
697.22	356.10
697.56	354.44
697.89	352.78
698.23	351.19
698.56	349.53
698.90	347.97
699.23	346.30
699.57	344.75
699.90	343.26
700.24	341.71
700.58	340.18
700.91	338.75
701.25	337.26
701.58	335.94
701.92	334.53
702.25	333.17
702.59	331.79
702.92	330.46
703.26	329.17
703.59	327.88
703.93	326.64
704.26	325.45
704.60	324.17
704.93	322.86
705.26	321.58
705.60	320.38
705.93	319.13
706.27	318.06
706.60	316.94
706.94	315.79
707.27	314.60
707.61	313.48
707.94	312.38
708.27	311.29
708.61	310.14
708.94	309.12
709.28	308.11
709.61	307.11
709.94	306.13
710.28	305.07
710.61	304.02
710.95	302.92
711.28	301.94
711.61	300.93
711.95	300.02
712.28	299.05
712.61	298.06
712.95	297.11
713.28	296.21
713.61	295.30
713.95	294.42
714.28	293.57
714.61	292.69
714.95	291.89
715.28	291.03
715.61	290.16
715.95	289.25
716.28	288.37
716.61	287.53
716.95	286.64
717.28	285.89
717.61	285.14
717.94	284.36
718.28	283.57
718.61	282.82
718.94	282.10
719.27	281.46
719.61	280.81
719.94	280.13
720.27	279.39
720.60	278.69
720.94	278.06
721.27	277.46
721.60	276.91
721.93	276.23
722.27	275.65
722.60	275.10
722.93	274.56
723.26	274.03
723.59	273.48
723.93	272.96
724.26	272.41
724.59	271.85
724.92	271.31
725.25	270.80
725.59	270.26
725.92	269.75
726.25	269.21
726.58	268.67
726.91	268.17
727.24	267.67
727.57	267.20
727.91	266.66
728.24	266.21
728.57	265.70
728.90	265.29
729.23	264.80
729.56	264.37
729.89	263.91
730.22	263.42
730.55	262.90
730.89	262.45
731.22	262.01
731.55	261.58
731.88	261.19
732.21	260.75
732.54	260.33
732.87	259.87
733.20	259.47
733.53	259.14
733.86	258.76
734.19	258.43
734.52	258.07
734.85	257.82
735.18	257.40
735.51	257.04
735.84	256.67
736.17	256.34
736.50	255.91
736.83	255.66
737.16	255.32
737.49	255.05
737.82	254.73
738.15	254.38
738.48	254.07
738.81	253.77
739.14	253.46
739.47	253.19
739.80	252.94
740.13	252.60
740.46	252.26
740.79	251.95
741.12	251.61
741.45	251.31
741.78	250.93
742.11	250.64
742.44	250.30
742.77	250.04
743.10	249.75
743.43	249.49
743.75	249.13
744.08	249.03
744.41	248.75
744.74	248.47
745.07	248.18
745.40	247.92
745.73	247.69
746.06	247.43
746.39	247.14
746.71	246.84
747.04	246.61
747.37	246.37
747.70	246.12
748.03	245.86
748.36	245.66
748.68	245.41
749.01	245.15
749.34	244.93
749.67	244.69
750.00	244.43
750.33	244.27
750.65	244.02
750.98	243.64
751.31	243.42
751.64	243.21
751.97	243.05
752.29	242.83
752.62	242.53
752.95	242.31
753.28	242.10
753.60	241.88
753.93	241.70
754.26	241.50
754.59	241.27
754.91	241.05
755.24	240.82
755.57	240.61
755.90	240.40
756.22	240.17
756.55	239.94
756.88	239.72
757.20	239.45
757.53	239.27
757.86	239.07
758.19	238.88
758.51	238.71
758.84	238.44
759.17	238.23
759.49	238.07
759.82	237.95
760.15	237.81
760.47	237.63
760.80	237.45
761.13	237.27
761.45	237.11
761.78	236.95
762.11	236.78
762.43	236.65
762.76	236.51
763.08	236.41
763.41	236.26
763.74	236.12
764.06	235.96
764.39	235.83
764.71	235.69
765.04	235.53
765.37	235.38
765.69	235.26
766.02	235.15
766.34	235.00
766.67	234.83
767.00	234.71
767.32	234.64
767.65	234.55
767.97	234.42
768.30	234.30
768.62	234.19
768.95	234.06
769.27	233.95
769.60	233.85
769.92	233.71
770.25	233.62
770.57	233.52
770.90	233.47
771.22	233.33
771.55	233.23
771.87	233.15
772.20	233.07
772.52	233.07
772.85	233.09
773.17	233.01
773.50	232.92
773.82	232.79
774.15	232.67
774.47	232.55
774.80	232.44
775.12	232.37
775.45	232.29
775.77	232.22
776.09	232.15
776.42	232.06
776.74	232.07
777.07	231.99
777.39	231.91
777.72	231.85
778.04	231.81
778.36	231.75
778.69	231.71
779.01	231.64
779.33	231.51
779.66	231.34
779.98	231.29
780.31	231.20
780.63	231.20
780.95	231.16
781.28	231.10
781.60	231.04
781.92	230.97
782.25	230.92
782.57	230.85
782.89	230.79
783.22	230.74
783.54	230.63
783.86	230.60
784.19	230.54
784.51	230.47
784.83	230.41
785.16	230.35
785.48	230.28
785.80	230.24
786.12	230.18
786.45	230.17
786.77	230.12
787.09	230.09
