SpectraSuite Data File
++++++++++++++++++++++++++++++++++++
Date: Fri Feb 01 16:52:03 EST 2013
User: group
Dark Spectrum Present: No
Reference Spectrum Present: No
Number of Sampled Component Spectra: 1
Spectrometers: USB2E7196
Integration Time (usec): 35000 (USB2E7196)
Spectra Averaged: 100 (USB2E7196)
Boxcar Smoothing: 10 (USB2E7196)
Correct for Electrical Dark: No (USB2E7196)
Strobe/Lamp Enabled: No (USB2E7196)
Correct for Detector Non-linearity: No (USB2E7196)
Correct for Stray Light: No (USB2E7196)
Number of Pixels in Processed Spectrum: 2048
>>>>>Begin Processed Spectral Data<<<<<
339.09	0.00
339.48	213.43
339.86	214.61
340.24	215.95
340.63	217.74
341.01	220.11
341.39	219.47
341.78	221.14
342.16	223.13
342.54	223.38
342.93	211.62
343.31	222.31
343.69	222.82
344.07	223.28
344.46	223.69
344.84	224.06
345.22	224.29
345.60	224.58
345.99	224.76
346.37	224.88
346.75	224.98
347.13	225.05
347.52	225.13
347.90	225.19
348.28	225.22
348.66	225.26
349.05	225.24
349.43	225.31
349.81	225.37
350.19	225.42
350.57	225.46
350.96	225.49
351.34	225.61
351.72	225.72
352.10	225.86
352.48	225.95
352.87	226.02
353.25	226.14
353.63	226.20
354.01	226.27
354.39	226.36
354.77	226.43
355.15	226.53
355.54	226.53
355.92	226.60
356.30	226.68
356.68	226.83
357.06	226.94
357.44	227.00
357.82	227.03
358.20	227.10
358.58	227.16
358.97	227.24
359.35	227.28
359.73	227.34
360.11	227.35
360.49	227.42
360.87	227.47
361.25	227.46
361.63	227.53
362.01	227.61
362.39	227.63
362.77	227.66
363.15	227.68
363.53	227.73
363.91	227.76
364.29	227.80
364.67	227.73
365.05	227.73
365.43	227.77
365.81	227.81
366.19	227.88
366.57	227.93
366.95	227.90
367.33	227.88
367.71	227.86
368.09	227.91
368.47	227.89
368.85	227.87
369.23	227.88
369.61	227.80
369.99	227.79
370.37	227.75
370.75	227.79
371.13	227.75
371.51	227.71
371.89	227.64
372.27	227.57
372.65	227.50
373.03	227.45
373.41	227.36
373.78	227.32
374.16	227.18
374.54	227.12
374.92	227.06
375.30	227.00
375.68	226.94
376.06	226.84
376.44	226.77
376.82	226.70
377.19	226.64
377.57	226.59
377.95	226.50
378.33	226.44
378.71	226.30
379.09	226.27
379.47	226.20
379.84	226.17
380.22	226.13
380.60	226.04
380.98	225.97
381.36	225.92
381.73	225.82
382.11	225.81
382.49	225.74
382.87	225.67
383.25	225.61
383.62	225.67
384.00	225.60
384.38	225.52
384.76	225.49
385.13	225.47
385.51	225.43
385.89	225.38
386.27	225.34
386.64	225.30
387.02	225.25
387.40	225.22
387.78	225.15
388.15	225.08
388.53	225.04
388.91	224.99
389.29	224.97
389.66	224.97
390.04	224.91
390.42	224.91
390.79	224.89
391.17	224.88
391.55	224.74
391.92	224.75
392.30	224.79
392.68	224.80
393.05	224.79
393.43	224.79
393.81	224.79
394.18	224.75
394.56	224.76
394.94	224.77
395.31	224.78
395.69	224.85
396.06	224.90
396.44	224.96
396.82	224.97
397.19	225.05
397.57	225.08
397.95	225.14
398.32	225.14
398.70	225.21
399.07	225.32
399.45	225.37
399.82	225.40
400.20	225.42
400.58	225.46
400.95	225.52
401.33	225.60
401.70	225.75
402.08	225.87
402.45	225.96
402.83	226.08
403.20	226.18
403.58	226.30
403.95	226.45
404.33	226.57
404.71	226.72
405.08	226.88
405.46	227.00
405.83	227.14
406.21	227.30
406.58	227.47
406.96	227.60
407.33	227.79
407.70	227.98
408.08	228.28
408.45	228.48
408.83	228.69
409.20	228.90
409.58	229.04
409.95	229.27
410.33	229.54
410.70	229.76
411.08	230.05
411.45	230.31
411.82	230.56
412.20	230.90
412.57	231.31
412.95	231.59
413.32	231.99
413.69	232.37
414.07	232.84
414.44	233.26
414.82	233.69
415.19	234.21
415.56	234.78
415.94	235.26
416.31	235.89
416.68	236.51
417.06	237.22
417.43	237.87
417.81	238.65
418.18	239.39
418.55	240.23
418.93	241.10
419.30	242.01
419.67	242.97
420.04	243.94
420.42	244.93
420.79	246.09
421.16	247.25
421.54	248.47
421.91	249.63
422.28	250.89
422.66	252.24
423.03	253.54
423.40	254.87
423.77	256.27
424.15	257.69
424.52	259.17
424.89	260.75
425.26	262.34
425.64	263.76
426.01	265.35
426.38	267.02
426.75	268.66
427.13	270.35
427.50	272.16
427.87	274.04
428.24	275.88
428.61	277.62
428.99	279.51
429.36	281.60
429.73	283.62
430.10	285.61
430.47	287.68
430.85	289.77
431.22	291.92
431.59	294.28
431.96	296.49
432.33	298.98
432.70	301.36
433.08	304.16
433.45	306.77
433.82	309.35
434.19	312.21
434.56	315.03
434.93	317.68
435.30	320.23
435.68	323.09
436.05	325.90
436.42	328.69
436.79	331.22
437.16	333.87
437.53	336.70
437.90	339.49
438.27	342.20
438.64	345.02
439.01	347.68
439.38	349.90
439.75	352.07
440.13	354.55
440.50	356.86
440.87	358.70
441.24	360.65
441.61	362.84
441.98	364.33
442.35	366.11
442.72	367.97
443.09	369.82
443.46	370.81
443.83	371.40
444.20	371.92
444.57	372.79
444.94	373.12
445.31	373.47
445.68	373.85
446.05	373.95
446.42	373.60
446.79	373.17
447.16	372.75
447.53	372.42
447.90	371.26
448.27	370.16
448.64	368.56
449.01	367.45
449.37	365.51
449.74	363.65
450.11	361.46
450.48	359.00
450.85	356.48
451.22	354.37
451.59	352.37
451.96	350.47
452.33	347.89
452.70	345.51
453.07	342.74
453.43	339.88
453.80	337.16
454.17	334.49
454.54	331.98
454.91	329.29
455.28	326.63
455.65	324.16
456.02	321.71
456.38	319.61
456.75	316.98
457.12	314.73
457.49	312.50
457.86	310.34
458.23	308.50
458.59	306.50
458.96	304.37
459.33	302.53
459.70	300.66
460.07	299.10
460.43	297.46
460.80	295.81
461.17	294.37
461.54	292.86
461.91	291.43
462.27	289.97
462.64	288.71
463.01	287.40
463.38	286.11
463.74	284.74
464.11	283.59
464.48	282.57
464.85	281.44
465.21	280.56
465.58	279.62
465.95	278.49
466.32	277.57
466.68	276.71
467.05	275.78
467.42	274.88
467.78	274.01
468.15	273.13
468.52	272.48
468.88	271.61
469.25	270.82
469.62	270.21
469.98	269.57
470.35	268.96
470.72	268.35
471.08	267.71
471.45	267.18
471.82	266.63
472.18	266.03
472.55	265.64
472.92	265.11
473.28	264.67
473.65	264.27
474.02	263.83
474.38	263.49
474.75	263.23
475.11	262.88
475.48	262.62
475.85	262.36
476.21	262.16
476.58	262.01
476.94	261.91
477.31	261.78
477.67	261.64
478.04	261.54
478.41	261.53
478.77	261.59
479.14	261.53
479.50	261.57
479.87	261.64
480.23	261.73
480.60	261.82
480.96	261.88
481.33	262.08
481.69	262.31
482.06	262.54
482.42	262.73
482.79	262.99
483.15	263.32
483.52	263.73
483.88	264.08
484.25	264.46
484.61	264.88
484.98	265.33
485.34	265.90
485.71	266.50
486.07	267.12
486.44	267.70
486.80	268.44
487.17	269.12
487.53	269.96
487.90	270.80
488.26	271.78
488.62	272.81
488.99	273.79
489.35	274.81
489.72	275.90
490.08	277.07
490.44	278.32
490.81	279.70
491.17	281.03
491.54	282.51
491.90	284.04
492.26	285.69
492.63	287.41
492.99	289.20
493.36	291.12
493.72	293.16
494.08	295.25
494.45	297.44
494.81	299.86
495.17	302.28
495.54	304.86
495.90	307.54
496.26	310.34
496.63	313.31
496.99	316.48
497.35	319.76
497.72	323.17
498.08	326.70
498.44	330.31
498.80	334.21
499.17	338.25
499.53	342.40
499.89	346.77
500.26	351.25
500.62	355.87
500.98	360.83
501.34	365.86
501.71	371.16
502.07	376.60
502.43	382.20
502.79	387.98
503.16	394.03
503.52	400.26
503.88	406.64
504.24	413.23
504.60	420.04
504.97	427.12
505.33	434.43
505.69	442.12
506.05	449.83
506.41	457.69
506.78	465.82
507.14	474.29
507.50	482.94
507.86	491.96
508.22	501.09
508.59	510.25
508.95	519.78
509.31	529.56
509.67	539.59
510.03	549.79
510.39	560.29
510.75	571.01
511.12	581.90
511.48	593.09
511.84	604.49
512.20	615.89
512.56	627.71
512.92	639.75
513.28	652.03
513.64	664.42
514.00	676.96
514.37	689.73
514.73	702.59
515.09	715.50
515.45	728.61
515.81	742.03
516.17	755.83
516.53	769.77
516.89	783.79
517.25	797.78
517.61	811.99
517.97	826.30
518.33	840.49
518.69	855.01
519.05	869.80
519.41	884.71
519.77	900.09
520.13	915.36
520.49	930.58
520.85	945.75
521.21	961.26
521.57	977.36
521.93	993.03
522.29	1009.31
522.65	1025.31
523.01	1041.23
523.37	1057.07
523.73	1072.97
524.09	1088.90
524.45	1104.91
524.81	1121.34
525.17	1137.95
525.53	1154.51
525.89	1171.10
526.25	1187.66
526.61	1203.76
526.97	1220.24
527.33	1236.47
527.68	1252.79
528.04	1269.06
528.40	1285.34
528.76	1302.12
529.12	1318.41
529.48	1335.03
529.84	1350.63
530.20	1366.95
530.56	1383.78
530.91	1400.90
531.27	1417.47
531.63	1433.58
531.99	1450.00
532.35	1465.81
532.71	1481.47
533.07	1497.52
533.42	1513.28
533.78	1529.09
534.14	1545.21
534.50	1560.36
534.86	1575.97
535.21	1591.02
535.57	1606.78
535.93	1621.99
536.29	1636.68
536.65	1651.34
537.00	1665.73
537.36	1680.94
537.72	1695.35
538.08	1709.56
538.44	1723.18
538.79	1736.88
539.15	1750.38
539.51	1763.82
539.87	1777.85
540.22	1791.31
540.58	1804.93
540.94	1817.93
541.29	1830.61
541.65	1843.07
542.01	1856.06
542.37	1868.18
542.72	1880.32
543.08	1891.82
543.44	1904.08
543.79	1915.08
544.15	1926.07
544.51	1937.64
544.87	1948.38
545.22	1959.03
545.58	1969.14
545.94	1978.82
546.29	1988.45
546.65	1998.22
547.01	2007.45
547.36	2016.02
547.72	2024.40
548.07	2032.21
548.43	2040.46
548.79	2048.40
549.14	2055.94
549.50	2063.13
549.86	2070.83
550.21	2078.11
550.57	2085.23
550.92	2091.70
551.28	2098.70
551.64	2105.85
551.99	2112.19
552.35	2118.21
552.70	2124.21
553.06	2130.11
553.41	2136.45
553.77	2142.42
554.13	2148.33
554.48	2154.36
554.84	2160.00
555.19	2165.32
555.55	2170.44
555.90	2174.89
556.26	2179.85
556.61	2184.39
556.97	2188.88
557.32	2192.90
557.68	2197.00
558.03	2201.21
558.39	2204.85
558.74	2209.42
559.10	2213.20
559.45	2216.89
559.81	2221.24
560.16	2225.31
560.52	2228.69
560.87	2232.02
561.23	2234.69
561.58	2237.63
561.94	2240.17
562.29	2242.41
562.64	2245.08
563.00	2247.63
563.35	2251.13
563.71	2254.25
564.06	2257.50
564.42	2260.34
564.77	2263.06
565.12	2265.55
565.48	2267.67
565.83	2269.75
566.19	2271.37
566.54	2272.28
566.89	2273.50
567.25	2274.39
567.60	2275.64
567.96	2277.38
568.31	2278.29
568.66	2279.75
569.02	2280.57
569.37	2281.09
569.72	2282.25
570.08	2282.60
570.43	2282.74
570.78	2282.48
571.14	2281.05
571.49	2279.85
571.84	2279.64
572.20	2278.72
572.55	2277.78
572.90	2276.23
573.26	2275.00
573.61	2273.22
573.96	2271.73
574.31	2268.97
574.67	2266.13
575.02	2262.69
575.37	2259.31
575.72	2255.85
576.08	2252.42
576.43	2249.10
576.78	2245.59
577.13	2242.42
577.49	2239.29
577.84	2236.08
578.19	2232.37
578.54	2229.08
578.90	2225.27
579.25	2219.85
579.60	2215.06
579.95	2210.23
580.30	2205.36
580.66	2200.31
581.01	2195.62
581.36	2190.77
581.71	2186.77
582.06	2182.52
582.42	2178.39
582.77	2173.47
583.12	2168.97
583.47	2164.61
583.82	2159.91
584.17	2154.90
584.53	2149.69
584.88	2144.32
585.23	2138.78
585.58	2133.37
585.93	2127.92
586.28	2123.06
586.63	2118.32
586.98	2113.28
587.34	2108.66
587.69	2103.96
588.04	2099.00
588.39	2093.39
588.74	2087.07
589.09	2081.07
589.44	2074.36
589.79	2068.19
590.14	2062.66
590.49	2056.23
590.84	2049.85
591.19	2044.05
591.54	2037.67
591.89	2030.45
592.25	2023.89
592.60	2016.72
592.95	2009.44
593.30	2002.28
593.65	1994.88
594.00	1987.89
594.35	1980.78
594.70	1972.89
595.05	1965.92
595.40	1958.64
595.75	1951.26
596.10	1945.24
596.45	1938.68
596.80	1932.55
597.15	1926.08
597.50	1919.19
597.85	1912.80
598.19	1906.36
598.54	1899.32
598.89	1892.75
599.24	1886.82
599.59	1880.16
599.94	1874.07
600.29	1867.74
600.64	1861.23
600.99	1853.99
601.34	1847.31
601.69	1840.27
602.04	1833.47
602.39	1826.08
602.74	1819.42
603.08	1812.87
603.43	1806.24
603.78	1799.01
604.13	1791.95
604.48	1785.01
604.83	1778.14
605.18	1771.40
605.53	1763.50
605.87	1755.57
606.22	1748.41
606.57	1740.62
606.92	1733.43
607.27	1726.38
607.62	1719.57
607.96	1712.52
608.31	1706.03
608.66	1698.39
609.01	1691.13
609.36	1683.66
609.70	1675.70
610.05	1667.79
610.40	1660.14
610.75	1651.90
611.10	1644.34
611.44	1635.90
611.79	1627.80
612.14	1619.30
612.49	1610.14
612.83	1601.72
613.18	1593.70
613.53	1585.66
613.88	1577.14
614.22	1568.84
614.57	1560.10
614.92	1552.15
615.27	1544.56
615.61	1536.25
615.96	1528.32
616.31	1520.69
616.65	1513.35
617.00	1505.93
617.35	1498.25
617.70	1489.93
618.04	1481.47
618.39	1473.14
618.74	1465.69
619.08	1457.44
619.43	1449.76
619.78	1442.84
620.12	1435.86
620.47	1428.34
620.82	1420.20
621.16	1412.75
621.51	1405.13
621.85	1397.68
622.20	1389.11
622.55	1380.78
622.89	1372.85
623.24	1365.14
623.59	1357.75
623.93	1350.25
624.28	1343.09
624.62	1335.64
624.97	1328.53
625.32	1321.74
625.66	1314.79
626.01	1307.65
626.35	1300.27
626.70	1292.57
627.04	1284.90
627.39	1277.08
627.73	1269.69
628.08	1262.83
628.43	1255.72
628.77	1248.47
629.12	1240.94
629.46	1233.82
629.81	1226.35
630.15	1219.14
630.50	1211.86
630.84	1203.61
631.19	1195.61
631.53	1188.01
631.88	1180.44
632.22	1172.89
632.57	1165.53
632.91	1157.98
633.26	1150.52
633.60	1143.10
633.95	1135.86
634.29	1128.83
634.64	1122.16
634.98	1114.87
635.32	1107.71
635.67	1101.08
636.01	1094.41
636.36	1087.63
636.70	1081.06
637.05	1074.52
637.39	1068.08
637.73	1061.60
638.08	1055.76
638.42	1049.89
638.77	1043.50
639.11	1036.91
639.45	1030.50
639.80	1023.87
640.14	1017.56
640.49	1011.02
640.83	1004.67
641.17	998.65
641.52	992.42
641.86	985.90
642.20	980.01
642.55	973.61
642.89	967.09
643.23	960.55
643.58	954.77
643.92	948.68
644.26	942.71
644.61	936.66
644.95	930.69
645.29	924.14
645.64	917.34
645.98	911.00
646.32	905.12
646.66	899.04
647.01	893.29
647.35	887.56
647.69	881.75
648.04	876.28
648.38	870.38
648.72	864.31
649.06	858.32
649.41	852.46
649.75	846.54
650.09	840.57
650.43	834.80
650.78	828.60
651.12	822.65
651.46	816.87
651.80	811.18
652.14	805.77
652.49	800.41
652.83	795.33
653.17	789.73
653.51	784.01
653.85	778.68
654.20	773.07
654.54	767.04
654.88	761.26
655.22	755.36
655.56	749.74
655.90	744.28
656.25	739.02
656.59	733.62
656.93	728.55
657.27	723.51
657.61	718.08
657.95	713.02
658.29	707.89
658.64	702.62
658.98	697.32
659.32	691.90
659.66	686.71
660.00	681.34
660.34	676.33
660.68	671.54
661.02	666.42
661.36	661.71
661.70	657.24
662.05	652.94
662.39	648.67
662.73	644.20
663.07	639.86
663.41	635.42
663.75	630.95
664.09	626.40
664.43	621.96
664.77	617.92
665.11	613.75
665.45	609.59
665.79	605.55
666.13	601.38
666.47	597.21
666.81	593.08
667.15	588.99
667.49	585.08
667.83	581.18
668.17	577.33
668.51	573.30
668.85	569.22
669.19	565.35
669.53	561.52
669.87	557.68
670.21	553.97
670.55	550.32
670.89	546.87
671.23	543.47
671.57	539.91
671.91	536.37
672.25	532.85
672.58	529.31
672.92	525.86
673.26	522.70
673.60	519.57
673.94	516.46
674.28	513.56
674.62	510.69
674.96	507.59
675.30	504.67
675.64	501.71
675.97	498.91
676.31	496.05
676.65	493.08
676.99	490.39
677.33	487.55
677.67	484.79
678.01	481.82
678.34	478.82
678.68	476.02
679.02	473.15
679.36	470.36
679.70	467.71
680.04	464.96
680.37	462.12
680.71	459.32
681.05	456.69
681.39	453.95
681.73	451.23
682.06	448.71
682.40	446.18
682.74	443.68
683.08	441.19
683.42	438.61
683.75	436.12
684.09	433.58
684.43	431.10
684.77	428.56
685.10	426.23
685.44	423.93
685.78	421.58
686.12	419.32
686.45	417.03
686.79	414.74
687.13	412.58
687.46	410.40
687.80	408.25
688.14	406.04
688.48	403.98
688.81	401.73
689.15	399.59
689.49	397.44
689.82	395.34
690.16	393.22
690.50	391.28
690.83	389.34
691.17	387.32
691.51	385.36
691.84	383.58
692.18	381.63
692.52	379.61
692.85	377.68
693.19	375.82
693.52	373.98
693.86	372.14
694.20	370.30
694.53	368.55
694.87	366.67
695.21	364.87
695.54	363.00
695.88	361.25
696.21	359.53
696.55	357.84
696.88	356.18
697.22	354.50
697.56	352.85
697.89	351.21
698.23	349.64
698.56	348.05
698.90	346.49
699.23	344.87
699.57	343.39
699.90	341.90
700.24	340.37
700.58	338.84
700.91	337.32
701.25	335.91
701.58	334.48
701.92	333.18
702.25	331.80
702.59	330.47
702.92	329.21
703.26	327.86
703.59	326.59
703.93	325.37
704.26	324.19
704.60	322.90
704.93	321.64
705.26	320.35
705.60	319.18
705.93	318.00
706.27	316.95
706.60	315.89
706.94	314.79
707.27	313.67
707.61	312.64
707.94	311.64
708.27	310.59
708.61	309.54
708.94	308.51
709.28	307.53
709.61	306.61
709.94	305.62
710.28	304.65
710.61	303.66
710.95	302.60
711.28	301.67
711.61	300.74
711.95	299.80
712.28	298.87
712.61	297.91
712.95	296.93
713.28	296.03
713.61	295.11
713.95	294.20
714.28	293.34
714.61	292.46
714.95	291.59
715.28	290.72
715.61	289.85
715.95	289.01
716.28	288.14
716.61	287.27
716.95	286.45
717.28	285.70
717.61	284.96
717.94	284.23
718.28	283.40
718.61	282.61
718.94	281.91
719.27	281.26
719.61	280.60
719.94	279.96
720.27	279.25
720.60	278.58
720.94	277.97
721.27	277.38
721.60	276.80
721.93	276.20
722.27	275.66
722.60	275.11
722.93	274.48
723.26	273.97
723.59	273.43
723.93	272.88
724.26	272.26
724.59	271.67
724.92	271.12
725.25	270.62
725.59	270.14
725.92	269.61
726.25	269.07
726.58	268.53
726.91	268.06
727.24	267.55
727.57	267.07
727.91	266.53
728.24	266.07
728.57	265.57
728.90	265.10
729.23	264.61
729.56	264.19
729.89	263.72
730.22	263.21
730.55	262.72
730.89	262.27
731.22	261.83
731.55	261.40
731.88	260.98
732.21	260.56
732.54	260.14
732.87	259.73
733.20	259.34
733.53	259.00
733.86	258.57
734.19	258.18
734.52	257.79
734.85	257.49
735.18	257.09
735.51	256.74
735.84	256.39
736.17	256.06
736.50	255.64
736.83	255.44
737.16	255.14
737.49	254.83
737.82	254.56
738.15	254.25
738.48	253.89
738.81	253.56
739.14	253.22
739.47	252.89
739.80	252.56
740.13	252.25
740.46	251.92
740.79	251.60
741.12	251.31
741.45	251.00
741.78	250.66
742.11	250.38
742.44	250.05
742.77	249.74
743.10	249.44
743.43	249.13
743.75	248.77
744.08	248.61
744.41	248.30
744.74	248.00
745.07	247.71
745.40	247.49
745.73	247.24
746.06	246.96
746.39	246.73
746.71	246.44
747.04	246.17
747.37	245.91
747.70	245.69
748.03	245.46
748.36	245.24
748.68	245.00
749.01	244.72
749.34	244.49
749.67	244.29
750.00	244.05
750.33	243.89
750.65	243.65
750.98	243.29
751.31	243.07
751.64	242.86
751.97	242.71
752.29	242.50
752.62	242.27
752.95	242.12
753.28	241.93
753.60	241.76
753.93	241.57
754.26	241.40
754.59	241.15
754.91	240.94
755.24	240.73
755.57	240.56
755.90	240.41
756.22	240.21
756.55	239.97
756.88	239.76
757.20	239.53
757.53	239.34
757.86	239.16
758.19	239.01
758.51	238.83
758.84	238.60
759.17	238.41
759.49	238.27
759.82	238.13
760.15	237.93
760.47	237.77
760.80	237.59
761.13	237.42
761.45	237.27
761.78	237.14
762.11	237.00
762.43	236.83
762.76	236.67
763.08	236.52
763.41	236.42
763.74	236.28
764.06	236.16
764.39	236.03
764.71	235.89
765.04	235.75
765.37	235.59
765.69	235.47
766.02	235.32
766.34	235.19
766.67	235.01
767.00	234.94
767.32	234.85
767.65	234.80
767.97	234.68
768.30	234.59
768.62	234.42
768.95	234.29
769.27	234.17
769.60	234.06
769.92	233.94
770.25	233.79
770.57	233.68
770.90	233.55
771.22	233.43
771.55	233.34
771.87	233.27
772.20	233.18
772.52	233.17
772.85	233.22
773.17	233.10
773.50	232.99
773.82	232.84
774.15	232.74
774.47	232.58
774.80	232.51
775.12	232.41
775.45	232.34
775.77	232.27
776.09	232.21
776.42	232.13
776.74	232.10
777.07	232.02
777.39	231.95
777.72	231.85
778.04	231.79
778.36	231.71
778.69	231.57
779.01	231.50
779.33	231.34
779.66	231.14
779.98	231.08
780.31	231.00
780.63	231.00
780.95	230.94
781.28	230.86
781.60	230.77
781.92	230.71
782.25	230.65
782.57	230.58
782.89	230.49
783.22	230.42
783.54	230.34
783.86	230.31
784.19	230.22
784.51	230.24
784.83	230.16
785.16	230.11
785.48	230.08
785.80	230.09
786.12	230.07
786.45	230.01
786.77	229.96
787.09	229.92
