SpectraSuite Data File
++++++++++++++++++++++++++++++++++++
Date: Fri Feb 01 14:53:53 EST 2013
User: group
Dark Spectrum Present: No
Reference Spectrum Present: No
Number of Sampled Component Spectra: 1
Spectrometers: USB2E7196
Integration Time (usec): 35000 (USB2E7196)
Spectra Averaged: 100 (USB2E7196)
Boxcar Smoothing: 10 (USB2E7196)
Correct for Electrical Dark: No (USB2E7196)
Strobe/Lamp Enabled: No (USB2E7196)
Correct for Detector Non-linearity: No (USB2E7196)
Correct for Stray Light: No (USB2E7196)
Number of Pixels in Processed Spectrum: 2048
>>>>>Begin Processed Spectral Data<<<<<
339.09	0.00
339.48	215.26
339.86	217.00
340.24	218.26
340.63	220.28
341.01	222.26
341.39	222.05
341.78	224.04
342.16	224.93
342.54	225.19
342.93	213.74
343.31	224.53
343.69	225.09
344.07	225.53
344.46	225.96
344.84	226.32
345.22	226.58
345.60	226.84
345.99	227.02
346.37	227.16
346.75	227.26
347.13	227.33
347.52	227.39
347.90	227.46
348.28	227.51
348.66	227.52
349.05	227.50
349.43	227.53
349.81	227.55
350.19	227.60
350.57	227.68
350.96	227.76
351.34	227.85
351.72	227.92
352.10	228.02
352.48	228.09
352.87	228.14
353.25	228.20
353.63	228.24
354.01	228.31
354.39	228.33
354.77	228.36
355.15	228.44
355.54	228.51
355.92	228.55
356.30	228.61
356.68	228.75
357.06	228.86
357.44	228.94
357.82	229.02
358.20	229.09
358.58	229.13
358.97	229.19
359.35	229.25
359.73	229.32
360.11	229.39
360.49	229.41
360.87	229.44
361.25	229.50
361.63	229.56
362.01	229.59
362.39	229.63
362.77	229.73
363.15	229.73
363.53	229.76
363.91	229.79
364.29	229.78
364.67	229.69
365.05	229.68
365.43	229.66
365.81	229.64
366.19	229.67
366.57	229.68
366.95	229.64
367.33	229.64
367.71	229.59
368.09	229.56
368.47	229.53
368.85	229.47
369.23	229.44
369.61	229.36
369.99	229.36
370.37	229.34
370.75	229.29
371.13	229.26
371.51	229.16
371.89	229.09
372.27	229.02
372.65	229.01
373.03	228.94
373.41	228.89
373.78	228.80
374.16	228.68
374.54	228.61
374.92	228.56
375.30	228.46
375.68	228.43
376.06	228.34
376.44	228.28
376.82	228.23
377.19	228.16
377.57	228.12
377.95	228.01
378.33	227.93
378.71	227.85
379.09	227.77
379.47	227.70
379.84	227.62
380.22	227.57
380.60	227.43
380.98	227.34
381.36	227.27
381.73	227.21
382.11	227.16
382.49	227.09
382.87	227.01
383.25	226.96
383.62	226.97
384.00	226.88
384.38	226.81
384.76	226.77
385.13	226.77
385.51	226.70
385.89	226.65
386.27	226.59
386.64	226.52
387.02	226.47
387.40	226.44
387.78	226.40
388.15	226.35
388.53	226.35
388.91	226.33
389.29	226.33
389.66	226.32
390.04	226.27
390.42	226.30
390.79	226.29
391.17	226.26
391.55	226.14
391.92	226.17
392.30	226.18
392.68	226.17
393.05	226.12
393.43	226.13
393.81	226.14
394.18	226.12
394.56	226.16
394.94	226.22
395.31	226.22
395.69	226.27
396.06	226.32
396.44	226.34
396.82	226.37
397.19	226.44
397.57	226.47
397.95	226.55
398.32	226.51
398.70	226.54
399.07	226.65
399.45	226.73
399.82	226.81
400.20	226.91
400.58	227.00
400.95	227.06
401.33	227.22
401.70	227.39
402.08	227.54
402.45	227.66
402.83	227.77
403.20	227.92
403.58	228.04
403.95	228.19
404.33	228.32
404.71	228.49
405.08	228.70
405.46	228.87
405.83	229.02
406.21	229.25
406.58	229.46
406.96	229.62
407.33	229.81
407.70	230.01
408.08	230.27
408.45	230.52
408.83	230.77
409.20	230.95
409.58	231.14
409.95	231.41
410.33	231.69
410.70	231.99
411.08	232.29
411.45	232.61
411.82	232.92
412.20	233.33
412.57	233.74
412.95	234.05
413.32	234.44
413.69	234.88
414.07	235.30
414.44	235.78
414.82	236.26
415.19	236.82
415.56	237.37
415.94	237.92
416.31	238.52
416.68	239.16
417.06	239.87
417.43	240.55
417.81	241.33
418.18	242.09
418.55	242.89
418.93	243.75
419.30	244.65
419.67	245.59
420.04	246.51
420.42	247.53
420.79	248.70
421.16	249.85
421.54	251.03
421.91	252.26
422.28	253.53
422.66	254.89
423.03	256.21
423.40	257.54
423.77	258.93
424.15	260.37
424.52	261.84
424.89	263.49
425.26	265.01
425.64	266.45
426.01	268.03
426.38	269.68
426.75	271.38
427.13	273.07
427.50	274.87
427.87	276.76
428.24	278.58
428.61	280.31
428.99	282.23
429.36	284.33
429.73	286.41
430.10	288.40
430.47	290.42
430.85	292.51
431.22	294.75
431.59	297.18
431.96	299.41
432.33	301.85
432.70	304.22
433.08	307.03
433.45	309.64
433.82	312.26
434.19	315.14
434.56	317.94
434.93	320.62
435.30	323.27
435.68	326.14
436.05	329.00
436.42	331.80
436.79	334.28
437.16	336.96
437.53	339.79
437.90	342.59
438.27	345.33
438.64	348.13
439.01	350.73
439.38	352.92
439.75	355.06
440.13	357.58
440.50	359.89
440.87	361.74
441.24	363.69
441.61	365.86
441.98	367.35
442.35	369.12
442.72	370.94
443.09	372.70
443.46	373.65
443.83	374.22
444.20	374.70
444.57	375.64
444.94	375.91
445.31	376.21
445.68	376.55
446.05	376.65
446.42	376.31
446.79	375.89
447.16	375.44
447.53	375.12
447.90	373.99
448.27	372.86
448.64	371.30
449.01	370.18
449.37	368.23
449.74	366.35
450.11	364.12
450.48	361.69
450.85	359.20
451.22	357.12
451.59	355.13
451.96	353.25
452.33	350.59
452.70	348.28
453.07	345.47
453.43	342.62
453.80	339.84
454.17	337.18
454.54	334.61
454.91	331.89
455.28	329.26
455.65	326.75
456.02	324.32
456.38	322.17
456.75	319.50
457.12	317.26
457.49	315.03
457.86	312.90
458.23	311.05
458.59	309.00
458.96	306.90
459.33	305.01
459.70	303.11
460.07	301.63
460.43	299.90
460.80	298.29
461.17	296.79
461.54	295.32
461.91	293.87
462.27	292.44
462.64	291.18
463.01	289.82
463.38	288.56
463.74	287.17
464.11	285.96
464.48	284.91
464.85	283.75
465.21	282.89
465.58	281.90
465.95	280.81
466.32	279.94
466.68	279.02
467.05	278.13
467.42	277.23
467.78	276.28
468.15	275.39
468.52	274.73
468.88	273.91
469.25	273.14
469.62	272.52
469.98	271.81
470.35	271.19
470.72	270.58
471.08	269.88
471.45	269.34
471.82	268.79
472.18	268.18
472.55	267.75
472.92	267.19
473.28	266.74
473.65	266.25
474.02	265.71
474.38	265.29
474.75	264.96
475.11	264.59
475.48	264.33
475.85	264.04
476.21	263.77
476.58	263.53
476.94	263.35
477.31	263.15
477.67	263.00
478.04	262.82
478.41	262.74
478.77	262.75
479.14	262.65
479.50	262.66
479.87	262.74
480.23	262.83
480.60	262.88
480.96	262.96
481.33	263.15
481.69	263.39
482.06	263.60
482.42	263.77
482.79	264.02
483.15	264.30
483.52	264.71
483.88	265.05
484.25	265.45
484.61	265.85
484.98	266.32
485.34	266.88
485.71	267.47
486.07	268.06
486.44	268.65
486.80	269.36
487.17	270.07
487.53	270.87
487.90	271.68
488.26	272.61
488.62	273.62
488.99	274.60
489.35	275.62
489.72	276.78
490.08	277.97
490.44	279.22
490.81	280.55
491.17	281.86
491.54	283.32
491.90	284.85
492.26	286.46
492.63	288.18
492.99	289.88
493.36	291.81
493.72	293.79
494.08	295.88
494.45	298.13
494.81	300.46
495.17	302.90
495.54	305.43
495.90	308.11
496.26	310.89
496.63	313.82
496.99	316.91
497.35	320.11
497.72	323.50
498.08	326.99
498.44	330.60
498.80	334.52
499.17	338.50
499.53	342.68
499.89	347.10
500.26	351.55
500.62	356.27
500.98	361.19
501.34	366.27
501.71	371.56
502.07	376.98
502.43	382.60
502.79	388.32
503.16	394.42
503.52	400.68
503.88	407.02
504.24	413.65
504.60	420.49
504.97	427.59
505.33	434.90
505.69	442.50
506.05	450.31
506.41	458.18
506.78	466.29
507.14	474.66
507.50	483.32
507.86	492.33
508.22	501.49
508.59	510.61
508.95	520.16
509.31	529.88
509.67	539.90
510.03	550.18
510.39	560.71
510.75	571.45
511.12	582.30
511.48	593.63
511.84	605.02
512.20	616.59
512.56	628.56
512.92	640.69
513.28	653.07
513.64	665.53
514.00	678.22
514.37	691.17
514.73	704.19
515.09	717.23
515.45	730.55
515.81	744.18
516.17	758.24
516.53	772.38
516.89	786.61
517.25	800.87
517.61	815.28
517.97	829.83
518.33	844.24
518.69	859.01
519.05	874.06
519.41	889.28
519.77	904.80
520.13	920.24
520.49	935.64
520.85	951.14
521.21	966.83
521.57	983.21
521.93	999.12
522.29	1015.59
522.65	1031.91
523.01	1048.06
523.37	1064.06
523.73	1080.28
524.09	1096.39
524.45	1112.83
524.81	1129.52
525.17	1146.39
525.53	1163.26
525.89	1180.24
526.25	1197.19
526.61	1213.60
526.97	1230.48
527.33	1246.99
527.68	1263.72
528.04	1280.26
528.40	1296.97
528.76	1314.17
529.12	1330.73
529.48	1347.61
529.84	1363.74
530.20	1380.42
530.56	1397.60
530.91	1415.00
531.27	1431.85
531.63	1448.45
531.99	1465.18
532.35	1481.21
532.71	1497.18
533.07	1513.66
533.42	1529.65
533.78	1545.76
534.14	1562.13
534.50	1577.50
534.86	1593.46
535.21	1608.65
535.57	1624.68
535.93	1640.14
536.29	1655.01
536.65	1670.24
537.00	1685.11
537.36	1700.45
537.72	1715.11
538.08	1729.57
538.44	1743.50
538.79	1757.44
539.15	1771.23
539.51	1784.93
539.87	1799.40
540.22	1813.25
540.58	1827.02
540.94	1840.51
541.29	1853.47
541.65	1866.07
542.01	1879.37
542.37	1891.72
542.72	1904.27
543.08	1916.12
543.44	1928.61
543.79	1939.84
544.15	1950.77
544.51	1962.42
544.87	1973.53
545.22	1984.37
545.58	1994.59
545.94	2004.45
546.29	2014.26
546.65	2024.00
547.01	2033.33
547.36	2042.11
547.72	2050.63
548.07	2058.50
548.43	2066.54
548.79	2074.53
549.14	2082.25
549.50	2089.76
549.86	2097.44
550.21	2104.67
550.57	2111.87
550.92	2118.46
551.28	2125.56
551.64	2132.59
551.99	2139.03
552.35	2144.98
552.70	2151.06
553.06	2156.85
553.41	2163.16
553.77	2169.23
554.13	2175.35
554.48	2181.38
554.84	2186.54
555.19	2191.59
555.55	2196.62
555.90	2201.10
556.26	2205.87
556.61	2210.45
556.97	2214.42
557.32	2218.50
557.68	2222.66
558.03	2226.85
558.39	2230.51
558.74	2235.00
559.10	2238.71
559.45	2242.28
559.81	2246.72
560.16	2250.39
560.52	2253.67
560.87	2256.95
561.23	2259.42
561.58	2262.27
561.94	2264.63
562.29	2267.15
562.64	2269.91
563.00	2272.39
563.35	2275.68
563.71	2278.69
564.06	2281.72
564.42	2284.48
564.77	2286.88
565.12	2288.88
565.48	2290.64
565.83	2292.25
566.19	2293.40
566.54	2294.34
566.89	2295.30
567.25	2295.58
567.60	2296.89
567.96	2298.57
568.31	2299.18
568.66	2300.14
569.02	2300.47
569.37	2300.58
569.72	2301.03
570.08	2300.83
570.43	2300.57
570.78	2299.81
571.14	2298.10
571.49	2296.59
571.84	2296.09
572.20	2294.71
572.55	2293.45
572.90	2291.72
573.26	2290.05
573.61	2288.13
573.96	2286.14
574.31	2282.97
574.67	2279.69
575.02	2275.74
575.37	2272.02
575.72	2268.04
576.08	2264.61
576.43	2261.12
576.78	2257.24
577.13	2253.97
577.49	2250.69
577.84	2247.22
578.19	2243.37
578.54	2239.52
578.90	2235.15
579.25	2229.52
579.60	2224.32
579.95	2219.14
580.30	2213.91
580.66	2208.76
581.01	2203.66
581.36	2198.51
581.71	2194.12
582.06	2189.58
582.42	2184.96
582.77	2179.56
583.12	2174.69
583.47	2169.75
583.82	2164.44
584.17	2159.17
584.53	2153.55
584.88	2147.83
585.23	2141.71
585.58	2136.08
585.93	2130.47
586.28	2125.61
586.63	2120.27
586.98	2115.15
587.34	2110.46
587.69	2105.43
588.04	2099.95
588.39	2094.10
588.74	2087.50
589.09	2081.30
589.44	2074.39
589.79	2068.18
590.14	2062.35
590.49	2055.90
590.84	2049.35
591.19	2043.26
591.54	2036.62
591.89	2028.94
592.25	2021.96
592.60	2014.72
592.95	2006.93
593.30	1999.59
593.65	1991.81
594.00	1984.73
594.35	1977.36
594.70	1969.19
595.05	1961.86
595.40	1954.47
595.75	1947.00
596.10	1940.70
596.45	1933.79
596.80	1927.53
597.15	1920.92
597.50	1913.75
597.85	1907.28
598.19	1900.62
598.54	1893.42
598.89	1886.85
599.24	1880.96
599.59	1874.20
599.94	1868.00
600.29	1861.76
600.64	1855.10
600.99	1847.54
601.34	1840.73
601.69	1833.74
602.04	1826.73
602.39	1819.39
602.74	1812.51
603.08	1805.75
603.43	1799.03
603.78	1791.83
604.13	1784.64
604.48	1777.26
604.83	1770.46
605.18	1763.42
605.53	1755.36
605.87	1747.48
606.22	1740.18
606.57	1732.32
606.92	1725.08
607.27	1717.82
607.62	1710.84
607.96	1703.58
608.31	1697.02
608.66	1689.17
609.01	1681.59
609.36	1674.09
609.70	1666.10
610.05	1658.11
610.40	1650.42
610.75	1642.06
611.10	1634.36
611.44	1626.08
611.79	1618.22
612.14	1609.54
612.49	1600.42
612.83	1592.16
613.18	1584.21
613.53	1576.15
613.88	1567.66
614.22	1559.38
614.57	1550.96
614.92	1543.03
615.27	1535.47
615.61	1527.22
615.96	1519.45
616.31	1511.92
616.65	1504.64
617.00	1497.10
617.35	1489.46
617.70	1481.20
618.04	1472.72
618.39	1464.56
618.74	1456.89
619.08	1448.61
619.43	1441.10
619.78	1434.25
620.12	1427.12
620.47	1419.55
620.82	1411.37
621.16	1403.93
621.51	1396.51
621.85	1388.97
622.20	1380.55
622.55	1372.28
622.89	1364.60
623.24	1357.03
623.59	1349.79
623.93	1342.34
624.28	1335.25
624.62	1327.78
624.97	1320.71
625.32	1314.12
625.66	1307.16
626.01	1300.07
626.35	1292.63
626.70	1285.07
627.04	1277.48
627.39	1269.81
627.73	1262.43
628.08	1255.62
628.43	1248.47
628.77	1241.14
629.12	1233.55
629.46	1226.35
629.81	1219.05
630.15	1211.79
630.50	1204.52
630.84	1196.37
631.19	1188.51
631.53	1180.99
631.88	1173.57
632.22	1165.98
632.57	1158.74
632.91	1151.32
633.26	1144.03
633.60	1136.83
633.95	1129.78
634.29	1122.71
634.64	1116.10
634.98	1108.79
635.32	1101.78
635.67	1095.36
636.01	1088.76
636.36	1082.04
636.70	1075.65
637.05	1069.20
637.39	1062.79
637.73	1056.25
638.08	1050.45
638.42	1044.58
638.77	1038.23
639.11	1031.70
639.45	1025.51
639.80	1018.93
640.14	1012.52
640.49	1006.01
640.83	999.77
641.17	993.64
641.52	987.48
641.86	981.12
642.20	975.45
642.55	969.17
642.89	962.68
643.23	956.23
643.58	950.56
643.92	944.35
644.26	938.26
644.61	932.38
644.95	926.40
645.29	919.86
645.64	913.09
645.98	906.85
646.32	901.11
646.66	895.06
647.01	889.22
647.35	883.60
647.69	877.79
648.04	872.22
648.38	866.44
648.72	860.43
649.06	854.35
649.41	848.46
649.75	842.51
650.09	836.63
650.43	830.81
650.78	824.71
651.12	818.88
651.46	813.19
651.80	807.38
652.14	802.03
652.49	796.70
652.83	791.52
653.17	785.80
653.51	780.08
653.85	774.73
654.20	769.13
654.54	763.10
654.88	757.49
655.22	751.72
655.56	746.00
655.90	740.60
656.25	735.46
656.59	730.16
656.93	725.12
657.27	719.98
657.61	714.61
657.95	709.53
658.29	704.42
658.64	699.23
658.98	693.96
659.32	688.57
659.66	683.41
660.00	678.17
660.34	673.33
660.68	668.46
661.02	663.42
661.36	658.79
661.70	654.42
662.05	650.03
662.39	645.70
662.73	641.33
663.07	636.92
663.41	632.47
663.75	628.01
664.09	623.51
664.43	619.15
664.77	615.07
665.11	610.86
665.45	606.89
665.79	602.90
666.13	598.89
666.47	594.82
666.81	590.67
667.15	586.63
667.49	582.75
667.83	578.93
668.17	575.04
668.51	571.05
668.85	567.05
669.19	563.22
669.53	559.41
669.87	555.57
670.21	551.96
670.55	548.38
670.89	545.00
671.23	541.59
671.57	538.14
671.91	534.68
672.25	531.25
672.58	527.77
672.92	524.37
673.26	521.25
673.60	518.23
673.94	515.18
674.28	512.28
674.62	509.35
674.96	506.32
675.30	503.49
675.64	500.59
675.97	497.88
676.31	495.10
676.65	492.28
676.99	489.59
677.33	486.75
677.67	483.96
678.01	480.96
678.34	478.02
678.68	475.16
679.02	472.37
679.36	469.59
679.70	466.89
680.04	464.14
680.37	461.26
680.71	458.46
681.05	455.91
681.39	453.26
681.73	450.67
682.06	448.21
682.40	445.66
682.74	443.19
683.08	440.69
683.42	438.11
683.75	435.63
684.09	433.17
684.43	430.73
684.77	428.34
685.10	426.01
685.44	423.73
685.78	421.52
686.12	419.28
686.45	417.08
686.79	414.85
687.13	412.77
687.46	410.65
687.80	408.46
688.14	406.27
688.48	404.24
688.81	402.05
689.15	399.93
689.49	397.74
689.82	395.64
690.16	393.54
690.50	391.60
690.83	389.67
691.17	387.69
691.51	385.81
691.84	383.95
692.18	382.07
692.52	380.13
692.85	378.20
693.19	376.34
693.52	374.57
693.86	372.72
694.20	370.92
694.53	369.13
694.87	367.35
695.21	365.56
695.54	363.73
695.88	361.96
696.21	360.22
696.55	358.65
696.88	357.00
697.22	355.35
697.56	353.75
697.89	352.10
698.23	350.52
698.56	348.93
698.90	347.33
699.23	345.64
699.57	344.08
699.90	342.56
700.24	341.04
700.58	339.43
700.91	337.95
701.25	336.45
701.58	335.07
701.92	333.72
702.25	332.34
702.59	330.96
702.92	329.63
703.26	328.38
703.59	327.08
703.93	325.89
704.26	324.70
704.60	323.41
704.93	322.15
705.26	320.86
705.60	319.67
705.93	318.55
706.27	317.57
706.60	316.54
706.94	315.39
707.27	314.25
707.61	313.24
707.94	312.22
708.27	311.15
708.61	310.11
708.94	309.09
709.28	308.12
709.61	307.21
709.94	306.35
710.28	305.31
710.61	304.34
710.95	303.30
711.28	302.39
711.61	301.47
711.95	300.56
712.28	299.66
712.61	298.71
712.95	297.79
713.28	296.91
713.61	296.02
713.95	295.20
714.28	294.41
714.61	293.56
714.95	292.71
715.28	291.90
715.61	291.04
715.95	290.21
716.28	289.38
716.61	288.53
716.95	287.68
717.28	286.97
717.61	286.24
717.94	285.53
718.28	284.74
718.61	284.00
718.94	283.36
719.27	282.71
719.61	282.07
719.94	281.42
720.27	280.68
720.60	280.04
720.94	279.43
721.27	278.84
721.60	278.26
721.93	277.72
722.27	277.17
722.60	276.64
722.93	276.10
723.26	275.60
723.59	275.08
723.93	274.53
724.26	273.94
724.59	273.38
724.92	272.86
725.25	272.36
725.59	271.86
725.92	271.35
726.25	270.86
726.58	270.38
726.91	269.90
727.24	269.44
727.57	268.96
727.91	268.47
728.24	268.03
728.57	267.53
728.90	267.05
729.23	266.55
729.56	266.14
729.89	265.64
730.22	265.14
730.55	264.70
730.89	264.29
731.22	263.83
731.55	263.39
731.88	262.95
732.21	262.52
732.54	262.09
732.87	261.69
733.20	261.30
733.53	260.91
733.86	260.54
734.19	260.18
734.52	259.82
734.85	259.48
735.18	259.02
735.51	258.70
735.84	258.36
736.17	258.03
736.50	257.60
736.83	257.36
737.16	257.02
737.49	256.68
737.82	256.30
738.15	256.00
738.48	255.68
738.81	255.33
739.14	255.01
739.47	254.71
739.80	254.33
740.13	253.99
740.46	253.64
740.79	253.28
741.12	252.96
741.45	252.63
741.78	252.30
742.11	252.06
742.44	251.71
742.77	251.39
743.10	251.09
743.43	250.80
743.75	250.44
744.08	250.29
744.41	250.03
744.74	249.74
745.07	249.45
745.40	249.19
745.73	248.98
746.06	248.67
746.39	248.42
746.71	248.17
747.04	247.88
747.37	247.64
747.70	247.42
748.03	247.17
748.36	246.98
748.68	246.73
749.01	246.45
749.34	246.24
749.67	246.02
750.00	245.80
750.33	245.64
750.65	245.42
750.98	245.08
751.31	244.84
751.64	244.67
751.97	244.52
752.29	244.29
752.62	244.04
752.95	243.87
753.28	243.62
753.60	243.43
753.93	243.31
754.26	243.12
754.59	242.85
754.91	242.70
755.24	242.48
755.57	242.31
755.90	242.12
756.22	241.91
756.55	241.71
756.88	241.50
757.20	241.24
757.53	241.04
757.86	240.88
758.19	240.73
758.51	240.58
758.84	240.40
759.17	240.25
759.49	240.11
759.82	240.00
760.15	239.86
760.47	239.70
760.80	239.50
761.13	239.40
761.45	239.27
761.78	239.09
762.11	238.98
762.43	238.81
762.76	238.70
763.08	238.61
763.41	238.49
763.74	238.38
764.06	238.25
764.39	238.11
764.71	238.00
765.04	237.87
765.37	237.72
765.69	237.60
766.02	237.46
766.34	237.34
766.67	237.20
767.00	237.11
767.32	237.06
767.65	237.02
767.97	236.91
768.30	236.83
768.62	236.72
768.95	236.58
769.27	236.50
769.60	236.37
769.92	236.22
770.25	236.07
770.57	235.95
770.90	235.85
771.22	235.72
771.55	235.59
771.87	235.49
772.20	235.39
772.52	235.36
772.85	235.37
773.17	235.27
773.50	235.16
773.82	235.01
774.15	234.85
774.47	234.72
774.80	234.59
775.12	234.44
775.45	234.33
775.77	234.24
776.09	234.10
776.42	234.04
776.74	234.01
777.07	233.96
777.39	233.88
777.72	233.81
778.04	233.78
778.36	233.72
778.69	233.64
779.01	233.58
779.33	233.41
779.66	233.24
779.98	233.15
780.31	233.07
780.63	233.04
780.95	233.01
781.28	232.92
781.60	232.83
781.92	232.79
782.25	232.74
782.57	232.70
782.89	232.66
783.22	232.56
783.54	232.45
783.86	232.38
784.19	232.31
784.51	232.28
784.83	232.18
785.16	232.10
785.48	232.05
785.80	232.02
786.12	231.96
786.45	231.91
786.77	231.86
787.09	231.79
