SpectraSuite Data File
++++++++++++++++++++++++++++++++++++
Date: Fri Feb 01 17:15:23 EST 2013
User: group
Dark Spectrum Present: No
Reference Spectrum Present: No
Number of Sampled Component Spectra: 1
Spectrometers: USB2E7196
Integration Time (usec): 35000 (USB2E7196)
Spectra Averaged: 100 (USB2E7196)
Boxcar Smoothing: 10 (USB2E7196)
Correct for Electrical Dark: No (USB2E7196)
Strobe/Lamp Enabled: No (USB2E7196)
Correct for Detector Non-linearity: No (USB2E7196)
Correct for Stray Light: No (USB2E7196)
Number of Pixels in Processed Spectrum: 2048
>>>>>Begin Processed Spectral Data<<<<<
339.09	0.00
339.48	213.00
339.86	214.65
340.24	215.86
340.63	217.79
341.01	220.00
341.39	219.37
341.78	221.60
342.16	222.63
342.54	223.07
342.93	211.55
343.31	222.22
343.69	222.78
344.07	223.23
344.46	223.68
344.84	224.03
345.22	224.27
345.60	224.55
345.99	224.73
346.37	224.84
346.75	224.93
347.13	225.00
347.52	225.05
347.90	225.13
348.28	225.15
348.66	225.19
349.05	225.19
349.43	225.22
349.81	225.25
350.19	225.31
350.57	225.37
350.96	225.44
351.34	225.56
351.72	225.64
352.10	225.74
352.48	225.78
352.87	225.84
353.25	225.89
353.63	225.91
354.01	225.94
354.39	226.01
354.77	226.09
355.15	226.15
355.54	226.20
355.92	226.20
356.30	226.29
356.68	226.41
357.06	226.46
357.44	226.49
357.82	226.57
358.20	226.64
358.58	226.68
358.97	226.74
359.35	226.80
359.73	226.86
360.11	226.92
360.49	226.97
360.87	227.03
361.25	227.11
361.63	227.23
362.01	227.27
362.39	227.32
362.77	227.37
363.15	227.39
363.53	227.41
363.91	227.47
364.29	227.51
364.67	227.42
365.05	227.45
365.43	227.49
365.81	227.51
366.19	227.53
366.57	227.56
366.95	227.57
367.33	227.52
367.71	227.48
368.09	227.49
368.47	227.52
368.85	227.45
369.23	227.43
369.61	227.38
369.99	227.43
370.37	227.43
370.75	227.45
371.13	227.45
371.51	227.42
371.89	227.41
372.27	227.35
372.65	227.35
373.03	227.33
373.41	227.28
373.78	227.21
374.16	227.13
374.54	227.05
374.92	227.00
375.30	226.95
375.68	226.90
376.06	226.82
376.44	226.74
376.82	226.73
377.19	226.65
377.57	226.58
377.95	226.47
378.33	226.39
378.71	226.26
379.09	226.17
379.47	226.10
379.84	226.04
380.22	225.97
380.60	225.87
380.98	225.81
381.36	225.74
381.73	225.69
382.11	225.65
382.49	225.60
382.87	225.52
383.25	225.46
383.62	225.51
384.00	225.46
384.38	225.43
384.76	225.39
385.13	225.41
385.51	225.36
385.89	225.31
386.27	225.28
386.64	225.26
387.02	225.24
387.40	225.23
387.78	225.17
388.15	225.15
388.53	225.14
388.91	225.11
389.29	225.09
389.66	225.07
390.04	225.04
390.42	225.03
390.79	225.05
391.17	225.05
391.55	224.92
391.92	224.92
392.30	224.92
392.68	224.87
393.05	224.82
393.43	224.82
393.81	224.87
394.18	224.83
394.56	224.85
394.94	224.86
395.31	224.87
395.69	224.92
396.06	224.94
396.44	224.96
396.82	224.96
397.19	225.03
397.57	225.05
397.95	225.09
398.32	225.12
398.70	225.14
399.07	225.18
399.45	225.21
399.82	225.23
400.20	225.25
400.58	225.33
400.95	225.40
401.33	225.48
401.70	225.58
402.08	225.68
402.45	225.75
402.83	225.83
403.20	225.91
403.58	225.97
403.95	226.09
404.33	226.19
404.71	226.30
405.08	226.47
405.46	226.61
405.83	226.74
406.21	226.91
406.58	227.09
406.96	227.26
407.33	227.49
407.70	227.71
408.08	227.99
408.45	228.20
408.83	228.41
409.20	228.63
409.58	228.84
409.95	229.11
410.33	229.37
410.70	229.66
411.08	229.97
411.45	230.31
411.82	230.64
412.20	230.99
412.57	231.41
412.95	231.72
413.32	232.11
413.69	232.53
414.07	232.92
414.44	233.39
414.82	233.85
415.19	234.39
415.56	234.93
415.94	235.47
416.31	236.12
416.68	236.75
417.06	237.47
417.43	238.18
417.81	238.94
418.18	239.74
418.55	240.59
418.93	241.48
419.30	242.37
419.67	243.34
420.04	244.35
420.42	245.36
420.79	246.57
421.16	247.78
421.54	249.01
421.91	250.26
422.28	251.53
422.66	252.92
423.03	254.24
423.40	255.61
423.77	257.05
424.15	258.56
424.52	260.08
424.89	261.76
425.26	263.33
425.64	264.84
426.01	266.49
426.38	268.22
426.75	269.94
427.13	271.71
427.50	273.53
427.87	275.45
428.24	277.34
428.61	279.08
428.99	281.05
429.36	283.21
429.73	285.30
430.10	287.38
430.47	289.45
430.85	291.66
431.22	293.95
431.59	296.38
431.96	298.63
432.33	301.17
432.70	303.57
433.08	306.45
433.45	309.13
433.82	311.76
434.19	314.66
434.56	317.53
434.93	320.22
435.30	322.95
435.68	325.93
436.05	328.87
436.42	331.75
436.79	334.33
437.16	337.08
437.53	340.02
437.90	342.87
438.27	345.74
438.64	348.64
439.01	351.27
439.38	353.53
439.75	355.82
440.13	358.38
440.50	360.77
440.87	362.67
441.24	364.63
441.61	366.87
441.98	368.43
442.35	370.26
442.72	372.19
443.09	373.98
443.46	374.98
443.83	375.56
444.20	376.08
444.57	376.99
444.94	377.33
445.31	377.68
445.68	378.07
446.05	378.12
446.42	377.75
446.79	377.37
447.16	376.99
447.53	376.60
447.90	375.39
448.27	374.26
448.64	372.64
449.01	371.54
449.37	369.55
449.74	367.61
450.11	365.31
450.48	362.80
450.85	360.28
451.22	358.09
451.59	356.06
451.96	354.11
452.33	351.41
452.70	348.95
453.07	346.07
453.43	343.11
453.80	340.30
454.17	337.55
454.54	334.97
454.91	332.14
455.28	329.47
455.65	326.97
456.02	324.42
456.38	322.24
456.75	319.48
457.12	317.16
457.49	314.90
457.86	312.72
458.23	310.82
458.59	308.64
458.96	306.48
459.33	304.55
459.70	302.66
460.07	301.19
460.43	299.43
460.80	297.75
461.17	296.26
461.54	294.76
461.91	293.27
462.27	291.76
462.64	290.50
463.01	289.10
463.38	287.76
463.74	286.38
464.11	285.15
464.48	284.11
464.85	282.98
465.21	282.06
465.58	281.10
465.95	279.95
466.32	279.09
466.68	278.18
467.05	277.23
467.42	276.29
467.78	275.28
468.15	274.40
468.52	273.74
468.88	272.88
469.25	272.09
469.62	271.45
469.98	270.78
470.35	270.12
470.72	269.50
471.08	268.87
471.45	268.32
471.82	267.78
472.18	267.15
472.55	266.71
472.92	266.20
473.28	265.72
473.65	265.29
474.02	264.86
474.38	264.48
474.75	264.16
475.11	263.81
475.48	263.56
475.85	263.34
476.21	263.13
476.58	262.95
476.94	262.81
477.31	262.67
477.67	262.53
478.04	262.43
478.41	262.38
478.77	262.41
479.14	262.35
479.50	262.40
479.87	262.49
480.23	262.55
480.60	262.63
480.96	262.74
481.33	262.94
481.69	263.11
482.06	263.32
482.42	263.54
482.79	263.80
483.15	264.11
483.52	264.45
483.88	264.79
484.25	265.16
484.61	265.55
484.98	266.00
485.34	266.57
485.71	267.17
486.07	267.75
486.44	268.29
486.80	268.99
487.17	269.71
487.53	270.57
487.90	271.47
488.26	272.41
488.62	273.42
488.99	274.44
489.35	275.46
489.72	276.61
490.08	277.84
490.44	279.07
490.81	280.44
491.17	281.83
491.54	283.33
491.90	284.87
492.26	286.53
492.63	288.24
492.99	290.02
493.36	291.88
493.72	293.94
494.08	296.05
494.45	298.30
494.81	300.65
495.17	303.07
495.54	305.62
495.90	308.29
496.26	311.09
496.63	314.01
496.99	317.16
497.35	320.38
497.72	323.74
498.08	327.27
498.44	330.88
498.80	334.78
499.17	338.76
499.53	342.93
499.89	347.32
500.26	351.79
500.62	356.44
500.98	361.39
501.34	366.43
501.71	371.75
502.07	377.16
502.43	382.70
502.79	388.43
503.16	394.44
503.52	400.71
503.88	407.03
504.24	413.58
504.60	420.41
504.97	427.50
505.33	434.77
505.69	442.45
506.05	450.22
506.41	458.03
506.78	466.12
507.14	474.46
507.50	483.03
507.86	491.95
508.22	500.98
508.59	510.15
508.95	519.59
509.31	529.29
509.67	539.28
510.03	549.50
510.39	559.90
510.75	570.49
511.12	581.19
511.48	592.34
511.84	603.62
512.20	614.95
512.56	626.68
512.92	638.65
513.28	650.77
513.64	663.00
514.00	675.46
514.37	688.21
514.73	701.09
515.09	713.89
515.45	726.98
515.81	740.36
516.17	754.05
516.53	767.94
516.89	781.84
517.25	795.68
517.61	809.83
517.97	824.16
518.33	838.36
518.69	852.88
519.05	867.55
519.41	882.41
519.77	897.63
520.13	912.80
520.49	927.90
520.85	942.98
521.21	958.33
521.57	974.24
521.93	989.63
522.29	1005.61
522.65	1021.60
523.01	1037.42
523.37	1053.18
523.73	1068.95
524.09	1084.70
524.45	1100.72
524.81	1117.03
525.17	1133.37
525.53	1149.79
525.89	1166.39
526.25	1182.94
526.61	1199.00
526.97	1215.53
527.33	1231.77
527.68	1248.01
528.04	1264.13
528.40	1280.38
528.76	1297.22
529.12	1313.54
529.48	1330.17
529.84	1345.89
530.20	1362.12
530.56	1378.69
530.91	1395.75
531.27	1412.26
531.63	1428.46
531.99	1444.71
532.35	1460.53
532.71	1476.22
533.07	1492.25
533.42	1507.92
533.78	1523.64
534.14	1539.56
534.50	1554.63
534.86	1570.13
535.21	1585.14
535.57	1600.82
535.93	1616.05
536.29	1630.55
536.65	1645.36
537.00	1659.75
537.36	1674.85
537.72	1689.07
538.08	1703.56
538.44	1717.12
538.79	1730.90
539.15	1744.28
539.51	1757.84
539.87	1771.98
540.22	1785.50
540.58	1799.01
540.94	1812.08
541.29	1824.72
541.65	1837.31
542.01	1850.37
542.37	1862.62
542.72	1874.84
543.08	1886.60
543.44	1899.01
543.79	1910.19
544.15	1921.08
544.51	1932.58
544.87	1943.39
545.22	1954.44
545.58	1964.50
545.94	1974.29
546.29	1984.12
546.65	1994.16
547.01	2003.54
547.36	2012.30
547.72	2020.94
548.07	2029.03
548.43	2037.24
548.79	2045.34
549.14	2053.25
549.50	2060.59
549.86	2068.32
550.21	2075.74
550.57	2083.02
550.92	2089.71
551.28	2096.95
551.64	2104.26
551.99	2111.00
552.35	2117.33
552.70	2123.47
553.06	2129.80
553.41	2136.34
553.77	2142.46
554.13	2148.58
554.48	2154.80
554.84	2160.45
555.19	2165.71
555.55	2170.97
555.90	2175.58
556.26	2180.77
556.61	2185.49
556.97	2190.12
557.32	2194.47
557.68	2198.93
558.03	2203.33
558.39	2206.96
558.74	2211.56
559.10	2215.65
559.45	2219.56
559.81	2224.20
560.16	2228.33
560.52	2231.77
560.87	2235.31
561.23	2238.22
561.58	2241.26
561.94	2244.05
562.29	2246.60
562.64	2249.80
563.00	2252.51
563.35	2256.30
563.71	2259.67
564.06	2262.93
564.42	2266.04
564.77	2268.94
565.12	2271.68
565.48	2274.02
565.83	2276.61
566.19	2278.41
566.54	2279.46
566.89	2280.98
567.25	2281.88
567.60	2283.44
567.96	2285.41
568.31	2286.58
568.66	2288.06
569.02	2289.04
569.37	2289.63
569.72	2290.86
570.08	2291.39
570.43	2291.83
570.78	2291.66
571.14	2290.54
571.49	2289.50
571.84	2289.30
572.20	2288.44
572.55	2287.49
572.90	2286.06
573.26	2284.87
573.61	2283.28
573.96	2282.01
574.31	2279.34
574.67	2276.50
575.02	2273.11
575.37	2269.81
575.72	2266.42
576.08	2263.12
576.43	2259.86
576.78	2256.67
577.13	2253.54
577.49	2250.44
577.84	2247.26
578.19	2243.73
578.54	2240.40
578.90	2236.70
579.25	2231.47
579.60	2226.77
579.95	2222.06
580.30	2217.26
580.66	2212.28
581.01	2207.62
581.36	2202.84
581.71	2199.08
582.06	2195.17
582.42	2191.10
582.77	2186.35
583.12	2181.99
583.47	2177.78
583.82	2173.43
584.17	2168.27
584.53	2163.13
584.88	2157.73
585.23	2152.21
585.58	2146.90
585.93	2141.68
586.28	2136.91
586.63	2132.18
586.98	2127.31
587.34	2122.70
587.69	2117.95
588.04	2113.05
588.39	2107.64
588.74	2101.33
589.09	2095.23
589.44	2088.59
589.79	2082.51
590.14	2076.92
590.49	2070.49
590.84	2064.14
591.19	2058.10
591.54	2051.82
591.89	2044.83
592.25	2038.36
592.60	2031.33
592.95	2024.00
593.30	2016.65
593.65	2009.25
594.00	2002.25
594.35	1995.10
594.70	1987.08
595.05	1980.25
595.40	1972.95
595.75	1965.62
596.10	1959.73
596.45	1953.22
596.80	1947.08
597.15	1940.67
597.50	1933.88
597.85	1927.54
598.19	1921.12
598.54	1914.38
598.89	1907.82
599.24	1901.83
599.59	1895.49
599.94	1889.28
600.29	1883.02
600.64	1876.39
600.99	1869.13
601.34	1862.50
601.69	1855.63
602.04	1848.99
602.39	1841.70
602.74	1835.00
603.08	1828.44
603.43	1821.55
603.78	1814.19
604.13	1807.14
604.48	1800.02
604.83	1793.14
605.18	1786.37
605.53	1778.40
605.87	1770.32
606.22	1763.12
606.57	1755.28
606.92	1747.62
607.27	1740.66
607.62	1733.92
607.96	1726.87
608.31	1720.48
608.66	1712.90
609.01	1705.37
609.36	1697.89
609.70	1689.92
610.05	1681.91
610.40	1674.22
610.75	1666.10
611.10	1658.51
611.44	1650.01
611.79	1641.88
612.14	1633.19
612.49	1623.87
612.83	1615.40
613.18	1607.13
613.53	1598.99
613.88	1590.41
614.22	1582.16
614.57	1573.35
614.92	1565.26
615.27	1557.79
615.61	1549.41
615.96	1541.35
616.31	1533.60
616.65	1526.12
617.00	1518.48
617.35	1510.71
617.70	1502.28
618.04	1493.81
618.39	1485.42
618.74	1477.78
619.08	1469.46
619.43	1461.79
619.78	1454.78
620.12	1447.66
620.47	1440.17
620.82	1431.82
621.16	1424.14
621.51	1416.41
621.85	1408.64
622.20	1400.07
622.55	1391.49
622.89	1383.43
623.24	1375.65
623.59	1368.08
623.93	1360.50
624.28	1353.16
624.62	1345.67
624.97	1338.38
625.32	1331.27
625.66	1324.09
626.01	1316.90
626.35	1309.52
626.70	1301.55
627.04	1293.88
627.39	1285.96
627.73	1278.41
628.08	1271.48
628.43	1264.38
628.77	1257.06
629.12	1249.59
629.46	1242.29
629.81	1234.67
630.15	1227.35
630.50	1219.94
630.84	1211.93
631.19	1203.86
631.53	1196.16
631.88	1188.36
632.22	1180.76
632.57	1173.46
632.91	1165.92
633.26	1158.44
633.60	1150.87
633.95	1143.58
634.29	1136.36
634.64	1129.56
634.98	1122.18
635.32	1115.02
635.67	1108.27
636.01	1101.54
636.36	1094.74
636.70	1088.10
637.05	1081.64
637.39	1075.16
637.73	1068.66
638.08	1062.60
638.42	1056.63
638.77	1050.29
639.11	1043.81
639.45	1037.29
639.80	1030.53
640.14	1024.07
640.49	1017.45
640.83	1011.07
641.17	1005.04
641.52	998.75
641.86	992.23
642.20	986.34
642.55	979.94
642.89	973.42
643.23	966.74
643.58	960.91
643.92	954.75
644.26	948.70
644.61	942.55
644.95	936.41
645.29	929.93
645.64	923.14
645.98	916.70
646.32	910.61
646.66	904.60
647.01	898.81
647.35	893.09
647.69	887.22
648.04	881.63
648.38	875.76
648.72	869.76
649.06	863.76
649.41	857.81
649.75	851.89
650.09	846.01
650.43	840.22
650.78	833.98
651.12	827.97
651.46	822.16
651.80	816.45
652.14	811.03
652.49	805.62
652.83	800.42
653.17	794.84
653.51	789.23
653.85	783.74
654.20	778.07
654.54	771.96
654.88	766.20
655.22	760.38
655.56	754.67
655.90	749.12
656.25	743.85
656.59	738.48
656.93	733.29
657.27	728.05
657.61	722.62
657.95	717.49
658.29	712.41
658.64	707.11
658.98	701.73
659.32	696.22
659.66	690.91
660.00	685.71
660.34	680.69
660.68	675.76
661.02	670.73
661.36	666.09
661.70	661.64
662.05	657.34
662.39	652.99
662.73	648.50
663.07	644.15
663.41	639.69
663.75	635.22
664.09	630.69
664.43	626.31
664.77	622.20
665.11	617.97
665.45	613.72
665.79	609.60
666.13	605.51
666.47	601.40
666.81	597.29
667.15	593.00
667.49	589.02
667.83	585.01
668.17	581.02
668.51	576.89
668.85	572.81
669.19	568.82
669.53	564.92
669.87	561.07
670.21	557.30
670.55	553.62
670.89	550.11
671.23	546.60
671.57	543.03
671.91	539.50
672.25	535.86
672.58	532.39
672.92	528.90
673.26	525.70
673.60	522.55
673.94	519.42
674.28	516.48
674.62	513.47
674.96	510.44
675.30	507.57
675.64	504.65
675.97	501.85
676.31	498.91
676.65	495.96
676.99	493.15
677.33	490.26
677.67	487.44
678.01	484.48
678.34	481.56
678.68	478.63
679.02	475.74
679.36	472.95
679.70	470.16
680.04	467.46
680.37	464.52
680.71	461.67
681.05	458.99
681.39	456.29
681.73	453.61
682.06	451.09
682.40	448.47
682.74	445.91
683.08	443.33
683.42	440.73
683.75	438.24
684.09	435.65
684.43	433.15
684.77	430.66
685.10	428.19
685.44	425.82
685.78	423.53
686.12	421.27
686.45	418.95
686.79	416.72
687.13	414.49
687.46	412.38
687.80	410.21
688.14	407.94
688.48	405.86
688.81	403.67
689.15	401.53
689.49	399.40
689.82	397.27
690.16	395.21
690.50	393.27
690.83	391.34
691.17	389.36
691.51	387.47
691.84	385.61
692.18	383.73
692.52	381.82
692.85	379.88
693.19	378.01
693.52	376.19
693.86	374.35
694.20	372.55
694.53	370.71
694.87	368.89
695.21	367.10
695.54	365.29
695.88	363.55
696.21	361.77
696.55	360.10
696.88	358.41
697.22	356.65
697.56	354.98
697.89	353.28
698.23	351.72
698.56	350.11
698.90	348.50
699.23	346.84
699.57	345.24
699.90	343.69
700.24	342.09
700.58	340.59
700.91	339.12
701.25	337.64
701.58	336.25
701.92	334.86
702.25	333.50
702.59	332.11
702.92	330.76
703.26	329.44
703.59	328.13
703.93	326.92
704.26	325.72
704.60	324.46
704.93	323.18
705.26	321.88
705.60	320.64
705.93	319.46
706.27	318.42
706.60	317.32
706.94	316.21
707.27	315.09
707.61	313.97
707.94	312.86
708.27	311.72
708.61	310.61
708.94	309.54
709.28	308.51
709.61	307.55
709.94	306.53
710.28	305.48
710.61	304.44
710.95	303.33
711.28	302.39
711.61	301.36
711.95	300.40
712.28	299.44
712.61	298.48
712.95	297.49
713.28	296.52
713.61	295.61
713.95	294.73
714.28	293.84
714.61	292.98
714.95	292.10
715.28	291.24
715.61	290.35
715.95	289.50
716.28	288.65
716.61	287.74
716.95	286.89
717.28	286.14
717.61	285.33
717.94	284.59
718.28	283.72
718.61	283.03
718.94	282.33
719.27	281.68
719.61	280.99
719.94	280.31
720.27	279.60
720.60	278.91
720.94	278.19
721.27	277.61
721.60	277.00
721.93	276.43
722.27	275.89
722.60	275.32
722.93	274.73
723.26	274.17
723.59	273.64
723.93	273.12
724.26	272.52
724.59	271.98
724.92	271.42
725.25	270.94
725.59	270.43
725.92	269.93
726.25	269.40
726.58	268.86
726.91	268.38
727.24	267.89
727.57	267.38
727.91	266.91
728.24	266.43
728.57	265.94
728.90	265.47
729.23	264.94
729.56	264.51
729.89	264.03
730.22	263.52
730.55	263.04
730.89	262.60
731.22	262.19
731.55	261.73
731.88	261.32
732.21	260.86
732.54	260.40
732.87	259.94
733.20	259.49
733.53	259.14
733.86	258.75
734.19	258.36
734.52	257.99
734.85	257.67
735.18	257.25
735.51	256.88
735.84	256.54
736.17	256.19
736.50	255.80
736.83	255.56
737.16	255.24
737.49	254.89
737.82	254.54
738.15	254.19
738.48	253.87
738.81	253.57
739.14	253.25
739.47	252.95
739.80	252.64
740.13	252.32
740.46	251.98
740.79	251.69
741.12	251.39
741.45	251.12
741.78	250.81
742.11	250.50
742.44	250.20
742.77	249.87
743.10	249.59
743.43	249.27
743.75	248.89
744.08	248.74
744.41	248.47
744.74	248.22
745.07	247.95
745.40	247.69
745.73	247.44
746.06	247.15
746.39	246.88
746.71	246.62
747.04	246.39
747.37	246.14
747.70	245.87
748.03	245.60
748.36	245.35
748.68	245.08
749.01	244.83
749.34	244.59
749.67	244.38
750.00	244.12
750.33	243.98
750.65	243.77
750.98	243.41
751.31	243.18
751.64	242.95
751.97	242.77
752.29	242.56
752.62	242.27
752.95	242.10
753.28	241.87
753.60	241.66
753.93	241.48
754.26	241.27
754.59	241.03
754.91	240.82
755.24	240.62
755.57	240.39
755.90	240.21
756.22	240.00
756.55	239.74
756.88	239.55
757.20	239.30
757.53	239.08
757.86	238.90
758.19	238.72
758.51	238.54
758.84	238.29
759.17	238.08
759.49	237.93
759.82	237.79
760.15	237.62
760.47	237.46
760.80	237.27
761.13	237.13
761.45	236.97
761.78	236.82
762.11	236.65
762.43	236.55
762.76	236.38
763.08	236.24
763.41	236.12
763.74	235.97
764.06	235.82
764.39	235.67
764.71	235.54
765.04	235.43
765.37	235.29
765.69	235.14
766.02	235.02
766.34	234.87
766.67	234.72
767.00	234.63
767.32	234.57
767.65	234.50
767.97	234.36
768.30	234.26
768.62	234.16
768.95	234.03
769.27	233.88
769.60	233.79
769.92	233.69
770.25	233.61
770.57	233.51
770.90	233.46
771.22	233.39
771.55	233.30
771.87	233.20
772.20	233.10
772.52	233.13
772.85	233.19
773.17	233.09
773.50	233.01
773.82	232.93
774.15	232.78
774.47	232.68
774.80	232.61
775.12	232.56
775.45	232.47
775.77	232.41
776.09	232.38
776.42	232.31
776.74	232.28
777.07	232.22
777.39	232.17
777.72	232.06
778.04	232.00
778.36	231.94
778.69	231.86
779.01	231.83
779.33	231.71
779.66	231.54
779.98	231.52
780.31	231.47
780.63	231.45
780.95	231.41
781.28	231.38
781.60	231.32
781.92	231.24
782.25	231.21
782.57	231.18
782.89	231.11
783.22	231.04
783.54	230.98
783.86	230.92
784.19	230.86
784.51	230.84
784.83	230.76
785.16	230.72
785.48	230.69
785.80	230.66
786.12	230.62
786.45	230.56
786.77	230.53
787.09	230.48
