SpectraSuite Data File
++++++++++++++++++++++++++++++++++++
Date: Fri Feb 01 17:39:15 EST 2013
User: group
Dark Spectrum Present: No
Reference Spectrum Present: No
Number of Sampled Component Spectra: 1
Spectrometers: USB2E7196
Integration Time (usec): 35000 (USB2E7196)
Spectra Averaged: 100 (USB2E7196)
Boxcar Smoothing: 10 (USB2E7196)
Correct for Electrical Dark: No (USB2E7196)
Strobe/Lamp Enabled: No (USB2E7196)
Correct for Detector Non-linearity: No (USB2E7196)
Correct for Stray Light: No (USB2E7196)
Number of Pixels in Processed Spectrum: 2048
>>>>>Begin Processed Spectral Data<<<<<
339.09	0.00
339.48	212.96
339.86	213.71
340.24	215.63
340.63	217.37
341.01	219.45
341.39	219.90
341.78	220.90
342.16	222.07
342.54	222.68
342.93	211.32
343.31	222.01
343.69	222.55
344.07	223.05
344.46	223.47
344.84	223.83
345.22	224.07
345.60	224.33
345.99	224.52
346.37	224.67
346.75	224.77
347.13	224.84
347.52	224.88
347.90	224.93
348.28	224.96
348.66	224.98
349.05	224.93
349.43	224.96
349.81	224.99
350.19	225.06
350.57	225.11
350.96	225.23
351.34	225.29
351.72	225.40
352.10	225.50
352.48	225.59
352.87	225.64
353.25	225.73
353.63	225.78
354.01	225.88
354.39	225.94
354.77	226.02
355.15	226.14
355.54	226.20
355.92	226.26
356.30	226.35
356.68	226.51
357.06	226.60
357.44	226.67
357.82	226.70
358.20	226.74
358.58	226.80
358.97	226.85
359.35	226.94
359.73	226.99
360.11	227.04
360.49	227.08
360.87	227.14
361.25	227.21
361.63	227.31
362.01	227.35
362.39	227.37
362.77	227.42
363.15	227.43
363.53	227.46
363.91	227.51
364.29	227.51
364.67	227.43
365.05	227.45
365.43	227.47
365.81	227.55
366.19	227.59
366.57	227.62
366.95	227.60
367.33	227.61
367.71	227.61
368.09	227.59
368.47	227.61
368.85	227.59
369.23	227.55
369.61	227.47
369.99	227.48
370.37	227.49
370.75	227.50
371.13	227.45
371.51	227.39
371.89	227.37
372.27	227.33
372.65	227.30
373.03	227.26
373.41	227.21
373.78	227.16
374.16	227.09
374.54	227.03
374.92	226.98
375.30	226.90
375.68	226.86
376.06	226.80
376.44	226.73
376.82	226.68
377.19	226.66
377.57	226.62
377.95	226.52
378.33	226.47
378.71	226.35
379.09	226.30
379.47	226.26
379.84	226.17
380.22	226.12
380.60	226.07
380.98	225.99
381.36	225.91
381.73	225.82
382.11	225.76
382.49	225.69
382.87	225.63
383.25	225.52
383.62	225.55
384.00	225.47
384.38	225.40
384.76	225.36
385.13	225.30
385.51	225.21
385.89	225.14
386.27	225.04
386.64	225.00
387.02	224.96
387.40	224.90
387.78	224.88
388.15	224.82
388.53	224.79
388.91	224.74
389.29	224.71
389.66	224.68
390.04	224.63
390.42	224.63
390.79	224.62
391.17	224.63
391.55	224.49
391.92	224.49
392.30	224.49
392.68	224.47
393.05	224.43
393.43	224.45
393.81	224.45
394.18	224.46
394.56	224.46
394.94	224.49
395.31	224.48
395.69	224.48
396.06	224.52
396.44	224.49
396.82	224.53
397.19	224.61
397.57	224.69
397.95	224.71
398.32	224.70
398.70	224.75
399.07	224.83
399.45	224.90
399.82	224.98
400.20	225.05
400.58	225.11
400.95	225.17
401.33	225.28
401.70	225.44
402.08	225.52
402.45	225.58
402.83	225.68
403.20	225.78
403.58	225.85
403.95	225.97
404.33	226.12
404.71	226.25
405.08	226.38
405.46	226.46
405.83	226.65
406.21	226.79
406.58	226.95
406.96	227.06
407.33	227.24
407.70	227.42
408.08	227.66
408.45	227.87
408.83	228.08
409.20	228.26
409.58	228.43
409.95	228.71
410.33	229.01
410.70	229.22
411.08	229.54
411.45	229.84
411.82	230.15
412.20	230.50
412.57	230.88
412.95	231.18
413.32	231.57
413.69	231.97
414.07	232.43
414.44	232.94
414.82	233.45
415.19	234.01
415.56	234.55
415.94	235.12
416.31	235.77
416.68	236.44
417.06	237.21
417.43	237.93
417.81	238.73
418.18	239.57
418.55	240.49
418.93	241.40
419.30	242.36
419.67	243.38
420.04	244.40
420.42	245.46
420.79	246.71
421.16	247.95
421.54	249.20
421.91	250.50
422.28	251.82
422.66	253.24
423.03	254.56
423.40	255.95
423.77	257.42
424.15	258.92
424.52	260.49
424.89	262.15
425.26	263.78
425.64	265.31
426.01	266.99
426.38	268.71
426.75	270.47
427.13	272.29
427.50	274.21
427.87	276.17
428.24	278.14
428.61	279.98
428.99	282.03
429.36	284.26
429.73	286.39
430.10	288.51
430.47	290.68
430.85	292.93
431.22	295.30
431.59	297.81
431.96	300.16
432.33	302.74
432.70	305.22
433.08	308.17
433.45	310.98
433.82	313.70
434.19	316.75
434.56	319.68
434.93	322.49
435.30	325.23
435.68	328.23
436.05	331.17
436.42	334.10
436.79	336.72
437.16	339.55
437.53	342.58
437.90	345.50
438.27	348.30
438.64	351.26
439.01	353.98
439.38	356.33
439.75	358.66
440.13	361.30
440.50	363.74
440.87	365.71
441.24	367.71
441.61	370.00
441.98	371.58
442.35	373.52
442.72	375.44
443.09	377.32
443.46	378.41
443.83	379.02
444.20	379.62
444.57	380.55
444.94	380.83
445.31	381.18
445.68	381.55
446.05	381.71
446.42	381.34
446.79	380.94
447.16	380.49
447.53	380.16
447.90	378.96
448.27	377.74
448.64	376.07
449.01	374.86
449.37	372.77
449.74	370.76
450.11	368.42
450.48	365.85
450.85	363.22
451.22	360.99
451.59	358.96
451.96	356.88
452.33	354.12
452.70	351.66
453.07	348.69
453.43	345.67
453.80	342.78
454.17	339.98
454.54	337.28
454.91	334.45
455.28	331.62
455.65	329.00
456.02	326.45
456.38	324.21
456.75	321.42
457.12	319.02
457.49	316.69
457.86	314.36
458.23	312.43
458.59	310.24
458.96	308.03
459.33	306.00
459.70	304.04
460.07	302.45
460.43	300.69
460.80	298.99
461.17	297.44
461.54	295.87
461.91	294.37
462.27	292.84
462.64	291.52
463.01	290.06
463.38	288.70
463.74	287.31
464.11	286.08
464.48	285.03
464.85	283.91
465.21	283.02
465.58	282.07
465.95	280.91
466.32	279.99
466.68	279.04
467.05	278.14
467.42	277.22
467.78	276.23
468.15	275.29
468.52	274.59
468.88	273.70
469.25	272.88
469.62	272.26
469.98	271.57
470.35	270.90
470.72	270.33
471.08	269.61
471.45	269.03
471.82	268.44
472.18	267.85
472.55	267.40
472.92	266.82
473.28	266.34
473.65	265.88
474.02	265.43
474.38	265.04
474.75	264.71
475.11	264.38
475.48	264.13
475.85	263.88
476.21	263.63
476.58	263.50
476.94	263.35
477.31	263.17
477.67	263.03
478.04	262.92
478.41	262.86
478.77	262.94
479.14	262.87
479.50	262.91
479.87	262.95
480.23	262.99
480.60	263.09
480.96	263.12
481.33	263.33
481.69	263.51
482.06	263.71
482.42	263.92
482.79	264.12
483.15	264.42
483.52	264.79
483.88	265.16
484.25	265.48
484.61	265.92
484.98	266.37
485.34	266.90
485.71	267.49
486.07	268.08
486.44	268.65
486.80	269.35
487.17	270.08
487.53	270.90
487.90	271.78
488.26	272.74
488.62	273.80
488.99	274.78
489.35	275.86
489.72	276.99
490.08	278.19
490.44	279.45
490.81	280.79
491.17	282.14
491.54	283.61
491.90	285.16
492.26	286.78
492.63	288.52
492.99	290.29
493.36	292.17
493.72	294.18
494.08	296.25
494.45	298.50
494.81	300.86
495.17	303.26
495.54	305.80
495.90	308.45
496.26	311.18
496.63	314.12
496.99	317.17
497.35	320.38
497.72	323.73
498.08	327.24
498.44	330.90
498.80	334.80
499.17	338.84
499.53	342.98
499.89	347.30
500.26	351.75
500.62	356.35
500.98	361.24
501.34	366.30
501.71	371.54
502.07	376.89
502.43	382.41
502.79	388.12
503.16	394.05
503.52	400.22
503.88	406.49
504.24	413.00
504.60	419.74
504.97	426.81
505.33	434.04
505.69	441.61
506.05	449.27
506.41	456.99
506.78	464.94
507.14	473.20
507.50	481.75
507.86	490.60
508.22	499.62
508.59	508.67
508.95	517.98
509.31	527.57
509.67	537.48
510.03	547.52
510.39	557.84
510.75	568.32
511.12	579.00
511.48	590.05
511.84	601.27
512.20	612.56
512.56	624.21
512.92	636.02
513.28	648.05
513.64	660.13
514.00	672.52
514.37	685.07
514.73	697.78
515.09	710.49
515.45	723.34
515.81	736.53
516.17	750.07
516.53	763.83
516.89	777.54
517.25	791.33
517.61	805.32
517.97	819.33
518.33	833.37
518.69	847.68
519.05	862.26
519.41	876.89
519.77	891.92
520.13	906.77
520.49	921.76
520.85	936.60
521.21	951.72
521.57	967.45
521.93	982.82
522.29	998.62
522.65	1014.22
523.01	1029.92
523.37	1045.53
523.73	1061.16
524.09	1076.72
524.45	1092.65
524.81	1108.72
525.17	1124.98
525.53	1141.33
525.89	1157.73
526.25	1174.15
526.61	1189.94
526.97	1206.20
527.33	1222.15
527.68	1238.25
528.04	1254.21
528.40	1270.24
528.76	1286.97
529.12	1303.06
529.48	1319.50
529.84	1335.13
530.20	1351.47
530.56	1367.97
530.91	1384.74
531.27	1401.13
531.63	1417.18
531.99	1433.21
532.35	1448.85
532.71	1464.43
533.07	1480.27
533.42	1495.87
533.78	1511.58
534.14	1527.43
534.50	1542.52
534.86	1558.07
535.21	1572.95
535.57	1588.53
535.93	1603.71
536.29	1618.12
536.65	1632.83
537.00	1647.17
537.36	1662.21
537.72	1676.31
538.08	1690.55
538.44	1704.19
538.79	1717.93
539.15	1731.26
539.51	1744.83
539.87	1758.87
540.22	1772.25
540.58	1785.78
540.94	1798.69
541.29	1811.08
541.65	1823.56
542.01	1836.43
542.37	1848.69
542.72	1860.99
543.08	1872.72
543.44	1885.19
543.79	1896.57
544.15	1907.61
544.51	1919.24
544.87	1930.14
545.22	1941.15
545.58	1951.41
545.94	1961.34
546.29	1971.13
546.65	1981.06
547.01	1990.48
547.36	1999.36
547.72	2008.03
548.07	2016.25
548.43	2024.64
548.79	2032.83
549.14	2040.78
549.50	2048.25
549.86	2056.05
550.21	2063.57
550.57	2070.99
550.92	2077.90
551.28	2085.18
551.64	2092.37
551.99	2099.13
552.35	2105.49
552.70	2111.84
553.06	2118.30
553.41	2124.96
553.77	2131.26
554.13	2137.62
554.48	2143.91
554.84	2149.88
555.19	2155.46
555.55	2161.00
555.90	2165.98
556.26	2171.58
556.61	2176.52
556.97	2181.33
557.32	2185.83
557.68	2190.38
558.03	2194.81
558.39	2198.75
558.74	2203.60
559.10	2207.96
559.45	2211.82
559.81	2216.53
560.16	2220.61
560.52	2224.28
560.87	2227.80
561.23	2230.90
561.58	2234.14
561.94	2237.18
562.29	2239.67
562.64	2243.07
563.00	2246.00
563.35	2249.80
563.71	2253.22
564.06	2256.81
564.42	2260.30
564.77	2263.39
565.12	2266.29
565.48	2268.90
565.83	2271.27
566.19	2273.39
566.54	2274.65
566.89	2276.55
567.25	2277.77
567.60	2279.40
567.96	2281.45
568.31	2282.94
568.66	2284.56
569.02	2285.73
569.37	2286.57
569.72	2288.01
570.08	2288.49
570.43	2288.90
570.78	2288.91
571.14	2287.89
571.49	2287.08
571.84	2286.86
572.20	2286.21
572.55	2285.36
572.90	2283.95
573.26	2283.07
573.61	2281.31
573.96	2280.31
574.31	2277.73
574.67	2275.16
575.02	2272.13
575.37	2269.00
575.72	2265.67
576.08	2262.62
576.43	2259.53
576.78	2256.51
577.13	2253.55
577.49	2250.51
577.84	2247.55
578.19	2244.21
578.54	2240.94
578.90	2237.33
579.25	2232.48
579.60	2228.00
579.95	2223.67
580.30	2219.27
580.66	2214.37
581.01	2209.83
581.36	2204.90
581.71	2201.19
582.06	2197.22
582.42	2193.22
582.77	2188.41
583.12	2184.07
583.47	2179.94
583.82	2175.57
584.17	2170.50
584.53	2165.45
584.88	2160.34
585.23	2155.06
585.58	2149.72
585.93	2144.41
586.28	2139.45
586.63	2134.58
586.98	2129.55
587.34	2124.79
587.69	2120.05
588.04	2115.26
588.39	2109.93
588.74	2103.71
589.09	2097.60
589.44	2090.92
589.79	2084.92
590.14	2079.41
590.49	2073.22
590.84	2066.86
591.19	2060.98
591.54	2054.66
591.89	2047.76
592.25	2041.37
592.60	2034.19
592.95	2027.13
593.30	2020.13
593.65	2013.01
594.00	2006.16
594.35	1999.18
594.70	1991.29
595.05	1984.50
595.40	1977.19
595.75	1969.94
596.10	1964.16
596.45	1957.85
596.80	1952.01
597.15	1945.64
597.50	1939.02
597.85	1932.63
598.19	1925.99
598.54	1919.33
598.89	1912.86
599.24	1906.82
599.59	1900.36
599.94	1894.15
600.29	1887.88
600.64	1881.22
600.99	1873.85
601.34	1867.07
601.69	1860.06
602.04	1853.55
602.39	1846.22
602.74	1839.55
603.08	1832.97
603.43	1826.19
603.78	1818.84
604.13	1811.45
604.48	1804.27
604.83	1797.35
605.18	1790.74
605.53	1783.24
605.87	1775.11
606.22	1767.89
606.57	1760.10
606.92	1752.47
607.27	1745.54
607.62	1738.61
607.96	1731.65
608.31	1725.28
608.66	1717.69
609.01	1710.34
609.36	1702.91
609.70	1695.04
610.05	1686.96
610.40	1679.10
610.75	1670.87
611.10	1663.25
611.44	1654.85
611.79	1646.87
612.14	1638.16
612.49	1628.79
612.83	1620.18
613.18	1611.93
613.53	1603.79
613.88	1595.19
614.22	1586.94
614.57	1578.00
614.92	1569.80
615.27	1562.29
615.61	1553.89
615.96	1545.85
616.31	1538.07
616.65	1530.48
617.00	1522.71
617.35	1514.88
617.70	1506.64
618.04	1498.05
618.39	1489.57
618.74	1482.04
619.08	1473.69
619.43	1466.14
619.78	1459.03
620.12	1451.82
620.47	1444.26
620.82	1435.80
621.16	1428.16
621.51	1420.34
621.85	1412.71
622.20	1404.13
622.55	1395.40
622.89	1387.39
623.24	1379.58
623.59	1371.87
623.93	1364.11
624.28	1356.68
624.62	1349.12
624.97	1341.78
625.32	1334.71
625.66	1327.56
626.01	1320.22
626.35	1312.77
626.70	1304.68
627.04	1296.88
627.39	1288.90
627.73	1281.23
628.08	1274.28
628.43	1267.05
628.77	1259.81
629.12	1252.21
629.46	1244.95
629.81	1237.39
630.15	1229.95
630.50	1222.47
630.84	1214.37
631.19	1206.37
631.53	1198.69
631.88	1191.15
632.22	1183.51
632.57	1176.14
632.91	1168.51
633.26	1160.98
633.60	1153.46
633.95	1146.17
634.29	1139.00
634.64	1132.17
634.98	1124.82
635.32	1117.70
635.67	1110.86
636.01	1103.97
636.36	1097.13
636.70	1090.42
637.05	1083.74
637.39	1077.26
637.73	1070.71
638.08	1064.73
638.42	1058.62
638.77	1052.18
639.11	1045.45
639.45	1038.93
639.80	1032.21
640.14	1025.78
640.49	1019.24
640.83	1012.74
641.17	1006.56
641.52	1000.24
641.86	993.67
642.20	987.78
642.55	981.30
642.89	974.87
643.23	968.24
643.58	962.32
643.92	956.16
644.26	950.21
644.61	943.98
644.95	937.89
645.29	931.32
645.64	924.57
645.98	918.15
646.32	912.08
646.66	905.94
647.01	900.11
647.35	894.36
647.69	888.37
648.04	882.80
648.38	877.00
648.72	871.12
649.06	865.12
649.41	859.21
649.75	853.25
650.09	847.24
650.43	841.48
650.78	835.32
651.12	829.35
651.46	823.50
651.80	817.84
652.14	812.40
652.49	806.99
652.83	801.77
653.17	796.23
653.51	790.71
653.85	785.30
654.20	779.77
654.54	773.73
654.88	767.99
655.22	762.08
655.56	756.29
655.90	750.63
656.25	745.40
656.59	740.00
656.93	734.88
657.27	729.74
657.61	724.33
657.95	719.16
658.29	714.03
658.64	708.72
658.98	703.33
659.32	697.81
659.66	692.56
660.00	687.32
660.34	682.26
660.68	677.26
661.02	672.16
661.36	667.34
661.70	662.89
662.05	658.46
662.39	654.12
662.73	649.69
663.07	645.29
663.41	640.77
663.75	636.25
664.09	631.63
664.43	627.20
664.77	623.02
665.11	618.84
665.45	614.67
665.79	610.66
666.13	606.57
666.47	602.49
666.81	598.33
667.15	594.14
667.49	590.21
667.83	586.26
668.17	582.31
668.51	578.27
668.85	574.13
669.19	570.19
669.53	566.33
669.87	562.47
670.21	558.72
670.55	555.03
670.89	551.60
671.23	548.13
671.57	544.53
671.91	541.02
672.25	537.38
672.58	533.84
672.92	530.33
673.26	527.09
673.60	523.90
673.94	520.81
674.28	517.81
674.62	514.82
674.96	511.72
675.30	508.84
675.64	505.88
675.97	503.08
676.31	500.24
676.65	497.29
676.99	494.47
677.33	491.52
677.67	488.68
678.01	485.63
678.34	482.68
678.68	479.77
679.02	476.87
679.36	474.11
679.70	471.35
680.04	468.58
680.37	465.75
680.71	462.91
681.05	460.22
681.39	457.44
681.73	454.75
682.06	452.26
682.40	449.69
682.74	447.12
683.08	444.47
683.42	441.86
683.75	439.34
684.09	436.78
684.43	434.34
684.77	431.88
685.10	429.44
685.44	427.08
685.78	424.79
686.12	422.49
686.45	420.13
686.79	417.80
687.13	415.54
687.46	413.32
687.80	411.13
688.14	408.83
688.48	406.79
688.81	404.56
689.15	402.34
689.49	400.10
689.82	397.99
690.16	395.89
690.50	393.87
690.83	391.92
691.17	389.86
691.51	387.92
691.84	386.02
692.18	384.14
692.52	382.16
692.85	380.22
693.19	378.29
693.52	376.47
693.86	374.62
694.20	372.81
694.53	371.00
694.87	369.12
695.21	367.32
695.54	365.48
695.88	363.66
696.21	361.93
696.55	360.24
696.88	358.50
697.22	356.82
697.56	355.20
697.89	353.51
698.23	351.97
698.56	350.34
698.90	348.79
699.23	347.18
699.57	345.60
699.90	344.01
700.24	342.49
700.58	340.94
700.91	339.50
701.25	338.09
701.58	336.72
701.92	335.34
702.25	333.99
702.59	332.60
702.92	331.33
703.26	329.99
703.59	328.73
703.93	327.56
704.26	326.34
704.60	325.03
704.93	323.77
705.26	322.48
705.60	321.24
705.93	319.98
706.27	318.87
706.60	317.81
706.94	316.73
707.27	315.61
707.61	314.51
707.94	313.39
708.27	312.24
708.61	311.12
708.94	310.08
709.28	309.07
709.61	308.05
709.94	307.05
710.28	306.02
710.61	305.02
710.95	303.93
711.28	302.97
711.61	302.02
711.95	301.05
712.28	300.10
712.61	299.14
712.95	298.19
713.28	297.26
713.61	296.37
713.95	295.45
714.28	294.56
714.61	293.68
714.95	292.90
715.28	292.05
715.61	291.15
715.95	290.28
716.28	289.39
716.61	288.53
716.95	287.68
717.28	286.89
717.61	286.02
717.94	285.23
718.28	284.41
718.61	283.67
718.94	282.95
719.27	282.25
719.61	281.58
719.94	280.89
720.27	280.15
720.60	279.42
720.94	278.76
721.27	278.17
721.60	277.57
721.93	276.89
722.27	276.28
722.60	275.71
722.93	275.12
723.26	274.57
723.59	273.98
723.93	273.40
724.26	272.81
724.59	272.30
724.92	271.73
725.25	271.18
725.59	270.61
725.92	270.03
726.25	269.48
726.58	268.95
726.91	268.43
727.24	267.97
727.57	267.45
727.91	266.91
728.24	266.37
728.57	265.88
728.90	265.40
729.23	264.91
729.56	264.47
729.89	263.99
730.22	263.48
730.55	263.00
730.89	262.50
731.22	262.06
731.55	261.60
731.88	261.17
732.21	260.77
732.54	260.35
732.87	259.95
733.20	259.50
733.53	259.12
733.86	258.76
734.19	258.35
734.52	257.98
734.85	257.67
735.18	257.29
735.51	256.91
735.84	256.55
736.17	256.16
736.50	255.75
736.83	255.53
737.16	255.21
737.49	254.91
737.82	254.57
738.15	254.22
738.48	253.89
738.81	253.55
739.14	253.20
739.47	252.88
739.80	252.58
740.13	252.31
740.46	251.99
740.79	251.66
741.12	251.35
741.45	251.06
741.78	250.69
742.11	250.40
742.44	250.09
742.77	249.82
743.10	249.56
743.43	249.24
743.75	248.85
744.08	248.72
744.41	248.45
744.74	248.20
745.07	247.92
745.40	247.67
745.73	247.42
746.06	247.18
746.39	246.90
746.71	246.65
747.04	246.40
747.37	246.13
747.70	245.89
748.03	245.64
748.36	245.43
748.68	245.18
749.01	244.93
749.34	244.69
749.67	244.45
750.00	244.25
750.33	244.13
750.65	243.94
750.98	243.56
751.31	243.33
751.64	243.12
751.97	242.97
752.29	242.78
752.62	242.50
752.95	242.29
753.28	242.10
753.60	241.86
753.93	241.66
754.26	241.47
754.59	241.26
754.91	241.05
755.24	240.83
755.57	240.68
755.90	240.49
756.22	240.30
756.55	240.09
756.88	239.85
757.20	239.58
757.53	239.37
757.86	239.21
758.19	239.06
758.51	238.88
758.84	238.66
759.17	238.45
759.49	238.32
759.82	238.17
760.15	237.99
760.47	237.81
760.80	237.62
761.13	237.44
761.45	237.27
761.78	237.13
762.11	236.98
762.43	236.81
762.76	236.64
763.08	236.51
763.41	236.37
763.74	236.23
764.06	236.10
764.39	235.92
764.71	235.73
765.04	235.55
765.37	235.40
765.69	235.24
766.02	235.10
766.34	234.98
766.67	234.83
767.00	234.74
767.32	234.68
767.65	234.62
767.97	234.51
768.30	234.37
768.62	234.22
768.95	234.10
769.27	233.97
769.60	233.87
769.92	233.74
770.25	233.59
770.57	233.45
770.90	233.32
771.22	233.26
771.55	233.19
771.87	233.09
772.20	233.01
772.52	233.03
772.85	233.01
773.17	232.89
773.50	232.78
773.82	232.64
774.15	232.53
774.47	232.38
774.80	232.30
775.12	232.21
775.45	232.10
775.77	231.99
776.09	231.93
776.42	231.85
776.74	231.79
777.07	231.71
777.39	231.65
777.72	231.58
778.04	231.50
778.36	231.41
778.69	231.36
779.01	231.32
779.33	231.16
779.66	230.99
779.98	230.92
780.31	230.88
780.63	230.89
780.95	230.85
781.28	230.79
781.60	230.72
781.92	230.70
782.25	230.66
782.57	230.63
782.89	230.58
783.22	230.53
783.54	230.45
783.86	230.42
784.19	230.37
784.51	230.32
784.83	230.24
785.16	230.22
785.48	230.13
785.80	230.04
786.12	229.98
786.45	229.95
786.77	229.92
787.09	229.87
