SpectraSuite Data File
++++++++++++++++++++++++++++++++++++
Date: Fri Feb 01 16:41:38 EST 2013
User: group
Dark Spectrum Present: No
Reference Spectrum Present: No
Number of Sampled Component Spectra: 1
Spectrometers: USB2E7196
Integration Time (usec): 35000 (USB2E7196)
Spectra Averaged: 100 (USB2E7196)
Boxcar Smoothing: 10 (USB2E7196)
Correct for Electrical Dark: No (USB2E7196)
Strobe/Lamp Enabled: No (USB2E7196)
Correct for Detector Non-linearity: No (USB2E7196)
Correct for Stray Light: No (USB2E7196)
Number of Pixels in Processed Spectrum: 2048
>>>>>Begin Processed Spectral Data<<<<<
339.09	0.00
339.48	213.66
339.86	215.65
340.24	216.66
340.63	218.33
341.01	221.15
341.39	220.55
341.78	221.70
342.16	223.17
342.54	223.36
342.93	212.18
343.31	222.92
343.69	223.46
344.07	223.92
344.46	224.35
344.84	224.71
345.22	224.92
345.60	225.18
345.99	225.37
346.37	225.47
346.75	225.60
347.13	225.67
347.52	225.72
347.90	225.79
348.28	225.84
348.66	225.85
349.05	225.86
349.43	225.88
349.81	225.90
350.19	225.93
350.57	225.99
350.96	226.02
351.34	226.08
351.72	226.15
352.10	226.21
352.48	226.25
352.87	226.30
353.25	226.36
353.63	226.43
354.01	226.45
354.39	226.58
354.77	226.62
355.15	226.72
355.54	226.77
355.92	226.78
356.30	226.83
356.68	226.95
357.06	226.99
357.44	227.07
357.82	227.13
358.20	227.23
358.58	227.28
358.97	227.33
359.35	227.39
359.73	227.46
360.11	227.52
360.49	227.59
360.87	227.65
361.25	227.71
361.63	227.79
362.01	227.88
362.39	227.89
362.77	227.93
363.15	227.97
363.53	228.00
363.91	228.05
364.29	228.07
364.67	228.02
365.05	228.07
365.43	228.10
365.81	228.12
366.19	228.15
366.57	228.22
366.95	228.22
367.33	228.19
367.71	228.21
368.09	228.23
368.47	228.24
368.85	228.21
369.23	228.17
369.61	228.09
369.99	228.07
370.37	228.10
370.75	228.11
371.13	228.03
371.51	227.96
371.89	227.93
372.27	227.90
372.65	227.86
373.03	227.81
373.41	227.74
373.78	227.71
374.16	227.60
374.54	227.50
374.92	227.43
375.30	227.41
375.68	227.32
376.06	227.25
376.44	227.16
376.82	227.11
377.19	227.08
377.57	227.03
377.95	226.95
378.33	226.84
378.71	226.77
379.09	226.74
379.47	226.73
379.84	226.64
380.22	226.56
380.60	226.49
380.98	226.41
381.36	226.35
381.73	226.25
382.11	226.21
382.49	226.17
382.87	226.09
383.25	226.03
383.62	226.08
384.00	226.00
384.38	225.93
384.76	225.88
385.13	225.86
385.51	225.81
385.89	225.76
386.27	225.72
386.64	225.65
387.02	225.59
387.40	225.56
387.78	225.49
388.15	225.49
388.53	225.42
388.91	225.43
389.29	225.39
389.66	225.39
390.04	225.34
390.42	225.34
390.79	225.36
391.17	225.33
391.55	225.24
391.92	225.25
392.30	225.27
392.68	225.26
393.05	225.24
393.43	225.25
393.81	225.27
394.18	225.24
394.56	225.24
394.94	225.25
395.31	225.25
395.69	225.31
396.06	225.31
396.44	225.36
396.82	225.35
397.19	225.39
397.57	225.41
397.95	225.45
398.32	225.45
398.70	225.49
399.07	225.55
399.45	225.61
399.82	225.67
400.20	225.69
400.58	225.77
400.95	225.78
401.33	225.88
401.70	226.01
402.08	226.11
402.45	226.26
402.83	226.35
403.20	226.43
403.58	226.53
403.95	226.65
404.33	226.78
404.71	226.89
405.08	227.11
405.46	227.24
405.83	227.36
406.21	227.52
406.58	227.70
406.96	227.83
407.33	227.97
407.70	228.16
408.08	228.45
408.45	228.68
408.83	228.92
409.20	229.13
409.58	229.33
409.95	229.59
410.33	229.82
410.70	230.09
411.08	230.39
411.45	230.68
411.82	230.99
412.20	231.37
412.57	231.81
412.95	232.07
413.32	232.48
413.69	232.92
414.07	233.34
414.44	233.78
414.82	234.27
415.19	234.82
415.56	235.37
415.94	235.89
416.31	236.52
416.68	237.12
417.06	237.84
417.43	238.49
417.81	239.25
418.18	240.02
418.55	240.82
418.93	241.70
419.30	242.60
419.67	243.54
420.04	244.47
420.42	245.44
420.79	246.61
421.16	247.73
421.54	248.90
421.91	250.12
422.28	251.36
422.66	252.70
423.03	253.98
423.40	255.31
423.77	256.72
424.15	258.11
424.52	259.58
424.89	261.16
425.26	262.70
425.64	264.13
426.01	265.73
426.38	267.40
426.75	269.02
427.13	270.76
427.50	272.55
427.87	274.39
428.24	276.27
428.61	277.99
428.99	279.93
429.36	282.03
429.73	284.09
430.10	286.10
430.47	288.15
430.85	290.23
431.22	292.41
431.59	294.74
431.96	297.01
432.33	299.47
432.70	301.78
433.08	304.55
433.45	307.12
433.82	309.65
434.19	312.50
434.56	315.34
434.93	317.92
435.30	320.47
435.68	323.36
436.05	326.13
436.42	328.92
436.79	331.40
437.16	334.05
437.53	336.85
437.90	339.60
438.27	342.32
438.64	345.13
439.01	347.73
439.38	349.97
439.75	352.07
440.13	354.55
440.50	356.89
440.87	358.72
441.24	360.67
441.61	362.83
441.98	364.33
442.35	366.08
442.72	367.92
443.09	369.75
443.46	370.68
443.83	371.31
444.20	371.82
444.57	372.67
444.94	372.98
445.31	373.31
445.68	373.77
446.05	373.86
446.42	373.49
446.79	373.11
447.16	372.68
447.53	372.39
447.90	371.28
448.27	370.14
448.64	368.61
449.01	367.51
449.37	365.57
449.74	363.67
450.11	361.42
450.48	359.04
450.85	356.54
451.22	354.42
451.59	352.39
451.96	350.44
452.33	347.86
452.70	345.54
453.07	342.74
453.43	339.82
453.80	337.06
454.17	334.39
454.54	331.83
454.91	329.14
455.28	326.52
455.65	324.02
456.02	321.63
456.38	319.50
456.75	316.84
457.12	314.61
457.49	312.40
457.86	310.27
458.23	308.43
458.59	306.38
458.96	304.32
459.33	302.51
459.70	300.68
460.07	299.17
460.43	297.46
460.80	295.85
461.17	294.40
461.54	292.91
461.91	291.48
462.27	290.06
462.64	288.80
463.01	287.40
463.38	286.11
463.74	284.78
464.11	283.60
464.48	282.60
464.85	281.52
465.21	280.67
465.58	279.81
465.95	278.67
466.32	277.80
466.68	276.89
467.05	275.96
467.42	275.05
467.78	274.15
468.15	273.27
468.52	272.63
468.88	271.77
469.25	271.02
469.62	270.43
469.98	269.73
470.35	269.10
470.72	268.51
471.08	267.87
471.45	267.30
471.82	266.79
472.18	266.23
472.55	265.79
472.92	265.30
473.28	264.80
473.65	264.40
474.02	263.97
474.38	263.64
474.75	263.36
475.11	263.03
475.48	262.81
475.85	262.59
476.21	262.37
476.58	262.23
476.94	262.10
477.31	261.92
477.67	261.84
478.04	261.74
478.41	261.70
478.77	261.76
479.14	261.72
479.50	261.72
479.87	261.73
480.23	261.83
480.60	261.88
480.96	262.01
481.33	262.21
481.69	262.40
482.06	262.58
482.42	262.78
482.79	263.07
483.15	263.36
483.52	263.74
483.88	264.06
484.25	264.40
484.61	264.85
484.98	265.32
485.34	265.84
485.71	266.42
486.07	267.01
486.44	267.57
486.80	268.26
487.17	268.99
487.53	269.82
487.90	270.68
488.26	271.60
488.62	272.60
488.99	273.56
489.35	274.61
489.72	275.77
490.08	276.99
490.44	278.24
490.81	279.59
491.17	280.96
491.54	282.46
491.90	284.05
492.26	285.70
492.63	287.44
492.99	289.25
493.36	291.18
493.72	293.30
494.08	295.45
494.45	297.70
494.81	300.09
495.17	302.56
495.54	305.12
495.90	307.87
496.26	310.71
496.63	313.69
496.99	316.80
497.35	320.06
497.72	323.49
498.08	327.01
498.44	330.68
498.80	334.58
499.17	338.63
499.53	342.80
499.89	347.17
500.26	351.69
500.62	356.35
500.98	361.26
501.34	366.34
501.71	371.64
502.07	377.14
502.43	382.73
502.79	388.55
503.16	394.59
503.52	400.86
503.88	407.22
504.24	413.85
504.60	420.75
504.97	427.90
505.33	435.21
505.69	442.91
506.05	450.70
506.41	458.60
506.78	466.74
507.14	475.18
507.50	483.88
507.86	492.88
508.22	502.07
508.59	511.37
508.95	520.94
509.31	530.74
509.67	540.78
510.03	551.01
510.39	561.54
510.75	572.33
511.12	583.18
511.48	594.44
511.84	605.86
512.20	617.20
512.56	629.11
512.92	641.23
513.28	653.60
513.64	666.05
514.00	678.68
514.37	691.57
514.73	704.59
515.09	717.53
515.45	730.70
515.81	744.24
516.17	758.12
516.53	772.17
516.89	786.26
517.25	800.40
517.61	814.75
517.97	829.08
518.33	843.47
518.69	858.18
519.05	873.04
519.41	888.08
519.77	903.67
520.13	918.96
520.49	934.31
520.85	949.45
521.21	964.97
521.57	981.13
521.93	996.79
522.29	1012.98
522.65	1029.19
523.01	1045.35
523.37	1061.33
523.73	1077.35
524.09	1093.24
524.45	1109.31
524.81	1125.74
525.17	1142.50
525.53	1159.26
525.89	1175.95
526.25	1192.63
526.61	1208.94
526.97	1225.61
527.33	1241.89
527.68	1258.38
528.04	1274.68
528.40	1291.18
528.76	1308.26
529.12	1324.68
529.48	1341.43
529.84	1357.32
530.20	1373.82
530.56	1390.61
530.91	1407.82
531.27	1424.53
531.63	1440.98
531.99	1457.55
532.35	1473.52
532.71	1489.23
533.07	1505.43
533.42	1521.23
533.78	1537.24
534.14	1553.32
534.50	1568.49
534.86	1584.19
535.21	1599.34
535.57	1615.01
535.93	1630.31
536.29	1644.81
536.65	1659.62
537.00	1674.06
537.36	1689.29
537.72	1703.63
538.08	1717.86
538.44	1731.39
538.79	1744.94
539.15	1758.19
539.51	1771.58
539.87	1785.57
540.22	1799.00
540.58	1812.32
540.94	1825.20
541.29	1837.63
541.65	1850.00
542.01	1862.88
542.37	1875.08
542.72	1887.17
543.08	1898.92
543.44	1911.27
543.79	1922.38
544.15	1933.28
544.51	1944.82
544.87	1955.44
545.22	1966.07
545.58	1976.19
545.94	1985.93
546.29	1995.79
546.65	2005.78
547.01	2015.08
547.36	2023.92
547.72	2032.39
548.07	2040.48
548.43	2048.80
548.79	2056.76
549.14	2064.55
549.50	2071.93
549.86	2079.47
550.21	2086.69
550.57	2093.77
550.92	2100.19
551.28	2107.18
551.64	2114.02
551.99	2120.46
552.35	2126.70
552.70	2132.86
553.06	2138.98
553.41	2145.37
553.77	2151.19
554.13	2157.10
554.48	2163.06
554.84	2168.48
555.19	2173.75
555.55	2178.81
555.90	2183.18
556.26	2188.16
556.61	2192.75
556.97	2197.29
557.32	2201.44
557.68	2205.60
558.03	2209.71
558.39	2213.33
558.74	2217.88
559.10	2221.92
559.45	2225.67
559.81	2230.00
560.16	2233.85
560.52	2236.92
560.87	2240.20
561.23	2242.96
561.58	2245.78
561.94	2248.38
562.29	2250.58
562.64	2253.46
563.00	2256.01
563.35	2259.53
563.71	2262.81
564.06	2265.87
564.42	2268.63
564.77	2271.31
565.12	2273.77
565.48	2275.85
565.83	2277.98
566.19	2279.42
566.54	2280.25
566.89	2281.49
567.25	2282.15
567.60	2283.41
567.96	2285.40
568.31	2286.18
568.66	2287.42
569.02	2288.17
569.37	2288.71
569.72	2289.71
570.08	2289.98
570.43	2290.13
570.78	2289.93
571.14	2288.47
571.49	2287.22
571.84	2286.87
572.20	2285.73
572.55	2284.70
572.90	2283.07
573.26	2281.69
573.61	2279.93
573.96	2278.44
574.31	2275.51
574.67	2272.62
575.02	2269.18
575.37	2265.60
575.72	2262.12
576.08	2258.67
576.43	2255.23
576.78	2251.58
577.13	2248.41
577.49	2245.05
577.84	2241.74
578.19	2237.62
578.54	2234.03
578.90	2230.06
579.25	2224.67
579.60	2219.86
579.95	2214.97
580.30	2210.08
580.66	2204.91
581.01	2200.12
581.36	2195.14
581.71	2191.11
582.06	2186.80
582.42	2182.43
582.77	2177.42
583.12	2172.96
583.47	2168.56
583.82	2163.95
584.17	2158.85
584.53	2153.38
584.88	2147.99
585.23	2142.22
585.58	2136.97
585.93	2131.49
586.28	2126.52
586.63	2121.59
586.98	2116.63
587.34	2111.97
587.69	2107.16
588.04	2102.10
588.39	2096.60
588.74	2090.26
589.09	2084.03
589.44	2077.36
589.79	2071.13
590.14	2065.49
590.49	2058.80
590.84	2052.40
591.19	2046.47
591.54	2040.07
591.89	2032.99
592.25	2026.38
592.60	2019.30
592.95	2012.04
593.30	2004.83
593.65	1997.40
594.00	1990.30
594.35	1983.04
594.70	1974.89
595.05	1967.87
595.40	1960.76
595.75	1953.18
596.10	1947.29
596.45	1940.80
596.80	1934.69
597.15	1928.46
597.50	1921.70
597.85	1915.38
598.19	1908.82
598.54	1901.86
598.89	1895.29
599.24	1889.43
599.59	1882.89
599.94	1876.66
600.29	1870.26
600.64	1863.77
600.99	1856.54
601.34	1849.94
601.69	1843.06
602.04	1836.42
602.39	1829.19
602.74	1822.35
603.08	1815.87
603.43	1809.00
603.78	1801.77
604.13	1794.45
604.48	1787.17
604.83	1780.26
605.18	1773.65
605.53	1765.73
605.87	1757.64
606.22	1750.29
606.57	1742.37
606.92	1734.86
607.27	1727.86
607.62	1720.98
607.96	1713.73
608.31	1707.25
608.66	1699.69
609.01	1692.15
609.36	1684.65
609.70	1676.60
610.05	1668.57
610.40	1660.86
610.75	1652.61
611.10	1644.88
611.44	1636.58
611.79	1628.47
612.14	1619.85
612.49	1610.52
612.83	1602.21
613.18	1594.08
613.53	1586.16
613.88	1577.68
614.22	1569.48
614.57	1560.72
614.92	1552.77
615.27	1545.38
615.61	1537.13
615.96	1529.07
616.31	1521.47
616.65	1514.25
617.00	1506.84
617.35	1499.21
617.70	1491.02
618.04	1482.66
618.39	1474.52
618.74	1467.05
619.08	1458.84
619.43	1451.20
619.78	1444.30
620.12	1437.28
620.47	1429.79
620.82	1421.61
621.16	1414.12
621.51	1406.58
621.85	1399.05
622.20	1390.61
622.55	1382.21
622.89	1374.31
623.24	1366.63
623.59	1359.28
623.93	1351.63
624.28	1344.28
624.62	1336.92
624.97	1329.74
625.32	1322.85
625.66	1315.82
626.01	1308.65
626.35	1301.39
626.70	1293.58
627.04	1285.87
627.39	1277.98
627.73	1270.61
628.08	1263.76
628.43	1256.61
628.77	1249.41
629.12	1241.89
629.46	1234.76
629.81	1227.32
630.15	1220.05
630.50	1212.70
630.84	1204.55
631.19	1196.63
631.53	1189.10
631.88	1181.39
632.22	1173.74
632.57	1166.42
632.91	1158.87
633.26	1151.45
633.60	1143.98
633.95	1136.84
634.29	1129.75
634.64	1123.02
634.98	1115.55
635.32	1108.42
635.67	1101.72
636.01	1094.97
636.36	1088.23
636.70	1081.52
637.05	1074.96
637.39	1068.48
637.73	1062.01
638.08	1056.09
638.42	1050.13
638.77	1043.79
639.11	1037.31
639.45	1030.97
639.80	1024.40
640.14	1018.08
640.49	1011.53
640.83	1005.15
641.17	999.01
641.52	992.72
641.86	986.19
642.20	980.53
642.55	974.13
642.89	967.72
643.23	961.05
643.58	955.28
643.92	949.21
644.26	943.28
644.61	937.27
644.95	931.36
645.29	924.84
645.64	918.14
645.98	911.69
646.32	905.64
646.66	899.56
647.01	893.75
647.35	888.00
647.69	882.16
648.04	876.66
648.38	870.89
648.72	864.96
649.06	859.06
649.41	853.16
649.75	847.32
650.09	841.38
650.43	835.68
650.78	829.57
651.12	823.65
651.46	817.85
651.80	812.18
652.14	806.72
652.49	801.32
652.83	796.11
653.17	790.63
653.51	785.09
653.85	779.69
654.20	774.10
654.54	768.10
654.88	762.36
655.22	756.46
655.56	750.78
655.90	745.29
656.25	739.98
656.59	734.57
656.93	729.42
657.27	724.21
657.61	718.72
657.95	713.61
658.29	708.53
658.64	703.15
658.98	697.70
659.32	692.22
659.66	687.05
660.00	681.82
660.34	676.83
660.68	671.94
661.02	666.85
661.36	662.11
661.70	657.55
662.05	653.21
662.39	649.02
662.73	644.50
663.07	640.13
663.41	635.74
663.75	631.37
664.09	626.84
664.43	622.52
664.77	618.48
665.11	614.26
665.45	610.12
665.79	606.13
666.13	602.12
666.47	597.97
666.81	593.82
667.15	589.63
667.49	585.65
667.83	581.72
668.17	577.88
668.51	573.91
668.85	569.94
669.19	566.12
669.53	562.27
669.87	558.47
670.21	554.72
670.55	551.07
670.89	547.52
671.23	544.10
671.57	540.50
671.91	536.98
672.25	533.46
672.58	529.92
672.92	526.54
673.26	523.34
673.60	520.21
673.94	517.07
674.28	514.15
674.62	511.25
674.96	508.20
675.30	505.27
675.64	502.29
675.97	499.46
676.31	496.61
676.65	493.63
676.99	490.94
677.33	488.08
677.67	485.24
678.01	482.25
678.34	479.24
678.68	476.39
679.02	473.51
679.36	470.72
679.70	467.96
680.04	465.22
680.37	462.37
680.71	459.61
681.05	457.00
681.39	454.29
681.73	451.62
682.06	449.15
682.40	446.59
682.74	444.07
683.08	441.54
683.42	438.91
683.75	436.45
684.09	433.85
684.43	431.40
684.77	428.98
685.10	426.62
685.44	424.34
685.78	422.04
686.12	419.82
686.45	417.51
686.79	415.29
687.13	413.06
687.46	410.88
687.80	408.67
688.14	406.46
688.48	404.39
688.81	402.14
689.15	399.91
689.49	397.72
689.82	395.60
690.16	393.54
690.50	391.53
690.83	389.57
691.17	387.55
691.51	385.67
691.84	383.79
692.18	381.87
692.52	379.94
692.85	378.02
693.19	376.15
693.52	374.34
693.86	372.50
694.20	370.70
694.53	368.94
694.87	367.08
695.21	365.25
695.54	363.42
695.88	361.74
696.21	360.06
696.55	358.43
696.88	356.70
697.22	355.02
697.56	353.39
697.89	351.74
698.23	350.18
698.56	348.54
698.90	347.00
699.23	345.40
699.57	343.80
699.90	342.24
700.24	340.65
700.58	339.11
700.91	337.61
701.25	336.20
701.58	334.79
701.92	333.46
702.25	332.10
702.59	330.75
702.92	329.40
703.26	328.07
703.59	326.73
703.93	325.57
704.26	324.34
704.60	323.08
704.93	321.80
705.26	320.54
705.60	319.33
705.93	318.12
706.27	317.09
706.60	316.01
706.94	314.95
707.27	313.86
707.61	312.77
707.94	311.71
708.27	310.58
708.61	309.48
708.94	308.45
709.28	307.46
709.61	306.52
709.94	305.56
710.28	304.55
710.61	303.60
710.95	302.51
711.28	301.58
711.61	300.60
711.95	299.70
712.28	298.77
712.61	297.83
712.95	296.88
713.28	295.95
713.61	295.04
713.95	294.16
714.28	293.31
714.61	292.46
714.95	291.58
715.28	290.74
715.61	289.93
715.95	289.10
716.28	288.24
716.61	287.40
716.95	286.57
717.28	285.82
717.61	285.02
717.94	284.31
718.28	283.51
718.61	282.78
718.94	282.05
719.27	281.37
719.61	280.73
719.94	280.07
720.27	279.36
720.60	278.71
720.94	278.05
721.27	277.40
721.60	276.80
721.93	276.25
722.27	275.66
722.60	275.08
722.93	274.46
723.26	273.91
723.59	273.33
723.93	272.80
724.26	272.22
724.59	271.66
724.92	271.10
725.25	270.61
725.59	270.08
725.92	269.59
726.25	269.07
726.58	268.57
726.91	268.12
727.24	267.65
727.57	267.17
727.91	266.70
728.24	266.26
728.57	265.80
728.90	265.35
729.23	264.84
729.56	264.42
729.89	263.99
730.22	263.50
730.55	263.05
730.89	262.65
731.22	262.20
731.55	261.81
731.88	261.38
732.21	260.94
732.54	260.52
732.87	260.09
733.20	259.69
733.53	259.28
733.86	258.88
734.19	258.46
734.52	258.13
734.85	257.82
735.18	257.43
735.51	257.09
735.84	256.69
736.17	256.36
736.50	255.94
736.83	255.73
737.16	255.41
737.49	255.07
737.82	254.69
738.15	254.39
738.48	254.04
738.81	253.76
739.14	253.44
739.47	253.15
739.80	252.88
740.13	252.59
740.46	252.28
740.79	251.95
741.12	251.67
741.45	251.34
741.78	250.97
742.11	250.67
742.44	250.34
742.77	250.10
743.10	249.82
743.43	249.52
743.75	249.14
744.08	248.99
744.41	248.72
744.74	248.46
745.07	248.16
745.40	247.93
745.73	247.71
746.06	247.44
746.39	247.14
746.71	246.83
747.04	246.56
747.37	246.31
747.70	246.07
748.03	245.83
748.36	245.60
748.68	245.36
749.01	245.10
749.34	244.91
749.67	244.65
750.00	244.43
750.33	244.29
750.65	244.03
750.98	243.70
751.31	243.49
751.64	243.27
751.97	243.11
752.29	242.88
752.62	242.61
752.95	242.42
753.28	242.22
753.60	242.02
753.93	241.88
754.26	241.63
754.59	241.41
754.91	241.18
755.24	240.97
755.57	240.79
755.90	240.63
756.22	240.38
756.55	240.19
756.88	240.00
757.20	239.77
757.53	239.61
757.86	239.46
758.19	239.31
758.51	239.15
758.84	238.95
759.17	238.76
759.49	238.58
759.82	238.43
760.15	238.32
760.47	238.17
760.80	237.99
761.13	237.90
761.45	237.76
761.78	237.63
762.11	237.49
762.43	237.37
762.76	237.23
763.08	237.11
763.41	236.95
763.74	236.77
764.06	236.65
764.39	236.53
764.71	236.34
765.04	236.21
765.37	236.07
765.69	235.91
766.02	235.80
766.34	235.68
766.67	235.48
767.00	235.35
767.32	235.25
767.65	235.17
767.97	235.04
768.30	234.93
768.62	234.81
768.95	234.66
769.27	234.52
769.60	234.40
769.92	234.28
770.25	234.17
770.57	234.08
770.90	233.96
771.22	233.83
771.55	233.75
771.87	233.64
772.20	233.54
772.52	233.57
772.85	233.57
773.17	233.43
773.50	233.38
773.82	233.29
774.15	233.20
774.47	233.05
774.80	232.94
775.12	232.85
775.45	232.76
775.77	232.73
776.09	232.70
776.42	232.61
776.74	232.58
777.07	232.54
777.39	232.48
777.72	232.39
778.04	232.36
778.36	232.32
778.69	232.25
779.01	232.16
779.33	231.98
779.66	231.85
779.98	231.86
780.31	231.81
780.63	231.77
780.95	231.70
781.28	231.64
781.60	231.57
781.92	231.51
782.25	231.46
782.57	231.39
782.89	231.31
783.22	231.27
783.54	231.18
783.86	231.12
784.19	231.04
784.51	231.02
784.83	230.97
785.16	230.88
785.48	230.83
785.80	230.80
786.12	230.79
786.45	230.71
786.77	230.65
787.09	230.59
