SpectraSuite Data File
++++++++++++++++++++++++++++++++++++
Date: Fri Feb 01 17:17:52 EST 2013
User: group
Dark Spectrum Present: No
Reference Spectrum Present: No
Number of Sampled Component Spectra: 1
Spectrometers: USB2E7196
Integration Time (usec): 35000 (USB2E7196)
Spectra Averaged: 100 (USB2E7196)
Boxcar Smoothing: 10 (USB2E7196)
Correct for Electrical Dark: No (USB2E7196)
Strobe/Lamp Enabled: No (USB2E7196)
Correct for Detector Non-linearity: No (USB2E7196)
Correct for Stray Light: No (USB2E7196)
Number of Pixels in Processed Spectrum: 2048
>>>>>Begin Processed Spectral Data<<<<<
339.09	0.00
339.48	213.44
339.86	214.46
340.24	216.17
340.63	217.55
341.01	219.87
341.39	219.92
341.78	222.14
342.16	222.15
342.54	223.44
342.93	211.65
343.31	222.36
343.69	222.88
344.07	223.33
344.46	223.75
344.84	224.14
345.22	224.39
345.60	224.62
345.99	224.79
346.37	224.95
346.75	225.06
347.13	225.15
347.52	225.18
347.90	225.28
348.28	225.33
348.66	225.34
349.05	225.37
349.43	225.43
349.81	225.50
350.19	225.52
350.57	225.59
350.96	225.66
351.34	225.74
351.72	225.80
352.10	225.92
352.48	226.00
352.87	226.01
353.25	226.08
353.63	226.16
354.01	226.20
354.39	226.26
354.77	226.33
355.15	226.38
355.54	226.45
355.92	226.48
356.30	226.49
356.68	226.62
357.06	226.65
357.44	226.67
357.82	226.71
358.20	226.79
358.58	226.82
358.97	226.87
359.35	226.90
359.73	227.00
360.11	227.04
360.49	227.06
360.87	227.15
361.25	227.19
361.63	227.27
362.01	227.31
362.39	227.31
362.77	227.32
363.15	227.35
363.53	227.39
363.91	227.39
364.29	227.45
364.67	227.35
365.05	227.40
365.43	227.39
365.81	227.42
366.19	227.46
366.57	227.51
366.95	227.51
367.33	227.49
367.71	227.48
368.09	227.50
368.47	227.48
368.85	227.42
369.23	227.42
369.61	227.33
369.99	227.34
370.37	227.36
370.75	227.35
371.13	227.29
371.51	227.22
371.89	227.18
372.27	227.13
372.65	227.10
373.03	227.01
373.41	226.97
373.78	226.91
374.16	226.80
374.54	226.72
374.92	226.67
375.30	226.64
375.68	226.57
376.06	226.47
376.44	226.40
376.82	226.32
377.19	226.26
377.57	226.21
377.95	226.10
378.33	226.04
378.71	225.96
379.09	225.89
379.47	225.84
379.84	225.79
380.22	225.72
380.60	225.65
380.98	225.57
381.36	225.53
381.73	225.44
382.11	225.38
382.49	225.33
382.87	225.26
383.25	225.17
383.62	225.24
384.00	225.19
384.38	225.17
384.76	225.19
385.13	225.17
385.51	225.14
385.89	225.09
386.27	225.04
386.64	224.99
387.02	224.99
387.40	224.97
387.78	224.90
388.15	224.91
388.53	224.87
388.91	224.88
389.29	224.84
389.66	224.83
390.04	224.80
390.42	224.78
390.79	224.77
391.17	224.80
391.55	224.64
391.92	224.63
392.30	224.66
392.68	224.62
393.05	224.63
393.43	224.59
393.81	224.62
394.18	224.59
394.56	224.63
394.94	224.65
395.31	224.65
395.69	224.71
396.06	224.70
396.44	224.75
396.82	224.77
397.19	224.87
397.57	224.90
397.95	224.94
398.32	224.97
398.70	225.05
399.07	225.09
399.45	225.16
399.82	225.22
400.20	225.24
400.58	225.28
400.95	225.27
401.33	225.39
401.70	225.52
402.08	225.64
402.45	225.71
402.83	225.79
403.20	225.91
403.58	226.02
403.95	226.13
404.33	226.26
404.71	226.37
405.08	226.52
405.46	226.67
405.83	226.82
406.21	226.96
406.58	227.10
406.96	227.26
407.33	227.43
407.70	227.61
408.08	227.89
408.45	228.15
408.83	228.42
409.20	228.66
409.58	228.82
409.95	229.06
410.33	229.32
410.70	229.58
411.08	229.91
411.45	230.17
411.82	230.50
412.20	230.82
412.57	231.25
412.95	231.56
413.32	231.97
413.69	232.41
414.07	232.84
414.44	233.33
414.82	233.82
415.19	234.39
415.56	234.95
415.94	235.50
416.31	236.12
416.68	236.75
417.06	237.46
417.43	238.20
417.81	239.00
418.18	239.77
418.55	240.64
418.93	241.49
419.30	242.46
419.67	243.41
420.04	244.41
420.42	245.41
420.79	246.62
421.16	247.82
421.54	249.03
421.91	250.28
422.28	251.58
422.66	252.94
423.03	254.28
423.40	255.68
423.77	257.16
424.15	258.64
424.52	260.18
424.89	261.84
425.26	263.42
425.64	264.92
426.01	266.60
426.38	268.30
426.75	270.01
427.13	271.78
427.50	273.64
427.87	275.61
428.24	277.53
428.61	279.31
428.99	281.33
429.36	283.49
429.73	285.59
430.10	287.66
430.47	289.84
430.85	292.04
431.22	294.36
431.59	296.75
431.96	299.04
432.33	301.54
432.70	304.00
433.08	306.89
433.45	309.60
433.82	312.28
434.19	315.26
434.56	318.22
434.93	320.94
435.30	323.65
435.68	326.58
436.05	329.50
436.42	332.43
436.79	334.96
437.16	337.72
437.53	340.66
437.90	343.58
438.27	346.35
438.64	349.22
439.01	351.85
439.38	354.16
439.75	356.46
440.13	359.06
440.50	361.40
440.87	363.41
441.24	365.44
441.61	367.63
441.98	369.16
442.35	370.95
442.72	372.87
443.09	374.74
443.46	375.77
443.83	376.42
444.20	376.94
444.57	377.83
444.94	378.18
445.31	378.58
445.68	378.96
446.05	379.03
446.42	378.66
446.79	378.23
447.16	377.81
447.53	377.52
447.90	376.40
448.27	375.26
448.64	373.59
449.01	372.41
449.37	370.44
449.74	368.53
450.11	366.25
450.48	363.77
450.85	361.18
451.22	359.01
451.59	356.94
451.96	354.98
452.33	352.30
452.70	349.89
453.07	346.93
453.43	343.94
453.80	341.11
454.17	338.39
454.54	335.82
454.91	333.03
455.28	330.22
455.65	327.62
456.02	325.13
456.38	322.91
456.75	320.15
457.12	317.86
457.49	315.56
457.86	313.32
458.23	311.35
458.59	309.24
458.96	307.10
459.33	305.16
459.70	303.16
460.07	301.64
460.43	299.83
460.80	298.15
461.17	296.68
461.54	295.11
461.91	293.64
462.27	292.13
462.64	290.80
463.01	289.41
463.38	288.07
463.74	286.67
464.11	285.44
464.48	284.41
464.85	283.22
465.21	282.32
465.58	281.39
465.95	280.33
466.32	279.42
466.68	278.48
467.05	277.58
467.42	276.68
467.78	275.70
468.15	274.82
468.52	274.18
468.88	273.27
469.25	272.49
469.62	271.85
469.98	271.16
470.35	270.55
470.72	269.95
471.08	269.30
471.45	268.73
471.82	268.18
472.18	267.56
472.55	267.15
472.92	266.61
473.28	266.13
473.65	265.66
474.02	265.21
474.38	264.84
474.75	264.53
475.11	264.19
475.48	263.94
475.85	263.70
476.21	263.46
476.58	263.34
476.94	263.20
477.31	263.04
477.67	262.90
478.04	262.77
478.41	262.69
478.77	262.74
479.14	262.69
479.50	262.72
479.87	262.82
480.23	262.91
480.60	262.96
480.96	263.06
481.33	263.26
481.69	263.46
482.06	263.69
482.42	263.85
482.79	264.10
483.15	264.41
483.52	264.81
483.88	265.16
484.25	265.55
484.61	266.03
484.98	266.46
485.34	267.04
485.71	267.64
486.07	268.25
486.44	268.80
486.80	269.51
487.17	270.24
487.53	271.03
487.90	271.86
488.26	272.88
488.62	273.87
488.99	274.82
489.35	275.82
489.72	276.92
490.08	278.10
490.44	279.37
490.81	280.68
491.17	282.03
491.54	283.51
491.90	284.98
492.26	286.59
492.63	288.36
492.99	290.09
493.36	291.96
493.72	294.04
494.08	296.14
494.45	298.37
494.81	300.74
495.17	303.15
495.54	305.66
495.90	308.26
496.26	311.03
496.63	313.99
496.99	317.15
497.35	320.37
497.72	323.76
498.08	327.21
498.44	330.82
498.80	334.71
499.17	338.74
499.53	342.97
499.89	347.31
500.26	351.72
500.62	356.32
500.98	361.24
501.34	366.26
501.71	371.53
502.07	376.89
502.43	382.44
502.79	388.21
503.16	394.23
503.52	400.47
503.88	406.81
504.24	413.36
504.60	420.17
504.97	427.23
505.33	434.47
505.69	442.18
506.05	449.88
506.41	457.69
506.78	465.66
507.14	473.95
507.50	482.55
507.86	491.40
508.22	500.51
508.59	509.61
508.95	519.02
509.31	528.68
509.67	538.66
510.03	548.76
510.39	559.12
510.75	569.79
511.12	580.58
511.48	591.71
511.84	602.99
512.20	614.34
512.56	626.09
512.92	638.06
513.28	650.21
513.64	662.47
514.00	674.95
514.37	687.65
514.73	700.48
515.09	713.28
515.45	726.43
515.81	739.84
516.17	753.45
516.53	767.40
516.89	781.33
517.25	795.26
517.61	809.47
517.97	823.64
518.33	837.84
518.69	852.26
519.05	866.89
519.41	881.71
519.77	896.81
520.13	911.95
520.49	927.12
520.85	942.19
521.21	957.61
521.57	973.53
521.93	988.97
522.29	1004.93
522.65	1020.86
523.01	1036.66
523.37	1052.28
523.73	1068.23
524.09	1083.87
524.45	1099.79
524.81	1116.07
525.17	1132.40
525.53	1149.02
525.89	1165.46
526.25	1181.95
526.61	1198.08
526.97	1214.52
527.33	1230.79
527.68	1247.01
528.04	1263.15
528.40	1279.37
528.76	1295.99
529.12	1312.24
529.48	1328.94
529.84	1344.67
530.20	1361.01
530.56	1377.64
530.91	1394.66
531.27	1411.18
531.63	1427.40
531.99	1443.65
532.35	1459.23
532.71	1474.93
533.07	1490.91
533.42	1506.66
533.78	1522.45
534.14	1538.50
534.50	1553.50
534.86	1569.04
535.21	1584.01
535.57	1599.63
535.93	1614.89
536.29	1629.51
536.65	1644.27
537.00	1658.65
537.36	1673.88
537.72	1688.08
538.08	1702.46
538.44	1716.01
538.79	1729.64
539.15	1743.02
539.51	1756.64
539.87	1770.87
540.22	1784.29
540.58	1797.77
540.94	1810.80
541.29	1823.54
541.65	1835.95
542.01	1849.02
542.37	1861.38
542.72	1873.70
543.08	1885.40
543.44	1897.75
543.79	1909.00
544.15	1920.04
544.51	1931.72
544.87	1942.53
545.22	1953.43
545.58	1963.56
545.94	1973.65
546.29	1983.49
546.65	1993.38
547.01	2002.71
547.36	2011.51
547.72	2020.23
548.07	2028.30
548.43	2036.50
548.79	2044.43
549.14	2052.20
549.50	2059.63
549.86	2067.31
550.21	2074.64
550.57	2081.84
550.92	2088.46
551.28	2095.59
551.64	2102.76
551.99	2109.35
552.35	2115.77
552.70	2122.09
553.06	2128.20
553.41	2134.56
553.77	2140.81
554.13	2147.10
554.48	2153.50
554.84	2159.38
555.19	2164.81
555.55	2170.24
555.90	2175.08
556.26	2180.44
556.61	2185.33
556.97	2190.07
557.32	2194.45
557.68	2198.92
558.03	2203.45
558.39	2207.49
558.74	2212.33
559.10	2216.54
559.45	2220.41
559.81	2224.89
560.16	2228.97
560.52	2232.54
560.87	2236.12
561.23	2239.00
561.58	2242.11
561.94	2244.79
562.29	2247.13
562.64	2250.28
563.00	2252.88
563.35	2256.66
563.71	2259.99
564.06	2263.32
564.42	2266.37
564.77	2269.23
565.12	2272.03
565.48	2274.45
565.83	2276.74
566.19	2278.52
566.54	2279.51
566.89	2281.12
567.25	2282.07
567.60	2283.64
567.96	2285.77
568.31	2286.98
568.66	2288.37
569.02	2289.50
569.37	2290.15
569.72	2291.53
570.08	2292.02
570.43	2292.47
570.78	2292.21
571.14	2291.06
571.49	2290.13
571.84	2290.10
572.20	2289.30
572.55	2288.32
572.90	2286.83
573.26	2285.71
573.61	2284.21
573.96	2283.02
574.31	2280.38
574.67	2277.80
575.02	2274.54
575.37	2271.30
575.72	2267.94
576.08	2264.97
576.43	2261.77
576.78	2258.58
577.13	2255.50
577.49	2252.51
577.84	2249.47
578.19	2245.92
578.54	2242.67
578.90	2238.84
579.25	2233.62
579.60	2229.10
579.95	2224.56
580.30	2219.90
580.66	2214.96
581.01	2210.21
581.36	2205.48
581.71	2201.61
582.06	2197.36
582.42	2193.26
582.77	2188.45
583.12	2184.29
583.47	2179.98
583.82	2175.45
584.17	2170.52
584.53	2165.44
584.88	2160.07
585.23	2154.61
585.58	2149.49
585.93	2144.15
586.28	2139.49
586.63	2134.75
586.98	2129.72
587.34	2125.11
587.69	2120.32
588.04	2115.42
588.39	2110.11
588.74	2103.78
589.09	2097.65
589.44	2091.19
589.79	2085.13
590.14	2079.49
590.49	2072.98
590.84	2066.63
591.19	2060.64
591.54	2054.19
591.89	2047.04
592.25	2040.55
592.60	2033.40
592.95	2026.12
593.30	2018.92
593.65	2011.47
594.00	2004.53
594.35	1997.42
594.70	1989.40
595.05	1982.69
595.40	1975.36
595.75	1967.91
596.10	1961.86
596.45	1955.38
596.80	1949.32
597.15	1942.86
597.50	1936.08
597.85	1929.67
598.19	1923.14
598.54	1916.39
598.89	1909.91
599.24	1903.99
599.59	1897.52
599.94	1891.38
600.29	1885.00
600.64	1878.39
600.99	1871.09
601.34	1864.39
601.69	1857.46
602.04	1850.83
602.39	1843.42
602.74	1836.69
603.08	1830.01
603.43	1823.33
603.78	1816.07
604.13	1808.76
604.48	1801.72
604.83	1794.85
605.18	1788.14
605.53	1780.28
605.87	1772.25
606.22	1764.99
606.57	1757.06
606.92	1749.49
607.27	1742.47
607.62	1735.65
607.96	1728.66
608.31	1722.22
608.66	1714.63
609.01	1707.15
609.36	1699.67
609.70	1691.60
610.05	1683.68
610.40	1676.06
610.75	1667.66
611.10	1660.05
611.44	1651.61
611.79	1643.39
612.14	1634.73
612.49	1625.32
612.83	1616.82
613.18	1608.46
613.53	1600.30
613.88	1591.86
614.22	1583.51
614.57	1574.71
614.92	1566.58
615.27	1559.02
615.61	1550.67
615.96	1542.57
616.31	1534.83
616.65	1527.30
617.00	1519.72
617.35	1511.90
617.70	1503.48
618.04	1495.16
618.39	1486.74
618.74	1479.22
619.08	1470.97
619.43	1463.32
619.78	1456.41
620.12	1449.23
620.47	1441.71
620.82	1433.39
621.16	1425.65
621.51	1417.96
621.85	1410.27
622.20	1401.64
622.55	1393.02
622.89	1385.00
623.24	1377.18
623.59	1369.64
623.93	1362.09
624.28	1354.79
624.62	1347.20
624.97	1339.93
625.32	1332.85
625.66	1325.72
626.01	1318.40
626.35	1310.97
626.70	1303.01
627.04	1295.15
627.39	1287.23
627.73	1279.74
628.08	1272.86
628.43	1265.67
628.77	1258.36
629.12	1250.62
629.46	1243.47
629.81	1235.90
630.15	1228.53
630.50	1221.16
630.84	1212.98
631.19	1204.81
631.53	1197.22
631.88	1189.47
632.22	1181.76
632.57	1174.47
632.91	1166.89
633.26	1159.41
633.60	1151.71
633.95	1144.51
634.29	1137.38
634.64	1130.62
634.98	1123.26
635.32	1116.04
635.67	1109.24
636.01	1102.43
636.36	1095.72
636.70	1089.02
637.05	1082.41
637.39	1075.90
637.73	1069.37
638.08	1063.37
638.42	1057.43
638.77	1050.88
639.11	1044.43
639.45	1038.04
639.80	1031.31
640.14	1024.90
640.49	1018.36
640.83	1012.19
641.17	1006.01
641.52	999.66
641.86	993.09
642.20	987.17
642.55	980.70
642.89	974.34
643.23	967.65
643.58	961.83
643.92	955.70
644.26	949.74
644.61	943.57
644.95	937.46
645.29	930.94
645.64	924.11
645.98	917.81
646.32	911.73
646.66	905.69
647.01	899.91
647.35	894.16
647.69	888.13
648.04	882.47
648.38	876.61
648.72	870.61
649.06	864.56
649.41	858.53
649.75	852.61
650.09	846.56
650.43	840.88
650.78	834.71
651.12	828.65
651.46	822.84
651.80	817.31
652.14	811.85
652.49	806.44
652.83	801.31
653.17	795.66
653.51	790.04
653.85	784.51
654.20	778.81
654.54	772.73
654.88	767.00
655.22	761.00
655.56	755.26
655.90	749.74
656.25	744.49
656.59	739.16
656.93	734.04
657.27	728.88
657.61	723.40
657.95	718.24
658.29	713.13
658.64	707.78
658.98	702.23
659.32	696.63
659.66	691.40
660.00	686.02
660.34	680.97
660.68	676.04
661.02	670.99
661.36	666.27
661.70	661.74
662.05	657.38
662.39	653.06
662.73	648.58
663.07	644.20
663.41	639.72
663.75	635.26
664.09	630.63
664.43	626.20
664.77	622.14
665.11	617.88
665.45	613.72
665.79	609.64
666.13	605.63
666.47	601.61
666.81	597.45
667.15	593.32
667.49	589.39
667.83	585.44
668.17	581.47
668.51	577.44
668.85	573.35
669.19	569.45
669.53	565.62
669.87	561.78
670.21	558.09
670.55	554.42
670.89	550.91
671.23	547.45
671.57	543.89
671.91	540.24
672.25	536.63
672.58	533.04
672.92	529.61
673.26	526.38
673.60	523.19
673.94	520.11
674.28	517.13
674.62	514.17
674.96	511.07
675.30	508.17
675.64	505.20
675.97	502.40
676.31	499.53
676.65	496.55
676.99	493.75
677.33	490.79
677.67	487.92
678.01	484.88
678.34	481.92
678.68	479.05
679.02	476.25
679.36	473.50
679.70	470.80
680.04	468.04
680.37	465.18
680.71	462.33
681.05	459.61
681.39	456.84
681.73	454.13
682.06	451.62
682.40	449.06
682.74	446.49
683.08	443.89
683.42	441.30
683.75	438.79
684.09	436.25
684.43	433.79
684.77	431.36
685.10	429.01
685.44	426.65
685.78	424.34
686.12	422.02
686.45	419.71
686.79	417.44
687.13	415.22
687.46	412.95
687.80	410.79
688.14	408.56
688.48	406.52
688.81	404.27
689.15	402.09
689.49	399.87
689.82	397.74
690.16	395.63
690.50	393.62
690.83	391.68
691.17	389.65
691.51	387.69
691.84	385.81
692.18	383.86
692.52	381.91
692.85	379.93
693.19	378.08
693.52	376.22
693.86	374.37
694.20	372.52
694.53	370.75
694.87	368.86
695.21	367.02
695.54	365.19
695.88	363.39
696.21	361.59
696.55	359.89
696.88	358.18
697.22	356.52
697.56	354.83
697.89	353.16
698.23	351.56
698.56	349.93
698.90	348.33
699.23	346.67
699.57	345.06
699.90	343.46
700.24	341.87
700.58	340.40
700.91	338.87
701.25	337.44
701.58	336.04
701.92	334.66
702.25	333.27
702.59	331.88
702.92	330.57
703.26	329.29
703.59	328.03
703.93	326.84
704.26	325.59
704.60	324.32
704.93	323.03
705.26	321.78
705.60	320.57
705.93	319.37
706.27	318.32
706.60	317.31
706.94	316.20
707.27	315.10
707.61	313.90
707.94	312.83
708.27	311.73
708.61	310.60
708.94	309.55
709.28	308.59
709.61	307.61
709.94	306.65
710.28	305.58
710.61	304.57
710.95	303.47
711.28	302.52
711.61	301.53
711.95	300.66
712.28	299.69
712.61	298.71
712.95	297.79
713.28	296.88
713.61	295.92
713.95	295.03
714.28	294.14
714.61	293.31
714.95	292.46
715.28	291.60
715.61	290.75
715.95	289.88
716.28	288.96
716.61	288.08
716.95	287.20
717.28	286.44
717.61	285.65
717.94	284.92
718.28	284.09
718.61	283.35
718.94	282.56
719.27	281.91
719.61	281.24
719.94	280.56
720.27	279.80
720.60	279.14
720.94	278.53
721.27	277.90
721.60	277.30
721.93	276.68
722.27	276.10
722.60	275.52
722.93	274.93
723.26	274.43
723.59	273.87
723.93	273.35
724.26	272.79
724.59	272.19
724.92	271.63
725.25	271.17
725.59	270.65
725.92	270.17
726.25	269.64
726.58	269.16
726.91	268.66
727.24	268.18
727.57	267.72
727.91	267.18
728.24	266.73
728.57	266.24
728.90	265.79
729.23	265.29
729.56	264.84
729.89	264.37
730.22	263.83
730.55	263.37
730.89	262.93
731.22	262.51
731.55	262.08
731.88	261.63
732.21	261.18
732.54	260.76
732.87	260.27
733.20	259.83
733.53	259.42
733.86	259.03
734.19	258.61
734.52	258.22
734.85	257.91
735.18	257.46
735.51	257.12
735.84	256.70
736.17	256.36
736.50	255.97
736.83	255.76
737.16	255.42
737.49	255.09
737.82	254.74
738.15	254.38
738.48	254.06
738.81	253.76
739.14	253.42
739.47	253.12
739.80	252.82
740.13	252.49
740.46	252.14
740.79	251.81
741.12	251.51
741.45	251.19
741.78	250.82
742.11	250.55
742.44	250.20
742.77	249.91
743.10	249.60
743.43	249.29
743.75	248.91
744.08	248.78
744.41	248.48
744.74	248.18
745.07	247.91
745.40	247.65
745.73	247.41
746.06	247.15
746.39	246.88
746.71	246.60
747.04	246.38
747.37	246.10
747.70	245.85
748.03	245.63
748.36	245.39
748.68	245.18
749.01	244.94
749.34	244.76
749.67	244.52
750.00	244.28
750.33	244.10
750.65	243.84
750.98	243.49
751.31	243.25
751.64	243.06
751.97	242.89
752.29	242.68
752.62	242.39
752.95	242.17
753.28	241.91
753.60	241.73
753.93	241.54
754.26	241.35
754.59	241.12
754.91	240.88
755.24	240.67
755.57	240.44
755.90	240.24
756.22	240.00
756.55	239.80
756.88	239.62
757.20	239.42
757.53	239.25
757.86	239.04
758.19	238.89
758.51	238.72
758.84	238.45
759.17	238.28
759.49	238.12
759.82	237.99
760.15	237.86
760.47	237.72
760.80	237.50
761.13	237.38
761.45	237.23
761.78	237.11
762.11	236.96
762.43	236.80
762.76	236.62
763.08	236.46
763.41	236.32
763.74	236.21
764.06	236.04
764.39	235.86
764.71	235.74
765.04	235.61
765.37	235.45
765.69	235.38
766.02	235.23
766.34	235.12
766.67	235.00
767.00	234.90
767.32	234.79
767.65	234.75
767.97	234.64
768.30	234.54
768.62	234.44
768.95	234.30
769.27	234.22
769.60	234.14
769.92	234.05
770.25	233.94
770.57	233.82
770.90	233.72
771.22	233.68
771.55	233.60
771.87	233.50
772.20	233.42
772.52	233.39
772.85	233.39
773.17	233.29
773.50	233.13
773.82	233.00
774.15	232.92
774.47	232.80
774.80	232.69
775.12	232.58
775.45	232.50
775.77	232.46
776.09	232.36
776.42	232.29
776.74	232.21
777.07	232.10
777.39	232.00
777.72	231.90
778.04	231.80
778.36	231.72
778.69	231.65
779.01	231.60
779.33	231.44
779.66	231.29
779.98	231.21
780.31	231.18
780.63	231.16
780.95	231.09
781.28	231.00
781.60	230.92
781.92	230.87
782.25	230.79
782.57	230.67
782.89	230.61
783.22	230.53
783.54	230.48
783.86	230.45
784.19	230.39
784.51	230.36
784.83	230.29
785.16	230.26
785.48	230.21
785.80	230.14
786.12	230.07
786.45	230.00
786.77	229.95
787.09	229.91
