SpectraSuite Data File
++++++++++++++++++++++++++++++++++++
Date: Fri Feb 01 15:46:31 EST 2013
User: group
Dark Spectrum Present: No
Reference Spectrum Present: No
Number of Sampled Component Spectra: 1
Spectrometers: USB2E7196
Integration Time (usec): 35000 (USB2E7196)
Spectra Averaged: 100 (USB2E7196)
Boxcar Smoothing: 10 (USB2E7196)
Correct for Electrical Dark: No (USB2E7196)
Strobe/Lamp Enabled: No (USB2E7196)
Correct for Detector Non-linearity: No (USB2E7196)
Correct for Stray Light: No (USB2E7196)
Number of Pixels in Processed Spectrum: 2048
>>>>>Begin Processed Spectral Data<<<<<
339.09	0.00
339.48	215.64
339.86	217.05
340.24	218.17
340.63	219.76
341.01	222.11
341.39	222.01
341.78	223.39
342.16	224.61
342.54	225.23
342.93	213.48
343.31	224.28
343.69	224.79
344.07	225.20
344.46	225.62
344.84	225.96
345.22	226.21
345.60	226.46
345.99	226.64
346.37	226.76
346.75	226.86
347.13	226.93
347.52	226.97
347.90	227.03
348.28	227.06
348.66	227.09
349.05	227.07
349.43	227.12
349.81	227.15
350.19	227.17
350.57	227.20
350.96	227.25
351.34	227.33
351.72	227.41
352.10	227.54
352.48	227.56
352.87	227.62
353.25	227.63
353.63	227.69
354.01	227.74
354.39	227.78
354.77	227.84
355.15	227.91
355.54	227.97
355.92	228.02
356.30	228.07
356.68	228.19
357.06	228.27
357.44	228.28
357.82	228.38
358.20	228.46
358.58	228.52
358.97	228.58
359.35	228.60
359.73	228.65
360.11	228.72
360.49	228.80
360.87	228.85
361.25	228.94
361.63	229.01
362.01	229.03
362.39	229.07
362.77	229.12
363.15	229.15
363.53	229.20
363.91	229.22
364.29	229.25
364.67	229.18
365.05	229.22
365.43	229.27
365.81	229.27
366.19	229.31
366.57	229.34
366.95	229.34
367.33	229.33
367.71	229.34
368.09	229.29
368.47	229.27
368.85	229.25
369.23	229.22
369.61	229.17
369.99	229.21
370.37	229.23
370.75	229.25
371.13	229.22
371.51	229.15
371.89	229.11
372.27	229.09
372.65	229.09
373.03	229.04
373.41	228.98
373.78	228.91
374.16	228.81
374.54	228.71
374.92	228.66
375.30	228.61
375.68	228.56
376.06	228.49
376.44	228.43
376.82	228.39
377.19	228.31
377.57	228.25
377.95	228.13
378.33	228.08
378.71	227.95
379.09	227.88
379.47	227.85
379.84	227.76
380.22	227.69
380.60	227.58
380.98	227.50
381.36	227.47
381.73	227.39
382.11	227.35
382.49	227.31
382.87	227.24
383.25	227.18
383.62	227.21
384.00	227.16
384.38	227.10
384.76	227.03
385.13	227.04
385.51	226.96
385.89	226.88
386.27	226.79
386.64	226.73
387.02	226.70
387.40	226.61
387.78	226.59
388.15	226.55
388.53	226.52
388.91	226.47
389.29	226.40
389.66	226.38
390.04	226.36
390.42	226.37
390.79	226.36
391.17	226.34
391.55	226.23
391.92	226.21
392.30	226.23
392.68	226.23
393.05	226.20
393.43	226.23
393.81	226.24
394.18	226.26
394.56	226.26
394.94	226.26
395.31	226.29
395.69	226.37
396.06	226.39
396.44	226.43
396.82	226.45
397.19	226.53
397.57	226.56
397.95	226.61
398.32	226.63
398.70	226.70
399.07	226.77
399.45	226.81
399.82	226.88
400.20	226.94
400.58	227.00
400.95	227.05
401.33	227.15
401.70	227.31
402.08	227.41
402.45	227.53
402.83	227.66
403.20	227.77
403.58	227.85
403.95	227.96
404.33	228.08
404.71	228.23
405.08	228.43
405.46	228.58
405.83	228.72
406.21	228.89
406.58	229.04
406.96	229.20
407.33	229.37
407.70	229.54
408.08	229.79
408.45	230.01
408.83	230.25
409.20	230.45
409.58	230.65
409.95	230.88
410.33	231.16
410.70	231.39
411.08	231.68
411.45	231.98
411.82	232.29
412.20	232.68
412.57	233.09
412.95	233.38
413.32	233.82
413.69	234.24
414.07	234.68
414.44	235.16
414.82	235.64
415.19	236.24
415.56	236.83
415.94	237.39
416.31	238.06
416.68	238.69
417.06	239.44
417.43	240.10
417.81	240.91
418.18	241.71
418.55	242.59
418.93	243.48
419.30	244.37
419.67	245.31
420.04	246.26
420.42	247.26
420.79	248.45
421.16	249.58
421.54	250.77
421.91	251.97
422.28	253.20
422.66	254.55
423.03	255.84
423.40	257.17
423.77	258.60
424.15	259.99
424.52	261.49
424.89	263.07
425.26	264.65
425.64	266.10
426.01	267.71
426.38	269.36
426.75	271.05
427.13	272.82
427.50	274.63
427.87	276.51
428.24	278.37
428.61	280.07
428.99	282.01
429.36	284.12
429.73	286.18
430.10	288.24
430.47	290.29
430.85	292.37
431.22	294.58
431.59	296.95
431.96	299.20
432.33	301.69
432.70	304.06
433.08	306.90
433.45	309.49
433.82	312.07
434.19	314.96
434.56	317.75
434.93	320.40
435.30	323.07
435.68	325.94
436.05	328.74
436.42	331.54
436.79	334.05
437.16	336.75
437.53	339.57
437.90	342.32
438.27	345.02
438.64	347.89
439.01	350.50
439.38	352.76
439.75	354.97
440.13	357.42
440.50	359.75
440.87	361.53
441.24	363.49
441.61	365.68
441.98	367.09
442.35	368.89
442.72	370.72
443.09	372.45
443.46	373.48
443.83	374.05
444.20	374.64
444.57	375.42
444.94	375.69
445.31	376.03
445.68	376.39
446.05	376.46
446.42	376.01
446.79	375.57
447.16	375.02
447.53	374.63
447.90	373.50
448.27	372.36
448.64	370.79
449.01	369.63
449.37	367.61
449.74	365.72
450.11	363.45
450.48	360.94
450.85	358.42
451.22	356.25
451.59	354.23
451.96	352.22
452.33	349.63
452.70	347.27
453.07	344.41
453.43	341.51
453.80	338.77
454.17	336.15
454.54	333.57
454.91	330.89
455.28	328.23
455.65	325.69
456.02	323.22
456.38	321.09
456.75	318.42
457.12	316.24
457.49	314.00
457.86	311.86
458.23	310.01
458.59	307.99
458.96	305.91
459.33	304.06
459.70	302.17
460.07	300.67
460.43	298.95
460.80	297.34
461.17	295.91
461.54	294.42
461.91	292.99
462.27	291.58
462.64	290.36
463.01	289.02
463.38	287.74
463.74	286.37
464.11	285.17
464.48	284.17
464.85	283.02
465.21	282.19
465.58	281.27
465.95	280.19
466.32	279.25
466.68	278.34
467.05	277.44
467.42	276.56
467.78	275.63
468.15	274.77
468.52	274.11
468.88	273.25
469.25	272.48
469.62	271.89
469.98	271.22
470.35	270.56
470.72	269.94
471.08	269.27
471.45	268.73
471.82	268.19
472.18	267.59
472.55	267.15
472.92	266.61
473.28	266.16
473.65	265.70
474.02	265.30
474.38	264.94
474.75	264.58
475.11	264.29
475.48	264.02
475.85	263.79
476.21	263.57
476.58	263.39
476.94	263.25
477.31	263.05
477.67	262.89
478.04	262.80
478.41	262.74
478.77	262.84
479.14	262.80
479.50	262.86
479.87	262.94
480.23	263.04
480.60	263.15
480.96	263.21
481.33	263.44
481.69	263.61
482.06	263.81
482.42	264.04
482.79	264.27
483.15	264.57
483.52	264.94
483.88	265.30
484.25	265.70
484.61	266.11
484.98	266.58
485.34	267.18
485.71	267.78
486.07	268.37
486.44	268.92
486.80	269.60
487.17	270.33
487.53	271.15
487.90	272.01
488.26	272.94
488.62	273.93
488.99	274.91
489.35	275.95
489.72	277.07
490.08	278.28
490.44	279.53
490.81	280.91
491.17	282.25
491.54	283.73
491.90	285.25
492.26	286.88
492.63	288.62
492.99	290.37
493.36	292.26
493.72	294.29
494.08	296.39
494.45	298.62
494.81	300.91
495.17	303.34
495.54	305.87
495.90	308.50
496.26	311.34
496.63	314.27
496.99	317.40
497.35	320.64
497.72	324.03
498.08	327.55
498.44	331.17
498.80	335.14
499.17	339.17
499.53	343.33
499.89	347.72
500.26	352.26
500.62	356.91
500.98	361.85
501.34	366.92
501.71	372.32
502.07	377.79
502.43	383.43
502.79	389.24
503.16	395.28
503.52	401.62
503.88	408.02
504.24	414.70
504.60	421.56
504.97	428.75
505.33	436.10
505.69	443.83
506.05	451.64
506.41	459.55
506.78	467.69
507.14	476.23
507.50	484.96
507.86	494.01
508.22	503.18
508.59	512.43
508.95	522.07
509.31	531.82
509.67	541.97
510.03	552.35
510.39	562.92
510.75	573.80
511.12	584.82
511.48	596.12
511.84	607.59
512.20	619.16
512.56	631.16
512.92	643.36
513.28	655.67
513.64	668.23
514.00	680.96
514.37	693.96
514.73	706.99
515.09	720.02
515.45	733.28
515.81	746.96
516.17	760.97
516.53	775.09
516.89	789.27
517.25	803.44
517.61	817.91
517.97	832.40
518.33	846.83
518.69	861.52
519.05	876.61
519.41	891.81
519.77	907.39
520.13	922.77
520.49	938.14
520.85	953.63
521.21	969.35
521.57	985.55
521.93	1001.40
522.29	1017.87
522.65	1034.15
523.01	1050.35
523.37	1066.39
523.73	1082.64
524.09	1098.72
524.45	1115.19
524.81	1131.91
525.17	1148.74
525.53	1165.64
525.89	1182.47
526.25	1199.28
526.61	1215.68
526.97	1232.35
527.33	1248.86
527.68	1265.42
528.04	1281.93
528.40	1298.48
528.76	1315.53
529.12	1332.06
529.48	1348.91
529.84	1364.84
530.20	1381.53
530.56	1398.59
530.91	1416.08
531.27	1432.75
531.63	1449.29
531.99	1465.74
532.35	1481.60
532.71	1497.51
533.07	1513.77
533.42	1529.71
533.78	1545.80
534.14	1561.98
534.50	1577.41
534.86	1593.17
535.21	1608.39
535.57	1624.27
535.93	1639.81
536.29	1654.62
536.65	1669.78
537.00	1684.58
537.36	1699.80
537.72	1714.25
538.08	1728.67
538.44	1742.31
538.79	1756.14
539.15	1769.78
539.51	1783.53
539.87	1797.96
540.22	1811.68
540.58	1825.46
540.94	1838.81
541.29	1851.78
541.65	1864.46
542.01	1877.63
542.37	1890.09
542.72	1902.41
543.08	1914.17
543.44	1926.53
543.79	1937.80
544.15	1948.79
544.51	1960.39
544.87	1971.50
545.22	1982.30
545.58	1992.42
545.94	2002.19
546.29	2012.12
546.65	2021.99
547.01	2031.13
547.36	2039.92
547.72	2048.41
548.07	2056.15
548.43	2064.33
548.79	2072.40
549.14	2079.99
549.50	2087.35
549.86	2094.91
550.21	2102.29
550.57	2109.53
550.92	2116.04
551.28	2123.05
551.64	2130.04
551.99	2136.42
552.35	2142.50
552.70	2148.65
553.06	2154.70
553.41	2161.08
553.77	2167.09
554.13	2173.28
554.48	2179.59
554.84	2184.90
555.19	2190.04
555.55	2195.22
555.90	2199.71
556.26	2204.47
556.61	2209.18
556.97	2213.39
557.32	2217.53
557.68	2221.67
558.03	2225.99
558.39	2229.74
558.74	2234.36
559.10	2238.26
559.45	2242.08
559.81	2246.40
560.16	2250.21
560.52	2253.39
560.87	2256.63
561.23	2259.32
561.58	2262.19
561.94	2264.58
562.29	2266.98
562.64	2269.74
563.00	2272.39
563.35	2275.87
563.71	2278.95
564.06	2282.18
564.42	2284.98
564.77	2287.48
565.12	2289.81
565.48	2291.64
565.83	2293.48
566.19	2294.79
566.54	2295.82
566.89	2296.84
567.25	2297.44
567.60	2298.72
567.96	2300.46
568.31	2301.59
568.66	2302.79
569.02	2303.37
569.37	2303.64
569.72	2304.44
570.08	2304.48
570.43	2304.51
570.78	2304.00
571.14	2302.46
571.49	2301.09
571.84	2300.85
572.20	2299.71
572.55	2298.72
572.90	2297.23
573.26	2295.91
573.61	2294.09
573.96	2292.19
574.31	2289.16
574.67	2286.25
575.02	2282.74
575.37	2279.46
575.72	2275.59
576.08	2272.17
576.43	2268.64
576.78	2264.95
577.13	2261.83
577.49	2258.81
577.84	2255.22
578.19	2251.31
578.54	2247.71
578.90	2243.49
579.25	2237.98
579.60	2232.88
579.95	2227.77
580.30	2222.70
580.66	2217.55
581.01	2212.59
581.36	2207.71
581.71	2203.55
582.06	2198.85
582.42	2194.22
582.77	2188.89
583.12	2184.25
583.47	2179.40
583.82	2174.57
584.17	2169.34
584.53	2163.81
584.88	2158.11
585.23	2152.42
585.58	2147.07
585.93	2141.56
586.28	2136.67
586.63	2131.49
586.98	2126.52
587.34	2121.73
587.69	2116.76
588.04	2111.45
588.39	2105.78
588.74	2099.28
589.09	2093.17
589.44	2086.48
589.79	2080.55
590.14	2074.97
590.49	2068.34
590.84	2062.04
591.19	2055.91
591.54	2049.51
591.89	2042.09
592.25	2035.20
592.60	2028.04
592.95	2020.34
593.30	2012.95
593.65	2005.38
594.00	1998.34
594.35	1991.17
594.70	1983.16
595.05	1975.80
595.40	1968.46
595.75	1961.01
596.10	1954.69
596.45	1947.92
596.80	1941.75
597.15	1935.08
597.50	1927.87
597.85	1921.54
598.19	1914.90
598.54	1907.69
598.89	1901.09
599.24	1895.17
599.59	1888.53
599.94	1882.29
600.29	1875.87
600.64	1869.29
600.99	1861.90
601.34	1855.12
601.69	1848.08
602.04	1841.17
602.39	1833.88
602.74	1827.01
603.08	1820.21
603.43	1813.47
603.78	1806.04
604.13	1798.88
604.48	1791.50
604.83	1784.65
605.18	1777.48
605.53	1769.44
605.87	1761.58
606.22	1754.30
606.57	1746.37
606.92	1739.04
607.27	1731.80
607.62	1724.93
607.96	1717.65
608.31	1710.87
608.66	1703.11
609.01	1695.49
609.36	1687.98
609.70	1680.04
610.05	1671.96
610.40	1664.29
610.75	1655.97
611.10	1648.35
611.44	1639.83
611.79	1631.92
612.14	1623.13
612.49	1614.03
612.83	1605.70
613.18	1597.42
613.53	1589.27
613.88	1580.69
614.22	1572.45
614.57	1563.79
614.92	1555.64
615.27	1548.01
615.61	1539.81
615.96	1531.97
616.31	1524.32
616.65	1516.92
617.00	1509.30
617.35	1501.70
617.70	1493.40
618.04	1484.84
618.39	1476.69
618.74	1469.11
619.08	1460.77
619.43	1453.25
619.78	1446.37
620.12	1439.06
620.47	1431.67
620.82	1423.53
621.16	1416.09
621.51	1408.54
621.85	1400.97
622.20	1392.56
622.55	1384.23
622.89	1376.29
623.24	1368.65
623.59	1361.44
623.93	1353.97
624.28	1346.82
624.62	1339.25
624.97	1332.05
625.32	1325.37
625.66	1318.26
626.01	1310.97
626.35	1303.51
626.70	1295.80
627.04	1287.97
627.39	1280.17
627.73	1272.75
628.08	1265.79
628.43	1258.48
628.77	1250.97
629.12	1243.44
629.46	1236.28
629.81	1228.90
630.15	1221.70
630.50	1214.14
630.84	1205.78
631.19	1197.81
631.53	1190.30
631.88	1182.71
632.22	1175.13
632.57	1167.80
632.91	1160.28
633.26	1152.93
633.60	1145.59
633.95	1138.42
634.29	1131.41
634.64	1124.85
634.98	1117.45
635.32	1110.34
635.67	1103.80
636.01	1097.16
636.36	1090.27
636.70	1083.78
637.05	1077.15
637.39	1070.73
637.73	1064.22
638.08	1058.36
638.42	1052.36
638.77	1045.84
639.11	1039.23
639.45	1032.77
639.80	1026.04
640.14	1019.60
640.49	1013.08
640.83	1006.68
641.17	1000.42
641.52	994.08
641.86	987.63
642.20	981.68
642.55	975.29
642.89	968.73
643.23	962.27
643.58	956.44
643.92	950.09
644.26	944.04
644.61	938.00
644.95	931.94
645.29	925.30
645.64	918.53
645.98	912.24
646.32	906.48
646.66	900.47
647.01	894.76
647.35	889.05
647.69	883.18
648.04	877.71
648.38	871.92
648.72	865.95
649.06	859.84
649.41	854.02
649.75	848.13
650.09	842.25
650.43	836.41
650.78	830.30
651.12	824.49
651.46	818.72
651.80	812.92
652.14	807.61
652.49	802.30
652.83	797.11
653.17	791.37
653.51	785.55
653.85	780.17
654.20	774.44
654.54	768.47
654.88	762.79
655.22	756.87
655.56	751.27
655.90	745.87
656.25	740.62
656.59	735.23
656.93	730.15
657.27	724.97
657.61	719.52
657.95	714.44
658.29	709.34
658.64	704.15
658.98	698.91
659.32	693.42
659.66	688.14
660.00	682.86
660.34	677.91
660.68	673.08
661.02	668.04
661.36	663.33
661.70	658.76
662.05	654.39
662.39	650.10
662.73	645.63
663.07	641.22
663.41	636.83
663.75	632.34
664.09	627.76
664.43	623.37
664.77	619.25
665.11	614.99
665.45	610.81
665.79	606.67
666.13	602.53
666.47	598.43
666.81	594.29
667.15	590.22
667.49	586.39
667.83	582.58
668.17	578.62
668.51	574.59
668.85	570.64
669.19	566.83
669.53	562.94
669.87	559.04
670.21	555.29
670.55	551.60
670.89	548.16
671.23	544.72
671.57	541.23
671.91	537.71
672.25	534.27
672.58	530.78
672.92	527.44
673.26	524.30
673.60	521.23
673.94	518.11
674.28	515.18
674.62	512.21
674.96	509.08
675.30	506.17
675.64	503.20
675.97	500.36
676.31	497.46
676.65	494.59
676.99	491.84
677.33	488.97
677.67	486.13
678.01	483.09
678.34	480.08
678.68	477.20
679.02	474.37
679.36	471.54
679.70	468.86
680.04	466.06
680.37	463.15
680.71	460.32
681.05	457.74
681.39	455.00
681.73	452.34
682.06	449.77
682.40	447.26
682.74	444.77
683.08	442.30
683.42	439.71
683.75	437.19
684.09	434.66
684.43	432.22
684.77	429.74
685.10	427.42
685.44	425.15
685.78	422.86
686.12	420.64
686.45	418.38
686.79	416.03
687.13	413.87
687.46	411.71
687.80	409.56
688.14	407.33
688.48	405.23
688.81	403.00
689.15	400.87
689.49	398.73
689.82	396.66
690.16	394.56
690.50	392.62
690.83	390.64
691.17	388.64
691.51	386.76
691.84	384.94
692.18	382.98
692.52	380.98
692.85	379.06
693.19	377.12
693.52	375.34
693.86	373.51
694.20	371.67
694.53	369.84
694.87	367.95
695.21	366.15
695.54	364.34
695.88	362.63
696.21	360.91
696.55	359.25
696.88	357.52
697.22	355.83
697.56	354.16
697.89	352.56
698.23	351.01
698.56	349.42
698.90	347.82
699.23	346.17
699.57	344.63
699.90	343.11
700.24	341.60
700.58	340.07
700.91	338.61
701.25	337.15
701.58	335.77
701.92	334.42
702.25	333.12
702.59	331.77
702.92	330.41
703.26	329.11
703.59	327.80
703.93	326.62
704.26	325.40
704.60	324.14
704.93	322.87
705.26	321.61
705.60	320.45
705.93	319.26
706.27	318.25
706.60	317.20
706.94	316.07
707.27	314.94
707.61	313.85
707.94	312.84
708.27	311.81
708.61	310.77
708.94	309.77
709.28	308.74
709.61	307.78
709.94	306.82
710.28	305.78
710.61	304.81
710.95	303.77
711.28	302.91
711.61	301.93
711.95	301.00
712.28	300.01
712.61	299.02
712.95	298.13
713.28	297.27
713.61	296.34
713.95	295.51
714.28	294.66
714.61	293.80
714.95	292.93
715.28	292.08
715.61	291.18
715.95	290.36
716.28	289.53
716.61	288.72
716.95	287.95
717.28	287.22
717.61	286.47
717.94	285.69
718.28	284.85
718.61	284.15
718.94	283.47
719.27	282.82
719.61	282.17
719.94	281.54
720.27	280.80
720.60	280.16
720.94	279.51
721.27	278.91
721.60	278.32
721.93	277.69
722.27	277.13
722.60	276.59
722.93	276.01
723.26	275.45
723.59	274.83
723.93	274.25
724.26	273.71
724.59	273.15
724.92	272.65
725.25	272.14
725.59	271.62
725.92	271.12
726.25	270.59
726.58	270.14
726.91	269.60
727.24	269.13
727.57	268.67
727.91	268.17
728.24	267.71
728.57	267.23
728.90	266.82
729.23	266.32
729.56	265.91
729.89	265.47
730.22	264.99
730.55	264.56
730.89	264.10
731.22	263.63
731.55	263.21
731.88	262.80
732.21	262.38
732.54	261.92
732.87	261.49
733.20	261.10
733.53	260.64
733.86	260.28
734.19	259.89
734.52	259.50
734.85	259.19
735.18	258.78
735.51	258.41
735.84	258.04
736.17	257.72
736.50	257.29
736.83	257.02
737.16	256.69
737.49	256.36
737.82	256.01
738.15	255.69
738.48	255.34
738.81	255.00
739.14	254.66
739.47	254.38
739.80	254.04
740.13	253.75
740.46	253.42
740.79	253.04
741.12	252.72
741.45	252.40
741.78	252.05
742.11	251.77
742.44	251.48
742.77	251.18
743.10	250.84
743.43	250.54
743.75	250.17
744.08	250.02
744.41	249.71
744.74	249.46
745.07	249.19
745.40	248.94
745.73	248.69
746.06	248.41
746.39	248.16
746.71	247.91
747.04	247.64
747.37	247.40
747.70	247.21
748.03	246.98
748.36	246.75
748.68	246.48
749.01	246.25
749.34	246.00
749.67	245.77
750.00	245.57
750.33	245.45
750.65	245.24
750.98	244.92
751.31	244.71
751.64	244.50
751.97	244.33
752.29	244.10
752.62	243.87
752.95	243.67
753.28	243.42
753.60	243.20
753.93	243.02
754.26	242.84
754.59	242.59
754.91	242.35
755.24	242.18
755.57	242.02
755.90	241.80
756.22	241.61
756.55	241.44
756.88	241.26
757.20	241.01
757.53	240.79
757.86	240.59
758.19	240.44
758.51	240.31
758.84	240.09
759.17	239.92
759.49	239.77
759.82	239.65
760.15	239.52
760.47	239.38
760.80	239.22
761.13	239.08
761.45	238.93
761.78	238.79
762.11	238.62
762.43	238.48
762.76	238.33
763.08	238.24
763.41	238.07
763.74	237.90
764.06	237.78
764.39	237.66
764.71	237.52
765.04	237.40
765.37	237.24
765.69	237.14
766.02	237.04
766.34	236.94
766.67	236.76
767.00	236.66
767.32	236.60
767.65	236.57
767.97	236.41
768.30	236.35
768.62	236.23
768.95	236.12
769.27	235.99
769.60	235.94
769.92	235.78
770.25	235.66
770.57	235.56
770.90	235.43
771.22	235.33
771.55	235.23
771.87	235.13
772.20	235.02
772.52	235.01
772.85	235.00
773.17	234.88
773.50	234.78
773.82	234.67
774.15	234.49
774.47	234.32
774.80	234.26
775.12	234.16
775.45	234.11
775.77	234.01
776.09	233.93
776.42	233.81
776.74	233.77
777.07	233.69
777.39	233.58
777.72	233.52
778.04	233.46
778.36	233.37
778.69	233.31
779.01	233.23
779.33	233.08
779.66	232.93
779.98	232.85
780.31	232.80
780.63	232.76
780.95	232.74
781.28	232.64
781.60	232.55
781.92	232.47
782.25	232.41
782.57	232.37
782.89	232.32
783.22	232.26
783.54	232.17
783.86	232.16
784.19	232.12
784.51	232.09
784.83	232.01
785.16	231.97
785.48	231.91
785.80	231.87
786.12	231.79
786.45	231.72
786.77	231.69
787.09	231.63
