SpectraSuite Data File
++++++++++++++++++++++++++++++++++++
Date: Fri Feb 01 15:23:11 EST 2013
User: group
Dark Spectrum Present: No
Reference Spectrum Present: No
Number of Sampled Component Spectra: 1
Spectrometers: USB2E7196
Integration Time (usec): 35000 (USB2E7196)
Spectra Averaged: 100 (USB2E7196)
Boxcar Smoothing: 10 (USB2E7196)
Correct for Electrical Dark: No (USB2E7196)
Strobe/Lamp Enabled: No (USB2E7196)
Correct for Detector Non-linearity: No (USB2E7196)
Correct for Stray Light: No (USB2E7196)
Number of Pixels in Processed Spectrum: 2048
>>>>>Begin Processed Spectral Data<<<<<
339.09	0.00
339.48	215.27
339.86	216.49
340.24	217.49
340.63	219.67
341.01	222.33
341.39	222.19
341.78	223.29
342.16	224.46
342.54	225.27
342.93	213.39
343.31	224.17
343.69	224.72
344.07	225.22
344.46	225.65
344.84	226.00
345.22	226.24
345.60	226.49
345.99	226.68
346.37	226.82
346.75	226.88
347.13	226.97
347.52	227.03
347.90	227.09
348.28	227.10
348.66	227.17
349.05	227.17
349.43	227.21
349.81	227.29
350.19	227.36
350.57	227.45
350.96	227.53
351.34	227.64
351.72	227.67
352.10	227.73
352.48	227.80
352.87	227.88
353.25	227.92
353.63	227.99
354.01	228.08
354.39	228.14
354.77	228.25
355.15	228.36
355.54	228.43
355.92	228.46
356.30	228.53
356.68	228.63
357.06	228.72
357.44	228.75
357.82	228.80
358.20	228.83
358.58	228.86
358.97	228.92
359.35	228.99
359.73	229.10
360.11	229.17
360.49	229.22
360.87	229.25
361.25	229.31
361.63	229.38
362.01	229.39
362.39	229.42
362.77	229.44
363.15	229.44
363.53	229.48
363.91	229.51
364.29	229.53
364.67	229.45
365.05	229.46
365.43	229.49
365.81	229.48
366.19	229.50
366.57	229.51
366.95	229.48
367.33	229.42
367.71	229.39
368.09	229.37
368.47	229.35
368.85	229.35
369.23	229.33
369.61	229.27
369.99	229.27
370.37	229.26
370.75	229.26
371.13	229.18
371.51	229.11
371.89	229.07
372.27	229.00
372.65	228.96
373.03	228.88
373.41	228.85
373.78	228.78
374.16	228.70
374.54	228.64
374.92	228.58
375.30	228.53
375.68	228.45
376.06	228.37
376.44	228.32
376.82	228.23
377.19	228.15
377.57	228.05
377.95	227.92
378.33	227.84
378.71	227.73
379.09	227.68
379.47	227.62
379.84	227.51
380.22	227.47
380.60	227.41
380.98	227.35
381.36	227.29
381.73	227.24
382.11	227.21
382.49	227.14
382.87	227.05
383.25	226.96
383.62	227.02
384.00	226.97
384.38	226.92
384.76	226.87
385.13	226.86
385.51	226.85
385.89	226.80
386.27	226.73
386.64	226.69
387.02	226.64
387.40	226.58
387.78	226.60
388.15	226.56
388.53	226.51
388.91	226.48
389.29	226.44
389.66	226.44
390.04	226.40
390.42	226.40
390.79	226.45
391.17	226.46
391.55	226.36
391.92	226.36
392.30	226.38
392.68	226.39
393.05	226.40
393.43	226.40
393.81	226.44
394.18	226.47
394.56	226.51
394.94	226.59
395.31	226.67
395.69	226.72
396.06	226.77
396.44	226.86
396.82	226.89
397.19	226.97
397.57	227.04
397.95	227.10
398.32	227.13
398.70	227.15
399.07	227.27
399.45	227.32
399.82	227.38
400.20	227.43
400.58	227.52
400.95	227.58
401.33	227.69
401.70	227.85
402.08	227.98
402.45	228.07
402.83	228.21
403.20	228.30
403.58	228.37
403.95	228.54
404.33	228.66
404.71	228.81
405.08	229.01
405.46	229.12
405.83	229.28
406.21	229.43
406.58	229.61
406.96	229.76
407.33	229.97
407.70	230.19
408.08	230.49
408.45	230.70
408.83	230.95
409.20	231.16
409.58	231.34
409.95	231.56
410.33	231.83
410.70	232.07
411.08	232.35
411.45	232.67
411.82	232.94
412.20	233.30
412.57	233.68
412.95	233.98
413.32	234.41
413.69	234.79
414.07	235.23
414.44	235.73
414.82	236.20
415.19	236.71
415.56	237.24
415.94	237.75
416.31	238.41
416.68	239.05
417.06	239.72
417.43	240.38
417.81	241.16
418.18	241.96
418.55	242.76
418.93	243.65
419.30	244.55
419.67	245.52
420.04	246.44
420.42	247.43
420.79	248.56
421.16	249.68
421.54	250.87
421.91	252.08
422.28	253.30
422.66	254.64
423.03	255.99
423.40	257.30
423.77	258.72
424.15	260.13
424.52	261.57
424.89	263.20
425.26	264.72
425.64	266.14
426.01	267.74
426.38	269.40
426.75	271.09
427.13	272.79
427.50	274.56
427.87	276.45
428.24	278.30
428.61	280.05
428.99	281.99
429.36	284.12
429.73	286.15
430.10	288.18
430.47	290.18
430.85	292.23
431.22	294.52
431.59	296.90
431.96	299.15
432.33	301.62
432.70	304.02
433.08	306.86
433.45	309.56
433.82	312.15
434.19	315.03
434.56	317.80
434.93	320.49
435.30	323.12
435.68	326.03
436.05	328.92
436.42	331.75
436.79	334.29
437.16	336.99
437.53	339.86
437.90	342.67
438.27	345.48
438.64	348.37
439.01	350.96
439.38	353.17
439.75	355.35
440.13	357.88
440.50	360.18
440.87	362.09
441.24	364.02
441.61	366.25
441.98	367.78
442.35	369.63
442.72	371.47
443.09	373.31
443.46	374.32
443.83	374.91
444.20	375.44
444.57	376.34
444.94	376.61
445.31	376.98
445.68	377.40
446.05	377.47
446.42	377.11
446.79	376.68
447.16	376.28
447.53	375.97
447.90	374.80
448.27	373.68
448.64	372.07
449.01	370.92
449.37	368.93
449.74	367.06
450.11	364.83
450.48	362.36
450.85	359.81
451.22	357.65
451.59	355.63
451.96	353.67
452.33	351.02
452.70	348.70
453.07	345.86
453.43	342.93
453.80	340.14
454.17	337.40
454.54	334.88
454.91	332.14
455.28	329.45
455.65	326.98
456.02	324.51
456.38	322.35
456.75	319.64
457.12	317.33
457.49	315.07
457.86	312.86
458.23	310.98
458.59	308.94
458.96	306.85
459.33	304.94
459.70	303.07
460.07	301.54
460.43	299.79
460.80	298.11
461.17	296.66
461.54	295.14
461.91	293.73
462.27	292.25
462.64	291.00
463.01	289.62
463.38	288.33
463.74	286.94
464.11	285.79
464.48	284.77
464.85	283.66
465.21	282.77
465.58	281.81
465.95	280.69
466.32	279.76
466.68	278.85
467.05	277.96
467.42	277.03
467.78	276.06
468.15	275.17
468.52	274.49
468.88	273.62
469.25	272.85
469.62	272.19
469.98	271.50
470.35	270.85
470.72	270.24
471.08	269.56
471.45	269.03
471.82	268.46
472.18	267.84
472.55	267.35
472.92	266.82
473.28	266.34
473.65	265.90
474.02	265.44
474.38	265.08
474.75	264.75
475.11	264.43
475.48	264.20
475.85	263.97
476.21	263.76
476.58	263.53
476.94	263.35
477.31	263.17
477.67	263.01
478.04	262.88
478.41	262.79
478.77	262.86
479.14	262.75
479.50	262.76
479.87	262.80
480.23	262.88
480.60	262.98
480.96	263.07
481.33	263.27
481.69	263.50
482.06	263.67
482.42	263.84
482.79	264.11
483.15	264.43
483.52	264.81
483.88	265.15
484.25	265.59
484.61	266.07
484.98	266.57
485.34	267.12
485.71	267.73
486.07	268.37
486.44	268.91
486.80	269.65
487.17	270.43
487.53	271.27
487.90	272.18
488.26	273.13
488.62	274.15
488.99	275.13
489.35	276.14
489.72	277.32
490.08	278.54
490.44	279.81
490.81	281.13
491.17	282.50
491.54	284.01
491.90	285.54
492.26	287.18
492.63	288.94
492.99	290.73
493.36	292.67
493.72	294.71
494.08	296.76
494.45	299.05
494.81	301.42
495.17	303.87
495.54	306.43
495.90	309.11
496.26	311.92
496.63	314.88
496.99	318.04
497.35	321.27
497.72	324.72
498.08	328.22
498.44	331.89
498.80	335.77
499.17	339.78
499.53	343.94
499.89	348.26
500.26	352.71
500.62	357.39
500.98	362.33
501.34	367.41
501.71	372.76
502.07	378.19
502.43	383.77
502.79	389.59
503.16	395.69
503.52	401.93
503.88	408.29
504.24	414.91
504.60	421.77
504.97	428.85
505.33	436.12
505.69	443.70
506.05	451.44
506.41	459.31
506.78	467.50
507.14	475.95
507.50	484.75
507.86	493.89
508.22	503.03
508.59	512.22
508.95	521.77
509.31	531.56
509.67	541.67
510.03	551.99
510.39	562.52
510.75	573.29
511.12	584.20
511.48	595.59
511.84	607.07
512.20	618.61
512.56	630.62
512.92	642.80
513.28	655.20
513.64	667.78
514.00	680.52
514.37	693.40
514.73	706.53
515.09	719.48
515.45	732.69
515.81	746.34
516.17	760.26
516.53	774.44
516.89	788.64
517.25	802.74
517.61	817.17
517.97	831.64
518.33	846.03
518.69	860.87
519.05	875.85
519.41	891.03
519.77	906.52
520.13	921.98
520.49	937.36
520.85	952.85
521.21	968.63
521.57	984.88
521.93	1000.68
522.29	1017.05
522.65	1033.42
523.01	1049.76
523.37	1065.83
523.73	1082.13
524.09	1098.24
524.45	1114.57
524.81	1131.33
525.17	1148.28
525.53	1165.20
525.89	1182.12
526.25	1198.93
526.61	1215.34
526.97	1232.17
527.33	1248.81
527.68	1265.44
528.04	1282.03
528.40	1298.75
528.76	1315.71
529.12	1332.30
529.48	1349.20
529.84	1365.35
530.20	1382.11
530.56	1399.19
530.91	1416.59
531.27	1433.41
531.63	1449.95
531.99	1466.60
532.35	1482.56
532.71	1498.42
533.07	1514.76
533.42	1530.69
533.78	1546.85
534.14	1563.18
534.50	1578.51
534.86	1594.40
535.21	1609.66
535.57	1625.67
535.93	1641.11
536.29	1655.94
536.65	1671.14
537.00	1686.17
537.36	1701.43
537.72	1715.95
538.08	1730.30
538.44	1744.23
538.79	1758.08
539.15	1771.88
539.51	1785.73
539.87	1800.29
540.22	1814.10
540.58	1827.97
540.94	1841.51
541.29	1854.59
541.65	1867.39
542.01	1880.71
542.37	1893.02
542.72	1905.57
543.08	1917.40
543.44	1929.91
543.79	1941.37
544.15	1952.53
544.51	1964.06
544.87	1975.16
545.22	1986.06
545.58	1996.41
545.94	2006.23
546.29	2016.19
546.65	2025.98
547.01	2035.22
547.36	2043.94
547.72	2052.45
548.07	2060.32
548.43	2068.53
548.79	2076.53
549.14	2084.10
549.50	2091.51
549.86	2099.27
550.21	2106.60
550.57	2113.77
550.92	2120.43
551.28	2127.53
551.64	2134.60
551.99	2141.20
552.35	2147.26
552.70	2153.25
553.06	2159.18
553.41	2165.48
553.77	2171.56
554.13	2177.58
554.48	2183.71
554.84	2189.11
555.19	2194.54
555.55	2199.66
555.90	2204.05
556.26	2208.86
556.61	2213.47
556.97	2217.57
557.32	2221.72
557.68	2225.77
558.03	2230.07
558.39	2233.69
558.74	2238.17
559.10	2241.90
559.45	2245.44
559.81	2249.88
560.16	2253.74
560.52	2257.05
560.87	2260.62
561.23	2263.12
561.58	2266.08
561.94	2268.62
562.29	2271.01
562.64	2273.49
563.00	2276.18
563.35	2279.75
563.71	2282.88
564.06	2286.19
564.42	2289.11
564.77	2291.45
565.12	2293.66
565.48	2295.35
565.83	2297.12
566.19	2298.45
566.54	2299.47
566.89	2300.69
567.25	2301.13
567.60	2302.61
567.96	2304.25
568.31	2304.92
568.66	2306.13
569.02	2306.75
569.37	2307.07
569.72	2307.82
570.08	2308.07
570.43	2307.95
570.78	2307.13
571.14	2305.52
571.49	2304.07
571.84	2303.86
572.20	2302.68
572.55	2301.61
572.90	2300.13
573.26	2298.81
573.61	2296.98
573.96	2294.97
574.31	2291.75
574.67	2288.65
575.02	2284.81
575.37	2281.15
575.72	2277.16
576.08	2273.86
576.43	2270.46
576.78	2266.64
577.13	2263.34
577.49	2260.02
577.84	2256.48
578.19	2252.77
578.54	2249.01
578.90	2244.58
579.25	2238.95
579.60	2234.03
579.95	2229.02
580.30	2223.98
580.66	2218.59
581.01	2213.71
581.36	2208.80
581.71	2204.60
582.06	2200.15
582.42	2195.56
582.77	2190.52
583.12	2185.97
583.47	2180.89
583.82	2175.77
584.17	2170.42
584.53	2164.92
584.88	2159.27
585.23	2153.35
585.58	2147.83
585.93	2142.41
586.28	2137.83
586.63	2132.56
586.98	2127.41
587.34	2122.59
587.69	2117.57
588.04	2112.39
588.39	2106.37
588.74	2099.87
589.09	2093.73
589.44	2086.87
589.79	2080.82
590.14	2075.00
590.49	2068.39
590.84	2061.95
591.19	2055.86
591.54	2049.42
591.89	2041.79
592.25	2034.80
592.60	2027.51
592.95	2019.87
593.30	2012.37
593.65	2004.57
594.00	1997.56
594.35	1990.22
594.70	1982.04
595.05	1974.74
595.40	1967.32
595.75	1959.91
596.10	1953.55
596.45	1946.55
596.80	1940.16
597.15	1933.38
597.50	1926.15
597.85	1919.63
598.19	1913.05
598.54	1905.86
598.89	1899.15
599.24	1893.46
599.59	1886.75
599.94	1880.61
600.29	1874.17
600.64	1867.61
600.99	1860.02
601.34	1853.06
601.69	1846.01
602.04	1839.11
602.39	1831.72
602.74	1824.87
603.08	1818.11
603.43	1811.26
603.78	1804.00
604.13	1796.83
604.48	1789.57
604.83	1782.73
605.18	1775.65
605.53	1767.52
605.87	1759.49
606.22	1752.27
606.57	1744.16
606.92	1736.90
607.27	1729.70
607.62	1722.74
607.96	1715.39
608.31	1708.78
608.66	1701.13
609.01	1693.54
609.36	1685.98
609.70	1677.96
610.05	1669.73
610.40	1662.14
610.75	1653.86
611.10	1646.24
611.44	1637.91
611.79	1629.97
612.14	1621.22
612.49	1612.19
612.83	1603.92
613.18	1595.84
613.53	1587.67
613.88	1579.17
614.22	1570.79
614.57	1562.19
614.92	1554.09
615.27	1546.48
615.61	1538.13
615.96	1530.09
616.31	1522.50
616.65	1515.06
617.00	1507.55
617.35	1499.95
617.70	1491.36
618.04	1482.83
618.39	1474.58
618.74	1466.91
619.08	1458.59
619.43	1451.10
619.78	1444.19
620.12	1437.00
620.47	1429.45
620.82	1421.31
621.16	1413.93
621.51	1406.43
621.85	1398.82
622.20	1390.34
622.55	1382.08
622.89	1374.32
623.24	1366.82
623.59	1359.44
623.93	1352.06
624.28	1344.87
624.62	1337.34
624.97	1330.25
625.32	1323.66
625.66	1316.69
626.01	1309.54
626.35	1302.03
626.70	1294.32
627.04	1286.47
627.39	1278.70
627.73	1271.27
628.08	1264.36
628.43	1256.92
628.77	1249.46
629.12	1241.81
629.46	1234.72
629.81	1227.26
630.15	1219.97
630.50	1212.40
630.84	1204.20
631.19	1196.19
631.53	1188.64
631.88	1181.20
632.22	1173.61
632.57	1166.27
632.91	1158.72
633.26	1151.34
633.60	1143.98
633.95	1136.87
634.29	1129.97
634.64	1123.28
634.98	1115.90
635.32	1108.80
635.67	1102.41
636.01	1095.78
636.36	1089.01
636.70	1082.44
637.05	1075.87
637.39	1069.51
637.73	1063.02
638.08	1057.24
638.42	1051.22
638.77	1044.77
639.11	1038.14
639.45	1031.79
639.80	1025.05
640.14	1018.54
640.49	1011.95
640.83	1005.67
641.17	999.44
641.52	993.08
641.86	986.65
642.20	980.81
642.55	974.51
642.89	967.89
643.23	961.40
643.58	955.64
643.92	949.54
644.26	943.46
644.61	937.43
644.95	931.42
645.29	924.77
645.64	918.09
645.98	911.70
646.32	905.85
646.66	899.78
647.01	894.01
647.35	888.33
647.69	882.56
648.04	877.06
648.38	871.27
648.72	865.19
649.06	859.11
649.41	853.28
649.75	847.23
650.09	841.29
650.43	835.48
650.78	829.24
651.12	823.23
651.46	817.51
651.80	811.69
652.14	806.32
652.49	800.94
652.83	795.79
653.17	790.15
653.51	784.38
653.85	779.06
654.20	773.40
654.54	767.42
654.88	761.71
655.22	755.81
655.56	749.98
655.90	744.53
656.25	739.28
656.59	733.95
656.93	728.91
657.27	723.79
657.61	718.36
657.95	713.30
658.29	708.27
658.64	703.01
658.98	697.66
659.32	692.17
659.66	686.92
660.00	681.58
660.34	676.62
660.68	671.77
661.02	666.71
661.36	662.07
661.70	657.66
662.05	653.26
662.39	648.93
662.73	644.64
663.07	640.36
663.41	635.94
663.75	631.36
664.09	626.79
664.43	622.41
664.77	618.32
665.11	614.13
665.45	609.99
665.79	605.94
666.13	601.90
666.47	597.89
666.81	593.76
667.15	589.69
667.49	585.86
667.83	582.06
668.17	578.13
668.51	574.01
668.85	569.99
669.19	566.21
669.53	562.43
669.87	558.50
670.21	554.76
670.55	551.14
670.89	547.83
671.23	544.46
671.57	540.95
671.91	537.39
672.25	533.95
672.58	530.45
672.92	527.02
673.26	523.90
673.60	520.80
673.94	517.66
674.28	514.83
674.62	511.89
674.96	508.80
675.30	505.91
675.64	503.02
675.97	500.22
676.31	497.28
676.65	494.33
676.99	491.66
677.33	488.79
677.67	485.97
678.01	482.92
678.34	479.90
678.68	477.06
679.02	474.26
679.36	471.44
679.70	468.70
680.04	465.97
680.37	463.08
680.71	460.28
681.05	457.71
681.39	454.93
681.73	452.24
682.06	449.75
682.40	447.18
682.74	444.66
683.08	442.11
683.42	439.57
683.75	437.08
684.09	434.49
684.43	432.04
684.77	429.59
685.10	427.26
685.44	424.95
685.78	422.65
686.12	420.42
686.45	418.17
686.79	415.89
687.13	413.71
687.46	411.57
687.80	409.39
688.14	407.20
688.48	405.14
688.81	402.93
689.15	400.75
689.49	398.59
689.82	396.47
690.16	394.39
690.50	392.35
690.83	390.42
691.17	388.47
691.51	386.53
691.84	384.68
692.18	382.70
692.52	380.69
692.85	378.76
693.19	376.90
693.52	375.07
693.86	373.28
694.20	371.48
694.53	369.67
694.87	367.86
695.21	366.06
695.54	364.27
695.88	362.54
696.21	360.83
696.55	359.20
696.88	357.55
697.22	355.90
697.56	354.35
697.89	352.69
698.23	351.07
698.56	349.53
698.90	347.90
699.23	346.30
699.57	344.79
699.90	343.27
700.24	341.75
700.58	340.20
700.91	338.69
701.25	337.28
701.58	335.92
701.92	334.57
702.25	333.22
702.59	331.86
702.92	330.52
703.26	329.23
703.59	327.95
703.93	326.79
704.26	325.55
704.60	324.28
704.93	322.99
705.26	321.79
705.60	320.61
705.93	319.50
706.27	318.49
706.60	317.45
706.94	316.39
707.27	315.24
707.61	314.21
707.94	313.22
708.27	312.11
708.61	311.02
708.94	310.00
709.28	309.03
709.61	308.08
709.94	307.13
710.28	306.14
710.61	305.18
710.95	304.07
711.28	303.19
711.61	302.23
711.95	301.34
712.28	300.37
712.61	299.41
712.95	298.46
713.28	297.59
713.61	296.68
713.95	295.79
714.28	294.98
714.61	294.14
714.95	293.25
715.28	292.37
715.61	291.52
715.95	290.65
716.28	289.82
716.61	289.00
716.95	288.19
717.28	287.41
717.61	286.63
717.94	285.89
718.28	285.09
718.61	284.40
718.94	283.71
719.27	283.04
719.61	282.40
719.94	281.74
720.27	281.00
720.60	280.33
720.94	279.68
721.27	279.10
721.60	278.49
721.93	277.93
722.27	277.43
722.60	276.86
722.93	276.27
723.26	275.72
723.59	275.12
723.93	274.62
724.26	274.08
724.59	273.54
724.92	273.04
725.25	272.47
725.59	271.85
725.92	271.30
726.25	270.82
726.58	270.30
726.91	269.81
727.24	269.34
727.57	268.89
727.91	268.38
728.24	267.86
728.57	267.35
728.90	266.87
729.23	266.33
729.56	265.90
729.89	265.43
730.22	264.94
730.55	264.46
730.89	263.97
731.22	263.50
731.55	263.05
731.88	262.59
732.21	262.19
732.54	261.77
732.87	261.37
733.20	260.95
733.53	260.55
733.86	260.17
734.19	259.73
734.52	259.34
734.85	259.03
735.18	258.61
735.51	258.28
735.84	257.90
736.17	257.57
736.50	257.19
736.83	257.00
737.16	256.68
737.49	256.35
737.82	256.00
738.15	255.68
738.48	255.36
738.81	255.07
739.14	254.74
739.47	254.47
739.80	254.14
740.13	253.82
740.46	253.52
740.79	253.19
741.12	252.94
741.45	252.64
741.78	252.29
742.11	252.07
742.44	251.75
742.77	251.48
743.10	251.17
743.43	250.87
743.75	250.43
744.08	250.29
744.41	250.02
744.74	249.75
745.07	249.49
745.40	249.28
745.73	249.06
746.06	248.81
746.39	248.59
746.71	248.34
747.04	248.10
747.37	247.82
747.70	247.60
748.03	247.34
748.36	247.13
748.68	246.93
749.01	246.67
749.34	246.45
749.67	246.23
750.00	246.05
750.33	245.92
750.65	245.80
750.98	245.47
751.31	245.27
751.64	245.07
751.97	244.91
752.29	244.64
752.62	244.38
752.95	244.21
753.28	243.99
753.60	243.78
753.93	243.62
754.26	243.47
754.59	243.26
754.91	243.05
755.24	242.88
755.57	242.69
755.90	242.48
756.22	242.31
756.55	242.11
756.88	241.90
757.20	241.67
757.53	241.45
757.86	241.27
758.19	241.12
758.51	240.95
758.84	240.73
759.17	240.58
759.49	240.43
759.82	240.26
760.15	240.03
760.47	239.89
760.80	239.71
761.13	239.56
761.45	239.38
761.78	239.23
762.11	239.04
762.43	238.86
762.76	238.71
763.08	238.57
763.41	238.45
763.74	238.33
764.06	238.15
764.39	237.99
764.71	237.84
765.04	237.71
765.37	237.54
765.69	237.41
766.02	237.27
766.34	237.14
766.67	236.99
767.00	236.92
767.32	236.81
767.65	236.72
767.97	236.53
768.30	236.41
768.62	236.32
768.95	236.21
769.27	236.10
769.60	235.98
769.92	235.85
770.25	235.71
770.57	235.58
770.90	235.47
771.22	235.34
771.55	235.23
771.87	235.09
772.20	235.00
772.52	234.95
772.85	234.95
773.17	234.85
773.50	234.74
773.82	234.62
774.15	234.51
774.47	234.40
774.80	234.35
775.12	234.26
775.45	234.16
775.77	234.07
776.09	234.00
776.42	233.95
776.74	233.88
777.07	233.82
777.39	233.75
777.72	233.65
778.04	233.61
778.36	233.57
778.69	233.51
779.01	233.47
779.33	233.34
779.66	233.18
779.98	233.10
780.31	233.02
780.63	233.01
780.95	232.94
781.28	232.86
781.60	232.79
781.92	232.71
782.25	232.64
782.57	232.56
782.89	232.52
783.22	232.41
783.54	232.34
783.86	232.26
784.19	232.18
784.51	232.18
784.83	232.10
785.16	232.06
785.48	232.02
785.80	231.96
786.12	231.94
786.45	231.86
786.77	231.82
787.09	231.79
