SpectraSuite Data File
++++++++++++++++++++++++++++++++++++
Date: Fri Feb 01 15:02:54 EST 2013
User: group
Dark Spectrum Present: No
Reference Spectrum Present: No
Number of Sampled Component Spectra: 1
Spectrometers: USB2E7196
Integration Time (usec): 35000 (USB2E7196)
Spectra Averaged: 100 (USB2E7196)
Boxcar Smoothing: 10 (USB2E7196)
Correct for Electrical Dark: No (USB2E7196)
Strobe/Lamp Enabled: No (USB2E7196)
Correct for Detector Non-linearity: No (USB2E7196)
Correct for Stray Light: No (USB2E7196)
Number of Pixels in Processed Spectrum: 2048
>>>>>Begin Processed Spectral Data<<<<<
339.09	0.00
339.48	214.97
339.86	216.76
340.24	217.76
340.63	219.37
341.01	221.95
341.39	222.18
341.78	223.68
342.16	224.85
342.54	225.03
342.93	213.37
343.31	224.16
343.69	224.72
344.07	225.16
344.46	225.59
344.84	225.95
345.22	226.17
345.60	226.40
345.99	226.56
346.37	226.69
346.75	226.77
347.13	226.86
347.52	226.91
347.90	226.95
348.28	227.01
348.66	227.05
349.05	227.03
349.43	227.05
349.81	227.09
350.19	227.15
350.57	227.24
350.96	227.31
351.34	227.38
351.72	227.45
352.10	227.55
352.48	227.63
352.87	227.70
353.25	227.77
353.63	227.85
354.01	227.94
354.39	228.01
354.77	228.11
355.15	228.21
355.54	228.26
355.92	228.34
356.30	228.43
356.68	228.55
357.06	228.65
357.44	228.73
357.82	228.79
358.20	228.87
358.58	228.90
358.97	228.96
359.35	229.03
359.73	229.11
360.11	229.19
360.49	229.23
360.87	229.27
361.25	229.32
361.63	229.41
362.01	229.46
362.39	229.47
362.77	229.49
363.15	229.52
363.53	229.54
363.91	229.54
364.29	229.53
364.67	229.47
365.05	229.50
365.43	229.54
365.81	229.56
366.19	229.56
366.57	229.62
366.95	229.62
367.33	229.60
367.71	229.59
368.09	229.60
368.47	229.57
368.85	229.58
369.23	229.58
369.61	229.52
369.99	229.49
370.37	229.46
370.75	229.47
371.13	229.42
371.51	229.36
371.89	229.33
372.27	229.29
372.65	229.22
373.03	229.17
373.41	229.10
373.78	229.03
374.16	228.94
374.54	228.84
374.92	228.78
375.30	228.70
375.68	228.61
376.06	228.50
376.44	228.44
376.82	228.34
377.19	228.27
377.57	228.16
377.95	228.09
378.33	227.99
378.71	227.87
379.09	227.80
379.47	227.76
379.84	227.64
380.22	227.57
380.60	227.49
380.98	227.42
381.36	227.29
381.73	227.22
382.11	227.19
382.49	227.12
382.87	227.00
383.25	226.94
383.62	226.96
384.00	226.89
384.38	226.79
384.76	226.76
385.13	226.74
385.51	226.68
385.89	226.58
386.27	226.54
386.64	226.49
387.02	226.44
387.40	226.37
387.78	226.35
388.15	226.30
388.53	226.27
388.91	226.20
389.29	226.19
389.66	226.16
390.04	226.12
390.42	226.11
390.79	226.10
391.17	226.08
391.55	225.99
391.92	225.98
392.30	225.99
392.68	225.94
393.05	225.96
393.43	225.99
393.81	226.03
394.18	226.01
394.56	226.07
394.94	226.11
395.31	226.14
395.69	226.20
396.06	226.25
396.44	226.29
396.82	226.33
397.19	226.45
397.57	226.50
397.95	226.55
398.32	226.60
398.70	226.69
399.07	226.81
399.45	226.88
399.82	226.95
400.20	227.07
400.58	227.18
400.95	227.22
401.33	227.31
401.70	227.45
402.08	227.57
402.45	227.68
402.83	227.77
403.20	227.90
403.58	228.01
403.95	228.18
404.33	228.33
404.71	228.49
405.08	228.66
405.46	228.81
405.83	229.01
406.21	229.19
406.58	229.36
406.96	229.51
407.33	229.69
407.70	229.92
408.08	230.21
408.45	230.44
408.83	230.71
409.20	230.95
409.58	231.16
409.95	231.43
410.33	231.70
410.70	231.99
411.08	232.33
411.45	232.64
411.82	232.94
412.20	233.31
412.57	233.73
412.95	234.06
413.32	234.48
413.69	234.86
414.07	235.27
414.44	235.76
414.82	236.29
415.19	236.84
415.56	237.42
415.94	237.94
416.31	238.60
416.68	239.21
417.06	239.93
417.43	240.61
417.81	241.36
418.18	242.12
418.55	242.95
418.93	243.79
419.30	244.70
419.67	245.65
420.04	246.61
420.42	247.60
420.79	248.79
421.16	249.90
421.54	251.13
421.91	252.37
422.28	253.62
422.66	254.89
423.03	256.23
423.40	257.54
423.77	258.93
424.15	260.34
424.52	261.84
424.89	263.44
425.26	264.98
425.64	266.45
426.01	268.05
426.38	269.74
426.75	271.41
427.13	273.13
427.50	274.94
427.87	276.80
428.24	278.64
428.61	280.35
428.99	282.34
429.36	284.41
429.73	286.45
430.10	288.49
430.47	290.58
430.85	292.65
431.22	294.89
431.59	297.28
431.96	299.54
432.33	301.98
432.70	304.38
433.08	307.21
433.45	309.88
433.82	312.51
434.19	315.37
434.56	318.17
434.93	320.82
435.30	323.43
435.68	326.35
436.05	329.16
436.42	331.93
436.79	334.42
437.16	337.13
437.53	340.00
437.90	342.80
438.27	345.58
438.64	348.45
439.01	351.06
439.38	353.30
439.75	355.49
440.13	358.02
440.50	360.35
440.87	362.19
441.24	364.12
441.61	366.30
441.98	367.79
442.35	369.64
442.72	371.50
443.09	373.33
443.46	374.32
443.83	374.96
444.20	375.47
444.57	376.34
444.94	376.67
445.31	376.94
445.68	377.28
446.05	377.32
446.42	376.95
446.79	376.52
447.16	376.09
447.53	375.74
447.90	374.54
448.27	373.37
448.64	371.81
449.01	370.66
449.37	368.66
449.74	366.77
450.11	364.48
450.48	362.02
450.85	359.46
451.22	357.34
451.59	355.27
451.96	353.37
452.33	350.75
452.70	348.33
453.07	345.50
453.43	342.65
453.80	339.88
454.17	337.19
454.54	334.65
454.91	331.91
455.28	329.22
455.65	326.75
456.02	324.30
456.38	322.13
456.75	319.51
457.12	317.25
457.49	315.02
457.86	312.85
458.23	311.00
458.59	308.96
458.96	306.84
459.33	304.97
459.70	303.08
460.07	301.54
460.43	299.84
460.80	298.23
461.17	296.78
461.54	295.27
461.91	293.83
462.27	292.34
462.64	291.09
463.01	289.73
463.38	288.40
463.74	287.02
464.11	285.87
464.48	284.82
464.85	283.69
465.21	282.81
465.58	281.87
465.95	280.75
466.32	279.84
466.68	278.93
467.05	278.06
467.42	277.17
467.78	276.25
468.15	275.35
468.52	274.65
468.88	273.76
469.25	272.94
469.62	272.33
469.98	271.66
470.35	271.01
470.72	270.39
471.08	269.78
471.45	269.19
471.82	268.61
472.18	267.98
472.55	267.52
472.92	266.97
473.28	266.51
473.65	266.05
474.02	265.59
474.38	265.18
474.75	264.86
475.11	264.51
475.48	264.21
475.85	263.95
476.21	263.73
476.58	263.50
476.94	263.39
477.31	263.18
477.67	262.98
478.04	262.84
478.41	262.78
478.77	262.79
479.14	262.75
479.50	262.77
479.87	262.83
480.23	262.92
480.60	263.01
480.96	263.07
481.33	263.26
481.69	263.42
482.06	263.61
482.42	263.77
482.79	264.00
483.15	264.32
483.52	264.75
483.88	265.09
484.25	265.48
484.61	265.88
484.98	266.33
485.34	266.91
485.71	267.49
486.07	268.06
486.44	268.63
486.80	269.34
487.17	270.05
487.53	270.86
487.90	271.70
488.26	272.60
488.62	273.58
488.99	274.53
489.35	275.60
489.72	276.75
490.08	277.90
490.44	279.13
490.81	280.46
491.17	281.77
491.54	283.28
491.90	284.82
492.26	286.43
492.63	288.13
492.99	289.91
493.36	291.80
493.72	293.88
494.08	295.98
494.45	298.22
494.81	300.60
495.17	302.98
495.54	305.51
495.90	308.21
496.26	311.01
496.63	313.99
496.99	317.09
497.35	320.30
497.72	323.72
498.08	327.22
498.44	330.85
498.80	334.78
499.17	338.72
499.53	342.87
499.89	347.29
500.26	351.76
500.62	356.40
500.98	361.37
501.34	366.37
501.71	371.69
502.07	377.11
502.43	382.68
502.79	388.54
503.16	394.62
503.52	400.88
503.88	407.27
504.24	413.86
504.60	420.75
504.97	427.85
505.33	435.12
505.69	442.80
506.05	450.63
506.41	458.49
506.78	466.68
507.14	475.11
507.50	483.80
507.86	492.80
508.22	501.95
508.59	511.17
508.95	520.77
509.31	530.49
509.67	540.59
510.03	550.90
510.39	561.40
510.75	572.21
511.12	583.14
511.48	594.43
511.84	605.88
512.20	617.31
512.56	629.27
512.92	641.50
513.28	653.87
513.64	666.28
514.00	679.03
514.37	691.94
514.73	704.99
515.09	718.02
515.45	731.33
515.81	744.95
516.17	758.95
516.53	773.08
516.89	787.36
517.25	801.45
517.61	815.86
517.97	830.38
518.33	844.79
518.69	859.53
519.05	874.57
519.41	889.83
519.77	905.46
520.13	920.97
520.49	936.36
520.85	951.85
521.21	967.60
521.57	983.80
521.93	999.70
522.29	1016.19
522.65	1032.56
523.01	1048.89
523.37	1065.04
523.73	1081.18
524.09	1097.33
524.45	1113.71
524.81	1130.47
525.17	1147.42
525.53	1164.32
525.89	1181.31
526.25	1198.18
526.61	1214.68
526.97	1231.46
527.33	1248.01
527.68	1264.65
528.04	1281.28
528.40	1297.95
528.76	1315.08
529.12	1331.86
529.48	1348.72
529.84	1364.81
530.20	1381.43
530.56	1398.47
530.91	1415.82
531.27	1432.67
531.63	1449.29
531.99	1465.81
532.35	1481.86
532.71	1497.68
533.07	1514.00
533.42	1530.02
533.78	1546.19
534.14	1562.48
534.50	1577.92
534.86	1593.85
535.21	1609.07
535.57	1625.10
535.93	1640.65
536.29	1655.52
536.65	1670.58
537.00	1685.48
537.36	1700.88
537.72	1715.62
538.08	1730.21
538.44	1744.20
538.79	1758.29
539.15	1772.22
539.51	1786.22
539.87	1800.69
540.22	1814.48
540.58	1828.50
540.94	1841.83
541.29	1854.88
541.65	1867.61
542.01	1880.85
542.37	1893.30
542.72	1905.92
543.08	1917.79
543.44	1930.20
543.79	1941.48
544.15	1952.61
544.51	1964.23
544.87	1975.25
545.22	1985.94
545.58	1996.14
545.94	2005.91
546.29	2015.70
546.65	2025.42
547.01	2034.56
547.36	2043.31
547.72	2051.87
548.07	2059.66
548.43	2068.08
548.79	2076.17
549.14	2083.82
549.50	2091.29
549.86	2098.91
550.21	2106.19
550.57	2113.27
550.92	2119.91
551.28	2127.14
551.64	2134.23
551.99	2140.69
552.35	2146.96
552.70	2153.15
553.06	2159.09
553.41	2165.45
553.77	2171.44
554.13	2177.46
554.48	2183.74
554.84	2189.12
555.19	2194.64
555.55	2199.77
555.90	2204.12
556.26	2208.85
556.61	2213.59
556.97	2217.72
557.32	2221.88
557.68	2226.09
558.03	2230.45
558.39	2234.16
558.74	2238.68
559.10	2242.47
559.45	2246.29
559.81	2250.45
560.16	2254.42
560.52	2257.56
560.87	2261.12
561.23	2263.79
561.58	2266.68
561.94	2268.98
562.29	2271.35
562.64	2273.96
563.00	2276.46
563.35	2279.82
563.71	2282.89
564.06	2285.93
564.42	2288.80
564.77	2291.21
565.12	2293.26
565.48	2294.95
565.83	2296.65
566.19	2297.75
566.54	2298.51
566.89	2299.50
567.25	2299.92
567.60	2300.97
567.96	2302.66
568.31	2303.21
568.66	2304.09
569.02	2304.60
569.37	2304.83
569.72	2305.50
570.08	2305.33
570.43	2305.21
570.78	2304.40
571.14	2302.81
571.49	2301.46
571.84	2301.05
572.20	2299.50
572.55	2298.40
572.90	2296.66
573.26	2295.22
573.61	2293.45
573.96	2291.59
574.31	2288.51
574.67	2285.42
575.02	2281.74
575.37	2278.08
575.72	2274.08
576.08	2270.79
576.43	2267.35
576.78	2263.51
577.13	2260.34
577.49	2257.10
577.84	2253.49
578.19	2249.70
578.54	2245.78
578.90	2241.22
579.25	2235.42
579.60	2230.61
579.95	2225.32
580.30	2220.27
580.66	2214.92
581.01	2209.83
581.36	2204.73
581.71	2200.22
582.06	2195.62
582.42	2190.90
582.77	2185.58
583.12	2180.95
583.47	2175.98
583.82	2170.74
584.17	2165.47
584.53	2159.78
584.88	2153.98
585.23	2148.12
585.58	2142.60
585.93	2137.10
586.28	2132.46
586.63	2127.27
586.98	2121.99
587.34	2117.33
587.69	2112.31
588.04	2106.86
588.39	2101.07
588.74	2094.48
589.09	2088.34
589.44	2081.34
589.79	2075.27
590.14	2069.46
590.49	2062.82
590.84	2056.34
591.19	2050.17
591.54	2043.48
591.89	2035.83
592.25	2028.95
592.60	2021.66
592.95	2013.87
593.30	2006.46
593.65	1998.59
594.00	1991.47
594.35	1984.36
594.70	1976.10
595.05	1968.80
595.40	1961.45
595.75	1953.88
596.10	1947.59
596.45	1940.59
596.80	1934.50
597.15	1927.73
597.50	1920.70
597.85	1914.15
598.19	1907.42
598.54	1900.39
598.89	1893.73
599.24	1887.97
599.59	1881.25
599.94	1874.93
600.29	1868.68
600.64	1861.98
600.99	1854.47
601.34	1847.50
601.69	1840.33
602.04	1833.37
602.39	1825.85
602.74	1819.15
603.08	1812.35
603.43	1805.59
603.78	1798.45
604.13	1791.15
604.48	1783.86
604.83	1776.90
605.18	1769.81
605.53	1761.82
605.87	1753.68
606.22	1746.36
606.57	1738.32
606.92	1730.94
607.27	1723.71
607.62	1716.64
607.96	1709.39
608.31	1702.75
608.66	1695.15
609.01	1687.62
609.36	1680.07
609.70	1672.24
610.05	1664.02
610.40	1656.38
610.75	1648.05
611.10	1640.28
611.44	1631.89
611.79	1623.89
612.14	1615.26
612.49	1606.23
612.83	1597.84
613.18	1589.83
613.53	1581.83
613.88	1573.42
614.22	1565.15
614.57	1556.72
614.92	1548.69
615.27	1541.07
615.61	1532.80
615.96	1524.84
616.31	1517.22
616.65	1509.95
617.00	1502.39
617.35	1494.79
617.70	1486.38
618.04	1477.86
618.39	1469.70
618.74	1462.09
619.08	1453.77
619.43	1446.24
619.78	1439.36
620.12	1432.15
620.47	1424.57
620.82	1416.51
621.16	1409.01
621.51	1401.51
621.85	1393.87
622.20	1385.41
622.55	1377.20
622.89	1369.42
623.24	1361.89
623.59	1354.53
623.93	1347.03
624.28	1339.82
624.62	1332.34
624.97	1325.29
625.32	1318.68
625.66	1311.71
626.01	1304.53
626.35	1297.12
626.70	1289.47
627.04	1281.80
627.39	1274.18
627.73	1266.86
628.08	1259.87
628.43	1252.60
628.77	1245.21
629.12	1237.55
629.46	1230.41
629.81	1223.04
630.15	1215.82
630.50	1208.47
630.84	1200.36
631.19	1192.38
631.53	1184.90
631.88	1177.38
632.22	1169.75
632.57	1162.37
632.91	1154.91
633.26	1147.54
633.60	1140.23
633.95	1133.21
634.29	1126.18
634.64	1119.39
634.98	1112.03
635.32	1104.96
635.67	1098.45
636.01	1091.88
636.36	1085.23
636.70	1078.85
637.05	1072.25
637.39	1065.82
637.73	1059.29
638.08	1053.42
638.42	1047.58
638.77	1041.09
639.11	1034.41
639.45	1028.14
639.80	1021.54
640.14	1015.10
640.49	1008.56
640.83	1002.25
641.17	995.94
641.52	989.64
641.86	983.42
642.20	977.66
642.55	971.41
642.89	964.92
643.23	958.46
643.58	952.63
643.92	946.34
644.26	940.32
644.61	934.33
644.95	928.33
645.29	921.76
645.64	915.06
645.98	908.79
646.32	903.12
646.66	897.08
647.01	891.34
647.35	885.63
647.69	879.85
648.04	874.44
648.38	868.69
648.72	862.62
649.06	856.49
649.41	850.63
649.75	844.69
650.09	838.77
650.43	833.03
650.78	826.93
651.12	820.99
651.46	815.29
651.80	809.49
652.14	804.13
652.49	798.79
652.83	793.63
653.17	787.97
653.51	782.21
653.85	776.88
654.20	771.18
654.54	765.30
654.88	759.68
655.22	753.80
655.56	748.11
655.90	742.78
656.25	737.57
656.59	732.22
656.93	727.13
657.27	722.03
657.61	716.56
657.95	711.51
658.29	706.50
658.64	701.27
658.98	696.09
659.32	690.62
659.66	685.43
660.00	680.12
660.34	675.26
660.68	670.45
661.02	665.40
661.36	660.70
661.70	656.23
662.05	651.87
662.39	647.49
662.73	643.12
663.07	638.71
663.41	634.31
663.75	629.86
664.09	625.33
664.43	621.01
664.77	616.95
665.11	612.70
665.45	608.59
665.79	604.48
666.13	600.34
666.47	596.33
666.81	592.14
667.15	588.06
667.49	584.15
667.83	580.35
668.17	576.45
668.51	572.50
668.85	568.49
669.19	564.73
669.53	560.93
669.87	557.01
670.21	553.38
670.55	549.76
670.89	546.30
671.23	542.91
671.57	539.32
671.91	535.78
672.25	532.35
672.58	528.85
672.92	525.53
673.26	522.35
673.60	519.20
673.94	516.16
674.28	513.29
674.62	510.39
674.96	507.29
675.30	504.39
675.64	501.45
675.97	498.73
676.31	495.82
676.65	492.94
676.99	490.30
677.33	487.48
677.67	484.70
678.01	481.68
678.34	478.66
678.68	475.88
679.02	473.10
679.36	470.36
679.70	467.63
680.04	464.83
680.37	462.05
680.71	459.31
681.05	456.72
681.39	454.00
681.73	451.36
682.06	448.88
682.40	446.31
682.74	443.79
683.08	441.24
683.42	438.67
683.75	436.21
684.09	433.68
684.43	431.23
684.77	428.77
685.10	426.51
685.44	424.26
685.78	421.93
686.12	419.68
686.45	417.45
686.79	415.21
687.13	413.08
687.46	410.87
687.80	408.74
688.14	406.53
688.48	404.51
688.81	402.23
689.15	400.03
689.49	397.95
689.82	395.88
690.16	393.80
690.50	391.85
690.83	389.92
691.17	387.92
691.51	386.04
691.84	384.16
692.18	382.20
692.52	380.28
692.85	378.38
693.19	376.50
693.52	374.66
693.86	372.91
694.20	371.15
694.53	369.37
694.87	367.54
695.21	365.75
695.54	363.93
695.88	362.28
696.21	360.59
696.55	358.94
696.88	357.27
697.22	355.64
697.56	354.00
697.89	352.34
698.23	350.71
698.56	349.06
698.90	347.51
699.23	345.87
699.57	344.30
699.90	342.77
700.24	341.26
700.58	339.70
700.91	338.12
701.25	336.67
701.58	335.30
701.92	333.91
702.25	332.55
702.59	331.15
702.92	329.80
703.26	328.50
703.59	327.19
703.93	326.03
704.26	324.79
704.60	323.51
704.93	322.25
705.26	321.04
705.60	319.86
705.93	318.71
706.27	317.70
706.60	316.67
706.94	315.64
707.27	314.48
707.61	313.45
707.94	312.50
708.27	311.43
708.61	310.38
708.94	309.40
709.28	308.45
709.61	307.54
709.94	306.59
710.28	305.54
710.61	304.58
710.95	303.53
711.28	302.65
711.61	301.70
711.95	300.83
712.28	299.92
712.61	298.97
712.95	298.03
713.28	297.16
713.61	296.24
713.95	295.36
714.28	294.55
714.61	293.70
714.95	292.82
715.28	291.96
715.61	291.07
715.95	290.20
716.28	289.34
716.61	288.52
716.95	287.69
717.28	287.00
717.61	286.23
717.94	285.44
718.28	284.64
718.61	283.93
718.94	283.20
719.27	282.58
719.61	281.95
719.94	281.31
720.27	280.58
720.60	279.96
720.94	279.33
721.27	278.73
721.60	278.14
721.93	277.55
722.27	277.02
722.60	276.48
722.93	275.95
723.26	275.41
723.59	274.85
723.93	274.34
724.26	273.81
724.59	273.26
724.92	272.79
725.25	272.32
725.59	271.77
725.92	271.29
726.25	270.70
726.58	270.23
726.91	269.71
727.24	269.29
727.57	268.79
727.91	268.28
728.24	267.83
728.57	267.35
728.90	266.89
729.23	266.40
729.56	265.98
729.89	265.50
730.22	264.99
730.55	264.51
730.89	264.05
731.22	263.59
731.55	263.16
731.88	262.72
732.21	262.23
732.54	261.84
732.87	261.40
733.20	261.02
733.53	260.59
733.86	260.23
734.19	259.80
734.52	259.40
734.85	259.11
735.18	258.69
735.51	258.30
735.84	257.94
736.17	257.59
736.50	257.17
736.83	256.93
737.16	256.63
737.49	256.34
737.82	256.02
738.15	255.69
738.48	255.34
738.81	255.01
739.14	254.68
739.47	254.35
739.80	254.06
740.13	253.75
740.46	253.42
740.79	253.09
741.12	252.76
741.45	252.45
741.78	252.08
742.11	251.77
742.44	251.45
742.77	251.17
743.10	250.88
743.43	250.58
743.75	250.22
744.08	250.06
744.41	249.77
744.74	249.48
745.07	249.20
745.40	248.96
745.73	248.72
746.06	248.48
746.39	248.23
746.71	247.98
747.04	247.74
747.37	247.46
747.70	247.22
748.03	246.99
748.36	246.76
748.68	246.53
749.01	246.30
749.34	246.09
749.67	245.84
750.00	245.61
750.33	245.47
750.65	245.28
750.98	244.93
751.31	244.73
751.64	244.54
751.97	244.37
752.29	244.16
752.62	243.92
752.95	243.73
753.28	243.52
753.60	243.29
753.93	243.15
754.26	243.02
754.59	242.80
754.91	242.61
755.24	242.46
755.57	242.32
755.90	242.13
756.22	241.95
756.55	241.82
756.88	241.64
757.20	241.41
757.53	241.23
757.86	241.07
758.19	240.94
758.51	240.77
758.84	240.58
759.17	240.42
759.49	240.29
759.82	240.14
760.15	240.01
760.47	239.88
760.80	239.68
761.13	239.55
761.45	239.43
761.78	239.30
762.11	239.14
762.43	238.97
762.76	238.82
763.08	238.73
763.41	238.60
763.74	238.49
764.06	238.37
764.39	238.19
764.71	238.04
765.04	237.89
765.37	237.76
765.69	237.65
766.02	237.50
766.34	237.39
766.67	237.26
767.00	237.12
767.32	237.04
767.65	236.98
767.97	236.84
768.30	236.73
768.62	236.58
768.95	236.45
769.27	236.34
769.60	236.27
769.92	236.13
770.25	235.99
770.57	235.81
770.90	235.70
771.22	235.62
771.55	235.56
771.87	235.45
772.20	235.36
772.52	235.35
772.85	235.39
773.17	235.26
773.50	235.13
773.82	235.02
774.15	234.87
774.47	234.72
774.80	234.60
775.12	234.52
775.45	234.44
775.77	234.39
776.09	234.30
776.42	234.21
776.74	234.16
777.07	234.06
777.39	234.03
777.72	233.96
778.04	233.85
778.36	233.75
778.69	233.67
779.01	233.58
779.33	233.41
779.66	233.25
779.98	233.21
780.31	233.15
780.63	233.17
780.95	233.16
781.28	233.06
781.60	233.04
781.92	232.94
782.25	232.86
782.57	232.76
782.89	232.70
783.22	232.62
783.54	232.53
783.86	232.48
784.19	232.41
784.51	232.36
784.83	232.31
785.16	232.24
785.48	232.20
785.80	232.17
786.12	232.11
786.45	232.04
786.77	231.97
787.09	231.92
