SpectraSuite Data File
++++++++++++++++++++++++++++++++++++
Date: Fri Feb 01 15:20:41 EST 2013
User: group
Dark Spectrum Present: No
Reference Spectrum Present: No
Number of Sampled Component Spectra: 1
Spectrometers: USB2E7196
Integration Time (usec): 35000 (USB2E7196)
Spectra Averaged: 100 (USB2E7196)
Boxcar Smoothing: 10 (USB2E7196)
Correct for Electrical Dark: No (USB2E7196)
Strobe/Lamp Enabled: No (USB2E7196)
Correct for Detector Non-linearity: No (USB2E7196)
Correct for Stray Light: No (USB2E7196)
Number of Pixels in Processed Spectrum: 2048
>>>>>Begin Processed Spectral Data<<<<<
339.09	0.00
339.48	215.51
339.86	217.23
340.24	218.62
340.63	219.18
341.01	222.43
341.39	222.33
341.78	223.57
342.16	224.57
342.54	224.59
342.93	213.66
343.31	224.46
343.69	224.95
344.07	225.40
344.46	225.79
344.84	226.20
345.22	226.41
345.60	226.66
345.99	226.83
346.37	226.97
346.75	227.08
347.13	227.15
347.52	227.19
347.90	227.25
348.28	227.25
348.66	227.31
349.05	227.31
349.43	227.36
349.81	227.41
350.19	227.46
350.57	227.49
350.96	227.57
351.34	227.64
351.72	227.76
352.10	227.83
352.48	227.89
352.87	227.94
353.25	228.01
353.63	228.07
354.01	228.16
354.39	228.22
354.77	228.31
355.15	228.41
355.54	228.48
355.92	228.51
356.30	228.58
356.68	228.70
357.06	228.77
357.44	228.81
357.82	228.86
358.20	228.93
358.58	228.99
358.97	229.05
359.35	229.11
359.73	229.19
360.11	229.27
360.49	229.33
360.87	229.38
361.25	229.42
361.63	229.49
362.01	229.53
362.39	229.54
362.77	229.59
363.15	229.62
363.53	229.64
363.91	229.68
364.29	229.71
364.67	229.62
365.05	229.63
365.43	229.67
365.81	229.68
366.19	229.70
366.57	229.74
366.95	229.70
367.33	229.69
367.71	229.64
368.09	229.60
368.47	229.57
368.85	229.54
369.23	229.53
369.61	229.47
369.99	229.44
370.37	229.45
370.75	229.47
371.13	229.38
371.51	229.34
371.89	229.27
372.27	229.22
372.65	229.18
373.03	229.13
373.41	229.05
373.78	228.96
374.16	228.84
374.54	228.77
374.92	228.71
375.30	228.66
375.68	228.58
376.06	228.54
376.44	228.48
376.82	228.43
377.19	228.36
377.57	228.28
377.95	228.21
378.33	228.11
378.71	227.95
379.09	227.90
379.47	227.81
379.84	227.75
380.22	227.66
380.60	227.58
380.98	227.54
381.36	227.46
381.73	227.39
382.11	227.35
382.49	227.27
382.87	227.19
383.25	227.11
383.62	227.15
384.00	227.03
384.38	226.98
384.76	226.90
385.13	226.89
385.51	226.82
385.89	226.76
386.27	226.72
386.64	226.73
387.02	226.67
387.40	226.65
387.78	226.63
388.15	226.59
388.53	226.55
388.91	226.47
389.29	226.44
389.66	226.46
390.04	226.43
390.42	226.43
390.79	226.41
391.17	226.40
391.55	226.31
391.92	226.32
392.30	226.34
392.68	226.33
393.05	226.31
393.43	226.35
393.81	226.36
394.18	226.38
394.56	226.39
394.94	226.44
395.31	226.43
395.69	226.47
396.06	226.57
396.44	226.59
396.82	226.64
397.19	226.73
397.57	226.77
397.95	226.81
398.32	226.83
398.70	226.90
399.07	226.98
399.45	227.03
399.82	227.11
400.20	227.15
400.58	227.25
400.95	227.29
401.33	227.40
401.70	227.55
402.08	227.62
402.45	227.72
402.83	227.86
403.20	228.02
403.58	228.10
403.95	228.20
404.33	228.37
404.71	228.46
405.08	228.63
405.46	228.77
405.83	228.94
406.21	229.07
406.58	229.24
406.96	229.40
407.33	229.57
407.70	229.79
408.08	230.06
408.45	230.29
408.83	230.54
409.20	230.77
409.58	230.95
409.95	231.23
410.33	231.49
410.70	231.76
411.08	232.05
411.45	232.38
411.82	232.69
412.20	233.06
412.57	233.50
412.95	233.82
413.32	234.25
413.69	234.66
414.07	235.14
414.44	235.64
414.82	236.14
415.19	236.69
415.56	237.23
415.94	237.80
416.31	238.43
416.68	239.07
417.06	239.76
417.43	240.46
417.81	241.20
418.18	241.99
418.55	242.79
418.93	243.66
419.30	244.55
419.67	245.53
420.04	246.46
420.42	247.44
420.79	248.58
421.16	249.71
421.54	250.93
421.91	252.17
422.28	253.41
422.66	254.74
423.03	256.03
423.40	257.37
423.77	258.78
424.15	260.21
424.52	261.71
424.89	263.36
425.26	264.91
425.64	266.40
426.01	267.99
426.38	269.63
426.75	271.29
427.13	273.00
427.50	274.79
427.87	276.65
428.24	278.54
428.61	280.28
428.99	282.27
429.36	284.36
429.73	286.41
430.10	288.44
430.47	290.46
430.85	292.64
431.22	294.85
431.59	297.26
431.96	299.52
432.33	302.00
432.70	304.35
433.08	307.16
433.45	309.80
433.82	312.42
434.19	315.32
434.56	318.15
434.93	320.82
435.30	323.38
435.68	326.29
436.05	329.10
436.42	331.88
436.79	334.36
437.16	337.07
437.53	339.89
437.90	342.67
438.27	345.48
438.64	348.28
439.01	350.87
439.38	353.08
439.75	355.23
440.13	357.72
440.50	360.08
440.87	361.89
441.24	363.86
441.61	366.00
441.98	367.47
442.35	369.22
442.72	371.10
443.09	372.95
443.46	373.94
443.83	374.56
444.20	375.13
444.57	375.91
444.94	376.19
445.31	376.51
445.68	376.90
446.05	376.93
446.42	376.55
446.79	376.15
447.16	375.72
447.53	375.38
447.90	374.19
448.27	372.99
448.64	371.43
449.01	370.25
449.37	368.26
449.74	366.42
450.11	364.20
450.48	361.70
450.85	359.17
451.22	357.03
451.59	355.00
451.96	353.07
452.33	350.52
452.70	348.15
453.07	345.32
453.43	342.42
453.80	339.67
454.17	337.00
454.54	334.47
454.91	331.73
455.28	329.07
455.65	326.59
456.02	324.19
456.38	322.05
456.75	319.42
457.12	317.21
457.49	314.97
457.86	312.81
458.23	310.98
458.59	308.93
458.96	306.86
459.33	305.02
459.70	303.14
460.07	301.67
460.43	299.96
460.80	298.33
461.17	296.90
461.54	295.40
461.91	293.97
462.27	292.53
462.64	291.29
463.01	289.95
463.38	288.66
463.74	287.29
464.11	286.12
464.48	285.07
464.85	283.99
465.21	283.12
465.58	282.20
465.95	281.14
466.32	280.26
466.68	279.35
467.05	278.46
467.42	277.56
467.78	276.54
468.15	275.67
468.52	275.01
468.88	274.17
469.25	273.40
469.62	272.77
469.98	272.08
470.35	271.43
470.72	270.85
471.08	270.18
471.45	269.62
471.82	269.07
472.18	268.47
472.55	267.94
472.92	267.39
473.28	266.89
473.65	266.39
474.02	265.92
474.38	265.53
474.75	265.20
475.11	264.84
475.48	264.62
475.85	264.38
476.21	264.12
476.58	263.89
476.94	263.72
477.31	263.54
477.67	263.36
478.04	263.24
478.41	263.15
478.77	263.20
479.14	263.10
479.50	263.12
479.87	263.18
480.23	263.28
480.60	263.36
480.96	263.46
481.33	263.66
481.69	263.85
482.06	264.01
482.42	264.17
482.79	264.43
483.15	264.70
483.52	265.04
483.88	265.40
484.25	265.78
484.61	266.23
484.98	266.66
485.34	267.23
485.71	267.80
486.07	268.34
486.44	268.84
486.80	269.53
487.17	270.21
487.53	270.97
487.90	271.84
488.26	272.76
488.62	273.74
488.99	274.68
489.35	275.69
489.72	276.81
490.08	278.01
490.44	279.25
490.81	280.59
491.17	281.93
491.54	283.39
491.90	284.93
492.26	286.54
492.63	288.28
492.99	290.04
493.36	291.93
493.72	294.02
494.08	296.15
494.45	298.38
494.81	300.72
495.17	303.18
495.54	305.72
495.90	308.42
496.26	311.21
496.63	314.16
496.99	317.30
497.35	320.59
497.72	323.99
498.08	327.52
498.44	331.18
498.80	335.15
499.17	339.17
499.53	343.35
499.89	347.71
500.26	352.23
500.62	356.92
500.98	361.87
501.34	366.94
501.71	372.25
502.07	377.74
502.43	383.41
502.79	389.23
503.16	395.32
503.52	401.55
503.88	407.93
504.24	414.61
504.60	421.48
504.97	428.55
505.33	435.88
505.69	443.59
506.05	451.35
506.41	459.27
506.78	467.43
507.14	475.86
507.50	484.60
507.86	493.68
508.22	502.86
508.59	512.10
508.95	521.70
509.31	531.52
509.67	541.65
510.03	551.89
510.39	562.46
510.75	573.26
511.12	584.20
511.48	595.53
511.84	607.00
512.20	618.55
512.56	630.57
512.92	642.72
513.28	655.06
513.64	667.65
514.00	680.31
514.37	693.30
514.73	706.37
515.09	719.43
515.45	732.71
515.81	746.30
516.17	760.28
516.53	774.42
516.89	788.58
517.25	802.69
517.61	817.15
517.97	831.58
518.33	846.06
518.69	860.87
519.05	875.88
519.41	891.06
519.77	906.63
520.13	922.12
520.49	937.55
520.85	953.03
521.21	968.65
521.57	985.00
521.93	1000.82
522.29	1017.24
522.65	1033.50
523.01	1049.76
523.37	1065.80
523.73	1081.98
524.09	1098.12
524.45	1114.58
524.81	1131.32
525.17	1148.31
525.53	1165.41
525.89	1182.35
526.25	1199.25
526.61	1215.69
526.97	1232.52
527.33	1249.02
527.68	1265.62
528.04	1282.20
528.40	1298.85
528.76	1315.99
529.12	1332.51
529.48	1349.44
529.84	1365.65
530.20	1382.41
530.56	1399.36
530.91	1417.03
531.27	1433.94
531.63	1450.47
531.99	1467.03
532.35	1483.05
532.71	1498.92
533.07	1515.08
533.42	1530.98
533.78	1547.07
534.14	1563.44
534.50	1578.73
534.86	1594.64
535.21	1609.88
535.57	1625.90
535.93	1641.34
536.29	1656.25
536.65	1671.49
537.00	1686.29
537.36	1701.69
537.72	1716.27
538.08	1730.86
538.44	1744.54
538.79	1758.51
539.15	1772.33
539.51	1786.20
539.87	1800.65
540.22	1814.36
540.58	1828.38
540.94	1841.80
541.29	1854.80
541.65	1867.50
542.01	1880.92
542.37	1893.26
542.72	1905.87
543.08	1917.62
543.44	1930.23
543.79	1941.48
544.15	1952.48
544.51	1964.11
544.87	1975.05
545.22	1985.86
545.58	1996.01
545.94	2005.75
546.29	2015.64
546.65	2025.43
547.01	2034.62
547.36	2043.35
547.72	2051.92
548.07	2059.69
548.43	2067.95
548.79	2076.05
549.14	2083.60
549.50	2091.01
549.86	2098.87
550.21	2106.09
550.57	2113.47
550.92	2120.13
551.28	2127.32
551.64	2134.37
551.99	2141.01
552.35	2147.08
552.70	2153.25
553.06	2159.23
553.41	2165.71
553.77	2171.76
554.13	2177.85
554.48	2184.15
554.84	2189.47
555.19	2194.88
555.55	2200.06
555.90	2204.57
556.26	2209.34
556.61	2214.21
556.97	2218.39
557.32	2222.52
557.68	2226.79
558.03	2231.01
558.39	2234.69
558.74	2239.24
559.10	2243.19
559.45	2246.80
559.81	2251.25
560.16	2255.06
560.52	2258.43
560.87	2261.84
561.23	2264.54
561.58	2267.53
561.94	2269.92
562.29	2272.51
562.64	2275.14
563.00	2277.73
563.35	2281.20
563.71	2284.30
564.06	2287.46
564.42	2290.37
564.77	2292.76
565.12	2294.78
565.48	2296.64
565.83	2298.35
566.19	2299.61
566.54	2300.46
566.89	2301.48
567.25	2301.97
567.60	2303.27
567.96	2304.93
568.31	2305.76
568.66	2306.61
569.02	2307.09
569.37	2307.45
569.72	2308.06
570.08	2308.10
570.43	2308.06
570.78	2307.23
571.14	2305.69
571.49	2304.21
571.84	2303.79
572.20	2302.47
572.55	2301.40
572.90	2299.70
573.26	2298.18
573.61	2296.44
573.96	2294.62
574.31	2291.63
574.67	2288.56
575.02	2284.83
575.37	2281.39
575.72	2277.38
576.08	2274.08
576.43	2270.66
576.78	2266.83
577.13	2263.80
577.49	2260.58
577.84	2257.09
578.19	2253.37
578.54	2249.54
578.90	2245.24
579.25	2239.61
579.60	2234.68
579.95	2229.71
580.30	2224.54
580.66	2219.39
581.01	2214.39
581.36	2209.35
581.71	2205.13
582.06	2200.56
582.42	2195.95
582.77	2190.57
583.12	2186.04
583.47	2181.06
583.82	2176.00
584.17	2170.77
584.53	2165.00
584.88	2159.23
585.23	2153.14
585.58	2147.71
585.93	2142.26
586.28	2137.47
586.63	2132.13
586.98	2126.97
587.34	2122.16
587.69	2117.28
588.04	2111.91
588.39	2106.07
588.74	2099.46
589.09	2093.25
589.44	2086.34
589.79	2080.20
590.14	2074.39
590.49	2067.68
590.84	2061.41
591.19	2055.37
591.54	2048.74
591.89	2041.25
592.25	2034.55
592.60	2027.41
592.95	2019.63
593.30	2012.23
593.65	2004.55
594.00	1997.43
594.35	1990.12
594.70	1981.94
595.05	1974.61
595.40	1967.25
595.75	1959.69
596.10	1953.35
596.45	1946.46
596.80	1940.33
597.15	1933.69
597.50	1926.59
597.85	1920.17
598.19	1913.32
598.54	1906.01
598.89	1899.27
599.24	1893.41
599.59	1886.56
599.94	1880.29
600.29	1873.94
600.64	1867.31
600.99	1859.72
601.34	1852.94
601.69	1846.11
602.04	1839.08
602.39	1831.71
602.74	1824.92
603.08	1818.08
603.43	1811.39
603.78	1804.15
604.13	1796.83
604.48	1789.51
604.83	1782.67
605.18	1775.53
605.53	1767.46
605.87	1759.48
606.22	1752.30
606.57	1744.39
606.92	1737.04
607.27	1729.73
607.62	1722.78
607.96	1715.52
608.31	1708.87
608.66	1701.23
609.01	1693.42
609.36	1686.02
609.70	1677.95
610.05	1669.77
610.40	1662.13
610.75	1653.81
611.10	1646.07
611.44	1637.73
611.79	1629.69
612.14	1621.10
612.49	1612.09
612.83	1603.79
613.18	1595.71
613.53	1587.69
613.88	1579.05
614.22	1570.68
614.57	1562.20
614.92	1554.08
615.27	1546.41
615.61	1538.16
615.96	1530.17
616.31	1522.63
616.65	1515.12
617.00	1507.60
617.35	1500.08
617.70	1491.74
618.04	1483.06
618.39	1474.84
618.74	1467.09
619.08	1458.87
619.43	1451.22
619.78	1444.28
620.12	1437.12
620.47	1429.58
620.82	1421.39
621.16	1414.02
621.51	1406.48
621.85	1398.83
622.20	1390.43
622.55	1382.11
622.89	1374.22
623.24	1366.61
623.59	1359.29
623.93	1351.86
624.28	1344.59
624.62	1336.95
624.97	1329.71
625.32	1323.20
625.66	1316.16
626.01	1309.02
626.35	1301.48
626.70	1293.67
627.04	1285.91
627.39	1278.16
627.73	1270.70
628.08	1263.66
628.43	1256.29
628.77	1248.85
629.12	1241.26
629.46	1234.01
629.81	1226.55
630.15	1219.34
630.50	1211.94
630.84	1203.71
631.19	1195.82
631.53	1188.43
631.88	1180.90
632.22	1173.42
632.57	1166.05
632.91	1158.45
633.26	1151.00
633.60	1143.77
633.95	1136.82
634.29	1129.74
634.64	1123.10
634.98	1115.72
635.32	1108.60
635.67	1102.10
636.01	1095.57
636.36	1088.77
636.70	1082.36
637.05	1075.90
637.39	1069.49
637.73	1062.94
638.08	1057.12
638.42	1051.12
638.77	1044.60
639.11	1037.97
639.45	1031.56
639.80	1024.87
640.14	1018.43
640.49	1011.99
640.83	1005.65
641.17	999.28
641.52	993.03
641.86	986.58
642.20	980.89
642.55	974.66
642.89	968.08
643.23	961.58
643.58	955.88
643.92	949.62
644.26	943.47
644.61	937.48
644.95	931.42
645.29	924.72
645.64	917.98
645.98	911.72
646.32	905.95
646.66	899.93
647.01	894.11
647.35	888.48
647.69	882.67
648.04	877.16
648.38	871.34
648.72	865.30
649.06	859.17
649.41	853.15
649.75	847.12
650.09	841.21
650.43	835.42
650.78	829.18
651.12	823.26
651.46	817.59
651.80	811.77
652.14	806.43
652.49	801.03
652.83	795.76
653.17	790.00
653.51	784.22
653.85	778.78
654.20	773.15
654.54	767.11
654.88	761.31
655.22	755.39
655.56	749.68
655.90	744.29
656.25	739.05
656.59	733.79
656.93	728.74
657.27	723.64
657.61	718.15
657.95	713.12
658.29	707.99
658.64	702.73
658.98	697.48
659.32	692.00
659.66	686.86
660.00	681.56
660.34	676.72
660.68	671.85
661.02	666.81
661.36	662.12
661.70	657.66
662.05	653.32
662.39	649.02
662.73	644.62
663.07	640.20
663.41	635.86
663.75	631.31
664.09	626.74
664.43	622.33
664.77	618.24
665.11	613.99
665.45	609.94
665.79	605.87
666.13	601.70
666.47	597.61
666.81	593.44
667.15	589.42
667.49	585.48
667.83	581.71
668.17	577.85
668.51	573.86
668.85	569.86
669.19	566.03
669.53	562.19
669.87	558.33
670.21	554.66
670.55	550.93
670.89	547.51
671.23	544.11
671.57	540.61
671.91	537.07
672.25	533.61
672.58	530.06
672.92	526.70
673.26	523.61
673.60	520.54
673.94	517.47
674.28	514.60
674.62	511.65
674.96	508.54
675.30	505.62
675.64	502.68
675.97	499.91
676.31	497.05
676.65	494.14
676.99	491.44
677.33	488.60
677.67	485.86
678.01	482.80
678.34	479.87
678.68	477.01
679.02	474.21
679.36	471.47
679.70	468.76
680.04	465.95
680.37	463.02
680.71	460.25
681.05	457.64
681.39	454.82
681.73	452.18
682.06	449.65
682.40	447.14
682.74	444.63
683.08	442.08
683.42	439.49
683.75	437.01
684.09	434.48
684.43	431.96
684.77	429.49
685.10	427.19
685.44	424.82
685.78	422.53
686.12	420.36
686.45	418.11
686.79	415.78
687.13	413.56
687.46	411.43
687.80	409.27
688.14	407.08
688.48	405.06
688.81	402.80
689.15	400.64
689.49	398.50
689.82	396.40
690.16	394.30
690.50	392.39
690.83	390.41
691.17	388.41
691.51	386.55
691.84	384.69
692.18	382.76
692.52	380.82
692.85	378.95
693.19	377.01
693.52	375.16
693.86	373.43
694.20	371.69
694.53	369.89
694.87	368.08
695.21	366.26
695.54	364.47
695.88	362.80
696.21	361.12
696.55	359.45
696.88	357.73
697.22	356.09
697.56	354.46
697.89	352.77
698.23	351.16
698.56	349.54
698.90	347.98
699.23	346.35
699.57	344.79
699.90	343.21
700.24	341.60
700.58	340.02
700.91	338.48
701.25	337.07
701.58	335.71
701.92	334.33
702.25	332.96
702.59	331.59
702.92	330.25
703.26	328.92
703.59	327.61
703.93	326.48
704.26	325.26
704.60	323.90
704.93	322.63
705.26	321.42
705.60	320.25
705.93	319.08
706.27	318.06
706.60	317.03
706.94	315.98
707.27	314.91
707.61	313.85
707.94	312.84
708.27	311.71
708.61	310.59
708.94	309.60
709.28	308.64
709.61	307.65
709.94	306.71
710.28	305.68
710.61	304.72
710.95	303.62
711.28	302.71
711.61	301.80
711.95	300.90
712.28	299.98
712.61	299.02
712.95	298.08
713.28	297.15
713.61	296.26
713.95	295.33
714.28	294.51
714.61	293.66
714.95	292.83
715.28	292.00
715.61	291.13
715.95	290.26
716.28	289.39
716.61	288.59
716.95	287.77
717.28	287.05
717.61	286.24
717.94	285.53
718.28	284.69
718.61	283.99
718.94	283.32
719.27	282.68
719.61	282.01
719.94	281.39
720.27	280.71
720.60	280.04
720.94	279.43
721.27	278.80
721.60	278.28
721.93	277.67
722.27	277.12
722.60	276.60
722.93	276.05
723.26	275.50
723.59	274.94
723.93	274.35
724.26	273.78
724.59	273.26
724.92	272.74
725.25	272.32
725.59	271.80
725.92	271.30
726.25	270.76
726.58	270.29
726.91	269.80
727.24	269.34
727.57	268.89
727.91	268.38
728.24	267.94
728.57	267.40
728.90	266.93
729.23	266.45
729.56	266.00
729.89	265.52
730.22	265.06
730.55	264.57
730.89	264.15
731.22	263.71
731.55	263.30
731.88	262.86
732.21	262.37
732.54	261.94
732.87	261.51
733.20	261.11
733.53	260.71
733.86	260.32
734.19	259.94
734.52	259.57
734.85	259.27
735.18	258.88
735.51	258.54
735.84	258.18
736.17	257.82
736.50	257.44
736.83	257.22
737.16	256.88
737.49	256.59
737.82	256.24
738.15	255.94
738.48	255.57
738.81	255.25
739.14	254.98
739.47	254.66
739.80	254.38
740.13	254.07
740.46	253.76
740.79	253.41
741.12	253.10
741.45	252.76
741.78	252.42
742.11	252.14
742.44	251.82
742.77	251.56
743.10	251.29
743.43	251.01
743.75	250.62
744.08	250.49
744.41	250.19
744.74	249.93
745.07	249.63
745.40	249.44
745.73	249.17
746.06	248.90
746.39	248.64
746.71	248.34
747.04	248.08
747.37	247.82
747.70	247.61
748.03	247.38
748.36	247.20
748.68	246.95
749.01	246.67
749.34	246.46
749.67	246.19
750.00	245.92
750.33	245.78
750.65	245.58
750.98	245.27
751.31	245.08
751.64	244.86
751.97	244.71
752.29	244.46
752.62	244.25
752.95	243.99
753.28	243.79
753.60	243.58
753.93	243.40
754.26	243.19
754.59	242.94
754.91	242.71
755.24	242.48
755.57	242.32
755.90	242.14
756.22	241.92
756.55	241.73
756.88	241.57
757.20	241.33
757.53	241.10
757.86	240.91
758.19	240.77
758.51	240.62
758.84	240.43
759.17	240.28
759.49	240.12
759.82	240.03
760.15	239.89
760.47	239.74
760.80	239.55
761.13	239.45
761.45	239.30
761.78	239.16
762.11	239.00
762.43	238.82
762.76	238.68
763.08	238.59
763.41	238.48
763.74	238.34
764.06	238.16
764.39	238.05
764.71	237.89
765.04	237.73
765.37	237.61
765.69	237.45
766.02	237.31
766.34	237.17
766.67	237.01
767.00	236.90
767.32	236.83
767.65	236.78
767.97	236.65
768.30	236.53
768.62	236.42
768.95	236.30
769.27	236.18
769.60	236.07
769.92	235.94
770.25	235.79
770.57	235.68
770.90	235.60
771.22	235.48
771.55	235.41
771.87	235.30
772.20	235.18
772.52	235.17
772.85	235.16
773.17	235.05
773.50	234.93
773.82	234.84
774.15	234.71
774.47	234.57
774.80	234.46
775.12	234.40
775.45	234.30
775.77	234.24
776.09	234.17
776.42	234.11
776.74	234.04
777.07	234.00
777.39	233.88
777.72	233.77
778.04	233.72
778.36	233.60
778.69	233.52
779.01	233.45
779.33	233.29
779.66	233.12
779.98	233.05
780.31	233.02
780.63	232.96
780.95	232.90
781.28	232.81
781.60	232.74
781.92	232.67
782.25	232.61
782.57	232.56
782.89	232.49
783.22	232.40
783.54	232.32
783.86	232.25
784.19	232.20
784.51	232.19
784.83	232.12
785.16	232.04
785.48	231.96
785.80	231.92
786.12	231.89
786.45	231.86
786.77	231.84
787.09	231.78
