SpectraSuite Data File
++++++++++++++++++++++++++++++++++++
Date: Fri Feb 01 16:28:23 EST 2013
User: group
Dark Spectrum Present: No
Reference Spectrum Present: No
Number of Sampled Component Spectra: 1
Spectrometers: USB2E7196
Integration Time (usec): 35000 (USB2E7196)
Spectra Averaged: 100 (USB2E7196)
Boxcar Smoothing: 10 (USB2E7196)
Correct for Electrical Dark: No (USB2E7196)
Strobe/Lamp Enabled: No (USB2E7196)
Correct for Detector Non-linearity: No (USB2E7196)
Correct for Stray Light: No (USB2E7196)
Number of Pixels in Processed Spectrum: 2048
>>>>>Begin Processed Spectral Data<<<<<
339.09	0.00
339.48	213.22
339.86	215.31
340.24	216.54
340.63	218.40
341.01	220.80
341.39	221.02
341.78	221.81
342.16	222.81
342.54	223.87
342.93	212.27
343.31	222.98
343.69	223.54
344.07	224.03
344.46	224.46
344.84	224.82
345.22	225.05
345.60	225.29
345.99	225.51
346.37	225.67
346.75	225.78
347.13	225.84
347.52	225.87
347.90	225.92
348.28	226.00
348.66	226.04
349.05	226.00
349.43	226.05
349.81	226.14
350.19	226.19
350.57	226.25
350.96	226.35
351.34	226.47
351.72	226.58
352.10	226.64
352.48	226.73
352.87	226.80
353.25	226.86
353.63	226.94
354.01	227.00
354.39	227.07
354.77	227.16
355.15	227.27
355.54	227.33
355.92	227.37
356.30	227.43
356.68	227.53
357.06	227.61
357.44	227.63
357.82	227.68
358.20	227.76
358.58	227.81
358.97	227.86
359.35	227.92
359.73	227.98
360.11	228.04
360.49	228.13
360.87	228.16
361.25	228.24
361.63	228.33
362.01	228.38
362.39	228.44
362.77	228.48
363.15	228.53
363.53	228.56
363.91	228.59
364.29	228.61
364.67	228.53
365.05	228.53
365.43	228.58
365.81	228.64
366.19	228.67
366.57	228.71
366.95	228.72
367.33	228.71
367.71	228.69
368.09	228.72
368.47	228.68
368.85	228.67
369.23	228.67
369.61	228.61
369.99	228.59
370.37	228.56
370.75	228.56
371.13	228.48
371.51	228.43
371.89	228.40
372.27	228.34
372.65	228.32
373.03	228.29
373.41	228.26
373.78	228.18
374.16	228.07
374.54	227.97
374.92	227.87
375.30	227.79
375.68	227.72
376.06	227.62
376.44	227.53
376.82	227.48
377.19	227.40
377.57	227.33
377.95	227.23
378.33	227.14
378.71	227.02
379.09	226.98
379.47	226.93
379.84	226.86
380.22	226.78
380.60	226.67
380.98	226.62
381.36	226.53
381.73	226.43
382.11	226.40
382.49	226.35
382.87	226.33
383.25	226.27
383.62	226.33
384.00	226.29
384.38	226.24
384.76	226.19
385.13	226.15
385.51	226.09
385.89	226.04
386.27	225.98
386.64	225.99
387.02	225.92
387.40	225.86
387.78	225.79
388.15	225.76
388.53	225.76
388.91	225.71
389.29	225.66
389.66	225.63
390.04	225.58
390.42	225.57
390.79	225.52
391.17	225.52
391.55	225.39
391.92	225.35
392.30	225.37
392.68	225.35
393.05	225.34
393.43	225.35
393.81	225.36
394.18	225.37
394.56	225.35
394.94	225.38
395.31	225.43
395.69	225.51
396.06	225.55
396.44	225.58
396.82	225.61
397.19	225.72
397.57	225.72
397.95	225.80
398.32	225.82
398.70	225.88
399.07	225.93
399.45	226.00
399.82	226.06
400.20	226.10
400.58	226.18
400.95	226.22
401.33	226.29
401.70	226.42
402.08	226.51
402.45	226.60
402.83	226.70
403.20	226.77
403.58	226.85
403.95	226.99
404.33	227.13
404.71	227.28
405.08	227.43
405.46	227.60
405.83	227.74
406.21	227.85
406.58	228.04
406.96	228.19
407.33	228.37
407.70	228.57
408.08	228.82
408.45	229.03
408.83	229.27
409.20	229.50
409.58	229.69
409.95	229.96
410.33	230.21
410.70	230.43
411.08	230.72
411.45	231.03
411.82	231.30
412.20	231.63
412.57	232.06
412.95	232.33
413.32	232.75
413.69	233.15
414.07	233.59
414.44	234.04
414.82	234.52
415.19	235.07
415.56	235.64
415.94	236.17
416.31	236.82
416.68	237.47
417.06	238.19
417.43	238.88
417.81	239.63
418.18	240.44
418.55	241.29
418.93	242.16
419.30	243.06
419.67	244.01
420.04	244.97
420.42	245.94
420.79	247.13
421.16	248.25
421.54	249.42
421.91	250.68
422.28	251.92
422.66	253.26
423.03	254.54
423.40	255.86
423.77	257.31
424.15	258.73
424.52	260.20
424.89	261.79
425.26	263.33
425.64	264.80
426.01	266.35
426.38	268.00
426.75	269.70
427.13	271.38
427.50	273.17
427.87	275.09
428.24	276.95
428.61	278.69
428.99	280.69
429.36	282.82
429.73	284.84
430.10	286.86
430.47	288.92
430.85	291.02
431.22	293.27
431.59	295.66
431.96	297.90
432.33	300.31
432.70	302.67
433.08	305.46
433.45	308.05
433.82	310.63
434.19	313.50
434.56	316.25
434.93	318.95
435.30	321.52
435.68	324.37
436.05	327.19
436.42	329.97
436.79	332.42
437.16	335.08
437.53	337.87
437.90	340.66
438.27	343.34
438.64	346.17
439.01	348.73
439.38	350.92
439.75	353.02
440.13	355.53
440.50	357.83
440.87	359.67
441.24	361.58
441.61	363.70
441.98	365.18
442.35	366.98
442.72	368.80
443.09	370.67
443.46	371.66
443.83	372.25
444.20	372.71
444.57	373.56
444.94	373.88
445.31	374.28
445.68	374.64
446.05	374.75
446.42	374.39
446.79	373.93
447.16	373.48
447.53	373.23
447.90	372.07
448.27	370.94
448.64	369.39
449.01	368.32
449.37	366.45
449.74	364.58
450.11	362.37
450.48	359.93
450.85	357.35
451.22	355.21
451.59	353.17
451.96	351.32
452.33	348.69
452.70	346.30
453.07	343.45
453.43	340.58
453.80	337.83
454.17	335.18
454.54	332.65
454.91	329.95
455.28	327.29
455.65	324.80
456.02	322.43
456.38	320.31
456.75	317.64
457.12	315.36
457.49	313.14
457.86	311.01
458.23	309.19
458.59	307.20
458.96	305.15
459.33	303.32
459.70	301.48
460.07	300.00
460.43	298.31
460.80	296.68
461.17	295.22
461.54	293.75
461.91	292.32
462.27	290.92
462.64	289.68
463.01	288.31
463.38	287.08
463.74	285.67
464.11	284.50
464.48	283.46
464.85	282.38
465.21	281.57
465.58	280.62
465.95	279.50
466.32	278.58
466.68	277.68
467.05	276.77
467.42	275.87
467.78	274.94
468.15	274.08
468.52	273.43
468.88	272.60
469.25	271.84
469.62	271.20
469.98	270.56
470.35	269.93
470.72	269.37
471.08	268.71
471.45	268.18
471.82	267.63
472.18	267.05
472.55	266.63
472.92	266.08
473.28	265.61
473.65	265.18
474.02	264.78
474.38	264.40
474.75	264.08
475.11	263.72
475.48	263.49
475.85	263.25
476.21	263.07
476.58	262.86
476.94	262.72
477.31	262.58
477.67	262.40
478.04	262.31
478.41	262.20
478.77	262.21
479.14	262.17
479.50	262.17
479.87	262.22
480.23	262.33
480.60	262.38
480.96	262.50
481.33	262.73
481.69	262.92
482.06	263.13
482.42	263.34
482.79	263.59
483.15	263.89
483.52	264.31
483.88	264.64
484.25	265.06
484.61	265.49
484.98	265.95
485.34	266.54
485.71	267.11
486.07	267.77
486.44	268.35
486.80	269.06
487.17	269.80
487.53	270.65
487.90	271.45
488.26	272.41
488.62	273.43
488.99	274.40
489.35	275.44
489.72	276.59
490.08	277.82
490.44	279.11
490.81	280.45
491.17	281.79
491.54	283.30
491.90	284.85
492.26	286.49
492.63	288.19
492.99	289.98
493.36	291.89
493.72	293.92
494.08	296.03
494.45	298.28
494.81	300.68
495.17	303.16
495.54	305.75
495.90	308.45
496.26	311.21
496.63	314.10
496.99	317.21
497.35	320.46
497.72	323.81
498.08	327.27
498.44	330.94
498.80	334.86
499.17	338.91
499.53	343.08
499.89	347.49
500.26	352.06
500.62	356.73
500.98	361.67
501.34	366.70
501.71	372.04
502.07	377.52
502.43	383.13
502.79	388.92
503.16	395.00
503.52	401.31
503.88	407.75
504.24	414.41
504.60	421.34
504.97	428.47
505.33	435.89
505.69	443.62
506.05	451.44
506.41	459.29
506.78	467.40
507.14	475.80
507.50	484.46
507.86	493.44
508.22	502.61
508.59	511.89
508.95	521.50
509.31	531.32
509.67	541.38
510.03	551.65
510.39	562.20
510.75	572.99
511.12	583.84
511.48	595.15
511.84	606.57
512.20	618.00
512.56	629.87
512.92	641.92
513.28	654.26
513.64	666.67
514.00	679.40
514.37	692.32
514.73	705.45
515.09	718.49
515.45	731.72
515.81	745.29
516.17	759.26
516.53	773.39
516.89	787.55
517.25	801.60
517.61	816.01
517.97	830.42
518.33	844.79
518.69	859.57
519.05	874.50
519.41	889.66
519.77	905.22
520.13	920.68
520.49	936.02
520.85	951.38
521.21	967.11
521.57	983.33
521.93	999.06
522.29	1015.33
522.65	1031.47
523.01	1047.70
523.37	1063.72
523.73	1079.83
524.09	1095.80
524.45	1112.06
524.81	1128.73
525.17	1145.49
525.53	1162.37
525.89	1179.12
526.25	1195.91
526.61	1212.25
526.97	1228.94
527.33	1245.39
527.68	1261.86
528.04	1278.29
528.40	1294.79
528.76	1311.72
529.12	1328.30
529.48	1345.05
529.84	1360.99
530.20	1377.60
530.56	1394.47
530.91	1411.80
531.27	1428.37
531.63	1444.75
531.99	1461.14
532.35	1476.96
532.71	1492.81
533.07	1508.95
533.42	1524.84
533.78	1540.84
534.14	1557.05
534.50	1572.31
534.86	1587.94
535.21	1603.14
535.57	1618.98
535.93	1634.40
536.29	1649.16
536.65	1664.01
537.00	1678.58
537.36	1693.84
537.72	1708.26
538.08	1722.56
538.44	1736.16
538.79	1750.05
539.15	1763.68
539.51	1777.35
539.87	1791.63
540.22	1805.16
540.58	1818.83
540.94	1832.09
541.29	1844.83
541.65	1857.33
542.01	1870.39
542.37	1882.70
542.72	1894.92
543.08	1906.57
543.44	1918.88
543.79	1929.94
544.15	1940.86
544.51	1952.51
544.87	1963.32
545.22	1974.12
545.58	1984.24
545.94	1993.92
546.29	2003.60
546.65	2013.33
547.01	2022.60
547.36	2031.18
547.72	2039.65
548.07	2047.37
548.43	2055.42
548.79	2063.43
549.14	2070.85
549.50	2078.02
549.86	2085.63
550.21	2092.93
550.57	2100.14
550.92	2106.56
551.28	2113.49
551.64	2120.41
551.99	2126.85
552.35	2133.06
552.70	2139.22
553.06	2145.17
553.41	2151.54
553.77	2157.55
554.13	2163.56
554.48	2169.65
554.84	2175.26
555.19	2180.41
555.55	2185.63
555.90	2190.10
556.26	2194.92
556.61	2199.79
556.97	2204.21
557.32	2208.47
557.68	2212.54
558.03	2216.85
558.39	2220.62
558.74	2225.42
559.10	2229.39
559.45	2233.21
559.81	2237.49
560.16	2241.19
560.52	2244.44
560.87	2247.83
561.23	2250.50
561.58	2253.64
561.94	2256.21
562.29	2258.49
562.64	2261.18
563.00	2263.68
563.35	2267.15
563.71	2270.35
564.06	2273.50
564.42	2276.40
564.77	2278.81
565.12	2281.19
565.48	2283.12
565.83	2285.11
566.19	2286.46
566.54	2287.34
566.89	2288.49
567.25	2289.10
567.60	2290.40
567.96	2292.13
568.31	2292.99
568.66	2294.23
569.02	2294.65
569.37	2295.01
569.72	2295.94
570.08	2296.21
570.43	2296.34
570.78	2295.96
571.14	2294.44
571.49	2293.17
571.84	2293.00
572.20	2291.98
572.55	2290.96
572.90	2289.35
573.26	2288.04
573.61	2286.34
573.96	2284.71
574.31	2281.72
574.67	2278.82
575.02	2275.36
575.37	2272.02
575.72	2268.31
576.08	2265.11
576.43	2261.86
576.78	2258.21
577.13	2255.16
577.49	2252.10
577.84	2248.71
578.19	2244.95
578.54	2241.32
578.90	2237.21
579.25	2231.61
579.60	2226.67
579.95	2221.79
580.30	2216.97
580.66	2211.79
581.01	2206.95
581.36	2202.11
581.71	2198.01
582.06	2193.64
582.42	2189.24
582.77	2184.24
583.12	2179.73
583.47	2174.89
583.82	2169.96
584.17	2164.71
584.53	2159.35
584.88	2153.77
585.23	2147.99
585.58	2142.63
585.93	2137.34
586.28	2132.62
586.63	2127.69
586.98	2122.73
587.34	2118.03
587.69	2113.13
588.04	2108.02
588.39	2102.38
588.74	2095.96
589.09	2089.79
589.44	2083.02
589.79	2077.12
590.14	2071.56
590.49	2065.01
590.84	2058.84
591.19	2052.97
591.54	2046.73
591.89	2039.26
592.25	2032.60
592.60	2025.52
592.95	2017.89
593.30	2010.48
593.65	2002.94
594.00	1995.90
594.35	1988.63
594.70	1980.64
595.05	1973.52
595.40	1966.04
595.75	1958.58
596.10	1952.49
596.45	1945.89
596.80	1939.87
597.15	1933.24
597.50	1926.09
597.85	1919.78
598.19	1913.08
598.54	1905.92
598.89	1899.17
599.24	1893.40
599.59	1886.64
599.94	1880.56
600.29	1874.37
600.64	1867.84
600.99	1860.41
601.34	1853.49
601.69	1846.62
602.04	1839.83
602.39	1832.50
602.74	1825.89
603.08	1819.24
603.43	1812.47
603.78	1805.20
604.13	1797.85
604.48	1790.49
604.83	1783.68
605.18	1776.64
605.53	1768.63
605.87	1760.83
606.22	1753.68
606.57	1745.71
606.92	1738.48
607.27	1731.31
607.62	1724.30
607.96	1717.19
608.31	1710.53
608.66	1703.05
609.01	1695.51
609.36	1687.87
609.70	1679.90
610.05	1671.76
610.40	1663.98
610.75	1655.69
611.10	1647.97
611.44	1639.57
611.79	1631.60
612.14	1622.87
612.49	1613.82
612.83	1605.51
613.18	1597.20
613.53	1589.01
613.88	1580.42
614.22	1572.09
614.57	1563.51
614.92	1555.52
615.27	1547.93
615.61	1539.66
615.96	1531.65
616.31	1523.96
616.65	1516.62
617.00	1509.04
617.35	1501.38
617.70	1493.05
618.04	1484.56
618.39	1476.35
618.74	1468.78
619.08	1460.51
619.43	1452.96
619.78	1446.02
620.12	1438.79
620.47	1431.35
620.82	1423.22
621.16	1415.81
621.51	1408.24
621.85	1400.63
622.20	1392.16
622.55	1383.75
622.89	1375.96
623.24	1368.29
623.59	1360.84
623.93	1353.31
624.28	1346.12
624.62	1338.71
624.97	1331.58
625.32	1324.79
625.66	1317.78
626.01	1310.62
626.35	1303.16
626.70	1295.47
627.04	1287.76
627.39	1279.98
627.73	1272.60
628.08	1265.73
628.43	1258.53
628.77	1251.22
629.12	1243.57
629.46	1236.42
629.81	1228.91
630.15	1221.69
630.50	1214.29
630.84	1206.25
631.19	1198.34
631.53	1190.71
631.88	1183.06
632.22	1175.33
632.57	1168.02
632.91	1160.46
633.26	1153.05
633.60	1145.66
633.95	1138.42
634.29	1131.39
634.64	1124.80
634.98	1117.48
635.32	1110.21
635.67	1103.60
636.01	1096.90
636.36	1090.13
636.70	1083.59
637.05	1077.08
637.39	1070.54
637.73	1063.98
638.08	1058.01
638.42	1052.05
638.77	1045.68
639.11	1039.03
639.45	1032.78
639.80	1026.14
640.14	1019.71
640.49	1013.18
640.83	1006.87
641.17	1000.70
641.52	994.32
641.86	987.82
642.20	981.92
642.55	975.66
642.89	969.12
643.23	962.57
643.58	956.78
643.92	950.55
644.26	944.42
644.61	938.42
644.95	932.42
645.29	925.83
645.64	919.07
645.98	912.71
646.32	906.99
646.66	900.96
647.01	895.18
647.35	889.36
647.69	883.44
648.04	877.95
648.38	872.16
648.72	866.15
649.06	860.07
649.41	854.22
649.75	848.26
650.09	842.34
650.43	836.56
650.78	830.44
651.12	824.52
651.46	818.85
651.80	813.09
652.14	807.75
652.49	802.48
652.83	797.31
653.17	791.57
653.51	785.75
653.85	780.33
654.20	774.71
654.54	768.80
654.88	763.15
655.22	757.24
655.56	751.57
655.90	746.15
656.25	740.94
656.59	735.55
656.93	730.51
657.27	725.32
657.61	719.88
657.95	714.71
658.29	709.60
658.64	704.33
658.98	699.01
659.32	693.50
659.66	688.24
660.00	682.99
660.34	678.10
660.68	673.23
661.02	668.19
661.36	663.45
661.70	658.89
662.05	654.47
662.39	650.17
662.73	645.69
663.07	641.28
663.41	636.82
663.75	632.32
664.09	627.72
664.43	623.33
664.77	619.19
665.11	614.98
665.45	610.84
665.79	606.73
666.13	602.60
666.47	598.56
666.81	594.34
667.15	590.15
667.49	586.22
667.83	582.34
668.17	578.36
668.51	574.18
668.85	570.23
669.19	566.41
669.53	562.53
669.87	558.64
670.21	554.97
670.55	551.30
670.89	547.84
671.23	544.42
671.57	540.90
671.91	537.36
672.25	533.83
672.58	530.31
672.92	526.91
673.26	523.73
673.60	520.58
673.94	517.43
674.28	514.53
674.62	511.58
674.96	508.52
675.30	505.61
675.64	502.75
675.97	499.94
676.31	497.03
676.65	494.14
676.99	491.41
677.33	488.52
677.67	485.71
678.01	482.67
678.34	479.65
678.68	476.76
679.02	473.90
679.36	471.09
679.70	468.39
680.04	465.60
680.37	462.69
680.71	459.84
681.05	457.27
681.39	454.54
681.73	451.85
682.06	449.30
682.40	446.73
682.74	444.19
683.08	441.62
683.42	439.04
683.75	436.50
684.09	433.95
684.43	431.44
684.77	429.03
685.10	426.70
685.44	424.44
685.78	422.16
686.12	419.95
686.45	417.68
686.79	415.30
687.13	413.11
687.46	410.94
687.80	408.77
688.14	406.48
688.48	404.42
688.81	402.19
689.15	400.01
689.49	397.87
689.82	395.80
690.16	393.77
690.50	391.81
690.83	389.88
691.17	387.87
691.51	386.04
691.84	384.13
692.18	382.15
692.52	380.16
692.85	378.23
693.19	376.31
693.52	374.52
693.86	372.75
694.20	371.00
694.53	369.26
694.87	367.40
695.21	365.68
695.54	363.92
695.88	362.23
696.21	360.53
696.55	358.85
696.88	357.18
697.22	355.51
697.56	353.90
697.89	352.24
698.23	350.67
698.56	349.05
698.90	347.48
699.23	345.87
699.57	344.32
699.90	342.76
700.24	341.23
700.58	339.68
700.91	338.17
701.25	336.69
701.58	335.27
701.92	333.96
702.25	332.54
702.59	331.08
702.92	329.75
703.26	328.44
703.59	327.14
703.93	325.94
704.26	324.69
704.60	323.32
704.93	322.04
705.26	320.75
705.60	319.54
705.93	318.34
706.27	317.31
706.60	316.27
706.94	315.20
707.27	314.10
707.61	313.05
707.94	312.04
708.27	310.96
708.61	309.91
708.94	308.88
709.28	307.95
709.61	307.03
709.94	306.07
710.28	305.09
710.61	304.16
710.95	303.11
711.28	302.21
711.61	301.31
711.95	300.41
712.28	299.50
712.61	298.51
712.95	297.60
713.28	296.65
713.61	295.73
713.95	294.83
714.28	293.99
714.61	293.11
714.95	292.26
715.28	291.36
715.61	290.48
715.95	289.62
716.28	288.73
716.61	287.92
716.95	287.06
717.28	286.29
717.61	285.49
717.94	284.73
718.28	283.85
718.61	283.12
718.94	282.38
719.27	281.69
719.61	281.03
719.94	280.33
720.27	279.66
720.60	278.95
720.94	278.33
721.27	277.70
721.60	277.08
721.93	276.46
722.27	275.93
722.60	275.33
722.93	274.76
723.26	274.24
723.59	273.61
723.93	273.07
724.26	272.50
724.59	271.93
724.92	271.43
725.25	270.96
725.59	270.43
725.92	269.93
726.25	269.45
726.58	268.97
726.91	268.50
727.24	268.02
727.57	267.59
727.91	267.04
728.24	266.60
728.57	266.12
728.90	265.65
729.23	265.19
729.56	264.78
729.89	264.29
730.22	263.82
730.55	263.39
730.89	262.97
731.22	262.53
731.55	262.09
731.88	261.63
732.21	261.19
732.54	260.77
732.87	260.37
733.20	259.98
733.53	259.64
733.86	259.23
734.19	258.84
734.52	258.46
734.85	258.19
735.18	257.79
735.51	257.45
735.84	257.11
736.17	256.76
736.50	256.37
736.83	256.19
737.16	255.84
737.49	255.54
737.82	255.20
738.15	254.89
738.48	254.57
738.81	254.24
739.14	253.92
739.47	253.62
739.80	253.34
740.13	253.04
740.46	252.71
740.79	252.43
741.12	252.12
741.45	251.82
741.78	251.44
742.11	251.16
742.44	250.85
742.77	250.58
743.10	250.30
743.43	250.01
743.75	249.60
744.08	249.44
744.41	249.15
744.74	248.88
745.07	248.59
745.40	248.37
745.73	248.17
746.06	247.90
746.39	247.64
746.71	247.37
747.04	247.10
747.37	246.83
747.70	246.56
748.03	246.30
748.36	246.06
748.68	245.87
749.01	245.62
749.34	245.36
749.67	245.08
750.00	244.87
750.33	244.72
750.65	244.51
750.98	244.17
751.31	243.95
751.64	243.69
751.97	243.52
752.29	243.26
752.62	242.98
752.95	242.74
753.28	242.53
753.60	242.30
753.93	242.12
754.26	241.92
754.59	241.71
754.91	241.54
755.24	241.32
755.57	241.10
755.90	240.92
756.22	240.70
756.55	240.50
756.88	240.27
757.20	240.01
757.53	239.81
757.86	239.64
758.19	239.50
758.51	239.35
758.84	239.13
759.17	238.93
759.49	238.80
759.82	238.71
760.15	238.56
760.47	238.38
760.80	238.14
761.13	237.97
761.45	237.81
761.78	237.61
762.11	237.50
762.43	237.37
762.76	237.21
763.08	237.09
763.41	236.99
763.74	236.86
764.06	236.68
764.39	236.53
764.71	236.40
765.04	236.22
765.37	236.07
765.69	235.94
766.02	235.84
766.34	235.69
766.67	235.52
767.00	235.40
767.32	235.36
767.65	235.34
767.97	235.23
768.30	235.11
768.62	235.01
768.95	234.87
769.27	234.74
769.60	234.65
769.92	234.54
770.25	234.41
770.57	234.31
770.90	234.25
771.22	234.17
771.55	234.08
771.87	234.06
772.20	233.97
772.52	233.98
772.85	234.01
773.17	233.95
773.50	233.87
773.82	233.79
774.15	233.67
774.47	233.53
774.80	233.44
775.12	233.37
775.45	233.33
775.77	233.25
776.09	233.21
776.42	233.11
776.74	233.10
777.07	233.06
777.39	232.98
777.72	232.93
778.04	232.86
778.36	232.77
778.69	232.70
779.01	232.64
779.33	232.51
779.66	232.36
779.98	232.32
780.31	232.25
780.63	232.23
780.95	232.16
781.28	232.11
781.60	232.06
781.92	232.01
782.25	231.93
782.57	231.90
782.89	231.83
783.22	231.78
783.54	231.68
783.86	231.65
784.19	231.61
784.51	231.56
784.83	231.51
785.16	231.45
785.48	231.38
785.80	231.34
786.12	231.26
786.45	231.20
786.77	231.13
787.09	231.09
