SpectraSuite Data File
++++++++++++++++++++++++++++++++++++
Date: Fri Feb 01 18:06:01 EST 2013
User: group
Dark Spectrum Present: No
Reference Spectrum Present: No
Number of Sampled Component Spectra: 1
Spectrometers: USB2E7196
Integration Time (usec): 35000 (USB2E7196)
Spectra Averaged: 100 (USB2E7196)
Boxcar Smoothing: 10 (USB2E7196)
Correct for Electrical Dark: No (USB2E7196)
Strobe/Lamp Enabled: No (USB2E7196)
Correct for Detector Non-linearity: No (USB2E7196)
Correct for Stray Light: No (USB2E7196)
Number of Pixels in Processed Spectrum: 2048
>>>>>Begin Processed Spectral Data<<<<<
339.09	0.00
339.48	213.39
339.86	213.93
340.24	215.72
340.63	217.34
341.01	220.06
341.39	219.98
341.78	220.72
342.16	222.45
342.54	223.23
342.93	211.43
343.31	222.12
343.69	222.65
344.07	223.13
344.46	223.56
344.84	223.94
345.22	224.16
345.60	224.42
345.99	224.65
346.37	224.76
346.75	224.84
347.13	224.94
347.52	224.97
347.90	225.06
348.28	225.07
348.66	225.11
349.05	225.13
349.43	225.16
349.81	225.20
350.19	225.24
350.57	225.28
350.96	225.34
351.34	225.43
351.72	225.55
352.10	225.64
352.48	225.68
352.87	225.73
353.25	225.82
353.63	225.90
354.01	225.97
354.39	226.04
354.77	226.13
355.15	226.23
355.54	226.30
355.92	226.30
356.30	226.39
356.68	226.53
357.06	226.59
357.44	226.68
357.82	226.73
358.20	226.80
358.58	226.88
358.97	226.95
359.35	227.01
359.73	227.04
360.11	227.10
360.49	227.18
360.87	227.25
361.25	227.32
361.63	227.36
362.01	227.40
362.39	227.46
362.77	227.49
363.15	227.50
363.53	227.55
363.91	227.63
364.29	227.63
364.67	227.54
365.05	227.60
365.43	227.61
365.81	227.65
366.19	227.70
366.57	227.73
366.95	227.70
367.33	227.67
367.71	227.65
368.09	227.70
368.47	227.67
368.85	227.62
369.23	227.63
369.61	227.56
369.99	227.56
370.37	227.54
370.75	227.59
371.13	227.55
371.51	227.48
371.89	227.43
372.27	227.37
372.65	227.33
373.03	227.28
373.41	227.21
373.78	227.15
374.16	227.08
374.54	226.98
374.92	226.93
375.30	226.90
375.68	226.86
376.06	226.78
376.44	226.75
376.82	226.70
377.19	226.61
377.57	226.60
377.95	226.51
378.33	226.44
378.71	226.28
379.09	226.26
379.47	226.24
379.84	226.13
380.22	226.10
380.60	226.04
380.98	225.98
381.36	225.91
381.73	225.84
382.11	225.80
382.49	225.80
382.87	225.72
383.25	225.66
383.62	225.74
384.00	225.70
384.38	225.63
384.76	225.61
385.13	225.63
385.51	225.54
385.89	225.50
386.27	225.49
386.64	225.48
387.02	225.41
387.40	225.33
387.78	225.30
388.15	225.27
388.53	225.20
388.91	225.17
389.29	225.17
389.66	225.15
390.04	225.07
390.42	225.04
390.79	225.08
391.17	225.06
391.55	224.88
391.92	224.85
392.30	224.86
392.68	224.84
393.05	224.81
393.43	224.81
393.81	224.82
394.18	224.77
394.56	224.78
394.94	224.81
395.31	224.81
395.69	224.88
396.06	224.90
396.44	224.97
396.82	224.99
397.19	225.07
397.57	225.09
397.95	225.18
398.32	225.18
398.70	225.20
399.07	225.30
399.45	225.39
399.82	225.43
400.20	225.49
400.58	225.55
400.95	225.61
401.33	225.71
401.70	225.85
402.08	225.96
402.45	226.05
402.83	226.17
403.20	226.30
403.58	226.42
403.95	226.53
404.33	226.66
404.71	226.79
405.08	226.98
405.46	227.14
405.83	227.30
406.21	227.51
406.58	227.69
406.96	227.88
407.33	228.11
407.70	228.34
408.08	228.67
408.45	228.92
408.83	229.17
409.20	229.41
409.58	229.65
409.95	230.00
410.33	230.35
410.70	230.66
411.08	231.05
411.45	231.45
411.82	231.88
412.20	232.37
412.57	232.89
412.95	233.26
413.32	233.85
413.69	234.36
414.07	234.93
414.44	235.55
414.82	236.19
415.19	236.88
415.56	237.64
415.94	238.36
416.31	239.20
416.68	240.06
417.06	241.04
417.43	241.94
417.81	242.98
418.18	244.03
418.55	245.16
418.93	246.34
419.30	247.53
419.67	248.79
420.04	250.05
420.42	251.39
420.79	253.00
421.16	254.53
421.54	256.15
421.91	257.81
422.28	259.58
422.66	261.38
423.03	263.13
423.40	264.92
423.77	266.83
424.15	268.75
424.52	270.75
424.89	272.91
425.26	275.06
425.64	277.00
426.01	279.20
426.38	281.43
426.75	283.71
427.13	286.06
427.50	288.52
427.87	291.10
428.24	293.66
428.61	296.02
428.99	298.64
429.36	301.55
429.73	304.33
430.10	307.03
430.47	309.81
430.85	312.71
431.22	315.75
431.59	318.95
431.96	322.05
432.33	325.46
432.70	328.69
433.08	332.50
433.45	336.06
433.82	339.55
434.19	343.49
434.56	347.26
434.93	350.91
435.30	354.50
435.68	358.40
436.05	362.23
436.42	366.08
436.79	369.52
437.16	373.19
437.53	377.07
437.90	380.91
438.27	384.62
438.64	388.50
439.01	392.02
439.38	395.09
439.75	398.02
440.13	401.46
440.50	404.64
440.87	407.16
441.24	409.84
441.61	412.83
441.98	414.91
442.35	417.40
442.72	419.91
443.09	422.37
443.46	423.74
443.83	424.53
444.20	425.16
444.57	426.30
444.94	426.66
445.31	427.08
445.68	427.51
446.05	427.60
446.42	427.05
446.79	426.54
447.16	425.97
447.53	425.51
447.90	423.87
448.27	422.35
448.64	420.17
449.01	418.61
449.37	415.90
449.74	413.29
450.11	410.21
450.48	406.81
450.85	403.33
451.22	400.39
451.59	397.66
451.96	395.03
452.33	391.49
452.70	388.30
453.07	384.48
453.43	380.56
453.80	376.85
454.17	373.26
454.54	369.76
454.91	366.06
455.28	362.44
455.65	359.05
456.02	355.63
456.38	352.72
456.75	349.06
457.12	345.99
457.49	342.96
457.86	340.04
458.23	337.50
458.59	334.72
458.96	331.89
459.33	329.36
459.70	326.80
460.07	324.69
460.43	322.34
460.80	320.14
461.17	318.13
461.54	316.05
461.91	314.08
462.27	312.04
462.64	310.35
463.01	308.52
463.38	306.73
463.74	304.91
464.11	303.28
464.48	301.92
464.85	300.38
465.21	299.19
465.58	297.87
465.95	296.40
466.32	295.14
466.68	293.94
467.05	292.72
467.42	291.55
467.78	290.29
468.15	289.07
468.52	288.13
468.88	286.99
469.25	285.93
469.62	285.07
469.98	284.19
470.35	283.24
470.72	282.38
471.08	281.52
471.45	280.78
471.82	280.07
472.18	279.23
472.55	278.64
472.92	277.89
473.28	277.28
473.65	276.63
474.02	276.03
474.38	275.46
474.75	274.96
475.11	274.44
475.48	274.07
475.85	273.73
476.21	273.39
476.58	273.09
476.94	272.88
477.31	272.56
477.67	272.32
478.04	272.17
478.41	272.02
478.77	271.96
479.14	271.75
479.50	271.64
479.87	271.63
480.23	271.60
480.60	271.61
480.96	271.57
481.33	271.74
481.69	271.85
482.06	272.00
482.42	272.11
482.79	272.31
483.15	272.58
483.52	272.94
483.88	273.24
484.25	273.56
484.61	273.93
484.98	274.39
485.34	274.89
485.71	275.46
486.07	276.06
486.44	276.61
486.80	277.37
487.17	278.11
487.53	278.94
487.90	279.85
488.26	280.80
488.62	281.85
488.99	282.84
489.35	283.91
489.72	285.08
490.08	286.37
490.44	287.66
490.81	289.03
491.17	290.41
491.54	291.93
491.90	293.50
492.26	295.28
492.63	297.10
492.99	298.97
493.36	300.96
493.72	303.13
494.08	305.32
494.45	307.67
494.81	310.19
495.17	312.76
495.54	315.47
495.90	318.28
496.26	321.22
496.63	324.35
496.99	327.67
497.35	331.11
497.72	334.75
498.08	338.53
498.44	342.43
498.80	346.57
499.17	350.84
499.53	355.34
499.89	359.95
500.26	364.71
500.62	369.65
500.98	374.91
501.34	380.22
501.71	385.91
502.07	391.68
502.43	397.66
502.79	403.84
503.16	410.26
503.52	416.95
503.88	423.77
504.24	430.86
504.60	438.17
504.97	445.81
505.33	453.52
505.69	461.71
506.05	470.02
506.41	478.45
506.78	487.20
507.14	496.19
507.50	505.47
507.86	515.15
508.22	525.04
508.59	534.92
508.95	545.21
509.31	555.76
509.67	566.57
510.03	577.54
510.39	588.88
510.75	600.45
511.12	612.22
511.48	624.39
511.84	636.68
512.20	649.05
512.56	661.82
512.92	674.99
513.28	688.32
513.64	701.76
514.00	715.49
514.37	729.41
514.73	743.65
515.09	757.70
515.45	772.01
515.81	786.69
516.17	801.81
516.53	817.15
516.89	832.53
517.25	847.95
517.61	863.64
517.97	879.38
518.33	895.12
518.69	911.19
519.05	927.44
519.41	943.98
519.77	960.91
520.13	977.82
520.49	994.56
520.85	1011.32
521.21	1028.46
521.57	1046.17
521.93	1063.48
522.29	1081.38
522.65	1099.30
523.01	1117.13
523.37	1134.78
523.73	1152.51
524.09	1170.15
524.45	1188.00
524.81	1206.32
525.17	1224.81
525.53	1243.41
525.89	1262.11
526.25	1280.72
526.61	1298.92
526.97	1317.45
527.33	1335.80
527.68	1354.19
528.04	1372.63
528.40	1391.06
528.76	1410.18
529.12	1428.65
529.48	1447.52
529.84	1465.46
530.20	1484.05
530.56	1502.97
530.91	1522.43
531.27	1541.32
531.63	1559.98
531.99	1578.66
532.35	1596.63
532.71	1614.55
533.07	1632.93
533.42	1650.89
533.78	1669.04
534.14	1687.51
534.50	1705.07
534.86	1723.04
535.21	1740.41
535.57	1758.50
535.93	1776.20
536.29	1793.09
536.65	1810.43
537.00	1827.42
537.36	1844.87
537.72	1861.49
538.08	1878.26
538.44	1894.18
538.79	1910.24
539.15	1925.96
539.51	1941.84
539.87	1958.56
540.22	1974.64
540.58	1990.74
540.94	2006.34
541.29	2021.51
541.65	2036.39
542.01	2051.82
542.37	2066.45
542.72	2081.17
543.08	2095.43
543.44	2110.21
543.79	2123.76
544.15	2136.95
544.51	2150.92
544.87	2164.25
545.22	2177.52
545.58	2189.94
545.94	2201.99
546.29	2214.12
546.65	2226.38
547.01	2237.96
547.36	2248.79
547.72	2259.45
548.07	2269.36
548.43	2279.61
548.79	2289.77
549.14	2299.43
549.50	2308.73
549.86	2318.52
550.21	2327.80
550.57	2336.92
550.92	2345.49
551.28	2354.56
551.64	2363.74
551.99	2372.23
552.35	2380.37
552.70	2388.44
553.06	2396.35
553.41	2404.82
553.77	2412.76
554.13	2420.72
554.48	2428.92
554.84	2436.45
555.19	2443.48
555.55	2450.57
555.90	2456.88
556.26	2463.63
556.61	2470.13
556.97	2476.37
557.32	2482.25
557.68	2488.27
558.03	2494.16
558.39	2499.41
558.74	2505.68
559.10	2511.15
559.45	2516.31
559.81	2522.14
560.16	2527.55
560.52	2532.45
560.87	2537.22
561.23	2541.15
561.58	2545.40
561.94	2549.29
562.29	2552.73
562.64	2557.04
563.00	2560.94
563.35	2565.80
563.71	2570.28
564.06	2574.91
564.42	2579.13
564.77	2583.07
565.12	2586.62
565.48	2589.77
565.83	2592.96
566.19	2595.68
566.54	2597.49
566.89	2599.77
567.25	2601.39
567.60	2603.66
567.96	2606.47
568.31	2608.23
568.66	2610.68
569.02	2612.25
569.37	2613.38
569.72	2615.39
570.08	2616.32
570.43	2617.18
570.78	2617.37
571.14	2616.39
571.49	2615.57
571.84	2615.92
572.20	2615.39
572.55	2614.99
572.90	2613.99
573.26	2613.19
573.61	2611.78
573.96	2610.81
574.31	2608.06
574.67	2605.46
575.02	2602.08
575.37	2598.78
575.72	2595.29
576.08	2591.82
576.43	2588.55
576.78	2585.02
577.13	2581.85
577.49	2578.72
577.84	2575.30
578.19	2571.69
578.54	2568.17
578.90	2564.01
579.25	2558.13
579.60	2552.81
579.95	2547.39
580.30	2541.90
580.66	2536.37
581.01	2531.01
581.36	2525.68
581.71	2521.25
582.06	2516.46
582.42	2511.62
582.77	2506.08
583.12	2501.12
583.47	2496.16
583.82	2491.06
584.17	2485.30
584.53	2479.33
584.88	2473.20
585.23	2466.89
585.58	2460.67
585.93	2454.58
586.28	2449.15
586.63	2443.52
586.98	2438.07
587.34	2432.88
587.69	2427.57
588.04	2421.80
588.39	2415.54
588.74	2408.36
589.09	2401.71
589.44	2394.00
589.79	2387.13
590.14	2380.81
590.49	2373.36
590.84	2366.26
591.19	2359.40
591.54	2352.16
591.89	2343.98
592.25	2336.43
592.60	2328.37
592.95	2319.91
593.30	2311.70
593.65	2303.16
594.00	2295.26
594.35	2286.89
594.70	2277.87
595.05	2269.91
595.40	2261.59
595.75	2252.91
596.10	2245.84
596.45	2238.02
596.80	2231.16
597.15	2223.80
597.50	2215.69
597.85	2208.33
598.19	2200.69
598.54	2192.55
598.89	2184.95
599.24	2178.16
599.59	2170.45
599.94	2163.11
600.29	2155.77
600.64	2147.97
600.99	2139.45
601.34	2131.53
601.69	2123.40
602.04	2115.42
602.39	2106.75
602.74	2098.76
603.08	2091.08
603.43	2083.17
603.78	2074.52
604.13	2066.15
604.48	2057.77
604.83	2049.64
605.18	2041.56
605.53	2032.29
605.87	2022.78
606.22	2014.21
606.57	2004.89
606.92	1996.16
607.27	1987.85
607.62	1979.62
607.96	1971.10
608.31	1963.30
608.66	1954.38
609.01	1945.50
609.36	1936.62
609.70	1927.11
610.05	1917.72
610.40	1908.58
610.75	1898.73
611.10	1889.85
611.44	1879.75
611.79	1870.11
612.14	1860.12
612.49	1849.37
612.83	1839.39
613.18	1829.73
613.53	1820.39
613.88	1810.23
614.22	1800.37
614.57	1790.13
614.92	1780.79
615.27	1772.04
615.61	1762.27
615.96	1752.72
616.31	1743.77
616.65	1734.92
617.00	1726.01
617.35	1716.85
617.70	1707.23
618.04	1697.23
618.39	1687.35
618.74	1678.45
619.08	1668.74
619.43	1659.61
619.78	1651.44
620.12	1642.89
620.47	1634.15
620.82	1624.30
621.16	1615.48
621.51	1606.48
621.85	1597.45
622.20	1587.49
622.55	1577.48
622.89	1568.20
623.24	1559.15
623.59	1550.29
623.93	1541.44
624.28	1532.90
624.62	1524.03
624.97	1515.36
625.32	1507.19
625.66	1499.03
626.01	1490.64
626.35	1481.93
626.70	1472.65
627.04	1463.33
627.39	1454.09
627.73	1445.32
628.08	1437.17
628.43	1428.67
628.77	1420.09
629.12	1411.16
629.46	1402.50
629.81	1393.70
630.15	1385.16
630.50	1376.40
630.84	1366.85
631.19	1357.51
631.53	1348.49
631.88	1339.60
632.22	1330.71
632.57	1322.16
632.91	1313.23
633.26	1304.36
633.60	1295.65
633.95	1287.30
634.29	1279.08
634.64	1271.24
634.98	1262.66
635.32	1254.21
635.67	1246.30
636.01	1238.43
636.36	1230.56
636.70	1222.92
637.05	1215.23
637.39	1207.53
637.73	1199.94
638.08	1193.01
638.42	1185.80
638.77	1178.39
639.11	1170.63
639.45	1163.07
639.80	1155.31
640.14	1147.78
640.49	1140.20
640.83	1132.72
641.17	1125.50
641.52	1118.06
641.86	1110.46
642.20	1103.52
642.55	1096.13
642.89	1088.59
643.23	1080.87
643.58	1074.11
643.92	1066.87
644.26	1059.88
644.61	1052.78
644.95	1045.78
645.29	1038.02
645.64	1030.21
645.98	1022.80
646.32	1015.92
646.66	1008.85
647.01	1002.16
647.35	995.43
647.69	988.55
648.04	982.07
648.38	975.37
648.72	968.49
649.06	961.52
649.41	954.67
649.75	947.72
650.09	940.85
650.43	934.18
650.78	926.94
651.12	920.01
651.46	913.32
651.80	906.71
652.14	900.40
652.49	894.22
652.83	888.29
653.17	881.72
653.51	875.11
653.85	868.80
654.20	862.18
654.54	855.26
654.88	848.61
655.22	841.77
655.56	835.08
655.90	828.68
656.25	822.63
656.59	816.47
656.93	810.66
657.27	804.72
657.61	798.40
657.95	792.42
658.29	786.61
658.64	780.48
658.98	774.31
659.32	767.92
659.66	761.84
660.00	755.70
660.34	749.87
660.68	744.16
661.02	738.38
661.36	732.89
661.70	727.63
662.05	722.60
662.39	717.53
662.73	712.31
663.07	707.22
663.41	702.06
663.75	696.84
664.09	691.48
664.43	686.35
664.77	681.62
665.11	676.76
665.45	671.88
665.79	667.11
666.13	662.34
666.47	657.62
666.81	652.88
667.15	648.08
667.49	643.58
667.83	639.15
668.17	634.62
668.51	629.95
668.85	625.31
669.19	620.77
669.53	616.44
669.87	612.05
670.21	607.73
670.55	603.52
670.89	599.46
671.23	595.42
671.57	591.36
671.91	587.23
672.25	583.12
672.58	579.00
672.92	575.06
673.26	571.26
673.60	567.66
673.94	563.95
674.28	560.59
674.62	557.22
674.96	553.61
675.30	550.14
675.64	546.73
675.97	543.48
676.31	540.17
676.65	536.73
676.99	533.53
677.33	530.21
677.67	526.85
678.01	523.36
678.34	520.01
678.68	516.65
679.02	513.40
679.36	510.23
679.70	507.13
680.04	503.92
680.37	500.70
680.71	497.44
681.05	494.51
681.39	491.28
681.73	488.19
682.06	485.28
682.40	482.41
682.74	479.46
683.08	476.49
683.42	473.48
683.75	470.58
684.09	467.54
684.43	464.67
684.77	461.81
685.10	459.04
685.44	456.36
685.78	453.64
686.12	450.99
686.45	448.29
686.79	445.57
687.13	443.01
687.46	440.49
687.80	437.98
688.14	435.29
688.48	432.93
688.81	430.28
689.15	427.76
689.49	425.17
689.82	422.73
690.16	420.35
690.50	418.10
690.83	415.85
691.17	413.61
691.51	411.39
691.84	409.25
692.18	407.03
692.52	404.66
692.85	402.42
693.19	400.26
693.52	398.14
693.86	396.04
694.20	393.91
694.53	391.83
694.87	389.63
695.21	387.61
695.54	385.49
695.88	383.47
696.21	381.45
696.55	379.52
696.88	377.57
697.22	375.62
697.56	373.68
697.89	371.72
698.23	369.86
698.56	367.98
698.90	366.17
699.23	364.25
699.57	362.44
699.90	360.66
700.24	358.86
700.58	357.08
700.91	355.33
701.25	353.64
701.58	351.99
701.92	350.40
702.25	348.79
702.59	347.19
702.92	345.65
703.26	344.12
703.59	342.67
703.93	341.28
704.26	339.86
704.60	338.37
704.93	336.91
705.26	335.45
705.60	334.10
705.93	332.71
706.27	331.54
706.60	330.34
706.94	329.05
707.27	327.72
707.61	326.47
707.94	325.30
708.27	324.09
708.61	322.86
708.94	321.69
709.28	320.55
709.61	319.43
709.94	318.33
710.28	317.19
710.61	316.02
710.95	314.78
711.28	313.71
711.61	312.61
711.95	311.54
712.28	310.45
712.61	309.30
712.95	308.23
713.28	307.19
713.61	306.13
713.95	305.13
714.28	304.11
714.61	303.09
714.95	302.06
715.28	301.02
715.61	300.01
715.95	299.01
716.28	298.00
716.61	297.05
716.95	296.07
717.28	295.14
717.61	294.23
717.94	293.39
718.28	292.44
718.61	291.57
718.94	290.73
719.27	289.96
719.61	289.19
719.94	288.39
720.27	287.53
720.60	286.76
720.94	286.02
721.27	285.37
721.60	284.71
721.93	284.07
722.27	283.42
722.60	282.74
722.93	282.10
723.26	281.43
723.59	280.74
723.93	280.11
724.26	279.47
724.59	278.81
724.92	278.16
725.25	277.60
725.59	277.02
725.92	276.43
726.25	275.84
726.58	275.27
726.91	274.70
727.24	274.13
727.57	273.60
727.91	273.04
728.24	272.48
728.57	271.89
728.90	271.34
729.23	270.79
729.56	270.32
729.89	269.77
730.22	269.21
730.55	268.70
730.89	268.18
731.22	267.67
731.55	267.18
731.88	266.69
732.21	266.15
732.54	265.64
732.87	265.18
733.20	264.71
733.53	264.26
733.86	263.80
734.19	263.37
734.52	262.91
734.85	262.50
735.18	262.04
735.51	261.63
735.84	261.19
736.17	260.78
736.50	260.28
736.83	259.97
737.16	259.64
737.49	259.22
737.82	258.81
738.15	258.41
738.48	257.99
738.81	257.59
739.14	257.22
739.47	256.86
739.80	256.46
740.13	256.09
740.46	255.74
740.79	255.34
741.12	254.97
741.45	254.58
741.78	254.18
742.11	253.83
742.44	253.48
742.77	253.12
743.10	252.76
743.43	252.44
743.75	252.02
744.08	251.80
744.41	251.48
744.74	251.15
745.07	250.82
745.40	250.58
745.73	250.29
746.06	250.00
746.39	249.65
746.71	249.35
747.04	249.04
747.37	248.72
747.70	248.45
748.03	248.15
748.36	247.90
748.68	247.64
749.01	247.32
749.34	247.07
749.67	246.79
750.00	246.51
750.33	246.31
750.65	246.04
750.98	245.68
751.31	245.44
751.64	245.21
751.97	245.02
752.29	244.76
752.62	244.48
752.95	244.21
753.28	243.98
753.60	243.74
753.93	243.50
754.26	243.23
754.59	242.97
754.91	242.76
755.24	242.52
755.57	242.31
755.90	242.10
756.22	241.82
756.55	241.64
756.88	241.42
757.20	241.15
757.53	240.92
757.86	240.71
758.19	240.51
758.51	240.33
758.84	240.10
759.17	239.86
759.49	239.68
759.82	239.51
760.15	239.34
760.47	239.20
760.80	239.01
761.13	238.89
761.45	238.72
761.78	238.52
762.11	238.31
762.43	238.13
762.76	237.94
763.08	237.80
763.41	237.65
763.74	237.48
764.06	237.29
764.39	237.13
764.71	236.94
765.04	236.76
765.37	236.55
765.69	236.34
766.02	236.20
766.34	236.03
766.67	235.90
767.00	235.78
767.32	235.67
767.65	235.58
767.97	235.45
768.30	235.31
768.62	235.23
768.95	235.12
769.27	235.00
769.60	234.89
769.92	234.73
770.25	234.57
770.57	234.48
770.90	234.40
771.22	234.28
771.55	234.19
771.87	234.12
772.20	234.04
772.52	234.08
772.85	234.08
773.17	234.02
773.50	233.85
773.82	233.76
774.15	233.59
774.47	233.45
774.80	233.33
775.12	233.24
775.45	233.13
775.77	233.03
776.09	232.97
776.42	232.89
776.74	232.86
777.07	232.77
777.39	232.68
777.72	232.62
778.04	232.58
778.36	232.50
778.69	232.41
779.01	232.35
779.33	232.20
779.66	232.03
779.98	231.95
780.31	231.93
780.63	231.85
780.95	231.83
781.28	231.76
781.60	231.70
781.92	231.64
782.25	231.56
782.57	231.49
782.89	231.40
783.22	231.35
783.54	231.29
783.86	231.23
784.19	231.17
784.51	231.11
784.83	231.02
785.16	230.95
785.48	230.92
785.80	230.86
786.12	230.81
786.45	230.76
