SpectraSuite Data File
++++++++++++++++++++++++++++++++++++
Date: Fri Feb 01 17:11:00 EST 2013
User: group
Dark Spectrum Present: No
Reference Spectrum Present: No
Number of Sampled Component Spectra: 1
Spectrometers: USB2E7196
Integration Time (usec): 35000 (USB2E7196)
Spectra Averaged: 100 (USB2E7196)
Boxcar Smoothing: 10 (USB2E7196)
Correct for Electrical Dark: No (USB2E7196)
Strobe/Lamp Enabled: No (USB2E7196)
Correct for Detector Non-linearity: No (USB2E7196)
Correct for Stray Light: No (USB2E7196)
Number of Pixels in Processed Spectrum: 2048
>>>>>Begin Processed Spectral Data<<<<<
339.09	0.00
339.48	213.05
339.86	215.15
340.24	216.08
340.63	217.46
341.01	219.90
341.39	220.33
341.78	221.20
342.16	222.82
342.54	223.74
342.93	211.63
343.31	222.32
343.69	222.88
344.07	223.30
344.46	223.72
344.84	224.10
345.22	224.36
345.60	224.60
345.99	224.83
346.37	224.96
346.75	225.03
347.13	225.12
347.52	225.15
347.90	225.24
348.28	225.30
348.66	225.34
349.05	225.33
349.43	225.33
349.81	225.36
350.19	225.38
350.57	225.45
350.96	225.53
351.34	225.61
351.72	225.69
352.10	225.78
352.48	225.85
352.87	225.88
353.25	225.95
353.63	226.00
354.01	226.01
354.39	226.07
354.77	226.11
355.15	226.20
355.54	226.28
355.92	226.30
356.30	226.36
356.68	226.51
357.06	226.54
357.44	226.59
357.82	226.69
358.20	226.77
358.58	226.81
358.97	226.88
359.35	226.97
359.73	227.06
360.11	227.15
360.49	227.18
360.87	227.26
361.25	227.30
361.63	227.39
362.01	227.47
362.39	227.49
362.77	227.58
363.15	227.61
363.53	227.65
363.91	227.71
364.29	227.73
364.67	227.64
365.05	227.69
365.43	227.76
365.81	227.77
366.19	227.83
366.57	227.90
366.95	227.87
367.33	227.84
367.71	227.83
368.09	227.78
368.47	227.80
368.85	227.74
369.23	227.74
369.61	227.70
369.99	227.71
370.37	227.71
370.75	227.74
371.13	227.68
371.51	227.62
371.89	227.61
372.27	227.56
372.65	227.54
373.03	227.54
373.41	227.49
373.78	227.39
374.16	227.28
374.54	227.16
374.92	227.11
375.30	227.04
375.68	226.96
376.06	226.95
376.44	226.90
376.82	226.86
377.19	226.79
377.57	226.72
377.95	226.63
378.33	226.57
378.71	226.43
379.09	226.40
379.47	226.37
379.84	226.26
380.22	226.22
380.60	226.15
380.98	226.08
381.36	226.00
381.73	225.98
382.11	225.93
382.49	225.86
382.87	225.78
383.25	225.76
383.62	225.81
384.00	225.73
384.38	225.66
384.76	225.63
385.13	225.60
385.51	225.55
385.89	225.50
386.27	225.46
386.64	225.44
387.02	225.40
387.40	225.37
387.78	225.35
388.15	225.30
388.53	225.24
388.91	225.16
389.29	225.11
389.66	225.06
390.04	225.03
390.42	225.01
390.79	225.00
391.17	224.97
391.55	224.81
391.92	224.79
392.30	224.80
392.68	224.76
393.05	224.75
393.43	224.72
393.81	224.72
394.18	224.73
394.56	224.71
394.94	224.71
395.31	224.67
395.69	224.72
396.06	224.72
396.44	224.74
396.82	224.78
397.19	224.86
397.57	224.90
397.95	224.96
398.32	224.96
398.70	225.01
399.07	225.07
399.45	225.15
399.82	225.22
400.20	225.27
400.58	225.32
400.95	225.39
401.33	225.48
401.70	225.59
402.08	225.64
402.45	225.74
402.83	225.83
403.20	225.94
403.58	225.98
403.95	226.09
404.33	226.21
404.71	226.33
405.08	226.54
405.46	226.63
405.83	226.76
406.21	226.91
406.58	227.06
406.96	227.21
407.33	227.35
407.70	227.51
408.08	227.77
408.45	228.00
408.83	228.18
409.20	228.38
409.58	228.56
409.95	228.80
410.33	229.05
410.70	229.30
411.08	229.56
411.45	229.90
411.82	230.23
412.20	230.59
412.57	231.02
412.95	231.22
413.32	231.64
413.69	232.07
414.07	232.52
414.44	233.02
414.82	233.49
415.19	234.06
415.56	234.62
415.94	235.17
416.31	235.82
416.68	236.46
417.06	237.19
417.43	237.93
417.81	238.72
418.18	239.50
418.55	240.37
418.93	241.28
419.30	242.22
419.67	243.21
420.04	244.17
420.42	245.16
420.79	246.41
421.16	247.59
421.54	248.80
421.91	250.05
422.28	251.29
422.66	252.65
423.03	253.97
423.40	255.29
423.77	256.67
424.15	258.13
424.52	259.62
424.89	261.27
425.26	262.80
425.64	264.23
426.01	265.87
426.38	267.52
426.75	269.19
427.13	270.88
427.50	272.69
427.87	274.57
428.24	276.43
428.61	278.16
428.99	280.08
429.36	282.16
429.73	284.21
430.10	286.25
430.47	288.31
430.85	290.46
431.22	292.72
431.59	295.09
431.96	297.28
432.33	299.82
432.70	302.15
433.08	304.98
433.45	307.62
433.82	310.22
434.19	313.11
434.56	315.93
434.93	318.64
435.30	321.20
435.68	324.14
436.05	326.97
436.42	329.76
436.79	332.33
437.16	335.02
437.53	337.81
437.90	340.64
438.27	343.41
438.64	346.23
439.01	348.88
439.38	351.18
439.75	353.37
440.13	355.83
440.50	358.17
440.87	360.02
441.24	361.97
441.61	364.10
441.98	365.56
442.35	367.37
442.72	369.19
443.09	371.06
443.46	372.02
443.83	372.63
444.20	373.18
444.57	373.99
444.94	374.32
445.31	374.71
445.68	375.05
446.05	375.16
446.42	374.80
446.79	374.40
447.16	373.97
447.53	373.68
447.90	372.55
448.27	371.38
448.64	369.80
449.01	368.70
449.37	366.81
449.74	364.97
450.11	362.75
450.48	360.29
450.85	357.75
451.22	355.61
451.59	353.61
451.96	351.67
452.33	349.09
452.70	346.73
453.07	343.91
453.43	341.03
453.80	338.20
454.17	335.54
454.54	332.92
454.91	330.19
455.28	327.48
455.65	325.01
456.02	322.60
456.38	320.42
456.75	317.77
457.12	315.48
457.49	313.24
457.86	311.05
458.23	309.23
458.59	307.15
458.96	305.06
459.33	303.16
459.70	301.29
460.07	299.80
460.43	298.03
460.80	296.42
461.17	294.98
461.54	293.52
461.91	292.02
462.27	290.56
462.64	289.32
463.01	287.98
463.38	286.67
463.74	285.30
464.11	284.18
464.48	283.15
464.85	282.00
465.21	281.16
465.58	280.22
465.95	279.10
466.32	278.22
466.68	277.33
467.05	276.44
467.42	275.54
467.78	274.58
468.15	273.76
468.52	273.04
468.88	272.17
469.25	271.38
469.62	270.75
469.98	270.14
470.35	269.47
470.72	268.88
471.08	268.23
471.45	267.66
471.82	267.10
472.18	266.50
472.55	266.08
472.92	265.55
473.28	265.10
473.65	264.65
474.02	264.20
474.38	263.84
474.75	263.52
475.11	263.14
475.48	262.88
475.85	262.64
476.21	262.44
476.58	262.25
476.94	262.08
477.31	261.94
477.67	261.77
478.04	261.67
478.41	261.59
478.77	261.63
479.14	261.54
479.50	261.56
479.87	261.60
480.23	261.68
480.60	261.72
480.96	261.79
481.33	262.00
481.69	262.17
482.06	262.31
482.42	262.51
482.79	262.79
483.15	263.11
483.52	263.50
483.88	263.85
484.25	264.22
484.61	264.63
484.98	265.07
485.34	265.62
485.71	266.21
486.07	266.84
486.44	267.38
486.80	268.08
487.17	268.80
487.53	269.59
487.90	270.44
488.26	271.37
488.62	272.43
488.99	273.43
489.35	274.52
489.72	275.73
490.08	276.94
490.44	278.20
490.81	279.51
491.17	280.85
491.54	282.34
491.90	283.89
492.26	285.59
492.63	287.36
492.99	289.16
493.36	291.09
493.72	293.12
494.08	295.21
494.45	297.51
494.81	299.85
495.17	302.34
495.54	304.93
495.90	307.62
496.26	310.42
496.63	313.38
496.99	316.48
497.35	319.68
497.72	323.10
498.08	326.64
498.44	330.38
498.80	334.29
499.17	338.27
499.53	342.44
499.89	346.80
500.26	351.28
500.62	355.92
500.98	360.86
501.34	365.95
501.71	371.30
502.07	376.69
502.43	382.33
502.79	388.08
503.16	394.09
503.52	400.32
503.88	406.65
504.24	413.27
504.60	420.11
504.97	427.21
505.33	434.45
505.69	442.11
506.05	449.85
506.41	457.64
506.78	465.74
507.14	474.13
507.50	482.74
507.86	491.68
508.22	500.79
508.59	509.87
508.95	519.32
509.31	529.03
509.67	539.04
510.03	549.14
510.39	559.54
510.75	570.23
511.12	580.96
511.48	592.10
511.84	603.36
512.20	614.74
512.56	626.48
512.92	638.45
513.28	650.62
513.64	662.82
514.00	675.35
514.37	688.13
514.73	701.01
515.09	713.85
515.45	726.84
515.81	740.22
516.17	754.00
516.53	767.95
516.89	781.86
517.25	795.75
517.61	810.01
517.97	824.28
518.33	838.48
518.69	853.11
519.05	867.79
519.41	882.60
519.77	897.83
520.13	913.00
520.49	928.13
520.85	943.18
521.21	958.58
521.57	974.47
521.93	989.91
522.29	1005.93
522.65	1021.81
523.01	1037.71
523.37	1053.40
523.73	1069.16
524.09	1084.85
524.45	1100.76
524.81	1117.12
525.17	1133.52
525.53	1150.10
525.89	1166.56
526.25	1182.92
526.61	1198.93
526.97	1215.42
527.33	1231.57
527.68	1247.75
528.04	1263.96
528.40	1280.15
528.76	1296.84
529.12	1313.13
529.48	1329.73
529.84	1345.30
530.20	1361.76
530.56	1378.39
530.91	1395.46
531.27	1411.97
531.63	1428.03
531.99	1444.35
532.35	1460.11
532.71	1475.68
533.07	1491.60
533.42	1507.31
533.78	1523.15
534.14	1539.18
534.50	1554.12
534.86	1569.66
535.21	1584.73
535.57	1600.30
535.93	1615.49
536.29	1630.11
536.65	1644.92
537.00	1659.26
537.36	1674.49
537.72	1688.59
538.08	1702.81
538.44	1716.28
538.79	1729.91
539.15	1743.40
539.51	1756.72
539.87	1770.78
540.22	1784.19
540.58	1797.65
540.94	1810.59
541.29	1823.06
541.65	1835.51
542.01	1848.53
542.37	1860.69
542.72	1872.82
543.08	1884.50
543.44	1896.63
543.79	1907.61
544.15	1918.26
544.51	1929.65
544.87	1940.36
545.22	1951.18
545.58	1961.29
545.94	1971.07
546.29	1980.68
546.65	1990.54
547.01	1999.92
547.36	2008.49
547.72	2016.97
548.07	2024.92
548.43	2033.18
548.79	2041.21
549.14	2048.84
549.50	2056.09
549.86	2063.70
550.21	2070.93
550.57	2078.06
550.92	2084.86
551.28	2092.06
551.64	2099.23
551.99	2105.92
552.35	2112.19
552.70	2118.31
553.06	2124.38
553.41	2130.72
553.77	2136.79
554.13	2142.76
554.48	2148.81
554.84	2154.44
555.19	2159.78
555.55	2165.05
555.90	2169.58
556.26	2174.69
556.61	2179.52
556.97	2184.21
557.32	2188.48
557.68	2192.86
558.03	2197.11
558.39	2200.82
558.74	2205.49
559.10	2209.47
559.45	2213.21
559.81	2217.57
560.16	2221.45
560.52	2224.81
560.87	2228.39
561.23	2231.37
561.58	2234.37
561.94	2237.23
562.29	2239.55
562.64	2242.40
563.00	2244.99
563.35	2248.60
563.71	2251.91
564.06	2255.11
564.42	2258.13
564.77	2260.82
565.12	2263.39
565.48	2265.69
565.83	2267.86
566.19	2269.56
566.54	2270.57
566.89	2271.96
567.25	2272.82
567.60	2274.33
567.96	2276.31
568.31	2277.27
568.66	2278.60
569.02	2279.47
569.37	2279.96
569.72	2281.16
570.08	2281.59
570.43	2281.85
570.78	2281.61
571.14	2280.32
571.49	2279.25
571.84	2279.00
572.20	2278.19
572.55	2277.33
572.90	2275.83
573.26	2274.70
573.61	2272.98
573.96	2271.73
574.31	2269.12
574.67	2266.37
575.02	2263.09
575.37	2259.86
575.72	2256.37
576.08	2253.19
576.43	2250.06
576.78	2246.80
577.13	2243.72
577.49	2240.71
577.84	2237.67
578.19	2233.97
578.54	2230.62
578.90	2226.83
579.25	2221.45
579.60	2216.77
579.95	2211.99
580.30	2207.12
580.66	2202.21
581.01	2197.44
581.36	2192.68
581.71	2188.68
582.06	2184.52
582.42	2180.18
582.77	2175.14
583.12	2170.92
583.47	2166.47
583.82	2161.89
584.17	2156.69
584.53	2151.57
584.88	2146.23
585.23	2140.68
585.58	2135.51
585.93	2130.15
586.28	2125.32
586.63	2120.68
586.98	2115.68
587.34	2111.11
587.69	2106.50
588.04	2101.48
588.39	2096.12
588.74	2089.83
589.09	2083.89
589.44	2077.33
589.79	2071.48
590.14	2066.07
590.49	2059.62
590.84	2053.30
591.19	2047.52
591.54	2041.29
591.89	2034.18
592.25	2027.76
592.60	2020.74
592.95	2013.44
593.30	2006.30
593.65	1998.89
594.00	1991.85
594.35	1984.80
594.70	1976.88
595.05	1970.16
595.40	1963.02
595.75	1955.62
596.10	1949.64
596.45	1943.17
596.80	1937.23
597.15	1930.92
597.50	1924.07
597.85	1917.78
598.19	1911.36
598.54	1904.52
598.89	1897.99
599.24	1892.31
599.59	1885.82
599.94	1879.58
600.29	1873.28
600.64	1866.73
600.99	1859.54
601.34	1852.96
601.69	1845.96
602.04	1839.25
602.39	1831.79
602.74	1825.07
603.08	1818.49
603.43	1811.85
603.78	1804.45
604.13	1797.15
604.48	1789.93
604.83	1783.11
605.18	1776.46
605.53	1768.45
605.87	1760.36
606.22	1753.01
606.57	1744.82
606.92	1737.21
607.27	1730.19
607.62	1723.34
607.96	1716.28
608.31	1709.88
608.66	1702.29
609.01	1694.95
609.36	1687.60
609.70	1679.63
610.05	1671.65
610.40	1664.04
610.75	1655.77
611.10	1648.22
611.44	1639.84
611.79	1631.76
612.14	1623.08
612.49	1613.70
612.83	1605.45
613.18	1597.25
613.53	1589.30
613.88	1580.92
614.22	1572.83
614.57	1564.11
614.92	1556.20
615.27	1548.76
615.61	1540.38
615.96	1532.33
616.31	1524.65
616.65	1517.22
617.00	1509.76
617.35	1501.93
617.70	1493.67
618.04	1485.18
618.39	1476.95
618.74	1469.47
619.08	1461.08
619.43	1453.54
619.78	1446.64
620.12	1439.65
620.47	1432.21
620.82	1424.09
621.16	1416.68
621.51	1409.02
621.85	1401.49
622.20	1392.88
622.55	1384.36
622.89	1376.46
623.24	1368.76
623.59	1361.28
623.93	1353.66
624.28	1346.32
624.62	1338.91
624.97	1331.65
625.32	1324.69
625.66	1317.69
626.01	1310.50
626.35	1303.33
626.70	1295.56
627.04	1287.83
627.39	1279.91
627.73	1272.49
628.08	1265.63
628.43	1258.40
628.77	1251.18
629.12	1243.58
629.46	1236.41
629.81	1228.93
630.15	1221.67
630.50	1214.27
630.84	1206.26
631.19	1198.23
631.53	1190.69
631.88	1183.11
632.22	1175.49
632.57	1168.23
632.91	1160.63
633.26	1153.18
633.60	1145.60
633.95	1138.27
634.29	1131.19
634.64	1124.38
634.98	1116.95
635.32	1109.65
635.67	1102.96
636.01	1096.17
636.36	1089.46
636.70	1082.95
637.05	1076.42
637.39	1069.91
637.73	1063.48
638.08	1057.43
638.42	1051.40
638.77	1045.00
639.11	1038.41
639.45	1032.01
639.80	1025.39
640.14	1019.01
640.49	1012.40
640.83	1006.17
641.17	1000.12
641.52	993.84
641.86	987.38
642.20	981.58
642.55	975.24
642.89	968.80
643.23	962.16
643.58	956.34
643.92	950.17
644.26	944.19
644.61	938.13
644.95	932.11
645.29	925.60
645.64	918.90
645.98	912.56
646.32	906.62
646.66	900.62
647.01	894.82
647.35	889.05
647.69	883.17
648.04	877.57
648.38	871.78
648.72	865.84
649.06	859.91
649.41	854.02
649.75	848.18
650.09	842.16
650.43	836.50
650.78	830.35
651.12	824.33
651.46	818.57
651.80	812.98
652.14	807.50
652.49	802.13
652.83	797.01
653.17	791.41
653.51	785.79
653.85	780.39
654.20	774.81
654.54	768.89
654.88	763.16
655.22	757.33
655.56	751.56
655.90	746.00
656.25	740.75
656.59	735.35
656.93	730.23
657.27	725.15
657.61	719.70
657.95	714.58
658.29	709.49
658.64	704.14
658.98	698.71
659.32	693.37
659.66	688.14
660.00	682.85
660.34	677.82
660.68	672.91
661.02	667.85
661.36	663.14
661.70	658.55
662.05	654.27
662.39	649.95
662.73	645.54
663.07	641.16
663.41	636.76
663.75	632.32
664.09	627.73
664.43	623.35
664.77	619.24
665.11	614.99
665.45	610.96
665.79	606.93
666.13	602.87
666.47	598.73
666.81	594.61
667.15	590.47
667.49	586.56
667.83	582.63
668.17	578.65
668.51	574.57
668.85	570.59
669.19	566.69
669.53	562.89
669.87	559.03
670.21	555.33
670.55	551.61
670.89	548.18
671.23	544.78
671.57	541.19
671.91	537.68
672.25	534.13
672.58	530.62
672.92	527.18
673.26	523.92
673.60	520.76
673.94	517.67
674.28	514.73
674.62	511.79
674.96	508.76
675.30	505.92
675.64	503.01
675.97	500.19
676.31	497.30
676.65	494.38
676.99	491.68
677.33	488.86
677.67	486.03
678.01	483.00
678.34	480.02
678.68	477.19
679.02	474.35
679.36	471.58
679.70	468.76
680.04	465.99
680.37	463.14
680.71	460.29
681.05	457.60
681.39	454.85
681.73	452.15
682.06	449.58
682.40	447.01
682.74	444.43
683.08	441.85
683.42	439.21
683.75	436.64
684.09	434.01
684.43	431.50
684.77	429.05
685.10	426.67
685.44	424.34
685.78	422.07
686.12	419.78
686.45	417.49
686.79	415.24
687.13	413.04
687.46	410.88
687.80	408.76
688.14	406.54
688.48	404.55
688.81	402.32
689.15	400.19
689.49	398.06
689.82	395.98
690.16	393.90
690.50	391.98
690.83	390.05
691.17	388.09
691.51	386.23
691.84	384.36
692.18	382.49
692.52	380.55
692.85	378.54
693.19	376.75
693.52	374.90
693.86	373.04
694.20	371.27
694.53	369.47
694.87	367.66
695.21	365.86
695.54	364.00
695.88	362.29
696.21	360.52
696.55	358.81
696.88	357.11
697.22	355.46
697.56	353.81
697.89	352.15
698.23	350.54
698.56	348.93
698.90	347.35
699.23	345.68
699.57	344.12
699.90	342.58
700.24	340.95
700.58	339.42
700.91	337.92
701.25	336.45
701.58	335.13
701.92	333.75
702.25	332.39
702.59	331.01
702.92	329.71
703.26	328.39
703.59	327.09
703.93	325.92
704.26	324.69
704.60	323.40
704.93	322.11
705.26	320.87
705.60	319.63
705.93	318.42
706.27	317.35
706.60	316.26
706.94	315.18
707.27	314.03
707.61	312.92
707.94	311.86
708.27	310.79
708.61	309.63
708.94	308.58
709.28	307.55
709.61	306.58
709.94	305.61
710.28	304.57
710.61	303.58
710.95	302.46
711.28	301.50
711.61	300.55
711.95	299.67
712.28	298.72
712.61	297.75
712.95	296.83
713.28	295.90
713.61	294.98
713.95	294.10
714.28	293.27
714.61	292.46
714.95	291.65
715.28	290.78
715.61	289.89
715.95	289.04
716.28	288.23
716.61	287.39
716.95	286.56
717.28	285.78
717.61	284.97
717.94	284.25
718.28	283.40
718.61	282.66
718.94	281.93
719.27	281.23
719.61	280.56
719.94	279.89
720.27	279.19
720.60	278.52
720.94	277.89
721.27	277.26
721.60	276.66
721.93	276.04
722.27	275.51
722.60	274.98
722.93	274.40
723.26	273.84
723.59	273.28
723.93	272.69
724.26	272.18
724.59	271.65
724.92	271.11
725.25	270.65
725.59	270.14
725.92	269.63
726.25	269.11
726.58	268.63
726.91	268.16
727.24	267.67
727.57	267.20
727.91	266.64
728.24	266.19
728.57	265.70
728.90	265.24
729.23	264.72
729.56	264.31
729.89	263.84
730.22	263.36
730.55	262.88
730.89	262.48
731.22	262.03
731.55	261.61
731.88	261.21
732.21	260.80
732.54	260.36
732.87	259.93
733.20	259.56
733.53	259.17
733.86	258.78
734.19	258.45
734.52	258.09
734.85	257.80
735.18	257.41
735.51	257.07
735.84	256.72
736.17	256.37
736.50	255.94
736.83	255.73
737.16	255.40
737.49	255.10
737.82	254.74
738.15	254.42
738.48	254.07
738.81	253.74
739.14	253.40
739.47	253.10
739.80	252.82
740.13	252.51
740.46	252.17
740.79	251.85
741.12	251.50
741.45	251.19
741.78	250.85
742.11	250.58
742.44	250.26
742.77	249.96
743.10	249.67
743.43	249.38
743.75	249.00
744.08	248.84
744.41	248.57
744.74	248.31
745.07	248.02
745.40	247.79
745.73	247.54
746.06	247.27
746.39	247.02
746.71	246.71
747.04	246.41
747.37	246.16
747.70	245.92
748.03	245.66
748.36	245.44
748.68	245.20
749.01	244.94
749.34	244.66
749.67	244.44
750.00	244.19
750.33	244.04
750.65	243.80
750.98	243.47
751.31	243.25
751.64	243.02
751.97	242.84
752.29	242.60
752.62	242.34
752.95	242.12
753.28	241.90
753.60	241.70
753.93	241.53
754.26	241.34
754.59	241.11
754.91	240.89
755.24	240.68
755.57	240.46
755.90	240.30
756.22	240.14
756.55	239.92
756.88	239.74
757.20	239.49
757.53	239.29
757.86	239.10
758.19	238.91
758.51	238.74
758.84	238.54
759.17	238.38
759.49	238.22
759.82	238.07
760.15	237.92
760.47	237.77
760.80	237.60
761.13	237.45
761.45	237.29
761.78	237.14
762.11	237.00
762.43	236.82
762.76	236.65
763.08	236.52
763.41	236.40
763.74	236.26
764.06	236.15
764.39	236.00
764.71	235.91
765.04	235.79
765.37	235.63
765.69	235.51
766.02	235.38
766.34	235.26
766.67	235.13
767.00	235.03
767.32	234.96
767.65	234.91
767.97	234.80
768.30	234.71
768.62	234.63
768.95	234.51
769.27	234.44
769.60	234.35
769.92	234.24
770.25	234.11
770.57	234.00
770.90	233.89
771.22	233.81
771.55	233.71
771.87	233.58
772.20	233.50
772.52	233.49
772.85	233.54
773.17	233.47
773.50	233.37
773.82	233.28
774.15	233.14
774.47	232.99
774.80	232.93
775.12	232.85
775.45	232.75
775.77	232.67
776.09	232.60
776.42	232.54
776.74	232.46
777.07	232.40
777.39	232.34
777.72	232.23
778.04	232.17
778.36	232.10
778.69	232.06
779.01	231.98
779.33	231.80
779.66	231.63
779.98	231.55
780.31	231.53
780.63	231.52
780.95	231.47
781.28	231.42
781.60	231.31
781.92	231.24
782.25	231.18
782.57	231.12
782.89	231.05
783.22	230.97
783.54	230.92
783.86	230.86
784.19	230.77
784.51	230.74
784.83	230.66
785.16	230.56
785.48	230.51
785.80	230.44
786.12	230.42
786.45	230.36
786.77	230.31
787.09	230.21
