SpectraSuite Data File
++++++++++++++++++++++++++++++++++++
Date: Fri Feb 01 15:36:51 EST 2013
User: group
Dark Spectrum Present: No
Reference Spectrum Present: No
Number of Sampled Component Spectra: 1
Spectrometers: USB2E7196
Integration Time (usec): 35000 (USB2E7196)
Spectra Averaged: 100 (USB2E7196)
Boxcar Smoothing: 10 (USB2E7196)
Correct for Electrical Dark: No (USB2E7196)
Strobe/Lamp Enabled: No (USB2E7196)
Correct for Detector Non-linearity: No (USB2E7196)
Correct for Stray Light: No (USB2E7196)
Number of Pixels in Processed Spectrum: 2048
>>>>>Begin Processed Spectral Data<<<<<
339.09	0.00
339.48	214.86
339.86	215.77
340.24	217.72
340.63	219.47
341.01	222.22
341.39	221.34
341.78	223.27
342.16	224.64
342.54	224.08
342.93	213.19
343.31	223.97
343.69	224.49
344.07	224.99
344.46	225.41
344.84	225.78
345.22	226.01
345.60	226.28
345.99	226.47
346.37	226.57
346.75	226.70
347.13	226.74
347.52	226.82
347.90	226.86
348.28	226.93
348.66	226.96
349.05	226.96
349.43	226.99
349.81	227.09
350.19	227.15
350.57	227.21
350.96	227.31
351.34	227.39
351.72	227.50
352.10	227.59
352.48	227.66
352.87	227.70
353.25	227.76
353.63	227.83
354.01	227.89
354.39	228.01
354.77	228.08
355.15	228.20
355.54	228.23
355.92	228.29
356.30	228.36
356.68	228.48
357.06	228.55
357.44	228.60
357.82	228.63
358.20	228.67
358.58	228.71
358.97	228.76
359.35	228.85
359.73	228.94
360.11	228.97
360.49	229.04
360.87	229.07
361.25	229.14
361.63	229.19
362.01	229.23
362.39	229.22
362.77	229.26
363.15	229.30
363.53	229.35
363.91	229.36
364.29	229.35
364.67	229.24
365.05	229.25
365.43	229.28
365.81	229.31
366.19	229.31
366.57	229.33
366.95	229.33
367.33	229.28
367.71	229.25
368.09	229.27
368.47	229.23
368.85	229.21
369.23	229.18
369.61	229.14
369.99	229.13
370.37	229.09
370.75	229.12
371.13	229.06
371.51	228.99
371.89	228.99
372.27	228.95
372.65	228.93
373.03	228.89
373.41	228.82
373.78	228.76
374.16	228.68
374.54	228.60
374.92	228.50
375.30	228.42
375.68	228.32
376.06	228.25
376.44	228.21
376.82	228.13
377.19	228.07
377.57	227.99
377.95	227.91
378.33	227.82
378.71	227.68
379.09	227.63
379.47	227.55
379.84	227.44
380.22	227.34
380.60	227.26
380.98	227.19
381.36	227.11
381.73	227.03
382.11	226.99
382.49	226.93
382.87	226.86
383.25	226.83
383.62	226.88
384.00	226.80
384.38	226.70
384.76	226.68
385.13	226.65
385.51	226.58
385.89	226.50
386.27	226.48
386.64	226.44
387.02	226.42
387.40	226.36
387.78	226.33
388.15	226.34
388.53	226.26
388.91	226.24
389.29	226.21
389.66	226.17
390.04	226.14
390.42	226.10
390.79	226.11
391.17	226.09
391.55	225.99
391.92	225.99
392.30	226.03
392.68	226.01
393.05	226.01
393.43	226.03
393.81	226.06
394.18	226.06
394.56	226.07
394.94	226.09
395.31	226.11
395.69	226.17
396.06	226.20
396.44	226.24
396.82	226.27
397.19	226.38
397.57	226.43
397.95	226.48
398.32	226.53
398.70	226.58
399.07	226.65
399.45	226.70
399.82	226.77
400.20	226.82
400.58	226.91
400.95	226.94
401.33	227.04
401.70	227.14
402.08	227.26
402.45	227.36
402.83	227.51
403.20	227.58
403.58	227.65
403.95	227.78
404.33	227.94
404.71	228.05
405.08	228.20
405.46	228.33
405.83	228.46
406.21	228.62
406.58	228.78
406.96	228.97
407.33	229.14
407.70	229.33
408.08	229.60
408.45	229.80
408.83	230.07
409.20	230.26
409.58	230.48
409.95	230.72
410.33	230.99
410.70	231.19
411.08	231.49
411.45	231.80
411.82	232.10
412.20	232.45
412.57	232.85
412.95	233.15
413.32	233.58
413.69	234.02
414.07	234.45
414.44	234.92
414.82	235.35
415.19	235.91
415.56	236.42
415.94	236.95
416.31	237.61
416.68	238.20
417.06	238.96
417.43	239.67
417.81	240.46
418.18	241.24
418.55	242.10
418.93	243.04
419.30	243.98
419.67	244.93
420.04	245.91
420.42	246.92
420.79	248.10
421.16	249.24
421.54	250.44
421.91	251.67
422.28	252.93
422.66	254.29
423.03	255.59
423.40	256.95
423.77	258.37
424.15	259.79
424.52	261.28
424.89	262.86
425.26	264.39
425.64	265.81
426.01	267.42
426.38	269.09
426.75	270.74
427.13	272.43
427.50	274.25
427.87	276.12
428.24	278.02
428.61	279.75
428.99	281.71
429.36	283.79
429.73	285.88
430.10	287.85
430.47	289.93
430.85	292.08
431.22	294.35
431.59	296.80
431.96	299.03
432.33	301.53
432.70	303.96
433.08	306.76
433.45	309.45
433.82	312.04
434.19	314.93
434.56	317.75
434.93	320.44
435.30	323.08
435.68	325.95
436.05	328.75
436.42	331.54
436.79	334.04
437.16	336.75
437.53	339.59
437.90	342.48
438.27	345.21
438.64	348.07
439.01	350.62
439.38	352.82
439.75	354.97
440.13	357.48
440.50	359.79
440.87	361.64
441.24	363.55
441.61	365.75
441.98	367.23
442.35	369.06
442.72	370.93
443.09	372.70
443.46	373.70
443.83	374.29
444.20	374.83
444.57	375.70
444.94	376.02
445.31	376.31
445.68	376.62
446.05	376.72
446.42	376.28
446.79	375.88
447.16	375.40
447.53	375.14
447.90	373.96
448.27	372.83
448.64	371.24
449.01	370.13
449.37	368.13
449.74	366.25
450.11	363.96
450.48	361.43
450.85	358.93
451.22	356.82
451.59	354.83
451.96	352.89
452.33	350.25
452.70	347.85
453.07	345.04
453.43	342.14
453.80	339.32
454.17	336.69
454.54	334.13
454.91	331.42
455.28	328.71
455.65	326.19
456.02	323.71
456.38	321.50
456.75	318.79
457.12	316.49
457.49	314.25
457.86	312.10
458.23	310.27
458.59	308.19
458.96	306.05
459.33	304.19
459.70	302.31
460.07	300.86
460.43	299.16
460.80	297.52
461.17	296.07
461.54	294.61
461.91	293.15
462.27	291.73
462.64	290.46
463.01	289.12
463.38	287.82
463.74	286.47
464.11	285.34
464.48	284.37
464.85	283.26
465.21	282.38
465.58	281.46
465.95	280.34
466.32	279.44
466.68	278.52
467.05	277.58
467.42	276.64
467.78	275.67
468.15	274.81
468.52	274.16
468.88	273.34
469.25	272.56
469.62	271.92
469.98	271.20
470.35	270.60
470.72	269.97
471.08	269.34
471.45	268.75
471.82	268.24
472.18	267.59
472.55	267.22
472.92	266.70
473.28	266.20
473.65	265.76
474.02	265.32
474.38	265.00
474.75	264.72
475.11	264.42
475.48	264.16
475.85	263.90
476.21	263.68
476.58	263.50
476.94	263.34
477.31	263.19
477.67	263.09
478.04	262.96
478.41	262.88
478.77	262.92
479.14	262.87
479.50	262.87
479.87	263.00
480.23	263.07
480.60	263.13
480.96	263.29
481.33	263.51
481.69	263.73
482.06	263.88
482.42	264.09
482.79	264.37
483.15	264.72
483.52	265.14
483.88	265.48
484.25	265.86
484.61	266.33
484.98	266.80
485.34	267.35
485.71	267.97
486.07	268.61
486.44	269.17
486.80	269.92
487.17	270.68
487.53	271.48
487.90	272.33
488.26	273.28
488.62	274.24
488.99	275.26
489.35	276.29
489.72	277.45
490.08	278.63
490.44	279.86
490.81	281.18
491.17	282.49
491.54	283.98
491.90	285.52
492.26	287.14
492.63	288.87
492.99	290.69
493.36	292.57
493.72	294.64
494.08	296.73
494.45	298.95
494.81	301.30
495.17	303.75
495.54	306.32
495.90	309.00
496.26	311.82
496.63	314.73
496.99	317.81
497.35	321.05
497.72	324.45
498.08	327.94
498.44	331.57
498.80	335.47
499.17	339.43
499.53	343.58
499.89	347.95
500.26	352.38
500.62	357.04
500.98	362.01
501.34	367.05
501.71	372.37
502.07	377.79
502.43	383.32
502.79	389.12
503.16	395.20
503.52	401.45
503.88	407.89
504.24	414.53
504.60	421.40
504.97	428.54
505.33	435.87
505.69	443.61
506.05	451.37
506.41	459.23
506.78	467.42
507.14	475.90
507.50	484.62
507.86	493.67
508.22	502.88
508.59	512.10
508.95	521.71
509.31	531.58
509.67	541.71
510.03	552.01
510.39	562.61
510.75	573.40
511.12	584.36
511.48	595.72
511.84	607.22
512.20	618.83
512.56	630.78
512.92	642.97
513.28	655.26
513.64	667.75
514.00	680.49
514.37	693.45
514.73	706.55
515.09	719.62
515.45	732.88
515.81	746.48
516.17	760.47
516.53	774.54
516.89	788.67
517.25	802.85
517.61	817.33
517.97	831.73
518.33	846.16
518.69	860.95
519.05	875.93
519.41	891.07
519.77	906.61
520.13	922.07
520.49	937.39
520.85	952.92
521.21	968.68
521.57	984.97
521.93	1000.79
522.29	1017.07
522.65	1033.28
523.01	1049.56
523.37	1065.56
523.73	1081.75
524.09	1097.82
524.45	1114.21
524.81	1130.91
525.17	1147.79
525.53	1164.74
525.89	1181.63
526.25	1198.35
526.61	1214.67
526.97	1231.47
527.33	1247.93
527.68	1264.60
528.04	1281.16
528.40	1297.77
528.76	1314.84
529.12	1331.42
529.48	1348.24
529.84	1364.35
530.20	1381.06
530.56	1398.09
530.91	1415.48
531.27	1432.25
531.63	1448.89
531.99	1465.57
532.35	1481.44
532.71	1497.31
533.07	1513.53
533.42	1529.37
533.78	1545.52
534.14	1561.81
534.50	1577.09
534.86	1592.98
535.21	1608.13
535.57	1624.09
535.93	1639.61
536.29	1654.42
536.65	1669.61
537.00	1684.47
537.36	1699.82
537.72	1714.42
538.08	1728.84
538.44	1742.62
538.79	1756.58
539.15	1770.11
539.51	1783.78
539.87	1798.30
540.22	1812.10
540.58	1826.02
540.94	1839.38
541.29	1852.36
541.65	1865.06
542.01	1878.42
542.37	1890.79
542.72	1903.29
543.08	1915.13
543.44	1927.52
543.79	1938.77
544.15	1949.68
544.51	1961.36
544.87	1972.31
545.22	1983.12
545.58	1993.35
545.94	2003.24
546.29	2012.98
546.65	2022.90
547.01	2032.14
547.36	2040.86
547.72	2049.26
548.07	2057.02
548.43	2065.29
548.79	2073.31
549.14	2080.85
549.50	2088.26
549.86	2096.05
550.21	2103.26
550.57	2110.38
550.92	2117.07
551.28	2124.15
551.64	2131.21
551.99	2137.69
552.35	2143.82
552.70	2150.00
553.06	2156.01
553.41	2162.28
553.77	2168.37
554.13	2174.45
554.48	2180.64
554.84	2185.93
555.19	2191.33
555.55	2196.57
555.90	2200.97
556.26	2205.79
556.61	2210.52
556.97	2214.69
557.32	2218.72
557.68	2223.01
558.03	2227.36
558.39	2230.94
558.74	2235.61
559.10	2239.42
559.45	2243.04
559.81	2247.40
560.16	2251.24
560.52	2254.52
560.87	2257.96
561.23	2260.73
561.58	2263.80
561.94	2266.21
562.29	2268.66
562.64	2271.29
563.00	2273.87
563.35	2277.27
563.71	2280.40
564.06	2283.72
564.42	2286.51
564.77	2288.97
565.12	2290.94
565.48	2292.75
565.83	2294.64
566.19	2295.90
566.54	2296.95
566.89	2298.12
567.25	2298.55
567.60	2299.72
567.96	2301.29
568.31	2302.17
568.66	2303.15
569.02	2303.68
569.37	2304.03
569.72	2304.88
570.08	2304.95
570.43	2304.98
570.78	2304.60
571.14	2303.11
571.49	2301.62
571.84	2301.32
572.20	2300.02
572.55	2299.08
572.90	2297.41
573.26	2295.99
573.61	2294.31
573.96	2292.37
574.31	2289.34
574.67	2286.37
575.02	2282.71
575.37	2279.24
575.72	2275.27
576.08	2272.01
576.43	2268.57
576.78	2264.82
577.13	2261.65
577.49	2258.48
577.84	2254.75
578.19	2250.84
578.54	2247.03
578.90	2242.75
579.25	2237.09
579.60	2232.24
579.95	2227.30
580.30	2222.46
580.66	2217.23
581.01	2212.10
581.36	2207.12
581.71	2202.82
582.06	2198.37
582.42	2193.82
582.77	2188.53
583.12	2183.99
583.47	2179.17
583.82	2174.15
584.17	2168.96
584.53	2163.31
584.88	2157.69
585.23	2151.92
585.58	2146.50
585.93	2141.12
586.28	2136.23
586.63	2131.16
586.98	2125.94
587.34	2121.07
587.69	2116.04
588.04	2110.68
588.39	2105.05
588.74	2098.62
589.09	2092.50
589.44	2085.62
589.79	2079.68
590.14	2074.11
590.49	2067.46
590.84	2060.94
591.19	2054.69
591.54	2048.02
591.89	2040.55
592.25	2033.77
592.60	2026.37
592.95	2018.69
593.30	2011.26
593.65	2003.82
594.00	1996.78
594.35	1989.57
594.70	1981.59
595.05	1974.22
595.40	1966.94
595.75	1959.31
596.10	1953.00
596.45	1946.19
596.80	1940.01
597.15	1933.21
597.50	1926.02
597.85	1919.66
598.19	1913.01
598.54	1905.98
598.89	1899.40
599.24	1893.49
599.59	1886.60
599.94	1880.62
600.29	1874.28
600.64	1867.72
600.99	1860.11
601.34	1853.21
601.69	1846.29
602.04	1839.26
602.39	1831.95
602.74	1825.06
603.08	1818.42
603.43	1811.67
603.78	1804.32
604.13	1797.13
604.48	1789.91
604.83	1783.11
605.18	1775.93
605.53	1767.92
605.87	1759.85
606.22	1752.66
606.57	1744.77
606.92	1737.49
607.27	1730.18
607.62	1723.20
607.96	1715.83
608.31	1709.25
608.66	1701.59
609.01	1694.04
609.36	1686.49
609.70	1678.39
610.05	1670.29
610.40	1662.49
610.75	1654.06
611.10	1646.44
611.44	1638.00
611.79	1629.93
612.14	1621.14
612.49	1612.09
612.83	1603.71
613.18	1595.58
613.53	1587.47
613.88	1579.01
614.22	1570.79
614.57	1562.30
614.92	1554.21
615.27	1546.65
615.61	1538.27
615.96	1530.24
616.31	1522.56
616.65	1515.17
617.00	1507.60
617.35	1500.01
617.70	1491.58
618.04	1483.21
618.39	1474.99
618.74	1467.40
619.08	1459.08
619.43	1451.64
619.78	1444.73
620.12	1437.46
620.47	1430.00
620.82	1421.97
621.16	1414.56
621.51	1406.96
621.85	1399.28
622.20	1390.80
622.55	1382.51
622.89	1374.62
623.24	1366.94
623.59	1359.56
623.93	1352.10
624.28	1344.93
624.62	1337.36
624.97	1330.37
625.32	1323.60
625.66	1316.65
626.01	1309.44
626.35	1301.99
626.70	1294.17
627.04	1286.40
627.39	1278.69
627.73	1271.34
628.08	1264.23
628.43	1256.87
628.77	1249.50
629.12	1241.95
629.46	1234.78
629.81	1227.35
630.15	1220.20
630.50	1212.81
630.84	1204.51
631.19	1196.60
631.53	1189.09
631.88	1181.50
632.22	1173.78
632.57	1166.53
632.91	1158.85
633.26	1151.51
633.60	1144.20
633.95	1137.27
634.29	1130.25
634.64	1123.54
634.98	1116.16
635.32	1108.99
635.67	1102.50
636.01	1095.82
636.36	1088.98
636.70	1082.62
637.05	1076.06
637.39	1069.56
637.73	1063.06
638.08	1057.30
638.42	1051.29
638.77	1044.88
639.11	1038.23
639.45	1031.86
639.80	1025.14
640.14	1018.68
640.49	1012.15
640.83	1005.90
641.17	999.55
641.52	993.24
641.86	986.88
642.20	981.00
642.55	974.84
642.89	968.23
643.23	961.79
643.58	956.09
643.92	949.78
644.26	943.66
644.61	937.73
644.95	931.79
645.29	925.18
645.64	918.43
645.98	912.15
646.32	906.47
646.66	900.46
647.01	894.69
647.35	889.03
647.69	883.14
648.04	877.58
648.38	871.82
648.72	865.75
649.06	859.76
649.41	853.96
649.75	847.90
650.09	841.98
650.43	836.12
650.78	829.90
651.12	823.91
651.46	818.18
651.80	812.40
652.14	806.93
652.49	801.55
652.83	796.41
653.17	790.67
653.51	784.88
653.85	779.46
654.20	773.80
654.54	767.78
654.88	762.07
655.22	756.20
655.56	750.44
655.90	745.06
656.25	739.71
656.59	734.24
656.93	729.18
657.27	723.95
657.61	718.55
657.95	713.53
658.29	708.51
658.64	703.34
658.98	698.04
659.32	692.62
659.66	687.42
660.00	682.07
660.34	677.13
660.68	672.30
661.02	667.28
661.36	662.67
661.70	658.25
662.05	653.84
662.39	649.52
662.73	645.06
663.07	640.70
663.41	636.27
663.75	631.82
664.09	627.29
664.43	622.97
664.77	618.80
665.11	614.51
665.45	610.40
665.79	606.28
666.13	602.14
666.47	598.08
666.81	593.92
667.15	589.83
667.49	585.97
667.83	582.19
668.17	578.36
668.51	574.20
668.85	570.15
669.19	566.37
669.53	562.47
669.87	558.63
670.21	554.95
670.55	551.38
670.89	547.94
671.23	544.48
671.57	540.99
671.91	537.50
672.25	534.00
672.58	530.49
672.92	527.11
673.26	523.97
673.60	520.80
673.94	517.72
674.28	514.85
674.62	511.89
674.96	508.77
675.30	505.82
675.64	502.87
675.97	500.12
676.31	497.25
676.65	494.37
676.99	491.70
677.33	488.82
677.67	485.94
678.01	482.95
678.34	479.97
678.68	477.08
679.02	474.26
679.36	471.50
679.70	468.84
680.04	466.06
680.37	463.19
680.71	460.42
681.05	457.87
681.39	455.09
681.73	452.42
682.06	449.87
682.40	447.34
682.74	444.86
683.08	442.27
683.42	439.64
683.75	437.11
684.09	434.56
684.43	432.07
684.77	429.58
685.10	427.29
685.44	425.01
685.78	422.76
686.12	420.55
686.45	418.26
686.79	415.94
687.13	413.77
687.46	411.63
687.80	409.45
688.14	407.20
688.48	405.21
688.81	402.96
689.15	400.78
689.49	398.63
689.82	396.50
690.16	394.44
690.50	392.50
690.83	390.57
691.17	388.57
691.51	386.70
691.84	384.86
692.18	382.84
692.52	380.83
692.85	378.91
693.19	377.04
693.52	375.24
693.86	373.42
694.20	371.67
694.53	369.88
694.87	368.03
695.21	366.29
695.54	364.47
695.88	362.74
696.21	361.02
696.55	359.33
696.88	357.67
697.22	356.04
697.56	354.43
697.89	352.79
698.23	351.23
698.56	349.63
698.90	348.03
699.23	346.45
699.57	344.92
699.90	343.35
700.24	341.79
700.58	340.25
700.91	338.70
701.25	337.20
701.58	335.81
701.92	334.46
702.25	333.02
702.59	331.64
702.92	330.37
703.26	329.05
703.59	327.75
703.93	326.58
704.26	325.33
704.60	324.01
704.93	322.69
705.26	321.42
705.60	320.22
705.93	319.12
706.27	318.05
706.60	316.98
706.94	315.89
707.27	314.75
707.61	313.73
707.94	312.77
708.27	311.67
708.61	310.60
708.94	309.54
709.28	308.59
709.61	307.67
709.94	306.69
710.28	305.73
710.61	304.77
710.95	303.72
711.28	302.81
711.61	301.89
711.95	301.00
712.28	300.03
712.61	299.06
712.95	298.11
713.28	297.23
713.61	296.35
713.95	295.45
714.28	294.60
714.61	293.70
714.95	292.79
715.28	291.97
715.61	291.10
715.95	290.30
716.28	289.42
716.61	288.54
716.95	287.78
717.28	287.03
717.61	286.28
717.94	285.54
718.28	284.73
718.61	284.02
718.94	283.33
719.27	282.67
719.61	282.04
719.94	281.37
720.27	280.69
720.60	279.98
720.94	279.39
721.27	278.83
721.60	278.26
721.93	277.68
722.27	277.14
722.60	276.55
722.93	275.95
723.26	275.42
723.59	274.89
723.93	274.28
724.26	273.72
724.59	273.16
724.92	272.60
725.25	272.12
725.59	271.59
725.92	271.09
726.25	270.61
726.58	270.13
726.91	269.63
727.24	269.15
727.57	268.72
727.91	268.19
728.24	267.73
728.57	267.25
728.90	266.81
729.23	266.31
729.56	265.92
729.89	265.48
730.22	265.01
730.55	264.53
730.89	264.11
731.22	263.65
731.55	263.22
731.88	262.84
732.21	262.37
732.54	261.93
732.87	261.51
733.20	261.13
733.53	260.73
733.86	260.36
734.19	259.97
734.52	259.60
734.85	259.28
735.18	258.85
735.51	258.45
735.84	258.06
736.17	257.69
736.50	257.29
736.83	257.03
737.16	256.70
737.49	256.34
737.82	255.98
738.15	255.67
738.48	255.33
738.81	254.97
739.14	254.67
739.47	254.37
739.80	254.06
740.13	253.73
740.46	253.39
740.79	253.05
741.12	252.71
741.45	252.36
741.78	252.07
742.11	251.76
742.44	251.45
742.77	251.19
743.10	250.88
743.43	250.57
743.75	250.20
744.08	250.04
744.41	249.80
744.74	249.51
745.07	249.18
745.40	248.92
745.73	248.68
746.06	248.40
746.39	248.16
746.71	247.86
747.04	247.57
747.37	247.32
747.70	247.05
748.03	246.81
748.36	246.63
748.68	246.34
749.01	246.08
749.34	245.84
749.67	245.58
750.00	245.36
750.33	245.19
750.65	244.99
750.98	244.66
751.31	244.44
751.64	244.29
751.97	244.16
752.29	243.95
752.62	243.68
752.95	243.46
753.28	243.22
753.60	243.02
753.93	242.87
754.26	242.70
754.59	242.51
754.91	242.30
755.24	242.06
755.57	241.90
755.90	241.74
756.22	241.54
756.55	241.36
756.88	241.17
757.20	240.96
757.53	240.77
757.86	240.59
758.19	240.40
758.51	240.21
758.84	239.98
759.17	239.80
759.49	239.65
759.82	239.56
760.15	239.44
760.47	239.30
760.80	239.11
761.13	238.97
761.45	238.81
761.78	238.70
762.11	238.59
762.43	238.46
762.76	238.32
763.08	238.24
763.41	238.14
763.74	238.01
764.06	237.91
764.39	237.77
764.71	237.65
765.04	237.53
765.37	237.39
765.69	237.29
766.02	237.18
766.34	237.06
766.67	236.91
767.00	236.79
767.32	236.73
767.65	236.70
767.97	236.59
768.30	236.46
768.62	236.34
768.95	236.17
769.27	236.05
769.60	235.96
769.92	235.83
770.25	235.70
770.57	235.58
770.90	235.45
771.22	235.32
771.55	235.20
771.87	235.11
772.20	234.99
772.52	234.95
772.85	234.96
773.17	234.88
773.50	234.80
773.82	234.69
774.15	234.55
774.47	234.39
774.80	234.29
775.12	234.21
775.45	234.13
775.77	234.08
776.09	234.02
776.42	233.92
776.74	233.82
777.07	233.71
777.39	233.66
777.72	233.57
778.04	233.52
778.36	233.47
778.69	233.41
779.01	233.34
779.33	233.20
779.66	233.03
779.98	232.95
780.31	232.87
780.63	232.82
780.95	232.74
781.28	232.71
781.60	232.61
781.92	232.53
782.25	232.45
782.57	232.37
782.89	232.28
783.22	232.21
783.54	232.17
783.86	232.11
784.19	232.00
784.51	231.94
784.83	231.85
785.16	231.77
785.48	231.67
785.80	231.63
786.12	231.58
786.45	231.53
786.77	231.52
787.09	231.43
