SpectraSuite Data File
++++++++++++++++++++++++++++++++++++
Date: Fri Feb 01 16:21:28 EST 2013
User: group
Dark Spectrum Present: No
Reference Spectrum Present: No
Number of Sampled Component Spectra: 1
Spectrometers: USB2E7196
Integration Time (usec): 35000 (USB2E7196)
Spectra Averaged: 100 (USB2E7196)
Boxcar Smoothing: 10 (USB2E7196)
Correct for Electrical Dark: No (USB2E7196)
Strobe/Lamp Enabled: No (USB2E7196)
Correct for Detector Non-linearity: No (USB2E7196)
Correct for Stray Light: No (USB2E7196)
Number of Pixels in Processed Spectrum: 2048
>>>>>Begin Processed Spectral Data<<<<<
339.09	0.00
339.48	213.51
339.86	215.46
340.24	216.77
340.63	218.42
341.01	221.05
341.39	221.21
341.78	221.84
342.16	223.36
342.54	223.32
342.93	212.42
343.31	223.14
343.69	223.72
344.07	224.21
344.46	224.66
344.84	225.02
345.22	225.27
345.60	225.51
345.99	225.72
346.37	225.88
346.75	226.00
347.13	226.08
347.52	226.11
347.90	226.17
348.28	226.21
348.66	226.29
349.05	226.28
349.43	226.31
349.81	226.33
350.19	226.37
350.57	226.42
350.96	226.50
351.34	226.59
351.72	226.65
352.10	226.73
352.48	226.79
352.87	226.88
353.25	226.94
353.63	227.02
354.01	227.08
354.39	227.15
354.77	227.24
355.15	227.34
355.54	227.40
355.92	227.47
356.30	227.54
356.68	227.67
357.06	227.73
357.44	227.80
357.82	227.91
358.20	228.00
358.58	228.08
358.97	228.12
359.35	228.18
359.73	228.27
360.11	228.32
360.49	228.34
360.87	228.36
361.25	228.37
361.63	228.44
362.01	228.48
362.39	228.48
362.77	228.55
363.15	228.55
363.53	228.61
363.91	228.62
364.29	228.60
364.67	228.46
365.05	228.49
365.43	228.48
365.81	228.45
366.19	228.45
366.57	228.46
366.95	228.47
367.33	228.46
367.71	228.43
368.09	228.44
368.47	228.44
368.85	228.44
369.23	228.46
369.61	228.40
369.99	228.40
370.37	228.37
370.75	228.35
371.13	228.28
371.51	228.22
371.89	228.16
372.27	228.15
372.65	228.16
373.03	228.09
373.41	228.03
373.78	227.97
374.16	227.92
374.54	227.84
374.92	227.77
375.30	227.72
375.68	227.66
376.06	227.58
376.44	227.52
376.82	227.47
377.19	227.42
377.57	227.36
377.95	227.25
378.33	227.22
378.71	227.11
379.09	227.07
379.47	227.00
379.84	226.94
380.22	226.83
380.60	226.73
380.98	226.68
381.36	226.62
381.73	226.54
382.11	226.50
382.49	226.45
382.87	226.38
383.25	226.31
383.62	226.35
384.00	226.30
384.38	226.25
384.76	226.20
385.13	226.14
385.51	226.10
385.89	226.07
386.27	226.04
386.64	226.00
387.02	225.95
387.40	225.91
387.78	225.88
388.15	225.90
388.53	225.87
388.91	225.85
389.29	225.83
389.66	225.85
390.04	225.80
390.42	225.81
390.79	225.82
391.17	225.80
391.55	225.68
391.92	225.68
392.30	225.67
392.68	225.63
393.05	225.65
393.43	225.66
393.81	225.67
394.18	225.61
394.56	225.61
394.94	225.67
395.31	225.68
395.69	225.72
396.06	225.71
396.44	225.74
396.82	225.80
397.19	225.90
397.57	225.92
397.95	225.96
398.32	225.96
398.70	225.99
399.07	226.08
399.45	226.15
399.82	226.21
400.20	226.26
400.58	226.35
400.95	226.38
401.33	226.45
401.70	226.58
402.08	226.70
402.45	226.78
402.83	226.89
403.20	227.00
403.58	227.10
403.95	227.27
404.33	227.40
404.71	227.49
405.08	227.62
405.46	227.73
405.83	227.89
406.21	228.03
406.58	228.21
406.96	228.37
407.33	228.53
407.70	228.71
408.08	229.00
408.45	229.23
408.83	229.45
409.20	229.63
409.58	229.81
409.95	230.05
410.33	230.30
410.70	230.54
411.08	230.83
411.45	231.12
411.82	231.43
412.20	231.76
412.57	232.18
412.95	232.49
413.32	232.92
413.69	233.30
414.07	233.78
414.44	234.22
414.82	234.68
415.19	235.22
415.56	235.76
415.94	236.29
416.31	236.91
416.68	237.51
417.06	238.23
417.43	238.90
417.81	239.71
418.18	240.50
418.55	241.35
418.93	242.19
419.30	243.08
419.67	243.97
420.04	244.95
420.42	245.91
420.79	247.12
421.16	248.22
421.54	249.41
421.91	250.61
422.28	251.88
422.66	253.20
423.03	254.51
423.40	255.83
423.77	257.20
424.15	258.64
424.52	260.16
424.89	261.78
425.26	263.34
425.64	264.75
426.01	266.36
426.38	268.00
426.75	269.69
427.13	271.43
427.50	273.26
427.87	275.14
428.24	277.01
428.61	278.71
428.99	280.65
429.36	282.73
429.73	284.77
430.10	286.78
430.47	288.86
430.85	290.96
431.22	293.24
431.59	295.65
431.96	297.91
432.33	300.36
432.70	302.78
433.08	305.59
433.45	308.26
433.82	310.84
434.19	313.70
434.56	316.51
434.93	319.13
435.30	321.71
435.68	324.56
436.05	327.39
436.42	330.18
436.79	332.78
437.16	335.46
437.53	338.31
437.90	341.13
438.27	343.84
438.64	346.67
439.01	349.21
439.38	351.42
439.75	353.58
440.13	356.11
440.50	358.35
440.87	360.17
441.24	362.07
441.61	364.24
441.98	365.78
442.35	367.53
442.72	369.38
443.09	371.19
443.46	372.18
443.83	372.77
444.20	373.28
444.57	374.03
444.94	374.32
445.31	374.63
445.68	374.99
446.05	375.07
446.42	374.68
446.79	374.26
447.16	373.76
447.53	373.42
447.90	372.25
448.27	371.11
448.64	369.55
449.01	368.42
449.37	366.42
449.74	364.48
450.11	362.29
450.48	359.85
450.85	357.33
451.22	355.23
451.59	353.16
451.96	351.20
452.33	348.61
452.70	346.25
453.07	343.43
453.43	340.51
453.80	337.74
454.17	335.10
454.54	332.56
454.91	329.91
455.28	327.26
455.65	324.75
456.02	322.33
456.38	320.17
456.75	317.55
457.12	315.31
457.49	313.12
457.86	310.96
458.23	309.08
458.59	307.05
458.96	304.94
459.33	303.13
459.70	301.32
460.07	299.84
460.43	298.16
460.80	296.54
461.17	295.13
461.54	293.61
461.91	292.15
462.27	290.68
462.64	289.44
463.01	288.09
463.38	286.82
463.74	285.44
464.11	284.30
464.48	283.24
464.85	282.14
465.21	281.26
465.58	280.36
465.95	279.31
466.32	278.41
466.68	277.54
467.05	276.67
467.42	275.76
467.78	274.77
468.15	273.90
468.52	273.25
468.88	272.41
469.25	271.71
469.62	271.09
469.98	270.44
470.35	269.81
470.72	269.18
471.08	268.54
471.45	267.99
471.82	267.43
472.18	266.83
472.55	266.40
472.92	265.90
473.28	265.45
473.65	264.96
474.02	264.52
474.38	264.16
474.75	263.80
475.11	263.47
475.48	263.25
475.85	263.05
476.21	262.81
476.58	262.60
476.94	262.45
477.31	262.32
477.67	262.17
478.04	262.05
478.41	262.01
478.77	262.03
479.14	262.02
479.50	262.03
479.87	262.10
480.23	262.17
480.60	262.24
480.96	262.31
481.33	262.52
481.69	262.68
482.06	262.88
482.42	263.10
482.79	263.37
483.15	263.72
483.52	264.11
483.88	264.49
484.25	264.93
484.61	265.34
484.98	265.79
485.34	266.38
485.71	266.97
486.07	267.62
486.44	268.20
486.80	268.87
487.17	269.63
487.53	270.48
487.90	271.35
488.26	272.32
488.62	273.34
488.99	274.36
489.35	275.48
489.72	276.58
490.08	277.79
490.44	279.03
490.81	280.35
491.17	281.73
491.54	283.24
491.90	284.75
492.26	286.43
492.63	288.19
492.99	289.99
493.36	291.94
493.72	293.99
494.08	296.14
494.45	298.37
494.81	300.76
495.17	303.14
495.54	305.74
495.90	308.44
496.26	311.24
496.63	314.17
496.99	317.27
497.35	320.57
497.72	323.97
498.08	327.49
498.44	331.17
498.80	335.02
499.17	339.04
499.53	343.23
499.89	347.61
500.26	352.11
500.62	356.77
500.98	361.71
501.34	366.78
501.71	372.07
502.07	377.57
502.43	383.20
502.79	389.06
503.16	395.12
503.52	401.41
503.88	407.84
504.24	414.48
504.60	421.38
504.97	428.48
505.33	435.83
505.69	443.53
506.05	451.33
506.41	459.24
506.78	467.41
507.14	475.81
507.50	484.50
507.86	493.57
508.22	502.78
508.59	511.99
508.95	521.58
509.31	531.48
509.67	541.54
510.03	551.84
510.39	562.43
510.75	573.21
511.12	584.08
511.48	595.36
511.84	606.87
512.20	618.33
512.56	630.32
512.92	642.44
513.28	654.78
513.64	667.25
514.00	679.92
514.37	692.83
514.73	705.96
515.09	719.02
515.45	732.17
515.81	745.71
516.17	759.72
516.53	773.81
516.89	787.84
517.25	802.06
517.61	816.50
517.97	830.87
518.33	845.30
518.69	860.05
519.05	875.02
519.41	890.07
519.77	905.62
520.13	921.06
520.49	936.39
520.85	951.77
521.21	967.46
521.57	983.75
521.93	999.49
522.29	1015.78
522.65	1032.00
523.01	1048.27
523.37	1064.23
523.73	1080.35
524.09	1096.38
524.45	1112.64
524.81	1129.24
525.17	1145.94
525.53	1162.89
525.89	1179.77
526.25	1196.58
526.61	1212.89
526.97	1229.68
527.33	1246.06
527.68	1262.52
528.04	1279.11
528.40	1295.63
528.76	1312.58
529.12	1329.04
529.48	1345.85
529.84	1361.84
530.20	1378.47
530.56	1395.45
530.91	1412.84
531.27	1429.58
531.63	1446.03
531.99	1462.57
532.35	1478.37
532.71	1494.25
533.07	1510.42
533.42	1526.25
533.78	1542.24
534.14	1558.44
534.50	1573.62
534.86	1589.52
535.21	1604.66
535.57	1620.58
535.93	1636.19
536.29	1650.97
536.65	1665.96
537.00	1680.83
537.36	1696.00
537.72	1710.29
538.08	1724.58
538.44	1738.32
538.79	1752.09
539.15	1765.69
539.51	1779.34
539.87	1793.64
540.22	1807.29
540.58	1821.03
540.94	1834.12
541.29	1846.91
541.65	1859.53
542.01	1872.72
542.37	1884.88
542.72	1897.24
543.08	1908.79
543.44	1920.94
543.79	1932.01
544.15	1942.82
544.51	1954.21
544.87	1965.16
545.22	1976.03
545.58	1986.31
545.94	1995.95
546.29	2005.65
546.65	2015.46
547.01	2024.64
547.36	2033.37
547.72	2041.67
548.07	2049.34
548.43	2057.54
548.79	2065.59
549.14	2073.07
549.50	2080.34
549.86	2087.94
550.21	2095.22
550.57	2102.39
550.92	2108.85
551.28	2115.88
551.64	2123.04
551.99	2129.53
552.35	2135.69
552.70	2141.86
553.06	2147.70
553.41	2154.13
553.77	2160.19
554.13	2166.18
554.48	2172.56
554.84	2177.93
555.19	2183.26
555.55	2188.42
555.90	2192.89
556.26	2197.80
556.61	2202.59
556.97	2206.92
557.32	2210.98
557.68	2215.03
558.03	2219.25
558.39	2222.94
558.74	2227.59
559.10	2231.47
559.45	2235.18
559.81	2239.50
560.16	2243.36
560.52	2246.52
560.87	2249.87
561.23	2252.64
561.58	2255.59
561.94	2257.91
562.29	2260.34
562.64	2262.99
563.00	2265.69
563.35	2269.29
563.71	2272.40
564.06	2275.60
564.42	2278.37
564.77	2281.04
565.12	2283.38
565.48	2285.30
565.83	2287.35
566.19	2288.72
566.54	2289.57
566.89	2290.63
567.25	2291.21
567.60	2292.46
567.96	2294.22
568.31	2295.06
568.66	2296.22
569.02	2296.88
569.37	2297.22
569.72	2298.13
570.08	2298.35
570.43	2298.38
570.78	2297.92
571.14	2296.35
571.49	2295.07
571.84	2294.84
572.20	2293.74
572.55	2292.76
572.90	2291.23
573.26	2289.88
573.61	2288.29
573.96	2286.64
574.31	2283.68
574.67	2280.73
575.02	2277.17
575.37	2273.78
575.72	2270.04
576.08	2266.68
576.43	2263.47
576.78	2259.92
577.13	2256.82
577.49	2253.77
577.84	2250.28
578.19	2246.52
578.54	2242.97
578.90	2238.84
579.25	2233.44
579.60	2228.63
579.95	2223.80
580.30	2218.96
580.66	2213.80
581.01	2208.90
581.36	2204.12
581.71	2200.09
582.06	2195.69
582.42	2191.27
582.77	2186.24
583.12	2181.81
583.47	2177.15
583.82	2172.37
584.17	2167.17
584.53	2161.74
584.88	2156.28
585.23	2150.57
585.58	2145.04
585.93	2139.56
586.28	2134.90
586.63	2129.81
586.98	2124.75
587.34	2119.87
587.69	2114.97
588.04	2109.69
588.39	2104.01
588.74	2097.47
589.09	2091.21
589.44	2084.50
589.79	2078.51
590.14	2072.90
590.49	2066.28
590.84	2060.00
591.19	2053.75
591.54	2047.28
591.89	2039.87
592.25	2033.01
592.60	2025.81
592.95	2018.39
593.30	2011.02
593.65	2003.31
594.00	1996.32
594.35	1989.13
594.70	1981.29
595.05	1974.14
595.40	1966.87
595.75	1959.31
596.10	1953.34
596.45	1946.84
596.80	1940.62
597.15	1934.19
597.50	1927.13
597.85	1920.80
598.19	1913.98
598.54	1906.91
598.89	1900.24
599.24	1894.39
599.59	1887.77
599.94	1881.64
600.29	1875.22
600.64	1868.84
600.99	1861.46
601.34	1854.55
601.69	1847.52
602.04	1840.59
602.39	1833.27
602.74	1826.64
603.08	1820.06
603.43	1813.21
603.78	1805.77
604.13	1798.60
604.48	1791.10
604.83	1784.11
605.18	1777.22
605.53	1769.32
605.87	1761.42
606.22	1754.34
606.57	1746.44
606.92	1739.15
607.27	1732.00
607.62	1725.04
607.96	1717.71
608.31	1711.13
608.66	1703.58
609.01	1696.09
609.36	1688.61
609.70	1680.53
610.05	1672.41
610.40	1664.60
610.75	1656.20
611.10	1648.64
611.44	1640.28
611.79	1632.36
612.14	1623.78
612.49	1614.44
612.83	1606.04
613.18	1597.90
613.53	1589.78
613.88	1581.21
614.22	1572.85
614.57	1564.29
614.92	1556.41
615.27	1548.90
615.61	1540.52
615.96	1532.53
616.31	1524.86
616.65	1517.44
617.00	1509.98
617.35	1502.30
617.70	1494.02
618.04	1485.62
618.39	1477.36
618.74	1469.76
619.08	1461.44
619.43	1453.91
619.78	1447.15
620.12	1439.96
620.47	1432.37
620.82	1424.17
621.16	1416.74
621.51	1409.14
621.85	1401.49
622.20	1392.87
622.55	1384.33
622.89	1376.39
623.24	1368.76
623.59	1361.37
623.93	1353.86
624.28	1346.54
624.62	1339.01
624.97	1331.81
625.32	1325.02
625.66	1317.87
626.01	1310.69
626.35	1303.23
626.70	1295.38
627.04	1287.57
627.39	1279.78
627.73	1272.34
628.08	1265.42
628.43	1258.09
628.77	1250.71
629.12	1243.06
629.46	1235.90
629.81	1228.54
630.15	1221.42
630.50	1214.06
630.84	1205.77
631.19	1197.86
631.53	1190.39
631.88	1182.79
632.22	1175.23
632.57	1167.87
632.91	1160.43
633.26	1152.99
633.60	1145.62
633.95	1138.50
634.29	1131.49
634.64	1124.79
634.98	1117.48
635.32	1110.26
635.67	1103.65
636.01	1096.96
636.36	1090.17
636.70	1083.63
637.05	1077.04
637.39	1070.44
637.73	1063.85
638.08	1058.14
638.42	1052.09
638.77	1045.59
639.11	1039.03
639.45	1032.62
639.80	1025.99
640.14	1019.57
640.49	1013.03
640.83	1006.77
641.17	1000.55
641.52	994.13
641.86	987.80
642.20	981.85
642.55	975.54
642.89	969.04
643.23	962.51
643.58	956.86
643.92	950.64
644.26	944.57
644.61	938.57
644.95	932.52
645.29	925.80
645.64	919.09
645.98	912.72
646.32	906.95
646.66	900.77
647.01	895.01
647.35	889.27
647.69	883.37
648.04	877.74
648.38	871.98
648.72	866.06
649.06	859.95
649.41	854.11
649.75	848.17
650.09	842.23
650.43	836.52
650.78	830.30
651.12	824.35
651.46	818.62
651.80	812.87
652.14	807.47
652.49	802.13
652.83	796.87
653.17	791.20
653.51	785.37
653.85	780.19
654.20	774.56
654.54	768.60
654.88	762.95
655.22	757.10
655.56	751.37
655.90	745.92
656.25	740.69
656.59	735.28
656.93	730.14
657.27	724.98
657.61	719.52
657.95	714.42
658.29	709.33
658.64	704.10
658.98	698.91
659.32	693.43
659.66	688.28
660.00	682.97
660.34	678.06
660.68	673.16
661.02	668.06
661.36	663.29
661.70	658.73
662.05	654.33
662.39	649.98
662.73	645.60
663.07	641.23
663.41	636.74
663.75	632.30
664.09	627.76
664.43	623.46
664.77	619.31
665.11	615.05
665.45	610.94
665.79	606.84
666.13	602.64
666.47	598.59
666.81	594.37
667.15	590.33
667.49	586.45
667.83	582.63
668.17	578.70
668.51	574.64
668.85	570.62
669.19	566.78
669.53	562.96
669.87	559.01
670.21	555.28
670.55	551.68
670.89	548.28
671.23	544.89
671.57	541.29
671.91	537.74
672.25	534.22
672.58	530.74
672.92	527.34
673.26	524.19
673.60	521.02
673.94	517.86
674.28	514.91
674.62	511.95
674.96	508.81
675.30	505.88
675.64	502.88
675.97	500.14
676.31	497.28
676.65	494.37
676.99	491.66
677.33	488.80
677.67	485.98
678.01	482.90
678.34	479.92
678.68	477.06
679.02	474.20
679.36	471.43
679.70	468.69
680.04	466.01
680.37	463.08
680.71	460.32
681.05	457.78
681.39	455.07
681.73	452.41
682.06	449.93
682.40	447.39
682.74	444.88
683.08	442.28
683.42	439.64
683.75	437.07
684.09	434.52
684.43	432.05
684.77	429.50
685.10	427.14
685.44	424.80
685.78	422.48
686.12	420.29
686.45	418.02
686.79	415.73
687.13	413.44
687.46	411.29
687.80	409.16
688.14	406.96
688.48	404.90
688.81	402.67
689.15	400.46
689.49	398.35
689.82	396.26
690.16	394.17
690.50	392.26
690.83	390.37
691.17	388.40
691.51	386.48
691.84	384.63
692.18	382.75
692.52	380.80
692.85	378.87
693.19	376.98
693.52	375.14
693.86	373.32
694.20	371.57
694.53	369.78
694.87	367.89
695.21	366.04
695.54	364.19
695.88	362.39
696.21	360.70
696.55	358.96
696.88	357.26
697.22	355.62
697.56	353.96
697.89	352.25
698.23	350.63
698.56	349.05
698.90	347.47
699.23	345.79
699.57	344.21
699.90	342.72
700.24	341.18
700.58	339.67
700.91	338.14
701.25	336.65
701.58	335.29
701.92	333.95
702.25	332.59
702.59	331.19
702.92	329.85
703.26	328.53
703.59	327.22
703.93	326.10
704.26	324.85
704.60	323.53
704.93	322.25
705.26	320.99
705.60	319.81
705.93	318.63
706.27	317.58
706.60	316.53
706.94	315.40
707.27	314.23
707.61	313.12
707.94	312.10
708.27	311.01
708.61	309.89
708.94	308.83
709.28	307.86
709.61	306.91
709.94	305.98
710.28	304.97
710.61	303.99
710.95	302.86
711.28	301.92
711.61	300.98
711.95	300.07
712.28	299.15
712.61	298.12
712.95	297.21
713.28	296.35
713.61	295.44
713.95	294.55
714.28	293.72
714.61	292.87
714.95	291.99
715.28	291.14
715.61	290.30
715.95	289.45
716.28	288.58
716.61	287.71
716.95	286.89
717.28	286.13
717.61	285.37
717.94	284.63
718.28	283.83
718.61	283.10
718.94	282.40
719.27	281.73
719.61	281.09
719.94	280.43
720.27	279.71
720.60	279.03
720.94	278.43
721.27	277.86
721.60	277.29
721.93	276.70
722.27	276.16
722.60	275.61
722.93	275.04
723.26	274.50
723.59	273.98
723.93	273.45
724.26	272.87
724.59	272.30
724.92	271.75
725.25	271.30
725.59	270.75
725.92	270.22
726.25	269.68
726.58	269.18
726.91	268.65
727.24	268.17
727.57	267.72
727.91	267.20
728.24	266.70
728.57	266.17
728.90	265.74
729.23	265.23
729.56	264.79
729.89	264.33
730.22	263.87
730.55	263.40
730.89	262.91
731.22	262.49
731.55	262.09
731.88	261.66
732.21	261.19
732.54	260.79
732.87	260.41
733.20	260.04
733.53	259.66
733.86	259.32
734.19	258.89
734.52	258.51
734.85	258.20
735.18	257.79
735.51	257.47
735.84	257.10
736.17	256.76
736.50	256.36
736.83	256.11
737.16	255.76
737.49	255.41
737.82	255.09
738.15	254.76
738.48	254.45
738.81	254.14
739.14	253.83
739.47	253.51
739.80	253.18
740.13	252.86
740.46	252.52
740.79	252.18
741.12	251.89
741.45	251.58
741.78	251.22
742.11	250.95
742.44	250.59
742.77	250.33
743.10	250.06
743.43	249.78
743.75	249.41
744.08	249.30
744.41	249.05
744.74	248.78
745.07	248.51
745.40	248.25
745.73	247.99
746.06	247.70
746.39	247.45
746.71	247.20
747.04	246.94
747.37	246.70
747.70	246.49
748.03	246.25
748.36	246.03
748.68	245.82
749.01	245.57
749.34	245.39
749.67	245.11
750.00	244.83
750.33	244.67
750.65	244.45
750.98	244.08
751.31	243.85
751.64	243.62
751.97	243.42
752.29	243.15
752.62	242.92
752.95	242.72
753.28	242.51
753.60	242.25
753.93	242.07
754.26	241.88
754.59	241.63
754.91	241.44
755.24	241.19
755.57	240.98
755.90	240.77
756.22	240.58
756.55	240.34
756.88	240.18
757.20	239.93
757.53	239.71
757.86	239.54
758.19	239.38
758.51	239.23
758.84	239.06
759.17	238.91
759.49	238.78
759.82	238.64
760.15	238.51
760.47	238.39
760.80	238.24
761.13	238.10
761.45	237.92
761.78	237.72
762.11	237.58
762.43	237.43
762.76	237.30
763.08	237.16
763.41	237.04
763.74	236.91
764.06	236.80
764.39	236.66
764.71	236.52
765.04	236.36
765.37	236.20
765.69	236.05
766.02	235.93
766.34	235.80
766.67	235.66
767.00	235.55
767.32	235.52
767.65	235.44
767.97	235.33
768.30	235.24
768.62	235.17
768.95	235.07
769.27	234.95
769.60	234.87
769.92	234.77
770.25	234.65
770.57	234.56
770.90	234.46
771.22	234.36
771.55	234.29
771.87	234.19
772.20	234.13
772.52	234.10
772.85	234.18
773.17	234.08
773.50	233.98
773.82	233.87
774.15	233.71
774.47	233.55
774.80	233.46
775.12	233.36
775.45	233.28
775.77	233.21
776.09	233.15
776.42	233.06
776.74	233.01
777.07	232.90
777.39	232.82
777.72	232.72
778.04	232.69
778.36	232.62
778.69	232.58
779.01	232.51
779.33	232.38
779.66	232.17
779.98	232.10
780.31	232.02
780.63	231.98
780.95	231.93
781.28	231.88
781.60	231.79
781.92	231.75
782.25	231.69
782.57	231.62
782.89	231.56
783.22	231.49
783.54	231.41
783.86	231.42
784.19	231.35
784.51	231.32
784.83	231.22
785.16	231.16
785.48	231.13
785.80	231.07
786.12	231.01
786.45	230.96
786.77	230.91
787.09	230.87
