SpectraSuite Data File
++++++++++++++++++++++++++++++++++++
Date: Fri Feb 01 17:10:47 EST 2013
User: group
Dark Spectrum Present: No
Reference Spectrum Present: No
Number of Sampled Component Spectra: 1
Spectrometers: USB2E7196
Integration Time (usec): 35000 (USB2E7196)
Spectra Averaged: 100 (USB2E7196)
Boxcar Smoothing: 10 (USB2E7196)
Correct for Electrical Dark: No (USB2E7196)
Strobe/Lamp Enabled: No (USB2E7196)
Correct for Detector Non-linearity: No (USB2E7196)
Correct for Stray Light: No (USB2E7196)
Number of Pixels in Processed Spectrum: 2048
>>>>>Begin Processed Spectral Data<<<<<
339.09	0.00
339.48	213.09
339.86	214.78
340.24	215.66
340.63	217.70
341.01	219.93
341.39	220.80
341.78	221.65
342.16	223.56
342.54	223.15
342.93	211.82
343.31	222.52
343.69	223.11
344.07	223.58
344.46	224.02
344.84	224.41
345.22	224.70
345.60	224.95
345.99	225.15
346.37	225.25
346.75	225.36
347.13	225.43
347.52	225.50
347.90	225.57
348.28	225.61
348.66	225.66
349.05	225.63
349.43	225.67
349.81	225.74
350.19	225.77
350.57	225.85
350.96	225.93
351.34	225.99
351.72	226.05
352.10	226.11
352.48	226.18
352.87	226.23
353.25	226.29
353.63	226.31
354.01	226.37
354.39	226.44
354.77	226.52
355.15	226.62
355.54	226.67
355.92	226.68
356.30	226.74
356.68	226.85
357.06	226.91
357.44	226.96
357.82	226.99
358.20	227.09
358.58	227.15
358.97	227.17
359.35	227.23
359.73	227.30
360.11	227.38
360.49	227.42
360.87	227.46
361.25	227.48
361.63	227.56
362.01	227.59
362.39	227.62
362.77	227.61
363.15	227.64
363.53	227.67
363.91	227.73
364.29	227.76
364.67	227.69
365.05	227.69
365.43	227.71
365.81	227.69
366.19	227.73
366.57	227.73
366.95	227.74
367.33	227.72
367.71	227.71
368.09	227.70
368.47	227.67
368.85	227.64
369.23	227.63
369.61	227.55
369.99	227.56
370.37	227.52
370.75	227.57
371.13	227.49
371.51	227.44
371.89	227.37
372.27	227.32
372.65	227.28
373.03	227.23
373.41	227.17
373.78	227.17
374.16	227.04
374.54	226.98
374.92	226.93
375.30	226.85
375.68	226.77
376.06	226.72
376.44	226.63
376.82	226.57
377.19	226.51
377.57	226.44
377.95	226.32
378.33	226.26
378.71	226.12
379.09	226.06
379.47	225.99
379.84	225.90
380.22	225.81
380.60	225.70
380.98	225.63
381.36	225.54
381.73	225.45
382.11	225.41
382.49	225.34
382.87	225.23
383.25	225.19
383.62	225.25
384.00	225.15
384.38	225.12
384.76	225.07
385.13	225.07
385.51	225.04
385.89	224.98
386.27	224.94
386.64	224.91
387.02	224.87
387.40	224.84
387.78	224.82
388.15	224.78
388.53	224.75
388.91	224.74
389.29	224.73
389.66	224.70
390.04	224.70
390.42	224.71
390.79	224.73
391.17	224.70
391.55	224.59
391.92	224.60
392.30	224.63
392.68	224.60
393.05	224.61
393.43	224.61
393.81	224.63
394.18	224.63
394.56	224.64
394.94	224.70
395.31	224.70
395.69	224.75
396.06	224.80
396.44	224.88
396.82	224.88
397.19	224.97
397.57	225.00
397.95	225.02
398.32	225.00
398.70	225.05
399.07	225.14
399.45	225.19
399.82	225.23
400.20	225.24
400.58	225.34
400.95	225.35
401.33	225.46
401.70	225.59
402.08	225.66
402.45	225.75
402.83	225.86
403.20	225.95
403.58	226.03
403.95	226.16
404.33	226.25
404.71	226.39
405.08	226.55
405.46	226.69
405.83	226.81
406.21	226.98
406.58	227.13
406.96	227.26
407.33	227.42
407.70	227.62
408.08	227.91
408.45	228.14
408.83	228.41
409.20	228.60
409.58	228.78
409.95	229.05
410.33	229.31
410.70	229.55
411.08	229.87
411.45	230.21
411.82	230.47
412.20	230.88
412.57	231.28
412.95	231.54
413.32	231.98
413.69	232.39
414.07	232.83
414.44	233.31
414.82	233.81
415.19	234.38
415.56	234.94
415.94	235.48
416.31	236.08
416.68	236.67
417.06	237.40
417.43	238.07
417.81	238.83
418.18	239.61
418.55	240.46
418.93	241.33
419.30	242.20
419.67	243.19
420.04	244.09
420.42	245.08
420.79	246.29
421.16	247.41
421.54	248.63
421.91	249.85
422.28	251.11
422.66	252.45
423.03	253.73
423.40	255.06
423.77	256.49
424.15	257.94
424.52	259.48
424.89	261.12
425.26	262.71
425.64	264.14
426.01	265.75
426.38	267.45
426.75	269.11
427.13	270.85
427.50	272.69
427.87	274.60
428.24	276.50
428.61	278.26
428.99	280.21
429.36	282.32
429.73	284.37
430.10	286.37
430.47	288.43
430.85	290.58
431.22	292.85
431.59	295.21
431.96	297.44
432.33	299.91
432.70	302.23
433.08	305.02
433.45	307.71
433.82	310.30
434.19	313.12
434.56	315.95
434.93	318.59
435.30	321.20
435.68	324.09
436.05	326.90
436.42	329.70
436.79	332.24
437.16	334.91
437.53	337.78
437.90	340.61
438.27	343.37
438.64	346.18
439.01	348.80
439.38	351.06
439.75	353.26
440.13	355.77
440.50	358.14
440.87	360.03
441.24	361.99
441.61	364.18
441.98	365.70
442.35	367.53
442.72	369.41
443.09	371.22
443.46	372.25
443.83	372.84
444.20	373.38
444.57	374.17
444.94	374.50
445.31	374.84
445.68	375.22
446.05	375.28
446.42	374.90
446.79	374.42
447.16	374.00
447.53	373.69
447.90	372.52
448.27	371.40
448.64	369.80
449.01	368.69
449.37	366.77
449.74	364.90
450.11	362.65
450.48	360.18
450.85	357.64
451.22	355.47
451.59	353.47
451.96	351.51
452.33	348.96
452.70	346.59
453.07	343.76
453.43	340.86
453.80	338.12
454.17	335.46
454.54	332.98
454.91	330.20
455.28	327.53
455.65	325.04
456.02	322.57
456.38	320.42
456.75	317.76
457.12	315.46
457.49	313.20
457.86	311.01
458.23	309.16
458.59	307.11
458.96	305.00
459.33	303.14
459.70	301.24
460.07	299.74
460.43	297.99
460.80	296.37
461.17	294.93
461.54	293.41
461.91	291.98
462.27	290.54
462.64	289.31
463.01	287.96
463.38	286.68
463.74	285.30
464.11	284.17
464.48	283.12
464.85	282.03
465.21	281.17
465.58	280.26
465.95	279.16
466.32	278.28
466.68	277.41
467.05	276.56
467.42	275.69
467.78	274.81
468.15	273.97
468.52	273.32
468.88	272.44
469.25	271.71
469.62	271.07
469.98	270.39
470.35	269.74
470.72	269.16
471.08	268.49
471.45	267.94
471.82	267.33
472.18	266.74
472.55	266.31
472.92	265.78
473.28	265.33
473.65	264.92
474.02	264.48
474.38	264.11
474.75	263.75
475.11	263.41
475.48	263.11
475.85	262.90
476.21	262.65
476.58	262.48
476.94	262.31
477.31	262.14
477.67	262.02
478.04	261.93
478.41	261.83
478.77	261.89
479.14	261.85
479.50	261.91
479.87	261.98
480.23	262.07
480.60	262.14
480.96	262.24
481.33	262.44
481.69	262.63
482.06	262.85
482.42	263.07
482.79	263.33
483.15	263.64
483.52	264.01
483.88	264.41
484.25	264.79
484.61	265.21
484.98	265.66
485.34	266.17
485.71	266.73
486.07	267.35
486.44	267.88
486.80	268.60
487.17	269.29
487.53	270.08
487.90	270.92
488.26	271.84
488.62	272.77
488.99	273.72
489.35	274.76
489.72	275.87
490.08	277.02
490.44	278.25
490.81	279.57
491.17	280.89
491.54	282.34
491.90	283.85
492.26	285.49
492.63	287.25
492.99	289.08
493.36	291.01
493.72	293.07
494.08	295.17
494.45	297.36
494.81	299.76
495.17	302.16
495.54	304.72
495.90	307.39
496.26	310.20
496.63	313.14
496.99	316.24
497.35	319.51
497.72	322.92
498.08	326.42
498.44	330.08
498.80	333.99
499.17	338.05
499.53	342.24
499.89	346.62
500.26	351.09
500.62	355.69
500.98	360.64
501.34	365.70
501.71	370.98
502.07	376.41
502.43	381.98
502.79	387.77
503.16	393.79
503.52	400.03
503.88	406.43
504.24	413.01
504.60	419.87
504.97	426.93
505.33	434.22
505.69	441.90
506.05	449.63
506.41	457.48
506.78	465.54
507.14	473.91
507.50	482.55
507.86	491.55
508.22	500.67
508.59	509.71
508.95	519.18
509.31	528.94
509.67	538.92
510.03	549.12
510.39	559.62
510.75	570.30
511.12	581.09
511.48	592.28
511.84	603.63
512.20	614.99
512.56	626.80
512.92	638.72
513.28	650.93
513.64	663.24
514.00	675.76
514.37	688.53
514.73	701.40
515.09	714.20
515.45	727.21
515.81	740.57
516.17	754.35
516.53	768.24
516.89	782.13
517.25	796.09
517.61	810.17
517.97	824.39
518.33	838.49
518.69	853.01
519.05	867.67
519.41	882.55
519.77	897.74
520.13	912.85
520.49	928.04
520.85	943.03
521.21	958.38
521.57	974.32
521.93	989.77
522.29	1005.81
522.65	1021.74
523.01	1037.60
523.37	1053.33
523.73	1069.26
524.09	1085.10
524.45	1101.07
524.81	1117.37
525.17	1133.78
525.53	1150.22
525.89	1166.85
526.25	1183.36
526.61	1199.44
526.97	1215.86
527.33	1232.10
527.68	1248.29
528.04	1264.40
528.40	1280.71
528.76	1297.51
529.12	1313.65
529.48	1330.19
529.84	1345.86
530.20	1362.23
530.56	1378.78
530.91	1395.86
531.27	1412.19
531.63	1428.20
531.99	1444.54
532.35	1460.11
532.71	1475.88
533.07	1491.84
533.42	1507.45
533.78	1523.18
534.14	1539.15
534.50	1554.14
534.86	1569.71
535.21	1584.73
535.57	1600.26
535.93	1615.38
536.29	1629.86
536.65	1644.67
537.00	1659.12
537.36	1674.19
537.72	1688.27
538.08	1702.54
538.44	1715.97
538.79	1729.58
539.15	1742.82
539.51	1756.14
539.87	1770.34
540.22	1783.64
540.58	1797.03
540.94	1809.91
541.29	1822.35
541.65	1834.66
542.01	1847.49
542.37	1859.46
542.72	1871.64
543.08	1883.27
543.44	1895.45
543.79	1906.48
544.15	1917.20
544.51	1928.55
544.87	1939.22
545.22	1949.97
545.58	1960.05
545.94	1969.75
546.29	1979.56
546.65	1989.50
547.01	1998.80
547.36	2007.33
547.72	2015.91
548.07	2023.91
548.43	2032.26
548.79	2040.31
549.14	2047.98
549.50	2055.31
549.86	2062.93
550.21	2070.31
550.57	2077.55
550.92	2084.32
551.28	2091.36
551.64	2098.43
551.99	2105.06
552.35	2111.38
552.70	2117.64
553.06	2123.78
553.41	2130.26
553.77	2136.28
554.13	2142.35
554.48	2148.43
554.84	2154.08
555.19	2159.19
555.55	2164.55
555.90	2168.99
556.26	2174.06
556.61	2178.80
556.97	2183.45
557.32	2187.77
557.68	2192.01
558.03	2196.34
558.39	2199.86
558.74	2204.66
559.10	2208.64
559.45	2212.40
559.81	2216.74
560.16	2220.65
560.52	2224.06
560.87	2227.54
561.23	2230.33
561.58	2233.39
561.94	2236.16
562.29	2238.59
562.64	2241.57
563.00	2244.13
563.35	2247.73
563.71	2251.10
564.06	2254.36
564.42	2257.38
564.77	2260.12
565.12	2262.64
565.48	2264.76
565.83	2267.06
566.19	2268.63
566.54	2269.73
566.89	2271.19
567.25	2272.04
567.60	2273.47
567.96	2275.32
568.31	2276.09
568.66	2277.48
569.02	2278.27
569.37	2278.87
569.72	2280.12
570.08	2280.45
570.43	2280.77
570.78	2280.52
571.14	2279.20
571.49	2278.07
571.84	2277.83
572.20	2276.96
572.55	2275.95
572.90	2274.52
573.26	2273.37
573.61	2271.63
573.96	2270.33
574.31	2267.42
574.67	2264.79
575.02	2261.40
575.37	2258.12
575.72	2254.91
576.08	2251.65
576.43	2248.53
576.78	2245.25
577.13	2241.97
577.49	2239.10
577.84	2235.75
578.19	2232.09
578.54	2228.75
578.90	2225.05
579.25	2219.78
579.60	2215.05
579.95	2210.37
580.30	2205.69
580.66	2200.67
581.01	2196.08
581.36	2191.26
581.71	2187.45
582.06	2183.41
582.42	2179.32
582.77	2174.38
583.12	2169.94
583.47	2165.66
583.82	2161.10
584.17	2155.85
584.53	2150.80
584.88	2145.39
585.23	2139.93
585.58	2134.75
585.93	2129.39
586.28	2124.62
586.63	2119.87
586.98	2115.10
587.34	2110.67
587.69	2105.98
588.04	2101.02
588.39	2095.66
588.74	2089.49
589.09	2083.57
589.44	2076.82
589.79	2070.86
590.14	2065.38
590.49	2058.96
590.84	2052.71
591.19	2046.80
591.54	2040.70
591.89	2033.67
592.25	2027.21
592.60	2020.29
592.95	2012.93
593.30	2005.81
593.65	1998.37
594.00	1991.40
594.35	1984.09
594.70	1976.01
595.05	1969.25
595.40	1962.14
595.75	1954.72
596.10	1948.66
596.45	1942.11
596.80	1936.02
597.15	1929.51
597.50	1922.73
597.85	1916.42
598.19	1909.93
598.54	1903.11
598.89	1896.48
599.24	1890.57
599.59	1884.14
599.94	1878.00
600.29	1871.74
600.64	1865.18
600.99	1858.04
601.34	1851.42
601.69	1844.65
602.04	1838.08
602.39	1830.57
602.74	1823.74
603.08	1817.26
603.43	1810.58
603.78	1803.31
604.13	1796.24
604.48	1789.18
604.83	1782.41
605.18	1775.61
605.53	1767.72
605.87	1759.63
606.22	1752.42
606.57	1744.58
606.92	1736.92
607.27	1729.86
607.62	1723.07
607.96	1715.98
608.31	1709.46
608.66	1701.95
609.01	1694.55
609.36	1687.07
609.70	1679.11
610.05	1671.14
610.40	1663.40
610.75	1655.09
611.10	1647.42
611.44	1638.97
611.79	1630.88
612.14	1622.22
612.49	1613.06
612.83	1604.61
613.18	1596.53
613.53	1588.46
613.88	1579.91
614.22	1571.84
614.57	1563.10
614.92	1555.11
615.27	1547.71
615.61	1539.37
615.96	1531.21
616.31	1523.52
616.65	1515.99
617.00	1508.48
617.35	1500.80
617.70	1492.54
618.04	1484.10
618.39	1475.89
618.74	1468.36
619.08	1460.15
619.43	1452.56
619.78	1445.66
620.12	1438.62
620.47	1431.09
620.82	1422.92
621.16	1415.44
621.51	1407.79
621.85	1400.07
622.20	1391.65
622.55	1383.23
622.89	1375.41
623.24	1367.81
623.59	1360.34
623.93	1352.94
624.28	1345.69
624.62	1338.25
624.97	1331.12
625.32	1324.35
625.66	1317.38
626.01	1310.22
626.35	1302.83
626.70	1295.01
627.04	1287.31
627.39	1279.52
627.73	1272.14
628.08	1265.17
628.43	1258.07
628.77	1250.85
629.12	1243.47
629.46	1236.20
629.81	1228.62
630.15	1221.29
630.50	1214.00
630.84	1205.93
631.19	1197.94
631.53	1190.50
631.88	1182.94
632.22	1175.26
632.57	1167.93
632.91	1160.38
633.26	1152.92
633.60	1145.47
633.95	1138.32
634.29	1131.25
634.64	1124.48
634.98	1117.12
635.32	1110.03
635.67	1103.23
636.01	1096.51
636.36	1089.76
636.70	1083.19
637.05	1076.66
637.39	1070.24
637.73	1063.66
638.08	1057.62
638.42	1051.68
638.77	1045.10
639.11	1038.60
639.45	1032.31
639.80	1025.71
640.14	1019.31
640.49	1012.87
640.83	1006.54
641.17	1000.43
641.52	994.10
641.86	987.59
642.20	981.72
642.55	975.35
642.89	968.91
643.23	962.25
643.58	956.46
643.92	950.30
644.26	944.33
644.61	938.24
644.95	932.21
645.29	925.73
645.64	918.98
645.98	912.69
646.32	906.73
646.66	900.66
647.01	894.86
647.35	889.14
647.69	883.14
648.04	877.59
648.38	871.81
648.72	865.86
649.06	859.93
649.41	853.95
649.75	848.05
650.09	842.16
650.43	836.47
650.78	830.29
651.12	824.35
651.46	818.59
651.80	812.92
652.14	807.43
652.49	802.06
652.83	796.91
653.17	791.22
653.51	785.54
653.85	780.01
654.20	774.43
654.54	768.45
654.88	762.76
655.22	756.89
655.56	751.12
655.90	745.69
656.25	740.40
656.59	735.10
656.93	730.06
657.27	724.97
657.61	719.57
657.95	714.48
658.29	709.42
658.64	704.16
658.98	698.85
659.32	693.49
659.66	688.29
660.00	683.05
660.34	678.17
660.68	673.22
661.02	668.18
661.36	663.40
661.70	658.86
662.05	654.50
662.39	650.21
662.73	645.73
663.07	641.32
663.41	636.91
663.75	632.45
664.09	627.81
664.43	623.30
664.77	619.26
665.11	614.98
665.45	610.83
665.79	606.75
666.13	602.64
666.47	598.47
666.81	594.32
667.15	590.10
667.49	586.07
667.83	582.23
668.17	578.35
668.51	574.28
668.85	570.25
669.19	566.38
669.53	562.49
669.87	558.72
670.21	555.06
670.55	551.46
670.89	548.03
671.23	544.64
671.57	541.12
671.91	537.51
672.25	534.02
672.58	530.56
672.92	527.10
673.26	523.87
673.60	520.76
673.94	517.68
674.28	514.73
674.62	511.82
674.96	508.74
675.30	505.79
675.64	502.88
675.97	500.06
676.31	497.18
676.65	494.31
676.99	491.56
677.33	488.65
677.67	485.75
678.01	482.70
678.34	479.74
678.68	476.87
679.02	474.05
679.36	471.23
679.70	468.43
680.04	465.70
680.37	462.87
680.71	460.09
681.05	457.41
681.39	454.72
681.73	452.09
682.06	449.58
682.40	447.07
682.74	444.51
683.08	441.96
683.42	439.43
683.75	436.95
684.09	434.38
684.43	431.90
684.77	429.47
685.10	427.12
685.44	424.81
685.78	422.56
686.12	420.31
686.45	418.06
686.79	415.85
687.13	413.67
687.46	411.46
687.80	409.22
688.14	406.98
688.48	404.94
688.81	402.73
689.15	400.54
689.49	398.35
689.82	396.27
690.16	394.14
690.50	392.13
690.83	390.17
691.17	388.16
691.51	386.28
691.84	384.40
692.18	382.52
692.52	380.55
692.85	378.59
693.19	376.67
693.52	374.82
693.86	372.97
694.20	371.14
694.53	369.35
694.87	367.53
695.21	365.71
695.54	363.83
695.88	362.08
696.21	360.35
696.55	358.69
696.88	356.96
697.22	355.31
697.56	353.64
697.89	351.97
698.23	350.36
698.56	348.71
698.90	347.11
699.23	345.47
699.57	343.91
699.90	342.31
700.24	340.77
700.58	339.24
700.91	337.70
701.25	336.22
701.58	334.86
701.92	333.51
702.25	332.18
702.59	330.85
702.92	329.55
703.26	328.23
703.59	326.90
703.93	325.73
704.26	324.51
704.60	323.20
704.93	321.88
705.26	320.66
705.60	319.44
705.93	318.28
706.27	317.18
706.60	316.11
706.94	315.05
707.27	313.92
707.61	312.83
707.94	311.81
708.27	310.74
708.61	309.65
708.94	308.62
709.28	307.63
709.61	306.65
709.94	305.67
710.28	304.64
710.61	303.67
710.95	302.59
711.28	301.65
711.61	300.69
711.95	299.79
712.28	298.82
712.61	297.87
712.95	296.90
713.28	295.98
713.61	295.08
713.95	294.20
714.28	293.34
714.61	292.49
714.95	291.64
715.28	290.76
715.61	289.87
715.95	289.02
716.28	288.13
716.61	287.27
716.95	286.42
717.28	285.68
717.61	284.91
717.94	284.18
718.28	283.35
718.61	282.66
718.94	281.97
719.27	281.32
719.61	280.66
719.94	280.03
720.27	279.34
720.60	278.64
720.94	278.02
721.27	277.40
721.60	276.82
721.93	276.20
722.27	275.68
722.60	275.13
722.93	274.56
723.26	274.01
723.59	273.47
723.93	272.91
724.26	272.36
724.59	271.80
724.92	271.25
725.25	270.76
725.59	270.22
725.92	269.70
726.25	269.17
726.58	268.69
726.91	268.12
727.24	267.62
727.57	267.16
727.91	266.64
728.24	266.14
728.57	265.60
728.90	265.16
729.23	264.66
729.56	264.22
729.89	263.76
730.22	263.30
730.55	262.82
730.89	262.38
731.22	261.92
731.55	261.50
731.88	261.05
732.21	260.61
732.54	260.18
732.87	259.75
733.20	259.35
733.53	258.92
733.86	258.64
734.19	258.26
734.52	257.87
734.85	257.53
735.18	257.14
735.51	256.81
735.84	256.46
736.17	256.06
736.50	255.63
736.83	255.37
737.16	255.01
737.49	254.69
737.82	254.35
738.15	253.99
738.48	253.63
738.81	253.33
739.14	253.01
739.47	252.71
739.80	252.42
740.13	252.11
740.46	251.82
740.79	251.47
741.12	251.16
741.45	250.86
741.78	250.53
742.11	250.28
742.44	249.94
742.77	249.61
743.10	249.36
743.43	249.09
743.75	248.69
744.08	248.56
744.41	248.29
744.74	248.03
745.07	247.78
745.40	247.54
745.73	247.31
746.06	247.04
746.39	246.75
746.71	246.43
747.04	246.15
747.37	245.86
747.70	245.64
748.03	245.37
748.36	245.14
748.68	244.89
749.01	244.65
749.34	244.44
749.67	244.20
750.00	243.97
750.33	243.81
750.65	243.59
750.98	243.26
751.31	243.01
751.64	242.76
751.97	242.59
752.29	242.38
752.62	242.09
752.95	241.90
753.28	241.70
753.60	241.54
753.93	241.38
754.26	241.19
754.59	240.95
754.91	240.76
755.24	240.55
755.57	240.34
755.90	240.15
756.22	239.94
756.55	239.75
756.88	239.53
757.20	239.32
757.53	239.14
757.86	238.95
758.19	238.77
758.51	238.61
758.84	238.38
759.17	238.20
759.49	238.06
759.82	237.94
760.15	237.78
760.47	237.61
760.80	237.42
761.13	237.33
761.45	237.15
761.78	236.99
762.11	236.88
762.43	236.78
762.76	236.63
763.08	236.52
763.41	236.39
763.74	236.24
764.06	236.08
764.39	235.95
764.71	235.84
765.04	235.69
765.37	235.53
765.69	235.41
766.02	235.28
766.34	235.12
766.67	234.97
767.00	234.86
767.32	234.80
767.65	234.74
767.97	234.60
768.30	234.49
768.62	234.39
768.95	234.26
769.27	234.11
769.60	233.99
769.92	233.85
770.25	233.70
770.57	233.61
770.90	233.50
771.22	233.39
771.55	233.30
771.87	233.24
772.20	233.20
772.52	233.19
772.85	233.21
773.17	233.14
773.50	233.05
773.82	232.94
774.15	232.79
774.47	232.65
774.80	232.54
775.12	232.45
775.45	232.36
775.77	232.25
776.09	232.19
776.42	232.11
776.74	232.08
777.07	232.00
777.39	231.92
777.72	231.84
778.04	231.78
778.36	231.72
778.69	231.66
779.01	231.55
779.33	231.38
779.66	231.19
779.98	231.14
780.31	231.09
780.63	231.07
780.95	231.05
781.28	230.98
781.60	230.91
781.92	230.86
782.25	230.79
782.57	230.73
782.89	230.67
783.22	230.62
783.54	230.53
783.86	230.53
784.19	230.49
784.51	230.43
784.83	230.37
785.16	230.30
785.48	230.25
785.80	230.21
786.12	230.14
786.45	230.10
786.77	230.03
787.09	229.98
