SpectraSuite Data File
++++++++++++++++++++++++++++++++++++
Date: Fri Feb 01 17:53:03 EST 2013
User: group
Dark Spectrum Present: No
Reference Spectrum Present: No
Number of Sampled Component Spectra: 1
Spectrometers: USB2E7196
Integration Time (usec): 35000 (USB2E7196)
Spectra Averaged: 100 (USB2E7196)
Boxcar Smoothing: 10 (USB2E7196)
Correct for Electrical Dark: No (USB2E7196)
Strobe/Lamp Enabled: No (USB2E7196)
Correct for Detector Non-linearity: No (USB2E7196)
Correct for Stray Light: No (USB2E7196)
Number of Pixels in Processed Spectrum: 2048
>>>>>Begin Processed Spectral Data<<<<<
339.09	0.00
339.48	212.42
339.86	214.41
340.24	216.20
340.63	217.14
341.01	220.43
341.39	220.00
341.78	220.79
342.16	222.96
342.54	222.93
342.93	211.21
343.31	221.90
343.69	222.47
344.07	222.93
344.46	223.31
344.84	223.69
345.22	223.89
345.60	224.11
345.99	224.30
346.37	224.39
346.75	224.47
347.13	224.54
347.52	224.60
347.90	224.70
348.28	224.70
348.66	224.74
349.05	224.75
349.43	224.77
349.81	224.82
350.19	224.82
350.57	224.91
350.96	224.96
351.34	225.02
351.72	225.09
352.10	225.17
352.48	225.23
352.87	225.27
353.25	225.33
353.63	225.42
354.01	225.48
354.39	225.56
354.77	225.63
355.15	225.73
355.54	225.78
355.92	225.80
356.30	225.91
356.68	226.06
357.06	226.13
357.44	226.20
357.82	226.27
358.20	226.39
358.58	226.40
358.97	226.46
359.35	226.57
359.73	226.65
360.11	226.67
360.49	226.75
360.87	226.81
361.25	226.86
361.63	226.94
362.01	227.00
362.39	227.00
362.77	227.08
363.15	227.08
363.53	227.12
363.91	227.13
364.29	227.14
364.67	227.07
365.05	227.11
365.43	227.15
365.81	227.17
366.19	227.21
366.57	227.30
366.95	227.32
367.33	227.27
367.71	227.22
368.09	227.25
368.47	227.24
368.85	227.22
369.23	227.25
369.61	227.19
369.99	227.22
370.37	227.22
370.75	227.23
371.13	227.19
371.51	227.14
371.89	227.12
372.27	227.09
372.65	227.07
373.03	227.02
373.41	226.98
373.78	226.95
374.16	226.87
374.54	226.80
374.92	226.73
375.30	226.71
375.68	226.68
376.06	226.65
376.44	226.61
376.82	226.56
377.19	226.47
377.57	226.39
377.95	226.30
378.33	226.23
378.71	226.07
379.09	226.00
379.47	225.95
379.84	225.86
380.22	225.81
380.60	225.73
380.98	225.69
381.36	225.61
381.73	225.51
382.11	225.47
382.49	225.38
382.87	225.33
383.25	225.28
383.62	225.35
384.00	225.27
384.38	225.21
384.76	225.19
385.13	225.18
385.51	225.12
385.89	225.04
386.27	224.99
386.64	225.00
387.02	224.97
387.40	224.92
387.78	224.92
388.15	224.87
388.53	224.83
388.91	224.76
389.29	224.71
389.66	224.73
390.04	224.65
390.42	224.68
390.79	224.65
391.17	224.62
391.55	224.46
391.92	224.48
392.30	224.44
392.68	224.44
393.05	224.40
393.43	224.42
393.81	224.46
394.18	224.49
394.56	224.51
394.94	224.52
395.31	224.51
395.69	224.54
396.06	224.58
396.44	224.59
396.82	224.63
397.19	224.71
397.57	224.69
397.95	224.76
398.32	224.77
398.70	224.81
399.07	224.90
399.45	224.96
399.82	224.99
400.20	225.03
400.58	225.05
400.95	225.11
401.33	225.15
401.70	225.31
402.08	225.37
402.45	225.44
402.83	225.58
403.20	225.73
403.58	225.81
403.95	225.91
404.33	226.11
404.71	226.22
405.08	226.41
405.46	226.57
405.83	226.73
406.21	226.90
406.58	227.10
406.96	227.21
407.33	227.42
407.70	227.64
408.08	227.96
408.45	228.24
408.83	228.52
409.20	228.80
409.58	229.02
409.95	229.37
410.33	229.72
410.70	230.00
411.08	230.37
411.45	230.77
411.82	231.19
412.20	231.62
412.57	232.16
412.95	232.57
413.32	233.08
413.69	233.60
414.07	234.15
414.44	234.75
414.82	235.38
415.19	236.12
415.56	236.83
415.94	237.57
416.31	238.40
416.68	239.25
417.06	240.19
417.43	241.08
417.81	242.08
418.18	243.08
418.55	244.21
418.93	245.37
419.30	246.60
419.67	247.82
420.04	249.09
420.42	250.41
420.79	251.96
421.16	253.52
421.54	255.11
421.91	256.69
422.28	258.39
422.66	260.16
423.03	261.86
423.40	263.64
423.77	265.49
424.15	267.41
424.52	269.35
424.89	271.52
425.26	273.62
425.64	275.51
426.01	277.65
426.38	279.85
426.75	282.03
427.13	284.30
427.50	286.75
427.87	289.23
428.24	291.71
428.61	294.04
428.99	296.63
429.36	299.47
429.73	302.26
430.10	304.96
430.47	307.73
430.85	310.57
431.22	313.53
431.59	316.68
431.96	319.65
432.33	322.94
432.70	326.05
433.08	329.75
433.45	333.21
433.82	336.65
434.19	340.46
434.56	344.19
434.93	347.68
435.30	351.10
435.68	354.89
436.05	358.63
436.42	362.34
436.79	365.62
437.16	369.13
437.53	372.91
437.90	376.60
438.27	380.24
438.64	383.94
439.01	387.39
439.38	390.34
439.75	393.22
440.13	396.48
440.50	399.56
440.87	402.00
441.24	404.63
441.61	407.50
441.98	409.48
442.35	411.92
442.72	414.42
443.09	416.84
443.46	418.19
443.83	418.99
444.20	419.69
444.57	420.86
444.94	421.29
445.31	421.69
445.68	422.13
446.05	422.24
446.42	421.78
446.79	421.26
447.16	420.74
447.53	420.29
447.90	418.85
448.27	417.37
448.64	415.27
449.01	413.77
449.37	411.17
449.74	408.69
450.11	405.68
450.48	402.41
450.85	399.07
451.22	396.24
451.59	393.58
451.96	390.97
452.33	387.50
452.70	384.34
453.07	380.62
453.43	376.80
453.80	373.13
454.17	369.62
454.54	366.26
454.91	362.63
455.28	359.12
455.65	355.79
456.02	352.47
456.38	349.64
456.75	346.09
457.12	343.12
457.49	340.15
457.86	337.24
458.23	334.78
458.59	332.02
458.96	329.26
459.33	326.81
459.70	324.33
460.07	322.31
460.43	320.01
460.80	317.84
461.17	315.91
461.54	313.90
461.91	311.98
462.27	310.01
462.64	308.34
463.01	306.52
463.38	304.81
463.74	303.02
464.11	301.46
464.48	300.11
464.85	298.59
465.21	297.39
465.58	296.21
465.95	294.71
466.32	293.54
466.68	292.32
467.05	291.09
467.42	289.92
467.78	288.68
468.15	287.52
468.52	286.67
468.88	285.54
469.25	284.51
469.62	283.66
469.98	282.75
470.35	281.90
470.72	281.08
471.08	280.22
471.45	279.51
471.82	278.76
472.18	277.88
472.55	277.33
472.92	276.64
473.28	276.01
473.65	275.39
474.02	274.73
474.38	274.17
474.75	273.69
475.11	273.19
475.48	272.82
475.85	272.47
476.21	272.09
476.58	271.80
476.94	271.58
477.31	271.31
477.67	271.05
478.04	270.84
478.41	270.72
478.77	270.64
479.14	270.49
479.50	270.46
479.87	270.51
480.23	270.51
480.60	270.51
480.96	270.56
481.33	270.75
481.69	270.89
482.06	271.08
482.42	271.25
482.79	271.47
483.15	271.75
483.52	272.13
483.88	272.44
484.25	272.81
484.61	273.17
484.98	273.61
485.34	274.16
485.71	274.73
486.07	275.33
486.44	275.89
486.80	276.61
487.17	277.34
487.53	278.18
487.90	279.05
488.26	280.01
488.62	281.03
488.99	282.02
489.35	283.13
489.72	284.27
490.08	285.53
490.44	286.82
490.81	288.18
491.17	289.55
491.54	291.09
491.90	292.68
492.26	294.43
492.63	296.21
492.99	298.08
493.36	300.07
493.72	302.22
494.08	304.45
494.45	306.81
494.81	309.34
495.17	311.88
495.54	314.57
495.90	317.39
496.26	320.28
496.63	323.41
496.99	326.72
497.35	330.17
497.72	333.77
498.08	337.43
498.44	341.29
498.80	345.42
499.17	349.63
499.53	354.00
499.89	358.59
500.26	363.36
500.62	368.30
500.98	373.53
501.34	378.92
501.71	384.50
502.07	390.20
502.43	396.08
502.79	402.20
503.16	408.64
503.52	415.27
503.88	422.04
504.24	429.02
504.60	436.21
504.97	443.74
505.33	451.46
505.69	459.67
506.05	467.92
506.41	476.23
506.78	484.88
507.14	493.88
507.50	503.12
507.86	512.67
508.22	522.43
508.59	532.19
508.95	542.22
509.31	552.67
509.67	563.38
510.03	574.29
510.39	585.52
510.75	596.97
511.12	608.60
511.48	620.61
511.84	632.78
512.20	645.09
512.56	657.77
512.92	670.76
513.28	683.95
513.64	697.29
514.00	710.96
514.37	724.78
514.73	738.77
515.09	752.63
515.45	766.83
515.81	781.33
516.17	796.31
516.53	811.54
516.89	826.83
517.25	842.11
517.61	857.61
517.97	873.20
518.33	888.73
518.69	904.62
519.05	920.81
519.41	937.35
519.77	954.16
520.13	970.90
520.49	987.55
520.85	1004.11
521.21	1021.08
521.57	1038.60
521.93	1055.79
522.29	1073.47
522.65	1091.23
523.01	1108.88
523.37	1126.38
523.73	1143.99
524.09	1161.49
524.45	1179.19
524.81	1197.45
525.17	1215.70
525.53	1234.15
525.89	1252.67
526.25	1271.10
526.61	1289.10
526.97	1307.45
527.33	1325.54
527.68	1343.60
528.04	1361.69
528.40	1380.03
528.76	1398.82
529.12	1417.08
529.48	1435.76
529.84	1453.57
530.20	1472.06
530.56	1490.83
530.91	1510.13
531.27	1528.88
531.63	1547.21
531.99	1565.67
532.35	1583.49
532.71	1601.30
533.07	1619.45
533.42	1637.33
533.78	1655.36
534.14	1673.66
534.50	1690.82
534.86	1708.67
535.21	1726.08
535.57	1744.03
535.93	1761.42
536.29	1778.27
536.65	1795.41
537.00	1812.05
537.36	1829.36
537.72	1845.81
538.08	1862.41
538.44	1878.10
538.79	1893.98
539.15	1909.75
539.51	1925.53
539.87	1941.86
540.22	1957.60
540.58	1973.36
540.94	1988.56
541.29	2003.34
541.65	2017.93
542.01	2033.24
542.37	2047.72
542.72	2062.10
543.08	2076.05
543.44	2090.71
543.79	2103.89
544.15	2116.85
544.51	2130.59
544.87	2143.62
545.22	2156.53
545.58	2168.71
545.94	2180.47
546.29	2192.37
546.65	2204.23
547.01	2215.51
547.36	2226.20
547.72	2236.80
548.07	2246.89
548.43	2256.96
548.79	2266.88
549.14	2276.42
549.50	2285.46
549.86	2294.93
550.21	2304.08
550.57	2313.02
550.92	2321.42
551.28	2330.35
551.64	2339.37
551.99	2347.67
552.35	2355.71
552.70	2363.56
553.06	2371.33
553.41	2379.64
553.77	2387.24
554.13	2394.99
554.48	2402.79
554.84	2410.09
555.19	2416.91
555.55	2423.60
555.90	2429.77
556.26	2436.51
556.61	2442.76
556.97	2448.96
557.32	2454.76
557.68	2460.69
558.03	2466.51
558.39	2471.55
558.74	2477.84
559.10	2483.19
559.45	2488.21
559.81	2493.76
560.16	2498.95
560.52	2503.50
560.87	2508.12
561.23	2512.19
561.58	2516.33
561.94	2520.34
562.29	2523.70
562.64	2527.96
563.00	2531.61
563.35	2536.41
563.71	2540.78
564.06	2545.27
564.42	2549.32
564.77	2553.11
565.12	2556.56
565.48	2559.69
565.83	2562.95
566.19	2565.32
566.54	2567.13
566.89	2569.45
567.25	2571.18
567.60	2573.53
567.96	2576.29
568.31	2578.05
568.66	2580.14
569.02	2581.66
569.37	2582.56
569.72	2584.49
570.08	2585.14
570.43	2586.00
570.78	2586.27
571.14	2585.30
571.49	2584.38
571.84	2584.54
572.20	2583.82
572.55	2583.21
572.90	2581.83
573.26	2580.94
573.61	2579.35
573.96	2578.08
574.31	2575.36
574.67	2572.58
575.02	2569.10
575.37	2565.78
575.72	2562.29
576.08	2558.85
576.43	2555.45
576.78	2552.19
577.13	2549.00
577.49	2545.84
577.84	2542.55
578.19	2538.56
578.54	2534.98
578.90	2530.86
579.25	2525.05
579.60	2520.00
579.95	2514.73
580.30	2509.63
580.66	2503.91
581.01	2498.82
581.36	2493.56
581.71	2489.32
582.06	2484.79
582.42	2480.20
582.77	2474.79
583.12	2469.87
583.47	2465.05
583.82	2460.10
584.17	2454.34
584.53	2448.35
584.88	2442.40
585.23	2436.17
585.58	2430.22
585.93	2424.22
586.28	2418.84
586.63	2413.42
586.98	2407.64
587.34	2402.38
587.69	2396.90
588.04	2391.43
588.39	2385.23
588.74	2378.03
589.09	2371.16
589.44	2363.57
589.79	2356.66
590.14	2350.29
590.49	2342.92
590.84	2335.78
591.19	2328.94
591.54	2321.70
591.89	2313.75
592.25	2306.38
592.60	2298.34
592.95	2290.09
593.30	2281.90
593.65	2273.43
594.00	2265.36
594.35	2257.30
594.70	2248.27
595.05	2240.37
595.40	2231.94
595.75	2223.37
596.10	2216.62
596.45	2208.97
596.80	2202.00
597.15	2194.76
597.50	2187.08
597.85	2179.68
598.19	2172.11
598.54	2164.25
598.89	2156.71
599.24	2149.92
599.59	2142.46
599.94	2135.28
600.29	2127.98
600.64	2120.32
600.99	2111.92
601.34	2104.29
601.69	2096.26
602.04	2088.48
602.39	2080.11
602.74	2072.28
603.08	2064.71
603.43	2056.77
603.78	2048.24
604.13	2039.91
604.48	2031.52
604.83	2023.54
605.18	2015.74
605.53	2006.60
605.87	1997.22
606.22	1988.75
606.57	1979.38
606.92	1970.58
607.27	1962.42
607.62	1954.57
607.96	1946.36
608.31	1938.94
608.66	1930.15
609.01	1921.50
609.36	1912.83
609.70	1903.58
610.05	1894.39
610.40	1885.56
610.75	1876.12
611.10	1867.44
611.44	1857.59
611.79	1848.32
612.14	1838.15
612.49	1827.40
612.83	1817.64
613.18	1808.15
613.53	1798.85
613.88	1789.09
614.22	1779.44
614.57	1769.21
614.92	1759.77
615.27	1751.10
615.61	1741.38
615.96	1732.06
616.31	1723.06
616.65	1714.57
617.00	1705.66
617.35	1696.61
617.70	1686.98
618.04	1677.00
618.39	1667.30
618.74	1658.56
619.08	1648.75
619.43	1639.86
619.78	1631.79
620.12	1623.50
620.47	1614.73
620.82	1605.10
621.16	1596.36
621.51	1587.51
621.85	1578.59
622.20	1568.62
622.55	1558.67
622.89	1549.45
623.24	1540.51
623.59	1531.76
623.93	1522.80
624.28	1514.45
624.62	1505.74
624.97	1497.34
625.32	1489.33
625.66	1481.12
626.01	1472.84
626.35	1464.39
626.70	1455.26
627.04	1446.24
627.39	1437.05
627.73	1428.38
628.08	1420.38
628.43	1412.02
628.77	1403.56
629.12	1394.86
629.46	1386.49
629.81	1377.67
630.15	1369.11
630.50	1360.49
630.84	1351.21
631.19	1341.87
631.53	1333.00
631.88	1324.17
632.22	1315.14
632.57	1306.57
632.91	1297.80
633.26	1289.06
633.60	1280.27
633.95	1271.95
634.29	1263.76
634.64	1256.06
634.98	1247.56
635.32	1239.25
635.67	1231.49
636.01	1223.74
636.36	1216.02
636.70	1208.37
637.05	1200.85
637.39	1193.40
637.73	1185.88
638.08	1179.03
638.42	1172.15
638.77	1164.70
639.11	1157.23
639.45	1149.88
639.80	1142.23
640.14	1134.95
640.49	1127.48
640.83	1120.22
641.17	1113.18
641.52	1105.89
641.86	1098.35
642.20	1091.66
642.55	1084.25
642.89	1076.81
643.23	1069.13
643.58	1062.29
643.92	1055.27
644.26	1048.49
644.61	1041.44
644.95	1034.54
645.29	1026.97
645.64	1019.26
645.98	1011.94
646.32	1005.01
646.66	998.16
647.01	991.51
647.35	984.84
647.69	977.99
648.04	971.58
648.38	964.88
648.72	958.08
649.06	951.25
649.41	944.37
649.75	937.63
650.09	930.84
650.43	924.28
650.78	917.27
651.12	910.41
651.46	903.74
651.80	897.21
652.14	890.98
652.49	884.84
652.83	878.85
653.17	872.48
653.51	866.04
653.85	859.76
654.20	853.36
654.54	846.45
654.88	839.88
655.22	833.20
655.56	826.65
655.90	820.32
656.25	814.31
656.59	808.21
656.93	802.36
657.27	796.43
657.61	790.14
657.95	784.29
658.29	778.54
658.64	772.50
658.98	766.43
659.32	760.09
659.66	754.15
660.00	748.16
660.34	742.45
660.68	736.78
661.02	731.01
661.36	725.57
661.70	720.53
662.05	715.55
662.39	710.64
662.73	705.55
663.07	700.48
663.41	695.33
663.75	690.23
664.09	685.01
664.43	679.97
664.77	675.32
665.11	670.47
665.45	665.63
665.79	660.93
666.13	656.23
666.47	651.56
666.81	646.76
667.15	641.99
667.49	637.47
667.83	633.04
668.17	628.58
668.51	623.98
668.85	619.27
669.19	614.83
669.53	610.46
669.87	606.11
670.21	601.91
670.55	597.72
670.89	593.75
671.23	589.88
671.57	585.89
671.91	581.85
672.25	577.73
672.58	573.73
672.92	569.77
673.26	566.13
673.60	562.51
673.94	558.97
674.28	555.63
674.62	552.22
674.96	548.78
675.30	545.47
675.64	542.11
675.97	538.98
676.31	535.74
676.65	532.38
676.99	529.24
677.33	526.02
677.67	522.87
678.01	519.40
678.34	515.94
678.68	512.60
679.02	509.39
679.36	506.25
679.70	503.07
680.04	499.99
680.37	496.73
680.71	493.53
681.05	490.50
681.39	487.41
681.73	484.35
682.06	481.43
682.40	478.51
682.74	475.59
683.08	472.65
683.42	469.70
683.75	466.84
684.09	463.88
684.43	461.01
684.77	458.19
685.10	455.51
685.44	452.84
685.78	450.21
686.12	447.58
686.45	444.95
686.79	442.40
687.13	439.88
687.46	437.40
687.80	434.96
688.14	432.45
688.48	430.08
688.81	427.63
689.15	425.12
689.49	422.58
689.82	420.18
690.16	417.71
690.50	415.40
690.83	413.17
691.17	410.89
691.51	408.67
691.84	406.52
692.18	404.30
692.52	402.12
692.85	399.87
693.19	397.77
693.52	395.70
693.86	393.57
694.20	391.48
694.53	389.43
694.87	387.28
695.21	385.20
695.54	383.05
695.88	380.94
696.21	378.96
696.55	377.09
696.88	375.15
697.22	373.28
697.56	371.44
697.89	369.52
698.23	367.68
698.56	365.83
698.90	364.04
699.23	362.25
699.57	360.49
699.90	358.78
700.24	356.99
700.58	355.24
700.91	353.53
701.25	351.88
701.58	350.29
701.92	348.74
702.25	347.18
702.59	345.68
702.92	344.22
703.26	342.72
703.59	341.21
703.93	339.82
704.26	338.43
704.60	337.00
704.93	335.56
705.26	334.13
705.60	332.81
705.93	331.41
706.27	330.17
706.60	328.94
706.94	327.63
707.27	326.30
707.61	325.08
707.94	323.89
708.27	322.63
708.61	321.36
708.94	320.22
709.28	319.06
709.61	317.92
709.94	316.80
710.28	315.64
710.61	314.52
710.95	313.32
711.28	312.22
711.61	311.08
711.95	310.04
712.28	309.00
712.61	307.87
712.95	306.79
713.28	305.74
713.61	304.67
713.95	303.69
714.28	302.73
714.61	301.71
714.95	300.74
715.28	299.78
715.61	298.78
715.95	297.81
716.28	296.86
716.61	295.89
716.95	294.90
717.28	294.06
717.61	293.19
717.94	292.35
718.28	291.46
718.61	290.59
718.94	289.76
719.27	288.97
719.61	288.22
719.94	287.46
720.27	286.63
720.60	285.87
720.94	285.11
721.27	284.45
721.60	283.78
721.93	283.07
722.27	282.39
722.60	281.75
722.93	281.05
723.26	280.43
723.59	279.82
723.93	279.24
724.26	278.56
724.59	277.89
724.92	277.25
725.25	276.70
725.59	276.10
725.92	275.48
726.25	274.89
726.58	274.30
726.91	273.74
727.24	273.21
727.57	272.68
727.91	272.12
728.24	271.56
728.57	270.97
728.90	270.48
729.23	269.97
729.56	269.49
729.89	268.92
730.22	268.35
730.55	267.82
730.89	267.30
731.22	266.85
731.55	266.32
731.88	265.83
732.21	265.29
732.54	264.79
732.87	264.32
733.20	263.83
733.53	263.37
733.86	262.96
734.19	262.50
734.52	262.05
734.85	261.66
735.18	261.19
735.51	260.80
735.84	260.35
736.17	259.93
736.50	259.44
736.83	259.20
737.16	258.79
737.49	258.38
737.82	258.02
738.15	257.61
738.48	257.24
738.81	256.87
739.14	256.53
739.47	256.18
739.80	255.85
740.13	255.50
740.46	255.13
740.79	254.77
741.12	254.41
741.45	254.05
741.78	253.68
742.11	253.38
742.44	253.03
742.77	252.70
743.10	252.35
743.43	252.04
743.75	251.61
744.08	251.46
744.41	251.15
744.74	250.78
745.07	250.48
745.40	250.22
745.73	249.93
746.06	249.61
746.39	249.30
746.71	249.01
747.04	248.68
747.37	248.43
747.70	248.12
748.03	247.83
748.36	247.59
748.68	247.32
749.01	247.02
749.34	246.76
749.67	246.49
750.00	246.24
750.33	246.05
750.65	245.79
750.98	245.41
751.31	245.16
751.64	244.92
751.97	244.71
752.29	244.44
752.62	244.18
752.95	243.94
753.28	243.66
753.60	243.39
753.93	243.23
754.26	242.97
754.59	242.72
754.91	242.50
755.24	242.25
755.57	242.03
755.90	241.82
756.22	241.57
756.55	241.36
756.88	241.11
757.20	240.83
757.53	240.58
757.86	240.37
758.19	240.15
758.51	239.97
758.84	239.75
759.17	239.60
759.49	239.39
759.82	239.26
760.15	239.11
760.47	238.96
760.80	238.73
761.13	238.55
761.45	238.38
761.78	238.18
762.11	238.00
762.43	237.81
762.76	237.61
763.08	237.45
763.41	237.29
763.74	237.16
764.06	237.00
764.39	236.87
764.71	236.68
765.04	236.55
765.37	236.37
765.69	236.20
766.02	236.02
766.34	235.86
766.67	235.67
767.00	235.56
767.32	235.47
767.65	235.36
767.97	235.24
768.30	235.13
768.62	234.99
768.95	234.84
769.27	234.72
769.60	234.60
769.92	234.48
770.25	234.32
770.57	234.17
770.90	234.07
771.22	233.94
771.55	233.86
771.87	233.73
772.20	233.63
772.52	233.61
772.85	233.60
773.17	233.51
773.50	233.37
773.82	233.26
774.15	233.07
774.47	232.96
774.80	232.83
775.12	232.73
775.45	232.62
775.77	232.55
776.09	232.42
776.42	232.40
776.74	232.35
777.07	232.28
777.39	232.22
777.72	232.12
778.04	232.06
778.36	231.98
778.69	231.90
779.01	231.86
779.33	231.69
779.66	231.53
779.98	231.49
780.31	231.45
780.63	231.40
780.95	231.36
781.28	231.27
781.60	231.21
781.92	231.12
782.25	231.09
782.57	231.02
782.89	231.00
783.22	230.91
783.54	230.85
783.86	230.80
784.19	230.74
784.51	230.74
784.83	230.65
785.16	230.61
785.48	230.57
785.80	230.50
786.12	230.46
786.45	230.39
