SpectraSuite Data File
++++++++++++++++++++++++++++++++++++
Date: Fri Feb 01 15:11:31 EST 2013
User: group
Dark Spectrum Present: No
Reference Spectrum Present: No
Number of Sampled Component Spectra: 1
Spectrometers: USB2E7196
Integration Time (usec): 35000 (USB2E7196)
Spectra Averaged: 100 (USB2E7196)
Boxcar Smoothing: 10 (USB2E7196)
Correct for Electrical Dark: No (USB2E7196)
Strobe/Lamp Enabled: No (USB2E7196)
Correct for Detector Non-linearity: No (USB2E7196)
Correct for Stray Light: No (USB2E7196)
Number of Pixels in Processed Spectrum: 2048
>>>>>Begin Processed Spectral Data<<<<<
339.09	0.00
339.48	215.35
339.86	216.50
340.24	218.34
340.63	219.61
341.01	222.69
341.39	222.07
341.78	223.15
342.16	224.82
342.54	225.16
342.93	213.50
343.31	224.29
343.69	224.85
344.07	225.34
344.46	225.77
344.84	226.11
345.22	226.32
345.60	226.56
345.99	226.77
346.37	226.88
346.75	226.99
347.13	227.06
347.52	227.09
347.90	227.17
348.28	227.22
348.66	227.28
349.05	227.26
349.43	227.32
349.81	227.36
350.19	227.39
350.57	227.46
350.96	227.53
351.34	227.64
351.72	227.68
352.10	227.78
352.48	227.81
352.87	227.91
353.25	227.97
353.63	228.04
354.01	228.10
354.39	228.20
354.77	228.25
355.15	228.36
355.54	228.42
355.92	228.45
356.30	228.51
356.68	228.64
357.06	228.73
357.44	228.76
357.82	228.87
358.20	228.95
358.58	228.99
358.97	229.05
359.35	229.11
359.73	229.22
360.11	229.26
360.49	229.33
360.87	229.36
361.25	229.43
361.63	229.49
362.01	229.53
362.39	229.55
362.77	229.59
363.15	229.59
363.53	229.61
363.91	229.63
364.29	229.64
364.67	229.56
365.05	229.57
365.43	229.56
365.81	229.54
366.19	229.56
366.57	229.60
366.95	229.60
367.33	229.54
367.71	229.50
368.09	229.51
368.47	229.47
368.85	229.46
369.23	229.43
369.61	229.37
369.99	229.37
370.37	229.37
370.75	229.40
371.13	229.35
371.51	229.29
371.89	229.24
372.27	229.21
372.65	229.18
373.03	229.13
373.41	229.09
373.78	229.02
374.16	228.90
374.54	228.85
374.92	228.75
375.30	228.71
375.68	228.65
376.06	228.56
376.44	228.51
376.82	228.44
377.19	228.37
377.57	228.28
377.95	228.19
378.33	228.12
378.71	227.96
379.09	227.90
379.47	227.85
379.84	227.79
380.22	227.71
380.60	227.61
380.98	227.55
381.36	227.49
381.73	227.44
382.11	227.42
382.49	227.33
382.87	227.26
383.25	227.21
383.62	227.22
384.00	227.15
384.38	227.09
384.76	227.03
385.13	227.01
385.51	226.96
385.89	226.89
386.27	226.81
386.64	226.80
387.02	226.72
387.40	226.65
387.78	226.63
388.15	226.61
388.53	226.57
388.91	226.51
389.29	226.47
389.66	226.47
390.04	226.43
390.42	226.43
390.79	226.42
391.17	226.41
391.55	226.30
391.92	226.27
392.30	226.27
392.68	226.28
393.05	226.29
393.43	226.32
393.81	226.31
394.18	226.34
394.56	226.36
394.94	226.42
395.31	226.47
395.69	226.52
396.06	226.55
396.44	226.61
396.82	226.66
397.19	226.77
397.57	226.78
397.95	226.83
398.32	226.88
398.70	226.97
399.07	227.03
399.45	227.08
399.82	227.19
400.20	227.28
400.58	227.36
400.95	227.40
401.33	227.50
401.70	227.68
402.08	227.79
402.45	227.86
402.83	228.00
403.20	228.11
403.58	228.21
403.95	228.37
404.33	228.51
404.71	228.61
405.08	228.78
405.46	228.93
405.83	229.10
406.21	229.25
406.58	229.40
406.96	229.58
407.33	229.77
407.70	229.97
408.08	230.24
408.45	230.45
408.83	230.68
409.20	230.90
409.58	231.08
409.95	231.32
410.33	231.63
410.70	231.84
411.08	232.15
411.45	232.47
411.82	232.74
412.20	233.08
412.57	233.54
412.95	233.82
413.32	234.24
413.69	234.67
414.07	235.12
414.44	235.58
414.82	236.09
415.19	236.66
415.56	237.21
415.94	237.74
416.31	238.40
416.68	239.02
417.06	239.73
417.43	240.43
417.81	241.20
418.18	241.98
418.55	242.81
418.93	243.67
419.30	244.55
419.67	245.48
420.04	246.44
420.42	247.45
420.79	248.66
421.16	249.80
421.54	250.96
421.91	252.14
422.28	253.43
422.66	254.74
423.03	255.99
423.40	257.32
423.77	258.72
424.15	260.12
424.52	261.65
424.89	263.23
425.26	264.78
425.64	266.22
426.01	267.82
426.38	269.52
426.75	271.18
427.13	272.94
427.50	274.71
427.87	276.58
428.24	278.40
428.61	280.12
428.99	282.05
429.36	284.15
429.73	286.21
430.10	288.21
430.47	290.26
430.85	292.42
431.22	294.67
431.59	297.06
431.96	299.36
432.33	301.83
432.70	304.24
433.08	307.04
433.45	309.70
433.82	312.29
434.19	315.18
434.56	318.03
434.93	320.70
435.30	323.38
435.68	326.30
436.05	329.19
436.42	331.98
436.79	334.50
437.16	337.23
437.53	340.10
437.90	342.95
438.27	345.71
438.64	348.58
439.01	351.19
439.38	353.45
439.75	355.58
440.13	358.09
440.50	360.44
440.87	362.29
441.24	364.29
441.61	366.47
441.98	367.95
442.35	369.72
442.72	371.60
443.09	373.39
443.46	374.39
443.83	374.95
444.20	375.47
444.57	376.36
444.94	376.68
445.31	377.02
445.68	377.34
446.05	377.41
446.42	376.99
446.79	376.56
447.16	376.13
447.53	375.85
447.90	374.66
448.27	373.50
448.64	371.92
449.01	370.76
449.37	368.76
449.74	366.84
450.11	364.60
450.48	362.10
450.85	359.57
451.22	357.36
451.59	355.35
451.96	353.43
452.33	350.79
452.70	348.38
453.07	345.55
453.43	342.64
453.80	339.90
454.17	337.21
454.54	334.68
454.91	331.92
455.28	329.16
455.65	326.66
456.02	324.21
456.38	322.05
456.75	319.34
457.12	317.10
457.49	314.86
457.86	312.68
458.23	310.81
458.59	308.74
458.96	306.67
459.33	304.82
459.70	302.93
460.07	301.44
460.43	299.71
460.80	298.08
461.17	296.65
461.54	295.14
461.91	293.71
462.27	292.21
462.64	290.95
463.01	289.62
463.38	288.35
463.74	286.98
464.11	285.81
464.48	284.77
464.85	283.65
465.21	282.79
465.58	281.88
465.95	280.78
466.32	279.91
466.68	279.00
467.05	278.06
467.42	277.14
467.78	276.18
468.15	275.31
468.52	274.64
468.88	273.75
469.25	272.94
469.62	272.27
469.98	271.59
470.35	270.93
470.72	270.34
471.08	269.66
471.45	269.12
471.82	268.57
472.18	267.99
472.55	267.52
472.92	267.00
473.28	266.54
473.65	266.08
474.02	265.60
474.38	265.20
474.75	264.89
475.11	264.52
475.48	264.26
475.85	263.99
476.21	263.75
476.58	263.58
476.94	263.42
477.31	263.24
477.67	263.08
478.04	263.01
478.41	262.93
478.77	262.96
479.14	262.89
479.50	262.92
479.87	262.95
480.23	263.02
480.60	263.08
480.96	263.15
481.33	263.32
481.69	263.52
482.06	263.75
482.42	263.94
482.79	264.23
483.15	264.50
483.52	264.92
483.88	265.22
484.25	265.60
484.61	266.04
484.98	266.51
485.34	267.05
485.71	267.58
486.07	268.18
486.44	268.75
486.80	269.40
487.17	270.11
487.53	270.96
487.90	271.82
488.26	272.78
488.62	273.80
488.99	274.77
489.35	275.83
489.72	276.93
490.08	278.13
490.44	279.37
490.81	280.74
491.17	282.05
491.54	283.58
491.90	285.11
492.26	286.72
492.63	288.46
492.99	290.25
493.36	292.16
493.72	294.20
494.08	296.31
494.45	298.55
494.81	300.90
495.17	303.32
495.54	305.85
495.90	308.52
496.26	311.35
496.63	314.28
496.99	317.41
497.35	320.66
497.72	324.05
498.08	327.54
498.44	331.17
498.80	335.08
499.17	339.09
499.53	343.22
499.89	347.59
500.26	352.04
500.62	356.70
500.98	361.67
501.34	366.70
501.71	371.97
502.07	377.44
502.43	383.07
502.79	388.84
503.16	394.96
503.52	401.24
503.88	407.58
504.24	414.25
504.60	421.15
504.97	428.23
505.33	435.51
505.69	443.24
506.05	451.01
506.41	458.89
506.78	467.00
507.14	475.40
507.50	484.17
507.86	493.15
508.22	502.32
508.59	511.49
508.95	521.09
509.31	530.93
509.67	540.98
510.03	551.26
510.39	561.86
510.75	572.68
511.12	583.54
511.48	594.84
511.84	606.30
512.20	617.79
512.56	629.71
512.92	641.98
513.28	654.35
513.64	666.84
514.00	679.55
514.37	692.58
514.73	705.69
515.09	718.68
515.45	732.00
515.81	745.59
516.17	759.63
516.53	773.76
516.89	787.98
517.25	802.19
517.61	816.62
517.97	831.17
518.33	845.46
518.69	860.34
519.05	875.42
519.41	890.65
519.77	906.25
520.13	921.83
520.49	937.25
520.85	952.65
521.21	968.33
521.57	984.64
521.93	1000.41
522.29	1016.89
522.65	1033.23
523.01	1049.56
523.37	1065.66
523.73	1081.92
524.09	1098.11
524.45	1114.42
524.81	1131.05
525.17	1148.03
525.53	1164.99
525.89	1181.99
526.25	1198.84
526.61	1215.16
526.97	1231.91
527.33	1248.46
527.68	1265.19
528.04	1281.70
528.40	1298.36
528.76	1315.64
529.12	1332.28
529.48	1349.12
529.84	1365.19
530.20	1381.87
530.56	1399.03
530.91	1416.54
531.27	1433.40
531.63	1449.86
531.99	1466.57
532.35	1482.73
532.71	1498.57
533.07	1514.71
533.42	1530.63
533.78	1546.74
534.14	1563.16
534.50	1578.51
534.86	1594.45
535.21	1609.54
535.57	1625.59
535.93	1641.19
536.29	1656.04
536.65	1671.10
537.00	1686.19
537.36	1701.65
537.72	1716.29
538.08	1730.75
538.44	1744.58
538.79	1758.58
539.15	1772.44
539.51	1786.28
539.87	1800.77
540.22	1814.54
540.58	1828.66
540.94	1842.21
541.29	1855.30
541.65	1868.04
542.01	1881.56
542.37	1893.87
542.72	1906.43
543.08	1918.22
543.44	1930.69
543.79	1941.94
544.15	1952.98
544.51	1964.49
544.87	1975.47
545.22	1986.29
545.58	1996.56
545.94	2006.37
546.29	2016.08
546.65	2025.98
547.01	2035.16
547.36	2043.83
547.72	2052.54
548.07	2060.18
548.43	2068.32
548.79	2076.25
549.14	2083.83
549.50	2091.02
549.86	2098.83
550.21	2106.18
550.57	2113.48
550.92	2119.91
551.28	2127.09
551.64	2134.21
551.99	2140.79
552.35	2147.01
552.70	2153.18
553.06	2158.99
553.41	2165.40
553.77	2171.50
554.13	2177.47
554.48	2183.69
554.84	2189.00
555.19	2194.09
555.55	2199.33
555.90	2203.75
556.26	2208.60
556.61	2213.26
556.97	2217.40
557.32	2221.43
557.68	2225.63
558.03	2229.82
558.39	2233.70
558.74	2238.26
559.10	2242.16
559.45	2245.70
559.81	2249.95
560.16	2253.78
560.52	2257.06
560.87	2260.45
561.23	2262.98
561.58	2265.93
561.94	2268.45
562.29	2270.97
562.64	2273.69
563.00	2276.22
563.35	2279.82
563.71	2282.98
564.06	2286.23
564.42	2289.17
564.77	2291.48
565.12	2293.47
565.48	2295.17
565.83	2296.90
566.19	2298.05
566.54	2299.01
566.89	2300.06
567.25	2300.65
567.60	2301.89
567.96	2303.61
568.31	2304.35
568.66	2305.52
569.02	2305.97
569.37	2306.07
569.72	2306.76
570.08	2306.72
570.43	2306.66
570.78	2305.79
571.14	2304.06
571.49	2302.69
571.84	2302.33
572.20	2301.23
572.55	2300.28
572.90	2298.72
573.26	2297.29
573.61	2295.62
573.96	2293.65
574.31	2290.57
574.67	2287.26
575.02	2283.52
575.37	2280.07
575.72	2276.21
576.08	2272.91
576.43	2269.49
576.78	2265.83
577.13	2262.73
577.49	2259.69
577.84	2256.12
578.19	2252.48
578.54	2248.67
578.90	2244.21
579.25	2238.60
579.60	2233.53
579.95	2228.40
580.30	2223.35
580.66	2218.11
581.01	2212.89
581.36	2207.91
581.71	2203.70
582.06	2199.27
582.42	2194.62
582.77	2189.16
583.12	2184.33
583.47	2179.17
583.82	2174.07
584.17	2168.72
584.53	2163.11
584.88	2157.33
585.23	2151.35
585.58	2145.74
585.93	2140.48
586.28	2135.72
586.63	2130.37
586.98	2125.30
587.34	2120.52
587.69	2115.53
588.04	2110.18
588.39	2104.40
588.74	2097.85
589.09	2091.58
589.44	2084.62
589.79	2078.57
590.14	2072.84
590.49	2066.28
590.84	2059.93
591.19	2053.86
591.54	2047.37
591.89	2039.67
592.25	2032.71
592.60	2025.49
592.95	2017.76
593.30	2010.16
593.65	2002.39
594.00	1995.39
594.35	1988.00
594.70	1979.90
595.05	1972.43
595.40	1965.02
595.75	1957.55
596.10	1951.12
596.45	1944.28
596.80	1938.05
597.15	1931.27
597.50	1924.09
597.85	1917.60
598.19	1910.86
598.54	1903.63
598.89	1896.88
599.24	1891.06
599.59	1884.31
599.94	1878.13
600.29	1871.77
600.64	1865.11
600.99	1857.63
601.34	1850.74
601.69	1843.63
602.04	1836.60
602.39	1829.25
602.74	1822.41
603.08	1815.58
603.43	1808.86
603.78	1801.49
604.13	1794.18
604.48	1786.84
604.83	1780.10
605.18	1772.94
605.53	1764.90
605.87	1756.90
606.22	1749.65
606.57	1741.62
606.92	1734.37
607.27	1727.06
607.62	1720.17
607.96	1712.84
608.31	1706.15
608.66	1698.43
609.01	1690.95
609.36	1683.36
609.70	1675.52
610.05	1667.34
610.40	1659.67
610.75	1651.36
611.10	1643.76
611.44	1635.46
611.79	1627.53
612.14	1618.68
612.49	1609.75
612.83	1601.53
613.18	1593.44
613.53	1585.27
613.88	1576.77
614.22	1568.45
614.57	1559.80
614.92	1551.70
615.27	1544.18
615.61	1535.95
615.96	1528.01
616.31	1520.45
616.65	1513.16
617.00	1505.56
617.35	1497.90
617.70	1489.55
618.04	1481.07
618.39	1472.95
618.74	1465.32
619.08	1457.08
619.43	1449.62
619.78	1442.74
620.12	1435.55
620.47	1428.09
620.82	1420.00
621.16	1412.58
621.51	1404.92
621.85	1397.47
622.20	1389.02
622.55	1380.64
622.89	1372.83
623.24	1365.28
623.59	1357.85
623.93	1350.35
624.28	1343.04
624.62	1335.61
624.97	1328.44
625.32	1321.75
625.66	1314.60
626.01	1307.37
626.35	1299.88
626.70	1292.09
627.04	1284.29
627.39	1276.48
627.73	1268.96
628.08	1262.02
628.43	1254.71
628.77	1247.35
629.12	1239.74
629.46	1232.49
629.81	1225.21
630.15	1217.97
630.50	1210.54
630.84	1202.29
631.19	1194.46
631.53	1186.99
631.88	1179.45
632.22	1171.87
632.57	1164.56
632.91	1157.11
633.26	1149.77
633.60	1142.42
633.95	1135.36
634.29	1128.30
634.64	1121.69
634.98	1114.38
635.32	1107.31
635.67	1100.81
636.01	1094.19
636.36	1087.44
636.70	1080.96
637.05	1074.37
637.39	1067.98
637.73	1061.44
638.08	1055.69
638.42	1049.63
638.77	1043.20
639.11	1036.55
639.45	1030.26
639.80	1023.65
640.14	1017.16
640.49	1010.62
640.83	1004.41
641.17	998.18
641.52	991.92
641.86	985.41
642.20	979.67
642.55	973.41
642.89	966.85
643.23	960.37
643.58	954.60
643.92	948.40
644.26	942.25
644.61	936.16
644.95	930.18
645.29	923.51
645.64	916.74
645.98	910.42
646.32	904.67
646.66	898.60
647.01	892.72
647.35	887.02
647.69	881.17
648.04	875.61
648.38	869.80
648.72	863.77
649.06	857.76
649.41	851.79
649.75	845.76
650.09	839.85
650.43	834.13
650.78	828.00
651.12	822.11
651.46	816.38
651.80	810.61
652.14	805.20
652.49	799.94
652.83	794.79
653.17	789.07
653.51	783.31
653.85	777.93
654.20	772.29
654.54	766.35
654.88	760.67
655.22	754.86
655.56	749.26
655.90	743.91
656.25	738.68
656.59	733.43
656.93	728.34
657.27	723.15
657.61	717.64
657.95	712.52
658.29	707.48
658.64	702.32
658.98	697.10
659.32	691.62
659.66	686.43
660.00	681.13
660.34	676.25
660.68	671.46
661.02	666.43
661.36	661.80
661.70	657.35
662.05	653.01
662.39	648.64
662.73	644.14
663.07	639.75
663.41	635.25
663.75	630.66
664.09	626.16
664.43	621.84
664.77	617.81
665.11	613.62
665.45	609.49
665.79	605.40
666.13	601.32
666.47	597.27
666.81	593.07
667.15	589.00
667.49	585.14
667.83	581.31
668.17	577.39
668.51	573.27
668.85	569.26
669.19	565.45
669.53	561.58
669.87	557.69
670.21	554.04
670.55	550.47
670.89	547.08
671.23	543.64
671.57	540.10
671.91	536.52
672.25	533.00
672.58	529.52
672.92	526.24
673.26	523.08
673.60	519.98
673.94	516.85
674.28	513.97
674.62	511.03
674.96	507.89
675.30	505.03
675.64	502.11
675.97	499.38
676.31	496.57
676.65	493.70
676.99	491.03
677.33	488.13
677.67	485.30
678.01	482.32
678.34	479.36
678.68	476.54
679.02	473.77
679.36	471.08
679.70	468.37
680.04	465.50
680.37	462.57
680.71	459.77
681.05	457.22
681.39	454.43
681.73	451.80
682.06	449.39
682.40	446.85
682.74	444.38
683.08	441.81
683.42	439.21
683.75	436.71
684.09	434.22
684.43	431.78
684.77	429.35
685.10	427.05
685.44	424.76
685.78	422.54
686.12	420.32
686.45	418.02
686.79	415.70
687.13	413.55
687.46	411.45
687.80	409.27
688.14	407.07
688.48	405.04
688.81	402.76
689.15	400.51
689.49	398.37
689.82	396.26
690.16	394.16
690.50	392.16
690.83	390.21
691.17	388.25
691.51	386.33
691.84	384.49
692.18	382.48
692.52	380.47
692.85	378.52
693.19	376.64
693.52	374.80
693.86	373.02
694.20	371.23
694.53	369.44
694.87	367.69
695.21	365.91
695.54	364.14
695.88	362.40
696.21	360.68
696.55	359.03
696.88	357.33
697.22	355.68
697.56	354.11
697.89	352.46
698.23	350.86
698.56	349.27
698.90	347.67
699.23	346.05
699.57	344.54
699.90	343.00
700.24	341.45
700.58	339.92
700.91	338.38
701.25	336.99
701.58	335.63
701.92	334.25
702.25	332.87
702.59	331.52
702.92	330.23
703.26	328.98
703.59	327.71
703.93	326.54
704.26	325.32
704.60	324.04
704.93	322.78
705.26	321.49
705.60	320.30
705.93	319.17
706.27	318.15
706.60	317.06
706.94	315.98
707.27	314.89
707.61	313.81
707.94	312.77
708.27	311.65
708.61	310.55
708.94	309.54
709.28	308.58
709.61	307.62
709.94	306.71
710.28	305.68
710.61	304.64
710.95	303.60
711.28	302.73
711.61	301.78
711.95	300.88
712.28	299.93
712.61	298.97
712.95	298.04
713.28	297.15
713.61	296.29
713.95	295.40
714.28	294.51
714.61	293.67
714.95	292.91
715.28	292.09
715.61	291.20
715.95	290.35
716.28	289.48
716.61	288.65
716.95	287.83
717.28	287.08
717.61	286.34
717.94	285.63
718.28	284.80
718.61	284.07
718.94	283.39
719.27	282.80
719.61	282.18
719.94	281.52
720.27	280.84
720.60	280.21
720.94	279.62
721.27	279.05
721.60	278.49
721.93	277.88
722.27	277.35
722.60	276.82
722.93	276.23
723.26	275.72
723.59	275.14
723.93	274.60
724.26	274.09
724.59	273.54
724.92	272.99
725.25	272.51
725.59	272.02
725.92	271.50
726.25	270.98
726.58	270.52
726.91	270.05
727.24	269.56
727.57	269.06
727.91	268.54
728.24	268.06
728.57	267.58
728.90	267.08
729.23	266.56
729.56	266.13
729.89	265.67
730.22	265.20
730.55	264.75
730.89	264.28
731.22	263.82
731.55	263.40
731.88	262.94
732.21	262.50
732.54	262.03
732.87	261.61
733.20	261.21
733.53	260.81
733.86	260.40
734.19	260.00
734.52	259.65
734.85	259.35
735.18	258.94
735.51	258.62
735.84	258.28
736.17	257.92
736.50	257.50
736.83	257.26
737.16	256.90
737.49	256.55
737.82	256.22
738.15	255.90
738.48	255.54
738.81	255.22
739.14	254.87
739.47	254.54
739.80	254.25
740.13	253.93
740.46	253.58
740.79	253.23
741.12	252.90
741.45	252.56
741.78	252.17
742.11	251.87
742.44	251.50
742.77	251.23
743.10	250.94
743.43	250.66
743.75	250.25
744.08	250.09
744.41	249.84
744.74	249.54
745.07	249.24
745.40	248.99
745.73	248.77
746.06	248.50
746.39	248.25
746.71	247.96
747.04	247.69
747.37	247.43
747.70	247.20
748.03	246.97
748.36	246.77
748.68	246.59
749.01	246.37
749.34	246.17
749.67	245.89
750.00	245.63
750.33	245.49
750.65	245.32
750.98	244.99
751.31	244.77
751.64	244.58
751.97	244.42
752.29	244.21
752.62	243.96
752.95	243.76
753.28	243.54
753.60	243.34
753.93	243.16
754.26	242.97
754.59	242.76
754.91	242.57
755.24	242.38
755.57	242.17
755.90	241.99
756.22	241.77
756.55	241.64
756.88	241.48
757.20	241.24
757.53	241.05
757.86	240.92
758.19	240.76
758.51	240.62
758.84	240.43
759.17	240.31
759.49	240.16
759.82	240.06
760.15	239.94
760.47	239.78
760.80	239.62
761.13	239.46
761.45	239.34
761.78	239.21
762.11	239.07
762.43	238.92
762.76	238.76
763.08	238.66
763.41	238.50
763.74	238.38
764.06	238.23
764.39	238.11
764.71	237.95
765.04	237.82
765.37	237.70
765.69	237.57
766.02	237.41
766.34	237.27
766.67	237.12
767.00	237.01
767.32	236.94
767.65	236.90
767.97	236.79
768.30	236.69
768.62	236.55
768.95	236.41
769.27	236.30
769.60	236.18
769.92	236.04
770.25	235.91
770.57	235.80
770.90	235.73
771.22	235.62
771.55	235.52
771.87	235.43
772.20	235.30
772.52	235.29
772.85	235.32
773.17	235.24
773.50	235.13
773.82	235.01
774.15	234.89
774.47	234.75
774.80	234.66
775.12	234.54
775.45	234.45
775.77	234.39
776.09	234.32
776.42	234.26
776.74	234.20
777.07	234.13
777.39	234.04
777.72	233.94
778.04	233.86
778.36	233.79
778.69	233.73
779.01	233.66
779.33	233.50
779.66	233.32
779.98	233.25
780.31	233.20
780.63	233.18
780.95	233.13
781.28	233.05
781.60	232.94
781.92	232.89
782.25	232.83
782.57	232.77
782.89	232.71
783.22	232.65
783.54	232.57
783.86	232.49
784.19	232.40
784.51	232.38
784.83	232.30
785.16	232.24
785.48	232.15
785.80	232.11
786.12	232.07
786.45	232.00
786.77	231.95
787.09	231.87
