SpectraSuite Data File
++++++++++++++++++++++++++++++++++++
Date: Fri Feb 01 15:58:34 EST 2013
User: group
Dark Spectrum Present: No
Reference Spectrum Present: No
Number of Sampled Component Spectra: 1
Spectrometers: USB2E7196
Integration Time (usec): 35000 (USB2E7196)
Spectra Averaged: 100 (USB2E7196)
Boxcar Smoothing: 10 (USB2E7196)
Correct for Electrical Dark: No (USB2E7196)
Strobe/Lamp Enabled: No (USB2E7196)
Correct for Detector Non-linearity: No (USB2E7196)
Correct for Stray Light: No (USB2E7196)
Number of Pixels in Processed Spectrum: 2048
>>>>>Begin Processed Spectral Data<<<<<
339.09	0.00
339.48	214.96
339.86	216.21
340.24	217.31
340.63	218.53
341.01	222.43
341.39	221.56
341.78	222.85
342.16	224.05
342.54	224.66
342.93	213.03
343.31	223.79
343.69	224.31
344.07	224.80
344.46	225.23
344.84	225.64
345.22	225.87
345.60	226.12
345.99	226.30
346.37	226.42
346.75	226.51
347.13	226.56
347.52	226.64
347.90	226.70
348.28	226.75
348.66	226.78
349.05	226.75
349.43	226.77
349.81	226.84
350.19	226.90
350.57	226.96
350.96	227.04
351.34	227.14
351.72	227.21
352.10	227.29
352.48	227.38
352.87	227.42
353.25	227.47
353.63	227.50
354.01	227.57
354.39	227.67
354.77	227.76
355.15	227.88
355.54	227.94
355.92	227.98
356.30	228.02
356.68	228.18
357.06	228.26
357.44	228.32
357.82	228.38
358.20	228.45
358.58	228.50
358.97	228.57
359.35	228.63
359.73	228.74
360.11	228.79
360.49	228.85
360.87	228.89
361.25	228.93
361.63	229.06
362.01	229.09
362.39	229.11
362.77	229.15
363.15	229.16
363.53	229.17
363.91	229.19
364.29	229.26
364.67	229.17
365.05	229.20
365.43	229.21
365.81	229.23
366.19	229.26
366.57	229.28
366.95	229.28
367.33	229.23
367.71	229.22
368.09	229.24
368.47	229.21
368.85	229.22
369.23	229.24
369.61	229.18
369.99	229.18
370.37	229.16
370.75	229.20
371.13	229.13
371.51	229.11
371.89	229.09
372.27	229.02
372.65	229.01
373.03	228.94
373.41	228.90
373.78	228.82
374.16	228.75
374.54	228.68
374.92	228.64
375.30	228.61
375.68	228.56
376.06	228.48
376.44	228.41
376.82	228.33
377.19	228.26
377.57	228.18
377.95	228.12
378.33	228.07
378.71	227.93
379.09	227.91
379.47	227.82
379.84	227.78
380.22	227.71
380.60	227.61
380.98	227.52
381.36	227.44
381.73	227.36
382.11	227.29
382.49	227.21
382.87	227.12
383.25	227.04
383.62	227.03
384.00	226.94
384.38	226.86
384.76	226.82
385.13	226.76
385.51	226.69
385.89	226.55
386.27	226.50
386.64	226.45
387.02	226.38
387.40	226.32
387.78	226.25
388.15	226.24
388.53	226.20
388.91	226.19
389.29	226.16
389.66	226.15
390.04	226.14
390.42	226.15
390.79	226.15
391.17	226.15
391.55	226.06
391.92	226.05
392.30	226.09
392.68	226.09
393.05	226.10
393.43	226.14
393.81	226.20
394.18	226.21
394.56	226.25
394.94	226.28
395.31	226.30
395.69	226.37
396.06	226.37
396.44	226.41
396.82	226.43
397.19	226.53
397.57	226.58
397.95	226.64
398.32	226.67
398.70	226.73
399.07	226.82
399.45	226.85
399.82	226.91
400.20	226.95
400.58	227.02
400.95	227.03
401.33	227.14
401.70	227.30
402.08	227.40
402.45	227.50
402.83	227.63
403.20	227.77
403.58	227.87
403.95	228.04
404.33	228.20
404.71	228.34
405.08	228.53
405.46	228.67
405.83	228.82
406.21	228.96
406.58	229.12
406.96	229.25
407.33	229.46
407.70	229.69
408.08	229.95
408.45	230.17
408.83	230.44
409.20	230.63
409.58	230.80
409.95	231.04
410.33	231.29
410.70	231.55
411.08	231.85
411.45	232.18
411.82	232.44
412.20	232.78
412.57	233.20
412.95	233.48
413.32	233.87
413.69	234.29
414.07	234.74
414.44	235.18
414.82	235.68
415.19	236.22
415.56	236.76
415.94	237.32
416.31	237.94
416.68	238.57
417.06	239.27
417.43	239.94
417.81	240.69
418.18	241.48
418.55	242.31
418.93	243.18
419.30	244.06
419.67	244.98
420.04	245.93
420.42	246.91
420.79	248.10
421.16	249.23
421.54	250.44
421.91	251.64
422.28	252.92
422.66	254.23
423.03	255.53
423.40	256.82
423.77	258.21
424.15	259.61
424.52	261.08
424.89	262.70
425.26	264.26
425.64	265.70
426.01	267.24
426.38	268.89
426.75	270.53
427.13	272.23
427.50	274.06
427.87	275.96
428.24	277.80
428.61	279.54
428.99	281.48
429.36	283.52
429.73	285.59
430.10	287.60
430.47	289.66
430.85	291.81
431.22	294.10
431.59	296.47
431.96	298.74
432.33	301.21
432.70	303.59
433.08	306.36
433.45	309.02
433.82	311.67
434.19	314.52
434.56	317.36
434.93	319.93
435.30	322.55
435.68	325.37
436.05	328.20
436.42	331.00
436.79	333.55
437.16	336.22
437.53	339.06
437.90	341.85
438.27	344.61
438.64	347.40
439.01	349.95
439.38	352.18
439.75	354.34
440.13	356.87
440.50	359.21
440.87	361.08
441.24	363.03
441.61	365.22
441.98	366.71
442.35	368.52
442.72	370.44
443.09	372.23
443.46	373.25
443.83	373.83
444.20	374.33
444.57	375.14
444.94	375.48
445.31	375.77
445.68	376.14
446.05	376.22
446.42	375.83
446.79	375.42
447.16	374.96
447.53	374.67
447.90	373.47
448.27	372.36
448.64	370.80
449.01	369.67
449.37	367.68
449.74	365.80
450.11	363.57
450.48	361.14
450.85	358.61
451.22	356.50
451.59	354.51
451.96	352.58
452.33	350.01
452.70	347.61
453.07	344.82
453.43	341.92
453.80	339.18
454.17	336.53
454.54	334.03
454.91	331.38
455.28	328.69
455.65	326.25
456.02	323.79
456.38	321.66
456.75	318.98
457.12	316.75
457.49	314.56
457.86	312.34
458.23	310.51
458.59	308.47
458.96	306.35
459.33	304.46
459.70	302.57
460.07	301.03
460.43	299.32
460.80	297.67
461.17	296.24
461.54	294.72
461.91	293.29
462.27	291.82
462.64	290.55
463.01	289.20
463.38	287.88
463.74	286.47
464.11	285.26
464.48	284.25
464.85	283.12
465.21	282.25
465.58	281.33
465.95	280.18
466.32	279.25
466.68	278.37
467.05	277.50
467.42	276.62
467.78	275.69
468.15	274.83
468.52	274.21
468.88	273.33
469.25	272.52
469.62	271.87
469.98	271.17
470.35	270.50
470.72	269.89
471.08	269.23
471.45	268.67
471.82	268.11
472.18	267.49
472.55	267.03
472.92	266.46
473.28	265.99
473.65	265.53
474.02	265.12
474.38	264.73
474.75	264.39
475.11	264.06
475.48	263.78
475.85	263.55
476.21	263.29
476.58	263.10
476.94	263.00
477.31	262.85
477.67	262.71
478.04	262.62
478.41	262.55
478.77	262.59
479.14	262.55
479.50	262.58
479.87	262.71
480.23	262.79
480.60	262.89
480.96	263.00
481.33	263.26
481.69	263.47
482.06	263.66
482.42	263.87
482.79	264.12
483.15	264.43
483.52	264.82
483.88	265.19
484.25	265.58
484.61	266.01
484.98	266.45
485.34	267.05
485.71	267.66
486.07	268.25
486.44	268.82
486.80	269.55
487.17	270.30
487.53	271.10
487.90	272.01
488.26	272.95
488.62	273.95
488.99	274.88
489.35	275.92
489.72	277.08
490.08	278.32
490.44	279.55
490.81	280.94
491.17	282.28
491.54	283.78
491.90	285.33
492.26	286.96
492.63	288.72
492.99	290.46
493.36	292.38
493.72	294.42
494.08	296.50
494.45	298.77
494.81	301.17
495.17	303.58
495.54	306.09
495.90	308.77
496.26	311.58
496.63	314.57
496.99	317.70
497.35	320.97
497.72	324.34
498.08	327.87
498.44	331.54
498.80	335.48
499.17	339.57
499.53	343.77
499.89	348.14
500.26	352.64
500.62	357.39
500.98	362.36
501.34	367.45
501.71	372.81
502.07	378.25
502.43	383.88
502.79	389.72
503.16	395.84
503.52	402.12
503.88	408.57
504.24	415.21
504.60	422.11
504.97	429.20
505.33	436.56
505.69	444.31
506.05	452.09
506.41	459.98
506.78	468.08
507.14	476.52
507.50	485.23
507.86	494.23
508.22	503.38
508.59	512.55
508.95	522.21
509.31	531.98
509.67	542.06
510.03	552.31
510.39	562.82
510.75	573.64
511.12	584.59
511.48	595.89
511.84	607.32
512.20	618.83
512.56	630.77
512.92	642.90
513.28	655.17
513.64	667.63
514.00	680.32
514.37	693.30
514.73	706.39
515.09	719.52
515.45	732.83
515.81	746.31
516.17	760.27
516.53	774.28
516.89	788.45
517.25	802.56
517.61	817.00
517.97	831.48
518.33	845.85
518.69	860.57
519.05	875.42
519.41	890.52
519.77	906.02
520.13	921.38
520.49	936.75
520.85	952.25
521.21	967.97
521.57	984.15
521.93	999.86
522.29	1016.14
522.65	1032.31
523.01	1048.52
523.37	1064.55
523.73	1080.71
524.09	1096.82
524.45	1113.18
524.81	1129.82
525.17	1146.56
525.53	1163.49
525.89	1180.38
526.25	1197.19
526.61	1213.56
526.97	1230.34
527.33	1246.74
527.68	1263.34
528.04	1279.81
528.40	1296.32
528.76	1313.45
529.12	1329.96
529.48	1346.81
529.84	1362.85
530.20	1379.47
530.56	1396.48
530.91	1414.01
531.27	1430.77
531.63	1447.21
531.99	1463.67
532.35	1479.58
532.71	1495.49
533.07	1511.54
533.42	1527.34
533.78	1543.43
534.14	1559.82
534.50	1575.12
534.86	1591.10
535.21	1606.33
535.57	1622.18
535.93	1637.63
536.29	1652.27
536.65	1667.25
537.00	1681.98
537.36	1697.28
537.72	1711.81
538.08	1726.17
538.44	1739.78
538.79	1753.58
539.15	1767.17
539.51	1780.78
539.87	1795.15
540.22	1808.86
540.58	1822.71
540.94	1836.10
541.29	1849.11
541.65	1861.73
542.01	1874.99
542.37	1887.19
542.72	1899.56
543.08	1911.25
543.44	1923.63
543.79	1934.82
544.15	1945.89
544.51	1957.44
544.87	1968.34
545.22	1979.07
545.58	1989.10
545.94	1998.91
546.29	2008.86
546.65	2018.80
547.01	2028.08
547.36	2036.81
547.72	2045.22
548.07	2053.11
548.43	2061.11
548.79	2068.98
549.14	2076.49
549.50	2083.73
549.86	2091.41
550.21	2098.75
550.57	2105.94
550.92	2112.48
551.28	2119.55
551.64	2126.71
551.99	2133.27
552.35	2139.29
552.70	2145.51
553.06	2151.62
553.41	2157.88
553.77	2163.89
554.13	2169.90
554.48	2176.12
554.84	2181.57
555.19	2186.82
555.55	2191.87
555.90	2196.53
556.26	2201.22
556.61	2205.96
556.97	2210.16
557.32	2214.31
557.68	2218.36
558.03	2222.64
558.39	2226.44
558.74	2231.11
559.10	2234.98
559.45	2238.56
559.81	2243.09
560.16	2246.74
560.52	2249.79
560.87	2253.22
561.23	2255.80
561.58	2258.90
561.94	2261.38
562.29	2263.75
562.64	2266.44
563.00	2268.97
563.35	2272.39
563.71	2275.60
564.06	2278.79
564.42	2281.75
564.77	2284.31
565.12	2286.66
565.48	2288.72
565.83	2290.57
566.19	2291.71
566.54	2292.66
566.89	2293.83
567.25	2294.18
567.60	2295.55
567.96	2297.29
568.31	2298.17
568.66	2299.36
569.02	2299.82
569.37	2300.15
569.72	2301.01
570.08	2301.19
570.43	2301.46
570.78	2300.93
571.14	2299.43
571.49	2298.01
571.84	2297.60
572.20	2296.39
572.55	2295.42
572.90	2293.79
573.26	2292.42
573.61	2290.79
573.96	2288.96
574.31	2286.01
574.67	2283.06
575.02	2279.58
575.37	2276.27
575.72	2272.47
576.08	2269.08
576.43	2265.63
576.78	2261.92
577.13	2258.84
577.49	2255.68
577.84	2252.07
578.19	2248.33
578.54	2244.70
578.90	2240.56
579.25	2235.13
579.60	2230.26
579.95	2225.08
580.30	2220.02
580.66	2214.83
581.01	2210.07
581.36	2205.11
581.71	2200.93
582.06	2196.61
582.42	2192.07
582.77	2186.90
583.12	2182.48
583.47	2177.81
583.82	2172.94
584.17	2167.73
584.53	2162.16
584.88	2156.54
585.23	2150.84
585.58	2145.35
585.93	2139.97
586.28	2135.27
586.63	2130.15
586.98	2125.00
587.34	2120.37
587.69	2115.55
588.04	2110.32
588.39	2104.57
588.74	2098.18
589.09	2092.05
589.44	2085.31
589.79	2079.23
590.14	2073.75
590.49	2066.96
590.84	2060.63
591.19	2054.44
591.54	2048.06
591.89	2040.65
592.25	2033.87
592.60	2026.62
592.95	2018.97
593.30	2011.58
593.65	2004.03
594.00	1997.12
594.35	1989.88
594.70	1981.84
595.05	1974.55
595.40	1967.22
595.75	1959.75
596.10	1953.58
596.45	1946.84
596.80	1940.64
597.15	1934.09
597.50	1926.75
597.85	1920.43
598.19	1913.65
598.54	1906.59
598.89	1899.88
599.24	1894.02
599.59	1887.30
599.94	1881.15
600.29	1874.85
600.64	1868.29
600.99	1860.80
601.34	1853.83
601.69	1846.94
602.04	1840.12
602.39	1832.89
602.74	1825.94
603.08	1819.14
603.43	1812.33
603.78	1804.97
604.13	1797.70
604.48	1790.27
604.83	1783.51
605.18	1776.44
605.53	1768.48
605.87	1760.51
606.22	1753.24
606.57	1745.17
606.92	1737.93
607.27	1730.75
607.62	1723.84
607.96	1716.60
608.31	1709.96
608.66	1702.34
609.01	1694.81
609.36	1687.14
609.70	1679.04
610.05	1671.07
610.40	1663.34
610.75	1655.00
611.10	1647.30
611.44	1638.83
611.79	1630.93
612.14	1622.20
612.49	1613.09
612.83	1604.82
613.18	1596.79
613.53	1588.81
613.88	1580.38
614.22	1572.18
614.57	1563.50
614.92	1555.43
615.27	1547.73
615.61	1539.36
615.96	1531.36
616.31	1523.63
616.65	1516.35
617.00	1508.77
617.35	1501.13
617.70	1492.74
618.04	1484.29
618.39	1476.09
618.74	1468.57
619.08	1460.33
619.43	1452.89
619.78	1445.94
620.12	1438.65
620.47	1431.05
620.82	1422.94
621.16	1415.62
621.51	1407.87
621.85	1400.25
622.20	1391.70
622.55	1383.48
622.89	1375.62
623.24	1368.05
623.59	1360.76
623.93	1353.26
624.28	1346.11
624.62	1338.44
624.97	1331.36
625.32	1324.56
625.66	1317.56
626.01	1310.38
626.35	1302.89
626.70	1295.07
627.04	1287.47
627.39	1279.81
627.73	1272.39
628.08	1265.43
628.43	1258.03
628.77	1250.59
629.12	1243.09
629.46	1236.01
629.81	1228.62
630.15	1221.49
630.50	1214.11
630.84	1205.88
631.19	1197.91
631.53	1190.48
631.88	1183.08
632.22	1175.37
632.57	1168.06
632.91	1160.54
633.26	1153.07
633.60	1145.78
633.95	1138.61
634.29	1131.50
634.64	1124.79
634.98	1117.40
635.32	1110.15
635.67	1103.62
636.01	1097.11
636.36	1090.35
636.70	1083.83
637.05	1077.08
637.39	1070.54
637.73	1063.96
638.08	1058.08
638.42	1052.11
638.77	1045.51
639.11	1038.85
639.45	1032.53
639.80	1025.90
640.14	1019.45
640.49	1012.92
640.83	1006.60
641.17	1000.39
641.52	994.05
641.86	987.61
642.20	981.85
642.55	975.63
642.89	969.14
643.23	962.70
643.58	956.81
643.92	950.61
644.26	944.56
644.61	938.48
644.95	932.41
645.29	925.80
645.64	919.05
645.98	912.78
646.32	906.98
646.66	900.95
647.01	895.09
647.35	889.38
647.69	883.57
648.04	878.00
648.38	872.25
648.72	866.24
649.06	860.08
649.41	854.12
649.75	848.15
650.09	842.15
650.43	836.27
650.78	830.17
651.12	824.17
651.46	818.47
651.80	812.68
652.14	807.34
652.49	801.96
652.83	796.81
653.17	791.12
653.51	785.37
653.85	780.07
654.20	774.45
654.54	768.44
654.88	762.77
655.22	756.86
655.56	751.23
655.90	745.83
656.25	740.60
656.59	735.30
656.93	730.16
657.27	725.02
657.61	719.57
657.95	714.49
658.29	709.49
658.64	704.23
658.98	699.01
659.32	693.51
659.66	688.29
660.00	682.86
660.34	677.89
660.68	672.98
661.02	667.90
661.36	663.21
661.70	658.74
662.05	654.28
662.39	649.93
662.73	645.38
663.07	641.01
663.41	636.61
663.75	632.08
664.09	627.53
664.43	623.12
664.77	619.01
665.11	614.76
665.45	610.64
665.79	606.62
666.13	602.51
666.47	598.44
666.81	594.24
667.15	590.26
667.49	586.40
667.83	582.61
668.17	578.67
668.51	574.61
668.85	570.59
669.19	566.81
669.53	562.97
669.87	559.11
670.21	555.34
670.55	551.68
670.89	548.32
671.23	544.89
671.57	541.38
671.91	537.79
672.25	534.29
672.58	530.74
672.92	527.32
673.26	524.12
673.60	520.97
673.94	517.95
674.28	514.99
674.62	511.99
674.96	508.87
675.30	505.92
675.64	503.01
675.97	500.24
676.31	497.38
676.65	494.40
676.99	491.72
677.33	488.91
677.67	486.06
678.01	482.95
678.34	479.93
678.68	477.06
679.02	474.24
679.36	471.46
679.70	468.76
680.04	466.04
680.37	463.12
680.71	460.31
681.05	457.67
681.39	454.96
681.73	452.39
682.06	449.84
682.40	447.33
682.74	444.76
683.08	442.22
683.42	439.60
683.75	437.11
684.09	434.58
684.43	432.07
684.77	429.66
685.10	427.36
685.44	425.11
685.78	422.83
686.12	420.60
686.45	418.31
686.79	415.96
687.13	413.72
687.46	411.64
687.80	409.53
688.14	407.34
688.48	405.30
688.81	402.98
689.15	400.83
689.49	398.67
689.82	396.61
690.16	394.52
690.50	392.58
690.83	390.70
691.17	388.69
691.51	386.82
691.84	384.97
692.18	383.00
692.52	381.03
692.85	379.12
693.19	377.26
693.52	375.46
693.86	373.70
694.20	371.92
694.53	370.08
694.87	368.20
695.21	366.40
695.54	364.52
695.88	362.81
696.21	361.11
696.55	359.41
696.88	357.72
697.22	356.06
697.56	354.45
697.89	352.79
698.23	351.16
698.56	349.53
698.90	347.97
699.23	346.39
699.57	344.85
699.90	343.34
700.24	341.78
700.58	340.22
700.91	338.73
701.25	337.28
701.58	335.92
701.92	334.60
702.25	333.22
702.59	331.89
702.92	330.60
703.26	329.28
703.59	328.05
703.93	326.88
704.26	325.70
704.60	324.37
704.93	323.13
705.26	321.91
705.60	320.74
705.93	319.49
706.27	318.41
706.60	317.33
706.94	316.19
707.27	315.07
707.61	314.01
707.94	312.94
708.27	311.83
708.61	310.74
708.94	309.70
709.28	308.72
709.61	307.75
709.94	306.78
710.28	305.77
710.61	304.77
710.95	303.65
711.28	302.71
711.61	301.78
711.95	300.87
712.28	299.90
712.61	298.93
712.95	298.02
713.28	297.18
713.61	296.26
713.95	295.37
714.28	294.56
714.61	293.68
714.95	292.81
715.28	291.98
715.61	291.13
715.95	290.23
716.28	289.36
716.61	288.51
716.95	287.67
717.28	286.91
717.61	286.11
717.94	285.38
718.28	284.59
718.61	283.86
718.94	283.12
719.27	282.45
719.61	281.81
719.94	281.15
720.27	280.40
720.60	279.72
720.94	279.10
721.27	278.44
721.60	277.86
721.93	277.30
722.27	276.75
722.60	276.19
722.93	275.69
723.26	275.14
723.59	274.59
723.93	274.08
724.26	273.54
724.59	273.00
724.92	272.50
725.25	271.98
725.59	271.46
725.92	270.95
726.25	270.48
726.58	269.99
726.91	269.52
727.24	269.09
727.57	268.67
727.91	268.17
728.24	267.71
728.57	267.24
728.90	266.77
729.23	266.26
729.56	265.84
729.89	265.38
730.22	264.90
730.55	264.47
730.89	264.05
731.22	263.57
731.55	263.15
731.88	262.76
732.21	262.33
732.54	261.89
732.87	261.45
733.20	261.04
733.53	260.64
733.86	260.21
734.19	259.79
734.52	259.40
734.85	259.10
735.18	258.71
735.51	258.35
735.84	257.95
736.17	257.60
736.50	257.21
736.83	256.94
737.16	256.63
737.49	256.24
737.82	255.89
738.15	255.59
738.48	255.28
738.81	254.91
739.14	254.58
739.47	254.29
739.80	253.99
740.13	253.70
740.46	253.35
740.79	253.05
741.12	252.73
741.45	252.41
741.78	252.05
742.11	251.77
742.44	251.45
742.77	251.19
743.10	250.90
743.43	250.60
743.75	250.23
744.08	250.06
744.41	249.84
744.74	249.53
745.07	249.24
745.40	248.98
745.73	248.74
746.06	248.45
746.39	248.19
746.71	247.93
747.04	247.65
747.37	247.41
747.70	247.16
748.03	246.91
748.36	246.69
748.68	246.43
749.01	246.19
749.34	245.96
749.67	245.73
750.00	245.50
750.33	245.34
750.65	245.12
750.98	244.79
751.31	244.53
751.64	244.34
751.97	244.23
752.29	243.97
752.62	243.71
752.95	243.52
753.28	243.26
753.60	243.04
753.93	242.86
754.26	242.65
754.59	242.43
754.91	242.20
755.24	241.98
755.57	241.80
755.90	241.64
756.22	241.43
756.55	241.24
756.88	241.05
757.20	240.80
757.53	240.59
757.86	240.40
758.19	240.24
758.51	240.07
758.84	239.80
759.17	239.63
759.49	239.47
759.82	239.34
760.15	239.24
760.47	239.10
760.80	238.91
761.13	238.79
761.45	238.62
761.78	238.48
762.11	238.35
762.43	238.21
762.76	238.04
763.08	237.93
763.41	237.82
763.74	237.66
764.06	237.55
764.39	237.41
764.71	237.29
765.04	237.17
765.37	237.03
765.69	236.93
766.02	236.82
766.34	236.70
766.67	236.55
767.00	236.43
767.32	236.36
767.65	236.35
767.97	236.23
768.30	236.14
768.62	236.04
768.95	235.92
769.27	235.78
769.60	235.69
769.92	235.57
770.25	235.47
770.57	235.38
770.90	235.27
771.22	235.14
771.55	235.03
771.87	234.93
772.20	234.82
772.52	234.80
772.85	234.82
773.17	234.72
773.50	234.62
773.82	234.52
774.15	234.39
774.47	234.23
774.80	234.11
775.12	234.03
775.45	233.96
775.77	233.90
776.09	233.84
776.42	233.76
776.74	233.73
777.07	233.65
777.39	233.54
777.72	233.44
778.04	233.45
778.36	233.38
778.69	233.33
779.01	233.27
779.33	233.10
779.66	232.92
779.98	232.85
780.31	232.83
780.63	232.82
780.95	232.75
781.28	232.68
781.60	232.61
781.92	232.56
782.25	232.50
782.57	232.42
782.89	232.37
783.22	232.28
783.54	232.22
783.86	232.14
784.19	232.12
784.51	232.12
784.83	232.04
785.16	232.00
785.48	231.93
785.80	231.90
786.12	231.88
786.45	231.83
786.77	231.79
787.09	231.71
