SpectraSuite Data File
++++++++++++++++++++++++++++++++++++
Date: Fri Feb 01 15:34:54 EST 2013
User: group
Dark Spectrum Present: No
Reference Spectrum Present: No
Number of Sampled Component Spectra: 1
Spectrometers: USB2E7196
Integration Time (usec): 35000 (USB2E7196)
Spectra Averaged: 100 (USB2E7196)
Boxcar Smoothing: 10 (USB2E7196)
Correct for Electrical Dark: No (USB2E7196)
Strobe/Lamp Enabled: No (USB2E7196)
Correct for Detector Non-linearity: No (USB2E7196)
Correct for Stray Light: No (USB2E7196)
Number of Pixels in Processed Spectrum: 2048
>>>>>Begin Processed Spectral Data<<<<<
339.09	0.00
339.48	214.76
339.86	216.19
340.24	217.70
340.63	219.02
341.01	221.94
341.39	221.60
341.78	223.35
342.16	224.70
342.54	224.87
342.93	213.22
343.31	223.98
343.69	224.51
344.07	224.97
344.46	225.41
344.84	225.79
345.22	226.02
345.60	226.28
345.99	226.47
346.37	226.58
346.75	226.69
347.13	226.74
347.52	226.80
347.90	226.87
348.28	226.89
348.66	226.92
349.05	226.91
349.43	226.93
349.81	226.99
350.19	227.06
350.57	227.12
350.96	227.20
351.34	227.29
351.72	227.38
352.10	227.47
352.48	227.54
352.87	227.59
353.25	227.65
353.63	227.71
354.01	227.79
354.39	227.87
354.77	227.93
355.15	228.06
355.54	228.13
355.92	228.17
356.30	228.25
356.68	228.41
357.06	228.53
357.44	228.60
357.82	228.65
358.20	228.73
358.58	228.80
358.97	228.85
359.35	228.94
359.73	229.03
360.11	229.11
360.49	229.17
360.87	229.22
361.25	229.30
361.63	229.38
362.01	229.40
362.39	229.40
362.77	229.45
363.15	229.48
363.53	229.48
363.91	229.52
364.29	229.53
364.67	229.47
365.05	229.47
365.43	229.47
365.81	229.50
366.19	229.55
366.57	229.57
366.95	229.56
367.33	229.53
367.71	229.47
368.09	229.47
368.47	229.44
368.85	229.41
369.23	229.37
369.61	229.31
369.99	229.32
370.37	229.35
370.75	229.40
371.13	229.32
371.51	229.29
371.89	229.22
372.27	229.17
372.65	229.14
373.03	229.09
373.41	229.05
373.78	228.96
374.16	228.84
374.54	228.81
374.92	228.74
375.30	228.70
375.68	228.64
376.06	228.60
376.44	228.51
376.82	228.48
377.19	228.41
377.57	228.33
377.95	228.21
378.33	228.07
378.71	227.92
379.09	227.86
379.47	227.80
379.84	227.70
380.22	227.65
380.60	227.51
380.98	227.42
381.36	227.34
381.73	227.28
382.11	227.22
382.49	227.11
382.87	227.02
383.25	226.91
383.62	226.96
384.00	226.87
384.38	226.83
384.76	226.72
385.13	226.72
385.51	226.66
385.89	226.58
386.27	226.56
386.64	226.51
387.02	226.46
387.40	226.41
387.78	226.38
388.15	226.33
388.53	226.31
388.91	226.29
389.29	226.25
389.66	226.23
390.04	226.19
390.42	226.19
390.79	226.21
391.17	226.21
391.55	226.10
391.92	226.06
392.30	226.08
392.68	226.10
393.05	226.11
393.43	226.13
393.81	226.16
394.18	226.15
394.56	226.18
394.94	226.21
395.31	226.24
395.69	226.30
396.06	226.35
396.44	226.39
396.82	226.41
397.19	226.52
397.57	226.57
397.95	226.59
398.32	226.61
398.70	226.67
399.07	226.77
399.45	226.84
399.82	226.93
400.20	226.97
400.58	227.05
400.95	227.08
401.33	227.20
401.70	227.36
402.08	227.50
402.45	227.59
402.83	227.71
403.20	227.82
403.58	227.94
403.95	228.07
404.33	228.20
404.71	228.37
405.08	228.53
405.46	228.69
405.83	228.88
406.21	229.07
406.58	229.22
406.96	229.39
407.33	229.58
407.70	229.79
408.08	230.04
408.45	230.28
408.83	230.50
409.20	230.70
409.58	230.88
409.95	231.14
410.33	231.42
410.70	231.64
411.08	231.94
411.45	232.26
411.82	232.59
412.20	232.98
412.57	233.38
412.95	233.68
413.32	234.09
413.69	234.47
414.07	234.89
414.44	235.38
414.82	235.89
415.19	236.43
415.56	236.98
415.94	237.55
416.31	238.16
416.68	238.81
417.06	239.53
417.43	240.24
417.81	240.99
418.18	241.81
418.55	242.67
418.93	243.55
419.30	244.42
419.67	245.31
420.04	246.27
420.42	247.25
420.79	248.46
421.16	249.60
421.54	250.83
421.91	252.02
422.28	253.26
422.66	254.55
423.03	255.87
423.40	257.19
423.77	258.58
424.15	260.01
424.52	261.48
424.89	263.10
425.26	264.64
425.64	266.10
426.01	267.61
426.38	269.27
426.75	270.95
427.13	272.72
427.50	274.55
427.87	276.38
428.24	278.26
428.61	279.96
428.99	281.90
429.36	283.97
429.73	286.09
430.10	288.11
430.47	290.14
430.85	292.24
431.22	294.50
431.59	296.84
431.96	299.10
432.33	301.60
432.70	303.96
433.08	306.76
433.45	309.40
433.82	312.03
434.19	314.90
434.56	317.69
434.93	320.29
435.30	322.93
435.68	325.86
436.05	328.65
436.42	331.45
436.79	333.94
437.16	336.63
437.53	339.44
437.90	342.25
438.27	345.00
438.64	347.78
439.01	350.35
439.38	352.66
439.75	354.84
440.13	357.31
440.50	359.65
440.87	361.52
441.24	363.43
441.61	365.64
441.98	367.13
442.35	368.94
442.72	370.80
443.09	372.58
443.46	373.55
443.83	374.18
444.20	374.68
444.57	375.57
444.94	375.87
445.31	376.18
445.68	376.54
446.05	376.66
446.42	376.31
446.79	375.89
447.16	375.40
447.53	375.04
447.90	373.91
448.27	372.76
448.64	371.13
449.01	370.02
449.37	368.02
449.74	366.12
450.11	363.90
450.48	361.44
450.85	358.92
451.22	356.78
451.59	354.73
451.96	352.80
452.33	350.14
452.70	347.76
453.07	344.94
453.43	342.02
453.80	339.19
454.17	336.49
454.54	333.96
454.91	331.25
455.28	328.59
455.65	326.08
456.02	323.64
456.38	321.50
456.75	318.81
457.12	316.57
457.49	314.38
457.86	312.18
458.23	310.31
458.59	308.24
458.96	306.14
459.33	304.32
459.70	302.43
460.07	300.96
460.43	299.29
460.80	297.70
461.17	296.29
461.54	294.82
461.91	293.42
462.27	291.98
462.64	290.70
463.01	289.38
463.38	288.10
463.74	286.72
464.11	285.56
464.48	284.52
464.85	283.41
465.21	282.52
465.58	281.60
465.95	280.52
466.32	279.60
466.68	278.67
467.05	277.75
467.42	276.88
467.78	275.91
468.15	275.02
468.52	274.32
468.88	273.47
469.25	272.67
469.62	272.03
469.98	271.35
470.35	270.75
470.72	270.14
471.08	269.48
471.45	268.92
471.82	268.41
472.18	267.87
472.55	267.39
472.92	266.88
473.28	266.42
473.65	265.96
474.02	265.54
474.38	265.21
474.75	264.89
475.11	264.54
475.48	264.28
475.85	264.04
476.21	263.79
476.58	263.58
476.94	263.46
477.31	263.27
477.67	263.12
478.04	263.01
478.41	262.94
478.77	262.98
479.14	262.90
479.50	262.88
479.87	262.92
480.23	263.02
480.60	263.07
480.96	263.16
481.33	263.37
481.69	263.59
482.06	263.78
482.42	263.99
482.79	264.25
483.15	264.58
483.52	264.98
483.88	265.36
484.25	265.74
484.61	266.19
484.98	266.68
485.34	267.22
485.71	267.82
486.07	268.41
486.44	269.01
486.80	269.72
487.17	270.46
487.53	271.31
487.90	272.16
488.26	273.10
488.62	274.07
488.99	275.04
489.35	276.05
489.72	277.17
490.08	278.38
490.44	279.65
490.81	280.98
491.17	282.34
491.54	283.85
491.90	285.42
492.26	287.06
492.63	288.81
492.99	290.63
493.36	292.51
493.72	294.56
494.08	296.63
494.45	298.91
494.81	301.30
495.17	303.69
495.54	306.28
495.90	308.94
496.26	311.77
496.63	314.71
496.99	317.84
497.35	321.11
497.72	324.51
498.08	328.00
498.44	331.68
498.80	335.60
499.17	339.61
499.53	343.76
499.89	348.17
500.26	352.65
500.62	357.33
500.98	362.28
501.34	367.34
501.71	372.67
502.07	378.09
502.43	383.65
502.79	389.49
503.16	395.56
503.52	401.89
503.88	408.33
504.24	414.97
504.60	421.86
504.97	429.00
505.33	436.28
505.69	443.99
506.05	451.76
506.41	459.65
506.78	467.83
507.14	476.27
507.50	484.93
507.86	493.93
508.22	503.07
508.59	512.22
508.95	521.80
509.31	531.61
509.67	541.69
510.03	551.99
510.39	562.54
510.75	573.36
511.12	584.23
511.48	595.42
511.84	606.89
512.20	618.40
512.56	630.29
512.92	642.49
513.28	654.75
513.64	667.23
514.00	679.90
514.37	692.84
514.73	705.86
515.09	718.82
515.45	732.18
515.81	745.86
516.17	759.86
516.53	774.00
516.89	788.14
517.25	802.40
517.61	816.84
517.97	831.38
518.33	845.80
518.69	860.64
519.05	875.72
519.41	890.80
519.77	906.35
520.13	921.85
520.49	937.30
520.85	952.79
521.21	968.51
521.57	984.79
521.93	1000.60
522.29	1017.06
522.65	1033.45
523.01	1049.73
523.37	1065.76
523.73	1081.97
524.09	1098.12
524.45	1114.44
524.81	1131.14
525.17	1148.01
525.53	1164.82
525.89	1181.72
526.25	1198.52
526.61	1214.88
526.97	1231.68
527.33	1248.11
527.68	1264.84
528.04	1281.23
528.40	1297.98
528.76	1315.04
529.12	1331.58
529.48	1348.43
529.84	1364.45
530.20	1381.12
530.56	1398.09
530.91	1415.42
531.27	1432.31
531.63	1448.75
531.99	1465.55
532.35	1481.49
532.71	1497.39
533.07	1513.71
533.42	1529.61
533.78	1545.75
534.14	1562.05
534.50	1577.49
534.86	1593.50
535.21	1608.65
535.57	1624.71
535.93	1640.20
536.29	1655.14
536.65	1670.42
537.00	1685.27
537.36	1700.74
537.72	1715.31
538.08	1729.76
538.44	1743.77
538.79	1757.65
539.15	1771.48
539.51	1785.10
539.87	1799.47
540.22	1813.24
540.58	1827.08
540.94	1840.56
541.29	1853.51
541.65	1866.36
542.01	1879.72
542.37	1892.01
542.72	1904.47
543.08	1916.28
543.44	1928.64
543.79	1939.82
544.15	1950.78
544.51	1962.28
544.87	1973.26
545.22	1984.07
545.58	1994.39
545.94	2004.09
546.29	2013.99
546.65	2023.68
547.01	2032.86
547.36	2041.64
547.72	2050.12
548.07	2058.06
548.43	2066.18
548.79	2074.18
549.14	2081.73
549.50	2089.05
549.86	2096.79
550.21	2104.11
550.57	2111.21
550.92	2117.81
551.28	2124.90
551.64	2131.93
551.99	2138.53
552.35	2144.55
552.70	2150.72
553.06	2156.60
553.41	2162.86
553.77	2168.84
554.13	2175.00
554.48	2181.28
554.84	2186.71
555.19	2192.10
555.55	2197.11
555.90	2201.53
556.26	2206.43
556.61	2211.23
556.97	2215.48
557.32	2219.62
557.68	2223.67
558.03	2228.10
558.39	2231.87
558.74	2236.45
559.10	2240.23
559.45	2243.85
559.81	2248.27
560.16	2252.05
560.52	2255.40
560.87	2258.95
561.23	2261.61
561.58	2264.54
561.94	2266.96
562.29	2269.31
562.64	2271.83
563.00	2274.44
563.35	2277.94
563.71	2281.07
564.06	2284.11
564.42	2286.85
564.77	2289.31
565.12	2291.73
565.48	2293.47
565.83	2295.26
566.19	2296.57
566.54	2297.57
566.89	2298.75
567.25	2299.22
567.60	2300.62
567.96	2302.16
568.31	2302.86
568.66	2303.99
569.02	2304.60
569.37	2304.92
569.72	2305.84
570.08	2306.15
570.43	2306.23
570.78	2305.55
571.14	2304.01
571.49	2302.58
571.84	2302.37
572.20	2301.22
572.55	2300.01
572.90	2298.52
573.26	2297.16
573.61	2295.46
573.96	2293.56
574.31	2290.58
574.67	2287.50
575.02	2283.78
575.37	2280.38
575.72	2276.68
576.08	2273.29
576.43	2270.01
576.78	2266.36
577.13	2262.97
577.49	2259.69
577.84	2256.13
578.19	2252.31
578.54	2248.51
578.90	2244.32
579.25	2238.59
579.60	2233.53
579.95	2228.44
580.30	2223.39
580.66	2218.12
581.01	2213.15
581.36	2208.20
581.71	2203.92
582.06	2199.47
582.42	2194.98
582.77	2189.66
583.12	2184.87
583.47	2179.95
583.82	2174.72
584.17	2169.45
584.53	2163.96
584.88	2158.27
585.23	2152.36
585.58	2146.95
585.93	2141.52
586.28	2136.82
586.63	2131.65
586.98	2126.48
587.34	2121.89
587.69	2116.90
588.04	2111.51
588.39	2105.78
588.74	2099.37
589.09	2093.25
589.44	2086.34
589.79	2080.28
590.14	2074.67
590.49	2068.18
590.84	2061.79
591.19	2055.65
591.54	2049.07
591.89	2041.57
592.25	2034.79
592.60	2027.58
592.95	2020.04
593.30	2012.62
593.65	2004.91
594.00	1997.87
594.35	1990.55
594.70	1982.37
595.05	1975.07
595.40	1967.85
595.75	1960.20
596.10	1953.84
596.45	1947.06
596.80	1940.95
597.15	1934.26
597.50	1927.05
597.85	1920.58
598.19	1913.90
598.54	1906.85
598.89	1900.23
599.24	1894.25
599.59	1887.35
599.94	1881.08
600.29	1874.78
600.64	1868.15
600.99	1860.66
601.34	1853.80
601.69	1846.80
602.04	1839.95
602.39	1832.68
602.74	1825.80
603.08	1819.14
603.43	1812.39
603.78	1804.98
604.13	1797.65
604.48	1790.25
604.83	1783.42
605.18	1776.36
605.53	1768.36
605.87	1760.37
606.22	1753.08
606.57	1745.14
606.92	1737.92
607.27	1730.71
607.62	1723.60
607.96	1716.19
608.31	1709.47
608.66	1701.73
609.01	1694.30
609.36	1686.62
609.70	1678.58
610.05	1670.42
610.40	1662.68
610.75	1654.37
611.10	1646.67
611.44	1638.33
611.79	1630.39
612.14	1621.65
612.49	1612.49
612.83	1604.12
613.18	1595.89
613.53	1587.83
613.88	1579.40
614.22	1571.14
614.57	1562.63
614.92	1554.64
615.27	1547.16
615.61	1538.82
615.96	1530.92
616.31	1523.22
616.65	1515.87
617.00	1508.35
617.35	1500.64
617.70	1492.21
618.04	1483.65
618.39	1475.48
618.74	1467.89
619.08	1459.51
619.43	1451.90
619.78	1444.95
620.12	1437.81
620.47	1430.40
620.82	1422.18
621.16	1414.81
621.51	1407.24
621.85	1399.60
622.20	1391.11
622.55	1382.83
622.89	1375.00
623.24	1367.43
623.59	1360.04
623.93	1352.48
624.28	1345.11
624.62	1337.69
624.97	1330.56
625.32	1323.93
625.66	1316.80
626.01	1309.52
626.35	1302.09
626.70	1294.42
627.04	1286.71
627.39	1278.97
627.73	1271.54
628.08	1264.72
628.43	1257.34
628.77	1249.89
629.12	1242.29
629.46	1235.12
629.81	1227.62
630.15	1220.48
630.50	1213.08
630.84	1204.90
631.19	1197.05
631.53	1189.64
631.88	1181.99
632.22	1174.40
632.57	1167.04
632.91	1159.50
633.26	1152.13
633.60	1144.77
633.95	1137.73
634.29	1130.77
634.64	1124.06
634.98	1116.69
635.32	1109.48
635.67	1102.97
636.01	1096.31
636.36	1089.54
636.70	1082.98
637.05	1076.42
637.39	1069.97
637.73	1063.52
638.08	1057.74
638.42	1051.76
638.77	1045.26
639.11	1038.69
639.45	1032.39
639.80	1025.68
640.14	1019.24
640.49	1012.74
640.83	1006.50
641.17	1000.11
641.52	993.72
641.86	987.22
642.20	981.38
642.55	975.01
642.89	968.42
643.23	961.87
643.58	956.12
643.92	949.85
644.26	943.77
644.61	937.62
644.95	931.50
645.29	924.82
645.64	918.03
645.98	911.73
646.32	905.97
646.66	899.78
647.01	894.07
647.35	888.34
647.69	882.52
648.04	876.94
648.38	871.26
648.72	865.29
649.06	859.27
649.41	853.41
649.75	847.38
650.09	841.50
650.43	835.72
650.78	829.47
651.12	823.61
651.46	817.88
651.80	812.11
652.14	806.67
652.49	801.34
652.83	796.20
653.17	790.51
653.51	784.78
653.85	779.47
654.20	773.79
654.54	767.87
654.88	762.13
655.22	756.28
655.56	750.55
655.90	745.04
656.25	739.90
656.59	734.52
656.93	729.50
657.27	724.26
657.61	718.89
657.95	713.85
658.29	708.77
658.64	703.55
658.98	698.29
659.32	692.87
659.66	687.65
660.00	682.29
660.34	677.32
660.68	672.39
661.02	667.39
661.36	662.66
661.70	658.17
662.05	653.86
662.39	649.50
662.73	645.05
663.07	640.69
663.41	636.14
663.75	631.57
664.09	627.02
664.43	622.69
664.77	618.58
665.11	614.37
665.45	610.24
665.79	606.17
666.13	602.05
666.47	597.98
666.81	593.76
667.15	589.67
667.49	585.80
667.83	582.01
668.17	578.01
668.51	573.96
668.85	569.97
669.19	566.06
669.53	562.22
669.87	558.34
670.21	554.64
670.55	551.02
670.89	547.62
671.23	544.19
671.57	540.74
671.91	537.19
672.25	533.64
672.58	530.11
672.92	526.73
673.26	523.60
673.60	520.46
673.94	517.43
674.28	514.53
674.62	511.62
674.96	508.49
675.30	505.61
675.64	502.67
675.97	499.90
676.31	497.07
676.65	494.17
676.99	491.53
677.33	488.70
677.67	485.85
678.01	482.83
678.34	479.81
678.68	476.95
679.02	474.13
679.36	471.42
679.70	468.72
680.04	465.94
680.37	463.02
680.71	460.24
681.05	457.61
681.39	454.88
681.73	452.19
682.06	449.71
682.40	447.18
682.74	444.71
683.08	442.13
683.42	439.52
683.75	436.99
684.09	434.41
684.43	431.95
684.77	429.53
685.10	427.22
685.44	424.94
685.78	422.60
686.12	420.38
686.45	418.06
686.79	415.75
687.13	413.55
687.46	411.41
687.80	409.25
688.14	407.02
688.48	404.97
688.81	402.73
689.15	400.57
689.49	398.43
689.82	396.33
690.16	394.25
690.50	392.34
690.83	390.42
691.17	388.41
691.51	386.50
691.84	384.65
692.18	382.70
692.52	380.71
692.85	378.79
693.19	376.91
693.52	375.15
693.86	373.37
694.20	371.65
694.53	369.84
694.87	368.02
695.21	366.24
695.54	364.45
695.88	362.76
696.21	361.09
696.55	359.45
696.88	357.77
697.22	356.13
697.56	354.52
697.89	352.85
698.23	351.30
698.56	349.67
698.90	348.08
699.23	346.46
699.57	344.94
699.90	343.44
700.24	341.90
700.58	340.34
700.91	338.79
701.25	337.32
701.58	336.00
701.92	334.63
702.25	333.27
702.59	331.89
702.92	330.53
703.26	329.16
703.59	327.86
703.93	326.66
704.26	325.43
704.60	324.12
704.93	322.87
705.26	321.58
705.60	320.46
705.93	319.30
706.27	318.27
706.60	317.21
706.94	316.11
707.27	314.99
707.61	313.89
707.94	312.92
708.27	311.81
708.61	310.69
708.94	309.69
709.28	308.72
709.61	307.75
709.94	306.82
710.28	305.78
710.61	304.81
710.95	303.73
711.28	302.81
711.61	301.84
711.95	300.89
712.28	299.94
712.61	298.95
712.95	298.04
713.28	297.16
713.61	296.26
713.95	295.39
714.28	294.54
714.61	293.70
714.95	292.85
715.28	292.02
715.61	291.15
715.95	290.28
716.28	289.41
716.61	288.60
716.95	287.80
717.28	287.09
717.61	286.32
717.94	285.58
718.28	284.75
718.61	284.01
718.94	283.33
719.27	282.65
719.61	282.00
719.94	281.35
720.27	280.56
720.60	279.92
720.94	279.28
721.27	278.65
721.60	278.08
721.93	277.47
722.27	276.93
722.60	276.41
722.93	275.82
723.26	275.29
723.59	274.72
723.93	274.14
724.26	273.56
724.59	273.02
724.92	272.49
725.25	271.99
725.59	271.48
725.92	270.96
726.25	270.47
726.58	269.96
726.91	269.40
727.24	269.01
727.57	268.53
727.91	268.03
728.24	267.56
728.57	267.06
728.90	266.60
729.23	266.06
729.56	265.62
729.89	265.15
730.22	264.65
730.55	264.19
730.89	263.77
731.22	263.33
731.55	262.90
731.88	262.47
732.21	262.01
732.54	261.59
732.87	261.19
733.20	260.82
733.53	260.42
733.86	260.05
734.19	259.65
734.52	259.27
734.85	258.95
735.18	258.52
735.51	258.16
735.84	257.81
736.17	257.48
736.50	257.10
736.83	256.85
737.16	256.53
737.49	256.20
737.82	255.83
738.15	255.49
738.48	255.10
738.81	254.77
739.14	254.49
739.47	254.17
739.80	253.86
740.13	253.54
740.46	253.24
740.79	252.93
741.12	252.60
741.45	252.28
741.78	251.94
742.11	251.70
742.44	251.38
742.77	251.08
743.10	250.77
743.43	250.51
743.75	250.18
744.08	250.03
744.41	249.77
744.74	249.50
745.07	249.24
745.40	249.03
745.73	248.81
746.06	248.54
746.39	248.32
746.71	248.05
747.04	247.80
747.37	247.54
747.70	247.36
748.03	247.14
748.36	246.91
748.68	246.70
749.01	246.44
749.34	246.24
749.67	246.02
750.00	245.81
750.33	245.62
750.65	245.39
750.98	245.05
751.31	244.81
751.64	244.65
751.97	244.49
752.29	244.28
752.62	244.03
752.95	243.84
753.28	243.59
753.60	243.40
753.93	243.26
754.26	243.07
754.59	242.79
754.91	242.58
755.24	242.39
755.57	242.17
755.90	241.98
756.22	241.76
756.55	241.54
756.88	241.37
757.20	241.13
757.53	240.92
757.86	240.74
758.19	240.59
758.51	240.39
758.84	240.19
759.17	240.03
759.49	239.86
759.82	239.72
760.15	239.56
760.47	239.40
760.80	239.19
761.13	239.04
761.45	238.86
761.78	238.71
762.11	238.58
762.43	238.44
762.76	238.32
763.08	238.19
763.41	238.07
763.74	237.94
764.06	237.80
764.39	237.70
764.71	237.57
765.04	237.42
765.37	237.28
765.69	237.13
766.02	237.00
766.34	236.91
766.67	236.75
767.00	236.64
767.32	236.58
767.65	236.53
767.97	236.39
768.30	236.33
768.62	236.19
768.95	236.06
769.27	235.96
769.60	235.85
769.92	235.75
770.25	235.62
770.57	235.48
770.90	235.39
771.22	235.27
771.55	235.16
771.87	235.07
772.20	234.96
772.52	234.93
772.85	234.95
773.17	234.83
773.50	234.73
773.82	234.66
774.15	234.52
774.47	234.33
774.80	234.23
775.12	234.11
775.45	234.04
775.77	233.95
776.09	233.83
776.42	233.77
776.74	233.71
777.07	233.64
777.39	233.59
777.72	233.50
778.04	233.43
778.36	233.35
778.69	233.26
779.01	233.25
779.33	233.11
779.66	232.95
779.98	232.87
780.31	232.81
780.63	232.77
780.95	232.72
781.28	232.67
781.60	232.60
781.92	232.53
782.25	232.45
782.57	232.35
782.89	232.33
783.22	232.23
783.54	232.18
783.86	232.12
784.19	232.03
784.51	232.03
784.83	231.95
785.16	231.89
785.48	231.85
785.80	231.78
786.12	231.74
786.45	231.67
786.77	231.65
787.09	231.60
