SpectraSuite Data File
++++++++++++++++++++++++++++++++++++
Date: Fri Feb 01 16:27:29 EST 2013
User: group
Dark Spectrum Present: No
Reference Spectrum Present: No
Number of Sampled Component Spectra: 1
Spectrometers: USB2E7196
Integration Time (usec): 35000 (USB2E7196)
Spectra Averaged: 100 (USB2E7196)
Boxcar Smoothing: 10 (USB2E7196)
Correct for Electrical Dark: No (USB2E7196)
Strobe/Lamp Enabled: No (USB2E7196)
Correct for Detector Non-linearity: No (USB2E7196)
Correct for Stray Light: No (USB2E7196)
Number of Pixels in Processed Spectrum: 2048
>>>>>Begin Processed Spectral Data<<<<<
339.09	0.00
339.48	214.23
339.86	215.47
340.24	217.04
340.63	218.61
341.01	221.13
341.39	221.00
341.78	222.60
342.16	224.07
342.54	224.21
342.93	212.57
343.31	223.34
343.69	223.87
344.07	224.33
344.46	224.74
344.84	225.12
345.22	225.35
345.60	225.61
345.99	225.80
346.37	225.91
346.75	225.96
347.13	226.01
347.52	226.06
347.90	226.11
348.28	226.15
348.66	226.17
349.05	226.15
349.43	226.21
349.81	226.24
350.19	226.27
350.57	226.33
350.96	226.35
351.34	226.39
351.72	226.46
352.10	226.55
352.48	226.62
352.87	226.67
353.25	226.72
353.63	226.80
354.01	226.85
354.39	226.90
354.77	227.04
355.15	227.12
355.54	227.18
355.92	227.24
356.30	227.33
356.68	227.46
357.06	227.50
357.44	227.53
357.82	227.62
358.20	227.69
358.58	227.73
358.97	227.82
359.35	227.90
359.73	227.99
360.11	228.05
360.49	228.08
360.87	228.13
361.25	228.18
361.63	228.21
362.01	228.23
362.39	228.29
362.77	228.30
363.15	228.33
363.53	228.36
363.91	228.35
364.29	228.36
364.67	228.28
365.05	228.33
365.43	228.38
365.81	228.35
366.19	228.42
366.57	228.47
366.95	228.46
367.33	228.43
367.71	228.45
368.09	228.46
368.47	228.49
368.85	228.46
369.23	228.48
369.61	228.46
369.99	228.47
370.37	228.44
370.75	228.46
371.13	228.42
371.51	228.40
371.89	228.39
372.27	228.37
372.65	228.36
373.03	228.33
373.41	228.28
373.78	228.25
374.16	228.14
374.54	228.05
374.92	228.00
375.30	227.95
375.68	227.86
376.06	227.79
376.44	227.69
376.82	227.65
377.19	227.57
377.57	227.49
377.95	227.41
378.33	227.36
378.71	227.26
379.09	227.24
379.47	227.16
379.84	227.08
380.22	227.00
380.60	226.92
380.98	226.81
381.36	226.70
381.73	226.60
382.11	226.57
382.49	226.53
382.87	226.45
383.25	226.39
383.62	226.46
384.00	226.36
384.38	226.31
384.76	226.27
385.13	226.29
385.51	226.25
385.89	226.17
386.27	226.13
386.64	226.10
387.02	226.02
387.40	225.96
387.78	225.93
388.15	225.92
388.53	225.85
388.91	225.81
389.29	225.82
389.66	225.84
390.04	225.79
390.42	225.78
390.79	225.76
391.17	225.74
391.55	225.59
391.92	225.58
392.30	225.60
392.68	225.59
393.05	225.57
393.43	225.55
393.81	225.59
394.18	225.56
394.56	225.55
394.94	225.58
395.31	225.60
395.69	225.66
396.06	225.66
396.44	225.72
396.82	225.77
397.19	225.84
397.57	225.86
397.95	225.91
398.32	225.93
398.70	225.98
399.07	226.06
399.45	226.13
399.82	226.19
400.20	226.26
400.58	226.29
400.95	226.31
401.33	226.42
401.70	226.55
402.08	226.66
402.45	226.74
402.83	226.82
403.20	226.92
403.58	227.00
403.95	227.11
404.33	227.23
404.71	227.35
405.08	227.52
405.46	227.65
405.83	227.78
406.21	227.94
406.58	228.12
406.96	228.25
407.33	228.42
407.70	228.63
408.08	228.86
408.45	229.06
408.83	229.31
409.20	229.50
409.58	229.70
409.95	229.96
410.33	230.22
410.70	230.47
411.08	230.78
411.45	231.10
411.82	231.41
412.20	231.78
412.57	232.18
412.95	232.49
413.32	232.90
413.69	233.33
414.07	233.77
414.44	234.21
414.82	234.70
415.19	235.25
415.56	235.79
415.94	236.34
416.31	236.98
416.68	237.57
417.06	238.30
417.43	238.96
417.81	239.73
418.18	240.52
418.55	241.38
418.93	242.24
419.30	243.11
419.67	244.04
420.04	244.99
420.42	246.03
420.79	247.19
421.16	248.34
421.54	249.54
421.91	250.73
422.28	252.01
422.66	253.36
423.03	254.64
423.40	255.98
423.77	257.40
424.15	258.83
424.52	260.34
424.89	261.95
425.26	263.48
425.64	264.93
426.01	266.51
426.38	268.16
426.75	269.89
427.13	271.61
427.50	273.38
427.87	275.22
428.24	277.06
428.61	278.78
428.99	280.70
429.36	282.77
429.73	284.84
430.10	286.85
430.47	288.90
430.85	291.04
431.22	293.26
431.59	295.65
431.96	297.90
432.33	300.39
432.70	302.77
433.08	305.63
433.45	308.29
433.82	310.88
434.19	313.77
434.56	316.51
434.93	319.13
435.30	321.78
435.68	324.68
436.05	327.49
436.42	330.28
436.79	332.78
437.16	335.48
437.53	338.30
437.90	341.05
438.27	343.80
438.64	346.54
439.01	349.13
439.38	351.34
439.75	353.49
440.13	355.89
440.50	358.15
440.87	359.93
441.24	361.79
441.61	363.96
441.98	365.39
442.35	367.19
442.72	369.07
443.09	370.82
443.46	371.79
443.83	372.33
444.20	372.82
444.57	373.62
444.94	373.91
445.31	374.20
445.68	374.55
446.05	374.64
446.42	374.33
446.79	373.93
447.16	373.48
447.53	373.13
447.90	372.01
448.27	370.91
448.64	369.36
449.01	368.24
449.37	366.32
449.74	364.47
450.11	362.21
450.48	359.70
450.85	357.22
451.22	355.10
451.59	353.09
451.96	351.19
452.33	348.62
452.70	346.26
453.07	343.48
453.43	340.61
453.80	337.84
454.17	335.14
454.54	332.58
454.91	329.86
455.28	327.20
455.65	324.75
456.02	322.30
456.38	320.13
456.75	317.49
457.12	315.17
457.49	312.95
457.86	310.83
458.23	309.05
458.59	307.02
458.96	304.93
459.33	303.14
459.70	301.28
460.07	299.78
460.43	298.10
460.80	296.50
461.17	295.07
461.54	293.60
461.91	292.21
462.27	290.81
462.64	289.57
463.01	288.23
463.38	286.96
463.74	285.60
464.11	284.45
464.48	283.47
464.85	282.38
465.21	281.53
465.58	280.61
465.95	279.52
466.32	278.61
466.68	277.75
467.05	276.84
467.42	275.93
467.78	275.02
468.15	274.17
468.52	273.52
468.88	272.67
469.25	271.92
469.62	271.30
469.98	270.60
470.35	269.99
470.72	269.43
471.08	268.77
471.45	268.23
471.82	267.72
472.18	267.12
472.55	266.71
472.92	266.15
473.28	265.74
473.65	265.25
474.02	264.82
474.38	264.42
474.75	264.09
475.11	263.76
475.48	263.53
475.85	263.30
476.21	263.05
476.58	262.88
476.94	262.69
477.31	262.52
477.67	262.40
478.04	262.26
478.41	262.24
478.77	262.28
479.14	262.22
479.50	262.23
479.87	262.27
480.23	262.35
480.60	262.44
480.96	262.49
481.33	262.73
481.69	262.95
482.06	263.17
482.42	263.38
482.79	263.67
483.15	263.96
483.52	264.34
483.88	264.72
484.25	265.08
484.61	265.53
484.98	265.99
485.34	266.56
485.71	267.18
486.07	267.77
486.44	268.32
486.80	269.03
487.17	269.77
487.53	270.62
487.90	271.48
488.26	272.46
488.62	273.47
488.99	274.47
489.35	275.51
489.72	276.64
490.08	277.86
490.44	279.10
490.81	280.42
491.17	281.77
491.54	283.24
491.90	284.78
492.26	286.43
492.63	288.15
492.99	289.93
493.36	291.81
493.72	293.82
494.08	295.97
494.45	298.21
494.81	300.58
495.17	303.04
495.54	305.60
495.90	308.22
496.26	311.03
496.63	314.02
496.99	317.14
497.35	320.43
497.72	323.87
498.08	327.40
498.44	331.12
498.80	335.04
499.17	339.08
499.53	343.29
499.89	347.68
500.26	352.22
500.62	356.87
500.98	361.88
501.34	367.00
501.71	372.29
502.07	377.77
502.43	383.35
502.79	389.15
503.16	395.27
503.52	401.55
503.88	408.00
504.24	414.59
504.60	421.46
504.97	428.60
505.33	435.86
505.69	443.54
506.05	451.33
506.41	459.18
506.78	467.37
507.14	475.86
507.50	484.57
507.86	493.58
508.22	502.78
508.59	511.94
508.95	521.58
509.31	531.42
509.67	541.50
510.03	551.85
510.39	562.41
510.75	573.21
511.12	584.18
511.48	595.39
511.84	606.78
512.20	618.33
512.56	630.24
512.92	642.41
513.28	654.75
513.64	667.10
514.00	679.77
514.37	692.64
514.73	705.62
515.09	718.58
515.45	731.81
515.81	745.38
516.17	759.31
516.53	773.33
516.89	787.35
517.25	801.54
517.61	815.90
517.97	830.33
518.33	844.66
518.69	859.32
519.05	874.31
519.41	889.51
519.77	905.03
520.13	920.36
520.49	935.65
520.85	951.03
521.21	966.84
521.57	983.12
521.93	998.82
522.29	1015.18
522.65	1031.38
523.01	1047.57
523.37	1063.57
523.73	1079.70
524.09	1095.75
524.45	1112.17
524.81	1128.64
525.17	1145.29
525.53	1162.16
525.89	1179.07
526.25	1195.88
526.61	1212.19
526.97	1228.76
527.33	1245.15
527.68	1261.65
528.04	1278.11
528.40	1294.50
528.76	1311.39
529.12	1327.81
529.48	1344.59
529.84	1360.42
530.20	1377.07
530.56	1394.01
530.91	1411.36
531.27	1428.02
531.63	1444.37
531.99	1460.75
532.35	1476.66
532.71	1492.60
533.07	1508.64
533.42	1524.37
533.78	1540.43
534.14	1556.61
534.50	1571.98
534.86	1587.73
535.21	1602.89
535.57	1618.73
535.93	1634.28
536.29	1649.00
536.65	1663.93
537.00	1678.62
537.36	1693.90
537.72	1708.19
538.08	1722.47
538.44	1736.17
538.79	1749.98
539.15	1763.48
539.51	1777.17
539.87	1791.46
540.22	1804.94
540.58	1818.61
540.94	1831.91
541.29	1844.63
541.65	1857.12
542.01	1870.15
542.37	1882.25
542.72	1894.64
543.08	1906.51
543.44	1918.77
543.79	1929.84
544.15	1940.83
544.51	1952.40
544.87	1963.29
545.22	1974.17
545.58	1984.34
545.94	1993.96
546.29	2003.76
546.65	2013.77
547.01	2022.92
547.36	2031.55
547.72	2040.11
548.07	2047.96
548.43	2055.95
548.79	2063.84
549.14	2071.50
549.50	2078.75
549.86	2086.36
550.21	2093.59
550.57	2100.52
550.92	2106.97
551.28	2113.95
551.64	2120.94
551.99	2127.42
552.35	2133.41
552.70	2139.53
553.06	2145.47
553.41	2151.91
553.77	2157.84
554.13	2163.78
554.48	2170.03
554.84	2175.48
555.19	2180.65
555.55	2185.74
555.90	2190.25
556.26	2195.08
556.61	2199.78
556.97	2204.18
557.32	2208.39
557.68	2212.52
558.03	2216.85
558.39	2220.57
558.74	2225.33
559.10	2229.13
559.45	2232.81
559.81	2237.21
560.16	2241.09
560.52	2244.31
560.87	2247.47
561.23	2250.27
561.58	2253.17
561.94	2255.63
562.29	2258.00
562.64	2260.64
563.00	2263.29
563.35	2266.76
563.71	2269.96
564.06	2273.17
564.42	2275.90
564.77	2278.49
565.12	2280.76
565.48	2282.65
565.83	2284.67
566.19	2285.93
566.54	2286.98
566.89	2288.03
567.25	2288.63
567.60	2289.80
567.96	2291.55
568.31	2292.60
568.66	2293.64
569.02	2294.34
569.37	2294.68
569.72	2295.60
570.08	2295.88
570.43	2295.90
570.78	2295.40
571.14	2294.02
571.49	2292.56
571.84	2292.34
572.20	2291.23
572.55	2290.20
572.90	2288.71
573.26	2287.40
573.61	2285.87
573.96	2284.12
574.31	2281.29
574.67	2278.44
575.02	2274.92
575.37	2271.57
575.72	2267.81
576.08	2264.58
576.43	2261.27
576.78	2257.67
577.13	2254.55
577.49	2251.51
577.84	2248.07
578.19	2244.51
578.54	2241.03
578.90	2236.99
579.25	2231.58
579.60	2226.54
579.95	2221.70
580.30	2216.80
580.66	2211.64
581.01	2206.63
581.36	2201.83
581.71	2197.72
582.06	2193.39
582.42	2189.03
582.77	2183.86
583.12	2179.41
583.47	2174.63
583.82	2169.62
584.17	2164.45
584.53	2158.90
584.88	2153.41
585.23	2147.79
585.58	2142.32
585.93	2136.80
586.28	2132.09
586.63	2127.08
586.98	2122.33
587.34	2117.66
587.69	2112.84
588.04	2107.54
588.39	2101.92
588.74	2095.40
589.09	2089.24
589.44	2082.39
589.79	2076.44
590.14	2070.92
590.49	2064.37
590.84	2058.16
591.19	2052.25
591.54	2046.02
591.89	2038.81
592.25	2031.94
592.60	2024.74
592.95	2017.15
593.30	2009.82
593.65	2002.34
594.00	1995.38
594.35	1988.14
594.70	1980.26
595.05	1973.06
595.40	1965.91
595.75	1958.53
596.10	1952.51
596.45	1945.97
596.80	1939.92
597.15	1933.22
597.50	1926.20
597.85	1919.81
598.19	1913.21
598.54	1906.08
598.89	1899.30
599.24	1893.50
599.59	1886.96
599.94	1880.87
600.29	1874.64
600.64	1867.97
600.99	1860.64
601.34	1853.87
601.69	1846.95
602.04	1840.02
602.39	1832.75
602.74	1825.91
603.08	1819.18
603.43	1812.46
603.78	1805.06
604.13	1797.86
604.48	1790.71
604.83	1783.83
605.18	1776.94
605.53	1768.94
605.87	1761.08
606.22	1753.92
606.57	1745.95
606.92	1738.65
607.27	1731.51
607.62	1724.50
607.96	1717.43
608.31	1710.67
608.66	1703.09
609.01	1695.39
609.36	1687.84
609.70	1679.75
610.05	1671.67
610.40	1664.03
610.75	1655.75
611.10	1648.13
611.44	1639.64
611.79	1631.60
612.14	1622.93
612.49	1613.68
612.83	1605.43
613.18	1597.27
613.53	1589.10
613.88	1580.61
614.22	1572.29
614.57	1563.74
614.92	1555.75
615.27	1548.00
615.61	1539.76
615.96	1531.65
616.31	1524.17
616.65	1516.78
617.00	1509.22
617.35	1501.60
617.70	1493.37
618.04	1484.81
618.39	1476.62
618.74	1469.18
619.08	1460.84
619.43	1453.19
619.78	1446.30
620.12	1438.96
620.47	1431.38
620.82	1423.20
621.16	1415.76
621.51	1408.13
621.85	1400.41
622.20	1391.83
622.55	1383.61
622.89	1375.70
623.24	1368.05
623.59	1360.58
623.93	1353.10
624.28	1345.97
624.62	1338.40
624.97	1331.05
625.32	1324.34
625.66	1317.30
626.01	1310.11
626.35	1302.72
626.70	1294.98
627.04	1287.34
627.39	1279.53
627.73	1272.12
628.08	1265.26
628.43	1257.88
628.77	1250.48
629.12	1242.96
629.46	1235.86
629.81	1228.35
630.15	1221.23
630.50	1213.85
630.84	1205.68
631.19	1197.71
631.53	1190.11
631.88	1182.73
632.22	1175.17
632.57	1167.79
632.91	1160.14
633.26	1152.62
633.60	1145.29
633.95	1138.23
634.29	1131.13
634.64	1124.50
634.98	1117.26
635.32	1110.06
635.67	1103.47
636.01	1096.85
636.36	1090.02
636.70	1083.47
637.05	1076.94
637.39	1070.46
637.73	1063.92
638.08	1058.06
638.42	1052.03
638.77	1045.58
639.11	1038.83
639.45	1032.37
639.80	1025.77
640.14	1019.44
640.49	1012.93
640.83	1006.53
641.17	1000.26
641.52	993.91
641.86	987.41
642.20	981.54
642.55	975.34
642.89	968.87
643.23	962.32
643.58	956.60
643.92	950.43
644.26	944.31
644.61	938.23
644.95	932.16
645.29	925.48
645.64	918.78
645.98	912.49
646.32	906.66
646.66	900.75
647.01	894.97
647.35	889.20
647.69	883.33
648.04	877.76
648.38	871.95
648.72	865.90
649.06	859.84
649.41	853.91
649.75	847.87
650.09	841.94
650.43	836.22
650.78	829.98
651.12	824.02
651.46	818.36
651.80	812.61
652.14	807.29
652.49	801.94
652.83	796.77
653.17	791.10
653.51	785.37
653.85	779.97
654.20	774.34
654.54	768.29
654.88	762.56
655.22	756.80
655.56	751.14
655.90	745.77
656.25	740.55
656.59	735.15
656.93	730.10
657.27	724.95
657.61	719.48
657.95	714.45
658.29	709.37
658.64	704.15
658.98	698.80
659.32	693.31
659.66	688.14
660.00	682.78
660.34	677.80
660.68	672.89
661.02	667.75
661.36	662.95
661.70	658.52
662.05	654.23
662.39	649.83
662.73	645.44
663.07	641.04
663.41	636.58
663.75	632.13
664.09	627.50
664.43	623.08
664.77	619.00
665.11	614.68
665.45	610.54
665.79	606.46
666.13	602.38
666.47	598.34
666.81	594.20
667.15	590.09
667.49	586.22
667.83	582.42
668.17	578.59
668.51	574.58
668.85	570.58
669.19	566.69
669.53	562.83
669.87	558.93
670.21	555.22
670.55	551.59
670.89	548.17
671.23	544.72
671.57	541.24
671.91	537.63
672.25	534.10
672.58	530.55
672.92	527.09
673.26	523.88
673.60	520.69
673.94	517.55
674.28	514.64
674.62	511.62
674.96	508.51
675.30	505.54
675.64	502.59
675.97	499.79
676.31	496.94
676.65	494.08
676.99	491.35
677.33	488.44
677.67	485.60
678.01	482.58
678.34	479.59
678.68	476.71
679.02	473.92
679.36	471.21
679.70	468.46
680.04	465.68
680.37	462.79
680.71	459.97
681.05	457.35
681.39	454.64
681.73	452.00
682.06	449.44
682.40	446.87
682.74	444.32
683.08	441.77
683.42	439.14
683.75	436.55
684.09	434.02
684.43	431.57
684.77	429.10
685.10	426.74
685.44	424.48
685.78	422.15
686.12	419.91
686.45	417.63
686.79	415.39
687.13	413.21
687.46	411.09
687.80	408.95
688.14	406.74
688.48	404.69
688.81	402.43
689.15	400.29
689.49	398.14
689.82	396.08
690.16	394.00
690.50	392.07
690.83	390.15
691.17	388.13
691.51	386.20
691.84	384.33
692.18	382.40
692.52	380.37
692.85	378.39
693.19	376.54
693.52	374.62
693.86	372.77
694.20	371.03
694.53	369.23
694.87	367.38
695.21	365.55
695.54	363.69
695.88	361.99
696.21	360.25
696.55	358.57
696.88	356.85
697.22	355.18
697.56	353.53
697.89	351.86
698.23	350.26
698.56	348.70
698.90	347.13
699.23	345.47
699.57	343.97
699.90	342.49
700.24	340.91
700.58	339.45
700.91	337.94
701.25	336.48
701.58	335.07
701.92	333.70
702.25	332.35
702.59	331.01
702.92	329.71
703.26	328.44
703.59	327.15
703.93	325.97
704.26	324.71
704.60	323.42
704.93	322.20
705.26	320.99
705.60	319.75
705.93	318.59
706.27	317.58
706.60	316.54
706.94	315.47
707.27	314.33
707.61	313.25
707.94	312.24
708.27	311.19
708.61	310.12
708.94	309.13
709.28	308.16
709.61	307.16
709.94	306.18
710.28	305.16
710.61	304.16
710.95	303.11
711.28	302.17
711.61	301.26
711.95	300.33
712.28	299.35
712.61	298.42
712.95	297.47
713.28	296.57
713.61	295.66
713.95	294.73
714.28	293.87
714.61	293.00
714.95	292.16
715.28	291.30
715.61	290.41
715.95	289.58
716.28	288.68
716.61	287.87
716.95	287.07
717.28	286.34
717.61	285.60
717.94	284.87
718.28	284.09
718.61	283.35
718.94	282.62
719.27	281.93
719.61	281.27
719.94	280.68
720.27	279.95
720.60	279.30
720.94	278.69
721.27	278.10
721.60	277.51
721.93	276.89
722.27	276.32
722.60	275.80
722.93	275.21
723.26	274.67
723.59	274.12
723.93	273.54
724.26	272.97
724.59	272.40
724.92	271.86
725.25	271.35
725.59	270.84
725.92	270.36
726.25	269.88
726.58	269.38
726.91	268.79
727.24	268.37
727.57	267.87
727.91	267.38
728.24	266.92
728.57	266.44
728.90	265.97
729.23	265.48
729.56	265.03
729.89	264.57
730.22	264.12
730.55	263.64
730.89	263.21
731.22	262.77
731.55	262.35
731.88	261.90
732.21	261.46
732.54	260.99
732.87	260.57
733.20	260.16
733.53	259.75
733.86	259.42
734.19	258.99
734.52	258.59
734.85	258.26
735.18	257.85
735.51	257.51
735.84	257.14
736.17	256.80
736.50	256.38
736.83	256.15
737.16	255.83
737.49	255.46
737.82	255.14
738.15	254.79
738.48	254.46
738.81	254.15
739.14	253.80
739.47	253.50
739.80	253.18
740.13	252.87
740.46	252.54
740.79	252.21
741.12	251.90
741.45	251.61
741.78	251.28
742.11	251.01
742.44	250.65
742.77	250.41
743.10	250.13
743.43	249.85
743.75	249.42
744.08	249.26
744.41	249.04
744.74	248.74
745.07	248.46
745.40	248.20
745.73	247.98
746.06	247.72
746.39	247.47
746.71	247.22
747.04	246.96
747.37	246.73
747.70	246.47
748.03	246.23
748.36	246.04
748.68	245.81
749.01	245.56
749.34	245.36
749.67	245.12
750.00	244.86
750.33	244.71
750.65	244.52
750.98	244.18
751.31	243.98
751.64	243.79
751.97	243.63
752.29	243.44
752.62	243.17
752.95	243.00
753.28	242.78
753.60	242.57
753.93	242.39
754.26	242.17
754.59	241.97
754.91	241.76
755.24	241.54
755.57	241.35
755.90	241.19
756.22	240.96
756.55	240.76
756.88	240.61
757.20	240.38
757.53	240.19
757.86	240.00
758.19	239.84
758.51	239.63
758.84	239.42
759.17	239.22
759.49	239.07
759.82	238.92
760.15	238.76
760.47	238.61
760.80	238.44
761.13	238.32
761.45	238.17
761.78	238.01
762.11	237.87
762.43	237.73
762.76	237.54
763.08	237.45
763.41	237.30
763.74	237.14
764.06	236.98
764.39	236.84
764.71	236.69
765.04	236.54
765.37	236.40
765.69	236.26
766.02	236.15
766.34	236.04
766.67	235.88
767.00	235.77
767.32	235.70
767.65	235.65
767.97	235.56
768.30	235.44
768.62	235.32
768.95	235.17
769.27	235.00
769.60	234.93
769.92	234.75
770.25	234.62
770.57	234.51
770.90	234.40
771.22	234.28
771.55	234.17
771.87	234.05
772.20	233.97
772.52	233.99
772.85	234.00
773.17	233.87
773.50	233.79
773.82	233.68
774.15	233.56
774.47	233.39
774.80	233.22
775.12	233.11
775.45	233.07
775.77	233.00
776.09	232.94
776.42	232.86
776.74	232.84
777.07	232.78
777.39	232.69
777.72	232.63
778.04	232.60
778.36	232.53
778.69	232.48
779.01	232.44
779.33	232.25
779.66	232.09
779.98	232.02
780.31	231.95
780.63	231.91
780.95	231.86
781.28	231.79
781.60	231.76
781.92	231.70
782.25	231.66
782.57	231.63
782.89	231.56
783.22	231.48
783.54	231.41
783.86	231.37
784.19	231.33
784.51	231.34
784.83	231.24
785.16	231.19
785.48	231.16
785.80	231.09
786.12	231.04
786.45	230.98
786.77	230.94
787.09	230.90
