SpectraSuite Data File
++++++++++++++++++++++++++++++++++++
Date: Fri Feb 01 15:22:27 EST 2013
User: group
Dark Spectrum Present: No
Reference Spectrum Present: No
Number of Sampled Component Spectra: 1
Spectrometers: USB2E7196
Integration Time (usec): 35000 (USB2E7196)
Spectra Averaged: 100 (USB2E7196)
Boxcar Smoothing: 10 (USB2E7196)
Correct for Electrical Dark: No (USB2E7196)
Strobe/Lamp Enabled: No (USB2E7196)
Correct for Detector Non-linearity: No (USB2E7196)
Correct for Stray Light: No (USB2E7196)
Number of Pixels in Processed Spectrum: 2048
>>>>>Begin Processed Spectral Data<<<<<
339.09	0.00
339.48	214.91
339.86	216.43
340.24	217.80
340.63	219.46
341.01	222.06
341.39	222.24
341.78	222.83
342.16	224.97
342.54	224.63
342.93	213.26
343.31	224.04
343.69	224.59
344.07	225.07
344.46	225.48
344.84	225.83
345.22	226.03
345.60	226.27
345.99	226.45
346.37	226.56
346.75	226.63
347.13	226.70
347.52	226.74
347.90	226.81
348.28	226.83
348.66	226.85
349.05	226.82
349.43	226.84
349.81	226.87
350.19	226.91
350.57	226.95
350.96	227.02
351.34	227.12
351.72	227.19
352.10	227.27
352.48	227.33
352.87	227.42
353.25	227.50
353.63	227.56
354.01	227.64
354.39	227.70
354.77	227.81
355.15	227.89
355.54	227.95
355.92	227.98
356.30	228.10
356.68	228.22
357.06	228.31
357.44	228.38
357.82	228.45
358.20	228.56
358.58	228.65
358.97	228.70
359.35	228.75
359.73	228.82
360.11	228.86
360.49	228.93
360.87	228.97
361.25	229.04
361.63	229.08
362.01	229.16
362.39	229.20
362.77	229.25
363.15	229.33
363.53	229.40
363.91	229.45
364.29	229.44
364.67	229.38
365.05	229.41
365.43	229.44
365.81	229.49
366.19	229.52
366.57	229.52
366.95	229.57
367.33	229.55
367.71	229.55
368.09	229.58
368.47	229.58
368.85	229.56
369.23	229.56
369.61	229.52
369.99	229.51
370.37	229.51
370.75	229.53
371.13	229.47
371.51	229.41
371.89	229.35
372.27	229.31
372.65	229.27
373.03	229.19
373.41	229.17
373.78	229.13
374.16	229.03
374.54	228.95
374.92	228.88
375.30	228.84
375.68	228.77
376.06	228.69
376.44	228.61
376.82	228.54
377.19	228.46
377.57	228.41
377.95	228.31
378.33	228.23
378.71	228.11
379.09	228.03
379.47	227.97
379.84	227.90
380.22	227.83
380.60	227.74
380.98	227.70
381.36	227.61
381.73	227.52
382.11	227.48
382.49	227.43
382.87	227.34
383.25	227.28
383.62	227.30
384.00	227.22
384.38	227.14
384.76	227.11
385.13	227.10
385.51	227.02
385.89	226.93
386.27	226.88
386.64	226.83
387.02	226.77
387.40	226.71
387.78	226.66
388.15	226.62
388.53	226.59
388.91	226.53
389.29	226.48
389.66	226.44
390.04	226.38
390.42	226.35
390.79	226.34
391.17	226.29
391.55	226.18
391.92	226.16
392.30	226.17
392.68	226.18
393.05	226.16
393.43	226.15
393.81	226.19
394.18	226.19
394.56	226.21
394.94	226.29
395.31	226.32
395.69	226.39
396.06	226.42
396.44	226.45
396.82	226.50
397.19	226.58
397.57	226.63
397.95	226.68
398.32	226.72
398.70	226.77
399.07	226.86
399.45	226.93
399.82	226.99
400.20	227.01
400.58	227.03
400.95	227.08
401.33	227.18
401.70	227.31
402.08	227.41
402.45	227.51
402.83	227.59
403.20	227.70
403.58	227.78
403.95	227.95
404.33	228.10
404.71	228.22
405.08	228.39
405.46	228.53
405.83	228.71
406.21	228.89
406.58	229.09
406.96	229.23
407.33	229.41
407.70	229.64
408.08	229.96
408.45	230.22
408.83	230.47
409.20	230.72
409.58	230.92
409.95	231.19
410.33	231.47
410.70	231.73
411.08	232.04
411.45	232.34
411.82	232.64
412.20	232.99
412.57	233.43
412.95	233.75
413.32	234.18
413.69	234.60
414.07	235.01
414.44	235.48
414.82	236.02
415.19	236.60
415.56	237.16
415.94	237.72
416.31	238.35
416.68	239.03
417.06	239.77
417.43	240.46
417.81	241.23
418.18	241.99
418.55	242.84
418.93	243.76
419.30	244.69
419.67	245.58
420.04	246.57
420.42	247.54
420.79	248.74
421.16	249.89
421.54	251.02
421.91	252.26
422.28	253.51
422.66	254.83
423.03	256.14
423.40	257.45
423.77	258.86
424.15	260.25
424.52	261.70
424.89	263.30
425.26	264.89
425.64	266.31
426.01	267.94
426.38	269.57
426.75	271.23
427.13	272.93
427.50	274.80
427.87	276.66
428.24	278.59
428.61	280.31
428.99	282.22
429.36	284.40
429.73	286.48
430.10	288.47
430.47	290.56
430.85	292.68
431.22	294.94
431.59	297.35
431.96	299.64
432.33	302.18
432.70	304.53
433.08	307.31
433.45	309.98
433.82	312.58
434.19	315.50
434.56	318.29
434.93	321.00
435.30	323.63
435.68	326.51
436.05	329.27
436.42	332.09
436.79	334.64
437.16	337.30
437.53	340.15
437.90	343.02
438.27	345.69
438.64	348.49
439.01	351.07
439.38	353.31
439.75	355.44
440.13	357.85
440.50	360.20
440.87	362.08
441.24	364.06
441.61	366.23
441.98	367.71
442.35	369.48
442.72	371.33
443.09	373.12
443.46	374.13
443.83	374.73
444.20	375.19
444.57	376.01
444.94	376.28
445.31	376.55
445.68	376.85
446.05	376.95
446.42	376.57
446.79	376.14
447.16	375.66
447.53	375.35
447.90	374.21
448.27	373.03
448.64	371.42
449.01	370.24
449.37	368.26
449.74	366.34
450.11	364.11
450.48	361.63
450.85	359.09
451.22	356.96
451.59	354.97
451.96	353.05
452.33	350.45
452.70	348.14
453.07	345.32
453.43	342.42
453.80	339.69
454.17	337.02
454.54	334.49
454.91	331.75
455.28	329.10
455.65	326.63
456.02	324.19
456.38	322.00
456.75	319.34
457.12	317.09
457.49	314.88
457.86	312.71
458.23	310.87
458.59	308.81
458.96	306.69
459.33	304.81
459.70	302.93
460.07	301.44
460.43	299.69
460.80	298.11
461.17	296.66
461.54	295.13
461.91	293.68
462.27	292.23
462.64	291.03
463.01	289.66
463.38	288.38
463.74	287.02
464.11	285.88
464.48	284.82
464.85	283.70
465.21	282.79
465.58	281.88
465.95	280.76
466.32	279.88
466.68	279.00
467.05	278.10
467.42	277.22
467.78	276.27
468.15	275.38
468.52	274.72
468.88	273.90
469.25	273.15
469.62	272.52
469.98	271.83
470.35	271.19
470.72	270.55
471.08	269.87
471.45	269.34
471.82	268.79
472.18	268.22
472.55	267.77
472.92	267.25
473.28	266.76
473.65	266.28
474.02	265.80
474.38	265.40
474.75	265.06
475.11	264.67
475.48	264.40
475.85	264.17
476.21	263.92
476.58	263.70
476.94	263.51
477.31	263.31
477.67	263.16
478.04	263.04
478.41	263.00
478.77	263.01
479.14	262.91
479.50	262.89
479.87	262.91
480.23	263.00
480.60	263.09
480.96	263.14
481.33	263.35
481.69	263.52
482.06	263.70
482.42	263.88
482.79	264.14
483.15	264.44
483.52	264.82
483.88	265.15
484.25	265.54
484.61	265.99
484.98	266.45
485.34	266.98
485.71	267.56
486.07	268.13
486.44	268.69
486.80	269.36
487.17	270.11
487.53	270.93
487.90	271.75
488.26	272.66
488.62	273.66
488.99	274.65
489.35	275.71
489.72	276.82
490.08	278.03
490.44	279.32
490.81	280.60
491.17	281.93
491.54	283.41
491.90	284.90
492.26	286.55
492.63	288.27
492.99	290.05
493.36	291.93
493.72	293.98
494.08	296.08
494.45	298.38
494.81	300.73
495.17	303.16
495.54	305.77
495.90	308.46
496.26	311.29
496.63	314.21
496.99	317.34
497.35	320.64
497.72	324.01
498.08	327.51
498.44	331.18
498.80	335.13
499.17	339.20
499.53	343.43
499.89	347.77
500.26	352.31
500.62	356.96
500.98	361.94
501.34	366.96
501.71	372.27
502.07	377.67
502.43	383.23
502.79	389.04
503.16	395.09
503.52	401.37
503.88	407.73
504.24	414.38
504.60	421.26
504.97	428.35
505.33	435.73
505.69	443.45
506.05	451.22
506.41	459.11
506.78	467.20
507.14	475.63
507.50	484.36
507.86	493.37
508.22	502.56
508.59	511.76
508.95	521.40
509.31	531.23
509.67	541.38
510.03	551.75
510.39	562.26
510.75	573.09
511.12	584.01
511.48	595.35
511.84	606.84
512.20	618.32
512.56	630.30
512.92	642.42
513.28	654.67
513.64	667.19
514.00	679.89
514.37	692.86
514.73	706.01
515.09	719.11
515.45	732.43
515.81	746.10
516.17	760.17
516.53	774.28
516.89	788.42
517.25	802.60
517.61	817.07
517.97	831.61
518.33	846.06
518.69	860.87
519.05	875.90
519.41	891.12
519.77	906.71
520.13	922.29
520.49	937.70
520.85	953.22
521.21	969.00
521.57	985.35
521.93	1001.16
522.29	1017.53
522.65	1033.84
523.01	1050.11
523.37	1066.18
523.73	1082.28
524.09	1098.42
524.45	1114.85
524.81	1131.59
525.17	1148.41
525.53	1165.41
525.89	1182.32
526.25	1199.20
526.61	1215.62
526.97	1232.33
527.33	1248.90
527.68	1265.50
528.04	1282.08
528.40	1298.81
528.76	1315.91
529.12	1332.52
529.48	1349.50
529.84	1365.49
530.20	1382.18
530.56	1399.18
530.91	1416.60
531.27	1433.48
531.63	1450.11
531.99	1466.84
532.35	1482.89
532.71	1498.80
533.07	1515.10
533.42	1531.04
533.78	1547.14
534.14	1563.43
534.50	1578.91
534.86	1594.81
535.21	1610.02
535.57	1626.16
535.93	1641.73
536.29	1656.53
536.65	1671.63
537.00	1686.59
537.36	1701.98
537.72	1716.63
538.08	1731.13
538.44	1744.97
538.79	1758.86
539.15	1772.59
539.51	1786.19
539.87	1800.59
540.22	1814.45
540.58	1828.41
540.94	1842.03
541.29	1855.15
541.65	1868.03
542.01	1881.37
542.37	1893.69
542.72	1906.13
543.08	1917.92
543.44	1930.45
543.79	1941.85
544.15	1952.94
544.51	1964.45
544.87	1975.60
545.22	1986.29
545.58	1996.54
545.94	2006.47
546.29	2016.34
546.65	2026.05
547.01	2035.45
547.36	2044.22
547.72	2052.65
548.07	2060.51
548.43	2068.51
548.79	2076.49
549.14	2084.01
549.50	2091.40
549.86	2099.28
550.21	2106.79
550.57	2113.95
550.92	2120.46
551.28	2127.53
551.64	2134.64
551.99	2141.19
552.35	2147.26
552.70	2153.50
553.06	2159.57
553.41	2165.86
553.77	2171.99
554.13	2178.17
554.48	2184.34
554.84	2189.69
555.19	2195.04
555.55	2200.00
555.90	2204.54
556.26	2209.31
556.61	2213.96
556.97	2218.18
557.32	2222.24
557.68	2226.21
558.03	2230.41
558.39	2233.99
558.74	2238.56
559.10	2242.31
559.45	2245.94
559.81	2250.28
560.16	2253.99
560.52	2257.23
560.87	2260.72
561.23	2263.36
561.58	2266.43
561.94	2268.95
562.29	2271.39
562.64	2274.15
563.00	2276.91
563.35	2280.43
563.71	2283.60
564.06	2286.88
564.42	2289.65
564.77	2292.20
565.12	2294.55
565.48	2296.40
565.83	2298.31
566.19	2299.59
566.54	2300.54
566.89	2301.71
567.25	2302.26
567.60	2303.69
567.96	2305.39
568.31	2306.13
568.66	2307.14
569.02	2307.56
569.37	2307.79
569.72	2308.63
570.08	2308.59
570.43	2308.44
570.78	2307.69
571.14	2306.07
571.49	2304.70
571.84	2304.24
572.20	2302.88
572.55	2301.65
572.90	2300.11
573.26	2298.64
573.61	2296.93
573.96	2295.01
574.31	2291.83
574.67	2288.60
575.02	2284.80
575.37	2281.17
575.72	2277.23
576.08	2273.93
576.43	2270.66
576.78	2266.83
577.13	2263.59
577.49	2260.46
577.84	2257.06
578.19	2253.22
578.54	2249.37
578.90	2244.97
579.25	2239.42
579.60	2234.38
579.95	2229.37
580.30	2224.23
580.66	2218.96
581.01	2213.93
581.36	2209.04
581.71	2204.85
582.06	2200.44
582.42	2196.00
582.77	2190.69
583.12	2185.98
583.47	2181.03
583.82	2175.69
584.17	2170.38
584.53	2164.77
584.88	2159.05
585.23	2152.87
585.58	2147.28
585.93	2141.88
586.28	2137.03
586.63	2131.81
586.98	2126.82
587.34	2121.99
587.69	2117.07
588.04	2111.59
588.39	2105.87
588.74	2099.23
589.09	2092.91
589.44	2085.97
589.79	2079.80
590.14	2074.20
590.49	2067.61
590.84	2061.15
591.19	2055.18
591.54	2048.58
591.89	2040.99
592.25	2033.99
592.60	2026.91
592.95	2019.30
593.30	2011.86
593.65	2004.26
594.00	1997.26
594.35	1989.82
594.70	1981.70
595.05	1974.34
595.40	1967.17
595.75	1959.45
596.10	1953.14
596.45	1946.12
596.80	1939.82
597.15	1933.20
597.50	1925.87
597.85	1919.45
598.19	1912.75
598.54	1905.63
598.89	1899.11
599.24	1893.24
599.59	1886.58
599.94	1880.46
600.29	1874.18
600.64	1867.66
600.99	1860.16
601.34	1853.21
601.69	1846.26
602.04	1839.30
602.39	1831.91
602.74	1824.96
603.08	1818.27
603.43	1811.50
603.78	1804.52
604.13	1797.33
604.48	1789.86
604.83	1783.08
605.18	1776.01
605.53	1768.02
605.87	1759.94
606.22	1752.65
606.57	1744.80
606.92	1737.50
607.27	1730.22
607.62	1723.21
607.96	1715.75
608.31	1709.14
608.66	1701.52
609.01	1693.88
609.36	1686.35
609.70	1678.30
610.05	1670.19
610.40	1662.49
610.75	1654.18
611.10	1646.40
611.44	1638.03
611.79	1630.21
612.14	1621.54
612.49	1612.40
612.83	1604.08
613.18	1595.97
613.53	1587.76
613.88	1579.26
614.22	1570.97
614.57	1562.33
614.92	1554.20
615.27	1546.65
615.61	1538.22
615.96	1530.28
616.31	1522.64
616.65	1515.32
617.00	1507.83
617.35	1500.21
617.70	1491.76
618.04	1483.20
618.39	1475.01
618.74	1467.36
619.08	1458.90
619.43	1451.35
619.78	1444.41
620.12	1437.13
620.47	1429.58
620.82	1421.46
621.16	1413.83
621.51	1406.17
621.85	1398.41
622.20	1389.96
622.55	1381.64
622.89	1373.81
623.24	1366.16
623.59	1358.79
623.93	1351.21
624.28	1344.01
624.62	1336.43
624.97	1329.37
625.32	1322.75
625.66	1315.80
626.01	1308.63
626.35	1301.27
626.70	1293.50
627.04	1285.77
627.39	1278.08
627.73	1270.65
628.08	1263.74
628.43	1256.47
628.77	1249.11
629.12	1241.59
629.46	1234.39
629.81	1226.94
630.15	1219.69
630.50	1212.19
630.84	1204.03
631.19	1196.20
631.53	1188.70
631.88	1181.24
632.22	1173.56
632.57	1166.22
632.91	1158.53
633.26	1151.12
633.60	1143.72
633.95	1136.68
634.29	1129.68
634.64	1122.94
634.98	1115.59
635.32	1108.48
635.67	1102.02
636.01	1095.50
636.36	1088.76
636.70	1082.34
637.05	1075.78
637.39	1069.35
637.73	1062.84
638.08	1057.01
638.42	1050.95
638.77	1044.35
639.11	1037.64
639.45	1031.38
639.80	1024.67
640.14	1018.27
640.49	1011.82
640.83	1005.53
641.17	999.23
641.52	992.91
641.86	986.61
642.20	980.71
642.55	974.43
642.89	967.86
643.23	961.23
643.58	955.56
643.92	949.31
644.26	943.24
644.61	937.25
644.95	931.31
645.29	924.71
645.64	917.94
645.98	911.76
646.32	906.04
646.66	899.93
647.01	894.18
647.35	888.52
647.69	882.67
648.04	877.16
648.38	871.38
648.72	865.31
649.06	859.23
649.41	853.45
649.75	847.42
650.09	841.49
650.43	835.66
650.78	829.41
651.12	823.40
651.46	817.72
651.80	811.93
652.14	806.50
652.49	801.10
652.83	795.96
653.17	790.19
653.51	784.40
653.85	778.99
654.20	773.33
654.54	767.34
654.88	761.62
655.22	755.78
655.56	750.09
655.90	744.69
656.25	739.45
656.59	734.08
656.93	729.00
657.27	723.75
657.61	718.39
657.95	713.35
658.29	708.32
658.64	703.03
658.98	697.76
659.32	692.34
659.66	687.12
660.00	681.78
660.34	676.93
660.68	672.02
661.02	667.11
661.36	662.45
661.70	657.93
662.05	653.50
662.39	649.14
662.73	644.65
663.07	640.22
663.41	635.73
663.75	631.23
664.09	626.67
664.43	622.39
664.77	618.23
665.11	613.93
665.45	609.80
665.79	605.76
666.13	601.62
666.47	597.48
666.81	593.28
667.15	589.23
667.49	585.28
667.83	581.50
668.17	577.49
668.51	573.41
668.85	569.43
669.19	565.64
669.53	561.76
669.87	557.89
670.21	554.21
670.55	550.54
670.89	547.11
671.23	543.65
671.57	540.15
671.91	536.59
672.25	533.10
672.58	529.63
672.92	526.26
673.26	523.18
673.60	520.07
673.94	517.01
674.28	514.09
674.62	511.17
674.96	508.11
675.30	505.22
675.64	502.27
675.97	499.53
676.31	496.67
676.65	493.77
676.99	491.08
677.33	488.28
677.67	485.46
678.01	482.44
678.34	479.46
678.68	476.58
679.02	473.82
679.36	471.09
679.70	468.33
680.04	465.59
680.37	462.65
680.71	459.93
681.05	457.35
681.39	454.66
681.73	452.01
682.06	449.51
682.40	446.97
682.74	444.47
683.08	441.93
683.42	439.35
683.75	436.90
684.09	434.42
684.43	431.97
684.77	429.60
685.10	427.24
685.44	425.02
685.78	422.76
686.12	420.51
686.45	418.28
686.79	415.99
687.13	413.85
687.46	411.73
687.80	409.55
688.14	407.35
688.48	405.30
688.81	403.04
689.15	400.88
689.49	398.77
689.82	396.69
690.16	394.59
690.50	392.62
690.83	390.68
691.17	388.70
691.51	386.79
691.84	384.93
692.18	383.05
692.52	381.05
692.85	379.19
693.19	377.32
693.52	375.46
693.86	373.67
694.20	371.85
694.53	370.04
694.87	368.19
695.21	366.38
695.54	364.58
695.88	362.89
696.21	361.16
696.55	359.46
696.88	357.79
697.22	356.16
697.56	354.56
697.89	352.88
698.23	351.27
698.56	349.65
698.90	348.03
699.23	346.36
699.57	344.83
699.90	343.25
700.24	341.73
700.58	340.17
700.91	338.65
701.25	337.19
701.58	335.81
701.92	334.42
702.25	333.08
702.59	331.71
702.92	330.38
703.26	329.07
703.59	327.80
703.93	326.57
704.26	325.33
704.60	323.99
704.93	322.75
705.26	321.48
705.60	320.29
705.93	319.12
706.27	318.12
706.60	317.07
706.94	315.99
707.27	314.81
707.61	313.76
707.94	312.78
708.27	311.69
708.61	310.65
708.94	309.66
709.28	308.64
709.61	307.64
709.94	306.66
710.28	305.68
710.61	304.67
710.95	303.64
711.28	302.72
711.61	301.79
711.95	300.80
712.28	299.89
712.61	298.97
712.95	298.05
713.28	297.14
713.61	296.23
713.95	295.31
714.28	294.53
714.61	293.69
714.95	292.83
715.28	291.99
715.61	291.07
715.95	290.22
716.28	289.37
716.61	288.57
716.95	287.78
717.28	287.02
717.61	286.28
717.94	285.56
718.28	284.77
718.61	284.08
718.94	283.48
719.27	282.80
719.61	282.12
719.94	281.50
720.27	280.82
720.60	280.18
720.94	279.59
721.27	279.00
721.60	278.43
721.93	277.85
722.27	277.32
722.60	276.77
722.93	276.20
723.26	275.69
723.59	275.13
723.93	274.62
724.26	274.07
724.59	273.51
724.92	272.95
725.25	272.47
725.59	271.96
725.92	271.45
726.25	270.95
726.58	270.47
726.91	269.95
727.24	269.45
727.57	268.97
727.91	268.46
728.24	267.98
728.57	267.49
728.90	267.00
729.23	266.50
729.56	266.10
729.89	265.64
730.22	265.15
730.55	264.70
730.89	264.22
731.22	263.79
731.55	263.34
731.88	262.95
732.21	262.50
732.54	262.06
732.87	261.61
733.20	261.22
733.53	260.84
733.86	260.49
734.19	260.07
734.52	259.71
734.85	259.40
735.18	259.00
735.51	258.64
735.84	258.28
736.17	257.95
736.50	257.54
736.83	257.31
737.16	256.96
737.49	256.65
737.82	256.31
738.15	255.97
738.48	255.65
738.81	255.33
739.14	255.00
739.47	254.67
739.80	254.40
740.13	254.10
740.46	253.76
740.79	253.41
741.12	253.18
741.45	252.85
741.78	252.51
742.11	252.24
742.44	251.91
742.77	251.63
743.10	251.31
743.43	251.00
743.75	250.60
744.08	250.47
744.41	250.18
744.74	249.94
745.07	249.65
745.40	249.40
745.73	249.13
746.06	248.86
746.39	248.61
746.71	248.32
747.04	248.02
747.37	247.75
747.70	247.52
748.03	247.21
748.36	246.96
748.68	246.71
749.01	246.41
749.34	246.18
749.67	245.97
750.00	245.75
750.33	245.58
750.65	245.37
750.98	245.01
751.31	244.74
751.64	244.52
751.97	244.34
752.29	244.10
752.62	243.86
752.95	243.63
753.28	243.39
753.60	243.19
753.93	242.98
754.26	242.81
754.59	242.59
754.91	242.40
755.24	242.21
755.57	242.03
755.90	241.86
756.22	241.66
756.55	241.44
756.88	241.23
757.20	241.01
757.53	240.81
757.86	240.65
758.19	240.52
758.51	240.35
758.84	240.14
759.17	240.00
759.49	239.86
759.82	239.75
760.15	239.62
760.47	239.46
760.80	239.30
761.13	239.13
761.45	238.96
761.78	238.83
762.11	238.68
762.43	238.55
762.76	238.39
763.08	238.24
763.41	238.13
763.74	237.98
764.06	237.84
764.39	237.72
764.71	237.58
765.04	237.43
765.37	237.27
765.69	237.16
766.02	237.01
766.34	236.84
766.67	236.71
767.00	236.60
767.32	236.55
767.65	236.52
767.97	236.41
768.30	236.27
768.62	236.15
768.95	236.05
769.27	235.94
769.60	235.86
769.92	235.75
770.25	235.62
770.57	235.54
770.90	235.48
771.22	235.36
771.55	235.27
771.87	235.17
772.20	235.08
772.52	235.07
772.85	235.10
773.17	235.02
773.50	234.92
773.82	234.84
774.15	234.67
774.47	234.52
774.80	234.46
775.12	234.42
775.45	234.31
775.77	234.22
776.09	234.14
776.42	234.04
776.74	234.03
777.07	233.95
777.39	233.86
777.72	233.74
778.04	233.68
778.36	233.60
778.69	233.57
779.01	233.51
779.33	233.35
779.66	233.19
779.98	233.08
780.31	232.98
780.63	232.94
780.95	232.92
781.28	232.86
781.60	232.75
781.92	232.66
782.25	232.63
782.57	232.57
782.89	232.46
783.22	232.38
783.54	232.29
783.86	232.22
784.19	232.16
784.51	232.14
784.83	232.05
785.16	232.00
785.48	231.93
785.80	231.88
786.12	231.81
786.45	231.75
786.77	231.74
787.09	231.71
