SpectraSuite Data File
++++++++++++++++++++++++++++++++++++
Date: Fri Feb 01 15:21:29 EST 2013
User: group
Dark Spectrum Present: No
Reference Spectrum Present: No
Number of Sampled Component Spectra: 1
Spectrometers: USB2E7196
Integration Time (usec): 35000 (USB2E7196)
Spectra Averaged: 100 (USB2E7196)
Boxcar Smoothing: 10 (USB2E7196)
Correct for Electrical Dark: No (USB2E7196)
Strobe/Lamp Enabled: No (USB2E7196)
Correct for Detector Non-linearity: No (USB2E7196)
Correct for Stray Light: No (USB2E7196)
Number of Pixels in Processed Spectrum: 2048
>>>>>Begin Processed Spectral Data<<<<<
339.09	0.00
339.48	215.22
339.86	216.64
340.24	217.68
340.63	219.57
341.01	222.55
341.39	221.95
341.78	223.42
342.16	224.25
342.54	225.03
342.93	213.44
343.31	224.24
343.69	224.76
344.07	225.24
344.46	225.68
344.84	226.07
345.22	226.29
345.60	226.57
345.99	226.76
346.37	226.91
346.75	227.00
347.13	227.09
347.52	227.14
347.90	227.22
348.28	227.24
348.66	227.30
349.05	227.28
349.43	227.29
349.81	227.33
350.19	227.37
350.57	227.43
350.96	227.52
351.34	227.57
351.72	227.65
352.10	227.73
352.48	227.80
352.87	227.86
353.25	227.94
353.63	227.98
354.01	228.02
354.39	228.07
354.77	228.17
355.15	228.26
355.54	228.29
355.92	228.32
356.30	228.41
356.68	228.53
357.06	228.64
357.44	228.69
357.82	228.72
358.20	228.82
358.58	228.88
358.97	228.96
359.35	229.04
359.73	229.17
360.11	229.18
360.49	229.22
360.87	229.22
361.25	229.26
361.63	229.34
362.01	229.40
362.39	229.42
362.77	229.44
363.15	229.45
363.53	229.49
363.91	229.47
364.29	229.48
364.67	229.42
365.05	229.40
365.43	229.41
365.81	229.46
366.19	229.50
366.57	229.55
366.95	229.52
367.33	229.48
367.71	229.41
368.09	229.46
368.47	229.45
368.85	229.44
369.23	229.40
369.61	229.33
369.99	229.32
370.37	229.35
370.75	229.36
371.13	229.32
371.51	229.24
371.89	229.24
372.27	229.18
372.65	229.11
373.03	229.10
373.41	229.06
373.78	228.98
374.16	228.87
374.54	228.75
374.92	228.68
375.30	228.62
375.68	228.57
376.06	228.47
376.44	228.40
376.82	228.35
377.19	228.29
377.57	228.21
377.95	228.10
378.33	228.01
378.71	227.87
379.09	227.78
379.47	227.76
379.84	227.68
380.22	227.60
380.60	227.54
380.98	227.43
381.36	227.37
381.73	227.26
382.11	227.20
382.49	227.15
382.87	227.08
383.25	227.02
383.62	227.07
384.00	226.98
384.38	226.93
384.76	226.88
385.13	226.86
385.51	226.82
385.89	226.77
386.27	226.72
386.64	226.69
387.02	226.66
387.40	226.60
387.78	226.57
388.15	226.52
388.53	226.47
388.91	226.47
389.29	226.41
389.66	226.46
390.04	226.40
390.42	226.42
390.79	226.42
391.17	226.41
391.55	226.28
391.92	226.30
392.30	226.28
392.68	226.29
393.05	226.26
393.43	226.25
393.81	226.29
394.18	226.29
394.56	226.33
394.94	226.36
395.31	226.36
395.69	226.40
396.06	226.48
396.44	226.53
396.82	226.54
397.19	226.65
397.57	226.64
397.95	226.74
398.32	226.74
398.70	226.80
399.07	226.88
399.45	226.94
399.82	227.00
400.20	227.09
400.58	227.13
400.95	227.18
401.33	227.32
401.70	227.44
402.08	227.55
402.45	227.62
402.83	227.77
403.20	227.91
403.58	228.03
403.95	228.17
404.33	228.30
404.71	228.45
405.08	228.60
405.46	228.72
405.83	228.87
406.21	229.05
406.58	229.24
406.96	229.39
407.33	229.60
407.70	229.82
408.08	230.06
408.45	230.34
408.83	230.64
409.20	230.86
409.58	231.08
409.95	231.33
410.33	231.59
410.70	231.83
411.08	232.12
411.45	232.43
411.82	232.70
412.20	233.05
412.57	233.46
412.95	233.80
413.32	234.26
413.69	234.69
414.07	235.09
414.44	235.56
414.82	236.06
415.19	236.59
415.56	237.12
415.94	237.70
416.31	238.31
416.68	238.94
417.06	239.63
417.43	240.29
417.81	241.07
418.18	241.86
418.55	242.73
418.93	243.61
419.30	244.50
419.67	245.49
420.04	246.44
420.42	247.40
420.79	248.60
421.16	249.75
421.54	250.97
421.91	252.20
422.28	253.46
422.66	254.78
423.03	256.11
423.40	257.44
423.77	258.83
424.15	260.22
424.52	261.71
424.89	263.30
425.26	264.88
425.64	266.33
426.01	267.91
426.38	269.53
426.75	271.20
427.13	272.91
427.50	274.72
427.87	276.60
428.24	278.48
428.61	280.21
428.99	282.15
429.36	284.25
429.73	286.33
430.10	288.34
430.47	290.43
430.85	292.55
431.22	294.84
431.59	297.23
431.96	299.50
432.33	301.95
432.70	304.35
433.08	307.16
433.45	309.80
433.82	312.43
434.19	315.33
434.56	318.14
434.93	320.80
435.30	323.38
435.68	326.32
436.05	329.16
436.42	331.95
436.79	334.47
437.16	337.16
437.53	339.95
437.90	342.80
438.27	345.55
438.64	348.38
439.01	350.96
439.38	353.19
439.75	355.38
440.13	357.83
440.50	360.17
440.87	361.99
441.24	363.94
441.61	366.09
441.98	367.61
442.35	369.41
442.72	371.26
443.09	373.06
443.46	374.03
443.83	374.61
444.20	375.14
444.57	375.95
444.94	376.20
445.31	376.51
445.68	376.82
446.05	376.84
446.42	376.45
446.79	376.03
447.16	375.52
447.53	375.20
447.90	374.09
448.27	372.90
448.64	371.31
449.01	370.14
449.37	368.19
449.74	366.23
450.11	363.99
450.48	361.54
450.85	359.01
451.22	356.88
451.59	354.83
451.96	352.90
452.33	350.30
452.70	347.96
453.07	345.20
453.43	342.32
453.80	339.60
454.17	336.92
454.54	334.34
454.91	331.64
455.28	328.98
455.65	326.50
456.02	324.04
456.38	321.90
456.75	319.24
457.12	316.95
457.49	314.74
457.86	312.57
458.23	310.71
458.59	308.68
458.96	306.55
459.33	304.73
459.70	302.85
460.07	301.32
460.43	299.59
460.80	297.94
461.17	296.50
461.54	295.00
461.91	293.54
462.27	292.12
462.64	290.88
463.01	289.53
463.38	288.21
463.74	286.85
464.11	285.69
464.48	284.68
464.85	283.56
465.21	282.70
465.58	281.78
465.95	280.65
466.32	279.74
466.68	278.83
467.05	277.91
467.42	277.01
467.78	276.09
468.15	275.21
468.52	274.54
468.88	273.65
469.25	272.84
469.62	272.22
469.98	271.56
470.35	270.91
470.72	270.30
471.08	269.64
471.45	269.12
471.82	268.56
472.18	267.97
472.55	267.57
472.92	267.05
473.28	266.55
473.65	266.12
474.02	265.69
474.38	265.35
474.75	265.04
475.11	264.69
475.48	264.45
475.85	264.21
476.21	263.98
476.58	263.81
476.94	263.66
477.31	263.46
477.67	263.30
478.04	263.19
478.41	263.13
478.77	263.15
479.14	263.07
479.50	263.09
479.87	263.17
480.23	263.24
480.60	263.31
480.96	263.44
481.33	263.60
481.69	263.78
482.06	263.98
482.42	264.16
482.79	264.39
483.15	264.70
483.52	265.08
483.88	265.42
484.25	265.77
484.61	266.22
484.98	266.68
485.34	267.22
485.71	267.81
486.07	268.41
486.44	268.98
486.80	269.67
487.17	270.37
487.53	271.17
487.90	271.99
488.26	272.90
488.62	273.86
488.99	274.86
489.35	275.91
489.72	276.99
490.08	278.18
490.44	279.46
490.81	280.76
491.17	282.11
491.54	283.57
491.90	285.10
492.26	286.74
492.63	288.46
492.99	290.26
493.36	292.13
493.72	294.14
494.08	296.26
494.45	298.49
494.81	300.87
495.17	303.28
495.54	305.85
495.90	308.50
496.26	311.33
496.63	314.29
496.99	317.38
497.35	320.63
497.72	323.98
498.08	327.46
498.44	331.12
498.80	335.00
499.17	339.00
499.53	343.17
499.89	347.51
500.26	352.02
500.62	356.67
500.98	361.67
501.34	366.78
501.71	372.08
502.07	377.53
502.43	383.16
502.79	388.95
503.16	395.00
503.52	401.28
503.88	407.64
504.24	414.27
504.60	421.17
504.97	428.30
505.33	435.61
505.69	443.33
506.05	451.13
506.41	459.09
506.78	467.29
507.14	475.73
507.50	484.47
507.86	493.56
508.22	502.69
508.59	511.90
508.95	521.49
509.31	531.33
509.67	541.47
510.03	551.77
510.39	562.41
510.75	573.31
511.12	584.24
511.48	595.53
511.84	607.02
512.20	618.57
512.56	630.56
512.92	642.80
513.28	655.10
513.64	667.59
514.00	680.25
514.37	693.24
514.73	706.34
515.09	719.32
515.45	732.59
515.81	746.28
516.17	760.19
516.53	774.29
516.89	788.44
517.25	802.58
517.61	817.06
517.97	831.52
518.33	845.91
518.69	860.70
519.05	875.81
519.41	890.98
519.77	906.56
520.13	922.03
520.49	937.50
520.85	953.02
521.21	968.86
521.57	985.21
521.93	1001.03
522.29	1017.59
522.65	1034.00
523.01	1050.31
523.37	1066.37
523.73	1082.61
524.09	1098.79
524.45	1115.18
524.81	1131.92
525.17	1148.73
525.53	1165.67
525.89	1182.69
526.25	1199.63
526.61	1216.10
526.97	1232.77
527.33	1249.25
527.68	1265.96
528.04	1282.54
528.40	1299.28
528.76	1316.35
529.12	1332.96
529.48	1349.86
529.84	1365.94
530.20	1382.61
530.56	1399.64
530.91	1417.19
531.27	1434.09
531.63	1450.55
531.99	1467.28
532.35	1483.28
532.71	1499.26
533.07	1515.60
533.42	1531.41
533.78	1547.45
534.14	1563.72
534.50	1579.35
534.86	1595.39
535.21	1610.56
535.57	1626.39
535.93	1641.87
536.29	1656.72
536.65	1671.87
537.00	1686.74
537.36	1701.99
537.72	1716.46
538.08	1730.91
538.44	1744.49
538.79	1758.47
539.15	1772.30
539.51	1786.01
539.87	1800.47
540.22	1814.21
540.58	1827.99
540.94	1841.54
541.29	1854.64
541.65	1867.40
542.01	1880.53
542.37	1892.83
542.72	1905.27
543.08	1917.13
543.44	1929.63
543.79	1940.88
544.15	1951.92
544.51	1963.44
544.87	1974.36
545.22	1985.28
545.58	1995.66
545.94	2005.74
546.29	2015.57
546.65	2025.40
547.01	2034.68
547.36	2043.45
547.72	2051.99
548.07	2059.86
548.43	2068.00
548.79	2076.03
549.14	2083.56
549.50	2090.94
549.86	2098.78
550.21	2106.22
550.57	2113.49
550.92	2119.95
551.28	2127.10
551.64	2134.15
551.99	2140.65
552.35	2146.94
552.70	2153.12
553.06	2158.96
553.41	2165.16
553.77	2171.29
554.13	2177.30
554.48	2183.40
554.84	2188.80
555.19	2194.16
555.55	2199.26
555.90	2203.67
556.26	2208.41
556.61	2213.19
556.97	2217.38
557.32	2221.32
557.68	2225.45
558.03	2229.74
558.39	2233.58
558.74	2238.19
559.10	2241.97
559.45	2245.76
559.81	2250.24
560.16	2254.13
560.52	2257.36
560.87	2260.85
561.23	2263.44
561.58	2266.57
561.94	2269.09
562.29	2271.48
562.64	2274.06
563.00	2276.82
563.35	2280.47
563.71	2283.65
564.06	2286.70
564.42	2289.65
564.77	2292.07
565.12	2294.27
565.48	2295.94
565.83	2297.63
566.19	2298.89
566.54	2299.88
566.89	2300.94
567.25	2301.41
567.60	2302.69
567.96	2304.33
568.31	2305.12
568.66	2306.09
569.02	2306.60
569.37	2306.78
569.72	2307.51
570.08	2307.57
570.43	2307.41
570.78	2306.66
571.14	2305.10
571.49	2303.77
571.84	2303.47
572.20	2302.39
572.55	2301.31
572.90	2299.95
573.26	2298.55
573.61	2296.77
573.96	2294.98
574.31	2292.00
574.67	2288.76
575.02	2285.06
575.37	2281.55
575.72	2277.62
576.08	2274.38
576.43	2270.78
576.78	2267.07
577.13	2263.89
577.49	2260.73
577.84	2257.18
578.19	2253.37
578.54	2249.51
578.90	2245.21
579.25	2239.50
579.60	2234.34
579.95	2229.25
580.30	2224.10
580.66	2218.92
581.01	2213.91
581.36	2208.82
581.71	2204.39
582.06	2199.80
582.42	2195.22
582.77	2189.98
583.12	2185.33
583.47	2180.37
583.82	2175.29
584.17	2170.07
584.53	2164.45
584.88	2158.75
585.23	2152.84
585.58	2147.26
585.93	2141.85
586.28	2137.02
586.63	2131.85
586.98	2126.85
587.34	2122.08
587.69	2117.06
588.04	2111.58
588.39	2105.84
588.74	2099.43
589.09	2093.34
589.44	2086.65
589.79	2080.45
590.14	2074.77
590.49	2068.16
590.84	2061.66
591.19	2055.70
591.54	2049.22
591.89	2041.68
592.25	2034.73
592.60	2027.58
592.95	2019.91
593.30	2012.45
593.65	2004.73
594.00	1997.70
594.35	1990.35
594.70	1982.28
595.05	1974.98
595.40	1967.67
595.75	1959.97
596.10	1953.50
596.45	1946.62
596.80	1940.29
597.15	1933.66
597.50	1926.37
597.85	1919.93
598.19	1913.25
598.54	1906.03
598.89	1899.43
599.24	1893.52
599.59	1886.76
599.94	1880.39
600.29	1874.07
600.64	1867.45
600.99	1859.98
601.34	1853.01
601.69	1845.99
602.04	1838.86
602.39	1831.55
602.74	1824.64
603.08	1817.96
603.43	1811.25
603.78	1803.97
604.13	1796.68
604.48	1789.20
604.83	1782.45
605.18	1775.39
605.53	1767.30
605.87	1759.24
606.22	1751.84
606.57	1743.84
606.92	1736.49
607.27	1729.30
607.62	1722.22
607.96	1714.87
608.31	1708.18
608.66	1700.45
609.01	1692.86
609.36	1685.38
609.70	1677.32
610.05	1669.22
610.40	1661.40
610.75	1653.04
611.10	1645.28
611.44	1636.89
611.79	1629.09
612.14	1620.40
612.49	1611.31
612.83	1603.14
613.18	1595.08
613.53	1587.03
613.88	1578.64
614.22	1570.40
614.57	1561.90
614.92	1553.89
615.27	1546.29
615.61	1537.99
615.96	1530.13
616.31	1522.52
616.65	1515.16
617.00	1507.59
617.35	1500.06
617.70	1491.72
618.04	1483.17
618.39	1474.88
618.74	1467.38
619.08	1459.03
619.43	1451.38
619.78	1444.43
620.12	1437.12
620.47	1429.55
620.82	1421.27
621.16	1413.82
621.51	1406.28
621.85	1398.61
622.20	1390.08
622.55	1381.83
622.89	1374.00
623.24	1366.38
623.59	1359.01
623.93	1351.46
624.28	1344.25
624.62	1336.68
624.97	1329.62
625.32	1322.91
625.66	1315.96
626.01	1308.71
626.35	1301.25
626.70	1293.50
627.04	1285.66
627.39	1277.99
627.73	1270.61
628.08	1263.75
628.43	1256.35
628.77	1248.96
629.12	1241.42
629.46	1234.25
629.81	1226.88
630.15	1219.65
630.50	1212.20
630.84	1204.03
631.19	1196.19
631.53	1188.66
631.88	1181.05
632.22	1173.35
632.57	1166.07
632.91	1158.44
633.26	1150.98
633.60	1143.66
633.95	1136.65
634.29	1129.69
634.64	1122.99
634.98	1115.57
635.32	1108.37
635.67	1101.93
636.01	1095.36
636.36	1088.52
636.70	1082.07
637.05	1075.49
637.39	1069.05
637.73	1062.57
638.08	1056.69
638.42	1050.66
638.77	1044.24
639.11	1037.74
639.45	1031.41
639.80	1024.75
640.14	1018.34
640.49	1011.89
640.83	1005.64
641.17	999.40
641.52	993.08
641.86	986.58
642.20	980.76
642.55	974.49
642.89	967.92
643.23	961.29
643.58	955.55
643.92	949.34
644.26	943.17
644.61	937.14
644.95	931.13
645.29	924.54
645.64	917.78
645.98	911.41
646.32	905.57
646.66	899.56
647.01	893.79
647.35	888.24
647.69	882.35
648.04	876.76
648.38	870.91
648.72	864.81
649.06	858.82
649.41	852.94
649.75	846.96
650.09	841.03
650.43	835.27
650.78	829.06
651.12	823.17
651.46	817.48
651.80	811.73
652.14	806.28
652.49	800.94
652.83	795.76
653.17	790.02
653.51	784.36
653.85	779.00
654.20	773.34
654.54	767.28
654.88	761.58
655.22	755.74
655.56	750.11
655.90	744.81
656.25	739.55
656.59	734.25
656.93	729.21
657.27	723.97
657.61	718.52
657.95	713.49
658.29	708.38
658.64	703.10
658.98	697.82
659.32	692.41
659.66	687.15
660.00	681.86
660.34	677.08
660.68	672.11
661.02	667.09
661.36	662.39
661.70	657.94
662.05	653.56
662.39	649.25
662.73	644.76
663.07	640.36
663.41	635.94
663.75	631.39
664.09	626.83
664.43	622.53
664.77	618.41
665.11	614.14
665.45	609.97
665.79	605.99
666.13	601.84
666.47	597.73
666.81	593.58
667.15	589.49
667.49	585.46
667.83	581.65
668.17	577.73
668.51	573.71
668.85	569.68
669.19	565.90
669.53	562.05
669.87	558.17
670.21	554.44
670.55	550.79
670.89	547.37
671.23	543.99
671.57	540.49
671.91	537.00
672.25	533.51
672.58	530.10
672.92	526.69
673.26	523.55
673.60	520.42
673.94	517.35
674.28	514.48
674.62	511.63
674.96	508.49
675.30	505.52
675.64	502.60
675.97	499.79
676.31	496.87
676.65	493.89
676.99	491.24
677.33	488.44
677.67	485.63
678.01	482.62
678.34	479.60
678.68	476.78
679.02	473.95
679.36	471.22
679.70	468.45
680.04	465.65
680.37	462.79
680.71	459.99
681.05	457.33
681.39	454.63
681.73	451.99
682.06	449.52
682.40	447.00
682.74	444.45
683.08	441.95
683.42	439.39
683.75	436.93
684.09	434.37
684.43	431.86
684.77	429.42
685.10	427.06
685.44	424.80
685.78	422.49
686.12	420.27
686.45	417.95
686.79	415.67
687.13	413.51
687.46	411.40
687.80	409.29
688.14	407.08
688.48	404.98
688.81	402.70
689.15	400.56
689.49	398.40
689.82	396.28
690.16	394.18
690.50	392.23
690.83	390.30
691.17	388.33
691.51	386.45
691.84	384.56
692.18	382.64
692.52	380.66
692.85	378.71
693.19	376.86
693.52	375.05
693.86	373.28
694.20	371.52
694.53	369.68
694.87	367.84
695.21	366.12
695.54	364.35
695.88	362.66
696.21	360.93
696.55	359.31
696.88	357.72
697.22	356.09
697.56	354.47
697.89	352.82
698.23	351.19
698.56	349.62
698.90	348.04
699.23	346.45
699.57	344.88
699.90	343.39
700.24	341.80
700.58	340.29
700.91	338.74
701.25	337.34
701.58	336.00
701.92	334.64
702.25	333.25
702.59	331.87
702.92	330.53
703.26	329.25
703.59	327.95
703.93	326.73
704.26	325.47
704.60	324.22
704.93	322.96
705.26	321.72
705.60	320.51
705.93	319.36
706.27	318.32
706.60	317.26
706.94	316.17
707.27	315.06
707.61	314.02
707.94	313.05
708.27	311.91
708.61	310.84
708.94	309.84
709.28	308.86
709.61	307.88
709.94	306.93
710.28	305.88
710.61	304.91
710.95	303.83
711.28	302.99
711.61	302.02
711.95	301.10
712.28	300.17
712.61	299.18
712.95	298.30
713.28	297.43
713.61	296.56
713.95	295.67
714.28	294.85
714.61	293.97
714.95	293.14
715.28	292.30
715.61	291.46
715.95	290.58
716.28	289.72
716.61	288.89
716.95	288.07
717.28	287.31
717.61	286.55
717.94	285.84
718.28	285.01
718.61	284.31
718.94	283.58
719.27	282.93
719.61	282.32
719.94	281.63
720.27	280.88
720.60	280.19
720.94	279.59
721.27	278.98
721.60	278.40
721.93	277.75
722.27	277.21
722.60	276.62
722.93	276.02
723.26	275.47
723.59	274.91
723.93	274.39
724.26	273.87
724.59	273.29
724.92	272.75
725.25	272.25
725.59	271.70
725.92	271.21
726.25	270.69
726.58	270.21
726.91	269.70
727.24	269.25
727.57	268.77
727.91	268.24
728.24	267.75
728.57	267.27
728.90	266.84
729.23	266.31
729.56	265.85
729.89	265.41
730.22	264.91
730.55	264.43
730.89	263.98
731.22	263.54
731.55	263.08
731.88	262.66
732.21	262.20
732.54	261.75
732.87	261.33
733.20	260.95
733.53	260.56
733.86	260.18
734.19	259.77
734.52	259.42
734.85	259.12
735.18	258.72
735.51	258.32
735.84	257.94
736.17	257.60
736.50	257.23
736.83	256.98
737.16	256.67
737.49	256.35
737.82	256.01
738.15	255.67
738.48	255.32
738.81	255.00
739.14	254.69
739.47	254.38
739.80	254.09
740.13	253.73
740.46	253.38
740.79	253.03
741.12	252.74
741.45	252.42
741.78	252.06
742.11	251.77
742.44	251.45
742.77	251.16
743.10	250.85
743.43	250.58
743.75	250.24
744.08	250.09
744.41	249.82
744.74	249.55
745.07	249.27
745.40	249.09
745.73	248.84
746.06	248.53
746.39	248.29
746.71	248.00
747.04	247.76
747.37	247.53
747.70	247.32
748.03	247.09
748.36	246.86
748.68	246.59
749.01	246.35
749.34	246.15
749.67	245.94
750.00	245.71
750.33	245.56
750.65	245.38
750.98	245.04
751.31	244.83
751.64	244.62
751.97	244.48
752.29	244.23
752.62	243.98
752.95	243.81
753.28	243.60
753.60	243.41
753.93	243.23
754.26	243.01
754.59	242.77
754.91	242.55
755.24	242.33
755.57	242.18
755.90	241.99
756.22	241.83
756.55	241.62
756.88	241.44
757.20	241.18
757.53	240.97
757.86	240.81
758.19	240.68
758.51	240.45
758.84	240.24
759.17	240.08
759.49	239.97
759.82	239.83
760.15	239.69
760.47	239.53
760.80	239.39
761.13	239.25
761.45	239.09
761.78	238.96
762.11	238.84
762.43	238.68
762.76	238.51
763.08	238.34
763.41	238.24
763.74	238.10
764.06	237.98
764.39	237.79
764.71	237.62
765.04	237.45
765.37	237.37
765.69	237.23
766.02	237.11
766.34	236.94
766.67	236.79
767.00	236.68
767.32	236.62
767.65	236.56
767.97	236.46
768.30	236.38
768.62	236.26
768.95	236.13
769.27	236.00
769.60	235.92
769.92	235.80
770.25	235.65
770.57	235.54
770.90	235.43
771.22	235.36
771.55	235.30
771.87	235.19
772.20	235.08
772.52	235.07
772.85	235.06
773.17	234.98
773.50	234.88
773.82	234.79
774.15	234.64
774.47	234.47
774.80	234.37
775.12	234.25
775.45	234.15
775.77	234.06
776.09	234.02
776.42	233.94
776.74	233.87
777.07	233.78
777.39	233.69
777.72	233.61
778.04	233.55
778.36	233.48
778.69	233.42
779.01	233.36
779.33	233.21
779.66	233.04
779.98	232.97
780.31	232.89
780.63	232.83
780.95	232.75
781.28	232.71
781.60	232.64
781.92	232.59
782.25	232.55
782.57	232.53
782.89	232.46
783.22	232.38
783.54	232.35
783.86	232.31
784.19	232.27
784.51	232.23
784.83	232.15
785.16	232.06
785.48	231.99
785.80	231.96
786.12	231.95
786.45	231.89
786.77	231.85
787.09	231.82
