SpectraSuite Data File
++++++++++++++++++++++++++++++++++++
Date: Fri Feb 01 15:44:46 EST 2013
User: group
Dark Spectrum Present: No
Reference Spectrum Present: No
Number of Sampled Component Spectra: 1
Spectrometers: USB2E7196
Integration Time (usec): 35000 (USB2E7196)
Spectra Averaged: 100 (USB2E7196)
Boxcar Smoothing: 10 (USB2E7196)
Correct for Electrical Dark: No (USB2E7196)
Strobe/Lamp Enabled: No (USB2E7196)
Correct for Detector Non-linearity: No (USB2E7196)
Correct for Stray Light: No (USB2E7196)
Number of Pixels in Processed Spectrum: 2048
>>>>>Begin Processed Spectral Data<<<<<
339.09	0.00
339.48	215.06
339.86	216.42
340.24	217.46
340.63	218.72
341.01	221.70
341.39	221.16
341.78	222.82
342.16	223.95
342.54	224.69
342.93	213.14
343.31	223.91
343.69	224.44
344.07	224.90
344.46	225.34
344.84	225.77
345.22	226.01
345.60	226.32
345.99	226.51
346.37	226.68
346.75	226.80
347.13	226.84
347.52	226.92
347.90	226.98
348.28	227.02
348.66	227.04
349.05	227.03
349.43	227.09
349.81	227.13
350.19	227.18
350.57	227.27
350.96	227.35
351.34	227.47
351.72	227.59
352.10	227.68
352.48	227.75
352.87	227.80
353.25	227.86
353.63	227.90
354.01	228.02
354.39	228.11
354.77	228.18
355.15	228.28
355.54	228.38
355.92	228.43
356.30	228.55
356.68	228.72
357.06	228.80
357.44	228.87
357.82	228.92
358.20	228.99
358.58	229.04
358.97	229.12
359.35	229.18
359.73	229.26
360.11	229.33
360.49	229.40
360.87	229.44
361.25	229.53
361.63	229.62
362.01	229.62
362.39	229.62
362.77	229.67
363.15	229.69
363.53	229.68
363.91	229.75
364.29	229.73
364.67	229.67
365.05	229.66
365.43	229.67
365.81	229.71
366.19	229.77
366.57	229.81
366.95	229.79
367.33	229.77
367.71	229.73
368.09	229.73
368.47	229.73
368.85	229.71
369.23	229.69
369.61	229.64
369.99	229.63
370.37	229.63
370.75	229.62
371.13	229.56
371.51	229.54
371.89	229.47
372.27	229.46
372.65	229.39
373.03	229.34
373.41	229.29
373.78	229.22
374.16	229.13
374.54	229.04
374.92	228.97
375.30	228.86
375.68	228.75
376.06	228.69
376.44	228.63
376.82	228.58
377.19	228.50
377.57	228.41
377.95	228.36
378.33	228.29
378.71	228.16
379.09	228.08
379.47	227.97
379.84	227.89
380.22	227.79
380.60	227.70
380.98	227.64
381.36	227.58
381.73	227.47
382.11	227.39
382.49	227.33
382.87	227.28
383.25	227.25
383.62	227.32
384.00	227.22
384.38	227.10
384.76	227.05
385.13	226.99
385.51	226.94
385.89	226.88
386.27	226.79
386.64	226.78
387.02	226.77
387.40	226.72
387.78	226.71
388.15	226.65
388.53	226.61
388.91	226.56
389.29	226.50
389.66	226.50
390.04	226.44
390.42	226.40
390.79	226.39
391.17	226.36
391.55	226.27
391.92	226.28
392.30	226.31
392.68	226.29
393.05	226.30
393.43	226.29
393.81	226.27
394.18	226.28
394.56	226.28
394.94	226.32
395.31	226.36
395.69	226.39
396.06	226.47
396.44	226.51
396.82	226.56
397.19	226.64
397.57	226.69
397.95	226.78
398.32	226.82
398.70	226.86
399.07	226.94
399.45	226.97
399.82	227.01
400.20	227.05
400.58	227.16
400.95	227.23
401.33	227.35
401.70	227.50
402.08	227.59
402.45	227.72
402.83	227.81
403.20	227.86
403.58	227.99
403.95	228.10
404.33	228.28
404.71	228.40
405.08	228.57
405.46	228.73
405.83	228.88
406.21	229.02
406.58	229.19
406.96	229.37
407.33	229.56
407.70	229.78
408.08	230.06
408.45	230.27
408.83	230.51
409.20	230.69
409.58	230.89
409.95	231.18
410.33	231.44
410.70	231.71
411.08	232.05
411.45	232.33
411.82	232.61
412.20	232.93
412.57	233.34
412.95	233.65
413.32	234.05
413.69	234.47
414.07	234.94
414.44	235.42
414.82	235.87
415.19	236.45
415.56	236.97
415.94	237.55
416.31	238.19
416.68	238.81
417.06	239.53
417.43	240.22
417.81	240.95
418.18	241.73
418.55	242.54
418.93	243.40
419.30	244.30
419.67	245.27
420.04	246.23
420.42	247.19
420.79	248.38
421.16	249.49
421.54	250.64
421.91	251.85
422.28	253.09
422.66	254.45
423.03	255.75
423.40	257.09
423.77	258.44
424.15	259.84
424.52	261.32
424.89	262.95
425.26	264.49
425.64	265.94
426.01	267.51
426.38	269.16
426.75	270.81
427.13	272.53
427.50	274.28
427.87	276.13
428.24	278.03
428.61	279.75
428.99	281.70
429.36	283.81
429.73	285.88
430.10	287.89
430.47	289.90
430.85	291.97
431.22	294.21
431.59	296.58
431.96	298.79
432.33	301.30
432.70	303.69
433.08	306.51
433.45	309.15
433.82	311.75
434.19	314.69
434.56	317.54
434.93	320.23
435.30	322.88
435.68	325.81
436.05	328.64
436.42	331.46
436.79	333.97
437.16	336.69
437.53	339.55
437.90	342.33
438.27	345.11
438.64	347.92
439.01	350.54
439.38	352.78
439.75	354.96
440.13	357.41
440.50	359.71
440.87	361.55
441.24	363.51
441.61	365.69
441.98	367.14
442.35	368.95
442.72	370.84
443.09	372.66
443.46	373.66
443.83	374.23
444.20	374.71
444.57	375.57
444.94	375.79
445.31	376.09
445.68	376.48
446.05	376.53
446.42	376.15
446.79	375.73
447.16	375.32
447.53	375.02
447.90	373.87
448.27	372.76
448.64	371.18
449.01	370.00
449.37	368.04
449.74	366.15
450.11	363.88
450.48	361.34
450.85	358.78
451.22	356.59
451.59	354.57
451.96	352.65
452.33	350.03
452.70	347.71
453.07	344.87
453.43	341.95
453.80	339.18
454.17	336.51
454.54	333.95
454.91	331.21
455.28	328.55
455.65	326.08
456.02	323.61
456.38	321.44
456.75	318.78
457.12	316.52
457.49	314.30
457.86	312.07
458.23	310.22
458.59	308.18
458.96	306.13
459.33	304.25
459.70	302.40
460.07	300.93
460.43	299.22
460.80	297.61
461.17	296.18
461.54	294.69
461.91	293.28
462.27	291.81
462.64	290.53
463.01	289.16
463.38	287.85
463.74	286.45
464.11	285.31
464.48	284.29
464.85	283.16
465.21	282.30
465.58	281.43
465.95	280.31
466.32	279.42
466.68	278.51
467.05	277.61
467.42	276.70
467.78	275.75
468.15	274.86
468.52	274.21
468.88	273.35
469.25	272.57
469.62	271.93
469.98	271.26
470.35	270.64
470.72	270.03
471.08	269.39
471.45	268.85
471.82	268.31
472.18	267.71
472.55	267.28
472.92	266.77
473.28	266.30
473.65	265.88
474.02	265.40
474.38	265.02
474.75	264.68
475.11	264.32
475.48	264.08
475.85	263.86
476.21	263.64
476.58	263.47
476.94	263.32
477.31	263.17
477.67	263.03
478.04	262.94
478.41	262.90
478.77	262.95
479.14	262.88
479.50	262.89
479.87	262.99
480.23	263.06
480.60	263.11
480.96	263.23
481.33	263.42
481.69	263.63
482.06	263.85
482.42	264.08
482.79	264.36
483.15	264.67
483.52	265.06
483.88	265.39
484.25	265.77
484.61	266.24
484.98	266.70
485.34	267.27
485.71	267.85
486.07	268.46
486.44	269.03
486.80	269.75
487.17	270.47
487.53	271.27
487.90	272.13
488.26	273.06
488.62	274.02
488.99	275.02
489.35	276.08
489.72	277.19
490.08	278.36
490.44	279.63
490.81	280.97
491.17	282.32
491.54	283.81
491.90	285.35
492.26	287.00
492.63	288.75
492.99	290.53
493.36	292.42
493.72	294.46
494.08	296.59
494.45	298.85
494.81	301.25
495.17	303.67
495.54	306.28
495.90	308.99
496.26	311.80
496.63	314.76
496.99	317.87
497.35	321.18
497.72	324.62
498.08	328.14
498.44	331.78
498.80	335.73
499.17	339.72
499.53	343.94
499.89	348.29
500.26	352.80
500.62	357.49
500.98	362.50
501.34	367.59
501.71	372.87
502.07	378.24
502.43	383.85
502.79	389.67
503.16	395.72
503.52	402.02
503.88	408.44
504.24	415.09
504.60	422.03
504.97	429.14
505.33	436.46
505.69	444.11
506.05	451.92
506.41	459.76
506.78	468.01
507.14	476.44
507.50	485.17
507.86	494.15
508.22	503.33
508.59	512.49
508.95	522.11
509.31	531.92
509.67	542.11
510.03	552.38
510.39	562.95
510.75	573.78
511.12	584.60
511.48	595.93
511.84	607.37
512.20	618.84
512.56	630.74
512.92	642.89
513.28	655.27
513.64	667.71
514.00	680.43
514.37	693.36
514.73	706.42
515.09	719.50
515.45	732.80
515.81	746.38
516.17	760.34
516.53	774.37
516.89	788.51
517.25	802.63
517.61	817.08
517.97	831.46
518.33	845.90
518.69	860.71
519.05	875.64
519.41	890.73
519.77	906.26
520.13	921.71
520.49	937.08
520.85	952.53
521.21	968.30
521.57	984.63
521.93	1000.38
522.29	1016.69
522.65	1032.81
523.01	1049.02
523.37	1065.00
523.73	1081.26
524.09	1097.39
524.45	1113.75
524.81	1130.50
525.17	1147.29
525.53	1164.25
525.89	1181.08
526.25	1198.06
526.61	1214.45
526.97	1231.20
527.33	1247.67
527.68	1264.24
528.04	1280.76
528.40	1297.35
528.76	1314.42
529.12	1330.86
529.48	1347.73
529.84	1363.85
530.20	1380.57
530.56	1397.67
530.91	1415.18
531.27	1431.82
531.63	1448.30
531.99	1464.81
532.35	1480.71
532.71	1496.70
533.07	1512.91
533.42	1528.90
533.78	1544.89
534.14	1561.21
534.50	1576.55
534.86	1592.45
535.21	1607.64
535.57	1623.70
535.93	1639.21
536.29	1654.02
536.65	1669.19
537.00	1683.93
537.36	1699.21
537.72	1713.75
538.08	1728.08
538.44	1741.83
538.79	1755.79
539.15	1769.43
539.51	1783.24
539.87	1797.68
540.22	1811.41
540.58	1825.28
540.94	1838.47
541.29	1851.31
541.65	1863.99
542.01	1877.30
542.37	1889.65
542.72	1902.23
543.08	1913.92
543.44	1926.30
543.79	1937.46
544.15	1948.48
544.51	1960.10
544.87	1971.08
545.22	1981.88
545.58	1992.07
545.94	2001.83
546.29	2011.66
546.65	2021.53
547.01	2030.75
547.36	2039.37
547.72	2047.78
548.07	2055.62
548.43	2064.05
548.79	2072.20
549.14	2079.74
549.50	2087.14
549.86	2094.86
550.21	2102.05
550.57	2109.24
550.92	2115.70
551.28	2122.68
551.64	2129.68
551.99	2136.21
552.35	2142.25
552.70	2148.31
553.06	2154.34
553.41	2160.68
553.77	2166.61
554.13	2172.68
554.48	2179.02
554.84	2184.47
555.19	2189.79
555.55	2194.85
555.90	2199.09
556.26	2203.93
556.61	2208.68
556.97	2212.90
557.32	2216.97
557.68	2221.10
558.03	2225.38
558.39	2229.21
558.74	2233.78
559.10	2237.75
559.45	2241.43
559.81	2245.90
560.16	2249.68
560.52	2252.79
560.87	2256.28
561.23	2259.13
561.58	2262.24
561.94	2264.58
562.29	2266.87
562.64	2269.49
563.00	2272.13
563.35	2275.62
563.71	2278.60
564.06	2281.70
564.42	2284.52
564.77	2286.91
565.12	2289.20
565.48	2291.09
565.83	2292.89
566.19	2294.17
566.54	2295.03
566.89	2295.98
567.25	2296.46
567.60	2297.84
567.96	2299.69
568.31	2300.55
568.66	2301.71
569.02	2302.13
569.37	2302.46
569.72	2303.38
570.08	2303.47
570.43	2303.47
570.78	2302.85
571.14	2301.37
571.49	2300.05
571.84	2299.62
572.20	2298.55
572.55	2297.43
572.90	2295.78
573.26	2294.36
573.61	2292.82
573.96	2290.86
574.31	2288.08
574.67	2285.14
575.02	2281.64
575.37	2278.15
575.72	2274.24
576.08	2270.77
576.43	2267.35
576.78	2263.66
577.13	2260.41
577.49	2257.42
577.84	2253.82
578.19	2250.07
578.54	2246.45
578.90	2242.20
579.25	2236.85
579.60	2231.84
579.95	2226.81
580.30	2221.77
580.66	2216.69
581.01	2211.76
581.36	2206.96
581.71	2202.74
582.06	2198.10
582.42	2193.46
582.77	2188.38
583.12	2183.82
583.47	2179.16
583.82	2174.18
584.17	2168.99
584.53	2163.56
584.88	2157.82
585.23	2152.15
585.58	2146.80
585.93	2141.34
586.28	2136.73
586.63	2131.59
586.98	2126.44
587.34	2121.96
587.69	2117.13
588.04	2111.77
588.39	2106.07
588.74	2099.66
589.09	2093.42
589.44	2086.72
589.79	2080.75
590.14	2075.18
590.49	2068.55
590.84	2062.06
591.19	2056.12
591.54	2049.74
591.89	2042.33
592.25	2035.51
592.60	2028.24
592.95	2020.62
593.30	2013.23
593.65	2005.57
594.00	1998.37
594.35	1991.17
594.70	1982.94
595.05	1975.69
595.40	1968.37
595.75	1960.76
596.10	1954.41
596.45	1947.67
596.80	1941.57
597.15	1935.06
597.50	1927.72
597.85	1921.34
598.19	1914.62
598.54	1907.41
598.89	1900.69
599.24	1894.78
599.59	1888.03
599.94	1881.89
600.29	1875.58
600.64	1869.00
600.99	1861.43
601.34	1854.69
601.69	1847.75
602.04	1840.85
602.39	1833.51
602.74	1826.63
603.08	1819.85
603.43	1813.17
603.78	1805.86
604.13	1798.56
604.48	1791.08
604.83	1784.20
605.18	1777.14
605.53	1769.17
605.87	1761.13
606.22	1753.90
606.57	1745.90
606.92	1738.57
607.27	1731.34
607.62	1724.24
607.96	1716.93
608.31	1710.23
608.66	1702.53
609.01	1694.92
609.36	1687.26
609.70	1679.22
610.05	1671.23
610.40	1663.57
610.75	1655.17
611.10	1647.33
611.44	1638.92
611.79	1630.96
612.14	1622.15
612.49	1612.92
612.83	1604.48
613.18	1596.38
613.53	1588.24
613.88	1579.59
614.22	1571.30
614.57	1562.62
614.92	1554.59
615.27	1546.98
615.61	1538.79
615.96	1530.81
616.31	1523.24
616.65	1516.01
617.00	1508.51
617.35	1500.72
617.70	1492.42
618.04	1483.90
618.39	1475.89
618.74	1468.28
619.08	1460.00
619.43	1452.65
619.78	1445.85
620.12	1438.72
620.47	1431.16
620.82	1422.94
621.16	1415.73
621.51	1408.13
621.85	1400.51
622.20	1392.11
622.55	1383.77
622.89	1375.88
623.24	1368.21
623.59	1360.82
623.93	1353.18
624.28	1345.92
624.62	1338.44
624.97	1331.30
625.32	1324.51
625.66	1317.45
626.01	1310.21
626.35	1302.67
626.70	1294.79
627.04	1287.01
627.39	1279.22
627.73	1271.77
628.08	1264.79
628.43	1257.38
628.77	1250.03
629.12	1242.52
629.46	1235.36
629.81	1228.04
630.15	1220.78
630.50	1213.36
630.84	1205.09
631.19	1197.18
631.53	1189.74
631.88	1182.23
632.22	1174.57
632.57	1167.27
632.91	1159.65
633.26	1152.23
633.60	1145.01
633.95	1137.96
634.29	1130.92
634.64	1124.25
634.98	1116.96
635.32	1109.89
635.67	1103.38
636.01	1096.73
636.36	1089.90
636.70	1083.35
637.05	1076.66
637.39	1070.19
637.73	1063.74
638.08	1057.94
638.42	1052.01
638.77	1045.42
639.11	1038.79
639.45	1032.37
639.80	1025.74
640.14	1019.38
640.49	1012.94
640.83	1006.55
641.17	1000.25
641.52	993.91
641.86	987.45
642.20	981.60
642.55	975.32
642.89	968.79
643.23	962.37
643.58	956.69
643.92	950.41
644.26	944.30
644.61	938.34
644.95	932.25
645.29	925.56
645.64	918.77
645.98	912.48
646.32	906.63
646.66	900.61
647.01	894.96
647.35	889.30
647.69	883.42
648.04	877.85
648.38	872.10
648.72	866.12
649.06	860.03
649.41	854.22
649.75	848.22
650.09	842.32
650.43	836.42
650.78	830.16
651.12	824.22
651.46	818.57
651.80	812.79
652.14	807.36
652.49	802.03
652.83	796.91
653.17	791.26
653.51	785.52
653.85	780.08
654.20	774.33
654.54	768.26
654.88	762.51
655.22	756.66
655.56	750.95
655.90	745.52
656.25	740.28
656.59	734.84
656.93	729.72
657.27	724.49
657.61	719.03
657.95	713.97
658.29	708.88
658.64	703.65
658.98	698.39
659.32	692.99
659.66	687.78
660.00	682.43
660.34	677.43
660.68	672.51
661.02	667.53
661.36	662.74
661.70	658.29
662.05	653.86
662.39	649.55
662.73	645.11
663.07	640.70
663.41	636.27
663.75	631.78
664.09	627.21
664.43	622.84
664.77	618.75
665.11	614.47
665.45	610.36
665.79	606.21
666.13	602.02
666.47	597.97
666.81	593.80
667.15	589.65
667.49	585.79
667.83	582.07
668.17	578.12
668.51	574.12
668.85	570.09
669.19	566.32
669.53	562.45
669.87	558.52
670.21	554.85
670.55	551.19
670.89	547.78
671.23	544.36
671.57	540.81
671.91	537.28
672.25	533.85
672.58	530.33
672.92	527.02
673.26	523.89
673.60	520.70
673.94	517.61
674.28	514.81
674.62	511.83
674.96	508.74
675.30	505.85
675.64	502.97
675.97	500.15
676.31	497.34
676.65	494.40
676.99	491.78
677.33	488.87
677.67	486.05
678.01	483.05
678.34	480.05
678.68	477.19
679.02	474.35
679.36	471.58
679.70	468.92
680.04	466.11
680.37	463.25
680.71	460.48
681.05	457.93
681.39	455.19
681.73	452.58
682.06	449.98
682.40	447.44
682.74	444.89
683.08	442.38
683.42	439.73
683.75	437.24
684.09	434.67
684.43	432.27
684.77	429.86
685.10	427.52
685.44	425.25
685.78	422.93
686.12	420.70
686.45	418.40
686.79	416.04
687.13	413.86
687.46	411.71
687.80	409.55
688.14	407.32
688.48	405.23
688.81	402.95
689.15	400.79
689.49	398.71
689.82	396.64
690.16	394.52
690.50	392.63
690.83	390.71
691.17	388.72
691.51	386.81
691.84	384.95
692.18	382.97
692.52	380.97
692.85	379.12
693.19	377.28
693.52	375.48
693.86	373.72
694.20	371.95
694.53	370.15
694.87	368.27
695.21	366.46
695.54	364.66
695.88	362.97
696.21	361.30
696.55	359.57
696.88	357.85
697.22	356.18
697.56	354.53
697.89	352.88
698.23	351.27
698.56	349.65
698.90	348.07
699.23	346.41
699.57	344.86
699.90	343.31
700.24	341.74
700.58	340.21
700.91	338.68
701.25	337.20
701.58	335.83
701.92	334.49
702.25	333.08
702.59	331.70
702.92	330.35
703.26	329.04
703.59	327.75
703.93	326.56
704.26	325.37
704.60	324.05
704.93	322.80
705.26	321.59
705.60	320.44
705.93	319.25
706.27	318.20
706.60	317.16
706.94	316.07
707.27	314.90
707.61	313.83
707.94	312.80
708.27	311.74
708.61	310.61
708.94	309.61
709.28	308.64
709.61	307.67
709.94	306.74
710.28	305.71
710.61	304.76
710.95	303.76
711.28	302.81
711.61	301.89
711.95	300.95
712.28	299.96
712.61	298.96
712.95	298.05
713.28	297.19
713.61	296.27
713.95	295.40
714.28	294.61
714.61	293.73
714.95	292.92
715.28	292.02
715.61	291.24
715.95	290.38
716.28	289.55
716.61	288.71
716.95	287.90
717.28	287.16
717.61	286.37
717.94	285.61
718.28	284.81
718.61	284.09
718.94	283.36
719.27	282.74
719.61	282.11
719.94	281.45
720.27	280.74
720.60	280.07
720.94	279.46
721.27	278.83
721.60	278.26
721.93	277.65
722.27	277.14
722.60	276.53
722.93	275.98
723.26	275.45
723.59	274.92
723.93	274.38
724.26	273.83
724.59	273.31
724.92	272.77
725.25	272.27
725.59	271.74
725.92	271.27
726.25	270.77
726.58	270.26
726.91	269.78
727.24	269.32
727.57	268.90
727.91	268.42
728.24	267.96
728.57	267.48
728.90	267.03
729.23	266.52
729.56	266.13
729.89	265.65
730.22	265.18
730.55	264.70
730.89	264.22
731.22	263.78
731.55	263.32
731.88	262.89
732.21	262.49
732.54	262.07
732.87	261.63
733.20	261.21
733.53	260.84
733.86	260.43
734.19	260.04
734.52	259.65
734.85	259.33
735.18	258.92
735.51	258.55
735.84	258.18
736.17	257.85
736.50	257.44
736.83	257.24
737.16	256.89
737.49	256.56
737.82	256.19
738.15	255.84
738.48	255.50
738.81	255.22
739.14	254.88
739.47	254.52
739.80	254.21
740.13	253.90
740.46	253.54
740.79	253.22
741.12	252.90
741.45	252.59
741.78	252.19
742.11	251.93
742.44	251.59
742.77	251.27
743.10	250.90
743.43	250.57
743.75	250.15
744.08	249.96
744.41	249.68
744.74	249.43
745.07	249.17
745.40	248.88
745.73	248.62
746.06	248.36
746.39	248.12
746.71	247.83
747.04	247.55
747.37	247.29
747.70	247.05
748.03	246.78
748.36	246.57
748.68	246.33
749.01	246.08
749.34	245.86
749.67	245.59
750.00	245.42
750.33	245.26
750.65	245.06
750.98	244.75
751.31	244.52
751.64	244.31
751.97	244.13
752.29	243.91
752.62	243.67
752.95	243.43
753.28	243.22
753.60	243.01
753.93	242.83
754.26	242.65
754.59	242.43
754.91	242.24
755.24	242.00
755.57	241.80
755.90	241.59
756.22	241.38
756.55	241.23
756.88	241.02
757.20	240.76
757.53	240.56
757.86	240.40
758.19	240.27
758.51	240.10
758.84	239.86
759.17	239.71
759.49	239.52
759.82	239.38
760.15	239.21
760.47	239.10
760.80	238.91
761.13	238.79
761.45	238.66
761.78	238.52
762.11	238.40
762.43	238.23
762.76	238.10
763.08	237.98
763.41	237.86
763.74	237.74
764.06	237.60
764.39	237.48
764.71	237.33
765.04	237.18
765.37	237.04
765.69	236.96
766.02	236.84
766.34	236.73
766.67	236.59
767.00	236.50
767.32	236.41
767.65	236.38
767.97	236.26
768.30	236.12
768.62	236.03
768.95	235.90
769.27	235.82
769.60	235.75
769.92	235.64
770.25	235.51
770.57	235.39
770.90	235.28
771.22	235.17
771.55	235.08
771.87	234.99
772.20	234.91
772.52	234.89
772.85	234.93
773.17	234.83
773.50	234.73
773.82	234.64
774.15	234.53
774.47	234.36
774.80	234.29
775.12	234.20
775.45	234.11
775.77	234.04
776.09	233.99
776.42	233.90
776.74	233.85
777.07	233.78
777.39	233.74
777.72	233.65
778.04	233.59
778.36	233.51
778.69	233.44
779.01	233.40
779.33	233.26
779.66	233.07
779.98	233.00
780.31	232.96
780.63	232.93
780.95	232.87
781.28	232.83
781.60	232.75
781.92	232.66
782.25	232.59
782.57	232.53
782.89	232.45
783.22	232.38
783.54	232.29
783.86	232.26
784.19	232.17
784.51	232.17
784.83	232.13
785.16	232.08
785.48	232.03
785.80	231.96
786.12	231.89
786.45	231.82
786.77	231.78
787.09	231.74
