SpectraSuite Data File
++++++++++++++++++++++++++++++++++++
Date: Fri Feb 01 17:01:26 EST 2013
User: group
Dark Spectrum Present: No
Reference Spectrum Present: No
Number of Sampled Component Spectra: 1
Spectrometers: USB2E7196
Integration Time (usec): 35000 (USB2E7196)
Spectra Averaged: 100 (USB2E7196)
Boxcar Smoothing: 10 (USB2E7196)
Correct for Electrical Dark: No (USB2E7196)
Strobe/Lamp Enabled: No (USB2E7196)
Correct for Detector Non-linearity: No (USB2E7196)
Correct for Stray Light: No (USB2E7196)
Number of Pixels in Processed Spectrum: 2048
>>>>>Begin Processed Spectral Data<<<<<
339.09	0.00
339.48	213.26
339.86	214.55
340.24	216.00
340.63	217.52
341.01	220.20
341.39	220.49
341.78	221.05
342.16	222.50
342.54	223.32
342.93	211.69
343.31	222.41
343.69	222.94
344.07	223.39
344.46	223.82
344.84	224.20
345.22	224.44
345.60	224.68
345.99	224.88
346.37	225.05
346.75	225.15
347.13	225.19
347.52	225.24
347.90	225.28
348.28	225.30
348.66	225.36
349.05	225.37
349.43	225.40
349.81	225.46
350.19	225.49
350.57	225.57
350.96	225.63
351.34	225.70
351.72	225.79
352.10	225.90
352.48	225.97
352.87	226.03
353.25	226.13
353.63	226.20
354.01	226.27
354.39	226.33
354.77	226.42
355.15	226.54
355.54	226.61
355.92	226.66
356.30	226.75
356.68	226.90
357.06	226.96
357.44	227.03
357.82	227.07
358.20	227.17
358.58	227.24
358.97	227.30
359.35	227.40
359.73	227.49
360.11	227.55
360.49	227.61
360.87	227.67
361.25	227.71
361.63	227.79
362.01	227.82
362.39	227.86
362.77	227.90
363.15	227.93
363.53	227.93
363.91	227.98
364.29	228.00
364.67	227.92
365.05	227.96
365.43	227.96
365.81	228.01
366.19	228.03
366.57	228.06
366.95	228.09
367.33	228.07
367.71	228.04
368.09	228.04
368.47	228.01
368.85	228.01
369.23	228.00
369.61	227.93
369.99	227.96
370.37	227.94
370.75	227.94
371.13	227.89
371.51	227.87
371.89	227.79
372.27	227.75
372.65	227.72
373.03	227.64
373.41	227.60
373.78	227.51
374.16	227.44
374.54	227.37
374.92	227.31
375.30	227.22
375.68	227.14
376.06	227.12
376.44	227.06
376.82	226.98
377.19	226.91
377.57	226.85
377.95	226.76
378.33	226.69
378.71	226.56
379.09	226.49
379.47	226.42
379.84	226.36
380.22	226.25
380.60	226.17
380.98	226.13
381.36	226.08
381.73	225.99
382.11	225.92
382.49	225.83
382.87	225.74
383.25	225.68
383.62	225.76
384.00	225.66
384.38	225.62
384.76	225.58
385.13	225.55
385.51	225.50
385.89	225.41
386.27	225.35
386.64	225.34
387.02	225.29
387.40	225.23
387.78	225.22
388.15	225.23
388.53	225.19
388.91	225.16
389.29	225.09
389.66	225.10
390.04	225.06
390.42	225.09
390.79	225.06
391.17	225.05
391.55	224.91
391.92	224.88
392.30	224.92
392.68	224.88
393.05	224.87
393.43	224.85
393.81	224.89
394.18	224.87
394.56	224.86
394.94	224.88
395.31	224.86
395.69	224.89
396.06	224.88
396.44	224.91
396.82	224.90
397.19	224.98
397.57	225.00
397.95	225.07
398.32	225.07
398.70	225.15
399.07	225.19
399.45	225.25
399.82	225.31
400.20	225.32
400.58	225.40
400.95	225.44
401.33	225.53
401.70	225.67
402.08	225.75
402.45	225.85
402.83	225.97
403.20	226.12
403.58	226.19
403.95	226.33
404.33	226.44
404.71	226.56
405.08	226.76
405.46	226.89
405.83	227.03
406.21	227.19
406.58	227.32
406.96	227.46
407.33	227.60
407.70	227.80
408.08	228.06
408.45	228.26
408.83	228.49
409.20	228.71
409.58	228.87
409.95	229.18
410.33	229.41
410.70	229.66
411.08	229.94
411.45	230.25
411.82	230.52
412.20	230.90
412.57	231.29
412.95	231.58
413.32	231.98
413.69	232.37
414.07	232.77
414.44	233.22
414.82	233.72
415.19	234.25
415.56	234.80
415.94	235.35
416.31	235.98
416.68	236.61
417.06	237.34
417.43	238.02
417.81	238.77
418.18	239.54
418.55	240.38
418.93	241.24
419.30	242.14
419.67	243.09
420.04	244.04
420.42	245.06
420.79	246.20
421.16	247.38
421.54	248.58
421.91	249.78
422.28	251.06
422.66	252.39
423.03	253.74
423.40	255.01
423.77	256.42
424.15	257.84
424.52	259.32
424.89	260.87
425.26	262.42
425.64	263.85
426.01	265.48
426.38	267.10
426.75	268.74
427.13	270.48
427.50	272.26
427.87	274.09
428.24	275.91
428.61	277.65
428.99	279.57
429.36	281.60
429.73	283.67
430.10	285.68
430.47	287.72
430.85	289.77
431.22	292.00
431.59	294.36
431.96	296.63
432.33	299.11
432.70	301.49
433.08	304.24
433.45	306.83
433.82	309.38
434.19	312.25
434.56	315.05
434.93	317.68
435.30	320.25
435.68	323.10
436.05	325.93
436.42	328.73
436.79	331.20
437.16	333.85
437.53	336.70
437.90	339.50
438.27	342.19
438.64	345.08
439.01	347.70
439.38	349.88
439.75	351.96
440.13	354.45
440.50	356.73
440.87	358.61
441.24	360.55
441.61	362.71
441.98	364.22
442.35	366.05
442.72	367.94
443.09	369.75
443.46	370.77
443.83	371.36
444.20	371.87
444.57	372.72
444.94	373.03
445.31	373.31
445.68	373.70
446.05	373.80
446.42	373.37
446.79	372.96
447.16	372.56
447.53	372.29
447.90	371.13
448.27	370.04
448.64	368.51
449.01	367.38
449.37	365.46
449.74	363.57
450.11	361.33
450.48	358.85
450.85	356.34
451.22	354.24
451.59	352.21
451.96	350.30
452.33	347.70
452.70	345.39
453.07	342.65
453.43	339.76
453.80	337.06
454.17	334.42
454.54	331.90
454.91	329.20
455.28	326.57
455.65	324.09
456.02	321.64
456.38	319.46
456.75	316.84
457.12	314.56
457.49	312.36
457.86	310.19
458.23	308.32
458.59	306.35
458.96	304.24
459.33	302.43
459.70	300.58
460.07	299.13
460.43	297.44
460.80	295.80
461.17	294.39
461.54	292.86
461.91	291.43
462.27	289.99
462.64	288.75
463.01	287.36
463.38	286.04
463.74	284.70
464.11	283.53
464.48	282.53
464.85	281.45
465.21	280.57
465.58	279.71
465.95	278.60
466.32	277.64
466.68	276.79
467.05	275.87
467.42	274.98
467.78	274.03
468.15	273.16
468.52	272.51
468.88	271.64
469.25	270.89
469.62	270.30
469.98	269.62
470.35	268.98
470.72	268.40
471.08	267.79
471.45	267.25
471.82	266.73
472.18	266.10
472.55	265.69
472.92	265.21
473.28	264.74
473.65	264.32
474.02	263.92
474.38	263.57
474.75	263.26
475.11	262.98
475.48	262.75
475.85	262.49
476.21	262.25
476.58	262.05
476.94	261.91
477.31	261.72
477.67	261.57
478.04	261.53
478.41	261.52
478.77	261.57
479.14	261.52
479.50	261.58
479.87	261.70
480.23	261.78
480.60	261.85
480.96	261.95
481.33	262.18
481.69	262.38
482.06	262.60
482.42	262.81
482.79	263.02
483.15	263.31
483.52	263.74
483.88	264.12
484.25	264.54
484.61	264.98
484.98	265.44
485.34	266.00
485.71	266.57
486.07	267.15
486.44	267.71
486.80	268.41
487.17	269.09
487.53	269.89
487.90	270.72
488.26	271.61
488.62	272.60
488.99	273.58
489.35	274.60
489.72	275.73
490.08	276.95
490.44	278.18
490.81	279.52
491.17	280.84
491.54	282.28
491.90	283.76
492.26	285.39
492.63	287.13
492.99	288.94
493.36	290.83
493.72	292.87
494.08	294.96
494.45	297.17
494.81	299.55
495.17	301.98
495.54	304.58
495.90	307.30
496.26	310.05
496.63	312.97
496.99	316.13
497.35	319.38
497.72	322.80
498.08	326.35
498.44	330.00
498.80	333.92
499.17	337.97
499.53	342.19
499.89	346.52
500.26	351.01
500.62	355.66
500.98	360.61
501.34	365.63
501.71	370.95
502.07	376.41
502.43	382.01
502.79	387.73
503.16	393.76
503.52	399.97
503.88	406.32
504.24	412.91
504.60	419.70
504.97	426.79
505.33	434.00
505.69	441.60
506.05	449.32
506.41	457.13
506.78	465.18
507.14	473.54
507.50	482.20
507.86	491.11
508.22	500.22
508.59	509.28
508.95	518.77
509.31	528.47
509.67	538.44
510.03	548.53
510.39	559.02
510.75	569.67
511.12	580.50
511.48	591.74
511.84	603.02
512.20	614.38
512.56	626.08
512.92	638.05
513.28	650.25
513.64	662.52
514.00	675.15
514.37	687.88
514.73	700.72
515.09	713.53
515.45	726.67
515.81	740.03
516.17	753.79
516.53	767.71
516.89	781.71
517.25	795.76
517.61	810.03
517.97	824.27
518.33	838.40
518.69	852.97
519.05	867.65
519.41	882.58
519.77	897.87
520.13	913.08
520.49	928.16
520.85	943.23
521.21	958.61
521.57	974.40
521.93	989.90
522.29	1005.87
522.65	1021.83
523.01	1037.66
523.37	1053.38
523.73	1069.36
524.09	1085.09
524.45	1100.93
524.81	1117.22
525.17	1133.59
525.53	1150.07
525.89	1166.69
526.25	1183.13
526.61	1199.08
526.97	1215.55
527.33	1231.64
527.68	1247.83
528.04	1263.91
528.40	1280.10
528.76	1296.80
529.12	1313.01
529.48	1329.56
529.84	1345.39
530.20	1361.72
530.56	1378.30
530.91	1395.40
531.27	1411.67
531.63	1427.74
531.99	1444.05
532.35	1459.62
532.71	1475.28
533.07	1491.14
533.42	1506.64
533.78	1522.33
534.14	1538.37
534.50	1553.27
534.86	1568.81
535.21	1583.77
535.57	1599.43
535.93	1614.66
536.29	1629.21
536.65	1644.02
537.00	1658.43
537.36	1673.44
537.72	1687.60
538.08	1701.62
538.44	1715.08
538.79	1728.69
539.15	1742.05
539.51	1755.56
539.87	1769.52
540.22	1782.81
540.58	1796.26
540.94	1809.35
541.29	1822.00
541.65	1834.37
542.01	1847.32
542.37	1859.33
542.72	1871.42
543.08	1882.95
543.44	1895.07
543.79	1906.07
544.15	1916.79
544.51	1928.24
544.87	1938.91
545.22	1949.59
545.58	1959.78
545.94	1969.30
546.29	1978.92
546.65	1988.72
547.01	1997.78
547.36	2006.27
547.72	2014.67
548.07	2022.46
548.43	2030.45
548.79	2038.31
549.14	2045.77
549.50	2052.90
549.86	2060.52
550.21	2067.85
550.57	2075.08
550.92	2081.59
551.28	2088.61
551.64	2095.61
551.99	2101.93
552.35	2107.99
552.70	2114.02
553.06	2120.04
553.41	2126.47
553.77	2132.61
554.13	2138.67
554.48	2144.78
554.84	2150.43
555.19	2155.65
555.55	2160.89
555.90	2165.30
556.26	2170.17
556.61	2174.93
556.97	2179.43
557.32	2183.62
557.68	2187.73
558.03	2192.05
558.39	2195.75
558.74	2200.34
559.10	2204.21
559.45	2208.00
559.81	2212.29
560.16	2216.16
560.52	2219.34
560.87	2222.75
561.23	2225.31
561.58	2228.26
561.94	2230.83
562.29	2233.21
562.64	2236.19
563.00	2238.70
563.35	2242.33
563.71	2245.54
564.06	2248.83
564.42	2251.64
564.77	2254.42
565.12	2256.84
565.48	2258.78
565.83	2261.02
566.19	2262.57
566.54	2263.50
566.89	2264.80
567.25	2265.71
567.60	2267.06
567.96	2268.95
568.31	2269.84
568.66	2271.30
569.02	2271.98
569.37	2272.50
569.72	2273.51
570.08	2273.82
570.43	2274.25
570.78	2274.02
571.14	2272.78
571.49	2271.57
571.84	2271.56
572.20	2270.66
572.55	2269.81
572.90	2268.30
573.26	2267.06
573.61	2265.42
573.96	2264.13
574.31	2261.41
574.67	2258.59
575.02	2255.33
575.37	2251.99
575.72	2248.60
576.08	2245.40
576.43	2242.41
576.78	2238.90
577.13	2235.95
577.49	2232.88
577.84	2229.55
578.19	2225.97
578.54	2222.48
578.90	2218.60
579.25	2213.22
579.60	2208.50
579.95	2203.63
580.30	2198.90
580.66	2193.87
581.01	2189.01
581.36	2184.26
581.71	2180.32
582.06	2176.26
582.42	2171.86
582.77	2167.07
583.12	2162.73
583.47	2158.33
583.82	2153.58
584.17	2148.72
584.53	2143.48
584.88	2138.12
585.23	2132.64
585.58	2127.29
585.93	2122.01
586.28	2117.20
586.63	2112.34
586.98	2107.38
587.34	2102.92
587.69	2098.22
588.04	2093.24
588.39	2087.96
588.74	2081.76
589.09	2075.76
589.44	2069.04
589.79	2063.26
590.14	2057.70
590.49	2051.31
590.84	2044.90
591.19	2039.05
591.54	2032.71
591.89	2025.61
592.25	2019.06
592.60	2012.03
592.95	2004.74
593.30	1997.70
593.65	1990.49
594.00	1983.68
594.35	1976.55
594.70	1968.61
595.05	1961.67
595.40	1954.45
595.75	1947.13
596.10	1941.03
596.45	1934.51
596.80	1928.62
597.15	1922.29
597.50	1915.57
597.85	1909.15
598.19	1902.72
598.54	1895.72
598.89	1889.18
599.24	1883.30
599.59	1876.82
599.94	1870.66
600.29	1864.46
600.64	1857.88
600.99	1850.62
601.34	1843.89
601.69	1837.10
602.04	1830.52
602.39	1823.33
602.74	1816.67
603.08	1810.05
603.43	1803.42
603.78	1796.10
604.13	1788.86
604.48	1781.71
604.83	1774.75
605.18	1768.04
605.53	1760.31
605.87	1752.52
606.22	1745.29
606.57	1737.46
606.92	1730.09
607.27	1723.12
607.62	1716.42
607.96	1709.43
608.31	1703.00
608.66	1695.56
609.01	1688.06
609.36	1680.54
609.70	1672.61
610.05	1664.65
610.40	1657.05
610.75	1648.90
611.10	1641.52
611.44	1633.26
611.79	1625.28
612.14	1616.87
612.49	1607.74
612.83	1599.24
613.18	1591.07
613.53	1583.27
613.88	1574.82
614.22	1566.67
614.57	1557.90
614.92	1549.68
615.27	1542.07
615.61	1533.69
615.96	1525.69
616.31	1518.06
616.65	1510.74
617.00	1503.33
617.35	1495.62
617.70	1487.38
618.04	1478.89
618.39	1470.63
618.74	1463.07
619.08	1454.81
619.43	1447.09
619.78	1440.18
620.12	1433.20
620.47	1425.78
620.82	1417.41
621.16	1410.05
621.51	1402.38
621.85	1394.93
622.20	1386.53
622.55	1378.16
622.89	1370.33
623.24	1362.59
623.59	1355.27
623.93	1347.77
624.28	1340.48
624.62	1333.12
624.97	1325.77
625.32	1318.95
625.66	1311.88
626.01	1304.65
626.35	1297.28
626.70	1289.64
627.04	1281.98
627.39	1274.18
627.73	1266.72
628.08	1259.97
628.43	1252.75
628.77	1245.57
629.12	1238.09
629.46	1231.04
629.81	1223.65
630.15	1216.48
630.50	1209.15
630.84	1201.04
631.19	1193.10
631.53	1185.69
631.88	1178.09
632.22	1170.66
632.57	1163.41
632.91	1155.91
633.26	1148.59
633.60	1141.26
633.95	1134.05
634.29	1126.94
634.64	1120.25
634.98	1112.94
635.32	1105.81
635.67	1099.09
636.01	1092.32
636.36	1085.40
636.70	1078.88
637.05	1072.30
637.39	1065.83
637.73	1059.37
638.08	1053.44
638.42	1047.48
638.77	1041.02
639.11	1034.50
639.45	1028.15
639.80	1021.56
640.14	1015.09
640.49	1008.58
640.83	1002.23
641.17	996.10
641.52	989.75
641.86	983.30
642.20	977.45
642.55	971.08
642.89	964.71
643.23	958.27
643.58	952.65
643.92	946.50
644.26	940.53
644.61	934.47
644.95	928.54
645.29	922.02
645.64	915.36
645.98	909.10
646.32	903.29
646.66	897.26
647.01	891.47
647.35	885.88
647.69	880.09
648.04	874.58
648.38	868.88
648.72	863.10
649.06	857.14
649.41	851.27
649.75	845.39
650.09	839.51
650.43	833.82
650.78	827.73
651.12	821.85
651.46	816.19
651.80	810.57
652.14	805.18
652.49	799.83
652.83	794.69
653.17	788.96
653.51	783.24
653.85	777.87
654.20	772.27
654.54	766.31
654.88	760.56
655.22	754.68
655.56	749.05
655.90	743.56
656.25	738.36
656.59	733.05
656.93	728.05
657.27	722.86
657.61	717.41
657.95	712.28
658.29	707.13
658.64	701.85
658.98	696.55
659.32	691.13
659.66	685.92
660.00	680.62
660.34	675.73
660.68	670.83
661.02	665.88
661.36	661.15
661.70	656.62
662.05	652.30
662.39	648.04
662.73	643.51
663.07	639.16
663.41	634.69
663.75	630.20
664.09	625.58
664.43	621.24
664.77	617.13
665.11	612.84
665.45	608.70
665.79	604.65
666.13	600.49
666.47	596.43
666.81	592.33
667.15	588.20
667.49	584.24
667.83	580.42
668.17	576.44
668.51	572.46
668.85	568.47
669.19	564.61
669.53	560.82
669.87	556.99
670.21	553.21
670.55	549.53
670.89	546.14
671.23	542.75
671.57	539.24
671.91	535.75
672.25	532.30
672.58	528.83
672.92	525.44
673.26	522.26
673.60	519.07
673.94	515.95
674.28	513.08
674.62	510.14
674.96	507.10
675.30	504.20
675.64	501.25
675.97	498.46
676.31	495.61
676.65	492.67
676.99	490.00
677.33	487.18
677.67	484.44
678.01	481.40
678.34	478.42
678.68	475.55
679.02	472.71
679.36	469.96
679.70	467.26
680.04	464.50
680.37	461.70
680.71	458.91
681.05	456.31
681.39	453.56
681.73	450.96
682.06	448.41
682.40	445.87
682.74	443.35
683.08	440.83
683.42	438.17
683.75	435.68
684.09	433.10
684.43	430.63
684.77	428.14
685.10	425.77
685.44	423.50
685.78	421.17
686.12	418.93
686.45	416.64
686.79	414.37
687.13	412.15
687.46	409.99
687.80	407.84
688.14	405.61
688.48	403.62
688.81	401.37
689.15	399.28
689.49	397.15
689.82	395.07
690.16	393.01
690.50	391.13
690.83	389.18
691.17	387.17
691.51	385.33
691.84	383.52
692.18	381.65
692.52	379.70
692.85	377.81
693.19	375.94
693.52	374.09
693.86	372.24
694.20	370.50
694.53	368.69
694.87	366.83
695.21	365.08
695.54	363.17
695.88	361.43
696.21	359.69
696.55	358.03
696.88	356.29
697.22	354.63
697.56	353.01
697.89	351.40
698.23	349.83
698.56	348.21
698.90	346.68
699.23	345.04
699.57	343.49
699.90	341.94
700.24	340.42
700.58	338.94
700.91	337.47
701.25	336.03
701.58	334.68
701.92	333.36
702.25	331.96
702.59	330.61
702.92	329.32
703.26	327.97
703.59	326.64
703.93	325.50
704.26	324.24
704.60	322.93
704.93	321.63
705.26	320.37
705.60	319.14
705.93	317.96
706.27	316.91
706.60	315.83
706.94	314.77
707.27	313.60
707.61	312.48
707.94	311.42
708.27	310.33
708.61	309.25
708.94	308.23
709.28	307.26
709.61	306.29
709.94	305.32
710.28	304.29
710.61	303.32
710.95	302.22
711.28	301.28
711.61	300.29
711.95	299.38
712.28	298.45
712.61	297.48
712.95	296.52
713.28	295.64
713.61	294.76
713.95	293.88
714.28	293.06
714.61	292.22
714.95	291.37
715.28	290.49
715.61	289.60
715.95	288.72
716.28	287.80
716.61	286.97
716.95	286.13
717.28	285.44
717.61	284.67
717.94	283.97
718.28	283.18
718.61	282.47
718.94	281.78
719.27	281.11
719.61	280.50
719.94	279.83
720.27	279.10
720.60	278.41
720.94	277.76
721.27	277.16
721.60	276.59
721.93	275.98
722.27	275.45
722.60	274.89
722.93	274.36
723.26	273.84
723.59	273.28
723.93	272.77
724.26	272.15
724.59	271.60
724.92	271.08
725.25	270.61
725.59	270.10
725.92	269.62
726.25	269.10
726.58	268.60
726.91	268.12
727.24	267.67
727.57	267.22
727.91	266.71
728.24	266.19
728.57	265.68
728.90	265.24
729.23	264.75
729.56	264.35
729.89	263.88
730.22	263.43
730.55	262.99
730.89	262.54
731.22	262.14
731.55	261.72
731.88	261.30
732.21	260.84
732.54	260.42
732.87	259.95
733.20	259.53
733.53	259.15
733.86	258.77
734.19	258.37
734.52	257.98
734.85	257.67
735.18	257.29
735.51	256.94
735.84	256.57
736.17	256.22
736.50	255.79
736.83	255.57
737.16	255.22
737.49	254.87
737.82	254.52
738.15	254.18
738.48	253.83
738.81	253.47
739.14	253.19
739.47	252.88
739.80	252.60
740.13	252.31
740.46	252.00
740.79	251.63
741.12	251.34
741.45	251.02
741.78	250.67
742.11	250.40
742.44	250.11
742.77	249.84
743.10	249.50
743.43	249.21
743.75	248.78
744.08	248.63
744.41	248.35
744.74	248.07
745.07	247.78
745.40	247.54
745.73	247.32
746.06	247.00
746.39	246.69
746.71	246.40
747.04	246.12
747.37	245.82
747.70	245.58
748.03	245.32
748.36	245.07
748.68	244.84
749.01	244.59
749.34	244.31
749.67	244.03
750.00	243.83
750.33	243.66
750.65	243.44
750.98	243.11
751.31	242.88
751.64	242.68
751.97	242.52
752.29	242.27
752.62	241.99
752.95	241.80
753.28	241.62
753.60	241.39
753.93	241.19
754.26	240.98
754.59	240.77
754.91	240.54
755.24	240.35
755.57	240.12
755.90	239.91
756.22	239.71
756.55	239.51
756.88	239.31
757.20	239.08
757.53	238.89
757.86	238.72
758.19	238.54
758.51	238.38
758.84	238.15
759.17	238.00
759.49	237.88
759.82	237.76
760.15	237.61
760.47	237.49
760.80	237.32
761.13	237.20
761.45	237.05
761.78	236.90
762.11	236.80
762.43	236.66
762.76	236.52
763.08	236.43
763.41	236.31
763.74	236.18
764.06	236.04
764.39	235.92
764.71	235.79
765.04	235.67
765.37	235.52
765.69	235.38
766.02	235.23
766.34	235.09
766.67	234.93
767.00	234.83
767.32	234.76
767.65	234.72
767.97	234.58
768.30	234.51
768.62	234.42
768.95	234.32
769.27	234.23
769.60	234.15
769.92	234.00
770.25	233.88
770.57	233.79
770.90	233.68
771.22	233.56
771.55	233.46
771.87	233.41
772.20	233.35
772.52	233.36
772.85	233.43
773.17	233.36
773.50	233.26
773.82	233.12
774.15	232.97
774.47	232.82
774.80	232.76
775.12	232.66
775.45	232.57
775.77	232.46
776.09	232.37
776.42	232.33
776.74	232.30
777.07	232.22
777.39	232.18
777.72	232.09
778.04	232.05
778.36	231.95
778.69	231.87
779.01	231.79
779.33	231.66
779.66	231.47
779.98	231.41
780.31	231.35
780.63	231.33
780.95	231.31
781.28	231.24
781.60	231.15
781.92	231.08
782.25	231.02
782.57	230.98
782.89	230.92
783.22	230.83
783.54	230.75
783.86	230.73
784.19	230.65
784.51	230.64
784.83	230.57
785.16	230.54
785.48	230.44
785.80	230.38
786.12	230.31
786.45	230.21
786.77	230.13
787.09	230.05
