SpectraSuite Data File
++++++++++++++++++++++++++++++++++++
Date: Fri Feb 01 15:13:24 EST 2013
User: group
Dark Spectrum Present: No
Reference Spectrum Present: No
Number of Sampled Component Spectra: 1
Spectrometers: USB2E7196
Integration Time (usec): 35000 (USB2E7196)
Spectra Averaged: 100 (USB2E7196)
Boxcar Smoothing: 10 (USB2E7196)
Correct for Electrical Dark: No (USB2E7196)
Strobe/Lamp Enabled: No (USB2E7196)
Correct for Detector Non-linearity: No (USB2E7196)
Correct for Stray Light: No (USB2E7196)
Number of Pixels in Processed Spectrum: 2048
>>>>>Begin Processed Spectral Data<<<<<
339.09	0.00
339.48	215.17
339.86	216.67
340.24	217.70
340.63	219.49
341.01	222.47
341.39	222.20
341.78	223.24
342.16	224.92
342.54	224.57
342.93	213.36
343.31	224.15
343.69	224.66
344.07	225.14
344.46	225.58
344.84	225.96
345.22	226.21
345.60	226.40
345.99	226.59
346.37	226.72
346.75	226.87
347.13	226.96
347.52	227.04
347.90	227.13
348.28	227.14
348.66	227.22
349.05	227.18
349.43	227.19
349.81	227.22
350.19	227.30
350.57	227.36
350.96	227.47
351.34	227.54
351.72	227.65
352.10	227.72
352.48	227.78
352.87	227.85
353.25	227.86
353.63	227.97
354.01	228.07
354.39	228.11
354.77	228.16
355.15	228.25
355.54	228.31
355.92	228.37
356.30	228.48
356.68	228.57
357.06	228.65
357.44	228.73
357.82	228.79
358.20	228.85
358.58	228.92
358.97	229.00
359.35	229.09
359.73	229.18
360.11	229.25
360.49	229.33
360.87	229.35
361.25	229.44
361.63	229.52
362.01	229.53
362.39	229.59
362.77	229.64
363.15	229.68
363.53	229.70
363.91	229.72
364.29	229.74
364.67	229.71
365.05	229.72
365.43	229.74
365.81	229.78
366.19	229.83
366.57	229.87
366.95	229.86
367.33	229.81
367.71	229.75
368.09	229.75
368.47	229.71
368.85	229.68
369.23	229.69
369.61	229.64
369.99	229.65
370.37	229.63
370.75	229.62
371.13	229.55
371.51	229.53
371.89	229.46
372.27	229.40
372.65	229.34
373.03	229.29
373.41	229.22
373.78	229.16
374.16	229.03
374.54	228.93
374.92	228.84
375.30	228.79
375.68	228.74
376.06	228.66
376.44	228.59
376.82	228.51
377.19	228.42
377.57	228.32
377.95	228.23
378.33	228.14
378.71	228.01
379.09	227.95
379.47	227.85
379.84	227.77
380.22	227.71
380.60	227.61
380.98	227.53
381.36	227.45
381.73	227.38
382.11	227.33
382.49	227.27
382.87	227.20
383.25	227.11
383.62	227.16
384.00	227.10
384.38	227.04
384.76	227.01
385.13	226.99
385.51	226.94
385.89	226.85
386.27	226.79
386.64	226.77
387.02	226.73
387.40	226.69
387.78	226.66
388.15	226.62
388.53	226.60
388.91	226.57
389.29	226.58
389.66	226.52
390.04	226.51
390.42	226.49
390.79	226.47
391.17	226.48
391.55	226.38
391.92	226.35
392.30	226.35
392.68	226.33
393.05	226.32
393.43	226.36
393.81	226.40
394.18	226.43
394.56	226.44
394.94	226.49
395.31	226.53
395.69	226.59
396.06	226.64
396.44	226.68
396.82	226.69
397.19	226.77
397.57	226.84
397.95	226.92
398.32	226.96
398.70	227.04
399.07	227.15
399.45	227.20
399.82	227.27
400.20	227.38
400.58	227.49
400.95	227.54
401.33	227.64
401.70	227.80
402.08	227.89
402.45	228.00
402.83	228.12
403.20	228.25
403.58	228.35
403.95	228.50
404.33	228.66
404.71	228.80
405.08	229.01
405.46	229.17
405.83	229.31
406.21	229.48
406.58	229.67
406.96	229.82
407.33	230.00
407.70	230.22
408.08	230.48
408.45	230.69
408.83	230.94
409.20	231.14
409.58	231.36
409.95	231.66
410.33	231.96
410.70	232.22
411.08	232.53
411.45	232.86
411.82	233.14
412.20	233.47
412.57	233.91
412.95	234.18
413.32	234.58
413.69	234.99
414.07	235.40
414.44	235.84
414.82	236.35
415.19	236.91
415.56	237.44
415.94	237.99
416.31	238.63
416.68	239.24
417.06	239.94
417.43	240.57
417.81	241.27
418.18	242.07
418.55	242.90
418.93	243.78
419.30	244.66
419.67	245.63
420.04	246.60
420.42	247.57
420.79	248.74
421.16	249.87
421.54	251.07
421.91	252.31
422.28	253.57
422.66	254.86
423.03	256.18
423.40	257.52
423.77	258.90
424.15	260.31
424.52	261.81
424.89	263.45
425.26	265.00
425.64	266.49
426.01	268.05
426.38	269.70
426.75	271.35
427.13	273.03
427.50	274.83
427.87	276.73
428.24	278.62
428.61	280.37
428.99	282.33
429.36	284.43
429.73	286.49
430.10	288.51
430.47	290.55
430.85	292.70
431.22	294.95
431.59	297.38
431.96	299.60
432.33	302.09
432.70	304.48
433.08	307.33
433.45	309.96
433.82	312.59
434.19	315.46
434.56	318.22
434.93	320.86
435.30	323.49
435.68	326.36
436.05	329.20
436.42	331.99
436.79	334.52
437.16	337.24
437.53	340.06
437.90	342.90
438.27	345.62
438.64	348.42
439.01	351.00
439.38	353.23
439.75	355.46
440.13	357.96
440.50	360.33
440.87	362.18
441.24	364.13
441.61	366.31
441.98	367.80
442.35	369.69
442.72	371.62
443.09	373.45
443.46	374.48
443.83	375.06
444.20	375.58
444.57	376.40
444.94	376.66
445.31	377.06
445.68	377.42
446.05	377.57
446.42	377.16
446.79	376.74
447.16	376.31
447.53	375.96
447.90	374.79
448.27	373.58
448.64	372.01
449.01	370.87
449.37	368.87
449.74	366.99
450.11	364.69
450.48	362.18
450.85	359.60
451.22	357.43
451.59	355.38
451.96	353.41
452.33	350.79
452.70	348.42
453.07	345.53
453.43	342.65
453.80	339.86
454.17	337.20
454.54	334.66
454.91	331.90
455.28	329.28
455.65	326.80
456.02	324.34
456.38	322.18
456.75	319.48
457.12	317.22
457.49	314.96
457.86	312.80
458.23	310.97
458.59	308.93
458.96	306.84
459.33	305.00
459.70	303.12
460.07	301.63
460.43	299.94
460.80	298.32
461.17	296.84
461.54	295.36
461.91	293.92
462.27	292.44
462.64	291.20
463.01	289.78
463.38	288.49
463.74	287.09
464.11	285.90
464.48	284.89
464.85	283.79
465.21	282.91
465.58	281.99
465.95	280.88
466.32	280.01
466.68	279.10
467.05	278.17
467.42	277.29
467.78	276.36
468.15	275.47
468.52	274.78
468.88	273.91
469.25	273.09
469.62	272.47
469.98	271.79
470.35	271.10
470.72	270.52
471.08	269.81
471.45	269.31
471.82	268.76
472.18	268.16
472.55	267.69
472.92	267.17
473.28	266.67
473.65	266.22
474.02	265.73
474.38	265.35
474.75	265.00
475.11	264.67
475.48	264.39
475.85	264.10
476.21	263.86
476.58	263.69
476.94	263.52
477.31	263.31
477.67	263.15
478.04	263.05
478.41	262.94
478.77	262.98
479.14	262.88
479.50	262.89
479.87	262.92
480.23	262.98
480.60	263.05
480.96	263.12
481.33	263.31
481.69	263.49
482.06	263.64
482.42	263.86
482.79	264.08
483.15	264.37
483.52	264.76
483.88	265.09
484.25	265.46
484.61	265.91
484.98	266.39
485.34	266.96
485.71	267.58
486.07	268.19
486.44	268.76
486.80	269.46
487.17	270.21
487.53	271.00
487.90	271.87
488.26	272.79
488.62	273.78
488.99	274.75
489.35	275.81
489.72	276.96
490.08	278.14
490.44	279.37
490.81	280.72
491.17	282.08
491.54	283.58
491.90	285.12
492.26	286.76
492.63	288.49
492.99	290.28
493.36	292.14
493.72	294.17
494.08	296.26
494.45	298.50
494.81	300.84
495.17	303.31
495.54	305.88
495.90	308.59
496.26	311.36
496.63	314.33
496.99	317.46
497.35	320.70
497.72	324.07
498.08	327.58
498.44	331.27
498.80	335.20
499.17	339.22
499.53	343.35
499.89	347.74
500.26	352.22
500.62	356.89
500.98	361.82
501.34	366.89
501.71	372.24
502.07	377.68
502.43	383.27
502.79	389.11
503.16	395.15
503.52	401.42
503.88	407.88
504.24	414.47
504.60	421.33
504.97	428.46
505.33	435.81
505.69	443.55
506.05	451.32
506.41	459.21
506.78	467.36
507.14	475.83
507.50	484.55
507.86	493.57
508.22	502.74
508.59	511.98
508.95	521.60
509.31	531.41
509.67	541.54
510.03	551.91
510.39	562.46
510.75	573.31
511.12	584.23
511.48	595.49
511.84	606.97
512.20	618.56
512.56	630.53
512.92	642.77
513.28	655.04
513.64	667.55
514.00	680.24
514.37	693.21
514.73	706.30
515.09	719.27
515.45	732.63
515.81	746.23
516.17	760.23
516.53	774.33
516.89	788.43
517.25	802.65
517.61	817.02
517.97	831.47
518.33	845.87
518.69	860.76
519.05	875.76
519.41	890.96
519.77	906.53
520.13	922.06
520.49	937.46
520.85	952.97
521.21	968.65
521.57	984.88
521.93	1000.74
522.29	1017.17
522.65	1033.46
523.01	1049.62
523.37	1065.72
523.73	1081.95
524.09	1098.12
524.45	1114.56
524.81	1131.16
525.17	1148.08
525.53	1165.07
525.89	1182.09
526.25	1198.86
526.61	1215.27
526.97	1232.00
527.33	1248.44
527.68	1265.06
528.04	1281.57
528.40	1298.26
528.76	1315.42
529.12	1332.05
529.48	1349.05
529.84	1365.19
530.20	1381.96
530.56	1399.18
530.91	1416.66
531.27	1433.49
531.63	1450.09
531.99	1466.76
532.35	1482.87
532.71	1498.76
533.07	1515.07
533.42	1531.03
533.78	1547.19
534.14	1563.60
534.50	1579.08
534.86	1595.00
535.21	1610.28
535.57	1626.32
535.93	1641.84
536.29	1656.74
536.65	1671.99
537.00	1686.78
537.36	1702.18
537.72	1716.84
538.08	1731.25
538.44	1745.08
538.79	1759.01
539.15	1772.79
539.51	1786.64
539.87	1801.00
540.22	1814.88
540.58	1828.73
540.94	1842.24
541.29	1855.25
541.65	1868.08
542.01	1881.46
542.37	1893.97
542.72	1906.43
543.08	1918.30
543.44	1930.91
543.79	1942.19
544.15	1953.17
544.51	1964.71
544.87	1975.61
545.22	1986.41
545.58	1996.70
545.94	2006.62
546.29	2016.64
546.65	2026.40
547.01	2035.64
547.36	2044.59
547.72	2053.14
548.07	2061.00
548.43	2069.08
548.79	2077.19
549.14	2084.65
549.50	2092.06
549.86	2099.77
550.21	2107.01
550.57	2114.21
550.92	2120.66
551.28	2127.74
551.64	2134.86
551.99	2141.50
552.35	2147.74
552.70	2153.93
553.06	2159.84
553.41	2166.08
553.77	2172.04
554.13	2178.26
554.48	2184.37
554.84	2189.53
555.19	2194.72
555.55	2199.85
555.90	2204.26
556.26	2208.82
556.61	2213.64
556.97	2217.62
557.32	2221.70
557.68	2225.94
558.03	2230.28
558.39	2234.09
558.74	2238.74
559.10	2242.56
559.45	2246.19
559.81	2250.51
560.16	2254.25
560.52	2257.61
560.87	2261.10
561.23	2263.78
561.58	2266.76
561.94	2269.27
562.29	2271.73
562.64	2274.41
563.00	2277.08
563.35	2280.68
563.71	2283.98
564.06	2287.10
564.42	2290.09
564.77	2292.44
565.12	2294.57
565.48	2296.16
565.83	2297.92
566.19	2299.03
566.54	2300.01
566.89	2300.98
567.25	2301.46
567.60	2302.77
567.96	2304.15
568.31	2304.99
568.66	2305.81
569.02	2306.15
569.37	2306.49
569.72	2307.21
570.08	2307.19
570.43	2307.07
570.78	2306.31
571.14	2304.71
571.49	2303.31
571.84	2302.87
572.20	2301.72
572.55	2300.64
572.90	2299.12
573.26	2297.60
573.61	2295.77
573.96	2293.91
574.31	2290.79
574.67	2287.62
575.02	2284.01
575.37	2280.66
575.72	2276.54
576.08	2273.41
576.43	2270.05
576.78	2266.21
577.13	2263.17
577.49	2260.06
577.84	2256.60
578.19	2252.79
578.54	2249.04
578.90	2244.75
579.25	2239.09
579.60	2233.89
579.95	2228.78
580.30	2223.70
580.66	2218.44
581.01	2213.46
581.36	2208.41
581.71	2204.15
582.06	2199.63
582.42	2194.83
582.77	2189.58
583.12	2184.98
583.47	2179.93
583.82	2174.76
584.17	2169.32
584.53	2163.55
584.88	2157.72
585.23	2151.59
585.58	2146.08
585.93	2140.60
586.28	2135.70
586.63	2130.64
586.98	2125.54
587.34	2120.85
587.69	2115.85
588.04	2110.53
588.39	2104.78
588.74	2098.22
589.09	2092.08
589.44	2085.21
589.79	2079.20
590.14	2073.45
590.49	2066.70
590.84	2060.23
591.19	2054.14
591.54	2047.62
591.89	2040.06
592.25	2033.32
592.60	2026.23
592.95	2018.47
593.30	2010.96
593.65	2003.39
594.00	1996.20
594.35	1988.96
594.70	1980.80
595.05	1973.46
595.40	1966.06
595.75	1958.50
596.10	1952.10
596.45	1945.18
596.80	1938.95
597.15	1932.22
597.50	1924.96
597.85	1918.65
598.19	1911.99
598.54	1904.87
598.89	1898.30
599.24	1892.40
599.59	1885.59
599.94	1879.25
600.29	1872.85
600.64	1866.18
600.99	1858.55
601.34	1851.71
601.69	1844.60
602.04	1837.62
602.39	1830.28
602.74	1823.40
603.08	1816.74
603.43	1810.06
603.78	1802.79
604.13	1795.53
604.48	1788.19
604.83	1781.31
605.18	1774.15
605.53	1765.99
605.87	1757.92
606.22	1750.69
606.57	1742.81
606.92	1735.41
607.27	1728.16
607.62	1721.24
607.96	1713.92
608.31	1707.24
608.66	1699.47
609.01	1691.89
609.36	1684.40
609.70	1676.40
610.05	1668.36
610.40	1660.55
610.75	1652.30
611.10	1644.55
611.44	1636.26
611.79	1628.28
612.14	1619.55
612.49	1610.47
612.83	1602.27
613.18	1594.24
613.53	1585.98
613.88	1577.32
614.22	1569.11
614.57	1560.67
614.92	1552.61
615.27	1545.07
615.61	1536.77
615.96	1528.91
616.31	1521.35
616.65	1513.82
617.00	1506.18
617.35	1498.57
617.70	1490.19
618.04	1481.44
618.39	1473.30
618.74	1465.57
619.08	1457.34
619.43	1449.85
619.78	1442.92
620.12	1435.63
620.47	1428.00
620.82	1419.93
621.16	1412.61
621.51	1405.01
621.85	1397.26
622.20	1388.82
622.55	1380.52
622.89	1372.74
623.24	1365.06
623.59	1357.71
623.93	1350.28
624.28	1343.17
624.62	1335.56
624.97	1328.43
625.32	1321.84
625.66	1314.85
626.01	1307.69
626.35	1300.10
626.70	1292.42
627.04	1284.71
627.39	1277.07
627.73	1269.62
628.08	1262.56
628.43	1255.19
628.77	1247.78
629.12	1240.20
629.46	1233.05
629.81	1225.65
630.15	1218.34
630.50	1211.07
630.84	1202.92
631.19	1195.07
631.53	1187.53
631.88	1179.99
632.22	1172.41
632.57	1165.11
632.91	1157.60
633.26	1150.16
633.60	1142.89
633.95	1135.93
634.29	1128.90
634.64	1122.17
634.98	1114.84
635.32	1107.85
635.67	1101.34
636.01	1094.72
636.36	1087.93
636.70	1081.44
637.05	1074.92
637.39	1068.51
637.73	1061.97
638.08	1056.03
638.42	1050.03
638.77	1043.58
639.11	1036.94
639.45	1030.57
639.80	1023.86
640.14	1017.39
640.49	1010.89
640.83	1004.66
641.17	998.32
641.52	992.01
641.86	985.61
642.20	979.91
642.55	973.66
642.89	967.16
643.23	960.69
643.58	954.86
643.92	948.61
644.26	942.46
644.61	936.52
644.95	930.41
645.29	923.87
645.64	917.05
645.98	910.75
646.32	905.04
646.66	899.00
647.01	893.28
647.35	887.56
647.69	881.78
648.04	876.28
648.38	870.45
648.72	864.45
649.06	858.41
649.41	852.45
649.75	846.36
650.09	840.44
650.43	834.65
650.78	828.64
651.12	822.71
651.46	816.90
651.80	811.00
652.14	805.65
652.49	800.25
652.83	795.14
653.17	789.40
653.51	783.67
653.85	778.33
654.20	772.69
654.54	766.75
654.88	761.09
655.22	755.25
655.56	749.58
655.90	744.23
656.25	738.96
656.59	733.65
656.93	728.69
657.27	723.56
657.61	718.13
657.95	713.04
658.29	708.00
658.64	702.95
658.98	697.75
659.32	692.26
659.66	687.11
660.00	681.85
660.34	676.94
660.68	672.04
661.02	667.00
661.36	662.28
661.70	657.82
662.05	653.39
662.39	648.99
662.73	644.57
663.07	640.10
663.41	635.71
663.75	631.20
664.09	626.60
664.43	622.21
664.77	618.10
665.11	613.82
665.45	609.74
665.79	605.60
666.13	601.48
666.47	597.46
666.81	593.22
667.15	589.08
667.49	585.23
667.83	581.47
668.17	577.62
668.51	573.61
668.85	569.58
669.19	565.78
669.53	561.94
669.87	558.10
670.21	554.45
670.55	550.83
670.89	547.45
671.23	544.07
671.57	540.64
671.91	537.16
672.25	533.71
672.58	530.16
672.92	526.81
673.26	523.66
673.60	520.55
673.94	517.50
674.28	514.63
674.62	511.67
674.96	508.52
675.30	505.53
675.64	502.63
675.97	499.85
676.31	496.97
676.65	494.11
676.99	491.38
677.33	488.54
677.67	485.69
678.01	482.61
678.34	479.61
678.68	476.72
679.02	473.87
679.36	471.14
679.70	468.41
680.04	465.64
680.37	462.76
680.71	459.96
681.05	457.39
681.39	454.63
681.73	452.01
682.06	449.43
682.40	446.90
682.74	444.36
683.08	441.83
683.42	439.23
683.75	436.67
684.09	434.11
684.43	431.66
684.77	429.20
685.10	426.89
685.44	424.60
685.78	422.31
686.12	420.09
686.45	417.77
686.79	415.50
687.13	413.34
687.46	411.19
687.80	409.07
688.14	406.85
688.48	404.81
688.81	402.57
689.15	400.47
689.49	398.31
689.82	396.22
690.16	394.11
690.50	392.20
690.83	390.24
691.17	388.24
691.51	386.35
691.84	384.55
692.18	382.59
692.52	380.61
692.85	378.69
693.19	376.83
693.52	375.03
693.86	373.24
694.20	371.43
694.53	369.64
694.87	367.78
695.21	366.02
695.54	364.21
695.88	362.52
696.21	360.82
696.55	359.20
696.88	357.51
697.22	355.89
697.56	354.26
697.89	352.64
698.23	351.10
698.56	349.44
698.90	347.81
699.23	346.14
699.57	344.60
699.90	343.07
700.24	341.56
700.58	340.05
700.91	338.55
701.25	337.12
701.58	335.74
701.92	334.40
702.25	333.07
702.59	331.72
702.92	330.36
703.26	329.05
703.59	327.82
703.93	326.62
704.26	325.42
704.60	324.15
704.93	322.89
705.26	321.63
705.60	320.49
705.93	319.38
706.27	318.42
706.60	317.40
706.94	316.34
707.27	315.20
707.61	314.13
707.94	313.11
708.27	312.03
708.61	310.97
708.94	309.96
709.28	308.97
709.61	308.04
709.94	307.08
710.28	306.06
710.61	305.05
710.95	303.99
711.28	303.10
711.61	302.11
711.95	301.22
712.28	300.30
712.61	299.31
712.95	298.38
713.28	297.49
713.61	296.61
713.95	295.70
714.28	294.87
714.61	293.98
714.95	293.13
715.28	292.28
715.61	291.41
715.95	290.54
716.28	289.69
716.61	288.83
716.95	288.05
717.28	287.31
717.61	286.54
717.94	285.81
718.28	284.97
718.61	284.28
718.94	283.56
719.27	282.86
719.61	282.20
719.94	281.51
720.27	280.78
720.60	280.07
720.94	279.44
721.27	278.82
721.60	278.25
721.93	277.67
722.27	277.13
722.60	276.57
722.93	276.03
723.26	275.46
723.59	274.87
723.93	274.30
724.26	273.77
724.59	273.21
724.92	272.68
725.25	272.17
725.59	271.64
725.92	271.15
726.25	270.63
726.58	270.17
726.91	269.66
727.24	269.22
727.57	268.75
727.91	268.26
728.24	267.78
728.57	267.30
728.90	266.87
729.23	266.31
729.56	265.86
729.89	265.40
730.22	264.92
730.55	264.49
730.89	264.06
731.22	263.63
731.55	263.18
731.88	262.75
732.21	262.33
732.54	261.92
732.87	261.51
733.20	261.15
733.53	260.75
733.86	260.38
734.19	259.97
734.52	259.63
734.85	259.35
735.18	258.94
735.51	258.57
735.84	258.18
736.17	257.88
736.50	257.51
736.83	257.31
737.16	256.99
737.49	256.65
737.82	256.31
738.15	255.97
738.48	255.69
738.81	255.38
739.14	255.06
739.47	254.73
739.80	254.41
740.13	254.10
740.46	253.79
740.79	253.50
741.12	253.20
741.45	252.87
741.78	252.52
742.11	252.26
742.44	251.96
742.77	251.70
743.10	251.39
743.43	251.10
743.75	250.73
744.08	250.56
744.41	250.29
744.74	250.03
745.07	249.74
745.40	249.45
745.73	249.21
746.06	248.95
746.39	248.68
746.71	248.43
747.04	248.16
747.37	247.87
747.70	247.61
748.03	247.40
748.36	247.18
748.68	246.95
749.01	246.69
749.34	246.50
749.67	246.25
750.00	246.04
750.33	245.89
750.65	245.64
750.98	245.32
751.31	245.11
751.64	244.87
751.97	244.71
752.29	244.50
752.62	244.23
752.95	244.00
753.28	243.78
753.60	243.60
753.93	243.42
754.26	243.24
754.59	243.02
754.91	242.76
755.24	242.55
755.57	242.30
755.90	242.11
756.22	241.86
756.55	241.65
756.88	241.46
757.20	241.21
757.53	241.02
757.86	240.84
758.19	240.69
758.51	240.52
758.84	240.31
759.17	240.13
759.49	239.98
759.82	239.87
760.15	239.71
760.47	239.51
760.80	239.33
761.13	239.22
761.45	239.07
761.78	238.95
762.11	238.82
762.43	238.69
762.76	238.51
763.08	238.39
763.41	238.23
763.74	238.04
764.06	237.87
764.39	237.70
764.71	237.51
765.04	237.34
765.37	237.18
765.69	237.03
766.02	236.88
766.34	236.77
766.67	236.60
767.00	236.49
767.32	236.40
767.65	236.37
767.97	236.22
768.30	236.09
768.62	235.94
768.95	235.83
769.27	235.71
769.60	235.64
769.92	235.47
770.25	235.40
770.57	235.31
770.90	235.22
771.22	235.13
771.55	235.07
771.87	235.01
772.20	234.93
772.52	234.93
772.85	234.98
773.17	234.86
773.50	234.74
773.82	234.66
774.15	234.55
774.47	234.38
774.80	234.27
775.12	234.20
775.45	234.12
775.77	234.04
776.09	234.00
776.42	233.93
776.74	233.94
777.07	233.86
777.39	233.79
777.72	233.77
778.04	233.70
778.36	233.62
778.69	233.56
779.01	233.49
779.33	233.33
779.66	233.14
779.98	233.13
780.31	233.10
780.63	233.09
780.95	233.06
781.28	233.04
781.60	233.00
781.92	232.92
782.25	232.90
782.57	232.86
782.89	232.82
783.22	232.72
783.54	232.63
783.86	232.56
784.19	232.55
784.51	232.51
784.83	232.44
785.16	232.42
785.48	232.38
785.80	232.35
786.12	232.33
786.45	232.32
786.77	232.27
787.09	232.21
