SpectraSuite Data File
++++++++++++++++++++++++++++++++++++
Date: Fri Feb 01 16:24:27 EST 2013
User: group
Dark Spectrum Present: No
Reference Spectrum Present: No
Number of Sampled Component Spectra: 1
Spectrometers: USB2E7196
Integration Time (usec): 35000 (USB2E7196)
Spectra Averaged: 100 (USB2E7196)
Boxcar Smoothing: 10 (USB2E7196)
Correct for Electrical Dark: No (USB2E7196)
Strobe/Lamp Enabled: No (USB2E7196)
Correct for Detector Non-linearity: No (USB2E7196)
Correct for Stray Light: No (USB2E7196)
Number of Pixels in Processed Spectrum: 2048
>>>>>Begin Processed Spectral Data<<<<<
339.09	0.00
339.48	213.72
339.86	214.93
340.24	216.82
340.63	217.85
341.01	220.86
341.39	221.00
341.78	222.35
342.16	223.00
342.54	223.81
342.93	212.22
343.31	222.95
343.69	223.49
344.07	223.99
344.46	224.44
344.84	224.88
345.22	225.14
345.60	225.39
345.99	225.59
346.37	225.76
346.75	225.87
347.13	225.96
347.52	226.00
347.90	226.11
348.28	226.13
348.66	226.19
349.05	226.21
349.43	226.26
349.81	226.32
350.19	226.34
350.57	226.40
350.96	226.52
351.34	226.66
351.72	226.77
352.10	226.88
352.48	226.93
352.87	226.94
353.25	227.00
353.63	227.07
354.01	227.15
354.39	227.21
354.77	227.30
355.15	227.39
355.54	227.44
355.92	227.49
356.30	227.59
356.68	227.76
357.06	227.89
357.44	227.94
357.82	228.00
358.20	228.08
358.58	228.15
358.97	228.18
359.35	228.22
359.73	228.31
360.11	228.34
360.49	228.38
360.87	228.46
361.25	228.51
361.63	228.59
362.01	228.62
362.39	228.65
362.77	228.67
363.15	228.70
363.53	228.75
363.91	228.77
364.29	228.78
364.67	228.64
365.05	228.61
365.43	228.63
365.81	228.65
366.19	228.70
366.57	228.73
366.95	228.73
367.33	228.68
367.71	228.64
368.09	228.64
368.47	228.62
368.85	228.57
369.23	228.59
369.61	228.49
369.99	228.50
370.37	228.48
370.75	228.53
371.13	228.46
371.51	228.41
371.89	228.36
372.27	228.34
372.65	228.33
373.03	228.29
373.41	228.25
373.78	228.17
374.16	228.08
374.54	228.00
374.92	227.94
375.30	227.88
375.68	227.78
376.06	227.71
376.44	227.65
376.82	227.58
377.19	227.49
377.57	227.43
377.95	227.32
378.33	227.22
378.71	227.08
379.09	227.00
379.47	226.91
379.84	226.83
380.22	226.71
380.60	226.61
380.98	226.55
381.36	226.49
381.73	226.42
382.11	226.36
382.49	226.25
382.87	226.18
383.25	226.12
383.62	226.18
384.00	226.12
384.38	226.06
384.76	226.06
385.13	226.04
385.51	226.00
385.89	225.93
386.27	225.92
386.64	225.89
387.02	225.87
387.40	225.83
387.78	225.83
388.15	225.82
388.53	225.80
388.91	225.75
389.29	225.72
389.66	225.70
390.04	225.66
390.42	225.68
390.79	225.66
391.17	225.68
391.55	225.57
391.92	225.56
392.30	225.56
392.68	225.52
393.05	225.52
393.43	225.49
393.81	225.51
394.18	225.47
394.56	225.46
394.94	225.50
395.31	225.52
395.69	225.54
396.06	225.60
396.44	225.63
396.82	225.65
397.19	225.72
397.57	225.77
397.95	225.80
398.32	225.81
398.70	225.89
399.07	225.96
399.45	226.00
399.82	226.08
400.20	226.15
400.58	226.25
400.95	226.27
401.33	226.38
401.70	226.56
402.08	226.66
402.45	226.80
402.83	226.92
403.20	227.03
403.58	227.14
403.95	227.26
404.33	227.42
404.71	227.55
405.08	227.74
405.46	227.89
405.83	228.08
406.21	228.22
406.58	228.39
406.96	228.54
407.33	228.75
407.70	228.92
408.08	229.23
408.45	229.42
408.83	229.69
409.20	229.89
409.58	230.08
409.95	230.36
410.33	230.60
410.70	230.87
411.08	231.15
411.45	231.45
411.82	231.77
412.20	232.11
412.57	232.52
412.95	232.84
413.32	233.24
413.69	233.67
414.07	234.15
414.44	234.58
414.82	235.10
415.19	235.62
415.56	236.15
415.94	236.64
416.31	237.30
416.68	237.90
417.06	238.65
417.43	239.33
417.81	240.10
418.18	240.87
418.55	241.71
418.93	242.60
419.30	243.48
419.67	244.42
420.04	245.38
420.42	246.38
420.79	247.55
421.16	248.71
421.54	249.85
421.91	251.05
422.28	252.30
422.66	253.61
423.03	254.89
423.40	256.23
423.77	257.63
424.15	259.01
424.52	260.51
424.89	262.06
425.26	263.60
425.64	265.03
426.01	266.63
426.38	268.23
426.75	269.88
427.13	271.64
427.50	273.45
427.87	275.30
428.24	277.11
428.61	278.80
428.99	280.73
429.36	282.81
429.73	284.86
430.10	286.89
430.47	288.91
430.85	291.05
431.22	293.26
431.59	295.66
431.96	297.92
432.33	300.36
432.70	302.74
433.08	305.50
433.45	308.09
433.82	310.70
434.19	313.58
434.56	316.40
434.93	319.00
435.30	321.59
435.68	324.45
436.05	327.29
436.42	330.08
436.79	332.58
437.16	335.26
437.53	338.05
437.90	340.81
438.27	343.55
438.64	346.35
439.01	348.99
439.38	351.23
439.75	353.38
440.13	355.87
440.50	358.16
440.87	360.03
441.24	361.96
441.61	364.10
441.98	365.59
442.35	367.35
442.72	369.18
443.09	370.98
443.46	372.00
443.83	372.58
444.20	373.12
444.57	373.92
444.94	374.21
445.31	374.55
445.68	374.91
446.05	374.98
446.42	374.60
446.79	374.18
447.16	373.71
447.53	373.38
447.90	372.23
448.27	371.05
448.64	369.48
449.01	368.39
449.37	366.38
449.74	364.47
450.11	362.23
450.48	359.76
450.85	357.20
451.22	355.04
451.59	352.99
451.96	351.06
452.33	348.46
452.70	346.10
453.07	343.32
453.43	340.46
453.80	337.71
454.17	335.07
454.54	332.51
454.91	329.82
455.28	327.18
455.65	324.70
456.02	322.32
456.38	320.16
456.75	317.49
457.12	315.27
457.49	313.08
457.86	310.94
458.23	309.10
458.59	307.11
458.96	305.05
459.33	303.21
459.70	301.36
460.07	299.90
460.43	298.19
460.80	296.55
461.17	295.12
461.54	293.64
461.91	292.19
462.27	290.72
462.64	289.46
463.01	288.15
463.38	286.85
463.74	285.51
464.11	284.36
464.48	283.35
464.85	282.27
465.21	281.40
465.58	280.46
465.95	279.40
466.32	278.48
466.68	277.57
467.05	276.72
467.42	275.83
467.78	274.89
468.15	274.07
468.52	273.44
468.88	272.58
469.25	271.83
469.62	271.23
469.98	270.60
470.35	269.96
470.72	269.36
471.08	268.72
471.45	268.20
471.82	267.66
472.18	267.07
472.55	266.60
472.92	266.13
473.28	265.71
473.65	265.28
474.02	264.85
474.38	264.53
474.75	264.22
475.11	263.87
475.48	263.63
475.85	263.40
476.21	263.17
476.58	262.99
476.94	262.88
477.31	262.71
477.67	262.57
478.04	262.47
478.41	262.36
478.77	262.41
479.14	262.30
479.50	262.32
479.87	262.46
480.23	262.59
480.60	262.59
480.96	262.65
481.33	262.86
481.69	263.07
482.06	263.23
482.42	263.42
482.79	263.72
483.15	264.00
483.52	264.36
483.88	264.68
484.25	265.04
484.61	265.46
484.98	265.93
485.34	266.52
485.71	267.11
486.07	267.77
486.44	268.34
486.80	269.06
487.17	269.79
487.53	270.57
487.90	271.40
488.26	272.36
488.62	273.36
488.99	274.32
489.35	275.37
489.72	276.51
490.08	277.71
490.44	278.91
490.81	280.24
491.17	281.59
491.54	283.08
491.90	284.64
492.26	286.26
492.63	288.00
492.99	289.78
493.36	291.71
493.72	293.73
494.08	295.83
494.45	298.11
494.81	300.41
495.17	302.84
495.54	305.44
495.90	308.16
496.26	310.94
496.63	313.91
496.99	317.04
497.35	320.32
497.72	323.70
498.08	327.25
498.44	330.99
498.80	334.97
499.17	339.02
499.53	343.26
499.89	347.69
500.26	352.23
500.62	356.86
500.98	361.75
501.34	366.82
501.71	372.19
502.07	377.62
502.43	383.23
502.79	389.03
503.16	395.10
503.52	401.38
503.88	407.85
504.24	414.53
504.60	421.41
504.97	428.50
505.33	435.83
505.69	443.57
506.05	451.29
506.41	459.12
506.78	467.26
507.14	475.61
507.50	484.25
507.86	493.31
508.22	502.49
508.59	511.77
508.95	521.33
509.31	531.12
509.67	541.29
510.03	551.69
510.39	562.22
510.75	573.04
511.12	583.98
511.48	595.25
511.84	606.66
512.20	618.17
512.56	630.15
512.92	642.25
513.28	654.58
513.64	667.09
514.00	679.83
514.37	692.76
514.73	705.91
515.09	718.91
515.45	732.11
515.81	745.71
516.17	759.65
516.53	773.72
516.89	787.87
517.25	802.03
517.61	816.39
517.97	830.84
518.33	845.19
518.69	859.90
519.05	874.82
519.41	890.01
519.77	905.52
520.13	920.91
520.49	936.28
520.85	951.68
521.21	967.31
521.57	983.48
521.93	999.19
522.29	1015.50
522.65	1031.75
523.01	1047.90
523.37	1063.80
523.73	1079.82
524.09	1095.91
524.45	1112.19
524.81	1128.76
525.17	1145.45
525.53	1162.34
525.89	1179.24
526.25	1196.00
526.61	1212.38
526.97	1228.97
527.33	1245.40
527.68	1261.93
528.04	1278.43
528.40	1294.93
528.76	1311.96
529.12	1328.40
529.48	1345.21
529.84	1361.05
530.20	1377.58
530.56	1394.51
530.91	1412.00
531.27	1428.81
531.63	1445.16
531.99	1461.69
532.35	1477.48
532.71	1493.36
533.07	1509.50
533.42	1525.31
533.78	1541.32
534.14	1557.54
534.50	1572.77
534.86	1588.58
535.21	1603.75
535.57	1619.60
535.93	1634.98
536.29	1649.63
536.65	1664.66
537.00	1679.39
537.36	1694.69
537.72	1709.19
538.08	1723.55
538.44	1737.16
538.79	1750.96
539.15	1764.50
539.51	1778.09
539.87	1792.38
540.22	1805.98
540.58	1819.63
540.94	1832.69
541.29	1845.42
541.65	1857.91
542.01	1871.04
542.37	1883.23
542.72	1895.48
543.08	1907.14
543.44	1919.50
543.79	1930.71
544.15	1941.64
544.51	1953.12
544.87	1963.99
545.22	1974.81
545.58	1984.86
545.94	1994.54
546.29	2004.29
546.65	2014.23
547.01	2023.41
547.36	2032.06
547.72	2040.50
548.07	2048.39
548.43	2056.69
548.79	2064.58
549.14	2072.07
549.50	2079.46
549.86	2087.19
550.21	2094.51
550.57	2101.72
550.92	2108.18
551.28	2115.16
551.64	2122.24
551.99	2128.73
552.35	2134.89
552.70	2140.96
553.06	2147.04
553.41	2153.44
553.77	2159.34
554.13	2165.29
554.48	2171.51
554.84	2177.10
555.19	2182.36
555.55	2187.46
555.90	2191.95
556.26	2196.93
556.61	2201.65
556.97	2205.88
557.32	2209.90
557.68	2213.97
558.03	2218.19
558.39	2221.92
558.74	2226.62
559.10	2230.45
559.45	2234.09
559.81	2238.35
560.16	2242.10
560.52	2245.34
560.87	2248.76
561.23	2251.49
561.58	2254.52
561.94	2256.99
562.29	2259.26
562.64	2261.96
563.00	2264.50
563.35	2267.79
563.71	2270.89
564.06	2274.12
564.42	2277.10
564.77	2279.64
565.12	2282.11
565.48	2284.00
565.83	2285.83
566.19	2287.11
566.54	2288.12
566.89	2289.28
567.25	2289.85
567.60	2291.17
567.96	2292.82
568.31	2293.70
568.66	2294.92
569.02	2295.50
569.37	2295.79
569.72	2296.65
570.08	2296.76
570.43	2296.77
570.78	2296.29
571.14	2294.92
571.49	2293.66
571.84	2293.46
572.20	2292.28
572.55	2291.11
572.90	2289.57
573.26	2288.39
573.61	2286.64
573.96	2284.84
574.31	2281.99
574.67	2279.09
575.02	2275.59
575.37	2272.38
575.72	2268.52
576.08	2265.32
576.43	2262.01
576.78	2258.50
577.13	2255.49
577.49	2252.43
577.84	2249.13
578.19	2245.53
578.54	2241.80
578.90	2237.67
579.25	2231.96
579.60	2227.05
579.95	2222.17
580.30	2217.22
580.66	2212.02
581.01	2207.20
581.36	2202.29
581.71	2198.09
582.06	2193.61
582.42	2189.22
582.77	2183.91
583.12	2179.47
583.47	2174.68
583.82	2169.78
584.17	2164.55
584.53	2158.92
584.88	2153.40
585.23	2147.69
585.58	2142.22
585.93	2136.83
586.28	2132.13
586.63	2127.13
586.98	2122.29
587.34	2117.58
587.69	2112.69
588.04	2107.35
588.39	2101.85
588.74	2095.52
589.09	2089.36
589.44	2082.67
589.79	2076.77
590.14	2071.26
590.49	2064.63
590.84	2058.31
591.19	2052.33
591.54	2045.94
591.89	2038.64
592.25	2031.94
592.60	2024.76
592.95	2017.29
593.30	2010.03
593.65	2002.50
594.00	1995.49
594.35	1988.19
594.70	1980.25
595.05	1973.23
595.40	1966.14
595.75	1958.50
596.10	1952.43
596.45	1945.90
596.80	1939.90
597.15	1933.12
597.50	1926.03
597.85	1919.77
598.19	1913.16
598.54	1905.89
598.89	1899.30
599.24	1893.51
599.59	1886.75
599.94	1880.62
600.29	1874.33
600.64	1867.77
600.99	1860.45
601.34	1853.70
601.69	1846.87
602.04	1840.15
602.39	1832.78
602.74	1825.92
603.08	1819.33
603.43	1812.56
603.78	1805.24
604.13	1798.00
604.48	1790.86
604.83	1784.11
605.18	1777.29
605.53	1769.45
605.87	1761.67
606.22	1754.51
606.57	1746.53
606.92	1739.34
607.27	1732.06
607.62	1725.18
607.96	1718.01
608.31	1711.31
608.66	1703.82
609.01	1696.29
609.36	1688.50
609.70	1680.58
610.05	1672.61
610.40	1664.97
610.75	1656.64
611.10	1648.96
611.44	1640.54
611.79	1632.62
612.14	1623.94
612.49	1614.69
612.83	1606.18
613.18	1598.09
613.53	1589.95
613.88	1581.46
614.22	1573.15
614.57	1564.64
614.92	1556.55
615.27	1548.87
615.61	1540.53
615.96	1532.34
616.31	1524.66
616.65	1517.50
617.00	1509.91
617.35	1502.27
617.70	1493.86
618.04	1485.43
618.39	1477.16
618.74	1469.50
619.08	1461.16
619.43	1453.61
619.78	1446.54
620.12	1439.40
620.47	1431.78
620.82	1423.59
621.16	1416.24
621.51	1408.59
621.85	1401.04
622.20	1392.48
622.55	1384.21
622.89	1376.35
623.24	1368.85
623.59	1361.46
623.93	1353.73
624.28	1346.41
624.62	1338.78
624.97	1331.52
625.32	1324.73
625.66	1317.71
626.01	1310.67
626.35	1303.24
626.70	1295.38
627.04	1287.64
627.39	1279.82
627.73	1272.52
628.08	1265.63
628.43	1258.30
628.77	1250.99
629.12	1243.42
629.46	1236.37
629.81	1228.93
630.15	1221.67
630.50	1214.20
630.84	1205.93
631.19	1198.10
631.53	1190.58
631.88	1182.97
632.22	1175.40
632.57	1168.02
632.91	1160.55
633.26	1153.04
633.60	1145.59
633.95	1138.48
634.29	1131.53
634.64	1124.86
634.98	1117.41
635.32	1110.19
635.67	1103.69
636.01	1097.04
636.36	1090.07
636.70	1083.53
637.05	1077.00
637.39	1070.59
637.73	1064.06
638.08	1058.26
638.42	1052.21
638.77	1045.69
639.11	1039.16
639.45	1032.73
639.80	1026.11
640.14	1019.65
640.49	1013.10
640.83	1006.79
641.17	1000.60
641.52	994.26
641.86	987.72
642.20	981.92
642.55	975.59
642.89	969.01
643.23	962.44
643.58	956.77
643.92	950.51
644.26	944.43
644.61	938.45
644.95	932.40
645.29	925.75
645.64	919.12
645.98	912.92
646.32	907.21
646.66	901.21
647.01	895.35
647.35	889.59
647.69	883.78
648.04	878.18
648.38	872.32
648.72	866.34
649.06	860.46
649.41	854.55
649.75	848.61
650.09	842.64
650.43	836.81
650.78	830.66
651.12	824.73
651.46	818.96
651.80	813.05
652.14	807.68
652.49	802.26
652.83	797.05
653.17	791.33
653.51	785.55
653.85	780.17
654.20	774.56
654.54	768.56
654.88	762.78
655.22	756.97
655.56	751.29
655.90	745.84
656.25	740.54
656.59	735.15
656.93	730.08
657.27	724.98
657.61	719.55
657.95	714.43
658.29	709.31
658.64	704.05
658.98	698.81
659.32	693.35
659.66	688.12
660.00	682.80
660.34	677.89
660.68	672.88
661.02	667.84
661.36	663.13
661.70	658.66
662.05	654.33
662.39	649.97
662.73	645.47
663.07	641.09
663.41	636.62
663.75	632.17
664.09	627.54
664.43	623.06
664.77	618.94
665.11	614.65
665.45	610.55
665.79	606.47
666.13	602.23
666.47	598.13
666.81	594.04
667.15	589.90
667.49	585.95
667.83	582.21
668.17	578.27
668.51	574.17
668.85	570.11
669.19	566.28
669.53	562.39
669.87	558.54
670.21	554.78
670.55	551.07
670.89	547.66
671.23	544.26
671.57	540.75
671.91	537.24
672.25	533.85
672.58	530.33
672.92	526.91
673.26	523.87
673.60	520.74
673.94	517.60
674.28	514.68
674.62	511.72
674.96	508.58
675.30	505.66
675.64	502.77
675.97	500.02
676.31	497.15
676.65	494.26
676.99	491.62
677.33	488.77
677.67	485.98
678.01	482.84
678.34	479.88
678.68	477.11
679.02	474.29
679.36	471.48
679.70	468.75
680.04	466.00
680.37	463.05
680.71	460.21
681.05	457.60
681.39	454.87
681.73	452.22
682.06	449.70
682.40	447.14
682.74	444.59
683.08	442.01
683.42	439.39
683.75	436.88
684.09	434.25
684.43	431.79
684.77	429.38
685.10	427.10
685.44	424.80
685.78	422.45
686.12	420.16
686.45	417.80
686.79	415.49
687.13	413.32
687.46	411.21
687.80	409.08
688.14	406.87
688.48	404.83
688.81	402.55
689.15	400.42
689.49	398.29
689.82	396.23
690.16	394.15
690.50	392.18
690.83	390.26
691.17	388.26
691.51	386.33
691.84	384.40
692.18	382.45
692.52	380.45
692.85	378.52
693.19	376.63
693.52	374.88
693.86	373.07
694.20	371.29
694.53	369.45
694.87	367.63
695.21	365.79
695.54	363.94
695.88	362.26
696.21	360.50
696.55	358.78
696.88	357.04
697.22	355.32
697.56	353.69
697.89	352.01
698.23	350.42
698.56	348.77
698.90	347.21
699.23	345.58
699.57	343.99
699.90	342.43
700.24	340.93
700.58	339.36
700.91	337.88
701.25	336.44
701.58	335.09
701.92	333.69
702.25	332.33
702.59	330.97
702.92	329.59
703.26	328.28
703.59	327.02
703.93	325.86
704.26	324.68
704.60	323.35
704.93	322.10
705.26	320.84
705.60	319.69
705.93	318.50
706.27	317.44
706.60	316.40
706.94	315.31
707.27	314.13
707.61	313.05
707.94	311.98
708.27	310.88
708.61	309.79
708.94	308.76
709.28	307.79
709.61	306.86
709.94	305.95
710.28	304.93
710.61	303.94
710.95	302.85
711.28	301.96
711.61	301.07
711.95	300.12
712.28	299.20
712.61	298.24
712.95	297.37
713.28	296.45
713.61	295.57
713.95	294.68
714.28	293.88
714.61	293.04
714.95	292.23
715.28	291.39
715.61	290.50
715.95	289.70
716.28	288.82
716.61	287.95
716.95	287.15
717.28	286.43
717.61	285.67
717.94	284.94
718.28	284.11
718.61	283.37
718.94	282.69
719.27	282.05
719.61	281.43
719.94	280.78
720.27	280.13
720.60	279.45
720.94	278.82
721.27	278.25
721.60	277.68
721.93	277.05
722.27	276.51
722.60	275.96
722.93	275.37
723.26	274.89
723.59	274.35
723.93	273.76
724.26	273.21
724.59	272.67
724.92	272.18
725.25	271.70
725.59	271.18
725.92	270.71
726.25	270.19
726.58	269.68
726.91	269.16
727.24	268.69
727.57	268.25
727.91	267.75
728.24	267.24
728.57	266.77
728.90	266.34
729.23	265.80
729.56	265.40
729.89	264.95
730.22	264.40
730.55	263.97
730.89	263.50
731.22	263.03
731.55	262.59
731.88	262.15
732.21	261.72
732.54	261.32
732.87	260.84
733.20	260.43
733.53	260.04
733.86	259.69
734.19	259.27
734.52	258.84
734.85	258.53
735.18	258.13
735.51	257.73
735.84	257.33
736.17	256.97
736.50	256.56
736.83	256.33
737.16	256.04
737.49	255.70
737.82	255.38
738.15	255.09
738.48	254.74
738.81	254.41
739.14	254.08
739.47	253.72
739.80	253.41
740.13	253.11
740.46	252.76
740.79	252.41
741.12	252.07
741.45	251.75
741.78	251.39
742.11	251.12
742.44	250.79
742.77	250.50
743.10	250.20
743.43	249.93
743.75	249.52
744.08	249.38
744.41	249.11
744.74	248.82
745.07	248.53
745.40	248.27
745.73	248.03
746.06	247.74
746.39	247.49
746.71	247.23
747.04	246.93
747.37	246.69
747.70	246.46
748.03	246.22
748.36	246.04
748.68	245.78
749.01	245.52
749.34	245.33
749.67	245.11
750.00	244.90
750.33	244.72
750.65	244.50
750.98	244.13
751.31	243.91
751.64	243.73
751.97	243.55
752.29	243.35
752.62	243.09
752.95	242.90
753.28	242.69
753.60	242.49
753.93	242.32
754.26	242.15
754.59	241.93
754.91	241.73
755.24	241.55
755.57	241.42
755.90	241.26
756.22	241.09
756.55	240.88
756.88	240.69
757.20	240.47
757.53	240.29
757.86	240.13
758.19	239.97
758.51	239.79
758.84	239.62
759.17	239.47
759.49	239.32
759.82	239.19
760.15	239.05
760.47	238.89
760.80	238.71
761.13	238.56
761.45	238.39
761.78	238.22
762.11	238.08
762.43	237.93
762.76	237.77
763.08	237.61
763.41	237.48
763.74	237.36
764.06	237.19
764.39	237.06
764.71	236.88
765.04	236.74
765.37	236.58
765.69	236.42
766.02	236.29
766.34	236.15
766.67	236.00
767.00	235.89
767.32	235.85
767.65	235.79
767.97	235.67
768.30	235.57
768.62	235.48
768.95	235.33
769.27	235.19
769.60	235.08
769.92	234.93
770.25	234.80
770.57	234.66
770.90	234.59
771.22	234.47
771.55	234.39
771.87	234.29
772.20	234.23
772.52	234.22
772.85	234.21
773.17	234.08
773.50	233.96
773.82	233.85
774.15	233.68
774.47	233.53
774.80	233.46
775.12	233.38
775.45	233.27
775.77	233.20
776.09	233.12
776.42	233.04
776.74	233.01
777.07	232.94
777.39	232.86
777.72	232.78
778.04	232.71
778.36	232.66
778.69	232.56
779.01	232.44
779.33	232.28
779.66	232.10
779.98	232.09
780.31	232.05
780.63	232.02
780.95	231.99
781.28	231.91
781.60	231.81
781.92	231.73
782.25	231.72
782.57	231.63
782.89	231.57
783.22	231.52
783.54	231.44
783.86	231.39
784.19	231.34
784.51	231.28
784.83	231.19
785.16	231.12
785.48	231.10
785.80	231.06
786.12	231.02
786.45	230.99
786.77	230.91
787.09	230.86
