SpectraSuite Data File
++++++++++++++++++++++++++++++++++++
Date: Fri Feb 01 14:55:24 EST 2013
User: group
Dark Spectrum Present: No
Reference Spectrum Present: No
Number of Sampled Component Spectra: 1
Spectrometers: USB2E7196
Integration Time (usec): 35000 (USB2E7196)
Spectra Averaged: 100 (USB2E7196)
Boxcar Smoothing: 10 (USB2E7196)
Correct for Electrical Dark: No (USB2E7196)
Strobe/Lamp Enabled: No (USB2E7196)
Correct for Detector Non-linearity: No (USB2E7196)
Correct for Stray Light: No (USB2E7196)
Number of Pixels in Processed Spectrum: 2048
>>>>>Begin Processed Spectral Data<<<<<
339.09	0.00
339.48	215.44
339.86	216.98
340.24	218.38
340.63	220.03
341.01	221.87
341.39	222.63
341.78	223.72
342.16	224.83
342.54	225.34
342.93	213.62
343.31	224.42
343.69	224.95
344.07	225.41
344.46	225.84
344.84	226.20
345.22	226.45
345.60	226.68
345.99	226.85
346.37	227.00
346.75	227.11
347.13	227.20
347.52	227.22
347.90	227.28
348.28	227.33
348.66	227.37
349.05	227.38
349.43	227.46
349.81	227.49
350.19	227.54
350.57	227.59
350.96	227.66
351.34	227.75
351.72	227.84
352.10	227.92
352.48	228.01
352.87	228.05
353.25	228.11
353.63	228.17
354.01	228.25
354.39	228.29
354.77	228.38
355.15	228.45
355.54	228.52
355.92	228.58
356.30	228.64
356.68	228.78
357.06	228.83
357.44	228.89
357.82	228.98
358.20	229.04
358.58	229.13
358.97	229.20
359.35	229.25
359.73	229.29
360.11	229.38
360.49	229.43
360.87	229.51
361.25	229.62
361.63	229.67
362.01	229.71
362.39	229.75
362.77	229.76
363.15	229.80
363.53	229.85
363.91	229.89
364.29	229.90
364.67	229.79
365.05	229.80
365.43	229.82
365.81	229.87
366.19	229.92
366.57	229.93
366.95	229.94
367.33	229.92
367.71	229.92
368.09	229.92
368.47	229.88
368.85	229.84
369.23	229.79
369.61	229.72
369.99	229.72
370.37	229.72
370.75	229.73
371.13	229.67
371.51	229.58
371.89	229.53
372.27	229.47
372.65	229.47
373.03	229.41
373.41	229.34
373.78	229.26
374.16	229.10
374.54	229.00
374.92	228.91
375.30	228.87
375.68	228.79
376.06	228.70
376.44	228.63
376.82	228.57
377.19	228.49
377.57	228.43
377.95	228.33
378.33	228.22
378.71	228.07
379.09	228.00
379.47	227.97
379.84	227.90
380.22	227.83
380.60	227.71
380.98	227.68
381.36	227.60
381.73	227.47
382.11	227.43
382.49	227.36
382.87	227.29
383.25	227.22
383.62	227.27
384.00	227.16
384.38	227.09
384.76	227.07
385.13	227.01
385.51	226.97
385.89	226.87
386.27	226.82
386.64	226.77
387.02	226.71
387.40	226.63
387.78	226.57
388.15	226.55
388.53	226.52
388.91	226.44
389.29	226.39
389.66	226.41
390.04	226.39
390.42	226.37
390.79	226.34
391.17	226.29
391.55	226.14
391.92	226.14
392.30	226.13
392.68	226.07
393.05	226.10
393.43	226.10
393.81	226.15
394.18	226.14
394.56	226.16
394.94	226.22
395.31	226.24
395.69	226.27
396.06	226.29
396.44	226.33
396.82	226.36
397.19	226.46
397.57	226.51
397.95	226.58
398.32	226.60
398.70	226.66
399.07	226.76
399.45	226.83
399.82	226.93
400.20	227.02
400.58	227.12
400.95	227.18
401.33	227.29
401.70	227.43
402.08	227.58
402.45	227.69
402.83	227.82
403.20	227.95
403.58	228.07
403.95	228.24
404.33	228.41
404.71	228.55
405.08	228.73
405.46	228.85
405.83	229.02
406.21	229.20
406.58	229.42
406.96	229.62
407.33	229.82
407.70	230.06
408.08	230.34
408.45	230.56
408.83	230.80
409.20	231.04
409.58	231.23
409.95	231.49
410.33	231.79
410.70	232.01
411.08	232.31
411.45	232.64
411.82	232.97
412.20	233.31
412.57	233.76
412.95	234.04
413.32	234.47
413.69	234.90
414.07	235.37
414.44	235.83
414.82	236.29
415.19	236.85
415.56	237.38
415.94	237.93
416.31	238.59
416.68	239.21
417.06	239.93
417.43	240.63
417.81	241.38
418.18	242.14
418.55	242.99
418.93	243.87
419.30	244.77
419.67	245.69
420.04	246.65
420.42	247.63
420.79	248.82
421.16	249.97
421.54	251.16
421.91	252.38
422.28	253.64
422.66	254.98
423.03	256.26
423.40	257.59
423.77	258.95
424.15	260.36
424.52	261.89
424.89	263.48
425.26	264.99
425.64	266.45
426.01	268.07
426.38	269.72
426.75	271.37
427.13	273.10
427.50	274.88
427.87	276.75
428.24	278.58
428.61	280.34
428.99	282.28
429.36	284.34
429.73	286.39
430.10	288.38
430.47	290.39
430.85	292.53
431.22	294.75
431.59	297.13
431.96	299.35
432.33	301.77
432.70	304.14
433.08	306.96
433.45	309.60
433.82	312.17
434.19	315.09
434.56	317.92
434.93	320.58
435.30	323.26
435.68	326.16
436.05	329.03
436.42	331.79
436.79	334.25
437.16	336.99
437.53	339.81
437.90	342.58
438.27	345.37
438.64	348.23
439.01	350.87
439.38	353.14
439.75	355.33
440.13	357.86
440.50	360.22
440.87	362.02
441.24	363.99
441.61	366.14
441.98	367.62
442.35	369.37
442.72	371.24
443.09	372.98
443.46	373.98
443.83	374.54
444.20	375.07
444.57	375.92
444.94	376.20
445.31	376.55
445.68	376.95
446.05	376.98
446.42	376.57
446.79	376.13
447.16	375.68
447.53	375.35
447.90	374.20
448.27	373.02
448.64	371.46
449.01	370.28
449.37	368.35
449.74	366.44
450.11	364.23
450.48	361.71
450.85	359.20
451.22	357.07
451.59	355.05
451.96	353.13
452.33	350.55
452.70	348.20
453.07	345.37
453.43	342.44
453.80	339.69
454.17	337.01
454.54	334.47
454.91	331.75
455.28	329.08
455.65	326.62
456.02	324.19
456.38	322.07
456.75	319.44
457.12	317.15
457.49	314.93
457.86	312.77
458.23	310.92
458.59	308.86
458.96	306.78
459.33	304.94
459.70	303.09
460.07	301.61
460.43	299.84
460.80	298.20
461.17	296.80
461.54	295.30
461.91	293.88
462.27	292.42
462.64	291.21
463.01	289.85
463.38	288.54
463.74	287.17
464.11	286.03
464.48	284.97
464.85	283.88
465.21	283.03
465.58	282.14
465.95	281.04
466.32	280.13
466.68	279.23
467.05	278.32
467.42	277.41
467.78	276.45
468.15	275.62
468.52	274.97
468.88	274.08
469.25	273.32
469.62	272.67
469.98	271.99
470.35	271.30
470.72	270.69
471.08	270.01
471.45	269.45
471.82	268.88
472.18	268.27
472.55	267.81
472.92	267.28
473.28	266.83
473.65	266.39
474.02	265.91
474.38	265.49
474.75	265.16
475.11	264.78
475.48	264.52
475.85	264.27
476.21	264.03
476.58	263.87
476.94	263.69
477.31	263.52
477.67	263.35
478.04	263.21
478.41	263.14
478.77	263.17
479.14	263.07
479.50	263.05
479.87	263.11
480.23	263.22
480.60	263.24
480.96	263.29
481.33	263.47
481.69	263.66
482.06	263.83
482.42	264.01
482.79	264.25
483.15	264.54
483.52	264.90
483.88	265.23
484.25	265.61
484.61	266.03
484.98	266.49
485.34	267.07
485.71	267.67
486.07	268.27
486.44	268.83
486.80	269.51
487.17	270.20
487.53	270.97
487.90	271.76
488.26	272.69
488.62	273.63
488.99	274.56
489.35	275.61
489.72	276.72
490.08	277.91
490.44	279.12
490.81	280.42
491.17	281.77
491.54	283.23
491.90	284.71
492.26	286.35
492.63	288.03
492.99	289.73
493.36	291.58
493.72	293.60
494.08	295.67
494.45	297.93
494.81	300.30
495.17	302.77
495.54	305.31
495.90	307.96
496.26	310.79
496.63	313.79
496.99	316.83
497.35	320.10
497.72	323.46
498.08	327.00
498.44	330.63
498.80	334.51
499.17	338.52
499.53	342.68
499.89	347.03
500.26	351.52
500.62	356.22
500.98	361.23
501.34	366.30
501.71	371.60
502.07	377.03
502.43	382.60
502.79	388.33
503.16	394.35
503.52	400.65
503.88	406.97
504.24	413.57
504.60	420.49
504.97	427.61
505.33	434.89
505.69	442.57
506.05	450.33
506.41	458.16
506.78	466.28
507.14	474.70
507.50	483.43
507.86	492.39
508.22	501.55
508.59	510.60
508.95	520.14
509.31	529.89
509.67	539.95
510.03	550.23
510.39	560.82
510.75	571.65
511.12	582.53
511.48	593.91
511.84	605.29
512.20	616.77
512.56	628.69
512.92	640.92
513.28	653.21
513.64	665.67
514.00	678.41
514.37	691.30
514.73	704.35
515.09	717.31
515.45	730.75
515.81	744.29
516.17	758.37
516.53	772.49
516.89	786.70
517.25	800.88
517.61	815.27
517.97	829.70
518.33	844.13
518.69	859.01
519.05	874.03
519.41	889.28
519.77	904.80
520.13	920.29
520.49	935.69
520.85	951.12
521.21	966.98
521.57	983.32
521.93	999.31
522.29	1015.69
522.65	1032.08
523.01	1048.24
523.37	1064.43
523.73	1080.72
524.09	1096.92
524.45	1113.29
524.81	1129.95
525.17	1146.90
525.53	1163.98
525.89	1180.96
526.25	1197.76
526.61	1214.17
526.97	1230.95
527.33	1247.53
527.68	1264.23
528.04	1280.79
528.40	1297.61
528.76	1314.72
529.12	1331.28
529.48	1348.27
529.84	1364.47
530.20	1381.15
530.56	1398.25
530.91	1415.70
531.27	1432.46
531.63	1448.98
531.99	1465.56
532.35	1481.62
532.71	1497.54
533.07	1513.72
533.42	1529.61
533.78	1545.82
534.14	1562.14
534.50	1577.56
534.86	1593.55
535.21	1608.73
535.57	1624.70
535.93	1640.12
536.29	1654.90
536.65	1670.14
537.00	1684.79
537.36	1700.14
537.72	1714.67
538.08	1729.12
538.44	1742.98
538.79	1756.96
539.15	1770.86
539.51	1784.80
539.87	1799.33
540.22	1813.19
540.58	1827.19
540.94	1840.75
541.29	1853.70
541.65	1866.51
542.01	1879.83
542.37	1892.15
542.72	1904.70
543.08	1916.61
543.44	1929.18
543.79	1940.48
544.15	1951.44
544.51	1963.12
544.87	1974.08
545.22	1985.05
545.58	1995.23
545.94	2005.10
546.29	2015.07
546.65	2024.75
547.01	2034.00
547.36	2042.70
547.72	2051.16
548.07	2058.96
548.43	2067.00
548.79	2075.06
549.14	2082.50
549.50	2089.92
549.86	2097.75
550.21	2105.04
550.57	2112.15
550.92	2118.71
551.28	2125.91
551.64	2133.07
551.99	2139.53
552.35	2145.67
552.70	2151.72
553.06	2157.79
553.41	2164.03
553.77	2170.07
554.13	2176.05
554.48	2182.23
554.84	2187.59
555.19	2192.90
555.55	2197.93
555.90	2202.36
556.26	2207.04
556.61	2211.85
556.97	2215.93
557.32	2219.99
557.68	2224.09
558.03	2228.32
558.39	2232.01
558.74	2236.40
559.10	2240.09
559.45	2243.76
559.81	2248.13
560.16	2251.94
560.52	2254.96
560.87	2258.30
561.23	2260.64
561.58	2263.75
561.94	2265.99
562.29	2268.38
562.64	2270.99
563.00	2273.62
563.35	2277.06
563.71	2280.21
564.06	2283.24
564.42	2286.06
564.77	2288.37
565.12	2290.41
565.48	2292.07
565.83	2293.64
566.19	2294.73
566.54	2295.60
566.89	2296.57
567.25	2296.88
567.60	2297.98
567.96	2299.52
568.31	2300.15
568.66	2301.02
569.02	2301.36
569.37	2301.49
569.72	2302.11
570.08	2302.04
570.43	2301.71
570.78	2300.92
571.14	2299.26
571.49	2297.69
571.84	2297.16
572.20	2295.74
572.55	2294.56
572.90	2292.95
573.26	2291.46
573.61	2289.67
573.96	2287.74
574.31	2284.67
574.67	2281.45
575.02	2277.69
575.37	2274.18
575.72	2270.16
576.08	2266.81
576.43	2263.25
576.78	2259.48
577.13	2256.09
577.49	2252.83
577.84	2249.29
578.19	2245.48
578.54	2241.53
578.90	2237.21
579.25	2231.52
579.60	2226.38
579.95	2221.26
580.30	2215.97
580.66	2210.42
581.01	2205.48
581.36	2200.23
581.71	2195.75
582.06	2191.23
582.42	2186.54
582.77	2181.11
583.12	2176.33
583.47	2171.37
583.82	2166.17
584.17	2160.88
584.53	2155.29
584.88	2149.45
585.23	2143.45
585.58	2137.72
585.93	2132.27
586.28	2127.35
586.63	2122.07
586.98	2117.02
587.34	2112.08
587.69	2107.13
588.04	2101.90
588.39	2095.95
588.74	2089.43
589.09	2083.20
589.44	2076.26
589.79	2070.18
590.14	2064.51
590.49	2057.95
590.84	2051.47
591.19	2045.31
591.54	2038.68
591.89	2031.04
592.25	2024.03
592.60	2016.79
592.95	2009.11
593.30	2001.49
593.65	1993.66
594.00	1986.62
594.35	1979.26
594.70	1971.25
595.05	1964.03
595.40	1956.72
595.75	1949.15
596.10	1942.76
596.45	1935.78
596.80	1929.41
597.15	1922.72
597.50	1915.51
597.85	1909.03
598.19	1902.24
598.54	1895.12
598.89	1888.50
599.24	1882.64
599.59	1875.92
599.94	1869.69
600.29	1863.34
600.64	1856.63
600.99	1849.20
601.34	1842.24
601.69	1835.15
602.04	1828.06
602.39	1820.56
602.74	1813.61
603.08	1806.81
603.43	1800.21
603.78	1793.07
604.13	1785.93
604.48	1778.47
604.83	1771.74
605.18	1764.69
605.53	1756.83
605.87	1748.81
606.22	1741.48
606.57	1733.57
606.92	1726.40
607.27	1719.14
607.62	1712.16
607.96	1705.00
608.31	1698.39
608.66	1690.80
609.01	1683.27
609.36	1675.99
609.70	1668.03
610.05	1660.05
610.40	1652.42
610.75	1644.03
611.10	1636.37
611.44	1628.08
611.79	1620.17
612.14	1611.37
612.49	1602.41
612.83	1594.00
613.18	1585.96
613.53	1577.88
613.88	1569.42
614.22	1561.14
614.57	1552.74
614.92	1544.84
615.27	1537.36
615.61	1529.18
615.96	1521.18
616.31	1513.74
616.65	1506.32
617.00	1498.78
617.35	1491.19
617.70	1482.85
618.04	1474.36
618.39	1466.19
618.74	1458.65
619.08	1450.42
619.43	1443.00
619.78	1436.00
620.12	1428.85
620.47	1421.27
620.82	1413.19
621.16	1405.89
621.51	1398.29
621.85	1390.64
622.20	1382.15
622.55	1373.89
622.89	1366.11
623.24	1358.68
623.59	1351.29
623.93	1343.72
624.28	1336.59
624.62	1328.99
624.97	1321.93
625.32	1315.32
625.66	1308.38
626.01	1301.18
626.35	1293.82
626.70	1286.08
627.04	1278.47
627.39	1270.80
627.73	1263.56
628.08	1256.71
628.43	1249.36
628.77	1241.98
629.12	1234.44
629.46	1227.27
629.81	1219.91
630.15	1212.71
630.50	1205.33
630.84	1197.15
631.19	1189.39
631.53	1182.00
631.88	1174.66
632.22	1166.98
632.57	1159.71
632.91	1152.22
633.26	1144.86
633.60	1137.54
633.95	1130.52
634.29	1123.54
634.64	1116.97
634.98	1109.48
635.32	1102.45
635.67	1095.99
636.01	1089.53
636.36	1082.80
636.70	1076.42
637.05	1069.91
637.39	1063.47
637.73	1057.02
638.08	1051.31
638.42	1045.36
638.77	1038.95
639.11	1032.44
639.45	1026.23
639.80	1019.64
640.14	1013.24
640.49	1006.80
640.83	1000.54
641.17	994.38
641.52	988.16
641.86	981.86
642.20	976.29
642.55	970.07
642.89	963.64
643.23	957.14
643.58	951.38
643.92	945.26
644.26	939.22
644.61	933.35
644.95	927.33
645.29	920.72
645.64	913.95
645.98	907.69
646.32	901.90
646.66	895.91
647.01	890.17
647.35	884.59
647.69	878.81
648.04	873.32
648.38	867.47
648.72	861.41
649.06	855.30
649.41	849.37
649.75	843.34
650.09	837.39
650.43	831.52
650.78	825.45
651.12	819.54
651.46	813.88
651.80	808.04
652.14	802.70
652.49	797.36
652.83	792.30
653.17	786.62
653.51	780.84
653.85	775.50
654.20	769.81
654.54	763.72
654.88	758.10
655.22	752.33
655.56	746.68
655.90	741.30
656.25	736.09
656.59	730.82
656.93	725.80
657.27	720.67
657.61	715.40
657.95	710.30
658.29	705.27
658.64	700.01
658.98	694.81
659.32	689.39
659.66	684.19
660.00	678.90
660.34	673.98
660.68	669.16
661.02	664.13
661.36	659.51
661.70	655.09
662.05	650.66
662.39	646.37
662.73	642.03
663.07	637.65
663.41	633.29
663.75	628.73
664.09	624.26
664.43	619.92
664.77	615.77
665.11	611.54
665.45	607.44
665.79	603.43
666.13	599.33
666.47	595.22
666.81	591.11
667.15	587.04
667.49	583.20
667.83	579.46
668.17	575.55
668.51	571.51
668.85	567.62
669.19	563.85
669.53	560.01
669.87	556.10
670.21	552.47
670.55	548.85
670.89	545.47
671.23	542.00
671.57	538.56
671.91	535.13
672.25	531.75
672.58	528.26
672.92	524.90
673.26	521.74
673.60	518.66
673.94	515.58
674.28	512.73
674.62	509.83
674.96	506.72
675.30	503.86
675.64	500.94
675.97	498.16
676.31	495.33
676.65	492.41
676.99	489.74
677.33	486.88
677.67	484.08
678.01	481.09
678.34	478.16
678.68	475.32
679.02	472.51
679.36	469.76
679.70	467.09
680.04	464.29
680.37	461.46
680.71	458.70
681.05	456.17
681.39	453.45
681.73	450.86
682.06	448.37
682.40	445.87
682.74	443.41
683.08	440.90
683.42	438.29
683.75	435.86
684.09	433.35
684.43	430.89
684.77	428.46
685.10	426.20
685.44	423.97
685.78	421.75
686.12	419.54
686.45	417.31
686.79	415.04
687.13	412.93
687.46	410.78
687.80	408.64
688.14	406.43
688.48	404.37
688.81	402.11
689.15	399.98
689.49	397.87
689.82	395.82
690.16	393.73
690.50	391.80
690.83	389.90
691.17	387.98
691.51	386.14
691.84	384.30
692.18	382.34
692.52	380.37
692.85	378.42
693.19	376.52
693.52	374.68
693.86	372.88
694.20	371.11
694.53	369.32
694.87	367.50
695.21	365.72
695.54	363.90
695.88	362.18
696.21	360.48
696.55	358.77
696.88	357.12
697.22	355.52
697.56	353.93
697.89	352.20
698.23	350.60
698.56	349.02
698.90	347.45
699.23	345.82
699.57	344.30
699.90	342.77
700.24	341.23
700.58	339.67
700.91	338.17
701.25	336.71
701.58	335.35
701.92	334.00
702.25	332.62
702.59	331.24
702.92	329.91
703.26	328.57
703.59	327.34
703.93	326.09
704.26	324.83
704.60	323.50
704.93	322.26
705.26	321.01
705.60	319.83
705.93	318.72
706.27	317.67
706.60	316.60
706.94	315.52
707.27	314.40
707.61	313.37
707.94	312.35
708.27	311.29
708.61	310.24
708.94	309.26
709.28	308.33
709.61	307.44
709.94	306.50
710.28	305.47
710.61	304.49
710.95	303.47
711.28	302.62
711.61	301.73
711.95	300.84
712.28	299.87
712.61	298.89
712.95	297.92
713.28	297.06
713.61	296.14
713.95	295.25
714.28	294.46
714.61	293.63
714.95	292.80
715.28	291.94
715.61	291.09
715.95	290.25
716.28	289.39
716.61	288.54
716.95	287.76
717.28	287.09
717.61	286.33
717.94	285.57
718.28	284.74
718.61	284.00
718.94	283.34
719.27	282.73
719.61	282.11
719.94	281.45
720.27	280.76
720.60	280.14
720.94	279.53
721.27	278.95
721.60	278.36
721.93	277.79
722.27	277.24
722.60	276.69
722.93	276.11
723.26	275.59
723.59	275.06
723.93	274.47
724.26	273.91
724.59	273.38
724.92	272.88
725.25	272.39
725.59	271.87
725.92	271.38
726.25	270.87
726.58	270.39
726.91	269.93
727.24	269.48
727.57	269.04
727.91	268.51
728.24	268.07
728.57	267.57
728.90	267.10
729.23	266.65
729.56	266.26
729.89	265.78
730.22	265.29
730.55	264.81
730.89	264.43
731.22	263.97
731.55	263.53
731.88	263.14
732.21	262.70
732.54	262.32
732.87	261.87
733.20	261.50
733.53	261.08
733.86	260.70
734.19	260.24
734.52	259.85
734.85	259.58
735.18	259.13
735.51	258.80
735.84	258.41
736.17	258.01
736.50	257.56
736.83	257.36
737.16	257.03
737.49	256.69
737.82	256.36
738.15	256.03
738.48	255.66
738.81	255.35
739.14	255.02
739.47	254.67
739.80	254.40
740.13	254.09
740.46	253.76
740.79	253.47
741.12	253.19
741.45	252.88
741.78	252.51
742.11	252.20
742.44	251.87
742.77	251.62
743.10	251.32
743.43	251.08
743.75	250.69
744.08	250.53
744.41	250.27
744.74	249.93
745.07	249.67
745.40	249.40
745.73	249.12
746.06	248.86
746.39	248.62
746.71	248.30
747.04	248.02
747.37	247.77
747.70	247.50
748.03	247.25
748.36	247.02
748.68	246.82
749.01	246.59
749.34	246.33
749.67	246.09
750.00	245.88
750.33	245.73
750.65	245.49
750.98	245.15
751.31	244.91
751.64	244.75
751.97	244.57
752.29	244.38
752.62	244.18
752.95	243.95
753.28	243.73
753.60	243.54
753.93	243.36
754.26	243.17
754.59	242.95
754.91	242.74
755.24	242.52
755.57	242.30
755.90	242.10
756.22	241.92
756.55	241.73
756.88	241.55
757.20	241.28
757.53	241.10
757.86	240.91
758.19	240.78
758.51	240.59
758.84	240.38
759.17	240.20
759.49	240.04
759.82	239.96
760.15	239.81
760.47	239.65
760.80	239.46
761.13	239.32
761.45	239.16
761.78	239.00
762.11	238.86
762.43	238.71
762.76	238.56
763.08	238.44
763.41	238.30
763.74	238.15
764.06	238.02
764.39	237.88
764.71	237.76
765.04	237.62
765.37	237.52
765.69	237.41
766.02	237.28
766.34	237.12
766.67	236.95
767.00	236.85
767.32	236.77
767.65	236.74
767.97	236.65
768.30	236.57
768.62	236.49
768.95	236.38
769.27	236.27
769.60	236.17
769.92	236.07
770.25	235.94
770.57	235.80
770.90	235.72
771.22	235.60
771.55	235.51
771.87	235.42
772.20	235.30
772.52	235.27
772.85	235.30
773.17	235.24
773.50	235.13
773.82	235.04
774.15	234.95
774.47	234.80
774.80	234.68
775.12	234.60
775.45	234.46
775.77	234.38
776.09	234.29
776.42	234.23
776.74	234.17
777.07	234.11
777.39	234.04
777.72	233.96
778.04	233.91
778.36	233.83
778.69	233.76
779.01	233.71
779.33	233.61
779.66	233.41
779.98	233.34
780.31	233.29
780.63	233.25
780.95	233.21
781.28	233.11
781.60	233.05
781.92	232.99
782.25	232.97
782.57	232.88
782.89	232.83
783.22	232.80
783.54	232.70
783.86	232.63
784.19	232.56
784.51	232.52
784.83	232.48
785.16	232.39
785.48	232.36
785.80	232.28
786.12	232.21
786.45	232.16
786.77	232.12
787.09	232.05
