SpectraSuite Data File
++++++++++++++++++++++++++++++++++++
Date: Fri Feb 01 15:52:02 EST 2013
User: group
Dark Spectrum Present: No
Reference Spectrum Present: No
Number of Sampled Component Spectra: 1
Spectrometers: USB2E7196
Integration Time (usec): 35000 (USB2E7196)
Spectra Averaged: 100 (USB2E7196)
Boxcar Smoothing: 10 (USB2E7196)
Correct for Electrical Dark: No (USB2E7196)
Strobe/Lamp Enabled: No (USB2E7196)
Correct for Detector Non-linearity: No (USB2E7196)
Correct for Stray Light: No (USB2E7196)
Number of Pixels in Processed Spectrum: 2048
>>>>>Begin Processed Spectral Data<<<<<
339.09	0.00
339.48	214.74
339.86	216.45
340.24	218.08
340.63	218.74
341.01	221.78
341.39	221.90
341.78	223.41
342.16	224.36
342.54	224.84
342.93	213.22
343.31	223.98
343.69	224.54
344.07	225.00
344.46	225.45
344.84	225.86
345.22	226.09
345.60	226.29
345.99	226.45
346.37	226.59
346.75	226.70
347.13	226.77
347.52	226.84
347.90	226.92
348.28	226.93
348.66	226.98
349.05	226.97
349.43	227.02
349.81	227.07
350.19	227.08
350.57	227.16
350.96	227.24
351.34	227.34
351.72	227.43
352.10	227.55
352.48	227.58
352.87	227.60
353.25	227.70
353.63	227.80
354.01	227.90
354.39	227.95
354.77	228.01
355.15	228.11
355.54	228.17
355.92	228.19
356.30	228.27
356.68	228.39
357.06	228.48
357.44	228.50
357.82	228.55
358.20	228.65
358.58	228.67
358.97	228.71
359.35	228.79
359.73	228.85
360.11	228.90
360.49	228.95
360.87	229.00
361.25	229.05
361.63	229.12
362.01	229.14
362.39	229.18
362.77	229.23
363.15	229.22
363.53	229.24
363.91	229.23
364.29	229.26
364.67	229.17
365.05	229.16
365.43	229.19
365.81	229.20
366.19	229.26
366.57	229.29
366.95	229.30
367.33	229.26
367.71	229.27
368.09	229.25
368.47	229.24
368.85	229.21
369.23	229.20
369.61	229.12
369.99	229.09
370.37	229.05
370.75	229.04
371.13	229.00
371.51	228.95
371.89	228.93
372.27	228.87
372.65	228.86
373.03	228.81
373.41	228.74
373.78	228.67
374.16	228.55
374.54	228.49
374.92	228.39
375.30	228.31
375.68	228.20
376.06	228.13
376.44	228.05
376.82	228.00
377.19	227.93
377.57	227.85
377.95	227.78
378.33	227.69
378.71	227.59
379.09	227.51
379.47	227.47
379.84	227.41
380.22	227.33
380.60	227.22
380.98	227.17
381.36	227.12
381.73	227.05
382.11	226.99
382.49	226.92
382.87	226.87
383.25	226.80
383.62	226.87
384.00	226.78
384.38	226.75
384.76	226.71
385.13	226.67
385.51	226.66
385.89	226.63
386.27	226.61
386.64	226.57
387.02	226.54
387.40	226.47
387.78	226.42
388.15	226.38
388.53	226.36
388.91	226.31
389.29	226.26
389.66	226.25
390.04	226.20
390.42	226.19
390.79	226.19
391.17	226.22
391.55	226.09
391.92	226.08
392.30	226.09
392.68	226.05
393.05	226.05
393.43	226.06
393.81	226.03
394.18	226.02
394.56	226.01
394.94	226.04
395.31	226.03
395.69	226.08
396.06	226.15
396.44	226.17
396.82	226.22
397.19	226.32
397.57	226.35
397.95	226.43
398.32	226.44
398.70	226.51
399.07	226.57
399.45	226.61
399.82	226.73
400.20	226.74
400.58	226.80
400.95	226.82
401.33	226.92
401.70	227.08
402.08	227.17
402.45	227.25
402.83	227.37
403.20	227.51
403.58	227.60
403.95	227.72
404.33	227.87
404.71	227.97
405.08	228.14
405.46	228.30
405.83	228.42
406.21	228.55
406.58	228.72
406.96	228.87
407.33	229.06
407.70	229.22
408.08	229.51
408.45	229.72
408.83	229.97
409.20	230.18
409.58	230.34
409.95	230.61
410.33	230.90
410.70	231.14
411.08	231.45
411.45	231.74
411.82	232.01
412.20	232.35
412.57	232.77
412.95	233.07
413.32	233.49
413.69	233.89
414.07	234.38
414.44	234.86
414.82	235.32
415.19	235.85
415.56	236.40
415.94	236.91
416.31	237.56
416.68	238.20
417.06	238.91
417.43	239.60
417.81	240.33
418.18	241.09
418.55	241.94
418.93	242.80
419.30	243.75
419.67	244.72
420.04	245.63
420.42	246.61
420.79	247.75
421.16	248.87
421.54	250.08
421.91	251.25
422.28	252.45
422.66	253.78
423.03	255.08
423.40	256.41
423.77	257.87
424.15	259.30
424.52	260.77
424.89	262.38
425.26	263.93
425.64	265.42
426.01	267.03
426.38	268.67
426.75	270.37
427.13	272.05
427.50	273.84
427.87	275.75
428.24	277.61
428.61	279.36
428.99	281.32
429.36	283.43
429.73	285.55
430.10	287.59
430.47	289.69
430.85	291.83
431.22	294.07
431.59	296.43
431.96	298.71
432.33	301.17
432.70	303.53
433.08	306.36
433.45	309.01
433.82	311.63
434.19	314.52
434.56	317.30
434.93	320.00
435.30	322.65
435.68	325.55
436.05	328.41
436.42	331.22
436.79	333.73
437.16	336.43
437.53	339.26
437.90	342.11
438.27	344.84
438.64	347.65
439.01	350.22
439.38	352.49
439.75	354.60
440.13	357.09
440.50	359.45
440.87	361.30
441.24	363.22
441.61	365.42
441.98	366.91
442.35	368.76
442.72	370.59
443.09	372.42
443.46	373.43
443.83	374.00
444.20	374.53
444.57	375.36
444.94	375.66
445.31	375.99
445.68	376.31
446.05	376.38
446.42	376.04
446.79	375.65
447.16	375.16
447.53	374.89
447.90	373.76
448.27	372.55
448.64	370.96
449.01	369.87
449.37	367.85
449.74	365.97
450.11	363.66
450.48	361.22
450.85	358.65
451.22	356.49
451.59	354.49
451.96	352.54
452.33	349.95
452.70	347.60
453.07	344.78
453.43	341.85
453.80	339.06
454.17	336.33
454.54	333.78
454.91	331.04
455.28	328.34
455.65	325.88
456.02	323.47
456.38	321.34
456.75	318.68
457.12	316.43
457.49	314.22
457.86	312.06
458.23	310.20
458.59	308.13
458.96	306.06
459.33	304.22
459.70	302.32
460.07	300.80
460.43	299.07
460.80	297.43
461.17	296.02
461.54	294.56
461.91	293.14
462.27	291.71
462.64	290.49
463.01	289.15
463.38	287.87
463.74	286.47
464.11	285.31
464.48	284.24
464.85	283.12
465.21	282.27
465.58	281.38
465.95	280.28
466.32	279.38
466.68	278.49
467.05	277.56
467.42	276.71
467.78	275.83
468.15	274.95
468.52	274.29
468.88	273.46
469.25	272.64
469.62	272.06
469.98	271.36
470.35	270.72
470.72	270.14
471.08	269.45
471.45	268.92
471.82	268.35
472.18	267.74
472.55	267.33
472.92	266.80
473.28	266.34
473.65	265.88
474.02	265.44
474.38	265.11
474.75	264.83
475.11	264.47
475.48	264.19
475.85	263.95
476.21	263.72
476.58	263.51
476.94	263.40
477.31	263.17
477.67	263.02
478.04	262.93
478.41	262.85
478.77	262.87
479.14	262.83
479.50	262.85
479.87	262.93
480.23	263.00
480.60	263.06
480.96	263.16
481.33	263.37
481.69	263.54
482.06	263.71
482.42	263.90
482.79	264.14
483.15	264.48
483.52	264.85
483.88	265.19
484.25	265.59
484.61	266.02
484.98	266.52
485.34	267.08
485.71	267.66
486.07	268.29
486.44	268.90
486.80	269.61
487.17	270.35
487.53	271.15
487.90	272.00
488.26	272.95
488.62	273.93
488.99	274.90
489.35	276.02
489.72	277.15
490.08	278.32
490.44	279.62
490.81	280.91
491.17	282.30
491.54	283.81
491.90	285.36
492.26	287.01
492.63	288.73
492.99	290.53
493.36	292.46
493.72	294.49
494.08	296.59
494.45	298.87
494.81	301.25
495.17	303.70
495.54	306.27
495.90	308.94
496.26	311.72
496.63	314.70
496.99	317.78
497.35	321.06
497.72	324.49
498.08	328.00
498.44	331.71
498.80	335.56
499.17	339.56
499.53	343.72
499.89	348.16
500.26	352.66
500.62	357.28
500.98	362.22
501.34	367.33
501.71	372.67
502.07	378.09
502.43	383.66
502.79	389.48
503.16	395.59
503.52	401.87
503.88	408.30
504.24	414.93
504.60	421.76
504.97	428.84
505.33	436.16
505.69	443.87
506.05	451.64
506.41	459.55
506.78	467.75
507.14	476.22
507.50	484.87
507.86	493.90
508.22	503.16
508.59	512.43
508.95	522.04
509.31	531.81
509.67	541.92
510.03	552.27
510.39	562.81
510.75	573.59
511.12	584.51
511.48	595.80
511.84	607.25
512.20	618.83
512.56	630.81
512.92	642.99
513.28	655.30
513.64	667.76
514.00	680.50
514.37	693.38
514.73	706.41
515.09	719.43
515.45	732.70
515.81	746.25
516.17	760.16
516.53	774.24
516.89	788.48
517.25	802.65
517.61	817.09
517.97	831.52
518.33	845.95
518.69	860.65
519.05	875.61
519.41	890.73
519.77	906.28
520.13	921.76
520.49	937.08
520.85	952.47
521.21	968.19
521.57	984.36
521.93	1000.16
522.29	1016.48
522.65	1032.66
523.01	1048.84
523.37	1064.78
523.73	1080.90
524.09	1097.01
524.45	1113.25
524.81	1129.87
525.17	1146.59
525.53	1163.51
525.89	1180.30
526.25	1197.19
526.61	1213.62
526.97	1230.39
527.33	1246.91
527.68	1263.43
528.04	1279.92
528.40	1296.55
528.76	1313.59
529.12	1330.26
529.48	1347.04
529.84	1363.07
530.20	1379.74
530.56	1396.91
530.91	1414.45
531.27	1431.25
531.63	1447.62
531.99	1464.20
532.35	1480.01
532.71	1495.82
533.07	1512.06
533.42	1527.90
533.78	1543.91
534.14	1560.20
534.50	1575.52
534.86	1591.26
535.21	1606.29
535.57	1622.24
535.93	1637.78
536.29	1652.55
536.65	1667.52
537.00	1682.40
537.36	1697.76
537.72	1712.23
538.08	1726.50
538.44	1740.22
538.79	1754.16
539.15	1767.85
539.51	1781.56
539.87	1795.93
540.22	1809.69
540.58	1823.46
540.94	1836.91
541.29	1849.76
541.65	1862.31
542.01	1875.50
542.37	1887.85
542.72	1900.37
543.08	1912.13
543.44	1924.44
543.79	1935.58
544.15	1946.50
544.51	1958.02
544.87	1968.95
545.22	1979.72
545.58	1989.91
545.94	1999.62
546.29	2009.40
546.65	2019.22
547.01	2028.59
547.36	2037.33
547.72	2045.84
548.07	2053.65
548.43	2061.86
548.79	2069.88
549.14	2077.51
549.50	2084.77
549.86	2092.45
550.21	2099.74
550.57	2106.87
550.92	2113.49
551.28	2120.59
551.64	2127.65
551.99	2134.17
552.35	2140.34
552.70	2146.54
553.06	2152.49
553.41	2158.90
553.77	2164.95
554.13	2171.10
554.48	2177.21
554.84	2182.75
555.19	2188.00
555.55	2193.05
555.90	2197.37
556.26	2202.23
556.61	2207.04
556.97	2211.36
557.32	2215.43
557.68	2219.54
558.03	2223.82
558.39	2227.42
558.74	2232.07
559.10	2235.94
559.45	2239.67
559.81	2244.00
560.16	2247.83
560.52	2251.11
560.87	2254.45
561.23	2257.08
561.58	2259.99
561.94	2262.44
562.29	2264.79
562.64	2267.35
563.00	2270.02
563.35	2273.60
563.71	2276.80
564.06	2279.92
564.42	2282.82
564.77	2285.42
565.12	2287.78
565.48	2289.64
565.83	2291.67
566.19	2292.97
566.54	2293.93
566.89	2294.99
567.25	2295.51
567.60	2296.79
567.96	2298.40
568.31	2299.28
568.66	2300.34
569.02	2300.87
569.37	2301.09
569.72	2302.04
570.08	2302.28
570.43	2302.42
570.78	2301.86
571.14	2300.19
571.49	2298.74
571.84	2298.47
572.20	2297.28
572.55	2296.21
572.90	2294.67
573.26	2293.13
573.61	2291.40
573.96	2289.59
574.31	2286.68
574.67	2283.76
575.02	2280.17
575.37	2276.85
575.72	2273.01
576.08	2269.75
576.43	2266.55
576.78	2262.92
577.13	2259.79
577.49	2256.59
577.84	2253.07
578.19	2249.23
578.54	2245.70
578.90	2241.49
579.25	2235.87
579.60	2230.88
579.95	2225.77
580.30	2220.84
580.66	2215.66
581.01	2210.80
581.36	2205.98
581.71	2201.63
582.06	2196.97
582.42	2192.52
582.77	2187.25
583.12	2182.69
583.47	2177.95
583.82	2172.83
584.17	2167.50
584.53	2161.85
584.88	2156.31
585.23	2150.46
585.58	2144.99
585.93	2139.61
586.28	2134.92
586.63	2129.82
586.98	2124.87
587.34	2120.29
587.69	2115.29
588.04	2110.02
588.39	2104.28
588.74	2097.85
589.09	2091.75
589.44	2085.06
589.79	2079.15
590.14	2073.68
590.49	2067.29
590.84	2060.87
591.19	2054.82
591.54	2048.43
591.89	2040.94
592.25	2034.08
592.60	2026.90
592.95	2019.34
593.30	2011.98
593.65	2004.38
594.00	1997.41
594.35	1990.04
594.70	1981.92
595.05	1974.72
595.40	1967.50
595.75	1959.98
596.10	1953.66
596.45	1946.91
596.80	1940.74
597.15	1933.97
597.50	1926.66
597.85	1920.10
598.19	1913.41
598.54	1906.28
598.89	1899.66
599.24	1893.91
599.59	1887.20
599.94	1881.08
600.29	1874.86
600.64	1868.13
600.99	1860.62
601.34	1853.84
601.69	1846.88
602.04	1840.08
602.39	1832.72
602.74	1825.86
603.08	1819.15
603.43	1812.52
603.78	1805.21
604.13	1798.02
604.48	1790.65
604.83	1783.84
605.18	1776.81
605.53	1768.87
605.87	1760.93
606.22	1753.72
606.57	1745.80
606.92	1738.59
607.27	1731.33
607.62	1724.27
607.96	1717.09
608.31	1710.57
608.66	1702.83
609.01	1695.19
609.36	1687.61
609.70	1679.60
610.05	1671.55
610.40	1663.88
610.75	1655.48
611.10	1647.92
611.44	1639.50
611.79	1631.57
612.14	1622.86
612.49	1613.69
612.83	1605.37
613.18	1597.17
613.53	1589.10
613.88	1580.61
614.22	1572.26
614.57	1563.73
614.92	1555.66
615.27	1548.09
615.61	1539.66
615.96	1531.72
616.31	1524.23
616.65	1516.79
617.00	1509.36
617.35	1501.71
617.70	1493.36
618.04	1484.79
618.39	1476.54
618.74	1469.02
619.08	1460.68
619.43	1453.15
619.78	1446.33
620.12	1439.10
620.47	1431.55
620.82	1423.32
621.16	1415.85
621.51	1408.31
621.85	1400.64
622.20	1392.17
622.55	1383.77
622.89	1376.05
623.24	1368.38
623.59	1360.91
623.93	1353.44
624.28	1346.15
624.62	1338.50
624.97	1331.24
625.32	1324.65
625.66	1317.60
626.01	1310.36
626.35	1302.96
626.70	1295.21
627.04	1287.49
627.39	1279.69
627.73	1272.35
628.08	1265.45
628.43	1258.03
628.77	1250.58
629.12	1243.10
629.46	1235.98
629.81	1228.63
630.15	1221.29
630.50	1213.87
630.84	1205.65
631.19	1197.81
631.53	1190.36
631.88	1182.88
632.22	1175.36
632.57	1167.88
632.91	1160.22
633.26	1152.78
633.60	1145.50
633.95	1138.55
634.29	1131.44
634.64	1124.78
634.98	1117.35
635.32	1110.19
635.67	1103.65
636.01	1097.02
636.36	1090.16
636.70	1083.60
637.05	1076.92
637.39	1070.48
637.73	1063.96
638.08	1058.14
638.42	1052.04
638.77	1045.52
639.11	1038.92
639.45	1032.58
639.80	1026.04
640.14	1019.70
640.49	1013.14
640.83	1006.72
641.17	1000.30
641.52	993.97
641.86	987.50
642.20	981.71
642.55	975.40
642.89	968.82
643.23	962.38
643.58	956.55
643.92	950.40
644.26	944.39
644.61	938.31
644.95	932.17
645.29	925.57
645.64	918.91
645.98	912.57
646.32	906.74
646.66	900.66
647.01	894.83
647.35	889.09
647.69	883.31
648.04	877.77
648.38	871.99
648.72	865.94
649.06	859.93
649.41	854.10
649.75	848.12
650.09	842.30
650.43	836.44
650.78	830.31
651.12	824.28
651.46	818.57
651.80	812.87
652.14	807.55
652.49	802.23
652.83	796.94
653.17	791.24
653.51	785.50
653.85	780.15
654.20	774.51
654.54	768.52
654.88	762.77
655.22	756.95
655.56	751.32
655.90	745.95
656.25	740.66
656.59	735.27
656.93	730.25
657.27	725.04
657.61	719.68
657.95	714.56
658.29	709.54
658.64	704.33
658.98	698.95
659.32	693.47
659.66	688.25
660.00	682.98
660.34	678.06
660.68	673.19
661.02	668.07
661.36	663.27
661.70	658.74
662.05	654.40
662.39	650.07
662.73	645.53
663.07	641.09
663.41	636.67
663.75	632.11
664.09	627.50
664.43	623.12
664.77	618.94
665.11	614.75
665.45	610.66
665.79	606.53
666.13	602.42
666.47	598.35
666.81	594.09
667.15	590.00
667.49	586.14
667.83	582.26
668.17	578.38
668.51	574.40
668.85	570.42
669.19	566.57
669.53	562.63
669.87	558.75
670.21	555.07
670.55	551.38
670.89	547.99
671.23	544.58
671.57	541.10
671.91	537.62
672.25	534.08
672.58	530.51
672.92	527.12
673.26	523.99
673.60	520.84
673.94	517.79
674.28	514.86
674.62	511.88
674.96	508.79
675.30	505.80
675.64	502.86
675.97	500.02
676.31	497.12
676.65	494.27
676.99	491.58
677.33	488.70
677.67	485.88
678.01	482.82
678.34	479.82
678.68	476.89
679.02	473.98
679.36	471.21
679.70	468.49
680.04	465.69
680.37	462.83
680.71	459.99
681.05	457.38
681.39	454.69
681.73	452.04
682.06	449.51
682.40	447.01
682.74	444.47
683.08	441.97
683.42	439.37
683.75	436.86
684.09	434.32
684.43	431.84
684.77	429.38
685.10	427.03
685.44	424.75
685.78	422.52
686.12	420.29
686.45	418.05
686.79	415.73
687.13	413.55
687.46	411.35
687.80	409.23
688.14	407.00
688.48	404.91
688.81	402.67
689.15	400.48
689.49	398.31
689.82	396.28
690.16	394.21
690.50	392.29
690.83	390.38
691.17	388.44
691.51	386.55
691.84	384.71
692.18	382.83
692.52	380.84
692.85	378.87
693.19	376.99
693.52	375.13
693.86	373.34
694.20	371.54
694.53	369.79
694.87	367.99
695.21	366.24
695.54	364.43
695.88	362.72
696.21	361.02
696.55	359.41
696.88	357.69
697.22	356.05
697.56	354.43
697.89	352.74
698.23	351.08
698.56	349.50
698.90	347.91
699.23	346.24
699.57	344.68
699.90	343.16
700.24	341.63
700.58	340.11
700.91	338.60
701.25	337.13
701.58	335.75
701.92	334.39
702.25	332.98
702.59	331.64
702.92	330.31
703.26	329.01
703.59	327.67
703.93	326.47
704.26	325.20
704.60	323.89
704.93	322.63
705.26	321.37
705.60	320.21
705.93	319.07
706.27	318.03
706.60	316.95
706.94	315.86
707.27	314.74
707.61	313.66
707.94	312.62
708.27	311.53
708.61	310.43
708.94	309.43
709.28	308.48
709.61	307.49
709.94	306.52
710.28	305.49
710.61	304.55
710.95	303.48
711.28	302.55
711.61	301.60
711.95	300.71
712.28	299.80
712.61	298.80
712.95	297.85
713.28	296.96
713.61	296.04
713.95	295.13
714.28	294.28
714.61	293.42
714.95	292.60
715.28	291.75
715.61	290.91
715.95	290.01
716.28	289.14
716.61	288.30
716.95	287.51
717.28	286.79
717.61	285.99
717.94	285.27
718.28	284.51
718.61	283.79
718.94	283.04
719.27	282.36
719.61	281.73
719.94	281.08
720.27	280.37
720.60	279.76
720.94	279.16
721.27	278.57
721.60	277.99
721.93	277.39
722.27	276.86
722.60	276.33
722.93	275.79
723.26	275.24
723.59	274.69
723.93	274.13
724.26	273.56
724.59	273.02
724.92	272.50
725.25	272.01
725.59	271.48
725.92	270.98
726.25	270.46
726.58	269.96
726.91	269.44
727.24	269.01
727.57	268.57
727.91	268.09
728.24	267.64
728.57	267.19
728.90	266.76
729.23	266.29
729.56	265.83
729.89	265.38
730.22	264.91
730.55	264.45
730.89	263.97
731.22	263.58
731.55	263.18
731.88	262.76
732.21	262.33
732.54	261.92
732.87	261.55
733.20	261.18
733.53	260.80
733.86	260.43
734.19	260.00
734.52	259.60
734.85	259.30
735.18	258.88
735.51	258.52
735.84	258.13
736.17	257.78
736.50	257.39
736.83	257.14
737.16	256.81
737.49	256.47
737.82	256.16
738.15	255.77
738.48	255.42
738.81	255.09
739.14	254.75
739.47	254.43
739.80	254.09
740.13	253.75
740.46	253.42
740.79	253.13
741.12	252.78
741.45	252.44
741.78	252.06
742.11	251.75
742.44	251.39
742.77	251.13
743.10	250.81
743.43	250.50
743.75	250.13
744.08	249.98
744.41	249.69
744.74	249.42
745.07	249.18
745.40	248.93
745.73	248.70
746.06	248.41
746.39	248.15
746.71	247.86
747.04	247.62
747.37	247.34
747.70	247.08
748.03	246.88
748.36	246.65
748.68	246.41
749.01	246.19
749.34	245.96
749.67	245.68
750.00	245.44
750.33	245.29
750.65	245.04
750.98	244.68
751.31	244.47
751.64	244.25
751.97	244.06
752.29	243.86
752.62	243.56
752.95	243.35
753.28	243.14
753.60	242.94
753.93	242.79
754.26	242.63
754.59	242.39
754.91	242.18
755.24	241.97
755.57	241.77
755.90	241.58
756.22	241.42
756.55	241.24
756.88	241.07
757.20	240.82
757.53	240.65
757.86	240.47
758.19	240.29
758.51	240.11
758.84	239.90
759.17	239.71
759.49	239.60
759.82	239.49
760.15	239.31
760.47	239.14
760.80	238.90
761.13	238.73
761.45	238.59
761.78	238.49
762.11	238.31
762.43	238.18
762.76	238.03
763.08	237.86
763.41	237.74
763.74	237.60
764.06	237.49
764.39	237.37
764.71	237.25
765.04	237.13
765.37	237.01
765.69	236.87
766.02	236.76
766.34	236.62
766.67	236.44
767.00	236.32
767.32	236.29
767.65	236.27
767.97	236.18
768.30	236.05
768.62	235.88
768.95	235.78
769.27	235.71
769.60	235.62
769.92	235.55
770.25	235.42
770.57	235.31
770.90	235.19
771.22	235.07
771.55	235.02
771.87	234.96
772.20	234.86
772.52	234.89
772.85	234.90
773.17	234.82
773.50	234.74
773.82	234.70
774.15	234.58
774.47	234.44
774.80	234.32
775.12	234.25
775.45	234.19
775.77	234.13
776.09	234.03
776.42	233.96
776.74	233.87
777.07	233.80
777.39	233.74
777.72	233.70
778.04	233.62
778.36	233.57
778.69	233.50
779.01	233.46
779.33	233.29
779.66	233.15
779.98	233.08
780.31	233.04
780.63	232.99
780.95	232.95
781.28	232.87
781.60	232.82
781.92	232.78
782.25	232.73
782.57	232.67
782.89	232.64
783.22	232.59
783.54	232.53
783.86	232.47
784.19	232.41
784.51	232.39
784.83	232.34
785.16	232.25
785.48	232.17
785.80	232.09
786.12	232.02
786.45	231.91
786.77	231.84
787.09	231.79
