SpectraSuite Data File
++++++++++++++++++++++++++++++++++++
Date: Fri Feb 01 15:53:51 EST 2013
User: group
Dark Spectrum Present: No
Reference Spectrum Present: No
Number of Sampled Component Spectra: 1
Spectrometers: USB2E7196
Integration Time (usec): 35000 (USB2E7196)
Spectra Averaged: 100 (USB2E7196)
Boxcar Smoothing: 10 (USB2E7196)
Correct for Electrical Dark: No (USB2E7196)
Strobe/Lamp Enabled: No (USB2E7196)
Correct for Detector Non-linearity: No (USB2E7196)
Correct for Stray Light: No (USB2E7196)
Number of Pixels in Processed Spectrum: 2048
>>>>>Begin Processed Spectral Data<<<<<
339.09	0.00
339.48	215.08
339.86	216.43
340.24	217.36
340.63	219.54
341.01	222.29
341.39	221.78
341.78	222.95
342.16	224.43
342.54	224.93
342.93	213.20
343.31	223.97
343.69	224.50
344.07	224.93
344.46	225.38
344.84	225.73
345.22	225.96
345.60	226.19
345.99	226.37
346.37	226.53
346.75	226.63
347.13	226.69
347.52	226.76
347.90	226.84
348.28	226.88
348.66	226.91
349.05	226.91
349.43	226.96
349.81	227.02
350.19	227.05
350.57	227.10
350.96	227.21
351.34	227.30
351.72	227.39
352.10	227.49
352.48	227.56
352.87	227.58
353.25	227.62
353.63	227.70
354.01	227.78
354.39	227.80
354.77	227.89
355.15	227.96
355.54	228.00
355.92	228.03
356.30	228.11
356.68	228.22
357.06	228.30
357.44	228.35
357.82	228.37
358.20	228.44
358.58	228.48
358.97	228.52
359.35	228.60
359.73	228.67
360.11	228.71
360.49	228.78
360.87	228.83
361.25	228.92
361.63	228.99
362.01	229.03
362.39	229.05
362.77	229.07
363.15	229.12
363.53	229.17
363.91	229.16
364.29	229.17
364.67	229.07
365.05	229.13
365.43	229.15
365.81	229.15
366.19	229.19
366.57	229.21
366.95	229.18
367.33	229.13
367.71	229.12
368.09	229.16
368.47	229.13
368.85	229.13
369.23	229.10
369.61	229.04
369.99	229.05
370.37	229.08
370.75	229.09
371.13	228.99
371.51	228.94
371.89	228.93
372.27	228.89
372.65	228.89
373.03	228.80
373.41	228.73
373.78	228.72
374.16	228.59
374.54	228.52
374.92	228.50
375.30	228.46
375.68	228.39
376.06	228.28
376.44	228.21
376.82	228.14
377.19	228.03
377.57	227.93
377.95	227.83
378.33	227.75
378.71	227.62
379.09	227.56
379.47	227.49
379.84	227.39
380.22	227.30
380.60	227.20
380.98	227.13
381.36	227.08
381.73	227.00
382.11	226.94
382.49	226.90
382.87	226.81
383.25	226.75
383.62	226.77
384.00	226.73
384.38	226.67
384.76	226.65
385.13	226.64
385.51	226.60
385.89	226.51
386.27	226.44
386.64	226.42
387.02	226.39
387.40	226.34
387.78	226.34
388.15	226.33
388.53	226.28
388.91	226.27
389.29	226.22
389.66	226.19
390.04	226.19
390.42	226.17
390.79	226.17
391.17	226.13
391.55	226.03
391.92	226.03
392.30	226.05
392.68	226.03
393.05	226.03
393.43	226.05
393.81	226.09
394.18	226.11
394.56	226.11
394.94	226.15
395.31	226.15
395.69	226.19
396.06	226.25
396.44	226.29
396.82	226.31
397.19	226.43
397.57	226.48
397.95	226.55
398.32	226.58
398.70	226.65
399.07	226.74
399.45	226.82
399.82	226.87
400.20	226.89
400.58	226.94
400.95	227.00
401.33	227.11
401.70	227.26
402.08	227.34
402.45	227.45
402.83	227.57
403.20	227.70
403.58	227.81
403.95	227.95
404.33	228.08
404.71	228.21
405.08	228.36
405.46	228.51
405.83	228.66
406.21	228.83
406.58	228.97
406.96	229.14
407.33	229.31
407.70	229.50
408.08	229.82
408.45	230.04
408.83	230.26
409.20	230.50
409.58	230.67
409.95	230.93
410.33	231.17
410.70	231.37
411.08	231.68
411.45	232.01
411.82	232.29
412.20	232.64
412.57	233.05
412.95	233.34
413.32	233.74
413.69	234.13
414.07	234.57
414.44	235.04
414.82	235.53
415.19	236.08
415.56	236.65
415.94	237.17
416.31	237.79
416.68	238.43
417.06	239.13
417.43	239.78
417.81	240.56
418.18	241.37
418.55	242.26
418.93	243.14
419.30	244.00
419.67	244.95
420.04	245.90
420.42	246.90
420.79	248.08
421.16	249.23
421.54	250.43
421.91	251.60
422.28	252.84
422.66	254.14
423.03	255.44
423.40	256.76
423.77	258.17
424.15	259.60
424.52	261.08
424.89	262.67
425.26	264.19
425.64	265.64
426.01	267.22
426.38	268.81
426.75	270.45
427.13	272.12
427.50	273.90
427.87	275.80
428.24	277.64
428.61	279.38
428.99	281.26
429.36	283.32
429.73	285.40
430.10	287.41
430.47	289.46
430.85	291.53
431.22	293.74
431.59	296.09
431.96	298.33
432.33	300.83
432.70	303.21
433.08	306.08
433.45	308.71
433.82	311.31
434.19	314.22
434.56	317.02
434.93	319.74
435.30	322.31
435.68	325.17
436.05	327.98
436.42	330.73
436.79	333.29
437.16	336.01
437.53	338.86
437.90	341.68
438.27	344.43
438.64	347.28
439.01	349.90
439.38	352.14
439.75	354.32
440.13	356.80
440.50	359.12
440.87	360.94
441.24	362.90
441.61	365.06
441.98	366.56
442.35	368.37
442.72	370.19
443.09	372.08
443.46	373.06
443.83	373.59
444.20	374.10
444.57	374.93
444.94	375.19
445.31	375.51
445.68	375.86
446.05	375.95
446.42	375.57
446.79	375.14
447.16	374.70
447.53	374.37
447.90	373.20
448.27	372.03
448.64	370.49
449.01	369.31
449.37	367.36
449.74	365.45
450.11	363.18
450.48	360.74
450.85	358.18
451.22	356.06
451.59	354.14
451.96	352.24
452.33	349.62
452.70	347.26
453.07	344.43
453.43	341.56
453.80	338.80
454.17	336.12
454.54	333.58
454.91	330.83
455.28	328.19
455.65	325.69
456.02	323.26
456.38	321.07
456.75	318.45
457.12	316.19
457.49	314.00
457.86	311.86
458.23	309.97
458.59	307.93
458.96	305.87
459.33	304.02
459.70	302.15
460.07	300.70
460.43	299.03
460.80	297.39
461.17	295.97
461.54	294.48
461.91	293.07
462.27	291.63
462.64	290.40
463.01	289.04
463.38	287.75
463.74	286.40
464.11	285.27
464.48	284.28
464.85	283.17
465.21	282.32
465.58	281.42
465.95	280.36
466.32	279.44
466.68	278.54
467.05	277.66
467.42	276.80
467.78	275.85
468.15	274.99
468.52	274.36
468.88	273.49
469.25	272.69
469.62	272.10
469.98	271.43
470.35	270.81
470.72	270.19
471.08	269.56
471.45	269.02
471.82	268.46
472.18	267.80
472.55	267.38
472.92	266.83
473.28	266.36
473.65	265.93
474.02	265.52
474.38	265.15
474.75	264.82
475.11	264.47
475.48	264.22
475.85	263.93
476.21	263.69
476.58	263.52
476.94	263.37
477.31	263.16
477.67	263.00
478.04	262.90
478.41	262.84
478.77	262.85
479.14	262.77
479.50	262.77
479.87	262.85
480.23	262.94
480.60	263.00
480.96	263.13
481.33	263.32
481.69	263.52
482.06	263.73
482.42	263.91
482.79	264.12
483.15	264.41
483.52	264.83
483.88	265.15
484.25	265.55
484.61	265.98
484.98	266.47
485.34	267.04
485.71	267.62
486.07	268.25
486.44	268.86
486.80	269.55
487.17	270.32
487.53	271.16
487.90	271.98
488.26	272.91
488.62	273.82
488.99	274.81
489.35	275.90
489.72	277.01
490.08	278.24
490.44	279.51
490.81	280.84
491.17	282.17
491.54	283.66
491.90	285.16
492.26	286.83
492.63	288.57
492.99	290.35
493.36	292.23
493.72	294.25
494.08	296.34
494.45	298.61
494.81	300.97
495.17	303.37
495.54	305.92
495.90	308.65
496.26	311.50
496.63	314.47
496.99	317.56
497.35	320.80
497.72	324.20
498.08	327.73
498.44	331.42
498.80	335.38
499.17	339.44
499.53	343.67
499.89	348.00
500.26	352.47
500.62	357.17
500.98	362.14
501.34	367.26
501.71	372.60
502.07	378.04
502.43	383.73
502.79	389.59
503.16	395.69
503.52	401.98
503.88	408.37
504.24	415.02
504.60	421.87
504.97	428.99
505.33	436.34
505.69	444.07
506.05	451.90
506.41	459.74
506.78	467.93
507.14	476.32
507.50	485.16
507.86	494.22
508.22	503.42
508.59	512.68
508.95	522.26
509.31	532.08
509.67	542.22
510.03	552.44
510.39	563.00
510.75	573.76
511.12	584.69
511.48	595.97
511.84	607.38
512.20	618.95
512.56	630.89
512.92	643.05
513.28	655.30
513.64	667.77
514.00	680.49
514.37	693.44
514.73	706.59
515.09	719.54
515.45	732.84
515.81	746.40
516.17	760.33
516.53	774.38
516.89	788.53
517.25	802.63
517.61	817.03
517.97	831.51
518.33	845.98
518.69	860.70
519.05	875.74
519.41	890.88
519.77	906.29
520.13	921.74
520.49	937.08
520.85	952.57
521.21	968.23
521.57	984.51
521.93	1000.27
522.29	1016.58
522.65	1032.79
523.01	1048.97
523.37	1064.98
523.73	1081.13
524.09	1097.15
524.45	1113.39
524.81	1130.05
525.17	1146.86
525.53	1163.67
525.89	1180.49
526.25	1197.33
526.61	1213.74
526.97	1230.46
527.33	1246.97
527.68	1263.62
528.04	1280.17
528.40	1296.71
528.76	1313.81
529.12	1330.29
529.48	1347.10
529.84	1363.09
530.20	1379.73
530.56	1396.73
530.91	1414.12
531.27	1430.87
531.63	1447.50
531.99	1464.13
532.35	1480.05
532.71	1495.99
533.07	1512.24
533.42	1528.05
533.78	1544.14
534.14	1560.30
534.50	1575.66
534.86	1591.52
535.21	1606.65
535.57	1622.65
535.93	1638.17
536.29	1652.90
536.65	1667.91
537.00	1682.69
537.36	1697.98
537.72	1712.52
538.08	1726.90
538.44	1740.73
538.79	1754.71
539.15	1768.33
539.51	1781.98
539.87	1796.33
540.22	1810.08
540.58	1823.92
540.94	1837.26
541.29	1850.05
541.65	1862.79
542.01	1876.09
542.37	1888.47
542.72	1900.87
543.08	1912.49
543.44	1924.93
543.79	1936.20
544.15	1947.23
544.51	1958.72
544.87	1969.74
545.22	1980.54
545.58	1990.73
545.94	2000.37
546.29	2010.14
546.65	2019.98
547.01	2029.30
547.36	2038.02
547.72	2046.36
548.07	2054.10
548.43	2062.37
548.79	2070.43
549.14	2077.98
549.50	2085.01
549.86	2092.65
550.21	2100.01
550.57	2107.21
550.92	2113.57
551.28	2120.54
551.64	2127.55
551.99	2134.11
552.35	2140.12
552.70	2146.24
553.06	2152.17
553.41	2158.60
553.77	2164.56
554.13	2170.58
554.48	2176.75
554.84	2182.09
555.19	2187.42
555.55	2192.52
555.90	2196.87
556.26	2201.68
556.61	2206.36
556.97	2210.70
557.32	2214.69
557.68	2218.67
558.03	2222.82
558.39	2226.76
558.74	2231.43
559.10	2235.24
559.45	2238.93
559.81	2243.29
560.16	2247.15
560.52	2250.36
560.87	2253.68
561.23	2256.25
561.58	2259.27
561.94	2261.71
562.29	2264.15
562.64	2266.87
563.00	2269.44
563.35	2273.01
563.71	2276.11
564.06	2279.26
564.42	2282.11
564.77	2284.80
565.12	2287.06
565.48	2288.98
565.83	2290.70
566.19	2291.98
566.54	2293.02
566.89	2294.02
567.25	2294.53
567.60	2295.82
567.96	2297.59
568.31	2298.50
568.66	2299.68
569.02	2300.13
569.37	2300.52
569.72	2301.42
570.08	2301.48
570.43	2301.51
570.78	2300.85
571.14	2299.33
571.49	2298.04
571.84	2297.78
572.20	2296.52
572.55	2295.60
572.90	2294.07
573.26	2292.67
573.61	2290.97
573.96	2289.04
574.31	2286.18
574.67	2283.27
575.02	2279.73
575.37	2276.22
575.72	2272.39
576.08	2269.10
576.43	2265.80
576.78	2262.00
577.13	2258.70
577.49	2255.68
577.84	2252.18
578.19	2248.48
578.54	2244.80
578.90	2240.43
579.25	2234.88
579.60	2229.94
579.95	2224.79
580.30	2219.78
580.66	2214.47
581.01	2209.54
581.36	2204.76
581.71	2200.70
582.06	2196.19
582.42	2191.58
582.77	2186.40
583.12	2181.81
583.47	2177.11
583.82	2171.98
584.17	2166.80
584.53	2161.31
584.88	2155.64
585.23	2149.88
585.58	2144.40
585.93	2139.13
586.28	2134.50
586.63	2129.46
586.98	2124.40
587.34	2119.85
587.69	2115.08
588.04	2109.92
588.39	2104.23
588.74	2097.81
589.09	2091.51
589.44	2084.86
589.79	2078.92
590.14	2073.41
590.49	2066.87
590.84	2060.47
591.19	2054.56
591.54	2048.07
591.89	2040.62
592.25	2033.69
592.60	2026.53
592.95	2019.02
593.30	2011.56
593.65	2004.00
594.00	1996.95
594.35	1989.75
594.70	1981.65
595.05	1974.24
595.40	1967.11
595.75	1959.62
596.10	1953.44
596.45	1946.76
596.80	1940.49
597.15	1933.81
597.50	1926.76
597.85	1920.32
598.19	1913.62
598.54	1906.65
598.89	1900.06
599.24	1894.22
599.59	1887.48
599.94	1881.24
600.29	1874.87
600.64	1868.32
600.99	1860.84
601.34	1854.01
601.69	1846.98
602.04	1840.09
602.39	1832.97
602.74	1826.06
603.08	1819.30
603.43	1812.40
603.78	1805.05
604.13	1797.89
604.48	1790.54
604.83	1783.62
605.18	1776.61
605.53	1768.65
605.87	1760.56
606.22	1753.36
606.57	1745.57
606.92	1738.37
607.27	1731.18
607.62	1724.29
607.96	1716.96
608.31	1710.33
608.66	1702.71
609.01	1695.20
609.36	1687.66
609.70	1679.54
610.05	1671.44
610.40	1663.77
610.75	1655.40
611.10	1647.70
611.44	1639.30
611.79	1631.19
612.14	1622.42
612.49	1613.29
612.83	1604.90
613.18	1596.68
613.53	1588.53
613.88	1579.99
614.22	1571.69
614.57	1563.26
614.92	1555.18
615.27	1547.69
615.61	1539.33
615.96	1531.34
616.31	1523.70
616.65	1516.25
617.00	1508.69
617.35	1501.03
617.70	1492.61
618.04	1484.29
618.39	1476.04
618.74	1468.45
619.08	1460.24
619.43	1452.71
619.78	1445.90
620.12	1438.68
620.47	1431.18
620.82	1422.99
621.16	1415.58
621.51	1407.94
621.85	1400.27
622.20	1391.70
622.55	1383.18
622.89	1375.32
623.24	1367.76
623.59	1360.39
623.93	1352.95
624.28	1345.69
624.62	1338.18
624.97	1331.02
625.32	1324.24
625.66	1317.29
626.01	1310.03
626.35	1302.66
626.70	1294.86
627.04	1287.09
627.39	1279.36
627.73	1272.02
628.08	1265.18
628.43	1257.89
628.77	1250.53
629.12	1242.89
629.46	1235.80
629.81	1228.49
630.15	1221.26
630.50	1213.79
630.84	1205.57
631.19	1197.71
631.53	1190.22
631.88	1182.61
632.22	1175.01
632.57	1167.71
632.91	1160.09
633.26	1152.63
633.60	1145.29
633.95	1138.27
634.29	1131.17
634.64	1124.55
634.98	1117.14
635.32	1109.91
635.67	1103.28
636.01	1096.67
636.36	1089.94
636.70	1083.40
637.05	1076.82
637.39	1070.43
637.73	1063.89
638.08	1058.05
638.42	1051.99
638.77	1045.51
639.11	1038.95
639.45	1032.53
639.80	1025.87
640.14	1019.53
640.49	1013.12
640.83	1006.76
641.17	1000.49
641.52	994.13
641.86	987.68
642.20	981.88
642.55	975.60
642.89	969.24
643.23	962.80
643.58	956.99
643.92	950.80
644.26	944.78
644.61	938.77
644.95	932.73
645.29	926.09
645.64	919.43
645.98	913.11
646.32	907.34
646.66	901.34
647.01	895.53
647.35	889.80
647.69	883.93
648.04	878.47
648.38	872.65
648.72	866.71
649.06	860.58
649.41	854.63
649.75	848.70
650.09	842.64
650.43	836.76
650.78	830.65
651.12	824.73
651.46	818.96
651.80	813.17
652.14	807.80
652.49	802.43
652.83	797.17
653.17	791.48
653.51	785.73
653.85	780.34
654.20	774.67
654.54	768.66
654.88	762.94
655.22	757.01
655.56	751.32
655.90	745.92
656.25	740.66
656.59	735.30
656.93	730.14
657.27	725.03
657.61	719.61
657.95	714.42
658.29	709.37
658.64	704.12
658.98	698.80
659.32	693.33
659.66	688.15
660.00	682.87
660.34	677.91
660.68	673.00
661.02	667.95
661.36	663.18
661.70	658.70
662.05	654.31
662.39	649.95
662.73	645.49
663.07	641.10
663.41	636.71
663.75	632.17
664.09	627.65
664.43	623.18
664.77	619.05
665.11	614.88
665.45	610.66
665.79	606.55
666.13	602.36
666.47	598.31
666.81	594.12
667.15	589.99
667.49	586.11
667.83	582.28
668.17	578.38
668.51	574.27
668.85	570.24
669.19	566.38
669.53	562.48
669.87	558.56
670.21	554.79
670.55	551.11
670.89	547.76
671.23	544.30
671.57	540.73
671.91	537.17
672.25	533.59
672.58	530.04
672.92	526.61
673.26	523.53
673.60	520.32
673.94	517.21
674.28	514.28
674.62	511.34
674.96	508.25
675.30	505.29
675.64	502.46
675.97	499.68
676.31	496.88
676.65	494.05
676.99	491.38
677.33	488.56
677.67	485.77
678.01	482.69
678.34	479.74
678.68	476.93
679.02	474.14
679.36	471.45
679.70	468.81
680.04	466.11
680.37	463.18
680.71	460.36
681.05	457.79
681.39	455.09
681.73	452.43
682.06	449.90
682.40	447.41
682.74	444.89
683.08	442.34
683.42	439.74
683.75	437.22
684.09	434.70
684.43	432.25
684.77	429.80
685.10	427.47
685.44	425.21
685.78	422.93
686.12	420.64
686.45	418.36
686.79	416.02
687.13	413.82
687.46	411.71
687.80	409.66
688.14	407.42
688.48	405.33
688.81	403.11
689.15	400.93
689.49	398.73
689.82	396.61
690.16	394.59
690.50	392.57
690.83	390.61
691.17	388.63
691.51	386.67
691.84	384.81
692.18	382.89
692.52	380.88
692.85	379.00
693.19	377.17
693.52	375.33
693.86	373.50
694.20	371.73
694.53	369.92
694.87	368.04
695.21	366.28
695.54	364.48
695.88	362.74
696.21	361.04
696.55	359.44
696.88	357.77
697.22	356.10
697.56	354.52
697.89	352.90
698.23	351.28
698.56	349.68
698.90	348.05
699.23	346.41
699.57	344.86
699.90	343.30
700.24	341.74
700.58	340.20
700.91	338.75
701.25	337.26
701.58	335.89
701.92	334.55
702.25	333.15
702.59	331.79
702.92	330.46
703.26	329.17
703.59	327.81
703.93	326.63
704.26	325.35
704.60	324.02
704.93	322.71
705.26	321.46
705.60	320.28
705.93	319.14
706.27	318.09
706.60	317.05
706.94	315.98
707.27	314.84
707.61	313.76
707.94	312.68
708.27	311.60
708.61	310.49
708.94	309.44
709.28	308.41
709.61	307.44
709.94	306.50
710.28	305.46
710.61	304.46
710.95	303.36
711.28	302.43
711.61	301.52
711.95	300.61
712.28	299.65
712.61	298.66
712.95	297.69
713.28	296.80
713.61	295.86
713.95	294.93
714.28	294.11
714.61	293.25
714.95	292.42
715.28	291.55
715.61	290.68
715.95	289.82
716.28	288.99
716.61	288.15
716.95	287.31
717.28	286.53
717.61	285.82
717.94	285.08
718.28	284.33
718.61	283.57
718.94	282.83
719.27	282.18
719.61	281.52
719.94	280.90
720.27	280.21
720.60	279.55
720.94	278.95
721.27	278.29
721.60	277.72
721.93	277.15
722.27	276.61
722.60	276.03
722.93	275.48
723.26	274.98
723.59	274.43
723.93	273.86
724.26	273.36
724.59	272.79
724.92	272.27
725.25	271.76
725.59	271.24
725.92	270.74
726.25	270.25
726.58	269.79
726.91	269.30
727.24	268.80
727.57	268.38
727.91	267.88
728.24	267.45
728.57	266.94
728.90	266.50
729.23	266.04
729.56	265.67
729.89	265.21
730.22	264.72
730.55	264.26
730.89	263.86
731.22	263.37
731.55	262.95
731.88	262.58
732.21	262.17
732.54	261.76
732.87	261.38
733.20	260.99
733.53	260.60
733.86	260.26
734.19	259.90
734.52	259.54
734.85	259.23
735.18	258.79
735.51	258.48
735.84	258.05
736.17	257.71
736.50	257.32
736.83	257.08
737.16	256.76
737.49	256.43
737.82	256.05
738.15	255.73
738.48	255.39
738.81	255.05
739.14	254.68
739.47	254.40
739.80	254.09
740.13	253.78
740.46	253.42
740.79	253.03
741.12	252.70
741.45	252.35
741.78	251.98
742.11	251.72
742.44	251.35
742.77	251.10
743.10	250.76
743.43	250.44
743.75	250.05
744.08	249.89
744.41	249.62
744.74	249.34
745.07	249.10
745.40	248.83
745.73	248.57
746.06	248.29
746.39	247.98
746.71	247.72
747.04	247.43
747.37	247.18
747.70	246.94
748.03	246.68
748.36	246.46
748.68	246.22
749.01	245.95
749.34	245.73
749.67	245.50
750.00	245.32
750.33	245.18
750.65	244.96
750.98	244.61
751.31	244.37
751.64	244.15
751.97	243.95
752.29	243.71
752.62	243.48
752.95	243.28
753.28	243.08
753.60	242.89
753.93	242.72
754.26	242.55
754.59	242.33
754.91	242.12
755.24	241.90
755.57	241.72
755.90	241.54
756.22	241.35
756.55	241.14
756.88	240.92
757.20	240.68
757.53	240.51
757.86	240.37
758.19	240.22
758.51	240.06
758.84	239.86
759.17	239.70
759.49	239.53
759.82	239.42
760.15	239.25
760.47	239.11
760.80	238.94
761.13	238.84
761.45	238.73
761.78	238.60
762.11	238.48
762.43	238.32
762.76	238.20
763.08	238.11
763.41	238.01
763.74	237.88
764.06	237.75
764.39	237.63
764.71	237.50
765.04	237.39
765.37	237.26
765.69	237.13
766.02	237.00
766.34	236.88
766.67	236.73
767.00	236.64
767.32	236.54
767.65	236.48
767.97	236.31
768.30	236.16
768.62	236.06
768.95	235.93
769.27	235.83
769.60	235.75
769.92	235.57
770.25	235.43
770.57	235.32
770.90	235.24
771.22	235.08
771.55	234.97
771.87	234.88
772.20	234.80
772.52	234.81
772.85	234.85
773.17	234.77
773.50	234.66
773.82	234.55
774.15	234.45
774.47	234.30
774.80	234.21
775.12	234.14
775.45	234.06
775.77	233.97
776.09	233.89
776.42	233.76
776.74	233.71
777.07	233.67
777.39	233.58
777.72	233.48
778.04	233.46
778.36	233.38
778.69	233.26
779.01	233.22
779.33	233.05
779.66	232.87
779.98	232.79
780.31	232.75
780.63	232.73
780.95	232.67
781.28	232.61
781.60	232.55
781.92	232.48
782.25	232.40
782.57	232.35
782.89	232.30
783.22	232.27
783.54	232.19
783.86	232.12
784.19	232.08
784.51	232.04
784.83	231.95
785.16	231.85
785.48	231.80
785.80	231.75
786.12	231.72
786.45	231.71
786.77	231.66
787.09	231.61
