SpectraSuite Data File
++++++++++++++++++++++++++++++++++++
Date: Fri Feb 01 17:01:42 EST 2013
User: group
Dark Spectrum Present: No
Reference Spectrum Present: No
Number of Sampled Component Spectra: 1
Spectrometers: USB2E7196
Integration Time (usec): 35000 (USB2E7196)
Spectra Averaged: 100 (USB2E7196)
Boxcar Smoothing: 10 (USB2E7196)
Correct for Electrical Dark: No (USB2E7196)
Strobe/Lamp Enabled: No (USB2E7196)
Correct for Detector Non-linearity: No (USB2E7196)
Correct for Stray Light: No (USB2E7196)
Number of Pixels in Processed Spectrum: 2048
>>>>>Begin Processed Spectral Data<<<<<
339.09	0.00
339.48	213.07
339.86	215.16
340.24	215.89
340.63	217.66
341.01	219.83
341.39	219.97
341.78	221.38
342.16	223.11
342.54	222.83
342.93	211.66
343.31	222.38
343.69	222.94
344.07	223.40
344.46	223.84
344.84	224.21
345.22	224.48
345.60	224.72
345.99	224.92
346.37	225.02
346.75	225.15
347.13	225.21
347.52	225.26
347.90	225.33
348.28	225.37
348.66	225.40
349.05	225.42
349.43	225.46
349.81	225.51
350.19	225.56
350.57	225.62
350.96	225.70
351.34	225.78
351.72	225.84
352.10	225.94
352.48	225.99
352.87	226.03
353.25	226.08
353.63	226.16
354.01	226.24
354.39	226.33
354.77	226.42
355.15	226.53
355.54	226.61
355.92	226.63
356.30	226.71
356.68	226.83
357.06	226.86
357.44	226.91
357.82	226.95
358.20	227.04
358.58	227.12
358.97	227.17
359.35	227.23
359.73	227.33
360.11	227.37
360.49	227.47
360.87	227.53
361.25	227.59
361.63	227.69
362.01	227.72
362.39	227.72
362.77	227.76
363.15	227.75
363.53	227.79
363.91	227.85
364.29	227.85
364.67	227.81
365.05	227.85
365.43	227.85
365.81	227.84
366.19	227.87
366.57	227.90
366.95	227.92
367.33	227.92
367.71	227.90
368.09	227.88
368.47	227.87
368.85	227.86
369.23	227.85
369.61	227.73
369.99	227.72
370.37	227.74
370.75	227.75
371.13	227.70
371.51	227.62
371.89	227.61
372.27	227.58
372.65	227.52
373.03	227.45
373.41	227.41
373.78	227.42
374.16	227.30
374.54	227.21
374.92	227.11
375.30	227.03
375.68	226.99
376.06	226.94
376.44	226.83
376.82	226.78
377.19	226.72
377.57	226.68
377.95	226.60
378.33	226.51
378.71	226.37
379.09	226.34
379.47	226.27
379.84	226.16
380.22	226.08
380.60	226.03
380.98	225.98
381.36	225.88
381.73	225.81
382.11	225.75
382.49	225.70
382.87	225.64
383.25	225.56
383.62	225.56
384.00	225.48
384.38	225.42
384.76	225.38
385.13	225.36
385.51	225.29
385.89	225.23
386.27	225.17
386.64	225.14
387.02	225.07
387.40	225.04
387.78	225.00
388.15	224.96
388.53	224.90
388.91	224.88
389.29	224.88
389.66	224.83
390.04	224.85
390.42	224.84
390.79	224.84
391.17	224.84
391.55	224.72
391.92	224.68
392.30	224.71
392.68	224.68
393.05	224.67
393.43	224.69
393.81	224.73
394.18	224.70
394.56	224.73
394.94	224.80
395.31	224.81
395.69	224.89
396.06	224.93
396.44	224.98
396.82	224.97
397.19	225.08
397.57	225.11
397.95	225.15
398.32	225.14
398.70	225.19
399.07	225.27
399.45	225.36
399.82	225.43
400.20	225.50
400.58	225.58
400.95	225.62
401.33	225.74
401.70	225.83
402.08	225.96
402.45	226.02
402.83	226.11
403.20	226.23
403.58	226.31
403.95	226.45
404.33	226.56
404.71	226.69
405.08	226.83
405.46	227.02
405.83	227.15
406.21	227.31
406.58	227.45
406.96	227.62
407.33	227.77
407.70	227.98
408.08	228.18
408.45	228.40
408.83	228.60
409.20	228.79
409.58	228.96
409.95	229.22
410.33	229.48
410.70	229.71
411.08	229.98
411.45	230.24
411.82	230.53
412.20	230.86
412.57	231.29
412.95	231.58
413.32	231.97
413.69	232.38
414.07	232.86
414.44	233.33
414.82	233.79
415.19	234.34
415.56	234.89
415.94	235.47
416.31	236.08
416.68	236.71
417.06	237.44
417.43	238.14
417.81	238.89
418.18	239.68
418.55	240.51
418.93	241.40
419.30	242.34
419.67	243.30
420.04	244.25
420.42	245.24
420.79	246.43
421.16	247.51
421.54	248.70
421.91	249.85
422.28	251.11
422.66	252.46
423.03	253.77
423.40	255.09
423.77	256.50
424.15	257.88
424.52	259.37
424.89	260.96
425.26	262.49
425.64	263.94
426.01	265.52
426.38	267.19
426.75	268.85
427.13	270.53
427.50	272.29
427.87	274.14
428.24	275.93
428.61	277.62
428.99	279.61
429.36	281.68
429.73	283.78
430.10	285.79
430.47	287.84
430.85	289.93
431.22	292.14
431.59	294.48
431.96	296.74
432.33	299.21
432.70	301.53
433.08	304.36
433.45	306.97
433.82	309.58
434.19	312.43
434.56	315.22
434.93	317.85
435.30	320.43
435.68	323.31
436.05	326.17
436.42	328.95
436.79	331.42
437.16	334.07
437.53	336.84
437.90	339.58
438.27	342.25
438.64	345.03
439.01	347.58
439.38	349.81
439.75	351.97
440.13	354.43
440.50	356.71
440.87	358.50
441.24	360.40
441.61	362.52
441.98	363.97
442.35	365.71
442.72	367.57
443.09	369.36
443.46	370.37
443.83	370.94
444.20	371.43
444.57	372.24
444.94	372.59
445.31	372.96
445.68	373.35
446.05	373.47
446.42	373.10
446.79	372.75
447.16	372.31
447.53	371.99
447.90	370.83
448.27	369.77
448.64	368.25
449.01	367.14
449.37	365.18
449.74	363.32
450.11	361.13
450.48	358.66
450.85	356.17
451.22	354.05
451.59	352.12
451.96	350.24
452.33	347.67
452.70	345.27
453.07	342.45
453.43	339.57
453.80	336.80
454.17	334.16
454.54	331.62
454.91	328.89
455.28	326.27
455.65	323.83
456.02	321.41
456.38	319.28
456.75	316.64
457.12	314.42
457.49	312.24
457.86	310.11
458.23	308.31
458.59	306.30
458.96	304.23
459.33	302.37
459.70	300.50
460.07	299.01
460.43	297.35
460.80	295.77
461.17	294.38
461.54	292.94
461.91	291.54
462.27	290.11
462.64	288.91
463.01	287.56
463.38	286.30
463.74	284.91
464.11	283.75
464.48	282.75
464.85	281.65
465.21	280.79
465.58	279.87
465.95	278.77
466.32	277.88
466.68	276.97
467.05	276.07
467.42	275.19
467.78	274.27
468.15	273.39
468.52	272.67
468.88	271.80
469.25	271.00
469.62	270.38
469.98	269.71
470.35	269.07
470.72	268.48
471.08	267.81
471.45	267.29
471.82	266.76
472.18	266.20
472.55	265.79
472.92	265.27
473.28	264.81
473.65	264.36
474.02	263.92
474.38	263.54
474.75	263.22
475.11	262.90
475.48	262.64
475.85	262.42
476.21	262.24
476.58	262.03
476.94	261.89
477.31	261.74
477.67	261.61
478.04	261.47
478.41	261.41
478.77	261.47
479.14	261.39
479.50	261.41
479.87	261.46
480.23	261.55
480.60	261.61
480.96	261.74
481.33	261.96
481.69	262.15
482.06	262.36
482.42	262.56
482.79	262.82
483.15	263.13
483.52	263.56
483.88	263.89
484.25	264.29
484.61	264.71
484.98	265.13
485.34	265.71
485.71	266.34
486.07	266.96
486.44	267.52
486.80	268.22
487.17	268.95
487.53	269.76
487.90	270.58
488.26	271.52
488.62	272.51
488.99	273.47
489.35	274.55
489.72	275.69
490.08	276.91
490.44	278.11
490.81	279.43
491.17	280.74
491.54	282.23
491.90	283.75
492.26	285.42
492.63	287.15
492.99	288.93
493.36	290.82
493.72	292.84
494.08	294.98
494.45	297.22
494.81	299.55
495.17	302.00
495.54	304.57
495.90	307.24
496.26	310.00
496.63	312.95
496.99	316.03
497.35	319.24
497.72	322.59
498.08	326.10
498.44	329.78
498.80	333.66
499.17	337.64
499.53	341.82
499.89	346.15
500.26	350.68
500.62	355.29
500.98	360.22
501.34	365.24
501.71	370.51
502.07	375.94
502.43	381.51
502.79	387.24
503.16	393.30
503.52	399.55
503.88	405.94
504.24	412.54
504.60	419.37
504.97	426.45
505.33	433.71
505.69	441.40
506.05	449.10
506.41	456.92
506.78	465.07
507.14	473.43
507.50	482.07
507.86	490.99
508.22	500.13
508.59	509.30
508.95	518.80
509.31	528.44
509.67	538.46
510.03	548.65
510.39	559.07
510.75	569.70
511.12	580.45
511.48	591.61
511.84	602.85
512.20	614.25
512.56	626.05
512.92	638.08
513.28	650.24
513.64	662.55
514.00	675.15
514.37	687.87
514.73	700.74
515.09	713.56
515.45	726.65
515.81	739.99
516.17	753.69
516.53	767.54
516.89	781.51
517.25	795.46
517.61	809.69
517.97	823.99
518.33	838.22
518.69	852.75
519.05	867.48
519.41	882.50
519.77	897.70
520.13	912.84
520.49	927.92
520.85	943.10
521.21	958.58
521.57	974.41
521.93	989.87
522.29	1005.98
522.65	1021.95
523.01	1037.82
523.37	1053.61
523.73	1069.37
524.09	1085.22
524.45	1101.25
524.81	1117.49
525.17	1133.80
525.53	1150.34
525.89	1166.83
526.25	1183.40
526.61	1199.45
526.97	1215.78
527.33	1231.99
527.68	1248.27
528.04	1264.45
528.40	1280.58
528.76	1297.20
529.12	1313.38
529.48	1329.99
529.84	1345.60
530.20	1361.95
530.56	1378.58
530.91	1395.66
531.27	1412.11
531.63	1428.32
531.99	1444.50
532.35	1460.11
532.71	1475.82
533.07	1491.69
533.42	1507.23
533.78	1522.87
534.14	1538.83
534.50	1553.96
534.86	1569.37
535.21	1584.18
535.57	1599.81
535.93	1615.13
536.29	1629.71
536.65	1644.58
537.00	1658.99
537.36	1674.00
537.72	1688.18
538.08	1702.30
538.44	1715.77
538.79	1729.45
539.15	1742.63
539.51	1756.04
539.87	1770.06
540.22	1783.41
540.58	1796.95
540.94	1810.09
541.29	1822.70
541.65	1834.91
542.01	1847.72
542.37	1859.95
542.72	1872.23
543.08	1883.75
543.44	1895.66
543.79	1906.69
544.15	1917.47
544.51	1928.79
544.87	1939.56
545.22	1950.16
545.58	1960.28
545.94	1969.74
546.29	1979.37
546.65	1989.15
547.01	1998.28
547.36	2006.87
547.72	2015.25
548.07	2022.91
548.43	2030.76
548.79	2038.61
549.14	2046.13
549.50	2053.35
549.86	2060.73
550.21	2067.93
550.57	2074.99
550.92	2081.75
551.28	2088.62
551.64	2095.54
551.99	2101.97
552.35	2108.07
552.70	2114.03
553.06	2119.87
553.41	2126.19
553.77	2132.16
554.13	2138.13
554.48	2144.21
554.84	2149.84
555.19	2155.01
555.55	2160.12
555.90	2164.74
556.26	2169.73
556.61	2174.45
556.97	2178.90
557.32	2182.96
557.68	2187.00
558.03	2191.24
558.39	2194.77
558.74	2199.39
559.10	2203.44
559.45	2207.16
559.81	2211.38
560.16	2215.31
560.52	2218.65
560.87	2222.07
561.23	2224.88
561.58	2227.92
561.94	2230.67
562.29	2232.93
562.64	2235.91
563.00	2238.66
563.35	2242.19
563.71	2245.33
564.06	2248.68
564.42	2251.66
564.77	2254.60
565.12	2257.15
565.48	2259.34
565.83	2261.40
566.19	2262.95
566.54	2263.86
566.89	2265.12
567.25	2266.09
567.60	2267.50
567.96	2269.42
568.31	2270.49
568.66	2271.73
569.02	2272.47
569.37	2272.81
569.72	2273.85
570.08	2274.08
570.43	2274.27
570.78	2274.01
571.14	2272.68
571.49	2271.49
571.84	2271.22
572.20	2270.21
572.55	2269.33
572.90	2267.69
573.26	2266.57
573.61	2264.94
573.96	2263.46
574.31	2260.75
574.67	2257.83
575.02	2254.55
575.37	2251.22
575.72	2247.84
576.08	2244.63
576.43	2241.52
576.78	2238.19
577.13	2235.24
577.49	2232.30
577.84	2229.03
578.19	2225.53
578.54	2222.13
578.90	2218.28
579.25	2212.99
579.60	2208.25
579.95	2203.51
580.30	2198.74
580.66	2193.79
581.01	2189.10
581.36	2184.34
581.71	2180.42
582.06	2176.27
582.42	2171.97
582.77	2167.09
583.12	2162.59
583.47	2158.20
583.82	2153.58
584.17	2148.62
584.53	2143.32
584.88	2137.89
585.23	2132.41
585.58	2126.87
585.93	2121.59
586.28	2116.88
586.63	2112.02
586.98	2107.27
587.34	2102.63
587.69	2098.09
588.04	2092.97
588.39	2087.51
588.74	2081.30
589.09	2075.28
589.44	2068.69
589.79	2062.84
590.14	2057.39
590.49	2051.04
590.84	2044.69
591.19	2038.74
591.54	2032.48
591.89	2025.39
592.25	2019.07
592.60	2011.97
592.95	2004.76
593.30	1997.51
593.65	1990.11
594.00	1983.20
594.35	1976.08
594.70	1968.13
595.05	1961.16
595.40	1954.10
595.75	1946.79
596.10	1940.75
596.45	1934.21
596.80	1928.17
597.15	1921.82
597.50	1914.95
597.85	1908.55
598.19	1902.17
598.54	1895.20
598.89	1888.51
599.24	1882.72
599.59	1876.08
599.94	1869.95
600.29	1863.71
600.64	1857.31
600.99	1849.94
601.34	1843.22
601.69	1836.24
602.04	1829.58
602.39	1822.26
602.74	1815.45
603.08	1808.83
603.43	1802.09
603.78	1794.88
604.13	1787.80
604.48	1780.61
604.83	1773.80
605.18	1767.08
605.53	1759.26
605.87	1751.28
606.22	1744.19
606.57	1736.27
606.92	1728.89
607.27	1721.97
607.62	1715.26
607.96	1708.26
608.31	1701.86
608.66	1694.38
609.01	1687.13
609.36	1679.78
609.70	1671.89
610.05	1664.00
610.40	1656.34
610.75	1648.15
611.10	1640.53
611.44	1632.14
611.79	1624.11
612.14	1615.55
612.49	1606.38
612.83	1598.02
613.18	1590.10
613.53	1582.06
613.88	1573.66
614.22	1565.48
614.57	1556.88
614.92	1548.81
615.27	1541.36
615.61	1533.15
615.96	1525.20
616.31	1517.42
616.65	1510.03
617.00	1502.45
617.35	1494.81
617.70	1486.70
618.04	1478.29
618.39	1470.19
618.74	1462.62
619.08	1454.38
619.43	1446.72
619.78	1439.87
620.12	1432.75
620.47	1425.15
620.82	1416.94
621.16	1409.56
621.51	1402.01
621.85	1394.43
622.20	1386.02
622.55	1377.51
622.89	1369.68
623.24	1362.03
623.59	1354.58
623.93	1347.12
624.28	1340.07
624.62	1332.68
624.97	1325.42
625.32	1318.67
625.66	1311.58
626.01	1304.64
626.35	1297.21
626.70	1289.56
627.04	1281.86
627.39	1274.14
627.73	1266.81
628.08	1260.08
628.43	1252.84
628.77	1245.46
629.12	1237.91
629.46	1230.74
629.81	1223.33
630.15	1216.06
630.50	1208.71
630.84	1200.69
631.19	1192.75
631.53	1185.14
631.88	1177.47
632.22	1169.96
632.57	1162.60
632.91	1155.17
633.26	1147.67
633.60	1140.30
633.95	1133.16
634.29	1126.10
634.64	1119.44
634.98	1112.16
635.32	1104.99
635.67	1098.45
636.01	1091.77
636.36	1085.05
636.70	1078.52
637.05	1072.00
637.39	1065.64
637.73	1059.19
638.08	1053.35
638.42	1047.48
638.77	1041.14
639.11	1034.69
639.45	1028.27
639.80	1021.80
640.14	1015.49
640.49	1008.98
640.83	1002.76
641.17	996.62
641.52	990.36
641.86	983.85
642.20	978.03
642.55	971.74
642.89	965.31
643.23	958.85
643.58	953.08
643.92	946.97
644.26	941.00
644.61	934.93
644.95	929.01
645.29	922.41
645.64	915.61
645.98	909.27
646.32	903.42
646.66	897.45
647.01	891.62
647.35	885.84
647.69	879.96
648.04	874.49
648.38	868.72
648.72	862.80
649.06	856.81
649.41	850.92
649.75	845.01
650.09	839.04
650.43	833.30
650.78	827.24
651.12	821.35
651.46	815.62
651.80	809.99
652.14	804.54
652.49	799.21
652.83	794.13
653.17	788.49
653.51	782.85
653.85	777.42
654.20	771.85
654.54	765.90
654.88	760.25
655.22	754.33
655.56	748.64
655.90	743.07
656.25	737.90
656.59	732.54
656.93	727.46
657.27	722.39
657.61	717.02
657.95	711.87
658.29	706.78
658.64	701.54
658.98	696.12
659.32	690.74
659.66	685.53
660.00	680.24
660.34	675.33
660.68	670.43
661.02	665.41
661.36	660.70
661.70	656.21
662.05	651.90
662.39	647.60
662.73	643.19
663.07	638.95
663.41	634.49
663.75	630.07
664.09	625.60
664.43	621.21
664.77	617.04
665.11	612.84
665.45	608.79
665.79	604.76
666.13	600.73
666.47	596.64
666.81	592.54
667.15	588.41
667.49	584.49
667.83	580.63
668.17	576.78
668.51	572.75
668.85	568.74
669.19	564.84
669.53	561.08
669.87	557.25
670.21	553.50
670.55	549.92
670.89	546.50
671.23	543.05
671.57	539.55
671.91	536.08
672.25	532.55
672.58	529.00
672.92	525.57
673.26	522.46
673.60	519.28
673.94	516.25
674.28	513.39
674.62	510.48
674.96	507.42
675.30	504.53
675.64	501.63
675.97	498.86
676.31	496.02
676.65	493.06
676.99	490.37
677.33	487.62
677.67	484.75
678.01	481.69
678.34	478.73
678.68	475.85
679.02	473.03
679.36	470.27
679.70	467.56
680.04	464.85
680.37	462.01
680.71	459.28
681.05	456.63
681.39	453.85
681.73	451.20
682.06	448.69
682.40	446.12
682.74	443.62
683.08	441.06
683.42	438.41
683.75	435.88
684.09	433.27
684.43	430.75
684.77	428.32
685.10	425.99
685.44	423.65
685.78	421.34
686.12	419.06
686.45	416.81
686.79	414.47
687.13	412.27
687.46	410.03
687.80	407.84
688.14	405.65
688.48	403.67
688.81	401.43
689.15	399.24
689.49	397.10
689.82	395.00
690.16	392.93
690.50	391.03
690.83	389.15
691.17	387.18
691.51	385.30
691.84	383.45
692.18	381.54
692.52	379.60
692.85	377.69
693.19	375.86
693.52	374.00
693.86	372.20
694.20	370.40
694.53	368.63
694.87	366.78
695.21	364.98
695.54	363.12
695.88	361.38
696.21	359.67
696.55	357.98
696.88	356.28
697.22	354.59
697.56	352.97
697.89	351.33
698.23	349.75
698.56	348.14
698.90	346.54
699.23	344.89
699.57	343.34
699.90	341.79
700.24	340.24
700.58	338.72
700.91	337.25
701.25	335.80
701.58	334.41
701.92	333.07
702.25	331.68
702.59	330.32
702.92	328.98
703.26	327.69
703.59	326.42
703.93	325.21
704.26	324.02
704.60	322.72
704.93	321.44
705.26	320.16
705.60	318.97
705.93	317.81
706.27	316.77
706.60	315.67
706.94	314.59
707.27	313.46
707.61	312.41
707.94	311.39
708.27	310.32
708.61	309.26
708.94	308.24
709.28	307.26
709.61	306.30
709.94	305.38
710.28	304.37
710.61	303.37
710.95	302.32
711.28	301.38
711.61	300.39
711.95	299.46
712.28	298.57
712.61	297.58
712.95	296.65
713.28	295.78
713.61	294.86
713.95	293.98
714.28	293.15
714.61	292.27
714.95	291.43
715.28	290.53
715.61	289.67
715.95	288.84
716.28	287.94
716.61	287.06
716.95	286.21
717.28	285.46
717.61	284.73
717.94	283.98
718.28	283.17
718.61	282.46
718.94	281.76
719.27	281.07
719.61	280.42
719.94	279.74
720.27	279.04
720.60	278.43
720.94	277.74
721.27	277.11
721.60	276.56
721.93	275.94
722.27	275.41
722.60	274.83
722.93	274.25
723.26	273.73
723.59	273.24
723.93	272.72
724.26	272.13
724.59	271.52
724.92	270.97
725.25	270.46
725.59	269.96
725.92	269.42
726.25	268.90
726.58	268.39
726.91	267.88
727.24	267.39
727.57	266.92
727.91	266.42
728.24	265.96
728.57	265.44
728.90	264.99
729.23	264.48
729.56	264.05
729.89	263.54
730.22	263.04
730.55	262.51
730.89	262.05
731.22	261.60
731.55	261.23
731.88	260.79
732.21	260.37
732.54	259.92
732.87	259.52
733.20	259.14
733.53	258.74
733.86	258.39
734.19	257.98
734.52	257.59
734.85	257.29
735.18	256.86
735.51	256.47
735.84	256.07
736.17	255.74
736.50	255.30
736.83	255.10
737.16	254.80
737.49	254.50
737.82	254.16
738.15	253.86
738.48	253.50
738.81	253.18
739.14	252.82
739.47	252.53
739.80	252.22
740.13	251.87
740.46	251.56
740.79	251.22
741.12	250.90
741.45	250.60
741.78	250.27
742.11	250.02
742.44	249.76
742.77	249.51
743.10	249.20
743.43	248.98
743.75	248.58
744.08	248.40
744.41	248.11
744.74	247.87
745.07	247.58
745.40	247.32
745.73	247.11
746.06	246.89
746.39	246.63
746.71	246.37
747.04	246.12
747.37	245.88
747.70	245.65
748.03	245.45
748.36	245.21
748.68	245.00
749.01	244.74
749.34	244.53
749.67	244.28
750.00	244.06
750.33	243.85
750.65	243.63
750.98	243.32
751.31	243.11
751.64	242.89
751.97	242.78
752.29	242.61
752.62	242.36
752.95	242.14
753.28	241.93
753.60	241.72
753.93	241.55
754.26	241.34
754.59	241.12
754.91	240.88
755.24	240.71
755.57	240.46
755.90	240.25
756.22	240.04
756.55	239.84
756.88	239.64
757.20	239.40
757.53	239.22
757.86	239.05
758.19	238.91
758.51	238.68
758.84	238.44
759.17	238.24
759.49	238.06
759.82	237.94
760.15	237.78
760.47	237.61
760.80	237.43
761.13	237.31
761.45	237.14
761.78	236.98
762.11	236.83
762.43	236.70
762.76	236.55
763.08	236.42
763.41	236.29
763.74	236.16
764.06	236.05
764.39	235.92
764.71	235.74
765.04	235.57
765.37	235.46
765.69	235.32
766.02	235.21
766.34	235.09
766.67	234.91
767.00	234.81
767.32	234.78
767.65	234.71
767.97	234.55
768.30	234.47
768.62	234.37
768.95	234.22
769.27	234.11
769.60	234.03
769.92	233.89
770.25	233.77
770.57	233.65
770.90	233.56
771.22	233.45
771.55	233.36
771.87	233.28
772.20	233.17
772.52	233.19
772.85	233.16
773.17	233.07
773.50	232.98
773.82	232.86
774.15	232.69
774.47	232.55
774.80	232.48
775.12	232.39
775.45	232.32
775.77	232.25
776.09	232.18
776.42	232.08
776.74	232.04
777.07	231.96
777.39	231.89
777.72	231.79
778.04	231.75
778.36	231.69
778.69	231.62
779.01	231.56
779.33	231.42
779.66	231.29
779.98	231.25
780.31	231.19
780.63	231.17
780.95	231.15
781.28	231.09
781.60	231.02
781.92	230.93
782.25	230.85
782.57	230.80
782.89	230.75
783.22	230.73
783.54	230.66
783.86	230.62
784.19	230.55
784.51	230.54
784.83	230.47
785.16	230.42
785.48	230.38
785.80	230.35
786.12	230.32
786.45	230.23
786.77	230.21
787.09	230.18
