SpectraSuite Data File
++++++++++++++++++++++++++++++++++++
Date: Fri Feb 01 14:50:17 EST 2013
User: group
Dark Spectrum Present: No
Reference Spectrum Present: No
Number of Sampled Component Spectra: 1
Spectrometers: USB2E7196
Integration Time (usec): 35000 (USB2E7196)
Spectra Averaged: 100 (USB2E7196)
Boxcar Smoothing: 10 (USB2E7196)
Correct for Electrical Dark: No (USB2E7196)
Strobe/Lamp Enabled: No (USB2E7196)
Correct for Detector Non-linearity: No (USB2E7196)
Correct for Stray Light: No (USB2E7196)
Number of Pixels in Processed Spectrum: 2048
>>>>>Begin Processed Spectral Data<<<<<
339.09	0.00
339.48	216.05
339.86	217.03
340.24	219.02
340.63	219.73
341.01	222.28
341.39	223.17
341.78	223.61
342.16	225.42
342.54	225.92
342.93	214.17
343.31	225.01
343.69	225.54
344.07	226.02
344.46	226.44
344.84	226.83
345.22	227.13
345.60	227.36
345.99	227.60
346.37	227.73
346.75	227.84
347.13	227.90
347.52	227.95
347.90	227.99
348.28	228.05
348.66	228.05
349.05	228.05
349.43	228.08
349.81	228.11
350.19	228.16
350.57	228.19
350.96	228.26
351.34	228.33
351.72	228.41
352.10	228.50
352.48	228.59
352.87	228.64
353.25	228.68
353.63	228.73
354.01	228.77
354.39	228.83
354.77	228.87
355.15	228.98
355.54	229.05
355.92	229.12
356.30	229.18
356.68	229.32
357.06	229.41
357.44	229.40
357.82	229.44
358.20	229.51
358.58	229.57
358.97	229.62
359.35	229.68
359.73	229.76
360.11	229.81
360.49	229.80
360.87	229.86
361.25	229.92
361.63	230.04
362.01	230.06
362.39	230.07
362.77	230.11
363.15	230.12
363.53	230.11
363.91	230.10
364.29	230.09
364.67	230.00
365.05	230.00
365.43	230.06
365.81	230.09
366.19	230.10
366.57	230.12
366.95	230.11
367.33	230.05
367.71	230.04
368.09	230.03
368.47	230.01
368.85	229.99
369.23	229.97
369.61	229.84
369.99	229.83
370.37	229.82
370.75	229.83
371.13	229.77
371.51	229.73
371.89	229.71
372.27	229.71
372.65	229.69
373.03	229.66
373.41	229.59
373.78	229.52
374.16	229.45
374.54	229.36
374.92	229.30
375.30	229.24
375.68	229.11
376.06	229.02
376.44	228.95
376.82	228.87
377.19	228.75
377.57	228.67
377.95	228.59
378.33	228.49
378.71	228.33
379.09	228.24
379.47	228.18
379.84	228.07
380.22	227.98
380.60	227.89
380.98	227.78
381.36	227.70
381.73	227.61
382.11	227.55
382.49	227.48
382.87	227.37
383.25	227.31
383.62	227.37
384.00	227.29
384.38	227.21
384.76	227.17
385.13	227.14
385.51	227.12
385.89	227.02
386.27	226.99
386.64	226.99
387.02	226.96
387.40	226.89
387.78	226.86
388.15	226.81
388.53	226.79
388.91	226.76
389.29	226.75
389.66	226.74
390.04	226.67
390.42	226.68
390.79	226.69
391.17	226.68
391.55	226.57
391.92	226.55
392.30	226.58
392.68	226.56
393.05	226.54
393.43	226.53
393.81	226.56
394.18	226.56
394.56	226.58
394.94	226.64
395.31	226.67
395.69	226.73
396.06	226.81
396.44	226.86
396.82	226.91
397.19	227.00
397.57	227.03
397.95	227.10
398.32	227.15
398.70	227.24
399.07	227.33
399.45	227.39
399.82	227.51
400.20	227.60
400.58	227.71
400.95	227.78
401.33	227.94
401.70	228.10
402.08	228.20
402.45	228.32
402.83	228.41
403.20	228.58
403.58	228.67
403.95	228.80
404.33	228.92
404.71	229.04
405.08	229.25
405.46	229.39
405.83	229.57
406.21	229.73
406.58	229.91
406.96	230.11
407.33	230.35
407.70	230.56
408.08	230.84
408.45	231.09
408.83	231.39
409.20	231.58
409.58	231.77
409.95	232.04
410.33	232.32
410.70	232.61
411.08	232.85
411.45	233.18
411.82	233.50
412.20	233.85
412.57	234.28
412.95	234.55
413.32	234.97
413.69	235.37
414.07	235.80
414.44	236.26
414.82	236.72
415.19	237.25
415.56	237.78
415.94	238.30
416.31	238.91
416.68	239.50
417.06	240.24
417.43	240.97
417.81	241.75
418.18	242.53
418.55	243.36
418.93	244.28
419.30	245.17
419.67	246.07
420.04	247.02
420.42	247.96
420.79	249.14
421.16	250.30
421.54	251.51
421.91	252.72
422.28	253.95
422.66	255.27
423.03	256.53
423.40	257.85
423.77	259.25
424.15	260.66
424.52	262.14
424.89	263.70
425.26	265.19
425.64	266.61
426.01	268.20
426.38	269.82
426.75	271.43
427.13	273.14
427.50	274.92
427.87	276.81
428.24	278.72
428.61	280.45
428.99	282.38
429.36	284.45
429.73	286.50
430.10	288.49
430.47	290.52
430.85	292.62
431.22	294.86
431.59	297.24
431.96	299.48
432.33	301.95
432.70	304.33
433.08	307.13
433.45	309.77
433.82	312.36
434.19	315.27
434.56	318.10
434.93	320.68
435.30	323.34
435.68	326.25
436.05	329.04
436.42	331.83
436.79	334.33
437.16	337.02
437.53	339.87
437.90	342.70
438.27	345.45
438.64	348.34
439.01	350.94
439.38	353.18
439.75	355.28
440.13	357.78
440.50	360.14
440.87	361.99
441.24	363.96
441.61	366.08
441.98	367.54
442.35	369.33
442.72	371.24
443.09	373.04
443.46	374.01
443.83	374.55
444.20	375.09
444.57	375.93
444.94	376.19
445.31	376.55
445.68	376.85
446.05	376.92
446.42	376.48
446.79	376.06
447.16	375.66
447.53	375.40
447.90	374.24
448.27	373.08
448.64	371.51
449.01	370.39
449.37	368.45
449.74	366.60
450.11	364.39
450.48	361.94
450.85	359.38
451.22	357.27
451.59	355.33
451.96	353.39
452.33	350.80
452.70	348.50
453.07	345.67
453.43	342.84
453.80	340.11
454.17	337.46
454.54	334.91
454.91	332.17
455.28	329.50
455.65	327.04
456.02	324.60
456.38	322.48
456.75	319.83
457.12	317.60
457.49	315.36
457.86	313.16
458.23	311.33
458.59	309.32
458.96	307.22
459.33	305.35
459.70	303.52
460.07	302.03
460.43	300.33
460.80	298.73
461.17	297.29
461.54	295.81
461.91	294.38
462.27	292.92
462.64	291.70
463.01	290.39
463.38	289.09
463.74	287.68
464.11	286.50
464.48	285.45
464.85	284.34
465.21	283.48
465.58	282.58
465.95	281.44
466.32	280.54
466.68	279.65
467.05	278.78
467.42	277.83
467.78	276.88
468.15	275.99
468.52	275.25
468.88	274.36
469.25	273.56
469.62	272.90
469.98	272.20
470.35	271.54
470.72	270.91
471.08	270.22
471.45	269.71
471.82	269.17
472.18	268.53
472.55	268.10
472.92	267.57
473.28	267.08
473.65	266.63
474.02	266.15
474.38	265.74
474.75	265.39
475.11	265.05
475.48	264.79
475.85	264.54
476.21	264.32
476.58	264.15
476.94	263.98
477.31	263.82
477.67	263.72
478.04	263.58
478.41	263.50
478.77	263.53
479.14	263.43
479.50	263.40
479.87	263.45
480.23	263.50
480.60	263.50
480.96	263.57
481.33	263.72
481.69	263.94
482.06	264.14
482.42	264.26
482.79	264.48
483.15	264.76
483.52	265.13
483.88	265.44
484.25	265.80
484.61	266.21
484.98	266.67
485.34	267.17
485.71	267.73
486.07	268.34
486.44	268.90
486.80	269.60
487.17	270.31
487.53	271.15
487.90	271.96
488.26	272.90
488.62	273.91
488.99	274.89
489.35	275.85
489.72	276.95
490.08	278.16
490.44	279.38
490.81	280.71
491.17	282.02
491.54	283.55
491.90	285.07
492.26	286.71
492.63	288.39
492.99	290.17
493.36	292.05
493.72	294.06
494.08	296.12
494.45	298.34
494.81	300.66
495.17	303.03
495.54	305.61
495.90	308.28
496.26	311.06
496.63	314.01
496.99	317.16
497.35	320.35
497.72	323.77
498.08	327.27
498.44	330.88
498.80	334.79
499.17	338.72
499.53	342.84
499.89	347.17
500.26	351.67
500.62	356.31
500.98	361.24
501.34	366.27
501.71	371.56
502.07	376.99
502.43	382.56
502.79	388.42
503.16	394.47
503.52	400.72
503.88	407.06
504.24	413.68
504.60	420.52
504.97	427.66
505.33	434.91
505.69	442.57
506.05	450.30
506.41	458.13
506.78	466.24
507.14	474.60
507.50	483.21
507.86	492.22
508.22	501.37
508.59	510.50
508.95	520.04
509.31	529.84
509.67	539.84
510.03	550.06
510.39	560.48
510.75	571.21
511.12	582.08
511.48	593.35
511.84	604.66
512.20	616.10
512.56	627.98
512.92	640.16
513.28	652.43
513.64	664.94
514.00	677.62
514.37	690.48
514.73	703.50
515.09	716.50
515.45	729.78
515.81	743.32
516.17	757.33
516.53	771.41
516.89	785.51
517.25	799.71
517.61	814.14
517.97	828.53
518.33	842.92
518.69	857.61
519.05	872.61
519.41	887.81
519.77	903.37
520.13	918.81
520.49	934.12
520.85	949.58
521.21	965.23
521.57	981.48
521.93	997.46
522.29	1013.90
522.65	1030.21
523.01	1046.43
523.37	1062.54
523.73	1078.69
524.09	1094.86
524.45	1111.25
524.81	1128.03
525.17	1145.05
525.53	1162.03
525.89	1178.91
526.25	1195.80
526.61	1212.21
526.97	1228.90
527.33	1245.50
527.68	1262.13
528.04	1278.67
528.40	1295.37
528.76	1312.62
529.12	1329.23
529.48	1346.11
529.84	1362.20
530.20	1378.96
530.56	1396.00
530.91	1413.46
531.27	1430.32
531.63	1446.68
531.99	1463.29
532.35	1479.18
532.71	1494.99
533.07	1511.31
533.42	1527.35
533.78	1543.54
534.14	1559.84
534.50	1575.36
534.86	1591.22
535.21	1606.40
535.57	1622.39
535.93	1637.86
536.29	1652.68
536.65	1667.93
537.00	1682.76
537.36	1698.20
537.72	1712.79
538.08	1727.24
538.44	1741.04
538.79	1754.99
539.15	1768.86
539.51	1782.64
539.87	1797.14
540.22	1810.87
540.58	1824.81
540.94	1838.14
541.29	1851.14
541.65	1863.93
542.01	1877.23
542.37	1889.55
542.72	1902.14
543.08	1913.99
543.44	1926.62
543.79	1937.85
544.15	1948.89
544.51	1960.41
544.87	1971.29
545.22	1982.09
545.58	1992.29
545.94	2002.05
546.29	2011.98
546.65	2021.89
547.01	2031.20
547.36	2039.92
547.72	2048.48
548.07	2056.14
548.43	2064.36
548.79	2072.22
549.14	2079.82
549.50	2087.04
549.86	2094.79
550.21	2102.09
550.57	2109.28
550.92	2115.73
551.28	2122.84
551.64	2129.83
551.99	2136.35
552.35	2142.48
552.70	2148.47
553.06	2154.36
553.41	2160.61
553.77	2166.38
554.13	2172.29
554.48	2178.14
554.84	2183.39
555.19	2188.50
555.55	2193.61
555.90	2197.89
556.26	2202.69
556.61	2207.22
556.97	2211.46
557.32	2215.44
557.68	2219.45
558.03	2223.62
558.39	2227.22
558.74	2231.55
559.10	2235.03
559.45	2238.38
559.81	2242.51
560.16	2246.19
560.52	2249.37
560.87	2252.79
561.23	2255.39
561.58	2258.08
561.94	2260.57
562.29	2262.95
562.64	2265.41
563.00	2267.96
563.35	2271.53
563.71	2274.42
564.06	2277.49
564.42	2280.13
564.77	2282.42
565.12	2284.56
565.48	2286.16
565.83	2287.72
566.19	2288.75
566.54	2289.62
566.89	2290.77
567.25	2291.28
567.60	2292.47
567.96	2294.06
568.31	2294.50
568.66	2295.46
569.02	2295.91
569.37	2296.09
569.72	2296.58
570.08	2296.56
570.43	2296.15
570.78	2294.95
571.14	2293.13
571.49	2291.51
571.84	2290.89
572.20	2289.48
572.55	2288.03
572.90	2286.25
573.26	2284.62
573.61	2282.77
573.96	2280.86
574.31	2277.54
574.67	2274.17
575.02	2270.14
575.37	2266.20
575.72	2262.22
576.08	2258.66
576.43	2255.10
576.78	2251.16
577.13	2247.75
577.49	2244.37
577.84	2240.70
578.19	2236.90
578.54	2233.08
578.90	2228.49
579.25	2222.79
579.60	2217.59
579.95	2212.21
580.30	2206.99
580.66	2201.58
581.01	2196.45
581.36	2191.33
581.71	2186.88
582.06	2182.39
582.42	2177.83
582.77	2172.42
583.12	2167.64
583.47	2162.63
583.82	2157.51
584.17	2152.15
584.53	2146.48
584.88	2140.67
585.23	2134.81
585.58	2129.13
585.93	2123.42
586.28	2118.51
586.63	2113.31
586.98	2108.24
587.34	2103.55
587.69	2098.47
588.04	2093.26
588.39	2087.39
588.74	2080.63
589.09	2074.50
589.44	2067.44
589.79	2061.19
590.14	2055.48
590.49	2048.78
590.84	2042.19
591.19	2035.98
591.54	2029.35
591.89	2021.76
592.25	2014.87
592.60	2007.58
592.95	2000.01
593.30	1992.70
593.65	1985.04
594.00	1977.76
594.35	1970.29
594.70	1962.13
595.05	1954.91
595.40	1947.42
595.75	1939.77
596.10	1933.52
596.45	1926.62
596.80	1920.32
597.15	1913.74
597.50	1906.67
597.85	1900.19
598.19	1893.57
598.54	1886.50
598.89	1879.86
599.24	1874.11
599.59	1867.51
599.94	1861.25
600.29	1854.81
600.64	1848.16
600.99	1840.57
601.34	1833.86
601.69	1826.83
602.04	1819.98
602.39	1812.57
602.74	1805.82
603.08	1799.22
603.43	1792.52
603.78	1785.24
604.13	1778.12
604.48	1770.93
604.83	1764.09
605.18	1757.11
605.53	1749.12
605.87	1741.11
606.22	1733.78
606.57	1725.85
606.92	1718.43
607.27	1711.29
607.62	1704.45
607.96	1697.29
608.31	1690.98
608.66	1683.35
609.01	1675.88
609.36	1668.48
609.70	1660.61
610.05	1652.58
610.40	1644.92
610.75	1636.64
611.10	1629.02
611.44	1620.67
611.79	1612.74
612.14	1604.16
612.49	1595.16
612.83	1586.98
613.18	1578.96
613.53	1571.06
613.88	1562.51
614.22	1554.37
614.57	1545.86
614.92	1538.02
615.27	1530.61
615.61	1522.33
615.96	1514.44
616.31	1506.98
616.65	1499.66
617.00	1492.17
617.35	1484.47
617.70	1476.19
618.04	1467.72
618.39	1459.67
618.74	1452.17
619.08	1443.90
619.43	1436.51
619.78	1429.79
620.12	1422.67
620.47	1415.15
620.82	1407.04
621.16	1399.77
621.51	1392.18
621.85	1384.68
622.20	1376.22
622.55	1367.95
622.89	1360.15
623.24	1352.71
623.59	1345.44
623.93	1337.98
624.28	1330.77
624.62	1323.54
624.97	1316.46
625.32	1309.80
625.66	1302.77
626.01	1295.62
626.35	1288.39
626.70	1280.73
627.04	1272.98
627.39	1265.40
627.73	1258.16
628.08	1251.39
628.43	1244.24
628.77	1237.06
629.12	1229.67
629.46	1222.62
629.81	1215.30
630.15	1208.30
630.50	1201.00
630.84	1192.97
631.19	1185.17
631.53	1177.86
631.88	1170.37
632.22	1162.98
632.57	1155.88
632.91	1148.46
633.26	1141.31
633.60	1133.98
633.95	1127.00
634.29	1120.12
634.64	1113.52
634.98	1106.25
635.32	1099.22
635.67	1092.75
636.01	1086.25
636.36	1079.45
636.70	1073.04
637.05	1066.62
637.39	1060.17
637.73	1053.72
638.08	1047.90
638.42	1042.09
638.77	1035.73
639.11	1029.27
639.45	1022.98
639.80	1016.44
640.14	1010.13
640.49	1003.69
640.83	997.52
641.17	991.39
641.52	985.17
641.86	978.76
642.20	973.01
642.55	966.75
642.89	960.32
643.23	953.84
643.58	948.24
643.92	942.09
644.26	936.07
644.61	930.11
644.95	924.14
645.29	917.63
645.64	910.87
645.98	904.62
646.32	898.80
646.66	892.76
647.01	887.04
647.35	881.51
647.69	875.74
648.04	870.24
648.38	864.47
648.72	858.53
649.06	852.59
649.41	846.67
649.75	840.77
650.09	834.81
650.43	829.08
650.78	822.98
651.12	817.09
651.46	811.40
651.80	805.65
652.14	800.32
652.49	795.00
652.83	789.80
653.17	784.12
653.51	778.47
653.85	773.16
654.20	767.58
654.54	761.56
654.88	755.88
655.22	750.03
655.56	744.37
655.90	738.93
656.25	733.69
656.59	728.53
656.93	723.54
657.27	718.43
657.61	713.07
657.95	707.98
658.29	702.90
658.64	697.74
658.98	692.60
659.32	687.23
659.66	682.10
660.00	676.90
660.34	672.13
660.68	667.26
661.02	662.29
661.36	657.60
661.70	653.21
662.05	648.96
662.39	644.72
662.73	640.29
663.07	636.00
663.41	631.65
663.75	627.24
664.09	622.73
664.43	618.54
664.77	614.45
665.11	610.26
665.45	606.21
665.79	602.15
666.13	598.07
666.47	594.06
666.81	589.98
667.15	585.98
667.49	582.11
667.83	578.37
668.17	574.48
668.51	570.56
668.85	566.54
669.19	562.70
669.53	558.92
669.87	555.15
670.21	551.51
670.55	547.88
670.89	544.45
671.23	541.02
671.57	537.53
671.91	534.15
672.25	530.75
672.58	527.32
672.92	523.97
673.26	520.88
673.60	517.79
673.94	514.72
674.28	511.88
674.62	508.93
674.96	505.86
675.30	503.03
675.64	500.09
675.97	497.41
676.31	494.59
676.65	491.75
676.99	489.06
677.33	486.20
677.67	483.42
678.01	480.40
678.34	477.53
678.68	474.70
679.02	471.86
679.36	469.14
679.70	466.49
680.04	463.75
680.37	460.87
680.71	458.06
681.05	455.49
681.39	452.80
681.73	450.18
682.06	447.67
682.40	445.16
682.74	442.67
683.08	440.17
683.42	437.59
683.75	435.15
684.09	432.68
684.43	430.30
684.77	427.91
685.10	425.64
685.44	423.32
685.78	421.04
686.12	418.84
686.45	416.61
686.79	414.34
687.13	412.26
687.46	410.19
687.80	408.16
688.14	405.96
688.48	403.96
688.81	401.78
689.15	399.69
689.49	397.59
689.82	395.54
690.16	393.42
690.50	391.50
690.83	389.54
691.17	387.52
691.51	385.60
691.84	383.75
692.18	381.81
692.52	379.88
692.85	377.98
693.19	376.11
693.52	374.28
693.86	372.46
694.20	370.69
694.53	368.91
694.87	367.05
695.21	365.30
695.54	363.47
695.88	361.74
696.21	360.03
696.55	358.29
696.88	356.64
697.22	355.05
697.56	353.46
697.89	351.80
698.23	350.25
698.56	348.74
698.90	347.22
699.23	345.64
699.57	344.16
699.90	342.65
700.24	341.12
700.58	339.63
700.91	338.16
701.25	336.71
701.58	335.33
701.92	334.00
702.25	332.64
702.59	331.33
702.92	330.07
703.26	328.79
703.59	327.56
703.93	326.38
704.26	325.19
704.60	323.89
704.93	322.67
705.26	321.43
705.60	320.24
705.93	319.08
706.27	318.06
706.60	316.98
706.94	315.92
707.27	314.84
707.61	313.79
707.94	312.77
708.27	311.71
708.61	310.69
708.94	309.70
709.28	308.71
709.61	307.72
709.94	306.77
710.28	305.75
710.61	304.81
710.95	303.77
711.28	302.82
711.61	301.88
711.95	300.96
712.28	300.02
712.61	299.03
712.95	298.10
713.28	297.23
713.61	296.37
713.95	295.51
714.28	294.68
714.61	293.86
714.95	293.03
715.28	292.20
715.61	291.32
715.95	290.47
716.28	289.63
716.61	288.81
716.95	288.00
717.28	287.32
717.61	286.51
717.94	285.73
718.28	284.93
718.61	284.23
718.94	283.57
719.27	282.94
719.61	282.33
719.94	281.67
720.27	280.97
720.60	280.28
720.94	279.62
721.27	279.04
721.60	278.44
721.93	277.85
722.27	277.29
722.60	276.71
722.93	276.13
723.26	275.60
723.59	275.04
723.93	274.53
724.26	273.94
724.59	273.43
724.92	272.99
725.25	272.53
725.59	272.01
725.92	271.53
726.25	271.02
726.58	270.53
726.91	270.05
727.24	269.56
727.57	269.10
727.91	268.61
728.24	268.12
728.57	267.61
728.90	267.19
729.23	266.70
729.56	266.33
729.89	265.90
730.22	265.44
730.55	265.01
730.89	264.57
731.22	264.16
731.55	263.73
731.88	263.25
732.21	262.81
732.54	262.38
732.87	261.94
733.20	261.55
733.53	261.15
733.86	260.79
734.19	260.41
734.52	260.06
734.85	259.75
735.18	259.34
735.51	259.00
735.84	258.65
736.17	258.27
736.50	257.86
736.83	257.60
737.16	257.24
737.49	256.90
737.82	256.52
738.15	256.18
738.48	255.87
738.81	255.59
739.14	255.30
739.47	255.03
739.80	254.71
740.13	254.41
740.46	254.09
740.79	253.75
741.12	253.45
741.45	253.13
741.78	252.81
742.11	252.51
742.44	252.17
742.77	251.87
743.10	251.58
743.43	251.25
743.75	250.89
744.08	250.76
744.41	250.53
744.74	250.29
745.07	250.01
745.40	249.75
745.73	249.49
746.06	249.16
746.39	248.88
746.71	248.61
747.04	248.36
747.37	248.09
747.70	247.85
748.03	247.61
748.36	247.37
748.68	247.13
749.01	246.90
749.34	246.72
749.67	246.49
750.00	246.28
750.33	246.13
750.65	245.87
750.98	245.55
751.31	245.28
751.64	245.05
751.97	244.90
752.29	244.67
752.62	244.45
752.95	244.27
753.28	244.08
753.60	243.89
753.93	243.69
754.26	243.50
754.59	243.26
754.91	243.05
755.24	242.86
755.57	242.65
755.90	242.49
756.22	242.29
756.55	242.10
756.88	241.92
757.20	241.69
757.53	241.53
757.86	241.33
758.19	241.19
758.51	241.02
758.84	240.81
759.17	240.65
759.49	240.48
759.82	240.38
760.15	240.21
760.47	240.06
760.80	239.90
761.13	239.79
761.45	239.63
761.78	239.48
762.11	239.34
762.43	239.24
762.76	239.10
763.08	239.00
763.41	238.89
763.74	238.78
764.06	238.62
764.39	238.54
764.71	238.40
765.04	238.27
765.37	238.16
765.69	238.05
766.02	237.93
766.34	237.80
766.67	237.66
767.00	237.60
767.32	237.52
767.65	237.46
767.97	237.33
768.30	237.24
768.62	237.13
768.95	237.03
769.27	236.90
769.60	236.80
769.92	236.68
770.25	236.53
770.57	236.37
770.90	236.29
771.22	236.16
771.55	236.09
771.87	235.98
772.20	235.89
772.52	235.88
772.85	235.92
773.17	235.82
773.50	235.71
773.82	235.56
774.15	235.45
774.47	235.32
774.80	235.20
775.12	235.13
775.45	235.03
775.77	234.98
776.09	234.90
776.42	234.79
776.74	234.71
777.07	234.65
777.39	234.60
777.72	234.52
778.04	234.46
778.36	234.40
778.69	234.32
779.01	234.24
779.33	234.08
779.66	233.88
779.98	233.82
780.31	233.75
780.63	233.72
780.95	233.64
781.28	233.56
781.60	233.49
781.92	233.42
782.25	233.35
782.57	233.27
782.89	233.19
783.22	233.14
783.54	233.08
783.86	232.99
784.19	232.90
784.51	232.88
784.83	232.80
785.16	232.73
785.48	232.69
785.80	232.63
786.12	232.58
786.45	232.49
786.77	232.45
787.09	232.40
