SpectraSuite Data File
++++++++++++++++++++++++++++++++++++
Date: Fri Feb 01 17:32:07 EST 2013
User: group
Dark Spectrum Present: No
Reference Spectrum Present: No
Number of Sampled Component Spectra: 1
Spectrometers: USB2E7196
Integration Time (usec): 35000 (USB2E7196)
Spectra Averaged: 100 (USB2E7196)
Boxcar Smoothing: 10 (USB2E7196)
Correct for Electrical Dark: No (USB2E7196)
Strobe/Lamp Enabled: No (USB2E7196)
Correct for Detector Non-linearity: No (USB2E7196)
Correct for Stray Light: No (USB2E7196)
Number of Pixels in Processed Spectrum: 2048
>>>>>Begin Processed Spectral Data<<<<<
339.09	0.00
339.48	213.05
339.86	213.87
340.24	215.80
340.63	217.00
341.01	219.29
341.39	219.70
341.78	221.22
342.16	222.23
342.54	221.98
342.93	211.10
343.31	221.76
343.69	222.28
344.07	222.75
344.46	223.16
344.84	223.52
345.22	223.77
345.60	224.00
345.99	224.15
346.37	224.29
346.75	224.43
347.13	224.53
347.52	224.58
347.90	224.64
348.28	224.68
348.66	224.71
349.05	224.69
349.43	224.72
349.81	224.73
350.19	224.79
350.57	224.87
350.96	224.94
351.34	225.04
351.72	225.10
352.10	225.19
352.48	225.26
352.87	225.33
353.25	225.45
353.63	225.49
354.01	225.55
354.39	225.62
354.77	225.68
355.15	225.77
355.54	225.82
355.92	225.86
356.30	225.93
356.68	226.06
357.06	226.14
357.44	226.21
357.82	226.30
358.20	226.37
358.58	226.43
358.97	226.52
359.35	226.61
359.73	226.72
360.11	226.79
360.49	226.89
360.87	226.94
361.25	226.97
361.63	227.08
362.01	227.19
362.39	227.23
362.77	227.28
363.15	227.32
363.53	227.39
363.91	227.48
364.29	227.49
364.67	227.41
365.05	227.44
365.43	227.48
365.81	227.52
366.19	227.57
366.57	227.61
366.95	227.61
367.33	227.59
367.71	227.59
368.09	227.60
368.47	227.58
368.85	227.55
369.23	227.53
369.61	227.47
369.99	227.46
370.37	227.46
370.75	227.49
371.13	227.44
371.51	227.37
371.89	227.32
372.27	227.30
372.65	227.29
373.03	227.30
373.41	227.22
373.78	227.17
374.16	227.10
374.54	227.04
374.92	226.95
375.30	226.89
375.68	226.80
376.06	226.75
376.44	226.68
376.82	226.64
377.19	226.59
377.57	226.55
377.95	226.45
378.33	226.36
378.71	226.24
379.09	226.18
379.47	226.13
379.84	226.07
380.22	225.99
380.60	225.90
380.98	225.81
381.36	225.74
381.73	225.66
382.11	225.62
382.49	225.55
382.87	225.47
383.25	225.40
383.62	225.45
384.00	225.39
384.38	225.35
384.76	225.31
385.13	225.30
385.51	225.27
385.89	225.20
386.27	225.17
386.64	225.16
387.02	225.11
387.40	225.05
387.78	224.99
388.15	224.98
388.53	224.96
388.91	224.91
389.29	224.92
389.66	224.89
390.04	224.87
390.42	224.83
390.79	224.82
391.17	224.83
391.55	224.74
391.92	224.71
392.30	224.70
392.68	224.66
393.05	224.65
393.43	224.63
393.81	224.66
394.18	224.60
394.56	224.58
394.94	224.59
395.31	224.58
395.69	224.60
396.06	224.63
396.44	224.64
396.82	224.66
397.19	224.67
397.57	224.69
397.95	224.71
398.32	224.75
398.70	224.82
399.07	224.89
399.45	224.91
399.82	224.94
400.20	225.00
400.58	225.07
400.95	225.09
401.33	225.18
401.70	225.28
402.08	225.40
402.45	225.47
402.83	225.60
403.20	225.70
403.58	225.78
403.95	225.90
404.33	226.02
404.71	226.16
405.08	226.38
405.46	226.53
405.83	226.66
406.21	226.79
406.58	226.94
406.96	227.06
407.33	227.24
407.70	227.44
408.08	227.68
408.45	227.90
408.83	228.15
409.20	228.38
409.58	228.57
409.95	228.85
410.33	229.13
410.70	229.36
411.08	229.66
411.45	230.01
411.82	230.27
412.20	230.64
412.57	231.05
412.95	231.34
413.32	231.72
413.69	232.16
414.07	232.63
414.44	233.10
414.82	233.59
415.19	234.17
415.56	234.74
415.94	235.32
416.31	235.99
416.68	236.63
417.06	237.34
417.43	238.07
417.81	238.82
418.18	239.64
418.55	240.54
418.93	241.46
419.30	242.40
419.67	243.40
420.04	244.43
420.42	245.46
420.79	246.68
421.16	247.89
421.54	249.11
421.91	250.36
422.28	251.66
422.66	253.02
423.03	254.38
423.40	255.77
423.77	257.25
424.15	258.72
424.52	260.24
424.89	261.93
425.26	263.53
425.64	265.06
426.01	266.71
426.38	268.43
426.75	270.16
427.13	271.94
427.50	273.84
427.87	275.79
428.24	277.74
428.61	279.58
428.99	281.63
429.36	283.82
429.73	285.99
430.10	288.11
430.47	290.28
430.85	292.49
431.22	294.85
431.59	297.35
431.96	299.70
432.33	302.30
432.70	304.81
433.08	307.73
433.45	310.48
433.82	313.27
434.19	316.30
434.56	319.29
434.93	322.06
435.30	324.78
435.68	327.81
436.05	330.75
436.42	333.67
436.79	336.26
437.16	339.10
437.53	342.03
437.90	344.92
438.27	347.76
438.64	350.73
439.01	353.41
439.38	355.72
439.75	358.00
440.13	360.59
440.50	362.97
440.87	364.94
441.24	366.98
441.61	369.24
441.98	370.78
442.35	372.64
442.72	374.58
443.09	376.47
443.46	377.43
443.83	378.05
444.20	378.57
444.57	379.51
444.94	379.82
445.31	380.21
445.68	380.65
446.05	380.76
446.42	380.34
446.79	379.95
447.16	379.49
447.53	379.19
447.90	378.06
448.27	376.93
448.64	375.29
449.01	374.13
449.37	372.05
449.74	370.09
450.11	367.74
450.48	365.19
450.85	362.58
451.22	360.43
451.59	358.40
451.96	356.40
452.33	353.65
452.70	351.19
453.07	348.24
453.43	345.22
453.80	342.36
454.17	339.61
454.54	336.91
454.91	334.10
455.28	331.28
455.65	328.62
456.02	326.04
456.38	323.81
456.75	321.02
457.12	318.67
457.49	316.36
457.86	314.13
458.23	312.18
458.59	310.06
458.96	307.88
459.33	305.93
459.70	303.99
460.07	302.38
460.43	300.61
460.80	298.94
461.17	297.42
461.54	295.86
461.91	294.39
462.27	292.89
462.64	291.58
463.01	290.15
463.38	288.80
463.74	287.35
464.11	286.09
464.48	285.04
464.85	283.89
465.21	282.98
465.58	281.99
465.95	280.87
466.32	279.90
466.68	278.95
467.05	278.00
467.42	277.07
467.78	276.19
468.15	275.25
468.52	274.54
468.88	273.64
469.25	272.82
469.62	272.14
469.98	271.42
470.35	270.79
470.72	270.20
471.08	269.55
471.45	269.01
471.82	268.44
472.18	267.80
472.55	267.32
472.92	266.79
473.28	266.32
473.65	265.87
474.02	265.42
474.38	265.04
474.75	264.73
475.11	264.36
475.48	264.07
475.85	263.86
476.21	263.61
476.58	263.44
476.94	263.33
477.31	263.16
477.67	263.05
478.04	262.91
478.41	262.85
478.77	262.90
479.14	262.82
479.50	262.86
479.87	262.96
480.23	263.02
480.60	263.11
480.96	263.25
481.33	263.43
481.69	263.61
482.06	263.83
482.42	263.98
482.79	264.27
483.15	264.54
483.52	264.91
483.88	265.29
484.25	265.71
484.61	266.13
484.98	266.60
485.34	267.16
485.71	267.77
486.07	268.37
486.44	268.90
486.80	269.65
487.17	270.38
487.53	271.20
487.90	272.09
488.26	273.02
488.62	273.96
488.99	274.94
489.35	275.98
489.72	277.07
490.08	278.32
490.44	279.55
490.81	280.91
491.17	282.26
491.54	283.75
491.90	285.27
492.26	286.86
492.63	288.59
492.99	290.34
493.36	292.22
493.72	294.26
494.08	296.36
494.45	298.59
494.81	300.93
495.17	303.31
495.54	305.81
495.90	308.46
496.26	311.23
496.63	314.15
496.99	317.23
497.35	320.45
497.72	323.81
498.08	327.26
498.44	330.88
498.80	334.74
499.17	338.72
499.53	342.83
499.89	347.16
500.26	351.61
500.62	356.20
500.98	361.05
501.34	366.09
501.71	371.36
502.07	376.71
502.43	382.22
502.79	387.99
503.16	394.05
503.52	400.20
503.88	406.50
504.24	412.99
504.60	419.75
504.97	426.78
505.33	433.92
505.69	441.53
506.05	449.17
506.41	456.92
506.78	464.86
507.14	473.13
507.50	481.65
507.86	490.47
508.22	499.46
508.59	508.52
508.95	517.88
509.31	527.43
509.67	537.34
510.03	547.37
510.39	557.60
510.75	568.05
511.12	578.80
511.48	589.84
511.84	601.07
512.20	612.31
512.56	623.92
512.92	635.77
513.28	647.84
513.64	660.04
514.00	672.39
514.37	685.10
514.73	697.88
515.09	710.57
515.45	723.53
515.81	736.74
516.17	750.28
516.53	763.98
516.89	777.88
517.25	791.65
517.61	805.72
517.97	819.87
518.33	833.94
518.69	848.23
519.05	862.80
519.41	877.50
519.77	892.56
520.13	907.62
520.49	922.52
520.85	937.38
521.21	952.54
521.57	968.34
521.93	983.62
522.29	999.44
522.65	1015.26
523.01	1030.99
523.37	1046.61
523.73	1062.30
524.09	1077.98
524.45	1093.67
524.81	1109.85
525.17	1126.10
525.53	1142.43
525.89	1158.76
526.25	1175.16
526.61	1191.02
526.97	1207.35
527.33	1223.37
527.68	1239.53
528.04	1255.57
528.40	1271.73
528.76	1288.33
529.12	1304.43
529.48	1320.83
529.84	1336.34
530.20	1352.58
530.56	1369.03
530.91	1385.94
531.27	1402.25
531.63	1418.18
531.99	1434.41
532.35	1450.03
532.71	1465.62
533.07	1481.49
533.42	1497.10
533.78	1512.70
534.14	1528.53
534.50	1543.46
534.86	1558.94
535.21	1573.85
535.57	1589.47
535.93	1604.58
536.29	1618.93
536.65	1633.74
537.00	1648.19
537.36	1663.23
537.72	1677.31
538.08	1691.62
538.44	1705.21
538.79	1718.97
539.15	1732.34
539.51	1745.79
539.87	1759.83
540.22	1773.30
540.58	1786.73
540.94	1799.66
541.29	1812.19
541.65	1824.76
542.01	1837.80
542.37	1850.12
542.72	1862.22
543.08	1873.91
543.44	1886.19
543.79	1897.57
544.15	1908.41
544.51	1919.93
544.87	1930.90
545.22	1941.79
545.58	1952.09
545.94	1961.91
546.29	1971.70
546.65	1981.70
547.01	1991.18
547.36	2000.02
547.72	2008.63
548.07	2016.83
548.43	2025.26
548.79	2033.54
549.14	2041.30
549.50	2048.75
549.86	2056.40
550.21	2063.87
550.57	2071.21
550.92	2078.00
551.28	2085.02
551.64	2092.39
551.99	2099.03
552.35	2105.38
552.70	2111.79
553.06	2117.91
553.41	2124.39
553.77	2130.64
554.13	2136.95
554.48	2143.23
554.84	2149.10
555.19	2154.52
555.55	2159.90
555.90	2164.72
556.26	2170.10
556.61	2175.02
556.97	2179.88
557.32	2184.50
557.68	2189.00
558.03	2193.61
558.39	2197.74
558.74	2202.86
559.10	2207.10
559.45	2211.13
559.81	2215.78
560.16	2219.98
560.52	2223.69
560.87	2227.49
561.23	2230.64
561.58	2233.80
561.94	2236.74
562.29	2239.30
562.64	2242.56
563.00	2245.40
563.35	2249.17
563.71	2252.55
564.06	2256.12
564.42	2259.30
564.77	2262.19
565.12	2265.07
565.48	2267.55
565.83	2269.83
566.19	2271.66
566.54	2272.84
566.89	2274.58
567.25	2275.67
567.60	2277.32
567.96	2279.38
568.31	2280.67
568.66	2282.25
569.02	2283.38
569.37	2284.23
569.72	2285.54
570.08	2286.13
570.43	2286.73
570.78	2286.63
571.14	2285.45
571.49	2284.62
571.84	2284.62
572.20	2284.06
572.55	2283.30
572.90	2281.95
573.26	2281.00
573.61	2279.65
573.96	2278.62
574.31	2276.08
574.67	2273.59
575.02	2270.33
575.37	2267.29
575.72	2263.89
576.08	2260.83
576.43	2257.88
576.78	2254.59
577.13	2251.65
577.49	2248.72
577.84	2245.73
578.19	2242.34
578.54	2239.32
578.90	2235.64
579.25	2230.51
579.60	2225.79
579.95	2221.28
580.30	2216.73
580.66	2211.95
581.01	2207.25
581.36	2202.48
581.71	2198.72
582.06	2194.73
582.42	2190.83
582.77	2186.04
583.12	2181.87
583.47	2177.69
583.82	2173.17
584.17	2168.29
584.53	2163.44
584.88	2158.25
585.23	2152.85
585.58	2147.69
585.93	2142.46
586.28	2137.78
586.63	2132.99
586.98	2128.17
587.34	2123.61
587.69	2118.89
588.04	2113.98
588.39	2108.68
588.74	2102.40
589.09	2096.47
589.44	2089.94
589.79	2083.95
590.14	2078.44
590.49	2072.12
590.84	2065.82
591.19	2059.90
591.54	2053.61
591.89	2046.40
592.25	2039.94
592.60	2032.93
592.95	2025.67
593.30	2018.51
593.65	2011.07
594.00	2004.27
594.35	1997.31
594.70	1989.50
595.05	1982.63
595.40	1975.42
595.75	1967.95
596.10	1962.17
596.45	1955.47
596.80	1949.31
597.15	1942.85
597.50	1935.98
597.85	1929.63
598.19	1923.01
598.54	1916.26
598.89	1909.70
599.24	1903.86
599.59	1897.40
599.94	1891.25
600.29	1884.89
600.64	1878.38
600.99	1871.29
601.34	1864.54
601.69	1857.59
602.04	1850.84
602.39	1843.56
602.74	1836.85
603.08	1830.29
603.43	1823.39
603.78	1816.27
604.13	1809.06
604.48	1802.10
604.83	1795.35
605.18	1788.51
605.53	1780.76
605.87	1772.62
606.22	1765.46
606.57	1757.50
606.92	1749.99
607.27	1742.98
607.62	1736.21
607.96	1729.08
608.31	1722.65
608.66	1715.00
609.01	1707.44
609.36	1699.97
609.70	1691.94
610.05	1683.95
610.40	1676.37
610.75	1668.14
611.10	1660.48
611.44	1651.96
611.79	1643.69
612.14	1634.96
612.49	1625.74
612.83	1617.19
613.18	1608.99
613.53	1600.76
613.88	1592.17
614.22	1583.85
614.57	1574.96
614.92	1566.87
615.27	1559.27
615.61	1550.66
615.96	1542.60
616.31	1534.88
616.65	1527.31
617.00	1519.68
617.35	1511.75
617.70	1503.41
618.04	1494.76
618.39	1486.32
618.74	1478.74
619.08	1470.45
619.43	1462.70
619.78	1455.70
620.12	1448.52
620.47	1441.00
620.82	1432.76
621.16	1425.12
621.51	1417.44
621.85	1409.75
622.20	1401.16
622.55	1392.65
622.89	1384.66
623.24	1376.91
623.59	1369.39
623.93	1361.79
624.28	1354.50
624.62	1346.99
624.97	1339.60
625.32	1332.70
625.66	1325.60
626.01	1318.41
626.35	1310.93
626.70	1302.98
627.04	1295.18
627.39	1287.32
627.73	1279.88
628.08	1272.87
628.43	1265.76
628.77	1258.41
629.12	1250.84
629.46	1243.66
629.81	1235.97
630.15	1228.67
630.50	1221.27
630.84	1213.05
631.19	1205.02
631.53	1197.30
631.88	1189.63
632.22	1181.98
632.57	1174.63
632.91	1166.99
633.26	1159.47
633.60	1151.89
633.95	1144.75
634.29	1137.62
634.64	1130.79
634.98	1123.28
635.32	1116.03
635.67	1109.26
636.01	1102.44
636.36	1095.59
636.70	1088.90
637.05	1082.34
637.39	1075.81
637.73	1069.16
638.08	1063.19
638.42	1057.07
638.77	1050.62
639.11	1044.03
639.45	1037.59
639.80	1030.88
640.14	1024.45
640.49	1017.89
640.83	1011.51
641.17	1005.26
641.52	998.87
641.86	992.24
642.20	986.35
642.55	979.98
642.89	973.39
643.23	966.73
643.58	960.83
643.92	954.69
644.26	948.67
644.61	942.51
644.95	936.55
645.29	929.98
645.64	923.28
645.98	916.86
646.32	910.91
646.66	904.80
647.01	898.97
647.35	893.19
647.69	887.24
648.04	881.66
648.38	875.88
648.72	869.93
649.06	863.97
649.41	858.00
649.75	852.11
650.09	846.24
650.43	840.52
650.78	834.40
651.12	828.34
651.46	822.54
651.80	816.89
652.14	811.35
652.49	805.99
652.83	800.80
653.17	795.23
653.51	789.56
653.85	784.11
654.20	778.48
654.54	772.47
654.88	766.67
655.22	760.82
655.56	755.10
655.90	749.57
656.25	744.31
656.59	738.91
656.93	733.80
657.27	728.62
657.61	723.13
657.95	718.03
658.29	712.91
658.64	707.61
658.98	702.25
659.32	696.86
659.66	691.65
660.00	686.28
660.34	681.22
660.68	676.27
661.02	671.23
661.36	666.52
661.70	662.08
662.05	657.82
662.39	653.51
662.73	648.99
663.07	644.60
663.41	640.19
663.75	635.75
664.09	631.19
664.43	626.76
664.77	622.70
665.11	618.44
665.45	614.28
665.79	610.23
666.13	606.11
666.47	601.94
666.81	597.69
667.15	593.60
667.49	589.69
667.83	585.83
668.17	581.90
668.51	577.89
668.85	573.78
669.19	569.85
669.53	565.97
669.87	562.16
670.21	558.42
670.55	554.77
670.89	551.26
671.23	547.77
671.57	544.20
671.91	540.63
672.25	537.06
672.58	533.53
672.92	530.00
673.26	526.75
673.60	523.62
673.94	520.58
674.28	517.64
674.62	514.69
674.96	511.59
675.30	508.65
675.64	505.70
675.97	502.88
676.31	499.97
676.65	497.05
676.99	494.30
677.33	491.39
677.67	488.54
678.01	485.58
678.34	482.61
678.68	479.73
679.02	476.86
679.36	474.01
679.70	471.30
680.04	468.63
680.37	465.76
680.71	462.91
681.05	460.22
681.39	457.46
681.73	454.73
682.06	452.18
682.40	449.62
682.74	446.96
683.08	444.36
683.42	441.79
683.75	439.22
684.09	436.62
684.43	434.15
684.77	431.68
685.10	429.22
685.44	426.88
685.78	424.56
686.12	422.28
686.45	420.02
686.79	417.73
687.13	415.47
687.46	413.30
687.80	411.11
688.14	408.81
688.48	406.72
688.81	404.48
689.15	402.29
689.49	400.05
689.82	397.96
690.16	395.86
690.50	393.83
690.83	391.85
691.17	389.83
691.51	387.86
691.84	385.95
692.18	384.05
692.52	382.08
692.85	380.12
693.19	378.19
693.52	376.29
693.86	374.41
694.20	372.61
694.53	370.78
694.87	368.87
695.21	367.05
695.54	365.20
695.88	363.41
696.21	361.62
696.55	359.96
696.88	358.24
697.22	356.53
697.56	354.91
697.89	353.23
698.23	351.61
698.56	349.97
698.90	348.38
699.23	346.72
699.57	345.10
699.90	343.50
700.24	341.92
700.58	340.40
700.91	338.85
701.25	337.43
701.58	336.00
701.92	334.66
702.25	333.33
702.59	331.96
702.92	330.70
703.26	329.38
703.59	328.09
703.93	326.87
704.26	325.65
704.60	324.33
704.93	323.08
705.26	321.80
705.60	320.60
705.93	319.39
706.27	318.31
706.60	317.24
706.94	316.15
707.27	315.06
707.61	313.94
707.94	312.86
708.27	311.65
708.61	310.57
708.94	309.51
709.28	308.51
709.61	307.53
709.94	306.53
710.28	305.48
710.61	304.45
710.95	303.35
711.28	302.41
711.61	301.44
711.95	300.46
712.28	299.50
712.61	298.55
712.95	297.61
713.28	296.67
713.61	295.76
713.95	294.85
714.28	293.94
714.61	293.06
714.95	292.22
715.28	291.39
715.61	290.51
715.95	289.62
716.28	288.69
716.61	287.83
716.95	286.96
717.28	286.19
717.61	285.43
717.94	284.69
718.28	283.86
718.61	283.14
718.94	282.45
719.27	281.76
719.61	281.08
719.94	280.42
720.27	279.70
720.60	279.02
720.94	278.37
721.27	277.80
721.60	277.24
721.93	276.65
722.27	276.10
722.60	275.48
722.93	274.93
723.26	274.42
723.59	273.82
723.93	273.28
724.26	272.71
724.59	272.11
724.92	271.57
725.25	271.09
725.59	270.53
725.92	270.03
726.25	269.48
726.58	268.97
726.91	268.46
727.24	267.99
727.57	267.50
727.91	266.99
728.24	266.46
728.57	265.94
728.90	265.46
729.23	264.95
729.56	264.51
729.89	264.01
730.22	263.54
730.55	263.06
730.89	262.64
731.22	262.20
731.55	261.77
731.88	261.35
732.21	260.92
732.54	260.50
732.87	260.08
733.20	259.73
733.53	259.37
733.86	258.98
734.19	258.57
734.52	258.18
734.85	257.89
735.18	257.52
735.51	257.14
735.84	256.79
736.17	256.45
736.50	256.08
736.83	255.87
737.16	255.51
737.49	255.19
737.82	254.80
738.15	254.47
738.48	254.13
738.81	253.79
739.14	253.46
739.47	253.14
739.80	252.83
740.13	252.50
740.46	252.15
740.79	251.81
741.12	251.49
741.45	251.22
741.78	250.85
742.11	250.58
742.44	250.27
742.77	249.95
743.10	249.62
743.43	249.33
743.75	248.92
744.08	248.76
744.41	248.50
744.74	248.24
745.07	247.96
745.40	247.70
745.73	247.46
746.06	247.16
746.39	246.87
746.71	246.57
747.04	246.28
747.37	246.01
747.70	245.79
748.03	245.56
748.36	245.31
748.68	245.07
749.01	244.81
749.34	244.57
749.67	244.35
750.00	244.15
750.33	243.96
750.65	243.76
750.98	243.43
751.31	243.22
751.64	243.01
751.97	242.83
752.29	242.59
752.62	242.33
752.95	242.12
753.28	241.95
753.60	241.77
753.93	241.60
754.26	241.42
754.59	241.20
754.91	240.95
755.24	240.74
755.57	240.52
755.90	240.32
756.22	240.14
756.55	239.92
756.88	239.72
757.20	239.49
757.53	239.29
757.86	239.12
758.19	238.92
758.51	238.73
758.84	238.50
759.17	238.33
759.49	238.15
759.82	238.04
760.15	237.87
760.47	237.71
760.80	237.53
761.13	237.37
761.45	237.18
761.78	237.03
762.11	236.87
762.43	236.72
762.76	236.59
763.08	236.47
763.41	236.33
763.74	236.18
764.06	236.04
764.39	235.90
764.71	235.73
765.04	235.60
765.37	235.46
765.69	235.36
766.02	235.23
766.34	235.10
766.67	234.96
767.00	234.88
767.32	234.79
767.65	234.71
767.97	234.56
768.30	234.47
768.62	234.35
768.95	234.26
769.27	234.16
769.60	234.05
769.92	233.91
770.25	233.80
770.57	233.68
770.90	233.55
771.22	233.43
771.55	233.36
771.87	233.29
772.20	233.17
772.52	233.16
772.85	233.19
773.17	233.10
773.50	232.98
773.82	232.84
774.15	232.73
774.47	232.60
774.80	232.53
775.12	232.44
775.45	232.39
775.77	232.30
776.09	232.20
776.42	232.09
776.74	232.01
777.07	231.93
777.39	231.87
777.72	231.80
778.04	231.75
778.36	231.64
778.69	231.54
779.01	231.50
779.33	231.33
779.66	231.13
779.98	231.09
780.31	231.02
780.63	230.98
780.95	230.94
781.28	230.87
781.60	230.79
781.92	230.71
782.25	230.64
782.57	230.60
782.89	230.53
783.22	230.50
783.54	230.44
783.86	230.35
784.19	230.28
784.51	230.27
784.83	230.20
785.16	230.18
785.48	230.10
785.80	230.04
786.12	230.00
786.45	229.98
786.77	229.91
787.09	229.87
