SpectraSuite Data File
++++++++++++++++++++++++++++++++++++
Date: Fri Feb 01 15:11:02 EST 2013
User: group
Dark Spectrum Present: No
Reference Spectrum Present: No
Number of Sampled Component Spectra: 1
Spectrometers: USB2E7196
Integration Time (usec): 35000 (USB2E7196)
Spectra Averaged: 100 (USB2E7196)
Boxcar Smoothing: 10 (USB2E7196)
Correct for Electrical Dark: No (USB2E7196)
Strobe/Lamp Enabled: No (USB2E7196)
Correct for Detector Non-linearity: No (USB2E7196)
Correct for Stray Light: No (USB2E7196)
Number of Pixels in Processed Spectrum: 2048
>>>>>Begin Processed Spectral Data<<<<<
339.09	0.00
339.48	215.33
339.86	216.72
340.24	217.84
340.63	219.99
341.01	222.02
341.39	222.26
341.78	223.25
342.16	224.87
342.54	224.83
342.93	213.58
343.31	224.37
343.69	224.92
344.07	225.40
344.46	225.81
344.84	226.16
345.22	226.43
345.60	226.65
345.99	226.86
346.37	226.98
346.75	227.07
347.13	227.09
347.52	227.15
347.90	227.21
348.28	227.20
348.66	227.30
349.05	227.30
349.43	227.35
349.81	227.40
350.19	227.45
350.57	227.49
350.96	227.54
351.34	227.62
351.72	227.67
352.10	227.73
352.48	227.81
352.87	227.87
353.25	227.93
353.63	227.99
354.01	228.04
354.39	228.13
354.77	228.24
355.15	228.36
355.54	228.44
355.92	228.46
356.30	228.52
356.68	228.59
357.06	228.66
357.44	228.68
357.82	228.72
358.20	228.82
358.58	228.89
358.97	228.93
359.35	229.02
359.73	229.11
360.11	229.18
360.49	229.23
360.87	229.27
361.25	229.34
361.63	229.43
362.01	229.45
362.39	229.47
362.77	229.53
363.15	229.52
363.53	229.53
363.91	229.58
364.29	229.63
364.67	229.55
365.05	229.61
365.43	229.63
365.81	229.68
366.19	229.73
366.57	229.75
366.95	229.75
367.33	229.71
367.71	229.66
368.09	229.64
368.47	229.61
368.85	229.58
369.23	229.51
369.61	229.45
369.99	229.49
370.37	229.46
370.75	229.42
371.13	229.39
371.51	229.32
371.89	229.25
372.27	229.21
372.65	229.14
373.03	229.06
373.41	229.00
373.78	228.88
374.16	228.75
374.54	228.67
374.92	228.62
375.30	228.54
375.68	228.47
376.06	228.41
376.44	228.36
376.82	228.29
377.19	228.20
377.57	228.10
377.95	227.96
378.33	227.84
378.71	227.73
379.09	227.64
379.47	227.57
379.84	227.51
380.22	227.40
380.60	227.34
380.98	227.25
381.36	227.20
381.73	227.12
382.11	227.08
382.49	227.01
382.87	226.91
383.25	226.83
383.62	226.88
384.00	226.79
384.38	226.75
384.76	226.74
385.13	226.74
385.51	226.71
385.89	226.67
386.27	226.61
386.64	226.58
387.02	226.53
387.40	226.51
387.78	226.47
388.15	226.46
388.53	226.47
388.91	226.48
389.29	226.43
389.66	226.42
390.04	226.40
390.42	226.39
390.79	226.38
391.17	226.39
391.55	226.29
391.92	226.30
392.30	226.27
392.68	226.25
393.05	226.28
393.43	226.30
393.81	226.29
394.18	226.33
394.56	226.38
394.94	226.40
395.31	226.41
395.69	226.47
396.06	226.52
396.44	226.59
396.82	226.57
397.19	226.65
397.57	226.72
397.95	226.77
398.32	226.80
398.70	226.89
399.07	226.97
399.45	227.03
399.82	227.12
400.20	227.18
400.58	227.24
400.95	227.28
401.33	227.38
401.70	227.55
402.08	227.69
402.45	227.78
402.83	227.96
403.20	228.11
403.58	228.20
403.95	228.33
404.33	228.44
404.71	228.57
405.08	228.76
405.46	228.89
405.83	229.05
406.21	229.21
406.58	229.39
406.96	229.55
407.33	229.74
407.70	229.92
408.08	230.23
408.45	230.47
408.83	230.73
409.20	230.95
409.58	231.14
409.95	231.41
410.33	231.68
410.70	231.89
411.08	232.21
411.45	232.51
411.82	232.83
412.20	233.19
412.57	233.64
412.95	233.96
413.32	234.38
413.69	234.79
414.07	235.24
414.44	235.72
414.82	236.18
415.19	236.74
415.56	237.30
415.94	237.84
416.31	238.50
416.68	239.08
417.06	239.80
417.43	240.48
417.81	241.25
418.18	241.99
418.55	242.83
418.93	243.71
419.30	244.62
419.67	245.55
420.04	246.51
420.42	247.48
420.79	248.66
421.16	249.82
421.54	250.98
421.91	252.22
422.28	253.46
422.66	254.81
423.03	256.10
423.40	257.45
423.77	258.85
424.15	260.22
424.52	261.71
424.89	263.34
425.26	264.90
425.64	266.29
426.01	267.93
426.38	269.59
426.75	271.23
427.13	272.92
427.50	274.74
427.87	276.63
428.24	278.50
428.61	280.23
428.99	282.18
429.36	284.30
429.73	286.36
430.10	288.34
430.47	290.44
430.85	292.58
431.22	294.79
431.59	297.19
431.96	299.45
432.33	301.95
432.70	304.33
433.08	307.15
433.45	309.83
433.82	312.43
434.19	315.33
434.56	318.15
434.93	320.86
435.30	323.46
435.68	326.36
436.05	329.22
436.42	332.00
436.79	334.49
437.16	337.19
437.53	340.03
437.90	342.87
438.27	345.57
438.64	348.43
439.01	351.06
439.38	353.28
439.75	355.48
440.13	357.96
440.50	360.28
440.87	362.13
441.24	364.13
441.61	366.29
441.98	367.73
442.35	369.53
442.72	371.35
443.09	373.18
443.46	374.16
443.83	374.70
444.20	375.22
444.57	376.08
444.94	376.37
445.31	376.70
445.68	377.07
446.05	377.16
446.42	376.74
446.79	376.29
447.16	375.81
447.53	375.46
447.90	374.31
448.27	373.12
448.64	371.54
449.01	370.35
449.37	368.37
449.74	366.48
450.11	364.22
450.48	361.77
450.85	359.25
451.22	357.08
451.59	355.07
451.96	353.10
452.33	350.48
452.70	348.13
453.07	345.29
453.43	342.34
453.80	339.56
454.17	336.91
454.54	334.38
454.91	331.72
455.28	329.06
455.65	326.57
456.02	324.11
456.38	321.94
456.75	319.26
457.12	317.03
457.49	314.87
457.86	312.69
458.23	310.81
458.59	308.77
458.96	306.71
459.33	304.90
459.70	303.03
460.07	301.51
460.43	299.78
460.80	298.16
461.17	296.78
461.54	295.28
461.91	293.87
462.27	292.42
462.64	291.11
463.01	289.76
463.38	288.49
463.74	287.16
464.11	285.97
464.48	284.96
464.85	283.84
465.21	282.93
465.58	282.03
465.95	280.91
466.32	279.95
466.68	279.04
467.05	278.07
467.42	277.22
467.78	276.31
468.15	275.44
468.52	274.74
468.88	273.89
469.25	273.12
469.62	272.45
469.98	271.74
470.35	271.13
470.72	270.49
471.08	269.81
471.45	269.23
471.82	268.71
472.18	268.09
472.55	267.65
472.92	267.12
473.28	266.61
473.65	266.17
474.02	265.72
474.38	265.34
474.75	264.98
475.11	264.60
475.48	264.33
475.85	264.08
476.21	263.87
476.58	263.63
476.94	263.46
477.31	263.28
477.67	263.12
478.04	262.98
478.41	262.92
478.77	262.97
479.14	262.90
479.50	262.86
479.87	262.91
480.23	262.99
480.60	263.06
480.96	263.19
481.33	263.42
481.69	263.61
482.06	263.79
482.42	264.05
482.79	264.33
483.15	264.60
483.52	264.96
483.88	265.27
484.25	265.63
484.61	266.06
484.98	266.50
485.34	267.09
485.71	267.66
486.07	268.28
486.44	268.84
486.80	269.53
487.17	270.29
487.53	271.10
487.90	271.91
488.26	272.85
488.62	273.81
488.99	274.78
489.35	275.81
489.72	276.97
490.08	278.14
490.44	279.39
490.81	280.75
491.17	282.10
491.54	283.60
491.90	285.13
492.26	286.76
492.63	288.53
492.99	290.28
493.36	292.20
493.72	294.22
494.08	296.31
494.45	298.55
494.81	300.88
495.17	303.35
495.54	305.92
495.90	308.56
496.26	311.34
496.63	314.26
496.99	317.39
497.35	320.62
497.72	324.01
498.08	327.50
498.44	331.16
498.80	335.04
499.17	339.06
499.53	343.23
499.89	347.56
500.26	352.04
500.62	356.74
500.98	361.66
501.34	366.70
501.71	371.99
502.07	377.44
502.43	383.09
502.79	388.88
503.16	394.94
503.52	401.25
503.88	407.66
504.24	414.30
504.60	421.24
504.97	428.32
505.33	435.65
505.69	443.35
506.05	451.11
506.41	458.98
506.78	467.13
507.14	475.62
507.50	484.37
507.86	493.36
508.22	502.51
508.59	511.80
508.95	521.44
509.31	531.27
509.67	541.40
510.03	551.70
510.39	562.18
510.75	573.04
511.12	583.95
511.48	595.31
511.84	606.76
512.20	618.22
512.56	630.13
512.92	642.34
513.28	654.62
513.64	667.15
514.00	679.86
514.37	692.79
514.73	705.83
515.09	718.89
515.45	732.22
515.81	745.78
516.17	759.67
516.53	773.83
516.89	788.04
517.25	802.21
517.61	816.63
517.97	831.16
518.33	845.56
518.69	860.36
519.05	875.37
519.41	890.53
519.77	906.06
520.13	921.70
520.49	937.17
520.85	952.58
521.21	968.30
521.57	984.62
521.93	1000.55
522.29	1016.99
522.65	1033.25
523.01	1049.51
523.37	1065.71
523.73	1081.88
524.09	1097.98
524.45	1114.30
524.81	1131.03
525.17	1147.89
525.53	1164.78
525.89	1181.73
526.25	1198.61
526.61	1214.98
526.97	1231.81
527.33	1248.37
527.68	1264.97
528.04	1281.38
528.40	1298.18
528.76	1315.31
529.12	1331.88
529.48	1348.82
529.84	1364.99
530.20	1381.72
530.56	1398.89
530.91	1416.23
531.27	1433.18
531.63	1449.71
531.99	1466.43
532.35	1482.41
532.71	1498.46
533.07	1514.85
533.42	1530.70
533.78	1546.74
534.14	1563.13
534.50	1578.53
534.86	1594.51
535.21	1609.70
535.57	1625.76
535.93	1641.32
536.29	1656.24
536.65	1671.59
537.00	1686.39
537.36	1701.76
537.72	1716.41
538.08	1730.78
538.44	1744.69
538.79	1758.71
539.15	1772.53
539.51	1786.26
539.87	1800.69
540.22	1814.45
540.58	1828.43
540.94	1842.00
541.29	1855.21
541.65	1867.96
542.01	1881.32
542.37	1893.71
542.72	1906.26
543.08	1918.15
543.44	1930.63
543.79	1941.84
544.15	1952.74
544.51	1964.21
544.87	1975.20
545.22	1985.90
545.58	1996.21
545.94	2006.01
546.29	2015.80
546.65	2025.66
547.01	2035.02
547.36	2043.80
547.72	2052.23
548.07	2059.97
548.43	2068.13
548.79	2076.13
549.14	2083.59
549.50	2090.95
549.86	2098.74
550.21	2106.03
550.57	2113.10
550.92	2119.66
551.28	2126.85
551.64	2134.04
551.99	2140.71
552.35	2146.73
552.70	2152.91
553.06	2158.98
553.41	2165.35
553.77	2171.42
554.13	2177.53
554.48	2183.57
554.84	2188.96
555.19	2194.45
555.55	2199.58
555.90	2204.00
556.26	2208.82
556.61	2213.69
556.97	2217.81
557.32	2221.90
557.68	2226.05
558.03	2230.54
558.39	2234.26
558.74	2238.83
559.10	2242.64
559.45	2246.33
559.81	2250.66
560.16	2254.46
560.52	2257.59
560.87	2260.93
561.23	2263.67
561.58	2266.52
561.94	2269.03
562.29	2271.47
562.64	2274.08
563.00	2276.81
563.35	2280.38
563.71	2283.47
564.06	2286.59
564.42	2289.53
564.77	2291.94
565.12	2294.05
565.48	2295.73
565.83	2297.46
566.19	2298.70
566.54	2299.52
566.89	2300.53
567.25	2301.19
567.60	2302.55
567.96	2304.13
568.31	2305.02
568.66	2305.82
569.02	2306.32
569.37	2306.59
569.72	2307.37
570.08	2307.27
570.43	2306.93
570.78	2306.19
571.14	2304.57
571.49	2303.19
571.84	2302.70
572.20	2301.32
572.55	2300.17
572.90	2298.65
573.26	2297.13
573.61	2295.35
573.96	2293.51
574.31	2290.32
574.67	2287.17
575.02	2283.53
575.37	2279.90
575.72	2275.94
576.08	2272.70
576.43	2269.30
576.78	2265.39
577.13	2262.13
577.49	2259.03
577.84	2255.70
578.19	2251.86
578.54	2248.05
578.90	2243.61
579.25	2238.14
579.60	2233.20
579.95	2228.28
580.30	2223.01
580.66	2217.80
581.01	2212.72
581.36	2207.69
581.71	2203.51
582.06	2198.92
582.42	2194.22
582.77	2188.91
583.12	2184.18
583.47	2179.27
583.82	2174.10
584.17	2168.84
584.53	2163.20
584.88	2157.29
585.23	2151.24
585.58	2145.81
585.93	2140.16
586.28	2135.38
586.63	2130.06
586.98	2124.95
587.34	2120.12
587.69	2115.27
588.04	2109.95
588.39	2104.19
588.74	2097.48
589.09	2091.34
589.44	2084.38
589.79	2078.35
590.14	2072.69
590.49	2066.07
590.84	2059.57
591.19	2053.52
591.54	2046.96
591.89	2039.36
592.25	2032.45
592.60	2025.13
592.95	2017.23
593.30	2009.92
593.65	2002.26
594.00	1995.09
594.35	1987.68
594.70	1979.47
595.05	1972.08
595.40	1964.72
595.75	1957.17
596.10	1950.98
596.45	1943.96
596.80	1937.75
597.15	1930.94
597.50	1923.77
597.85	1917.24
598.19	1910.52
598.54	1903.29
598.89	1896.66
599.24	1890.74
599.59	1884.09
599.94	1877.88
600.29	1871.66
600.64	1864.96
600.99	1857.41
601.34	1850.50
601.69	1843.42
602.04	1836.50
602.39	1829.07
602.74	1822.18
603.08	1815.39
603.43	1808.62
603.78	1801.33
604.13	1794.17
604.48	1786.75
604.83	1779.95
605.18	1772.91
605.53	1764.84
605.87	1756.75
606.22	1749.46
606.57	1741.57
606.92	1734.26
607.27	1726.99
607.62	1719.94
607.96	1712.64
608.31	1705.99
608.66	1698.40
609.01	1690.97
609.36	1683.45
609.70	1675.50
610.05	1667.37
610.40	1659.68
610.75	1651.30
611.10	1643.65
611.44	1635.19
611.79	1627.29
612.14	1618.50
612.49	1609.46
612.83	1601.20
613.18	1593.17
613.53	1585.06
613.88	1576.53
614.22	1568.30
614.57	1559.79
614.92	1551.79
615.27	1544.17
615.61	1535.82
615.96	1527.82
616.31	1520.23
616.65	1512.80
617.00	1505.26
617.35	1497.53
617.70	1489.14
618.04	1480.57
618.39	1472.33
618.74	1464.71
619.08	1456.40
619.43	1448.83
619.78	1441.83
620.12	1434.61
620.47	1427.06
620.82	1418.89
621.16	1411.55
621.51	1403.95
621.85	1396.42
622.20	1387.91
622.55	1379.63
622.89	1371.86
623.24	1364.33
623.59	1356.87
623.93	1349.35
624.28	1342.18
624.62	1334.68
624.97	1327.47
625.32	1320.87
625.66	1313.93
626.01	1306.73
626.35	1299.29
626.70	1291.61
627.04	1283.91
627.39	1276.17
627.73	1268.86
628.08	1261.99
628.43	1254.61
628.77	1247.18
629.12	1239.52
629.46	1232.31
629.81	1224.98
630.15	1217.77
630.50	1210.37
630.84	1202.21
631.19	1194.37
631.53	1186.91
631.88	1179.40
632.22	1172.01
632.57	1164.77
632.91	1157.25
633.26	1149.90
633.60	1142.65
633.95	1135.62
634.29	1128.61
634.64	1122.00
634.98	1114.59
635.32	1107.46
635.67	1100.94
636.01	1094.35
636.36	1087.57
636.70	1081.18
637.05	1074.57
637.39	1068.12
637.73	1061.56
638.08	1055.80
638.42	1049.84
638.77	1043.32
639.11	1036.70
639.45	1030.27
639.80	1023.59
640.14	1017.12
640.49	1010.60
640.83	1004.28
641.17	998.00
641.52	991.77
641.86	985.32
642.20	979.55
642.55	973.21
642.89	966.75
643.23	960.37
643.58	954.70
643.92	948.42
644.26	942.43
644.61	936.41
644.95	930.40
645.29	923.72
645.64	916.90
645.98	910.65
646.32	905.00
646.66	898.91
647.01	893.09
647.35	887.49
647.69	881.65
648.04	876.14
648.38	870.42
648.72	864.29
649.06	858.30
649.41	852.42
649.75	846.47
650.09	840.56
650.43	834.60
650.78	828.36
651.12	822.50
651.46	816.67
651.80	810.90
652.14	805.51
652.49	800.15
652.83	795.10
653.17	789.27
653.51	783.45
653.85	778.09
654.20	772.44
654.54	766.41
654.88	760.77
655.22	754.96
655.56	749.26
655.90	743.93
656.25	738.56
656.59	733.23
656.93	728.21
657.27	722.97
657.61	717.61
657.95	712.55
658.29	707.48
658.64	702.35
658.98	697.09
659.32	691.66
659.66	686.46
660.00	681.10
660.34	676.21
660.68	671.38
661.02	666.36
661.36	661.67
661.70	657.16
662.05	652.78
662.39	648.42
662.73	644.02
663.07	639.65
663.41	635.27
663.75	630.74
664.09	626.16
664.43	621.86
664.77	617.70
665.11	613.49
665.45	609.36
665.79	605.32
666.13	601.23
666.47	597.13
666.81	592.98
667.15	588.87
667.49	585.02
667.83	581.18
668.17	577.24
668.51	573.22
668.85	569.26
669.19	565.39
669.53	561.54
669.87	557.63
670.21	553.89
670.55	550.27
670.89	546.87
671.23	543.47
671.57	539.97
671.91	536.45
672.25	532.96
672.58	529.45
672.92	526.00
673.26	522.80
673.60	519.75
673.94	516.68
674.28	513.79
674.62	510.83
674.96	507.75
675.30	504.83
675.64	501.89
675.97	499.14
676.31	496.31
676.65	493.38
676.99	490.70
677.33	487.88
677.67	485.06
678.01	482.06
678.34	479.07
678.68	476.20
679.02	473.42
679.36	470.65
679.70	467.94
680.04	465.17
680.37	462.33
680.71	459.50
681.05	456.84
681.39	454.14
681.73	451.55
682.06	449.02
682.40	446.52
682.74	444.03
683.08	441.45
683.42	438.87
683.75	436.41
684.09	433.91
684.43	431.43
684.77	428.99
685.10	426.66
685.44	424.33
685.78	422.01
686.12	419.76
686.45	417.55
686.79	415.25
687.13	413.10
687.46	410.98
687.80	408.83
688.14	406.69
688.48	404.66
688.81	402.39
689.15	400.23
689.49	398.07
689.82	395.98
690.16	393.91
690.50	391.94
690.83	389.99
691.17	387.98
691.51	386.14
691.84	384.30
692.18	382.37
692.52	380.47
692.85	378.56
693.19	376.72
693.52	374.86
693.86	373.08
694.20	371.29
694.53	369.51
694.87	367.68
695.21	365.85
695.54	364.04
695.88	362.32
696.21	360.59
696.55	358.92
696.88	357.24
697.22	355.63
697.56	354.02
697.89	352.39
698.23	350.78
698.56	349.12
698.90	347.53
699.23	345.94
699.57	344.36
699.90	342.86
700.24	341.33
700.58	339.82
700.91	338.31
701.25	336.87
701.58	335.46
701.92	334.10
702.25	332.72
702.59	331.35
702.92	330.07
703.26	328.80
703.59	327.56
703.93	326.38
704.26	325.14
704.60	323.84
704.93	322.57
705.26	321.37
705.60	320.24
705.93	319.11
706.27	318.06
706.60	317.03
706.94	315.95
707.27	314.80
707.61	313.77
707.94	312.82
708.27	311.78
708.61	310.72
708.94	309.77
709.28	308.81
709.61	307.86
709.94	306.87
710.28	305.86
710.61	304.88
710.95	303.80
711.28	302.87
711.61	301.97
711.95	301.07
712.28	300.12
712.61	299.09
712.95	298.13
713.28	297.22
713.61	296.30
713.95	295.40
714.28	294.56
714.61	293.66
714.95	292.79
715.28	291.92
715.61	291.04
715.95	290.18
716.28	289.36
716.61	288.56
716.95	287.80
717.28	287.07
717.61	286.32
717.94	285.54
718.28	284.73
718.61	283.97
718.94	283.26
719.27	282.61
719.61	282.01
719.94	281.36
720.27	280.65
720.60	280.03
720.94	279.42
721.27	278.85
721.60	278.33
721.93	277.71
722.27	277.16
722.60	276.60
722.93	276.03
723.26	275.48
723.59	274.93
723.93	274.37
724.26	273.82
724.59	273.28
724.92	272.81
725.25	272.35
725.59	271.86
725.92	271.34
726.25	270.81
726.58	270.30
726.91	269.82
727.24	269.37
727.57	268.88
727.91	268.38
728.24	267.91
728.57	267.39
728.90	266.93
729.23	266.41
729.56	265.98
729.89	265.53
730.22	265.06
730.55	264.56
730.89	264.10
731.22	263.67
731.55	263.23
731.88	262.81
732.21	262.39
732.54	261.97
732.87	261.56
733.20	261.14
733.53	260.77
733.86	260.37
734.19	259.96
734.52	259.59
734.85	259.26
735.18	258.82
735.51	258.45
735.84	258.08
736.17	257.77
736.50	257.41
736.83	257.16
737.16	256.84
737.49	256.48
737.82	256.16
738.15	255.79
738.48	255.46
738.81	255.12
739.14	254.78
739.47	254.45
739.80	254.13
740.13	253.84
740.46	253.52
740.79	253.21
741.12	252.87
741.45	252.56
741.78	252.19
742.11	251.96
742.44	251.63
742.77	251.36
743.10	251.03
743.43	250.71
743.75	250.33
744.08	250.11
744.41	249.87
744.74	249.57
745.07	249.30
745.40	249.04
745.73	248.81
746.06	248.51
746.39	248.25
746.71	247.99
747.04	247.70
747.37	247.44
747.70	247.20
748.03	246.95
748.36	246.70
748.68	246.46
749.01	246.19
749.34	245.97
749.67	245.74
750.00	245.51
750.33	245.35
750.65	245.12
750.98	244.84
751.31	244.61
751.64	244.41
751.97	244.25
752.29	244.03
752.62	243.79
752.95	243.62
753.28	243.41
753.60	243.22
753.93	243.09
754.26	242.89
754.59	242.66
754.91	242.47
755.24	242.30
755.57	242.13
755.90	241.95
756.22	241.76
756.55	241.56
756.88	241.39
757.20	241.18
757.53	240.98
757.86	240.79
758.19	240.65
758.51	240.48
758.84	240.26
759.17	240.10
759.49	239.90
759.82	239.79
760.15	239.63
760.47	239.50
760.80	239.29
761.13	239.17
761.45	239.03
761.78	238.92
762.11	238.79
762.43	238.65
762.76	238.53
763.08	238.42
763.41	238.32
763.74	238.15
764.06	238.01
764.39	237.87
764.71	237.74
765.04	237.59
765.37	237.45
765.69	237.31
766.02	237.19
766.34	237.11
766.67	236.93
767.00	236.85
767.32	236.77
767.65	236.74
767.97	236.61
768.30	236.51
768.62	236.40
768.95	236.29
769.27	236.18
769.60	236.07
769.92	235.97
770.25	235.83
770.57	235.73
770.90	235.63
771.22	235.54
771.55	235.48
771.87	235.37
772.20	235.29
772.52	235.30
772.85	235.35
773.17	235.25
773.50	235.15
773.82	235.04
774.15	234.92
774.47	234.74
774.80	234.66
775.12	234.56
775.45	234.43
775.77	234.34
776.09	234.23
776.42	234.13
776.74	234.08
777.07	233.99
777.39	233.92
777.72	233.81
778.04	233.78
778.36	233.66
778.69	233.62
779.01	233.54
779.33	233.39
779.66	233.18
779.98	233.11
780.31	233.07
780.63	233.03
780.95	232.97
781.28	232.93
781.60	232.85
781.92	232.78
782.25	232.73
782.57	232.63
782.89	232.58
783.22	232.53
783.54	232.41
783.86	232.36
784.19	232.33
784.51	232.31
784.83	232.21
785.16	232.18
785.48	232.11
785.80	232.09
786.12	232.05
786.45	231.97
786.77	231.91
787.09	231.84
