SpectraSuite Data File
++++++++++++++++++++++++++++++++++++
Date: Fri Feb 01 15:20:19 EST 2013
User: group
Dark Spectrum Present: No
Reference Spectrum Present: No
Number of Sampled Component Spectra: 1
Spectrometers: USB2E7196
Integration Time (usec): 35000 (USB2E7196)
Spectra Averaged: 100 (USB2E7196)
Boxcar Smoothing: 10 (USB2E7196)
Correct for Electrical Dark: No (USB2E7196)
Strobe/Lamp Enabled: No (USB2E7196)
Correct for Detector Non-linearity: No (USB2E7196)
Correct for Stray Light: No (USB2E7196)
Number of Pixels in Processed Spectrum: 2048
>>>>>Begin Processed Spectral Data<<<<<
339.09	0.00
339.48	215.59
339.86	216.95
340.24	218.05
340.63	220.13
341.01	222.03
341.39	222.39
341.78	223.53
342.16	224.15
342.54	224.87
342.93	213.59
343.31	224.37
343.69	224.90
344.07	225.35
344.46	225.78
344.84	226.11
345.22	226.36
345.60	226.61
345.99	226.77
346.37	226.92
346.75	227.04
347.13	227.10
347.52	227.14
347.90	227.22
348.28	227.24
348.66	227.33
349.05	227.31
349.43	227.32
349.81	227.35
350.19	227.37
350.57	227.45
350.96	227.48
351.34	227.56
351.72	227.60
352.10	227.64
352.48	227.70
352.87	227.73
353.25	227.79
353.63	227.79
354.01	227.88
354.39	227.95
354.77	227.99
355.15	228.07
355.54	228.11
355.92	228.14
356.30	228.18
356.68	228.28
357.06	228.35
357.44	228.40
357.82	228.46
358.20	228.55
358.58	228.59
358.97	228.67
359.35	228.77
359.73	228.88
360.11	228.94
360.49	229.02
360.87	229.08
361.25	229.13
361.63	229.22
362.01	229.27
362.39	229.28
362.77	229.35
363.15	229.41
363.53	229.41
363.91	229.42
364.29	229.47
364.67	229.39
365.05	229.44
365.43	229.46
365.81	229.51
366.19	229.53
366.57	229.59
366.95	229.60
367.33	229.54
367.71	229.53
368.09	229.55
368.47	229.52
368.85	229.52
369.23	229.55
369.61	229.49
369.99	229.48
370.37	229.49
370.75	229.47
371.13	229.43
371.51	229.38
371.89	229.34
372.27	229.29
372.65	229.26
373.03	229.20
373.41	229.14
373.78	229.06
374.16	228.97
374.54	228.86
374.92	228.77
375.30	228.70
375.68	228.56
376.06	228.48
376.44	228.42
376.82	228.33
377.19	228.22
377.57	228.15
377.95	228.03
378.33	227.93
378.71	227.80
379.09	227.70
379.47	227.65
379.84	227.58
380.22	227.53
380.60	227.42
380.98	227.34
381.36	227.24
381.73	227.16
382.11	227.09
382.49	227.01
382.87	226.97
383.25	226.90
383.62	227.00
384.00	226.93
384.38	226.84
384.76	226.81
385.13	226.80
385.51	226.74
385.89	226.69
386.27	226.66
386.64	226.65
387.02	226.61
387.40	226.56
387.78	226.51
388.15	226.45
388.53	226.44
388.91	226.39
389.29	226.42
389.66	226.41
390.04	226.39
390.42	226.37
390.79	226.36
391.17	226.36
391.55	226.21
391.92	226.22
392.30	226.25
392.68	226.21
393.05	226.21
393.43	226.23
393.81	226.24
394.18	226.27
394.56	226.27
394.94	226.29
395.31	226.31
395.69	226.37
396.06	226.42
396.44	226.45
396.82	226.48
397.19	226.54
397.57	226.57
397.95	226.62
398.32	226.65
398.70	226.72
399.07	226.81
399.45	226.88
399.82	226.94
400.20	227.00
400.58	227.10
400.95	227.15
401.33	227.23
401.70	227.38
402.08	227.44
402.45	227.53
402.83	227.67
403.20	227.79
403.58	227.88
403.95	227.99
404.33	228.12
404.71	228.25
405.08	228.43
405.46	228.58
405.83	228.77
406.21	228.94
406.58	229.07
406.96	229.24
407.33	229.42
407.70	229.61
408.08	229.89
408.45	230.13
408.83	230.34
409.20	230.57
409.58	230.77
409.95	231.06
410.33	231.36
410.70	231.63
411.08	231.95
411.45	232.26
411.82	232.59
412.20	232.96
412.57	233.40
412.95	233.70
413.32	234.09
413.69	234.46
414.07	234.92
414.44	235.40
414.82	235.86
415.19	236.37
415.56	236.95
415.94	237.46
416.31	238.10
416.68	238.74
417.06	239.47
417.43	240.12
417.81	240.88
418.18	241.65
418.55	242.49
418.93	243.37
419.30	244.30
419.67	245.23
420.04	246.18
420.42	247.19
420.79	248.39
421.16	249.55
421.54	250.78
421.91	252.01
422.28	253.29
422.66	254.65
423.03	256.03
423.40	257.36
423.77	258.81
424.15	260.24
424.52	261.72
424.89	263.32
425.26	264.92
425.64	266.40
426.01	268.00
426.38	269.69
426.75	271.34
427.13	273.06
427.50	274.87
427.87	276.76
428.24	278.61
428.61	280.38
428.99	282.34
429.36	284.43
429.73	286.49
430.10	288.51
430.47	290.58
430.85	292.65
431.22	294.88
431.59	297.22
431.96	299.44
432.33	301.93
432.70	304.33
433.08	307.14
433.45	309.74
433.82	312.36
434.19	315.24
434.56	318.05
434.93	320.71
435.30	323.33
435.68	326.18
436.05	328.98
436.42	331.81
436.79	334.32
437.16	337.01
437.53	339.85
437.90	342.64
438.27	345.37
438.64	348.24
439.01	350.85
439.38	353.14
439.75	355.29
440.13	357.77
440.50	360.08
440.87	361.92
441.24	363.86
441.61	365.98
441.98	367.45
442.35	369.26
442.72	371.11
443.09	372.95
443.46	373.97
443.83	374.58
444.20	375.01
444.57	375.81
444.94	376.12
445.31	376.46
445.68	376.82
446.05	376.87
446.42	376.49
446.79	376.11
447.16	375.64
447.53	375.36
447.90	374.19
448.27	373.01
448.64	371.42
449.01	370.29
449.37	368.34
449.74	366.42
450.11	364.15
450.48	361.65
450.85	359.09
451.22	356.90
451.59	354.89
451.96	352.95
452.33	350.41
452.70	347.98
453.07	345.12
453.43	342.21
453.80	339.48
454.17	336.76
454.54	334.18
454.91	331.45
455.28	328.78
455.65	326.35
456.02	323.95
456.38	321.82
456.75	319.15
457.12	316.92
457.49	314.70
457.86	312.54
458.23	310.69
458.59	308.64
458.96	306.59
459.33	304.72
459.70	302.85
460.07	301.28
460.43	299.61
460.80	298.03
461.17	296.60
461.54	295.09
461.91	293.64
462.27	292.20
462.64	290.94
463.01	289.59
463.38	288.27
463.74	286.87
464.11	285.73
464.48	284.66
464.85	283.54
465.21	282.69
465.58	281.74
465.95	280.63
466.32	279.71
466.68	278.81
467.05	277.91
467.42	277.06
467.78	276.16
468.15	275.28
468.52	274.59
468.88	273.76
469.25	272.99
469.62	272.40
469.98	271.71
470.35	271.07
470.72	270.48
471.08	269.79
471.45	269.26
471.82	268.70
472.18	268.15
472.55	267.71
472.92	267.21
473.28	266.79
473.65	266.33
474.02	265.91
474.38	265.53
474.75	265.26
475.11	264.88
475.48	264.62
475.85	264.38
476.21	264.13
476.58	263.91
476.94	263.74
477.31	263.57
477.67	263.44
478.04	263.37
478.41	263.28
478.77	263.34
479.14	263.29
479.50	263.28
479.87	263.33
480.23	263.40
480.60	263.46
480.96	263.54
481.33	263.78
481.69	263.98
482.06	264.15
482.42	264.31
482.79	264.58
483.15	264.85
483.52	265.27
483.88	265.60
484.25	265.99
484.61	266.41
484.98	266.87
485.34	267.36
485.71	267.91
486.07	268.51
486.44	269.06
486.80	269.72
487.17	270.46
487.53	271.31
487.90	272.13
488.26	273.01
488.62	273.96
488.99	274.90
489.35	275.94
489.72	277.09
490.08	278.30
490.44	279.51
490.81	280.89
491.17	282.21
491.54	283.67
491.90	285.20
492.26	286.84
492.63	288.53
492.99	290.34
493.36	292.21
493.72	294.21
494.08	296.32
494.45	298.58
494.81	300.93
495.17	303.35
495.54	305.93
495.90	308.65
496.26	311.48
496.63	314.42
496.99	317.54
497.35	320.76
497.72	324.15
498.08	327.72
498.44	331.32
498.80	335.21
499.17	339.31
499.53	343.42
499.89	347.78
500.26	352.28
500.62	357.00
500.98	361.99
501.34	367.10
501.71	372.45
502.07	377.91
502.43	383.49
502.79	389.23
503.16	395.30
503.52	401.60
503.88	407.97
504.24	414.59
504.60	421.39
504.97	428.51
505.33	435.77
505.69	443.41
506.05	451.20
506.41	459.13
506.78	467.25
507.14	475.75
507.50	484.47
507.86	493.49
508.22	502.60
508.59	511.82
508.95	521.43
509.31	531.20
509.67	541.25
510.03	551.57
510.39	562.13
510.75	572.96
511.12	583.80
511.48	595.12
511.84	606.63
512.20	618.28
512.56	630.27
512.92	642.54
513.28	654.86
513.64	667.37
514.00	680.15
514.37	693.16
514.73	706.26
515.09	719.31
515.45	732.70
515.81	746.33
516.17	760.33
516.53	774.42
516.89	788.63
517.25	802.85
517.61	817.35
517.97	831.87
518.33	846.36
518.69	861.29
519.05	876.36
519.41	891.58
519.77	907.11
520.13	922.58
520.49	938.05
520.85	953.58
521.21	969.35
521.57	985.50
521.93	1001.25
522.29	1017.68
522.65	1033.99
523.01	1050.12
523.37	1066.24
523.73	1082.37
524.09	1098.61
524.45	1115.02
524.81	1131.76
525.17	1148.64
525.53	1165.66
525.89	1182.55
526.25	1199.41
526.61	1215.83
526.97	1232.69
527.33	1249.14
527.68	1265.82
528.04	1282.32
528.40	1299.12
528.76	1316.30
529.12	1332.99
529.48	1349.96
529.84	1366.02
530.20	1382.67
530.56	1399.87
530.91	1417.30
531.27	1434.15
531.63	1450.64
531.99	1467.21
532.35	1483.20
532.71	1499.09
533.07	1515.44
533.42	1531.36
533.78	1547.39
534.14	1563.68
534.50	1578.86
534.86	1594.84
535.21	1610.11
535.57	1626.05
535.93	1641.51
536.29	1656.23
536.65	1671.53
537.00	1686.40
537.36	1701.84
537.72	1716.53
538.08	1730.99
538.44	1744.76
538.79	1758.82
539.15	1772.64
539.51	1786.57
539.87	1801.10
540.22	1814.96
540.58	1828.72
540.94	1842.19
541.29	1855.31
541.65	1868.12
542.01	1881.47
542.37	1893.83
542.72	1906.15
543.08	1917.97
543.44	1930.38
543.79	1941.77
544.15	1952.69
544.51	1964.29
544.87	1975.31
545.22	1986.16
545.58	1996.38
545.94	2006.35
546.29	2016.29
546.65	2025.91
547.01	2035.02
547.36	2043.77
547.72	2052.21
548.07	2060.13
548.43	2068.39
548.79	2076.41
549.14	2083.94
549.50	2091.57
549.86	2099.30
550.21	2106.88
550.57	2114.23
550.92	2120.75
551.28	2127.86
551.64	2135.00
551.99	2141.46
552.35	2147.58
552.70	2153.60
553.06	2159.60
553.41	2165.89
553.77	2171.84
554.13	2178.00
554.48	2184.22
554.84	2189.47
555.19	2195.03
555.55	2200.21
555.90	2204.62
556.26	2209.36
556.61	2214.18
556.97	2218.14
557.32	2222.39
557.68	2226.47
558.03	2230.65
558.39	2234.43
558.74	2239.05
559.10	2242.80
559.45	2246.46
559.81	2250.81
560.16	2254.62
560.52	2257.93
560.87	2261.51
561.23	2264.12
561.58	2267.20
561.94	2269.64
562.29	2272.11
562.64	2274.59
563.00	2277.16
563.35	2280.61
563.71	2283.71
564.06	2286.70
564.42	2289.65
564.77	2291.96
565.12	2294.11
565.48	2295.74
565.83	2297.42
566.19	2298.62
566.54	2299.61
566.89	2300.82
567.25	2301.31
567.60	2302.71
567.96	2304.24
568.31	2304.86
568.66	2305.98
569.02	2306.39
569.37	2306.70
569.72	2307.54
570.08	2307.42
570.43	2307.32
570.78	2306.64
571.14	2305.07
571.49	2303.92
571.84	2303.49
572.20	2302.22
572.55	2301.12
572.90	2299.74
573.26	2298.39
573.61	2296.64
573.96	2294.71
574.31	2291.56
574.67	2288.37
575.02	2284.60
575.37	2281.15
575.72	2277.32
576.08	2273.89
576.43	2270.56
576.78	2266.75
577.13	2263.46
577.49	2260.43
577.84	2256.78
578.19	2253.03
578.54	2249.23
578.90	2244.77
579.25	2239.29
579.60	2234.35
579.95	2229.33
580.30	2224.28
580.66	2219.08
581.01	2214.10
581.36	2209.06
581.71	2204.77
582.06	2200.39
582.42	2195.90
582.77	2190.67
583.12	2185.96
583.47	2181.07
583.82	2175.93
584.17	2170.55
584.53	2164.94
584.88	2159.23
585.23	2153.42
585.58	2147.74
585.93	2142.37
586.28	2137.65
586.63	2132.27
586.98	2127.16
587.34	2122.34
587.69	2117.32
588.04	2112.05
588.39	2106.16
588.74	2099.64
589.09	2093.51
589.44	2086.61
589.79	2080.56
590.14	2074.82
590.49	2068.25
590.84	2061.86
591.19	2055.85
591.54	2049.36
591.89	2041.93
592.25	2035.09
592.60	2027.87
592.95	2020.27
593.30	2012.81
593.65	2005.04
594.00	1998.16
594.35	1990.80
594.70	1982.61
595.05	1975.28
595.40	1967.82
595.75	1960.34
596.10	1954.01
596.45	1947.22
596.80	1940.96
597.15	1934.17
597.50	1926.93
597.85	1920.46
598.19	1913.67
598.54	1906.41
598.89	1899.84
599.24	1893.84
599.59	1887.03
599.94	1880.72
600.29	1874.40
600.64	1867.74
600.99	1860.30
601.34	1853.28
601.69	1846.34
602.04	1839.36
602.39	1831.96
602.74	1825.13
603.08	1818.39
603.43	1811.73
603.78	1804.28
604.13	1797.05
604.48	1789.67
604.83	1782.83
605.18	1775.75
605.53	1767.73
605.87	1759.70
606.22	1752.45
606.57	1744.47
606.92	1737.18
607.27	1729.96
607.62	1722.97
607.96	1715.59
608.31	1708.87
608.66	1701.19
609.01	1693.63
609.36	1686.04
609.70	1678.03
610.05	1669.76
610.40	1661.96
610.75	1653.60
611.10	1645.98
611.44	1637.64
611.79	1629.73
612.14	1621.02
612.49	1611.81
612.83	1603.41
613.18	1595.26
613.53	1587.20
613.88	1578.72
614.22	1570.36
614.57	1561.85
614.92	1553.72
615.27	1546.20
615.61	1537.89
615.96	1529.86
616.31	1522.21
616.65	1514.93
617.00	1507.32
617.35	1499.85
617.70	1491.51
618.04	1482.97
618.39	1474.70
618.74	1467.01
619.08	1458.69
619.43	1451.17
619.78	1444.27
620.12	1437.15
620.47	1429.57
620.82	1421.42
621.16	1414.02
621.51	1406.44
621.85	1398.78
622.20	1390.27
622.55	1381.92
622.89	1374.04
623.24	1366.52
623.59	1359.15
623.93	1351.66
624.28	1344.52
624.62	1337.01
624.97	1329.90
625.32	1323.22
625.66	1316.15
626.01	1308.87
626.35	1301.32
626.70	1293.57
627.04	1285.79
627.39	1277.98
627.73	1270.65
628.08	1263.59
628.43	1256.18
628.77	1248.73
629.12	1241.14
629.46	1234.05
629.81	1226.67
630.15	1219.37
630.50	1211.92
630.84	1203.64
631.19	1195.73
631.53	1188.18
631.88	1180.61
632.22	1172.98
632.57	1165.64
632.91	1158.17
633.26	1150.88
633.60	1143.63
633.95	1136.60
634.29	1129.72
634.64	1123.03
634.98	1115.65
635.32	1108.58
635.67	1102.11
636.01	1095.53
636.36	1088.78
636.70	1082.32
637.05	1075.72
637.39	1069.38
637.73	1062.89
638.08	1057.04
638.42	1051.02
638.77	1044.47
639.11	1037.91
639.45	1031.55
639.80	1024.80
640.14	1018.31
640.49	1011.83
640.83	1005.55
641.17	999.28
641.52	992.89
641.86	986.61
642.20	980.77
642.55	974.55
642.89	967.96
643.23	961.51
643.58	955.72
643.92	949.52
644.26	943.42
644.61	937.41
644.95	931.39
645.29	924.85
645.64	918.07
645.98	911.87
646.32	905.98
646.66	899.91
647.01	894.20
647.35	888.58
647.69	882.68
648.04	877.15
648.38	871.33
648.72	865.27
649.06	859.07
649.41	853.26
649.75	847.20
650.09	841.21
650.43	835.37
650.78	829.15
651.12	823.12
651.46	817.46
651.80	811.64
652.14	806.23
652.49	800.87
652.83	795.75
653.17	789.97
653.51	784.20
653.85	778.90
654.20	773.16
654.54	767.11
654.88	761.40
655.22	755.48
655.56	749.77
655.90	744.36
656.25	739.15
656.59	733.75
656.93	728.70
657.27	723.66
657.61	718.23
657.95	713.21
658.29	708.14
658.64	702.90
658.98	697.65
659.32	692.18
659.66	686.95
660.00	681.64
660.34	676.78
660.68	671.91
661.02	666.81
661.36	662.11
661.70	657.69
662.05	653.34
662.39	649.01
662.73	644.62
663.07	640.26
663.41	635.82
663.75	631.33
664.09	626.81
664.43	622.36
664.77	618.29
665.11	614.02
665.45	609.92
665.79	605.84
666.13	601.74
666.47	597.69
666.81	593.48
667.15	589.40
667.49	585.47
667.83	581.73
668.17	577.83
668.51	573.81
668.85	569.81
669.19	565.96
669.53	562.11
669.87	558.21
670.21	554.54
670.55	550.90
670.89	547.43
671.23	543.97
671.57	540.50
671.91	536.89
672.25	533.43
672.58	529.88
672.92	526.54
673.26	523.38
673.60	520.24
673.94	517.20
674.28	514.27
674.62	511.30
674.96	508.15
675.30	505.18
675.64	502.26
675.97	499.45
676.31	496.59
676.65	493.72
676.99	491.03
677.33	488.19
677.67	485.40
678.01	482.44
678.34	479.47
678.68	476.69
679.02	473.89
679.36	471.13
679.70	468.50
680.04	465.72
680.37	462.80
680.71	460.03
681.05	457.46
681.39	454.78
681.73	452.20
682.06	449.69
682.40	447.17
682.74	444.64
683.08	442.10
683.42	439.54
683.75	437.04
684.09	434.51
684.43	432.05
684.77	429.58
685.10	427.22
685.44	424.92
685.78	422.59
686.12	420.44
686.45	418.16
686.79	415.79
687.13	413.63
687.46	411.52
687.80	409.33
688.14	407.06
688.48	405.00
688.81	402.80
689.15	400.69
689.49	398.57
689.82	396.53
690.16	394.46
690.50	392.49
690.83	390.59
691.17	388.60
691.51	386.68
691.84	384.86
692.18	382.94
692.52	380.97
692.85	379.03
693.19	377.14
693.52	375.35
693.86	373.58
694.20	371.81
694.53	369.99
694.87	368.19
695.21	366.44
695.54	364.61
695.88	362.88
696.21	361.14
696.55	359.46
696.88	357.81
697.22	356.15
697.56	354.55
697.89	352.86
698.23	351.27
698.56	349.65
698.90	348.05
699.23	346.43
699.57	344.90
699.90	343.38
700.24	341.84
700.58	340.27
700.91	338.80
701.25	337.34
701.58	336.01
701.92	334.64
702.25	333.27
702.59	331.89
702.92	330.58
703.26	329.30
703.59	328.03
703.93	326.81
704.26	325.60
704.60	324.33
704.93	323.06
705.26	321.80
705.60	320.60
705.93	319.43
706.27	318.40
706.60	317.34
706.94	316.28
707.27	315.14
707.61	314.11
707.94	313.06
708.27	311.97
708.61	310.87
708.94	309.86
709.28	308.89
709.61	307.98
709.94	307.02
710.28	305.99
710.61	305.00
710.95	303.92
711.28	302.97
711.61	301.98
711.95	301.07
712.28	300.10
712.61	299.14
712.95	298.18
713.28	297.28
713.61	296.36
713.95	295.45
714.28	294.61
714.61	293.74
714.95	292.88
715.28	292.00
715.61	291.12
715.95	290.24
716.28	289.40
716.61	288.56
716.95	287.73
717.28	287.02
717.61	286.27
717.94	285.58
718.28	284.81
718.61	284.11
718.94	283.39
719.27	282.76
719.61	282.14
719.94	281.49
720.27	280.79
720.60	280.15
720.94	279.53
721.27	278.94
721.60	278.36
721.93	277.81
722.27	277.31
722.60	276.76
722.93	276.22
723.26	275.66
723.59	275.10
723.93	274.55
724.26	273.98
724.59	273.43
724.92	272.91
725.25	272.42
725.59	271.91
725.92	271.42
726.25	270.87
726.58	270.38
726.91	269.91
727.24	269.43
727.57	268.98
727.91	268.49
728.24	268.01
728.57	267.54
728.90	267.07
729.23	266.55
729.56	266.14
729.89	265.71
730.22	265.21
730.55	264.76
730.89	264.32
731.22	263.84
731.55	263.37
731.88	262.93
732.21	262.47
732.54	262.05
732.87	261.64
733.20	261.24
733.53	260.86
733.86	260.49
734.19	260.11
734.52	259.71
734.85	259.38
735.18	258.98
735.51	258.60
735.84	258.23
736.17	257.88
736.50	257.45
736.83	257.17
737.16	256.88
737.49	256.54
737.82	256.19
738.15	255.90
738.48	255.59
738.81	255.26
739.14	254.96
739.47	254.59
739.80	254.28
740.13	253.98
740.46	253.62
740.79	253.29
741.12	252.98
741.45	252.70
741.78	252.33
742.11	252.04
742.44	251.70
742.77	251.44
743.10	251.11
743.43	250.82
743.75	250.47
744.08	250.31
744.41	250.02
744.74	249.78
745.07	249.50
745.40	249.24
745.73	249.01
746.06	248.72
746.39	248.52
746.71	248.23
747.04	247.97
747.37	247.72
747.70	247.45
748.03	247.21
748.36	246.94
748.68	246.71
749.01	246.45
749.34	246.24
749.67	245.96
750.00	245.73
750.33	245.59
750.65	245.34
750.98	244.99
751.31	244.76
751.64	244.53
751.97	244.39
752.29	244.17
752.62	243.92
752.95	243.72
753.28	243.47
753.60	243.24
753.93	243.08
754.26	242.89
754.59	242.65
754.91	242.42
755.24	242.24
755.57	242.08
755.90	241.88
756.22	241.68
756.55	241.48
756.88	241.31
757.20	241.03
757.53	240.86
757.86	240.71
758.19	240.51
758.51	240.35
758.84	240.10
759.17	239.92
759.49	239.73
759.82	239.60
760.15	239.46
760.47	239.33
760.80	239.13
761.13	238.99
761.45	238.89
761.78	238.78
762.11	238.61
762.43	238.43
762.76	238.33
763.08	238.26
763.41	238.13
763.74	238.00
764.06	237.90
764.39	237.78
764.71	237.63
765.04	237.53
765.37	237.39
765.69	237.28
766.02	237.13
766.34	237.06
766.67	236.89
767.00	236.83
767.32	236.78
767.65	236.73
767.97	236.60
768.30	236.48
768.62	236.38
768.95	236.25
769.27	236.13
769.60	236.01
769.92	235.87
770.25	235.77
770.57	235.64
770.90	235.51
771.22	235.38
771.55	235.27
771.87	235.23
772.20	235.13
772.52	235.12
772.85	235.15
773.17	235.02
773.50	234.97
773.82	234.83
774.15	234.70
774.47	234.55
774.80	234.47
775.12	234.37
775.45	234.25
775.77	234.18
776.09	234.15
776.42	234.07
776.74	234.03
777.07	233.97
777.39	233.92
777.72	233.86
778.04	233.82
778.36	233.77
778.69	233.65
779.01	233.57
779.33	233.42
779.66	233.23
779.98	233.16
780.31	233.10
780.63	233.10
780.95	233.03
781.28	232.98
781.60	232.93
781.92	232.86
782.25	232.82
782.57	232.77
782.89	232.70
783.22	232.64
783.54	232.54
783.86	232.45
784.19	232.38
784.51	232.34
784.83	232.27
785.16	232.19
785.48	232.16
785.80	232.12
786.12	232.08
786.45	232.05
786.77	232.04
787.09	231.95
