SpectraSuite Data File
++++++++++++++++++++++++++++++++++++
Date: Fri Feb 01 17:36:19 EST 2013
User: group
Dark Spectrum Present: No
Reference Spectrum Present: No
Number of Sampled Component Spectra: 1
Spectrometers: USB2E7196
Integration Time (usec): 35000 (USB2E7196)
Spectra Averaged: 100 (USB2E7196)
Boxcar Smoothing: 10 (USB2E7196)
Correct for Electrical Dark: No (USB2E7196)
Strobe/Lamp Enabled: No (USB2E7196)
Correct for Detector Non-linearity: No (USB2E7196)
Correct for Stray Light: No (USB2E7196)
Number of Pixels in Processed Spectrum: 2048
>>>>>Begin Processed Spectral Data<<<<<
339.09	0.00
339.48	213.28
339.86	214.14
340.24	216.11
340.63	217.60
341.01	220.52
341.39	220.04
341.78	221.25
342.16	222.41
342.54	223.30
342.93	211.52
343.31	222.24
343.69	222.77
344.07	223.26
344.46	223.67
344.84	224.05
345.22	224.25
345.60	224.52
345.99	224.71
346.37	224.84
346.75	224.93
347.13	225.02
347.52	225.07
347.90	225.14
348.28	225.15
348.66	225.21
349.05	225.21
349.43	225.25
349.81	225.29
350.19	225.33
350.57	225.38
350.96	225.44
351.34	225.51
351.72	225.59
352.10	225.67
352.48	225.74
352.87	225.77
353.25	225.82
353.63	225.86
354.01	225.92
354.39	226.01
354.77	226.08
355.15	226.16
355.54	226.21
355.92	226.24
356.30	226.33
356.68	226.45
357.06	226.54
357.44	226.63
357.82	226.68
358.20	226.72
358.58	226.79
358.97	226.84
359.35	226.90
359.73	226.98
360.11	227.06
360.49	227.12
360.87	227.17
361.25	227.25
361.63	227.31
362.01	227.34
362.39	227.37
362.77	227.39
363.15	227.44
363.53	227.49
363.91	227.55
364.29	227.59
364.67	227.51
365.05	227.55
365.43	227.57
365.81	227.60
366.19	227.65
366.57	227.71
366.95	227.77
367.33	227.75
367.71	227.74
368.09	227.76
368.47	227.77
368.85	227.78
369.23	227.80
369.61	227.78
369.99	227.79
370.37	227.78
370.75	227.82
371.13	227.75
371.51	227.72
371.89	227.65
372.27	227.64
372.65	227.66
373.03	227.58
373.41	227.51
373.78	227.45
374.16	227.38
374.54	227.25
374.92	227.15
375.30	227.11
375.68	227.04
376.06	226.98
376.44	226.89
376.82	226.80
377.19	226.75
377.57	226.67
377.95	226.57
378.33	226.50
378.71	226.36
379.09	226.32
379.47	226.25
379.84	226.19
380.22	226.09
380.60	225.96
380.98	225.91
381.36	225.83
381.73	225.77
382.11	225.73
382.49	225.68
382.87	225.63
383.25	225.55
383.62	225.60
384.00	225.49
384.38	225.45
384.76	225.42
385.13	225.37
385.51	225.31
385.89	225.27
386.27	225.23
386.64	225.17
387.02	225.09
387.40	225.05
387.78	225.01
388.15	224.96
388.53	224.93
388.91	224.84
389.29	224.80
389.66	224.76
390.04	224.69
390.42	224.66
390.79	224.64
391.17	224.62
391.55	224.50
391.92	224.50
392.30	224.50
392.68	224.45
393.05	224.42
393.43	224.43
393.81	224.46
394.18	224.44
394.56	224.48
394.94	224.54
395.31	224.52
395.69	224.59
396.06	224.61
396.44	224.62
396.82	224.68
397.19	224.79
397.57	224.81
397.95	224.89
398.32	224.90
398.70	224.90
399.07	224.95
399.45	224.97
399.82	225.00
400.20	225.05
400.58	225.13
400.95	225.13
401.33	225.24
401.70	225.37
402.08	225.47
402.45	225.56
402.83	225.66
403.20	225.77
403.58	225.83
403.95	225.92
404.33	226.08
404.71	226.21
405.08	226.37
405.46	226.52
405.83	226.68
406.21	226.86
406.58	227.07
406.96	227.23
407.33	227.44
407.70	227.63
408.08	227.89
408.45	228.08
408.83	228.36
409.20	228.54
409.58	228.68
409.95	228.95
410.33	229.25
410.70	229.51
411.08	229.84
411.45	230.14
411.82	230.46
412.20	230.83
412.57	231.24
412.95	231.54
413.32	231.98
413.69	232.38
414.07	232.81
414.44	233.28
414.82	233.77
415.19	234.34
415.56	234.92
415.94	235.49
416.31	236.19
416.68	236.84
417.06	237.61
417.43	238.33
417.81	239.12
418.18	239.90
418.55	240.76
418.93	241.64
419.30	242.64
419.67	243.62
420.04	244.59
420.42	245.64
420.79	246.89
421.16	248.08
421.54	249.32
421.91	250.61
422.28	251.92
422.66	253.31
423.03	254.65
423.40	256.02
423.77	257.49
424.15	258.98
424.52	260.55
424.89	262.21
425.26	263.86
425.64	265.37
426.01	267.02
426.38	268.74
426.75	270.48
427.13	272.25
427.50	274.14
427.87	276.13
428.24	278.08
428.61	279.89
428.99	281.91
429.36	284.10
429.73	286.21
430.10	288.35
430.47	290.50
430.85	292.68
431.22	295.05
431.59	297.51
431.96	299.85
432.33	302.41
432.70	304.87
433.08	307.78
433.45	310.51
433.82	313.24
434.19	316.27
434.56	319.20
434.93	321.93
435.30	324.64
435.68	327.64
436.05	330.58
436.42	333.48
436.79	336.11
437.16	338.89
437.53	341.85
437.90	344.78
438.27	347.68
438.64	350.66
439.01	353.35
439.38	355.71
439.75	357.98
440.13	360.55
440.50	363.05
440.87	364.97
441.24	366.98
441.61	369.26
441.98	370.82
442.35	372.69
442.72	374.69
443.09	376.59
443.46	377.62
443.83	378.22
444.20	378.78
444.57	379.65
444.94	380.01
445.31	380.38
445.68	380.76
446.05	380.80
446.42	380.45
446.79	380.07
447.16	379.63
447.53	379.37
447.90	378.19
448.27	376.99
448.64	375.40
449.01	374.28
449.37	372.20
449.74	370.21
450.11	367.91
450.48	365.32
450.85	362.72
451.22	360.51
451.59	358.42
451.96	356.36
452.33	353.71
452.70	351.24
453.07	348.35
453.43	345.29
453.80	342.49
454.17	339.68
454.54	337.01
454.91	334.20
455.28	331.35
455.65	328.79
456.02	326.22
456.38	323.94
456.75	321.14
457.12	318.82
457.49	316.52
457.86	314.21
458.23	312.26
458.59	310.11
458.96	307.94
459.33	305.99
459.70	304.09
460.07	302.50
460.43	300.70
460.80	298.98
461.17	297.51
461.54	295.88
461.91	294.39
462.27	292.87
462.64	291.48
463.01	290.09
463.38	288.74
463.74	287.32
464.11	286.12
464.48	285.01
464.85	283.87
465.21	282.97
465.58	282.08
465.95	280.98
466.32	280.07
466.68	279.15
467.05	278.23
467.42	277.30
467.78	276.31
468.15	275.40
468.52	274.73
468.88	273.84
469.25	273.07
469.62	272.45
469.98	271.76
470.35	271.16
470.72	270.54
471.08	269.86
471.45	269.33
471.82	268.76
472.18	268.21
472.55	267.76
472.92	267.25
473.28	266.76
473.65	266.32
474.02	265.87
474.38	265.47
474.75	265.15
475.11	264.78
475.48	264.51
475.85	264.32
476.21	264.06
476.58	263.88
476.94	263.75
477.31	263.54
477.67	263.38
478.04	263.25
478.41	263.16
478.77	263.21
479.14	263.11
479.50	263.12
479.87	263.19
480.23	263.23
480.60	263.26
480.96	263.37
481.33	263.58
481.69	263.76
482.06	263.97
482.42	264.17
482.79	264.41
483.15	264.72
483.52	265.12
483.88	265.46
484.25	265.84
484.61	266.26
484.98	266.72
485.34	267.28
485.71	267.86
486.07	268.43
486.44	268.94
486.80	269.63
487.17	270.35
487.53	271.13
487.90	271.98
488.26	272.92
488.62	273.87
488.99	274.81
489.35	275.82
489.72	276.92
490.08	278.10
490.44	279.36
490.81	280.67
491.17	281.96
491.54	283.44
491.90	284.93
492.26	286.53
492.63	288.22
492.99	289.96
493.36	291.84
493.72	293.90
494.08	296.00
494.45	298.21
494.81	300.56
495.17	302.99
495.54	305.52
495.90	308.12
496.26	310.89
496.63	313.78
496.99	316.84
497.35	320.04
497.72	323.43
498.08	326.90
498.44	330.51
498.80	334.38
499.17	338.35
499.53	342.48
499.89	346.82
500.26	351.29
500.62	355.91
500.98	360.82
501.34	365.81
501.71	371.09
502.07	376.48
502.43	382.00
502.79	387.67
503.16	393.61
503.52	399.82
503.88	406.10
504.24	412.67
504.60	419.45
504.97	426.50
505.33	433.66
505.69	441.21
506.05	448.84
506.41	456.58
506.78	464.52
507.14	472.78
507.50	481.30
507.86	490.10
508.22	499.09
508.59	508.12
508.95	517.48
509.31	527.08
509.67	536.93
510.03	546.95
510.39	557.31
510.75	567.83
511.12	578.48
511.48	589.50
511.84	600.67
512.20	611.85
512.56	623.48
512.92	635.34
513.28	647.45
513.64	659.58
514.00	672.01
514.37	684.61
514.73	697.31
515.09	709.90
515.45	722.88
515.81	736.12
516.17	749.62
516.53	763.37
516.89	777.10
517.25	790.76
517.61	804.77
517.97	818.84
518.33	832.87
518.69	847.20
519.05	861.68
519.41	876.35
519.77	891.38
520.13	906.37
520.49	921.30
520.85	936.16
521.21	951.35
521.57	966.95
521.93	982.23
522.29	998.01
522.65	1013.79
523.01	1029.33
523.37	1044.83
523.73	1060.52
524.09	1076.10
524.45	1091.78
524.81	1108.01
525.17	1124.21
525.53	1140.54
525.89	1156.90
526.25	1173.24
526.61	1189.11
526.97	1205.32
527.33	1221.37
527.68	1237.38
528.04	1253.34
528.40	1269.36
528.76	1285.91
529.12	1302.04
529.48	1318.53
529.84	1334.08
530.20	1350.13
530.56	1366.57
530.91	1383.32
531.27	1399.60
531.63	1415.56
531.99	1431.79
532.35	1447.32
532.71	1462.92
533.07	1478.67
533.42	1494.12
533.78	1509.83
534.14	1525.72
534.50	1540.57
534.86	1556.01
535.21	1570.75
535.57	1586.23
535.93	1601.26
536.29	1615.71
536.65	1630.31
537.00	1644.52
537.36	1659.49
537.72	1673.73
538.08	1687.98
538.44	1701.61
538.79	1715.30
539.15	1728.59
539.51	1742.07
539.87	1756.21
540.22	1769.54
540.58	1782.94
540.94	1795.94
541.29	1808.12
541.65	1820.54
542.01	1833.56
542.37	1845.70
542.72	1858.06
543.08	1869.76
543.44	1881.97
543.79	1893.21
544.15	1904.20
544.51	1915.76
544.87	1926.70
545.22	1937.69
545.58	1947.89
545.94	1957.67
546.29	1967.45
546.65	1977.41
547.01	1986.69
547.36	1995.33
547.72	2004.03
548.07	2012.31
548.43	2020.62
548.79	2028.96
549.14	2036.74
549.50	2044.18
549.86	2051.98
550.21	2059.38
550.57	2066.65
550.92	2073.61
551.28	2080.78
551.64	2088.11
551.99	2094.91
552.35	2101.39
552.70	2107.65
553.06	2114.08
553.41	2120.79
553.77	2126.96
554.13	2133.23
554.48	2139.51
554.84	2145.54
555.19	2150.82
555.55	2156.26
555.90	2161.11
556.26	2166.58
556.61	2171.62
556.97	2176.67
557.32	2181.25
557.68	2185.85
558.03	2190.53
558.39	2194.55
558.74	2199.53
559.10	2203.59
559.45	2207.46
559.81	2211.88
560.16	2216.04
560.52	2219.51
560.87	2223.14
561.23	2226.31
561.58	2229.51
561.94	2232.55
562.29	2235.08
562.64	2238.54
563.00	2241.51
563.35	2245.41
563.71	2248.90
564.06	2252.43
564.42	2255.52
564.77	2258.41
565.12	2261.27
565.48	2263.73
565.83	2266.10
566.19	2267.85
566.54	2269.27
566.89	2271.08
567.25	2272.34
567.60	2273.91
567.96	2276.16
568.31	2277.49
568.66	2279.06
569.02	2280.31
569.37	2281.17
569.72	2282.57
570.08	2283.20
570.43	2283.61
570.78	2283.58
571.14	2282.50
571.49	2281.57
571.84	2281.50
572.20	2280.94
572.55	2280.30
572.90	2279.06
573.26	2278.16
573.61	2276.76
573.96	2275.66
574.31	2273.08
574.67	2270.58
575.02	2267.40
575.37	2264.22
575.72	2260.96
576.08	2257.87
576.43	2254.72
576.78	2251.51
577.13	2248.48
577.49	2245.45
577.84	2242.43
578.19	2239.06
578.54	2235.96
578.90	2232.43
579.25	2227.37
579.60	2222.82
579.95	2218.21
580.30	2213.63
580.66	2208.82
581.01	2204.28
581.36	2199.49
581.71	2195.83
582.06	2191.89
582.42	2188.01
582.77	2183.38
583.12	2179.11
583.47	2174.93
583.82	2170.37
584.17	2165.52
584.53	2160.36
584.88	2155.13
585.23	2149.85
585.58	2144.61
585.93	2139.37
586.28	2134.62
586.63	2129.90
586.98	2125.06
587.34	2120.52
587.69	2115.81
588.04	2110.98
588.39	2105.57
588.74	2099.41
589.09	2093.37
589.44	2086.77
589.79	2080.75
590.14	2075.11
590.49	2068.72
590.84	2062.35
591.19	2056.62
591.54	2050.31
591.89	2043.45
592.25	2036.99
592.60	2029.80
592.95	2022.61
593.30	2015.37
593.65	2007.88
594.00	2000.97
594.35	1993.94
594.70	1985.92
595.05	1979.16
595.40	1971.84
595.75	1964.65
596.10	1958.82
596.45	1952.33
596.80	1946.27
597.15	1940.02
597.50	1933.45
597.85	1927.19
598.19	1920.87
598.54	1914.28
598.89	1907.73
599.24	1901.92
599.59	1895.69
599.94	1889.47
600.29	1883.17
600.64	1876.70
600.99	1869.52
601.34	1862.80
601.69	1855.86
602.04	1849.22
602.39	1841.87
602.74	1835.17
603.08	1828.53
603.43	1821.74
603.78	1814.47
604.13	1807.31
604.48	1800.22
604.83	1793.30
605.18	1786.55
605.53	1778.62
605.87	1770.44
606.22	1763.26
606.57	1755.41
606.92	1747.73
607.27	1740.80
607.62	1733.96
607.96	1726.90
608.31	1720.68
608.66	1713.34
609.01	1705.97
609.36	1698.66
609.70	1690.63
610.05	1682.71
610.40	1675.13
610.75	1666.99
611.10	1659.29
611.44	1650.74
611.79	1642.58
612.14	1633.82
612.49	1624.61
612.83	1616.17
613.18	1607.83
613.53	1599.64
613.88	1590.97
614.22	1582.72
614.57	1573.88
614.92	1565.76
615.27	1558.24
615.61	1549.78
615.96	1541.47
616.31	1533.54
616.65	1525.98
617.00	1518.36
617.35	1510.46
617.70	1501.95
618.04	1493.39
618.39	1485.03
618.74	1477.52
619.08	1469.13
619.43	1461.49
619.78	1454.41
620.12	1447.41
620.47	1440.04
620.82	1431.80
621.16	1424.29
621.51	1416.56
621.85	1408.87
622.20	1400.32
622.55	1391.71
622.89	1383.72
623.24	1375.99
623.59	1368.58
623.93	1361.05
624.28	1353.76
624.62	1346.29
624.97	1339.01
625.32	1331.96
625.66	1324.94
626.01	1317.65
626.35	1310.39
626.70	1302.55
627.04	1294.83
627.39	1286.77
627.73	1279.20
628.08	1272.27
628.43	1265.07
628.77	1257.76
629.12	1250.17
629.46	1242.91
629.81	1235.32
630.15	1227.90
630.50	1220.50
630.84	1212.29
631.19	1204.08
631.53	1196.28
631.88	1188.63
632.22	1180.94
632.57	1173.54
632.91	1165.87
633.26	1158.46
633.60	1150.88
633.95	1143.51
634.29	1136.26
634.64	1129.51
634.98	1122.19
635.32	1114.89
635.67	1108.08
636.01	1101.27
636.36	1094.53
636.70	1087.79
637.05	1081.17
637.39	1074.66
637.73	1068.05
638.08	1062.04
638.42	1056.05
638.77	1049.66
639.11	1043.03
639.45	1036.64
639.80	1029.89
640.14	1023.55
640.49	1016.95
640.83	1010.46
641.17	1004.35
641.52	998.07
641.86	991.55
642.20	985.55
642.55	979.12
642.89	972.64
643.23	966.05
643.58	960.17
643.92	953.99
644.26	948.06
644.61	941.88
644.95	935.92
645.29	929.35
645.64	922.65
645.98	916.25
646.32	910.24
646.66	904.18
647.01	898.43
647.35	892.61
647.69	886.64
648.04	881.15
648.38	875.35
648.72	869.43
649.06	863.47
649.41	857.50
649.75	851.69
650.09	845.73
650.43	839.94
650.78	833.85
651.12	828.03
651.46	822.15
651.80	816.56
652.14	811.08
652.49	805.74
652.83	800.47
653.17	795.00
653.51	789.42
653.85	784.00
654.20	778.39
654.54	772.40
654.88	766.67
655.22	760.72
655.56	754.91
655.90	749.33
656.25	743.98
656.59	738.77
656.93	733.59
657.27	728.41
657.61	722.95
657.95	717.80
658.29	712.65
658.64	707.38
658.98	701.90
659.32	696.40
659.66	691.14
660.00	685.90
660.34	680.86
660.68	675.87
661.02	670.80
661.36	666.08
661.70	661.60
662.05	657.24
662.39	652.98
662.73	648.62
663.07	644.31
663.41	639.92
663.75	635.35
664.09	630.72
664.43	626.31
664.77	622.24
665.11	618.00
665.45	613.83
665.79	609.79
666.13	605.74
666.47	601.63
666.81	597.52
667.15	593.34
667.49	589.34
667.83	585.46
668.17	581.51
668.51	577.44
668.85	573.36
669.19	569.41
669.53	565.54
669.87	561.63
670.21	557.88
670.55	554.15
670.89	550.66
671.23	547.33
671.57	543.76
671.91	540.22
672.25	536.63
672.58	533.08
672.92	529.59
673.26	526.37
673.60	523.22
673.94	520.10
674.28	517.19
674.62	514.26
674.96	511.22
675.30	508.29
675.64	505.36
675.97	502.52
676.31	499.74
676.65	496.76
676.99	494.05
677.33	491.09
677.67	488.27
678.01	485.25
678.34	482.23
678.68	479.33
679.02	476.46
679.36	473.65
679.70	470.91
680.04	468.14
680.37	465.28
680.71	462.39
681.05	459.68
681.39	456.90
681.73	454.23
682.06	451.67
682.40	449.15
682.74	446.54
683.08	444.02
683.42	441.34
683.75	438.80
684.09	436.19
684.43	433.71
684.77	431.24
685.10	428.84
685.44	426.50
685.78	424.22
686.12	421.90
686.45	419.58
686.79	417.26
687.13	415.08
687.46	412.87
687.80	410.75
688.14	408.45
688.48	406.39
688.81	404.13
689.15	401.94
689.49	399.70
689.82	397.59
690.16	395.43
690.50	393.44
690.83	391.55
691.17	389.54
691.51	387.64
691.84	385.78
692.18	383.90
692.52	381.89
692.85	379.90
693.19	378.01
693.52	376.15
693.86	374.31
694.20	372.44
694.53	370.65
694.87	368.73
695.21	366.96
695.54	365.02
695.88	363.18
696.21	361.43
696.55	359.75
696.88	358.08
697.22	356.41
697.56	354.76
697.89	353.08
698.23	351.49
698.56	349.83
698.90	348.22
699.23	346.56
699.57	345.01
699.90	343.48
700.24	341.95
700.58	340.48
700.91	339.05
701.25	337.59
701.58	336.20
701.92	334.86
702.25	333.47
702.59	332.15
702.92	330.89
703.26	329.57
703.59	328.26
703.93	327.06
704.26	325.84
704.60	324.52
704.93	323.21
705.26	321.95
705.60	320.79
705.93	319.57
706.27	318.45
706.60	317.40
706.94	316.29
707.27	315.12
707.61	313.99
707.94	312.90
708.27	311.83
708.61	310.74
708.94	309.72
709.28	308.74
709.61	307.77
709.94	306.79
710.28	305.74
710.61	304.77
710.95	303.68
711.28	302.73
711.61	301.81
711.95	300.90
712.28	299.89
712.61	298.89
712.95	297.96
713.28	297.07
713.61	296.19
713.95	295.31
714.28	294.49
714.61	293.62
714.95	292.76
715.28	291.87
715.61	290.97
715.95	290.10
716.28	289.21
716.61	288.33
716.95	287.54
717.28	286.77
717.61	285.99
717.94	285.24
718.28	284.39
718.61	283.62
718.94	282.89
719.27	282.27
719.61	281.62
719.94	280.91
720.27	280.22
720.60	279.50
720.94	278.87
721.27	278.26
721.60	277.68
721.93	277.03
722.27	276.48
722.60	275.90
722.93	275.34
723.26	274.80
723.59	274.22
723.93	273.61
724.26	273.08
724.59	272.47
724.92	271.93
725.25	271.45
725.59	270.97
725.92	270.44
726.25	269.86
726.58	269.36
726.91	268.90
727.24	268.38
727.57	267.91
727.91	267.34
728.24	266.84
728.57	266.32
728.90	265.84
729.23	265.29
729.56	264.89
729.89	264.40
730.22	263.89
730.55	263.43
730.89	262.99
731.22	262.52
731.55	262.08
731.88	261.65
732.21	261.18
732.54	260.68
732.87	260.27
733.20	259.88
733.53	259.46
733.86	259.03
734.19	258.61
734.52	258.20
734.85	257.91
735.18	257.45
735.51	257.10
735.84	256.75
736.17	256.41
736.50	255.97
736.83	255.75
737.16	255.43
737.49	255.08
737.82	254.70
738.15	254.36
738.48	253.99
738.81	253.61
739.14	253.31
739.47	253.02
739.80	252.70
740.13	252.36
740.46	252.03
740.79	251.67
741.12	251.35
741.45	251.02
741.78	250.68
742.11	250.43
742.44	250.11
742.77	249.82
743.10	249.49
743.43	249.17
743.75	248.77
744.08	248.58
744.41	248.29
744.74	248.01
745.07	247.72
745.40	247.47
745.73	247.27
746.06	246.94
746.39	246.67
746.71	246.37
747.04	246.11
747.37	245.86
747.70	245.67
748.03	245.43
748.36	245.22
748.68	244.97
749.01	244.72
749.34	244.51
749.67	244.27
750.00	244.05
750.33	243.91
750.65	243.65
750.98	243.35
751.31	243.13
751.64	242.94
751.97	242.80
752.29	242.60
752.62	242.35
752.95	242.17
753.28	241.96
753.60	241.79
753.93	241.62
754.26	241.41
754.59	241.17
754.91	240.99
755.24	240.77
755.57	240.55
755.90	240.39
756.22	240.16
756.55	239.96
756.88	239.78
757.20	239.56
757.53	239.39
757.86	239.20
758.19	239.05
758.51	238.89
758.84	238.67
759.17	238.50
759.49	238.34
759.82	238.21
760.15	238.08
760.47	237.93
760.80	237.75
761.13	237.62
761.45	237.44
761.78	237.27
762.11	237.12
762.43	237.00
762.76	236.81
763.08	236.70
763.41	236.56
763.74	236.42
764.06	236.25
764.39	236.10
764.71	235.97
765.04	235.81
765.37	235.64
765.69	235.48
766.02	235.31
766.34	235.16
766.67	235.01
767.00	234.89
767.32	234.81
767.65	234.71
767.97	234.59
768.30	234.51
768.62	234.38
768.95	234.23
769.27	234.12
769.60	234.00
769.92	233.84
770.25	233.71
770.57	233.59
770.90	233.50
771.22	233.42
771.55	233.32
771.87	233.20
772.20	233.12
772.52	233.11
772.85	233.13
773.17	233.07
773.50	232.94
773.82	232.82
774.15	232.67
774.47	232.51
774.80	232.39
775.12	232.31
775.45	232.23
775.77	232.18
776.09	232.10
776.42	232.03
776.74	232.00
777.07	231.94
777.39	231.86
777.72	231.77
778.04	231.72
778.36	231.60
778.69	231.54
779.01	231.48
779.33	231.32
779.66	231.16
779.98	231.06
780.31	231.05
780.63	230.99
780.95	230.96
781.28	230.89
781.60	230.83
781.92	230.77
782.25	230.72
782.57	230.66
782.89	230.58
783.22	230.50
783.54	230.45
783.86	230.40
784.19	230.34
784.51	230.33
784.83	230.22
785.16	230.17
785.48	230.15
785.80	230.08
786.12	230.08
786.45	230.02
786.77	229.99
787.09	229.92
