SpectraSuite Data File
++++++++++++++++++++++++++++++++++++
Date: Fri Feb 01 16:24:20 EST 2013
User: group
Dark Spectrum Present: No
Reference Spectrum Present: No
Number of Sampled Component Spectra: 1
Spectrometers: USB2E7196
Integration Time (usec): 35000 (USB2E7196)
Spectra Averaged: 100 (USB2E7196)
Boxcar Smoothing: 10 (USB2E7196)
Correct for Electrical Dark: No (USB2E7196)
Strobe/Lamp Enabled: No (USB2E7196)
Correct for Detector Non-linearity: No (USB2E7196)
Correct for Stray Light: No (USB2E7196)
Number of Pixels in Processed Spectrum: 2048
>>>>>Begin Processed Spectral Data<<<<<
339.09	0.00
339.48	214.19
339.86	215.95
340.24	216.65
340.63	217.72
341.01	220.93
341.39	220.58
341.78	222.06
342.16	223.09
342.54	223.75
342.93	212.35
343.31	223.09
343.69	223.63
344.07	224.08
344.46	224.51
344.84	224.92
345.22	225.14
345.60	225.44
345.99	225.65
346.37	225.80
346.75	225.91
347.13	225.99
347.52	226.03
347.90	226.10
348.28	226.12
348.66	226.15
349.05	226.15
349.43	226.21
349.81	226.27
350.19	226.28
350.57	226.29
350.96	226.37
351.34	226.42
351.72	226.48
352.10	226.57
352.48	226.63
352.87	226.66
353.25	226.75
353.63	226.76
354.01	226.82
354.39	226.90
354.77	226.96
355.15	227.06
355.54	227.12
355.92	227.16
356.30	227.22
356.68	227.38
357.06	227.48
357.44	227.49
357.82	227.52
358.20	227.61
358.58	227.64
358.97	227.69
359.35	227.79
359.73	227.87
360.11	227.93
360.49	227.99
360.87	228.06
361.25	228.10
361.63	228.18
362.01	228.23
362.39	228.21
362.77	228.27
363.15	228.29
363.53	228.32
363.91	228.33
364.29	228.35
364.67	228.24
365.05	228.24
365.43	228.30
365.81	228.35
366.19	228.37
366.57	228.44
366.95	228.44
367.33	228.38
367.71	228.40
368.09	228.38
368.47	228.37
368.85	228.33
369.23	228.32
369.61	228.23
369.99	228.24
370.37	228.23
370.75	228.26
371.13	228.23
371.51	228.18
371.89	228.18
372.27	228.14
372.65	228.13
373.03	228.10
373.41	228.03
373.78	227.97
374.16	227.88
374.54	227.81
374.92	227.74
375.30	227.71
375.68	227.59
376.06	227.58
376.44	227.54
376.82	227.51
377.19	227.49
377.57	227.48
377.95	227.35
378.33	227.31
378.71	227.17
379.09	227.15
379.47	227.13
379.84	227.05
380.22	226.97
380.60	226.87
380.98	226.81
381.36	226.75
381.73	226.66
382.11	226.65
382.49	226.55
382.87	226.49
383.25	226.44
383.62	226.54
384.00	226.43
384.38	226.39
384.76	226.33
385.13	226.30
385.51	226.22
385.89	226.20
386.27	226.15
386.64	226.11
387.02	226.02
387.40	225.96
387.78	225.91
388.15	225.90
388.53	225.89
388.91	225.86
389.29	225.83
389.66	225.85
390.04	225.79
390.42	225.78
390.79	225.77
391.17	225.79
391.55	225.65
391.92	225.65
392.30	225.65
392.68	225.62
393.05	225.59
393.43	225.61
393.81	225.64
394.18	225.65
394.56	225.70
394.94	225.74
395.31	225.76
395.69	225.81
396.06	225.85
396.44	225.89
396.82	225.92
397.19	226.01
397.57	226.04
397.95	226.12
398.32	226.17
398.70	226.22
399.07	226.29
399.45	226.32
399.82	226.37
400.20	226.41
400.58	226.49
400.95	226.55
401.33	226.65
401.70	226.77
402.08	226.86
402.45	226.95
402.83	227.07
403.20	227.15
403.58	227.23
403.95	227.37
404.33	227.51
404.71	227.61
405.08	227.77
405.46	227.88
405.83	228.01
406.21	228.17
406.58	228.31
406.96	228.41
407.33	228.58
407.70	228.76
408.08	229.04
408.45	229.27
408.83	229.47
409.20	229.65
409.58	229.83
409.95	230.08
410.33	230.33
410.70	230.55
411.08	230.86
411.45	231.18
411.82	231.44
412.20	231.76
412.57	232.17
412.95	232.45
413.32	232.84
413.69	233.19
414.07	233.59
414.44	234.07
414.82	234.57
415.19	235.12
415.56	235.67
415.94	236.19
416.31	236.77
416.68	237.39
417.06	238.10
417.43	238.78
417.81	239.53
418.18	240.30
418.55	241.14
418.93	241.98
419.30	242.83
419.67	243.75
420.04	244.72
420.42	245.71
420.79	246.90
421.16	248.08
421.54	249.29
421.91	250.52
422.28	251.78
422.66	253.07
423.03	254.36
423.40	255.69
423.77	257.11
424.15	258.57
424.52	260.04
424.89	261.66
425.26	263.22
425.64	264.66
426.01	266.24
426.38	267.90
426.75	269.65
427.13	271.38
427.50	273.21
427.87	275.06
428.24	276.91
428.61	278.63
428.99	280.56
429.36	282.65
429.73	284.70
430.10	286.72
430.47	288.83
430.85	290.98
431.22	293.22
431.59	295.56
431.96	297.79
432.33	300.28
432.70	302.64
433.08	305.42
433.45	308.07
433.82	310.68
434.19	313.52
434.56	316.26
434.93	318.91
435.30	321.50
435.68	324.40
436.05	327.25
436.42	330.04
436.79	332.54
437.16	335.23
437.53	338.04
437.90	340.80
438.27	343.53
438.64	346.31
439.01	348.91
439.38	351.16
439.75	353.31
440.13	355.78
440.50	358.09
440.87	359.92
441.24	361.84
441.61	363.99
441.98	365.50
442.35	367.30
442.72	369.16
443.09	370.94
443.46	371.88
443.83	372.45
444.20	372.93
444.57	373.75
444.94	374.02
445.31	374.35
445.68	374.68
446.05	374.73
446.42	374.31
446.79	373.87
447.16	373.42
447.53	373.11
447.90	371.97
448.27	370.84
448.64	369.32
449.01	368.18
449.37	366.17
449.74	364.26
450.11	362.02
450.48	359.55
450.85	357.05
451.22	354.95
451.59	352.96
451.96	351.02
452.33	348.44
452.70	346.12
453.07	343.33
453.43	340.49
453.80	337.75
454.17	335.15
454.54	332.60
454.91	329.87
455.28	327.18
455.65	324.68
456.02	322.24
456.38	320.07
456.75	317.40
457.12	315.23
457.49	312.99
457.86	310.85
458.23	309.02
458.59	306.99
458.96	304.89
459.33	303.01
459.70	301.19
460.07	299.69
460.43	297.94
460.80	296.33
461.17	294.88
461.54	293.35
461.91	291.92
462.27	290.47
462.64	289.24
463.01	287.90
463.38	286.64
463.74	285.24
464.11	284.08
464.48	283.08
464.85	281.93
465.21	281.08
465.58	280.13
465.95	279.03
466.32	278.14
466.68	277.28
467.05	276.40
467.42	275.50
467.78	274.57
468.15	273.73
468.52	273.09
468.88	272.26
469.25	271.53
469.62	270.94
469.98	270.32
470.35	269.68
470.72	269.12
471.08	268.47
471.45	267.95
471.82	267.43
472.18	266.83
472.55	266.40
472.92	265.91
473.28	265.46
473.65	265.05
474.02	264.64
474.38	264.29
474.75	263.99
475.11	263.70
475.48	263.46
475.85	263.25
476.21	263.02
476.58	262.86
476.94	262.74
477.31	262.58
477.67	262.43
478.04	262.35
478.41	262.30
478.77	262.36
479.14	262.33
479.50	262.37
479.87	262.45
480.23	262.57
480.60	262.69
480.96	262.80
481.33	262.99
481.69	263.19
482.06	263.39
482.42	263.57
482.79	263.81
483.15	264.14
483.52	264.50
483.88	264.86
484.25	265.22
484.61	265.66
484.98	266.10
485.34	266.69
485.71	267.27
486.07	267.87
486.44	268.42
486.80	269.14
487.17	269.83
487.53	270.67
487.90	271.50
488.26	272.43
488.62	273.43
488.99	274.45
489.35	275.49
489.72	276.60
490.08	277.82
490.44	279.07
490.81	280.42
491.17	281.79
491.54	283.28
491.90	284.82
492.26	286.47
492.63	288.21
492.99	289.95
493.36	291.83
493.72	293.85
494.08	295.98
494.45	298.23
494.81	300.62
495.17	303.07
495.54	305.62
495.90	308.28
496.26	311.04
496.63	313.95
496.99	317.09
497.35	320.35
497.72	323.73
498.08	327.27
498.44	330.94
498.80	334.85
499.17	338.88
499.53	343.07
499.89	347.44
500.26	351.91
500.62	356.58
500.98	361.54
501.34	366.63
501.71	372.01
502.07	377.44
502.43	383.06
502.79	388.88
503.16	394.95
503.52	401.24
503.88	407.64
504.24	414.31
504.60	421.17
504.97	428.30
505.33	435.64
505.69	443.38
506.05	451.16
506.41	459.05
506.78	467.19
507.14	475.68
507.50	484.37
507.86	493.48
508.22	502.69
508.59	511.97
508.95	521.56
509.31	531.31
509.67	541.39
510.03	551.67
510.39	562.18
510.75	573.03
511.12	583.95
511.48	595.28
511.84	606.68
512.20	618.19
512.56	630.10
512.92	642.26
513.28	654.57
513.64	667.01
514.00	679.66
514.37	692.64
514.73	705.66
515.09	718.69
515.45	731.85
515.81	745.38
516.17	759.36
516.53	773.53
516.89	787.71
517.25	801.95
517.61	816.36
517.97	830.77
518.33	845.15
518.69	859.94
519.05	874.79
519.41	890.02
519.77	905.57
520.13	920.98
520.49	936.40
520.85	951.80
521.21	967.47
521.57	983.74
521.93	999.40
522.29	1015.74
522.65	1031.88
523.01	1048.07
523.37	1064.13
523.73	1080.24
524.09	1096.25
524.45	1112.53
524.81	1129.05
525.17	1145.82
525.53	1162.71
525.89	1179.56
526.25	1196.37
526.61	1212.82
526.97	1229.46
527.33	1245.86
527.68	1262.36
528.04	1278.71
528.40	1295.13
528.76	1312.08
529.12	1328.57
529.48	1345.39
529.84	1361.24
530.20	1377.86
530.56	1394.76
530.91	1412.04
531.27	1428.71
531.63	1445.11
531.99	1461.61
532.35	1477.48
532.71	1493.20
533.07	1509.43
533.42	1525.17
533.78	1541.04
534.14	1557.21
534.50	1572.49
534.86	1588.18
535.21	1603.23
535.57	1619.10
535.93	1634.58
536.29	1649.25
536.65	1664.12
537.00	1678.86
537.36	1694.18
537.72	1708.60
538.08	1722.95
538.44	1736.64
538.79	1750.47
539.15	1764.00
539.51	1777.64
539.87	1791.87
540.22	1805.48
540.58	1818.96
540.94	1832.22
541.29	1844.97
541.65	1857.74
542.01	1870.85
542.37	1883.21
542.72	1895.68
543.08	1907.33
543.44	1919.66
543.79	1930.91
544.15	1941.92
544.51	1953.37
544.87	1964.30
545.22	1975.00
545.58	1985.15
545.94	1994.96
546.29	2004.69
546.65	2014.43
547.01	2023.44
547.36	2032.24
547.72	2040.74
548.07	2048.64
548.43	2056.75
548.79	2064.77
549.14	2072.16
549.50	2079.48
549.86	2087.05
550.21	2094.32
550.57	2101.53
550.92	2107.97
551.28	2114.98
551.64	2121.95
551.99	2128.33
552.35	2134.45
552.70	2140.71
553.06	2146.71
553.41	2152.97
553.77	2158.95
554.13	2165.07
554.48	2171.31
554.84	2176.78
555.19	2182.14
555.55	2187.35
555.90	2191.83
556.26	2196.75
556.61	2201.29
556.97	2205.43
557.32	2209.40
557.68	2213.49
558.03	2217.80
558.39	2221.53
558.74	2226.05
559.10	2229.99
559.45	2233.78
559.81	2237.98
560.16	2241.74
560.52	2245.00
560.87	2248.34
561.23	2251.03
561.58	2253.90
561.94	2256.37
562.29	2258.57
562.64	2261.23
563.00	2263.75
563.35	2267.24
563.71	2270.28
564.06	2273.56
564.42	2276.57
564.77	2279.24
565.12	2281.66
565.48	2283.57
565.83	2285.50
566.19	2286.95
566.54	2287.82
566.89	2288.96
567.25	2289.64
567.60	2291.02
567.96	2292.79
568.31	2293.70
568.66	2294.93
569.02	2295.58
569.37	2296.04
569.72	2297.01
570.08	2297.26
570.43	2297.42
570.78	2296.85
571.14	2295.37
571.49	2294.02
571.84	2293.80
572.20	2292.93
572.55	2291.82
572.90	2290.21
573.26	2288.98
573.61	2287.31
573.96	2285.71
574.31	2282.76
574.67	2279.89
575.02	2276.26
575.37	2272.78
575.72	2269.13
576.08	2265.80
576.43	2262.65
576.78	2259.04
577.13	2255.93
577.49	2252.82
577.84	2249.27
578.19	2245.67
578.54	2242.34
578.90	2238.38
579.25	2232.73
579.60	2227.66
579.95	2222.78
580.30	2217.84
580.66	2212.80
581.01	2207.85
581.36	2203.00
581.71	2198.88
582.06	2194.48
582.42	2190.04
582.77	2184.86
583.12	2180.28
583.47	2175.57
583.82	2170.59
584.17	2165.39
584.53	2159.92
584.88	2154.35
585.23	2148.83
585.58	2143.28
585.93	2137.66
586.28	2132.84
586.63	2127.87
586.98	2122.79
587.34	2118.04
587.69	2113.27
588.04	2107.86
588.39	2102.28
588.74	2095.76
589.09	2089.69
589.44	2082.82
589.79	2076.83
590.14	2071.43
590.49	2064.84
590.84	2058.46
591.19	2052.46
591.54	2046.05
591.89	2038.66
592.25	2031.80
592.60	2024.55
592.95	2017.19
593.30	2009.83
593.65	2002.36
594.00	1995.39
594.35	1988.31
594.70	1980.33
595.05	1973.19
595.40	1966.00
595.75	1958.58
596.10	1952.46
596.45	1945.80
596.80	1939.83
597.15	1933.33
597.50	1926.29
597.85	1919.91
598.19	1913.35
598.54	1906.32
598.89	1899.70
599.24	1893.85
599.59	1887.30
599.94	1881.10
600.29	1874.76
600.64	1868.32
600.99	1860.82
601.34	1854.09
601.69	1847.13
602.04	1840.40
602.39	1832.97
602.74	1826.14
603.08	1819.45
603.43	1812.71
603.78	1805.38
604.13	1798.17
604.48	1790.88
604.83	1783.81
605.18	1777.03
605.53	1769.20
605.87	1761.22
606.22	1754.06
606.57	1746.11
606.92	1738.77
607.27	1731.62
607.62	1724.71
607.96	1717.54
608.31	1710.95
608.66	1703.42
609.01	1695.85
609.36	1688.22
609.70	1680.26
610.05	1672.38
610.40	1664.71
610.75	1656.40
611.10	1648.78
611.44	1640.33
611.79	1632.38
612.14	1623.91
612.49	1614.73
612.83	1606.24
613.18	1598.18
613.53	1590.09
613.88	1581.55
614.22	1573.27
614.57	1564.68
614.92	1556.66
615.27	1549.11
615.61	1540.78
615.96	1532.66
616.31	1525.10
616.65	1517.65
617.00	1510.08
617.35	1502.24
617.70	1493.85
618.04	1485.42
618.39	1477.23
618.74	1469.68
619.08	1461.37
619.43	1453.75
619.78	1446.74
620.12	1439.61
620.47	1432.03
620.82	1423.78
621.16	1416.43
621.51	1408.79
621.85	1401.20
622.20	1392.64
622.55	1384.21
622.89	1376.38
623.24	1368.66
623.59	1361.19
623.93	1353.70
624.28	1346.49
624.62	1339.05
624.97	1331.88
625.32	1325.07
625.66	1318.02
626.01	1310.79
626.35	1303.37
626.70	1295.61
627.04	1287.82
627.39	1279.96
627.73	1272.49
628.08	1265.64
628.43	1258.26
628.77	1250.89
629.12	1243.25
629.46	1236.11
629.81	1228.64
630.15	1221.43
630.50	1214.11
630.84	1205.85
631.19	1197.96
631.53	1190.38
631.88	1182.73
632.22	1175.02
632.57	1167.74
632.91	1160.16
633.26	1152.78
633.60	1145.35
633.95	1138.21
634.29	1131.22
634.64	1124.56
634.98	1117.21
635.32	1110.08
635.67	1103.46
636.01	1096.79
636.36	1089.98
636.70	1083.46
637.05	1076.85
637.39	1070.35
637.73	1063.77
638.08	1057.91
638.42	1051.90
638.77	1045.45
639.11	1038.91
639.45	1032.47
639.80	1025.72
640.14	1019.30
640.49	1012.73
640.83	1006.46
641.17	1000.20
641.52	993.84
641.86	987.32
642.20	981.44
642.55	975.10
642.89	968.67
643.23	962.21
643.58	956.46
643.92	950.26
644.26	944.25
644.61	938.23
644.95	932.22
645.29	925.64
645.64	918.89
645.98	912.66
646.32	906.82
646.66	900.95
647.01	895.22
647.35	889.52
647.69	883.66
648.04	878.10
648.38	872.33
648.72	866.34
649.06	860.34
649.41	854.51
649.75	848.58
650.09	842.61
650.43	836.82
650.78	830.66
651.12	824.70
651.46	819.04
651.80	813.29
652.14	807.90
652.49	802.51
652.83	797.34
653.17	791.61
653.51	785.88
653.85	780.38
654.20	774.71
654.54	768.65
654.88	762.83
655.22	756.93
655.56	751.26
655.90	745.86
656.25	740.60
656.59	735.17
656.93	730.10
657.27	725.02
657.61	719.62
657.95	714.55
658.29	709.43
658.64	704.12
658.98	698.80
659.32	693.38
659.66	688.17
660.00	682.90
660.34	677.93
660.68	672.99
661.02	668.03
661.36	663.26
661.70	658.83
662.05	654.56
662.39	650.24
662.73	645.80
663.07	641.43
663.41	636.98
663.75	632.48
664.09	627.87
664.43	623.44
664.77	619.29
665.11	615.02
665.45	610.88
665.79	606.77
666.13	602.59
666.47	598.48
666.81	594.31
667.15	590.13
667.49	586.20
667.83	582.38
668.17	578.40
668.51	574.35
668.85	570.32
669.19	566.47
669.53	562.62
669.87	558.73
670.21	554.96
670.55	551.30
670.89	547.87
671.23	544.42
671.57	540.88
671.91	537.30
672.25	533.77
672.58	530.27
672.92	526.85
673.26	523.66
673.60	520.45
673.94	517.33
674.28	514.43
674.62	511.48
674.96	508.35
675.30	505.49
675.64	502.54
675.97	499.69
676.31	496.77
676.65	493.84
676.99	491.13
677.33	488.25
677.67	485.40
678.01	482.35
678.34	479.37
678.68	476.48
679.02	473.64
679.36	470.90
679.70	468.17
680.04	465.42
680.37	462.59
680.71	459.83
681.05	457.19
681.39	454.51
681.73	451.89
682.06	449.41
682.40	446.80
682.74	444.32
683.08	441.82
683.42	439.25
683.75	436.72
684.09	434.14
684.43	431.66
684.77	429.21
685.10	426.85
685.44	424.55
685.78	422.30
686.12	420.05
686.45	417.72
686.79	415.45
687.13	413.23
687.46	411.06
687.80	408.91
688.14	406.70
688.48	404.64
688.81	402.37
689.15	400.20
689.49	398.09
689.82	395.98
690.16	393.92
690.50	391.98
690.83	390.05
691.17	388.10
691.51	386.23
691.84	384.41
692.18	382.50
692.52	380.55
692.85	378.60
693.19	376.73
693.52	374.93
693.86	373.08
694.20	371.33
694.53	369.55
694.87	367.67
695.21	365.91
695.54	364.12
695.88	362.37
696.21	360.63
696.55	358.94
696.88	357.23
697.22	355.56
697.56	353.94
697.89	352.31
698.23	350.67
698.56	349.01
698.90	347.46
699.23	345.82
699.57	344.25
699.90	342.73
700.24	341.19
700.58	339.71
700.91	338.25
701.25	336.81
701.58	335.46
701.92	334.14
702.25	332.72
702.59	331.33
702.92	330.04
703.26	328.73
703.59	327.45
703.93	326.28
704.26	325.05
704.60	323.71
704.93	322.43
705.26	321.17
705.60	320.01
705.93	318.79
706.27	317.81
706.60	316.76
706.94	315.65
707.27	314.50
707.61	313.41
707.94	312.34
708.27	311.24
708.61	310.11
708.94	309.11
709.28	308.16
709.61	307.21
709.94	306.24
710.28	305.23
710.61	304.27
710.95	303.16
711.28	302.26
711.61	301.33
711.95	300.40
712.28	299.46
712.61	298.50
712.95	297.58
713.28	296.63
713.61	295.74
713.95	294.87
714.28	294.01
714.61	293.13
714.95	292.23
715.28	291.36
715.61	290.50
715.95	289.61
716.28	288.71
716.61	287.83
716.95	287.01
717.28	286.27
717.61	285.46
717.94	284.70
718.28	283.87
718.61	283.14
718.94	282.43
719.27	281.77
719.61	281.11
719.94	280.43
720.27	279.71
720.60	279.04
720.94	278.41
721.27	277.83
721.60	277.28
721.93	276.71
722.27	276.13
722.60	275.58
722.93	274.99
723.26	274.48
723.59	273.92
723.93	273.37
724.26	272.79
724.59	272.27
724.92	271.78
725.25	271.25
725.59	270.75
725.92	270.23
726.25	269.74
726.58	269.25
726.91	268.74
727.24	268.28
727.57	267.77
727.91	267.24
728.24	266.79
728.57	266.27
728.90	265.83
729.23	265.35
729.56	264.93
729.89	264.46
730.22	263.96
730.55	263.50
730.89	263.04
731.22	262.62
731.55	262.17
731.88	261.76
732.21	261.35
732.54	260.90
732.87	260.49
733.20	260.07
733.53	259.70
733.86	259.36
734.19	258.97
734.52	258.58
734.85	258.26
735.18	257.82
735.51	257.48
735.84	257.10
736.17	256.77
736.50	256.32
736.83	256.14
737.16	255.81
737.49	255.50
737.82	255.19
738.15	254.85
738.48	254.52
738.81	254.17
739.14	253.82
739.47	253.51
739.80	253.23
740.13	252.93
740.46	252.56
740.79	252.24
741.12	251.93
741.45	251.63
741.78	251.33
742.11	251.04
742.44	250.70
742.77	250.42
743.10	250.09
743.43	249.85
743.75	249.44
744.08	249.29
744.41	249.00
744.74	248.72
745.07	248.41
745.40	248.15
745.73	247.93
746.06	247.69
746.39	247.43
746.71	247.12
747.04	246.85
747.37	246.61
747.70	246.37
748.03	246.13
748.36	245.91
748.68	245.64
749.01	245.41
749.34	245.19
749.67	244.95
750.00	244.76
750.33	244.59
750.65	244.37
750.98	244.02
751.31	243.83
751.64	243.58
751.97	243.44
752.29	243.22
752.62	242.96
752.95	242.72
753.28	242.50
753.60	242.26
753.93	242.05
754.26	241.85
754.59	241.61
754.91	241.36
755.24	241.14
755.57	240.94
755.90	240.74
756.22	240.53
756.55	240.36
756.88	240.14
757.20	239.91
757.53	239.70
757.86	239.54
758.19	239.35
758.51	239.19
758.84	238.97
759.17	238.81
759.49	238.65
759.82	238.54
760.15	238.39
760.47	238.30
760.80	238.11
761.13	237.98
761.45	237.84
761.78	237.72
762.11	237.60
762.43	237.46
762.76	237.34
763.08	237.21
763.41	237.06
763.74	236.90
764.06	236.75
764.39	236.63
764.71	236.46
765.04	236.32
765.37	236.18
765.69	236.08
766.02	235.92
766.34	235.81
766.67	235.67
767.00	235.55
767.32	235.48
767.65	235.43
767.97	235.31
768.30	235.18
768.62	235.07
768.95	234.94
769.27	234.83
769.60	234.70
769.92	234.59
770.25	234.47
770.57	234.38
770.90	234.25
771.22	234.16
771.55	234.12
771.87	234.05
772.20	233.95
772.52	233.94
772.85	233.98
773.17	233.89
773.50	233.78
773.82	233.68
774.15	233.55
774.47	233.43
774.80	233.35
775.12	233.25
775.45	233.17
775.77	233.11
776.09	233.03
776.42	233.00
776.74	232.96
777.07	232.89
777.39	232.78
777.72	232.77
778.04	232.69
778.36	232.55
778.69	232.49
779.01	232.44
779.33	232.27
779.66	232.10
779.98	232.04
780.31	232.00
780.63	231.98
780.95	231.93
781.28	231.88
781.60	231.80
781.92	231.77
782.25	231.72
782.57	231.66
782.89	231.61
783.22	231.52
783.54	231.45
783.86	231.39
784.19	231.38
784.51	231.34
784.83	231.29
785.16	231.27
785.48	231.21
785.80	231.15
786.12	231.11
786.45	231.08
786.77	231.04
787.09	231.00
