SpectraSuite Data File
++++++++++++++++++++++++++++++++++++
Date: Fri Feb 01 15:23:25 EST 2013
User: group
Dark Spectrum Present: No
Reference Spectrum Present: No
Number of Sampled Component Spectra: 1
Spectrometers: USB2E7196
Integration Time (usec): 35000 (USB2E7196)
Spectra Averaged: 100 (USB2E7196)
Boxcar Smoothing: 10 (USB2E7196)
Correct for Electrical Dark: No (USB2E7196)
Strobe/Lamp Enabled: No (USB2E7196)
Correct for Detector Non-linearity: No (USB2E7196)
Correct for Stray Light: No (USB2E7196)
Number of Pixels in Processed Spectrum: 2048
>>>>>Begin Processed Spectral Data<<<<<
339.09	0.00
339.48	214.99
339.86	216.17
340.24	217.61
340.63	219.06
341.01	222.28
341.39	221.91
341.78	222.91
342.16	224.37
342.54	225.39
342.93	213.50
343.31	224.28
343.69	224.80
344.07	225.29
344.46	225.73
344.84	226.14
345.22	226.37
345.60	226.63
345.99	226.86
346.37	226.99
346.75	227.09
347.13	227.16
347.52	227.21
347.90	227.23
348.28	227.22
348.66	227.28
349.05	227.25
349.43	227.28
349.81	227.29
350.19	227.32
350.57	227.40
350.96	227.52
351.34	227.63
351.72	227.76
352.10	227.87
352.48	227.96
352.87	227.99
353.25	228.05
353.63	228.10
354.01	228.16
354.39	228.26
354.77	228.35
355.15	228.45
355.54	228.53
355.92	228.61
356.30	228.70
356.68	228.80
357.06	228.89
357.44	228.94
357.82	228.99
358.20	229.05
358.58	229.10
358.97	229.17
359.35	229.22
359.73	229.29
360.11	229.32
360.49	229.36
360.87	229.43
361.25	229.48
361.63	229.59
362.01	229.61
362.39	229.59
362.77	229.57
363.15	229.57
363.53	229.57
363.91	229.56
364.29	229.56
364.67	229.47
365.05	229.46
365.43	229.50
365.81	229.51
366.19	229.54
366.57	229.55
366.95	229.51
367.33	229.47
367.71	229.42
368.09	229.41
368.47	229.38
368.85	229.33
369.23	229.28
369.61	229.19
369.99	229.19
370.37	229.18
370.75	229.20
371.13	229.11
371.51	229.01
371.89	228.96
372.27	228.91
372.65	228.87
373.03	228.82
373.41	228.74
373.78	228.67
374.16	228.55
374.54	228.48
374.92	228.41
375.30	228.33
375.68	228.25
376.06	228.18
376.44	228.08
376.82	228.01
377.19	227.94
377.57	227.88
377.95	227.77
378.33	227.68
378.71	227.58
379.09	227.55
379.47	227.54
379.84	227.44
380.22	227.35
380.60	227.24
380.98	227.18
381.36	227.10
381.73	227.01
382.11	226.97
382.49	226.90
382.87	226.80
383.25	226.74
383.62	226.80
384.00	226.73
384.38	226.68
384.76	226.67
385.13	226.68
385.51	226.61
385.89	226.55
386.27	226.52
386.64	226.49
387.02	226.43
387.40	226.32
387.78	226.31
388.15	226.31
388.53	226.29
388.91	226.25
389.29	226.20
389.66	226.20
390.04	226.15
390.42	226.15
390.79	226.17
391.17	226.18
391.55	226.06
391.92	226.06
392.30	226.09
392.68	226.08
393.05	226.07
393.43	226.11
393.81	226.13
394.18	226.16
394.56	226.16
394.94	226.19
395.31	226.23
395.69	226.29
396.06	226.34
396.44	226.40
396.82	226.44
397.19	226.56
397.57	226.58
397.95	226.70
398.32	226.74
398.70	226.81
399.07	226.94
399.45	226.99
399.82	227.09
400.20	227.13
400.58	227.21
400.95	227.27
401.33	227.36
401.70	227.51
402.08	227.63
402.45	227.73
402.83	227.85
403.20	227.99
403.58	228.11
403.95	228.24
404.33	228.40
404.71	228.54
405.08	228.73
405.46	228.91
405.83	229.06
406.21	229.25
406.58	229.42
406.96	229.53
407.33	229.77
407.70	229.95
408.08	230.24
408.45	230.48
408.83	230.68
409.20	230.92
409.58	231.11
409.95	231.34
410.33	231.64
410.70	231.92
411.08	232.23
411.45	232.52
411.82	232.81
412.20	233.16
412.57	233.60
412.95	233.92
413.32	234.33
413.69	234.70
414.07	235.11
414.44	235.57
414.82	236.07
415.19	236.58
415.56	237.14
415.94	237.66
416.31	238.25
416.68	238.91
417.06	239.60
417.43	240.30
417.81	241.06
418.18	241.82
418.55	242.66
418.93	243.55
419.30	244.42
419.67	245.36
420.04	246.28
420.42	247.25
420.79	248.43
421.16	249.58
421.54	250.77
421.91	251.98
422.28	253.20
422.66	254.54
423.03	255.87
423.40	257.18
423.77	258.61
424.15	260.02
424.52	261.46
424.89	263.06
425.26	264.61
425.64	266.04
426.01	267.62
426.38	269.27
426.75	270.89
427.13	272.66
427.50	274.47
427.87	276.32
428.24	278.17
428.61	279.85
428.99	281.77
429.36	283.89
429.73	285.95
430.10	287.98
430.47	290.05
430.85	292.11
431.22	294.35
431.59	296.73
431.96	298.99
432.33	301.53
432.70	303.94
433.08	306.76
433.45	309.43
433.82	312.05
434.19	314.97
434.56	317.84
434.93	320.46
435.30	323.06
435.68	326.02
436.05	328.87
436.42	331.73
436.79	334.26
437.16	336.97
437.53	339.82
437.90	342.66
438.27	345.39
438.64	348.23
439.01	350.84
439.38	353.11
439.75	355.31
440.13	357.84
440.50	360.17
440.87	362.03
441.24	363.97
441.61	366.14
441.98	367.61
442.35	369.41
442.72	371.28
443.09	373.12
443.46	374.09
443.83	374.65
444.20	375.17
444.57	376.01
444.94	376.32
445.31	376.64
445.68	377.00
446.05	377.06
446.42	376.72
446.79	376.32
447.16	375.86
447.53	375.53
447.90	374.32
448.27	373.14
448.64	371.53
449.01	370.43
449.37	368.46
449.74	366.57
450.11	364.32
450.48	361.89
450.85	359.34
451.22	357.18
451.59	355.20
451.96	353.28
452.33	350.68
452.70	348.27
453.07	345.47
453.43	342.57
453.80	339.81
454.17	337.12
454.54	334.55
454.91	331.83
455.28	329.15
455.65	326.68
456.02	324.25
456.38	322.08
456.75	319.41
457.12	317.15
457.49	314.88
457.86	312.71
458.23	310.85
458.59	308.82
458.96	306.73
459.33	304.82
459.70	302.90
460.07	301.35
460.43	299.62
460.80	298.00
461.17	296.54
461.54	295.04
461.91	293.58
462.27	292.12
462.64	290.84
463.01	289.44
463.38	288.17
463.74	286.75
464.11	285.61
464.48	284.56
464.85	283.47
465.21	282.60
465.58	281.61
465.95	280.50
466.32	279.57
466.68	278.67
467.05	277.78
467.42	276.92
467.78	276.01
468.15	275.12
468.52	274.42
468.88	273.57
469.25	272.76
469.62	272.13
469.98	271.47
470.35	270.82
470.72	270.22
471.08	269.56
471.45	268.99
471.82	268.42
472.18	267.81
472.55	267.37
472.92	266.87
473.28	266.39
473.65	265.94
474.02	265.50
474.38	265.11
474.75	264.79
475.11	264.40
475.48	264.12
475.85	263.90
476.21	263.66
476.58	263.49
476.94	263.37
477.31	263.20
477.67	263.06
478.04	262.98
478.41	262.94
478.77	262.93
479.14	262.89
479.50	262.91
479.87	262.97
480.23	263.01
480.60	263.08
480.96	263.21
481.33	263.42
481.69	263.61
482.06	263.80
482.42	263.98
482.79	264.27
483.15	264.61
483.52	264.97
483.88	265.35
484.25	265.70
484.61	266.13
484.98	266.60
485.34	267.14
485.71	267.74
486.07	268.32
486.44	268.93
486.80	269.64
487.17	270.39
487.53	271.23
487.90	272.11
488.26	273.06
488.62	274.00
488.99	274.96
489.35	275.99
489.72	277.13
490.08	278.34
490.44	279.60
490.81	280.94
491.17	282.31
491.54	283.77
491.90	285.35
492.26	286.99
492.63	288.71
492.99	290.52
493.36	292.40
493.72	294.44
494.08	296.55
494.45	298.78
494.81	301.12
495.17	303.51
495.54	306.06
495.90	308.71
496.26	311.57
496.63	314.57
496.99	317.70
497.35	320.95
497.72	324.38
498.08	327.86
498.44	331.48
498.80	335.38
499.17	339.40
499.53	343.53
499.89	347.92
500.26	352.39
500.62	357.04
500.98	362.02
501.34	367.09
501.71	372.35
502.07	377.81
502.43	383.39
502.79	389.22
503.16	395.26
503.52	401.50
503.88	407.90
504.24	414.48
504.60	421.33
504.97	428.46
505.33	435.73
505.69	443.44
506.05	451.22
506.41	459.10
506.78	467.26
507.14	475.68
507.50	484.41
507.86	493.49
508.22	502.64
508.59	511.83
508.95	521.48
509.31	531.31
509.67	541.44
510.03	551.77
510.39	562.34
510.75	573.10
511.12	584.05
511.48	595.29
511.84	606.78
512.20	618.34
512.56	630.35
512.92	642.54
513.28	654.86
513.64	667.39
514.00	680.11
514.37	693.04
514.73	706.17
515.09	719.16
515.45	732.46
515.81	746.08
516.17	760.01
516.53	774.08
516.89	788.19
517.25	802.42
517.61	816.85
517.97	831.39
518.33	845.92
518.69	860.66
519.05	875.81
519.41	890.96
519.77	906.61
520.13	922.03
520.49	937.37
520.85	952.90
521.21	968.75
521.57	985.04
521.93	1000.85
522.29	1017.21
522.65	1033.59
523.01	1049.83
523.37	1065.86
523.73	1082.14
524.09	1098.28
524.45	1114.75
524.81	1131.39
525.17	1148.31
525.53	1165.20
525.89	1182.15
526.25	1199.11
526.61	1215.45
526.97	1232.29
527.33	1248.76
527.68	1265.43
528.04	1282.04
528.40	1298.67
528.76	1315.70
529.12	1332.42
529.48	1349.51
529.84	1365.69
530.20	1382.36
530.56	1399.50
530.91	1416.96
531.27	1433.80
531.63	1450.36
531.99	1466.97
532.35	1483.02
532.71	1498.94
533.07	1515.24
533.42	1531.16
533.78	1547.26
534.14	1563.62
534.50	1579.02
534.86	1594.94
535.21	1610.13
535.57	1626.18
535.93	1641.68
536.29	1656.46
536.65	1671.55
537.00	1686.40
537.36	1701.72
537.72	1716.25
538.08	1730.67
538.44	1744.65
538.79	1758.62
539.15	1772.50
539.51	1786.42
539.87	1800.78
540.22	1814.51
540.58	1828.41
540.94	1841.81
541.29	1854.76
541.65	1867.58
542.01	1880.92
542.37	1893.30
542.72	1905.83
543.08	1917.54
543.44	1930.13
543.79	1941.57
544.15	1952.55
544.51	1964.15
544.87	1975.20
545.22	1986.01
545.58	1996.15
545.94	2006.02
546.29	2015.80
546.65	2025.60
547.01	2034.76
547.36	2043.55
547.72	2052.10
548.07	2059.90
548.43	2068.09
548.79	2076.18
549.14	2083.69
549.50	2091.10
549.86	2098.94
550.21	2106.26
550.57	2113.61
550.92	2120.15
551.28	2127.10
551.64	2134.20
551.99	2140.80
552.35	2146.98
552.70	2153.22
553.06	2159.30
553.41	2165.57
553.77	2171.75
554.13	2177.77
554.48	2183.95
554.84	2189.27
555.19	2194.58
555.55	2199.69
555.90	2204.16
556.26	2208.98
556.61	2213.70
556.97	2217.74
557.32	2221.61
557.68	2225.79
558.03	2230.06
558.39	2233.72
558.74	2238.40
559.10	2242.20
559.45	2245.72
559.81	2249.99
560.16	2253.69
560.52	2256.82
560.87	2260.19
561.23	2262.80
561.58	2265.80
561.94	2268.18
562.29	2270.74
562.64	2273.33
563.00	2275.98
563.35	2279.53
563.71	2282.62
564.06	2285.81
564.42	2288.70
564.77	2291.28
565.12	2293.56
565.48	2295.20
565.83	2296.99
566.19	2298.06
566.54	2299.11
566.89	2300.14
567.25	2300.70
567.60	2302.13
567.96	2303.84
568.31	2304.66
568.66	2305.70
569.02	2306.15
569.37	2306.59
569.72	2307.37
570.08	2307.56
570.43	2307.55
570.78	2306.86
571.14	2305.49
571.49	2304.19
571.84	2303.88
572.20	2302.62
572.55	2301.54
572.90	2300.17
573.26	2298.79
573.61	2297.22
573.96	2295.21
574.31	2292.17
574.67	2289.05
575.02	2285.32
575.37	2281.90
575.72	2278.08
576.08	2274.72
576.43	2271.36
576.78	2267.47
577.13	2264.44
577.49	2261.22
577.84	2257.69
578.19	2253.83
578.54	2249.89
578.90	2245.54
579.25	2239.86
579.60	2234.82
579.95	2229.68
580.30	2224.55
580.66	2219.26
581.01	2214.23
581.36	2209.28
581.71	2205.09
582.06	2200.53
582.42	2195.92
582.77	2190.57
583.12	2185.75
583.47	2180.84
583.82	2175.74
584.17	2170.48
584.53	2164.55
584.88	2158.85
585.23	2152.97
585.58	2147.52
585.93	2142.06
586.28	2137.21
586.63	2131.96
586.98	2126.86
587.34	2121.95
587.69	2116.92
588.04	2111.64
588.39	2105.91
588.74	2099.47
589.09	2093.20
589.44	2086.32
589.79	2080.37
590.14	2074.73
590.49	2068.25
590.84	2061.89
591.19	2055.80
591.54	2049.30
591.89	2041.94
592.25	2035.15
592.60	2027.85
592.95	2020.10
593.30	2012.62
593.65	2004.89
594.00	1997.84
594.35	1990.69
594.70	1982.70
595.05	1975.40
595.40	1968.04
595.75	1960.36
596.10	1953.97
596.45	1947.08
596.80	1940.90
597.15	1934.14
597.50	1926.89
597.85	1920.43
598.19	1913.71
598.54	1906.51
598.89	1899.77
599.24	1893.87
599.59	1886.95
599.94	1880.74
600.29	1874.38
600.64	1867.91
600.99	1860.48
601.34	1853.55
601.69	1846.41
602.04	1839.43
602.39	1832.05
602.74	1825.13
603.08	1818.47
603.43	1811.76
603.78	1804.54
604.13	1797.21
604.48	1789.80
604.83	1782.96
605.18	1775.72
605.53	1767.64
605.87	1759.59
606.22	1752.33
606.57	1744.30
606.92	1737.11
607.27	1729.84
607.62	1722.94
607.96	1715.39
608.31	1708.67
608.66	1701.08
609.01	1693.47
609.36	1685.85
609.70	1677.89
610.05	1669.79
610.40	1661.99
610.75	1653.63
611.10	1645.92
611.44	1637.62
611.79	1629.54
612.14	1620.85
612.49	1611.92
612.83	1603.57
613.18	1595.51
613.53	1587.45
613.88	1578.85
614.22	1570.52
614.57	1562.10
614.92	1554.11
615.27	1546.68
615.61	1538.35
615.96	1530.34
616.31	1522.77
616.65	1515.52
617.00	1507.96
617.35	1500.34
617.70	1491.93
618.04	1483.41
618.39	1475.09
618.74	1467.51
619.08	1459.32
619.43	1451.79
619.78	1444.84
620.12	1437.59
620.47	1429.96
620.82	1421.77
621.16	1414.41
621.51	1406.77
621.85	1399.08
622.20	1390.56
622.55	1382.09
622.89	1374.35
623.24	1366.82
623.59	1359.48
623.93	1351.88
624.28	1344.60
624.62	1337.03
624.97	1330.01
625.32	1323.33
625.66	1316.34
626.01	1309.03
626.35	1301.58
626.70	1293.81
627.04	1285.99
627.39	1278.28
627.73	1270.93
628.08	1263.99
628.43	1256.60
628.77	1249.23
629.12	1241.58
629.46	1234.32
629.81	1227.03
630.15	1219.66
630.50	1212.30
630.84	1203.98
631.19	1196.14
631.53	1188.66
631.88	1181.15
632.22	1173.44
632.57	1166.12
632.91	1158.67
633.26	1151.33
633.60	1144.01
633.95	1136.97
634.29	1130.03
634.64	1123.42
634.98	1116.11
635.32	1109.05
635.67	1102.61
636.01	1096.00
636.36	1089.26
636.70	1082.84
637.05	1076.23
637.39	1069.83
637.73	1063.22
638.08	1057.47
638.42	1051.45
638.77	1044.97
639.11	1038.31
639.45	1032.03
639.80	1025.40
640.14	1019.00
640.49	1012.44
640.83	1006.08
641.17	999.78
641.52	993.41
641.86	986.96
642.20	981.08
642.55	974.79
642.89	968.21
643.23	961.71
643.58	955.88
643.92	949.63
644.26	943.56
644.61	937.60
644.95	931.61
645.29	924.87
645.64	918.09
645.98	911.81
646.32	906.05
646.66	899.98
647.01	894.12
647.35	888.30
647.69	882.41
648.04	876.94
648.38	871.10
648.72	865.08
649.06	858.99
649.41	853.13
649.75	847.12
650.09	841.16
650.43	835.36
650.78	829.26
651.12	823.27
651.46	817.56
651.80	811.74
652.14	806.33
652.49	801.03
652.83	795.86
653.17	790.13
653.51	784.31
653.85	778.88
654.20	773.22
654.54	767.32
654.88	761.62
655.22	755.77
655.56	750.11
655.90	744.70
656.25	739.41
656.59	734.04
656.93	728.91
657.27	723.82
657.61	718.31
657.95	713.23
658.29	708.16
658.64	702.94
658.98	697.66
659.32	692.22
659.66	687.12
660.00	681.82
660.34	676.92
660.68	672.05
661.02	667.08
661.36	662.37
661.70	657.86
662.05	653.57
662.39	649.18
662.73	644.77
663.07	640.33
663.41	635.91
663.75	631.41
664.09	626.91
664.43	622.56
664.77	618.44
665.11	614.09
665.45	610.02
665.79	605.95
666.13	601.86
666.47	597.79
666.81	593.56
667.15	589.45
667.49	585.61
667.83	581.86
668.17	577.96
668.51	573.98
668.85	569.93
669.19	566.09
669.53	562.27
669.87	558.45
670.21	554.85
670.55	551.20
670.89	547.82
671.23	544.41
671.57	540.89
671.91	537.44
672.25	534.05
672.58	530.53
672.92	527.12
673.26	523.95
673.60	520.86
673.94	517.79
674.28	514.94
674.62	511.94
674.96	508.79
675.30	505.86
675.64	502.92
675.97	500.17
676.31	497.30
676.65	494.36
676.99	491.61
677.33	488.76
677.67	485.91
678.01	482.84
678.34	479.79
678.68	476.95
679.02	474.12
679.36	471.36
679.70	468.65
680.04	465.88
680.37	462.98
680.71	460.14
681.05	457.51
681.39	454.73
681.73	452.14
682.06	449.59
682.40	447.03
682.74	444.50
683.08	441.91
683.42	439.29
683.75	436.85
684.09	434.33
684.43	431.84
684.77	429.39
685.10	427.09
685.44	424.80
685.78	422.51
686.12	420.22
686.45	417.91
686.79	415.62
687.13	413.41
687.46	411.23
687.80	409.11
688.14	406.89
688.48	404.89
688.81	402.57
689.15	400.40
689.49	398.23
689.82	396.14
690.16	394.08
690.50	392.19
690.83	390.13
691.17	388.11
691.51	386.17
691.84	384.34
692.18	382.38
692.52	380.44
692.85	378.50
693.19	376.66
693.52	374.83
693.86	373.01
694.20	371.21
694.53	369.46
694.87	367.58
695.21	365.82
695.54	363.93
695.88	362.23
696.21	360.52
696.55	358.84
696.88	357.14
697.22	355.52
697.56	353.85
697.89	352.27
698.23	350.69
698.56	349.09
698.90	347.50
699.23	345.85
699.57	344.34
699.90	342.80
700.24	341.24
700.58	339.72
700.91	338.24
701.25	336.83
701.58	335.41
701.92	334.05
702.25	332.63
702.59	331.34
702.92	330.03
703.26	328.74
703.59	327.50
703.93	326.39
704.26	325.17
704.60	323.88
704.93	322.62
705.26	321.37
705.60	320.25
705.93	319.15
706.27	318.14
706.60	317.07
706.94	316.03
707.27	314.93
707.61	313.88
707.94	312.87
708.27	311.74
708.61	310.74
708.94	309.76
709.28	308.81
709.61	307.82
709.94	306.89
710.28	305.89
710.61	304.93
710.95	303.83
711.28	302.90
711.61	301.98
711.95	301.09
712.28	300.17
712.61	299.16
712.95	298.23
713.28	297.35
713.61	296.48
713.95	295.57
714.28	294.73
714.61	293.89
714.95	293.05
715.28	292.22
715.61	291.34
715.95	290.46
716.28	289.64
716.61	288.80
716.95	287.98
717.28	287.28
717.61	286.54
717.94	285.78
718.28	284.98
718.61	284.27
718.94	283.54
719.27	282.87
719.61	282.24
719.94	281.52
720.27	280.75
720.60	280.05
720.94	279.38
721.27	278.79
721.60	278.17
721.93	277.57
722.27	277.03
722.60	276.51
722.93	275.93
723.26	275.37
723.59	274.86
723.93	274.30
724.26	273.73
724.59	273.12
724.92	272.58
725.25	272.10
725.59	271.53
725.92	271.04
726.25	270.51
726.58	270.02
726.91	269.54
727.24	269.13
727.57	268.70
727.91	268.21
728.24	267.69
728.57	267.21
728.90	266.74
729.23	266.23
729.56	265.78
729.89	265.33
730.22	264.83
730.55	264.36
730.89	263.92
731.22	263.46
731.55	263.02
731.88	262.61
732.21	262.14
732.54	261.74
732.87	261.33
733.20	260.97
733.53	260.57
733.86	260.21
734.19	259.81
734.52	259.40
734.85	259.09
735.18	258.68
735.51	258.34
735.84	257.96
736.17	257.65
736.50	257.23
736.83	256.98
737.16	256.66
737.49	256.29
737.82	255.98
738.15	255.70
738.48	255.38
738.81	255.07
739.14	254.74
739.47	254.41
739.80	254.08
740.13	253.77
740.46	253.40
740.79	253.05
741.12	252.73
741.45	252.41
741.78	252.09
742.11	251.82
742.44	251.48
742.77	251.16
743.10	250.87
743.43	250.63
743.75	250.25
744.08	250.13
744.41	249.87
744.74	249.59
745.07	249.28
745.40	249.07
745.73	248.83
746.06	248.57
746.39	248.34
746.71	248.10
747.04	247.81
747.37	247.60
747.70	247.39
748.03	247.14
748.36	246.93
748.68	246.70
749.01	246.45
749.34	246.22
749.67	246.05
750.00	245.81
750.33	245.66
750.65	245.48
750.98	245.15
751.31	244.94
751.64	244.74
751.97	244.58
752.29	244.35
752.62	244.12
752.95	243.92
753.28	243.70
753.60	243.47
753.93	243.32
754.26	243.11
754.59	242.89
754.91	242.72
755.24	242.53
755.57	242.34
755.90	242.18
756.22	241.99
756.55	241.80
756.88	241.62
757.20	241.33
757.53	241.11
757.86	240.94
758.19	240.78
758.51	240.60
758.84	240.41
759.17	240.21
759.49	240.03
759.82	239.91
760.15	239.78
760.47	239.65
760.80	239.49
761.13	239.35
761.45	239.20
761.78	239.05
762.11	238.90
762.43	238.74
762.76	238.59
763.08	238.46
763.41	238.31
763.74	238.17
764.06	238.06
764.39	237.94
764.71	237.78
765.04	237.63
765.37	237.50
765.69	237.33
766.02	237.22
766.34	237.08
766.67	236.96
767.00	236.83
767.32	236.74
767.65	236.69
767.97	236.56
768.30	236.45
768.62	236.30
768.95	236.18
769.27	236.05
769.60	235.96
769.92	235.81
770.25	235.67
770.57	235.55
770.90	235.43
771.22	235.32
771.55	235.19
771.87	235.12
772.20	234.98
772.52	235.01
772.85	235.03
773.17	234.93
773.50	234.79
773.82	234.68
774.15	234.55
774.47	234.38
774.80	234.27
775.12	234.18
775.45	234.13
775.77	234.04
776.09	234.00
776.42	233.90
776.74	233.86
777.07	233.82
777.39	233.75
777.72	233.68
778.04	233.60
778.36	233.55
778.69	233.48
779.01	233.46
779.33	233.29
779.66	233.10
779.98	233.01
780.31	232.94
780.63	232.90
780.95	232.85
781.28	232.79
781.60	232.72
781.92	232.69
782.25	232.63
782.57	232.57
782.89	232.47
783.22	232.43
783.54	232.36
783.86	232.30
784.19	232.25
784.51	232.21
784.83	232.15
785.16	232.08
785.48	232.03
785.80	231.96
786.12	231.90
786.45	231.89
786.77	231.88
787.09	231.85
