SpectraSuite Data File
++++++++++++++++++++++++++++++++++++
Date: Fri Feb 01 17:13:43 EST 2013
User: group
Dark Spectrum Present: No
Reference Spectrum Present: No
Number of Sampled Component Spectra: 1
Spectrometers: USB2E7196
Integration Time (usec): 35000 (USB2E7196)
Spectra Averaged: 100 (USB2E7196)
Boxcar Smoothing: 10 (USB2E7196)
Correct for Electrical Dark: No (USB2E7196)
Strobe/Lamp Enabled: No (USB2E7196)
Correct for Detector Non-linearity: No (USB2E7196)
Correct for Stray Light: No (USB2E7196)
Number of Pixels in Processed Spectrum: 2048
>>>>>Begin Processed Spectral Data<<<<<
339.09	0.00
339.48	213.33
339.86	215.06
340.24	216.11
340.63	218.05
341.01	220.45
341.39	220.50
341.78	221.73
342.16	223.04
342.54	223.50
342.93	211.88
343.31	222.57
343.69	223.09
344.07	223.55
344.46	223.99
344.84	224.34
345.22	224.54
345.60	224.78
345.99	224.97
346.37	225.08
346.75	225.17
347.13	225.21
347.52	225.22
347.90	225.28
348.28	225.29
348.66	225.31
349.05	225.31
349.43	225.31
349.81	225.37
350.19	225.41
350.57	225.43
350.96	225.50
351.34	225.57
351.72	225.69
352.10	225.78
352.48	225.83
352.87	225.85
353.25	225.94
353.63	226.01
354.01	226.03
354.39	226.11
354.77	226.17
355.15	226.28
355.54	226.35
355.92	226.31
356.30	226.37
356.68	226.45
357.06	226.50
357.44	226.55
357.82	226.59
358.20	226.69
358.58	226.74
358.97	226.79
359.35	226.87
359.73	226.93
360.11	226.96
360.49	227.02
360.87	227.05
361.25	227.07
361.63	227.10
362.01	227.15
362.39	227.15
362.77	227.18
363.15	227.17
363.53	227.20
363.91	227.25
364.29	227.26
364.67	227.24
365.05	227.27
365.43	227.31
365.81	227.30
366.19	227.31
366.57	227.38
366.95	227.38
367.33	227.34
367.71	227.30
368.09	227.29
368.47	227.25
368.85	227.28
369.23	227.30
369.61	227.27
369.99	227.28
370.37	227.28
370.75	227.31
371.13	227.27
371.51	227.21
371.89	227.17
372.27	227.14
372.65	227.12
373.03	227.08
373.41	227.02
373.78	226.96
374.16	226.86
374.54	226.73
374.92	226.69
375.30	226.65
375.68	226.60
376.06	226.56
376.44	226.55
376.82	226.49
377.19	226.42
377.57	226.38
377.95	226.26
378.33	226.20
378.71	226.07
379.09	226.05
379.47	226.03
379.84	225.98
380.22	225.92
380.60	225.85
380.98	225.77
381.36	225.72
381.73	225.65
382.11	225.64
382.49	225.62
382.87	225.55
383.25	225.50
383.62	225.55
384.00	225.49
384.38	225.42
384.76	225.42
385.13	225.45
385.51	225.39
385.89	225.36
386.27	225.31
386.64	225.35
387.02	225.27
387.40	225.26
387.78	225.19
388.15	225.16
388.53	225.09
388.91	225.07
389.29	225.08
389.66	225.08
390.04	225.07
390.42	225.06
390.79	225.02
391.17	225.00
391.55	224.90
391.92	224.89
392.30	224.90
392.68	224.85
393.05	224.81
393.43	224.82
393.81	224.82
394.18	224.81
394.56	224.77
394.94	224.82
395.31	224.81
395.69	224.85
396.06	224.88
396.44	224.93
396.82	224.98
397.19	225.03
397.57	225.04
397.95	225.08
398.32	225.11
398.70	225.17
399.07	225.24
399.45	225.26
399.82	225.30
400.20	225.34
400.58	225.37
400.95	225.38
401.33	225.48
401.70	225.63
402.08	225.70
402.45	225.78
402.83	225.89
403.20	226.00
403.58	226.06
403.95	226.20
404.33	226.32
404.71	226.42
405.08	226.58
405.46	226.72
405.83	226.86
406.21	227.01
406.58	227.18
406.96	227.33
407.33	227.54
407.70	227.73
408.08	228.01
408.45	228.25
408.83	228.46
409.20	228.66
409.58	228.81
409.95	229.07
410.33	229.34
410.70	229.57
411.08	229.83
411.45	230.19
411.82	230.48
412.20	230.84
412.57	231.25
412.95	231.55
413.32	231.95
413.69	232.35
414.07	232.75
414.44	233.21
414.82	233.69
415.19	234.22
415.56	234.79
415.94	235.36
416.31	236.02
416.68	236.69
417.06	237.43
417.43	238.13
417.81	238.92
418.18	239.74
418.55	240.61
418.93	241.51
419.30	242.42
419.67	243.40
420.04	244.35
420.42	245.42
420.79	246.63
421.16	247.78
421.54	249.03
421.91	250.29
422.28	251.58
422.66	252.92
423.03	254.26
423.40	255.61
423.77	257.03
424.15	258.47
424.52	260.00
424.89	261.64
425.26	263.24
425.64	264.75
426.01	266.35
426.38	268.02
426.75	269.72
427.13	271.52
427.50	273.36
427.87	275.28
428.24	277.12
428.61	278.88
428.99	280.90
429.36	283.01
429.73	285.11
430.10	287.13
430.47	289.23
430.85	291.39
431.22	293.66
431.59	296.05
431.96	298.33
432.33	300.83
432.70	303.21
433.08	306.05
433.45	308.72
433.82	311.38
434.19	314.34
434.56	317.19
434.93	319.93
435.30	322.58
435.68	325.53
436.05	328.39
436.42	331.24
436.79	333.79
437.16	336.50
437.53	339.35
437.90	342.23
438.27	345.00
438.64	347.87
439.01	350.51
439.38	352.78
439.75	354.95
440.13	357.48
440.50	359.88
440.87	361.78
441.24	363.75
441.61	365.94
441.98	367.46
442.35	369.33
442.72	371.15
443.09	372.99
443.46	374.03
443.83	374.63
444.20	375.16
444.57	376.01
444.94	376.40
445.31	376.79
445.68	377.18
446.05	377.29
446.42	376.93
446.79	376.51
447.16	376.07
447.53	375.78
447.90	374.67
448.27	373.53
448.64	371.96
449.01	370.83
449.37	368.83
449.74	366.95
450.11	364.72
450.48	362.24
450.85	359.67
451.22	357.48
451.59	355.46
451.96	353.50
452.33	350.86
452.70	348.44
453.07	345.59
453.43	342.65
453.80	339.86
454.17	337.11
454.54	334.54
454.91	331.82
455.28	329.13
455.65	326.55
456.02	324.01
456.38	321.81
456.75	319.08
457.12	316.80
457.49	314.49
457.86	312.23
458.23	310.30
458.59	308.25
458.96	306.15
459.33	304.25
459.70	302.31
460.07	300.80
460.43	299.04
460.80	297.37
461.17	295.92
461.54	294.38
461.91	292.95
462.27	291.46
462.64	290.14
463.01	288.74
463.38	287.45
463.74	286.06
464.11	284.87
464.48	283.85
464.85	282.74
465.21	281.86
465.58	280.89
465.95	279.78
466.32	278.84
466.68	277.90
467.05	277.00
467.42	276.08
467.78	275.13
468.15	274.23
468.52	273.53
468.88	272.61
469.25	271.85
469.62	271.22
469.98	270.56
470.35	269.96
470.72	269.37
471.08	268.66
471.45	268.14
471.82	267.58
472.18	266.94
472.55	266.49
472.92	265.96
473.28	265.51
473.65	265.07
474.02	264.61
474.38	264.21
474.75	263.86
475.11	263.55
475.48	263.31
475.85	263.09
476.21	262.90
476.58	262.74
476.94	262.57
477.31	262.41
477.67	262.25
478.04	262.13
478.41	262.06
478.77	262.16
479.14	262.11
479.50	262.11
479.87	262.17
480.23	262.23
480.60	262.31
480.96	262.36
481.33	262.57
481.69	262.76
482.06	262.96
482.42	263.15
482.79	263.42
483.15	263.72
483.52	264.09
483.88	264.40
484.25	264.80
484.61	265.22
484.98	265.64
485.34	266.17
485.71	266.76
486.07	267.36
486.44	267.90
486.80	268.54
487.17	269.27
487.53	270.10
487.90	270.95
488.26	271.89
488.62	272.88
488.99	273.84
489.35	274.90
489.72	276.06
490.08	277.27
490.44	278.49
490.81	279.82
491.17	281.18
491.54	282.67
491.90	284.22
492.26	285.91
492.63	287.64
492.99	289.46
493.36	291.33
493.72	293.38
494.08	295.48
494.45	297.76
494.81	300.12
495.17	302.56
495.54	305.12
495.90	307.82
496.26	310.61
496.63	313.59
496.99	316.74
497.35	319.98
497.72	323.41
498.08	326.92
498.44	330.59
498.80	334.54
499.17	338.60
499.53	342.76
499.89	347.11
500.26	351.62
500.62	356.23
500.98	361.19
501.34	366.26
501.71	371.55
502.07	377.02
502.43	382.62
502.79	388.36
503.16	394.38
503.52	400.65
503.88	407.06
504.24	413.63
504.60	420.40
504.97	427.51
505.33	434.73
505.69	442.38
506.05	450.06
506.41	457.81
506.78	465.87
507.14	474.23
507.50	482.83
507.86	491.77
508.22	500.86
508.59	510.03
508.95	519.48
509.31	529.11
509.67	539.04
510.03	549.12
510.39	559.59
510.75	570.27
511.12	580.93
511.48	592.05
511.84	603.35
512.20	614.69
512.56	626.42
512.92	638.46
513.28	650.65
513.64	662.97
514.00	675.56
514.37	688.29
514.73	701.17
515.09	713.98
515.45	726.98
515.81	740.38
516.17	754.10
516.53	768.02
516.89	782.07
517.25	796.02
517.61	810.29
517.97	824.47
518.33	838.65
518.69	853.25
519.05	868.01
519.41	882.84
519.77	898.00
520.13	913.11
520.49	928.22
520.85	943.31
521.21	958.71
521.57	974.62
521.93	989.97
522.29	1006.00
522.65	1021.99
523.01	1037.84
523.37	1053.57
523.73	1069.36
524.09	1085.13
524.45	1101.02
524.81	1117.24
525.17	1133.59
525.53	1150.10
525.89	1166.67
526.25	1183.15
526.61	1199.22
526.97	1215.74
527.33	1232.07
527.68	1248.42
528.04	1264.55
528.40	1280.67
528.76	1297.34
529.12	1313.58
529.48	1330.32
529.84	1346.05
530.20	1362.39
530.56	1379.12
530.91	1396.17
531.27	1412.74
531.63	1428.94
531.99	1445.21
532.35	1461.01
532.71	1476.77
533.07	1492.80
533.42	1508.45
533.78	1524.28
534.14	1540.26
534.50	1555.30
534.86	1570.85
535.21	1585.85
535.57	1601.51
535.93	1616.87
536.29	1631.44
536.65	1646.15
537.00	1660.59
537.36	1675.65
537.72	1689.79
538.08	1704.00
538.44	1717.50
538.79	1731.07
539.15	1744.33
539.51	1757.78
539.87	1771.86
540.22	1785.19
540.58	1798.57
540.94	1811.45
541.29	1823.83
541.65	1836.26
542.01	1849.15
542.37	1861.39
542.72	1873.52
543.08	1885.11
543.44	1897.27
543.79	1908.45
544.15	1919.43
544.51	1930.81
544.87	1941.65
545.22	1952.58
545.58	1962.81
545.94	1972.68
546.29	1982.63
546.65	1992.66
547.01	2002.13
547.36	2010.83
547.72	2019.51
548.07	2027.70
548.43	2036.00
548.79	2044.12
549.14	2051.86
549.50	2059.39
549.86	2066.99
550.21	2074.42
550.57	2081.87
550.92	2088.72
551.28	2095.92
551.64	2103.04
551.99	2109.87
552.35	2116.22
552.70	2122.46
553.06	2128.61
553.41	2135.12
553.77	2141.08
554.13	2147.21
554.48	2153.33
554.84	2159.12
555.19	2164.47
555.55	2169.83
555.90	2174.65
556.26	2180.11
556.61	2184.83
556.97	2189.55
557.32	2193.87
557.68	2198.26
558.03	2202.53
558.39	2206.19
558.74	2210.82
559.10	2214.86
559.45	2218.57
559.81	2222.99
560.16	2226.94
560.52	2230.32
560.87	2233.75
561.23	2236.79
561.58	2239.80
561.94	2242.60
562.29	2244.91
562.64	2248.03
563.00	2250.69
563.35	2254.36
563.71	2257.47
564.06	2260.86
564.42	2263.84
564.77	2266.71
565.12	2269.42
565.48	2271.74
565.83	2274.02
566.19	2275.82
566.54	2277.00
566.89	2278.47
567.25	2279.45
567.60	2281.08
567.96	2283.19
568.31	2284.38
568.66	2285.79
569.02	2286.81
569.37	2287.49
569.72	2288.81
570.08	2289.21
570.43	2289.57
570.78	2289.28
571.14	2288.11
571.49	2287.10
571.84	2286.96
572.20	2286.29
572.55	2285.27
572.90	2283.75
573.26	2282.75
573.61	2281.18
573.96	2279.88
574.31	2277.15
574.67	2274.43
575.02	2271.07
575.37	2267.78
575.72	2264.35
576.08	2261.05
576.43	2257.86
576.78	2254.56
577.13	2251.47
577.49	2248.32
577.84	2245.14
578.19	2241.67
578.54	2238.38
578.90	2234.66
579.25	2229.36
579.60	2224.69
579.95	2220.10
580.30	2215.48
580.66	2210.40
581.01	2205.66
581.36	2200.97
581.71	2197.09
582.06	2193.03
582.42	2188.86
582.77	2183.91
583.12	2179.57
583.47	2175.47
583.82	2170.87
584.17	2165.86
584.53	2160.53
584.88	2155.24
585.23	2149.77
585.58	2144.40
585.93	2138.99
586.28	2134.10
586.63	2129.32
586.98	2124.24
587.34	2119.47
587.69	2114.65
588.04	2109.93
588.39	2104.38
588.74	2098.06
589.09	2091.96
589.44	2085.18
589.79	2079.15
590.14	2073.54
590.49	2067.07
590.84	2060.60
591.19	2054.54
591.54	2048.31
591.89	2041.46
592.25	2034.96
592.60	2027.84
592.95	2020.61
593.30	2013.51
593.65	2006.17
594.00	1999.22
594.35	1992.03
594.70	1984.11
595.05	1977.22
595.40	1969.85
595.75	1962.66
596.10	1956.63
596.45	1950.30
596.80	1944.36
597.15	1937.94
597.50	1931.37
597.85	1924.96
598.19	1918.38
598.54	1911.76
598.89	1905.21
599.24	1899.17
599.59	1892.74
599.94	1886.51
600.29	1880.05
600.64	1873.57
600.99	1866.39
601.34	1859.69
601.69	1852.74
602.04	1846.12
602.39	1838.81
602.74	1832.11
603.08	1825.61
603.43	1818.86
603.78	1811.46
604.13	1804.21
604.48	1797.17
604.83	1790.25
605.18	1783.67
605.53	1775.81
605.87	1767.73
606.22	1760.28
606.57	1752.36
606.92	1744.68
607.27	1737.57
607.62	1730.88
607.96	1723.61
608.31	1717.10
608.66	1709.55
609.01	1702.14
609.36	1694.68
609.70	1686.69
610.05	1678.58
610.40	1670.77
610.75	1662.40
611.10	1654.81
611.44	1646.35
611.79	1638.05
612.14	1629.33
612.49	1619.89
612.83	1611.49
613.18	1603.31
613.53	1595.23
613.88	1586.79
614.22	1578.66
614.57	1570.05
614.92	1561.93
615.27	1554.56
615.61	1546.19
615.96	1538.13
616.31	1530.41
616.65	1522.96
617.00	1515.34
617.35	1507.64
617.70	1499.40
618.04	1490.98
618.39	1482.55
618.74	1475.03
619.08	1466.73
619.43	1459.15
619.78	1452.21
620.12	1445.03
620.47	1437.42
620.82	1429.25
621.16	1421.72
621.51	1414.06
621.85	1406.33
622.20	1397.84
622.55	1389.23
622.89	1381.14
623.24	1373.26
623.59	1365.77
623.93	1358.16
624.28	1350.89
624.62	1343.29
624.97	1335.97
625.32	1328.92
625.66	1321.92
626.01	1314.67
626.35	1307.35
626.70	1299.42
627.04	1291.71
627.39	1283.86
627.73	1276.36
628.08	1269.43
628.43	1262.31
628.77	1254.95
629.12	1247.35
629.46	1240.11
629.81	1232.56
630.15	1225.30
630.50	1218.05
630.84	1209.88
631.19	1201.87
631.53	1194.31
631.88	1186.69
632.22	1179.00
632.57	1171.76
632.91	1164.22
633.26	1156.80
633.60	1149.27
633.95	1141.98
634.29	1134.79
634.64	1128.04
634.98	1120.75
635.32	1113.62
635.67	1106.77
636.01	1099.96
636.36	1093.19
636.70	1086.62
637.05	1080.17
637.39	1073.63
637.73	1067.09
638.08	1061.18
638.42	1055.13
638.77	1048.77
639.11	1042.25
639.45	1035.80
639.80	1029.16
640.14	1022.81
640.49	1016.29
640.83	1009.95
641.17	1003.85
641.52	997.60
641.86	991.06
642.20	985.18
642.55	978.67
642.89	972.26
643.23	965.76
643.58	959.93
643.92	953.84
644.26	947.71
644.61	941.65
644.95	935.58
645.29	929.12
645.64	922.40
645.98	915.93
646.32	909.83
646.66	903.80
647.01	897.94
647.35	892.12
647.69	886.19
648.04	880.57
648.38	874.85
648.72	868.90
649.06	862.88
649.41	856.84
649.75	851.00
650.09	844.98
650.43	839.18
650.78	832.99
651.12	826.84
651.46	821.14
651.80	815.52
652.14	810.10
652.49	804.63
652.83	799.43
653.17	793.89
653.51	788.44
653.85	782.99
654.20	777.38
654.54	771.38
654.88	765.59
655.22	759.73
655.56	753.93
655.90	748.34
656.25	743.04
656.59	737.71
656.93	732.55
657.27	727.45
657.61	721.94
657.95	716.84
658.29	711.75
658.64	706.39
658.98	700.89
659.32	695.35
659.66	690.05
660.00	684.81
660.34	679.74
660.68	674.71
661.02	669.71
661.36	664.96
661.70	660.43
662.05	656.05
662.39	651.71
662.73	647.17
663.07	642.86
663.41	638.39
663.75	633.91
664.09	629.34
664.43	624.83
664.77	620.78
665.11	616.59
665.45	612.42
665.79	608.36
666.13	604.31
666.47	600.21
666.81	596.09
667.15	591.87
667.49	587.82
667.83	583.93
668.17	579.97
668.51	575.88
668.85	571.85
669.19	567.93
669.53	564.11
669.87	560.28
670.21	556.52
670.55	552.88
670.89	549.43
671.23	545.95
671.57	542.40
671.91	538.78
672.25	535.23
672.58	531.76
672.92	528.32
673.26	525.08
673.60	521.91
673.94	518.78
674.28	515.88
674.62	513.02
674.96	509.90
675.30	506.95
675.64	504.06
675.97	501.22
676.31	498.34
676.65	495.44
676.99	492.68
677.33	489.79
677.67	486.97
678.01	483.94
678.34	480.98
678.68	478.11
679.02	475.42
679.36	472.60
679.70	469.80
680.04	467.00
680.37	464.17
680.71	461.37
681.05	458.71
681.39	455.97
681.73	453.26
682.06	450.75
682.40	448.24
682.74	445.68
683.08	443.11
683.42	440.53
683.75	437.96
684.09	435.38
684.43	432.91
684.77	430.44
685.10	428.05
685.44	425.65
685.78	423.35
686.12	421.01
686.45	418.72
686.79	416.50
687.13	414.32
687.46	412.12
687.80	409.95
688.14	407.70
688.48	405.65
688.81	403.47
689.15	401.32
689.49	399.07
689.82	396.99
690.16	394.89
690.50	392.88
690.83	391.00
691.17	389.00
691.51	387.06
691.84	385.17
692.18	383.28
692.52	381.37
692.85	379.42
693.19	377.51
693.52	375.64
693.86	373.74
694.20	371.93
694.53	370.17
694.87	368.29
695.21	366.48
695.54	364.63
695.88	362.83
696.21	361.04
696.55	359.41
696.88	357.67
697.22	355.99
697.56	354.31
697.89	352.62
698.23	351.05
698.56	349.40
698.90	347.85
699.23	346.21
699.57	344.65
699.90	343.14
700.24	341.63
700.58	340.10
700.91	338.67
701.25	337.20
701.58	335.80
701.92	334.46
702.25	333.11
702.59	331.74
702.92	330.41
703.26	329.06
703.59	327.74
703.93	326.56
704.26	325.31
704.60	324.03
704.93	322.72
705.26	321.46
705.60	320.27
705.93	319.05
706.27	317.93
706.60	316.80
706.94	315.66
707.27	314.48
707.61	313.40
707.94	312.28
708.27	311.17
708.61	310.03
708.94	308.96
709.28	307.91
709.61	306.91
709.94	305.94
710.28	304.94
710.61	303.92
710.95	302.77
711.28	301.84
711.61	300.87
711.95	299.95
712.28	298.98
712.61	298.00
712.95	297.08
713.28	296.20
713.61	295.29
713.95	294.40
714.28	293.57
714.61	292.69
714.95	291.84
715.28	290.98
715.61	290.11
715.95	289.22
716.28	288.39
716.61	287.53
716.95	286.66
717.28	285.89
717.61	285.14
717.94	284.39
718.28	283.62
718.61	282.87
718.94	282.17
719.27	281.53
719.61	280.84
719.94	280.12
720.27	279.39
720.60	278.72
720.94	278.07
721.27	277.47
721.60	276.89
721.93	276.27
722.27	275.71
722.60	275.18
722.93	274.64
723.26	274.10
723.59	273.55
723.93	273.06
724.26	272.48
724.59	271.91
724.92	271.42
725.25	270.88
725.59	270.38
725.92	269.88
726.25	269.36
726.58	268.85
726.91	268.37
727.24	267.94
727.57	267.46
727.91	266.99
728.24	266.48
728.57	265.99
728.90	265.54
729.23	265.03
729.56	264.59
729.89	264.13
730.22	263.64
730.55	263.15
730.89	262.69
731.22	262.29
731.55	261.82
731.88	261.40
732.21	260.99
732.54	260.55
732.87	260.10
733.20	259.69
733.53	259.32
733.86	258.99
734.19	258.56
734.52	258.16
734.85	257.83
735.18	257.45
735.51	257.11
735.84	256.75
736.17	256.42
736.50	256.00
736.83	255.76
737.16	255.45
737.49	255.14
737.82	254.81
738.15	254.47
738.48	254.17
738.81	253.83
739.14	253.47
739.47	253.17
739.80	252.86
740.13	252.57
740.46	252.23
740.79	251.88
741.12	251.56
741.45	251.25
741.78	250.86
742.11	250.55
742.44	250.21
742.77	249.93
743.10	249.63
743.43	249.33
743.75	248.93
744.08	248.77
744.41	248.50
744.74	248.22
745.07	247.92
745.40	247.66
745.73	247.43
746.06	247.17
746.39	246.90
746.71	246.61
747.04	246.32
747.37	246.06
747.70	245.82
748.03	245.56
748.36	245.36
748.68	245.16
749.01	244.90
749.34	244.64
749.67	244.38
750.00	244.16
750.33	244.03
750.65	243.80
750.98	243.46
751.31	243.22
751.64	243.00
751.97	242.83
752.29	242.61
752.62	242.33
752.95	242.15
753.28	241.92
753.60	241.72
753.93	241.55
754.26	241.36
754.59	241.12
754.91	240.92
755.24	240.69
755.57	240.50
755.90	240.33
756.22	240.14
756.55	239.95
756.88	239.75
757.20	239.51
757.53	239.29
757.86	239.11
758.19	238.94
758.51	238.73
758.84	238.53
759.17	238.34
759.49	238.19
759.82	238.06
760.15	237.92
760.47	237.78
760.80	237.60
761.13	237.45
761.45	237.25
761.78	237.14
762.11	236.99
762.43	236.82
762.76	236.69
763.08	236.59
763.41	236.47
763.74	236.31
764.06	236.14
764.39	236.03
764.71	235.88
765.04	235.72
765.37	235.61
765.69	235.47
766.02	235.38
766.34	235.25
766.67	235.08
767.00	234.97
767.32	234.89
767.65	234.83
767.97	234.74
768.30	234.67
768.62	234.52
768.95	234.40
769.27	234.28
769.60	234.16
769.92	234.06
770.25	233.91
770.57	233.79
770.90	233.69
771.22	233.58
771.55	233.50
771.87	233.43
772.20	233.33
772.52	233.31
772.85	233.31
773.17	233.20
773.50	233.12
773.82	233.02
774.15	232.88
774.47	232.73
774.80	232.65
775.12	232.55
775.45	232.44
775.77	232.36
776.09	232.28
776.42	232.25
776.74	232.16
777.07	232.08
777.39	232.04
777.72	231.95
778.04	231.89
778.36	231.80
778.69	231.74
779.01	231.70
779.33	231.55
779.66	231.36
779.98	231.34
780.31	231.26
780.63	231.23
780.95	231.20
781.28	231.11
781.60	231.00
781.92	230.94
782.25	230.89
782.57	230.85
782.89	230.77
783.22	230.65
783.54	230.57
783.86	230.51
784.19	230.43
784.51	230.40
784.83	230.36
785.16	230.32
785.48	230.24
785.80	230.16
786.12	230.12
786.45	230.08
786.77	230.00
787.09	229.93
