SpectraSuite Data File
++++++++++++++++++++++++++++++++++++
Date: Fri Feb 01 16:02:00 EST 2013
User: group
Dark Spectrum Present: No
Reference Spectrum Present: No
Number of Sampled Component Spectra: 1
Spectrometers: USB2E7196
Integration Time (usec): 35000 (USB2E7196)
Spectra Averaged: 100 (USB2E7196)
Boxcar Smoothing: 10 (USB2E7196)
Correct for Electrical Dark: No (USB2E7196)
Strobe/Lamp Enabled: No (USB2E7196)
Correct for Detector Non-linearity: No (USB2E7196)
Correct for Stray Light: No (USB2E7196)
Number of Pixels in Processed Spectrum: 2048
>>>>>Begin Processed Spectral Data<<<<<
339.09	0.00
339.48	215.07
339.86	216.31
340.24	217.91
340.63	218.18
341.01	222.14
341.39	221.25
341.78	222.53
342.16	223.90
342.54	224.25
342.93	212.92
343.31	223.68
343.69	224.18
344.07	224.64
344.46	225.05
344.84	225.44
345.22	225.62
345.60	225.86
345.99	226.05
346.37	226.20
346.75	226.29
347.13	226.35
347.52	226.43
347.90	226.50
348.28	226.54
348.66	226.60
349.05	226.64
349.43	226.70
349.81	226.75
350.19	226.81
350.57	226.86
350.96	226.98
351.34	227.05
351.72	227.13
352.10	227.24
352.48	227.32
352.87	227.41
353.25	227.52
353.63	227.61
354.01	227.70
354.39	227.77
354.77	227.87
355.15	227.98
355.54	228.02
355.92	228.03
356.30	228.09
356.68	228.20
357.06	228.28
357.44	228.33
357.82	228.40
358.20	228.45
358.58	228.54
358.97	228.57
359.35	228.65
359.73	228.74
360.11	228.78
360.49	228.80
360.87	228.85
361.25	228.92
361.63	228.98
362.01	229.05
362.39	229.09
362.77	229.15
363.15	229.17
363.53	229.19
363.91	229.23
364.29	229.26
364.67	229.21
365.05	229.20
365.43	229.24
365.81	229.25
366.19	229.31
366.57	229.34
366.95	229.36
367.33	229.35
367.71	229.34
368.09	229.35
368.47	229.34
368.85	229.33
369.23	229.35
369.61	229.28
369.99	229.24
370.37	229.20
370.75	229.21
371.13	229.12
371.51	229.06
371.89	229.03
372.27	228.97
372.65	228.91
373.03	228.88
373.41	228.82
373.78	228.74
374.16	228.64
374.54	228.57
374.92	228.49
375.30	228.42
375.68	228.36
376.06	228.31
376.44	228.21
376.82	228.10
377.19	228.01
377.57	227.94
377.95	227.90
378.33	227.81
378.71	227.69
379.09	227.65
379.47	227.62
379.84	227.52
380.22	227.45
380.60	227.37
380.98	227.29
381.36	227.22
381.73	227.19
382.11	227.15
382.49	227.08
382.87	226.99
383.25	226.93
383.62	226.96
384.00	226.85
384.38	226.86
384.76	226.85
385.13	226.83
385.51	226.78
385.89	226.68
386.27	226.67
386.64	226.62
387.02	226.56
387.40	226.50
387.78	226.48
388.15	226.46
388.53	226.42
388.91	226.39
389.29	226.33
389.66	226.27
390.04	226.23
390.42	226.20
390.79	226.20
391.17	226.17
391.55	226.05
391.92	226.06
392.30	226.05
392.68	226.04
393.05	226.02
393.43	226.03
393.81	226.03
394.18	226.05
394.56	226.08
394.94	226.14
395.31	226.15
395.69	226.23
396.06	226.26
396.44	226.31
396.82	226.34
397.19	226.44
397.57	226.51
397.95	226.57
398.32	226.61
398.70	226.65
399.07	226.76
399.45	226.83
399.82	226.92
400.20	226.96
400.58	227.04
400.95	227.09
401.33	227.19
401.70	227.37
402.08	227.46
402.45	227.55
402.83	227.63
403.20	227.77
403.58	227.81
403.95	227.95
404.33	228.09
404.71	228.23
405.08	228.41
405.46	228.54
405.83	228.64
406.21	228.81
406.58	228.99
406.96	229.13
407.33	229.31
407.70	229.51
408.08	229.78
408.45	229.98
408.83	230.22
409.20	230.45
409.58	230.58
409.95	230.85
410.33	231.13
410.70	231.40
411.08	231.68
411.45	232.01
411.82	232.31
412.20	232.65
412.57	233.08
412.95	233.35
413.32	233.77
413.69	234.21
414.07	234.63
414.44	235.10
414.82	235.62
415.19	236.17
415.56	236.68
415.94	237.21
416.31	237.80
416.68	238.41
417.06	239.09
417.43	239.82
417.81	240.57
418.18	241.34
418.55	242.16
418.93	243.03
419.30	243.93
419.67	244.88
420.04	245.80
420.42	246.78
420.79	247.98
421.16	249.12
421.54	250.34
421.91	251.58
422.28	252.83
422.66	254.11
423.03	255.40
423.40	256.77
423.77	258.17
424.15	259.63
424.52	261.13
424.89	262.74
425.26	264.24
425.64	265.65
426.01	267.21
426.38	268.89
426.75	270.55
427.13	272.23
427.50	274.01
427.87	275.89
428.24	277.75
428.61	279.49
428.99	281.40
429.36	283.47
429.73	285.49
430.10	287.48
430.47	289.57
430.85	291.70
431.22	293.92
431.59	296.30
431.96	298.53
432.33	301.01
432.70	303.40
433.08	306.23
433.45	308.93
433.82	311.57
434.19	314.43
434.56	317.25
434.93	319.94
435.30	322.59
435.68	325.52
436.05	328.35
436.42	331.10
436.79	333.64
437.16	336.36
437.53	339.18
437.90	341.99
438.27	344.71
438.64	347.56
439.01	350.16
439.38	352.41
439.75	354.62
440.13	357.11
440.50	359.43
440.87	361.25
441.24	363.12
441.61	365.25
441.98	366.77
442.35	368.61
442.72	370.46
443.09	372.25
443.46	373.20
443.83	373.77
444.20	374.32
444.57	375.12
444.94	375.35
445.31	375.70
445.68	376.07
446.05	376.14
446.42	375.72
446.79	375.25
447.16	374.77
447.53	374.42
447.90	373.22
448.27	372.04
448.64	370.48
449.01	369.33
449.37	367.39
449.74	365.49
450.11	363.20
450.48	360.71
450.85	358.15
451.22	356.02
451.59	354.00
451.96	352.06
452.33	349.48
452.70	347.15
453.07	344.33
453.43	341.41
453.80	338.67
454.17	335.97
454.54	333.49
454.91	330.79
455.28	328.14
455.65	325.71
456.02	323.30
456.38	321.18
456.75	318.58
457.12	316.32
457.49	314.08
457.86	311.87
458.23	310.08
458.59	308.07
458.96	306.00
459.33	304.18
459.70	302.32
460.07	300.82
460.43	299.12
460.80	297.51
461.17	296.10
461.54	294.62
461.91	293.20
462.27	291.74
462.64	290.52
463.01	289.14
463.38	287.84
463.74	286.46
464.11	285.29
464.48	284.24
464.85	283.15
465.21	282.27
465.58	281.39
465.95	280.24
466.32	279.32
466.68	278.43
467.05	277.49
467.42	276.62
467.78	275.69
468.15	274.79
468.52	274.16
468.88	273.27
469.25	272.49
469.62	271.90
469.98	271.21
470.35	270.55
470.72	269.95
471.08	269.26
471.45	268.75
471.82	268.20
472.18	267.60
472.55	267.11
472.92	266.58
473.28	266.15
473.65	265.69
474.02	265.26
474.38	264.87
474.75	264.57
475.11	264.23
475.48	263.98
475.85	263.76
476.21	263.49
476.58	263.31
476.94	263.19
477.31	263.01
477.67	262.89
478.04	262.77
478.41	262.70
478.77	262.75
479.14	262.65
479.50	262.65
479.87	262.72
480.23	262.84
480.60	262.95
480.96	263.00
481.33	263.21
481.69	263.42
482.06	263.57
482.42	263.75
482.79	263.97
483.15	264.28
483.52	264.65
483.88	264.99
484.25	265.37
484.61	265.79
484.98	266.24
485.34	266.80
485.71	267.42
486.07	268.03
486.44	268.61
486.80	269.31
487.17	270.05
487.53	270.88
487.90	271.77
488.26	272.70
488.62	273.73
488.99	274.75
489.35	275.80
489.72	276.94
490.08	278.12
490.44	279.41
490.81	280.77
491.17	282.15
491.54	283.68
491.90	285.26
492.26	286.92
492.63	288.68
492.99	290.48
493.36	292.40
493.72	294.46
494.08	296.59
494.45	298.86
494.81	301.20
495.17	303.59
495.54	306.13
495.90	308.82
496.26	311.63
496.63	314.61
496.99	317.71
497.35	321.00
497.72	324.45
498.08	327.95
498.44	331.64
498.80	335.60
499.17	339.60
499.53	343.75
499.89	348.11
500.26	352.60
500.62	357.29
500.98	362.20
501.34	367.28
501.71	372.66
502.07	378.15
502.43	383.79
502.79	389.68
503.16	395.78
503.52	402.09
503.88	408.47
504.24	415.10
504.60	422.03
504.97	429.18
505.33	436.53
505.69	444.20
506.05	452.02
506.41	459.81
506.78	467.98
507.14	476.44
507.50	485.15
507.86	494.20
508.22	503.38
508.59	512.62
508.95	522.26
509.31	532.03
509.67	542.12
510.03	552.38
510.39	562.92
510.75	573.70
511.12	584.64
511.48	595.95
511.84	607.38
512.20	618.94
512.56	630.87
512.92	643.02
513.28	655.40
513.64	667.85
514.00	680.59
514.37	693.55
514.73	706.58
515.09	719.62
515.45	732.91
515.81	746.51
516.17	760.47
516.53	774.57
516.89	788.70
517.25	802.84
517.61	817.33
517.97	831.69
518.33	846.08
518.69	860.77
519.05	875.71
519.41	890.89
519.77	906.42
520.13	921.92
520.49	937.30
520.85	952.75
521.21	968.35
521.57	984.59
521.93	1000.25
522.29	1016.69
522.65	1032.90
523.01	1049.15
523.37	1065.08
523.73	1081.20
524.09	1097.19
524.45	1113.41
524.81	1130.05
525.17	1146.87
525.53	1163.88
525.89	1180.83
526.25	1197.69
526.61	1214.02
526.97	1230.72
527.33	1247.07
527.68	1263.54
528.04	1280.01
528.40	1296.51
528.76	1313.56
529.12	1330.09
529.48	1347.03
529.84	1363.05
530.20	1379.80
530.56	1396.75
530.91	1414.13
531.27	1430.82
531.63	1447.33
531.99	1464.02
532.35	1479.87
532.71	1495.60
533.07	1511.76
533.42	1527.58
533.78	1543.51
534.14	1559.82
534.50	1575.13
534.86	1591.07
535.21	1606.23
535.57	1622.14
535.93	1637.63
536.29	1652.41
536.65	1667.37
537.00	1682.14
537.36	1697.27
537.72	1711.72
538.08	1726.05
538.44	1739.86
538.79	1753.79
539.15	1767.45
539.51	1781.18
539.87	1795.56
540.22	1809.35
540.58	1823.11
540.94	1836.36
541.29	1849.19
541.65	1861.80
542.01	1874.97
542.37	1887.30
542.72	1899.63
543.08	1911.33
543.44	1923.74
543.79	1935.00
544.15	1946.04
544.51	1957.47
544.87	1968.49
545.22	1979.09
545.58	1989.34
545.94	1998.96
546.29	2008.78
546.65	2018.61
547.01	2027.79
547.36	2036.48
547.72	2044.92
548.07	2052.65
548.43	2060.86
548.79	2069.02
549.14	2076.47
549.50	2083.78
549.86	2091.30
550.21	2098.69
550.57	2105.77
550.92	2112.22
551.28	2119.20
551.64	2126.31
551.99	2132.96
552.35	2139.16
552.70	2145.41
553.06	2151.30
553.41	2157.70
553.77	2163.78
554.13	2169.87
554.48	2176.10
554.84	2181.51
555.19	2186.90
555.55	2192.14
555.90	2196.62
556.26	2201.43
556.61	2206.29
556.97	2210.57
557.32	2214.67
557.68	2218.84
558.03	2223.24
558.39	2227.09
558.74	2231.78
559.10	2235.61
559.45	2239.30
559.81	2243.59
560.16	2247.47
560.52	2250.75
560.87	2254.20
561.23	2256.78
561.58	2259.82
561.94	2262.21
562.29	2264.62
562.64	2267.02
563.00	2269.57
563.35	2273.10
563.71	2276.21
564.06	2279.39
564.42	2282.22
564.77	2284.94
565.12	2287.10
565.48	2288.95
565.83	2290.73
566.19	2292.12
566.54	2292.91
566.89	2293.93
567.25	2294.48
567.60	2295.73
567.96	2297.35
568.31	2298.35
568.66	2299.47
569.02	2299.92
569.37	2300.22
569.72	2301.06
570.08	2301.35
570.43	2301.41
570.78	2300.69
571.14	2299.15
571.49	2297.85
571.84	2297.66
572.20	2296.46
572.55	2295.56
572.90	2294.02
573.26	2292.77
573.61	2291.15
573.96	2289.42
574.31	2286.40
574.67	2283.49
575.02	2279.93
575.37	2276.61
575.72	2272.57
576.08	2269.26
576.43	2266.02
576.78	2262.39
577.13	2259.36
577.49	2256.41
577.84	2253.01
578.19	2249.43
578.54	2245.81
578.90	2241.47
579.25	2235.87
579.60	2230.93
579.95	2225.79
580.30	2220.75
580.66	2215.55
581.01	2210.39
581.36	2205.55
581.71	2201.40
582.06	2196.72
582.42	2192.22
582.77	2186.99
583.12	2182.51
583.47	2177.83
583.82	2172.77
584.17	2167.55
584.53	2161.92
584.88	2156.24
585.23	2150.31
585.58	2144.77
585.93	2139.48
586.28	2134.74
586.63	2129.66
586.98	2124.56
587.34	2119.96
587.69	2115.21
588.04	2109.97
588.39	2104.40
588.74	2097.95
589.09	2091.93
589.44	2085.35
589.79	2079.40
590.14	2073.83
590.49	2067.29
590.84	2060.91
591.19	2054.86
591.54	2048.47
591.89	2041.11
592.25	2034.24
592.60	2027.06
592.95	2019.46
593.30	2012.03
593.65	2004.62
594.00	1997.71
594.35	1990.47
594.70	1982.59
595.05	1975.31
595.40	1967.99
595.75	1960.44
596.10	1954.21
596.45	1947.54
596.80	1941.40
597.15	1934.71
597.50	1927.65
597.85	1921.30
598.19	1914.70
598.54	1907.52
598.89	1900.85
599.24	1895.00
599.59	1888.30
599.94	1882.19
600.29	1875.81
600.64	1869.30
600.99	1861.84
601.34	1854.92
601.69	1847.91
602.04	1840.86
602.39	1833.41
602.74	1826.55
603.08	1819.85
603.43	1813.25
603.78	1805.92
604.13	1798.67
604.48	1791.31
604.83	1784.27
605.18	1777.19
605.53	1769.16
605.87	1761.15
606.22	1753.90
606.57	1745.98
606.92	1738.67
607.27	1731.33
607.62	1724.55
607.96	1717.12
608.31	1710.38
608.66	1702.79
609.01	1695.25
609.36	1687.64
609.70	1679.74
610.05	1671.55
610.40	1663.85
610.75	1655.36
611.10	1647.60
611.44	1639.18
611.79	1631.25
612.14	1622.69
612.49	1613.52
612.83	1605.11
613.18	1597.07
613.53	1588.88
613.88	1580.20
614.22	1571.78
614.57	1563.34
614.92	1555.16
615.27	1547.62
615.61	1539.27
615.96	1531.20
616.31	1523.61
616.65	1516.36
617.00	1508.81
617.35	1501.22
617.70	1492.81
618.04	1484.43
618.39	1476.21
618.74	1468.57
619.08	1460.39
619.43	1452.83
619.78	1446.01
620.12	1438.85
620.47	1431.28
620.82	1423.18
621.16	1415.90
621.51	1408.51
621.85	1400.94
622.20	1392.48
622.55	1384.12
622.89	1376.30
623.24	1368.68
623.59	1361.37
623.93	1353.72
624.28	1346.46
624.62	1339.02
624.97	1331.98
625.32	1325.24
625.66	1318.25
626.01	1311.08
626.35	1303.48
626.70	1295.71
627.04	1287.95
627.39	1280.24
627.73	1272.90
628.08	1266.09
628.43	1258.76
628.77	1251.30
629.12	1243.75
629.46	1236.66
629.81	1229.28
630.15	1222.04
630.50	1214.64
630.84	1206.38
631.19	1198.53
631.53	1191.03
631.88	1183.51
632.22	1175.81
632.57	1168.48
632.91	1160.89
633.26	1153.38
633.60	1146.07
633.95	1138.96
634.29	1131.90
634.64	1125.18
634.98	1117.82
635.32	1110.54
635.67	1103.98
636.01	1097.42
636.36	1090.62
636.70	1084.02
637.05	1077.43
637.39	1070.96
637.73	1064.44
638.08	1058.52
638.42	1052.44
638.77	1046.00
639.11	1039.32
639.45	1032.98
639.80	1026.28
640.14	1019.87
640.49	1013.40
640.83	1007.06
641.17	1000.79
641.52	994.46
641.86	987.99
642.20	982.13
642.55	975.89
642.89	969.33
643.23	962.78
643.58	956.88
643.92	950.76
644.26	944.62
644.61	938.61
644.95	932.64
645.29	926.07
645.64	919.36
645.98	913.01
646.32	907.23
646.66	901.20
647.01	895.38
647.35	889.69
647.69	883.83
648.04	878.32
648.38	872.49
648.72	866.47
649.06	860.43
649.41	854.55
649.75	848.58
650.09	842.63
650.43	836.81
650.78	830.70
651.12	824.64
651.46	818.94
651.80	813.23
652.14	807.74
652.49	802.38
652.83	797.20
653.17	791.55
653.51	785.71
653.85	780.28
654.20	774.67
654.54	768.63
654.88	762.90
655.22	757.04
655.56	751.46
655.90	746.02
656.25	740.75
656.59	735.38
656.93	730.22
657.27	725.07
657.61	719.62
657.95	714.48
658.29	709.47
658.64	704.31
658.98	698.95
659.32	693.46
659.66	688.21
660.00	682.87
660.34	677.82
660.68	673.00
661.02	667.92
661.36	663.14
661.70	658.70
662.05	654.40
662.39	650.07
662.73	645.59
663.07	641.22
663.41	636.81
663.75	632.31
664.09	627.75
664.43	623.36
664.77	619.29
665.11	615.07
665.45	610.91
665.79	606.82
666.13	602.76
666.47	598.72
666.81	594.55
667.15	590.50
667.49	586.68
667.83	582.91
668.17	578.99
668.51	574.98
668.85	570.91
669.19	567.03
669.53	563.16
669.87	559.22
670.21	555.51
670.55	551.81
670.89	548.34
671.23	544.95
671.57	541.44
671.91	537.82
672.25	534.33
672.58	530.82
672.92	527.41
673.26	524.16
673.60	521.02
673.94	517.87
674.28	514.89
674.62	511.90
674.96	508.73
675.30	505.81
675.64	502.82
675.97	500.07
676.31	497.13
676.65	494.20
676.99	491.52
677.33	488.66
677.67	485.86
678.01	482.85
678.34	479.86
678.68	477.03
679.02	474.23
679.36	471.49
679.70	468.73
680.04	465.92
680.37	463.06
680.71	460.28
681.05	457.70
681.39	455.01
681.73	452.33
682.06	449.81
682.40	447.26
682.74	444.74
683.08	442.16
683.42	439.57
683.75	437.07
684.09	434.46
684.43	431.97
684.77	429.47
685.10	427.09
685.44	424.82
685.78	422.51
686.12	420.27
686.45	417.95
686.79	415.67
687.13	413.50
687.46	411.34
687.80	409.17
688.14	406.95
688.48	404.91
688.81	402.69
689.15	400.51
689.49	398.36
689.82	396.35
690.16	394.25
690.50	392.34
690.83	390.42
691.17	388.50
691.51	386.60
691.84	384.77
692.18	382.86
692.52	380.83
692.85	378.91
693.19	377.05
693.52	375.16
693.86	373.39
694.20	371.56
694.53	369.75
694.87	367.90
695.21	366.12
695.54	364.31
695.88	362.57
696.21	360.84
696.55	359.16
696.88	357.41
697.22	355.77
697.56	354.23
697.89	352.59
698.23	350.98
698.56	349.39
698.90	347.84
699.23	346.21
699.57	344.71
699.90	343.16
700.24	341.61
700.58	340.13
700.91	338.60
701.25	337.19
701.58	335.84
701.92	334.50
702.25	333.11
702.59	331.71
702.92	330.41
703.26	329.12
703.59	327.87
703.93	326.72
704.26	325.50
704.60	324.09
704.93	322.78
705.26	321.56
705.60	320.35
705.93	319.17
706.27	318.09
706.60	317.03
706.94	315.94
707.27	314.81
707.61	313.77
707.94	312.76
708.27	311.69
708.61	310.63
708.94	309.59
709.28	308.63
709.61	307.72
709.94	306.78
710.28	305.76
710.61	304.78
710.95	303.71
711.28	302.80
711.61	301.89
711.95	301.01
712.28	300.04
712.61	299.04
712.95	298.15
713.28	297.30
713.61	296.42
713.95	295.56
714.28	294.72
714.61	293.86
714.95	293.01
715.28	292.17
715.61	291.25
715.95	290.39
716.28	289.49
716.61	288.63
716.95	287.79
717.28	287.05
717.61	286.25
717.94	285.48
718.28	284.67
718.61	283.95
718.94	283.23
719.27	282.55
719.61	281.94
719.94	281.23
720.27	280.47
720.60	279.77
720.94	279.13
721.27	278.54
721.60	277.93
721.93	277.33
722.27	276.77
722.60	276.25
722.93	275.70
723.26	275.21
723.59	274.62
723.93	274.05
724.26	273.47
724.59	272.91
724.92	272.40
725.25	271.87
725.59	271.35
725.92	270.85
726.25	270.35
726.58	269.85
726.91	269.34
727.24	268.90
727.57	268.46
727.91	267.93
728.24	267.46
728.57	266.95
728.90	266.47
729.23	265.96
729.56	265.53
729.89	265.04
730.22	264.53
730.55	264.10
730.89	263.67
731.22	263.23
731.55	262.84
731.88	262.42
732.21	261.98
732.54	261.54
732.87	261.08
733.20	260.68
733.53	260.29
733.86	259.97
734.19	259.57
734.52	259.15
734.85	258.84
735.18	258.44
735.51	258.09
735.84	257.77
736.17	257.44
736.50	257.07
736.83	256.86
737.16	256.54
737.49	256.20
737.82	255.86
738.15	255.52
738.48	255.17
738.81	254.82
739.14	254.54
739.47	254.28
739.80	254.00
740.13	253.69
740.46	253.37
740.79	253.04
741.12	252.74
741.45	252.42
741.78	252.08
742.11	251.78
742.44	251.48
742.77	251.20
743.10	250.87
743.43	250.57
743.75	250.18
744.08	250.04
744.41	249.76
744.74	249.52
745.07	249.25
745.40	249.01
745.73	248.77
746.06	248.47
746.39	248.16
746.71	247.88
747.04	247.61
747.37	247.35
747.70	247.08
748.03	246.84
748.36	246.64
748.68	246.41
749.01	246.16
749.34	245.93
749.67	245.66
750.00	245.46
750.33	245.29
750.65	245.11
750.98	244.77
751.31	244.57
751.64	244.31
751.97	244.17
752.29	243.98
752.62	243.72
752.95	243.49
753.28	243.30
753.60	243.13
753.93	242.92
754.26	242.72
754.59	242.51
754.91	242.28
755.24	242.09
755.57	241.91
755.90	241.73
756.22	241.51
756.55	241.30
756.88	241.10
757.20	240.86
757.53	240.63
757.86	240.45
758.19	240.27
758.51	240.12
758.84	239.89
759.17	239.67
759.49	239.55
759.82	239.45
760.15	239.31
760.47	239.15
760.80	238.98
761.13	238.85
761.45	238.68
761.78	238.56
762.11	238.39
762.43	238.26
762.76	238.15
763.08	238.05
763.41	237.95
763.74	237.81
764.06	237.64
764.39	237.51
764.71	237.37
765.04	237.22
765.37	237.09
765.69	236.97
766.02	236.84
766.34	236.68
766.67	236.53
767.00	236.38
767.32	236.32
767.65	236.24
767.97	236.12
768.30	236.01
768.62	235.88
768.95	235.76
769.27	235.62
769.60	235.51
769.92	235.40
770.25	235.27
770.57	235.14
770.90	235.06
771.22	234.93
771.55	234.82
771.87	234.74
772.20	234.64
772.52	234.62
772.85	234.64
773.17	234.56
773.50	234.42
773.82	234.34
774.15	234.20
774.47	234.06
774.80	233.98
775.12	233.88
775.45	233.80
775.77	233.73
776.09	233.65
776.42	233.54
776.74	233.46
777.07	233.38
777.39	233.32
777.72	233.25
778.04	233.21
778.36	233.14
778.69	233.10
779.01	233.01
779.33	232.85
779.66	232.67
779.98	232.59
780.31	232.58
780.63	232.52
780.95	232.48
781.28	232.43
781.60	232.31
781.92	232.27
782.25	232.22
782.57	232.15
782.89	232.06
783.22	231.99
783.54	231.93
783.86	231.83
784.19	231.78
784.51	231.75
784.83	231.70
785.16	231.63
785.48	231.56
785.80	231.53
786.12	231.52
786.45	231.50
786.77	231.48
787.09	231.43
