SpectraSuite Data File
++++++++++++++++++++++++++++++++++++
Date: Fri Feb 01 15:32:58 EST 2013
User: group
Dark Spectrum Present: No
Reference Spectrum Present: No
Number of Sampled Component Spectra: 1
Spectrometers: USB2E7196
Integration Time (usec): 35000 (USB2E7196)
Spectra Averaged: 100 (USB2E7196)
Boxcar Smoothing: 10 (USB2E7196)
Correct for Electrical Dark: No (USB2E7196)
Strobe/Lamp Enabled: No (USB2E7196)
Correct for Detector Non-linearity: No (USB2E7196)
Correct for Stray Light: No (USB2E7196)
Number of Pixels in Processed Spectrum: 2048
>>>>>Begin Processed Spectral Data<<<<<
339.09	0.00
339.48	215.17
339.86	216.39
340.24	217.75
340.63	219.18
341.01	222.06
341.39	221.66
341.78	223.59
342.16	224.54
342.54	225.32
342.93	213.27
343.31	224.04
343.69	224.54
344.07	225.02
344.46	225.43
344.84	225.80
345.22	226.02
345.60	226.27
345.99	226.45
346.37	226.58
346.75	226.67
347.13	226.75
347.52	226.81
347.90	226.87
348.28	226.89
348.66	226.92
349.05	226.93
349.43	226.94
349.81	226.98
350.19	227.02
350.57	227.05
350.96	227.10
351.34	227.18
351.72	227.29
352.10	227.34
352.48	227.39
352.87	227.46
353.25	227.52
353.63	227.59
354.01	227.64
354.39	227.69
354.77	227.74
355.15	227.84
355.54	227.91
355.92	227.96
356.30	228.02
356.68	228.19
357.06	228.23
357.44	228.28
357.82	228.33
358.20	228.43
358.58	228.47
358.97	228.55
359.35	228.62
359.73	228.70
360.11	228.77
360.49	228.83
360.87	228.87
361.25	228.92
361.63	229.00
362.01	229.04
362.39	229.06
362.77	229.11
363.15	229.12
363.53	229.15
363.91	229.20
364.29	229.25
364.67	229.12
365.05	229.17
365.43	229.21
365.81	229.25
366.19	229.28
366.57	229.37
366.95	229.35
367.33	229.32
367.71	229.32
368.09	229.32
368.47	229.31
368.85	229.33
369.23	229.32
369.61	229.24
369.99	229.26
370.37	229.27
370.75	229.32
371.13	229.29
371.51	229.25
371.89	229.22
372.27	229.19
372.65	229.19
373.03	229.15
373.41	229.11
373.78	229.08
374.16	228.97
374.54	228.88
374.92	228.83
375.30	228.75
375.68	228.68
376.06	228.63
376.44	228.55
376.82	228.49
377.19	228.43
377.57	228.41
377.95	228.28
378.33	228.20
378.71	228.04
379.09	228.00
379.47	227.94
379.84	227.85
380.22	227.73
380.60	227.64
380.98	227.59
381.36	227.50
381.73	227.37
382.11	227.34
382.49	227.27
382.87	227.20
383.25	227.19
383.62	227.25
384.00	227.17
384.38	227.12
384.76	227.06
385.13	227.02
385.51	226.95
385.89	226.89
386.27	226.83
386.64	226.77
387.02	226.70
387.40	226.62
387.78	226.60
388.15	226.58
388.53	226.54
388.91	226.50
389.29	226.44
389.66	226.44
390.04	226.38
390.42	226.37
390.79	226.38
391.17	226.33
391.55	226.20
391.92	226.18
392.30	226.21
392.68	226.18
393.05	226.19
393.43	226.17
393.81	226.19
394.18	226.21
394.56	226.24
394.94	226.26
395.31	226.27
395.69	226.29
396.06	226.32
396.44	226.36
396.82	226.38
397.19	226.50
397.57	226.53
397.95	226.59
398.32	226.62
398.70	226.66
399.07	226.73
399.45	226.80
399.82	226.88
400.20	226.91
400.58	227.00
400.95	227.06
401.33	227.16
401.70	227.29
402.08	227.42
402.45	227.51
402.83	227.61
403.20	227.74
403.58	227.84
403.95	228.01
404.33	228.14
404.71	228.28
405.08	228.45
405.46	228.59
405.83	228.77
406.21	228.94
406.58	229.09
406.96	229.24
407.33	229.42
407.70	229.62
408.08	229.90
408.45	230.15
408.83	230.36
409.20	230.60
409.58	230.80
409.95	231.03
410.33	231.29
410.70	231.58
411.08	231.89
411.45	232.21
411.82	232.50
412.20	232.85
412.57	233.26
412.95	233.54
413.32	233.97
413.69	234.35
414.07	234.77
414.44	235.23
414.82	235.72
415.19	236.29
415.56	236.81
415.94	237.37
416.31	238.00
416.68	238.64
417.06	239.36
417.43	240.04
417.81	240.85
418.18	241.63
418.55	242.45
418.93	243.29
419.30	244.20
419.67	245.15
420.04	246.11
420.42	247.12
420.79	248.32
421.16	249.48
421.54	250.70
421.91	251.92
422.28	253.21
422.66	254.55
423.03	255.84
423.40	257.18
423.77	258.57
424.15	259.98
424.52	261.49
424.89	263.04
425.26	264.61
425.64	265.99
426.01	267.63
426.38	269.30
426.75	271.01
427.13	272.72
427.50	274.53
427.87	276.41
428.24	278.22
428.61	279.98
428.99	281.91
429.36	283.98
429.73	286.04
430.10	288.04
430.47	290.11
430.85	292.20
431.22	294.48
431.59	296.86
431.96	299.08
432.33	301.50
432.70	303.97
433.08	306.76
433.45	309.41
433.82	312.00
434.19	314.87
434.56	317.62
434.93	320.30
435.30	322.91
435.68	325.76
436.05	328.61
436.42	331.36
436.79	333.89
437.16	336.58
437.53	339.39
437.90	342.25
438.27	344.98
438.64	347.83
439.01	350.42
439.38	352.66
439.75	354.85
440.13	357.38
440.50	359.67
440.87	361.50
441.24	363.49
441.61	365.65
441.98	367.13
442.35	369.00
442.72	370.82
443.09	372.66
443.46	373.66
443.83	374.25
444.20	374.75
444.57	375.60
444.94	375.91
445.31	376.26
445.68	376.58
446.05	376.66
446.42	376.29
446.79	375.86
447.16	375.42
447.53	375.11
447.90	373.99
448.27	372.84
448.64	371.28
449.01	370.12
449.37	368.15
449.74	366.22
450.11	363.95
450.48	361.51
450.85	358.93
451.22	356.83
451.59	354.79
451.96	352.80
452.33	350.16
452.70	347.79
453.07	345.02
453.43	342.11
453.80	339.32
454.17	336.64
454.54	334.05
454.91	331.34
455.28	328.65
455.65	326.14
456.02	323.67
456.38	321.51
456.75	318.85
457.12	316.58
457.49	314.39
457.86	312.23
458.23	310.35
458.59	308.32
458.96	306.23
459.33	304.40
459.70	302.62
460.07	301.13
460.43	299.40
460.80	297.78
461.17	296.32
461.54	294.87
461.91	293.46
462.27	292.04
462.64	290.78
463.01	289.42
463.38	288.13
463.74	286.80
464.11	285.63
464.48	284.59
464.85	283.47
465.21	282.64
465.58	281.69
465.95	280.60
466.32	279.67
466.68	278.75
467.05	277.88
467.42	276.98
467.78	276.06
468.15	275.20
468.52	274.51
468.88	273.67
469.25	272.88
469.62	272.26
469.98	271.60
470.35	270.93
470.72	270.33
471.08	269.70
471.45	269.13
471.82	268.57
472.18	268.00
472.55	267.57
472.92	267.01
473.28	266.56
473.65	266.12
474.02	265.68
474.38	265.30
474.75	264.94
475.11	264.61
475.48	264.32
475.85	264.09
476.21	263.86
476.58	263.62
476.94	263.46
477.31	263.26
477.67	263.10
478.04	263.01
478.41	262.94
478.77	262.96
479.14	262.91
479.50	262.95
479.87	262.99
480.23	263.09
480.60	263.16
480.96	263.25
481.33	263.43
481.69	263.64
482.06	263.85
482.42	264.03
482.79	264.26
483.15	264.58
483.52	264.95
483.88	265.27
484.25	265.73
484.61	266.17
484.98	266.60
485.34	267.17
485.71	267.71
486.07	268.31
486.44	268.88
486.80	269.58
487.17	270.29
487.53	271.11
487.90	271.94
488.26	272.87
488.62	273.84
488.99	274.82
489.35	275.86
489.72	276.97
490.08	278.18
490.44	279.44
490.81	280.73
491.17	282.05
491.54	283.54
491.90	285.04
492.26	286.65
492.63	288.39
492.99	290.12
493.36	292.05
493.72	294.08
494.08	296.17
494.45	298.39
494.81	300.79
495.17	303.22
495.54	305.80
495.90	308.48
496.26	311.29
496.63	314.27
496.99	317.43
497.35	320.72
497.72	324.11
498.08	327.63
498.44	331.33
498.80	335.23
499.17	339.29
499.53	343.45
499.89	347.82
500.26	352.33
500.62	357.06
500.98	362.03
501.34	367.11
501.71	372.43
502.07	377.97
502.43	383.58
502.79	389.41
503.16	395.49
503.52	401.81
503.88	408.22
504.24	414.88
504.60	421.76
504.97	428.84
505.33	436.21
505.69	443.92
506.05	451.70
506.41	459.65
506.78	467.80
507.14	476.31
507.50	485.04
507.86	494.10
508.22	503.29
508.59	512.47
508.95	522.09
509.31	531.91
509.67	541.91
510.03	552.21
510.39	562.74
510.75	573.56
511.12	584.46
511.48	595.83
511.84	607.29
512.20	618.76
512.56	630.76
512.92	642.94
513.28	655.24
513.64	667.71
514.00	680.41
514.37	693.35
514.73	706.39
515.09	719.50
515.45	732.78
515.81	746.41
516.17	760.46
516.53	774.58
516.89	788.75
517.25	802.99
517.61	817.42
517.97	831.93
518.33	846.34
518.69	861.16
519.05	876.08
519.41	891.30
519.77	906.91
520.13	922.37
520.49	937.87
520.85	953.38
521.21	969.21
521.57	985.45
521.93	1001.25
522.29	1017.71
522.65	1033.98
523.01	1050.20
523.37	1066.24
523.73	1082.44
524.09	1098.52
524.45	1114.83
524.81	1131.55
525.17	1148.46
525.53	1165.37
525.89	1182.30
526.25	1199.16
526.61	1215.57
526.97	1232.36
527.33	1248.87
527.68	1265.55
528.04	1282.00
528.40	1298.61
528.76	1315.60
529.12	1332.20
529.48	1349.22
529.84	1365.14
530.20	1381.73
530.56	1398.71
530.91	1416.13
531.27	1432.93
531.63	1449.53
531.99	1466.30
532.35	1482.22
532.71	1498.08
533.07	1514.37
533.42	1530.27
533.78	1546.37
534.14	1562.76
534.50	1578.03
534.86	1593.99
535.21	1609.24
535.57	1625.23
535.93	1640.82
536.29	1655.65
536.65	1670.82
537.00	1685.58
537.36	1701.08
537.72	1715.75
538.08	1730.37
538.44	1744.30
538.79	1758.20
539.15	1771.94
539.51	1785.69
539.87	1800.22
540.22	1813.98
540.58	1827.77
540.94	1841.23
541.29	1854.11
541.65	1866.84
542.01	1880.18
542.37	1892.42
542.72	1904.83
543.08	1916.60
543.44	1928.96
543.79	1940.20
544.15	1951.17
544.51	1962.85
544.87	1973.89
545.22	1984.69
545.58	1994.89
545.94	2004.53
546.29	2014.33
546.65	2024.09
547.01	2033.29
547.36	2041.96
547.72	2050.48
548.07	2058.38
548.43	2066.52
548.79	2074.70
549.14	2082.28
549.50	2089.71
549.86	2097.49
550.21	2104.82
550.57	2112.01
550.92	2118.62
551.28	2125.78
551.64	2132.94
551.99	2139.42
552.35	2145.59
552.70	2151.78
553.06	2157.67
553.41	2164.19
553.77	2170.28
554.13	2176.37
554.48	2182.46
554.84	2187.86
555.19	2193.17
555.55	2198.38
555.90	2202.75
556.26	2207.47
556.61	2212.23
556.97	2216.31
557.32	2220.48
557.68	2224.72
558.03	2229.07
558.39	2232.74
558.74	2237.34
559.10	2241.07
559.45	2244.63
559.81	2248.91
560.16	2252.77
560.52	2256.01
560.87	2259.49
561.23	2262.28
561.58	2265.29
561.94	2267.93
562.29	2270.36
562.64	2273.07
563.00	2275.63
563.35	2279.34
563.71	2282.46
564.06	2285.42
564.42	2288.23
564.77	2290.76
565.12	2292.85
565.48	2294.66
565.83	2296.60
566.19	2297.87
566.54	2298.92
566.89	2300.23
567.25	2300.71
567.60	2301.98
567.96	2303.63
568.31	2304.26
568.66	2305.21
569.02	2305.71
569.37	2306.02
569.72	2306.77
570.08	2306.84
570.43	2306.78
570.78	2306.06
571.14	2304.64
571.49	2303.39
571.84	2303.08
572.20	2301.78
572.55	2300.71
572.90	2299.11
573.26	2297.70
573.61	2296.02
573.96	2294.19
574.31	2291.02
574.67	2287.89
575.02	2284.20
575.37	2280.73
575.72	2276.96
576.08	2273.72
576.43	2270.31
576.78	2266.49
577.13	2263.31
577.49	2260.11
577.84	2256.57
578.19	2252.77
578.54	2248.97
578.90	2244.74
579.25	2239.20
579.60	2234.31
579.95	2229.26
580.30	2224.16
580.66	2218.78
581.01	2213.74
581.36	2208.69
581.71	2204.41
582.06	2200.04
582.42	2195.48
582.77	2190.41
583.12	2185.72
583.47	2180.75
583.82	2175.68
584.17	2170.37
584.53	2164.87
584.88	2159.16
585.23	2153.29
585.58	2147.79
585.93	2142.27
586.28	2137.45
586.63	2132.38
586.98	2127.21
587.34	2122.50
587.69	2117.68
588.04	2112.54
588.39	2106.81
588.74	2100.29
589.09	2094.14
589.44	2087.25
589.79	2081.21
590.14	2075.47
590.49	2068.88
590.84	2062.47
591.19	2056.46
591.54	2050.01
591.89	2042.50
592.25	2035.68
592.60	2028.50
592.95	2020.90
593.30	2013.47
593.65	2005.73
594.00	1998.75
594.35	1991.57
594.70	1983.49
595.05	1976.22
595.40	1968.91
595.75	1961.31
596.10	1955.04
596.45	1948.26
596.80	1942.12
597.15	1935.40
597.50	1928.22
597.85	1921.68
598.19	1915.05
598.54	1907.93
598.89	1901.27
599.24	1895.37
599.59	1888.56
599.94	1882.32
600.29	1875.84
600.64	1869.34
600.99	1861.90
601.34	1854.85
601.69	1847.72
602.04	1840.68
602.39	1833.19
602.74	1826.34
603.08	1819.57
603.43	1812.85
603.78	1805.52
604.13	1798.18
604.48	1790.82
604.83	1783.93
605.18	1776.94
605.53	1768.83
605.87	1760.72
606.22	1753.55
606.57	1745.48
606.92	1738.25
607.27	1731.10
607.62	1724.19
607.96	1716.82
608.31	1710.18
608.66	1702.59
609.01	1694.97
609.36	1687.49
609.70	1679.46
610.05	1671.25
610.40	1663.70
610.75	1655.38
611.10	1647.67
611.44	1639.26
611.79	1631.28
612.14	1622.50
612.49	1613.38
612.83	1605.09
613.18	1597.03
613.53	1588.76
613.88	1580.23
614.22	1571.96
614.57	1563.18
614.92	1555.13
615.27	1547.61
615.61	1539.29
615.96	1531.23
616.31	1523.60
616.65	1516.21
617.00	1508.69
617.35	1501.03
617.70	1492.65
618.04	1484.11
618.39	1475.92
618.74	1468.29
619.08	1460.01
619.43	1452.48
619.78	1445.55
620.12	1438.37
620.47	1430.82
620.82	1422.69
621.16	1415.28
621.51	1407.66
621.85	1400.15
622.20	1391.58
622.55	1383.09
622.89	1375.29
623.24	1367.76
623.59	1360.33
623.93	1352.74
624.28	1345.55
624.62	1338.03
624.97	1330.80
625.32	1324.04
625.66	1317.02
626.01	1309.81
626.35	1302.36
626.70	1294.62
627.04	1286.81
627.39	1279.05
627.73	1271.59
628.08	1264.65
628.43	1257.37
628.77	1249.96
629.12	1242.33
629.46	1235.24
629.81	1227.94
630.15	1220.65
630.50	1213.11
630.84	1204.91
631.19	1197.03
631.53	1189.50
631.88	1181.93
632.22	1174.38
632.57	1167.00
632.91	1159.41
633.26	1152.06
633.60	1144.74
633.95	1137.79
634.29	1130.80
634.64	1124.11
634.98	1116.80
635.32	1109.68
635.67	1103.14
636.01	1096.58
636.36	1089.81
636.70	1083.26
637.05	1076.60
637.39	1070.24
637.73	1063.66
638.08	1057.94
638.42	1051.92
638.77	1045.42
639.11	1038.78
639.45	1032.39
639.80	1025.79
640.14	1019.33
640.49	1012.75
640.83	1006.44
641.17	1000.07
641.52	993.75
641.86	987.26
642.20	981.43
642.55	975.11
642.89	968.59
643.23	962.03
643.58	956.31
643.92	950.12
644.26	944.12
644.61	937.95
644.95	932.02
645.29	925.31
645.64	918.55
645.98	912.21
646.32	906.44
646.66	900.35
647.01	894.59
647.35	888.97
647.69	883.21
648.04	877.62
648.38	871.86
648.72	865.81
649.06	859.72
649.41	853.79
649.75	847.79
650.09	841.79
650.43	835.91
650.78	829.67
651.12	823.70
651.46	817.90
651.80	812.21
652.14	806.79
652.49	801.43
652.83	796.30
653.17	790.63
653.51	784.85
653.85	779.42
654.20	773.68
654.54	767.67
654.88	761.81
655.22	755.97
655.56	750.25
655.90	744.80
656.25	739.54
656.59	734.23
656.93	729.18
657.27	724.10
657.61	718.72
657.95	713.71
658.29	708.67
658.64	703.43
658.98	698.07
659.32	692.66
659.66	687.44
660.00	682.16
660.34	677.29
660.68	672.41
661.02	667.38
661.36	662.79
661.70	658.26
662.05	653.95
662.39	649.57
662.73	645.12
663.07	640.80
663.41	636.45
663.75	631.93
664.09	627.40
664.43	622.98
664.77	618.88
665.11	614.63
665.45	610.51
665.79	606.46
666.13	602.40
666.47	598.30
666.81	594.08
667.15	589.95
667.49	586.00
667.83	582.20
668.17	578.31
668.51	574.23
668.85	570.22
669.19	566.41
669.53	562.61
669.87	558.74
670.21	555.03
670.55	551.36
670.89	547.93
671.23	544.48
671.57	540.96
671.91	537.41
672.25	533.95
672.58	530.41
672.92	527.04
673.26	523.87
673.60	520.75
673.94	517.75
674.28	514.84
674.62	511.91
674.96	508.72
675.30	505.79
675.64	502.85
675.97	500.09
676.31	497.22
676.65	494.27
676.99	491.58
677.33	488.74
677.67	485.90
678.01	482.91
678.34	479.90
678.68	477.06
679.02	474.24
679.36	471.43
679.70	468.78
680.04	465.98
680.37	463.11
680.71	460.30
681.05	457.64
681.39	454.91
681.73	452.24
682.06	449.81
682.40	447.29
682.74	444.74
683.08	442.17
683.42	439.62
683.75	437.16
684.09	434.59
684.43	432.12
684.77	429.65
685.10	427.22
685.44	424.93
685.78	422.61
686.12	420.34
686.45	418.07
686.79	415.74
687.13	413.56
687.46	411.43
687.80	409.28
688.14	407.07
688.48	405.00
688.81	402.73
689.15	400.57
689.49	398.40
689.82	396.37
690.16	394.32
690.50	392.29
690.83	390.36
691.17	388.38
691.51	386.51
691.84	384.68
692.18	382.82
692.52	380.85
692.85	378.93
693.19	377.11
693.52	375.27
693.86	373.47
694.20	371.73
694.53	369.86
694.87	368.03
695.21	366.27
695.54	364.49
695.88	362.75
696.21	361.02
696.55	359.35
696.88	357.66
697.22	356.01
697.56	354.43
697.89	352.73
698.23	351.14
698.56	349.51
698.90	347.88
699.23	346.19
699.57	344.64
699.90	343.12
700.24	341.56
700.58	340.04
700.91	338.50
701.25	337.04
701.58	335.69
701.92	334.34
702.25	332.94
702.59	331.57
702.92	330.21
703.26	328.87
703.59	327.56
703.93	326.39
704.26	325.16
704.60	323.85
704.93	322.64
705.26	321.43
705.60	320.24
705.93	319.11
706.27	318.14
706.60	317.08
706.94	316.02
707.27	314.91
707.61	313.86
707.94	312.90
708.27	311.83
708.61	310.78
708.94	309.75
709.28	308.78
709.61	307.79
709.94	306.91
710.28	305.92
710.61	304.95
710.95	303.87
711.28	302.95
711.61	302.02
711.95	301.05
712.28	300.09
712.61	299.10
712.95	298.14
713.28	297.22
713.61	296.36
713.95	295.45
714.28	294.59
714.61	293.71
714.95	292.82
715.28	291.99
715.61	291.09
715.95	290.27
716.28	289.44
716.61	288.63
716.95	287.80
717.28	287.06
717.61	286.32
717.94	285.58
718.28	284.78
718.61	284.04
718.94	283.36
719.27	282.67
719.61	282.06
719.94	281.42
720.27	280.71
720.60	280.03
720.94	279.41
721.27	278.84
721.60	278.31
721.93	277.71
722.27	277.11
722.60	276.60
722.93	276.03
723.26	275.46
723.59	274.88
723.93	274.33
724.26	273.79
724.59	273.24
724.92	272.73
725.25	272.22
725.59	271.68
725.92	271.18
726.25	270.69
726.58	270.15
726.91	269.65
727.24	269.19
727.57	268.72
727.91	268.22
728.24	267.71
728.57	267.19
728.90	266.75
729.23	266.24
729.56	265.79
729.89	265.29
730.22	264.81
730.55	264.36
730.89	263.92
731.22	263.46
731.55	263.00
731.88	262.56
732.21	262.14
732.54	261.70
732.87	261.28
733.20	260.87
733.53	260.49
733.86	260.12
734.19	259.73
734.52	259.34
734.85	259.07
735.18	258.67
735.51	258.29
735.84	257.89
736.17	257.59
736.50	257.21
736.83	256.97
737.16	256.63
737.49	256.32
737.82	255.96
738.15	255.64
738.48	255.30
738.81	254.94
739.14	254.61
739.47	254.33
739.80	254.00
740.13	253.68
740.46	253.36
740.79	253.05
741.12	252.72
741.45	252.43
741.78	252.06
742.11	251.76
742.44	251.43
742.77	251.13
743.10	250.81
743.43	250.51
743.75	250.13
744.08	250.00
744.41	249.73
744.74	249.46
745.07	249.15
745.40	248.93
745.73	248.72
746.06	248.41
746.39	248.13
746.71	247.86
747.04	247.59
747.37	247.34
747.70	247.09
748.03	246.83
748.36	246.60
748.68	246.34
749.01	246.10
749.34	245.88
749.67	245.66
750.00	245.45
750.33	245.34
750.65	245.14
750.98	244.76
751.31	244.48
751.64	244.29
751.97	244.15
752.29	243.92
752.62	243.68
752.95	243.48
753.28	243.31
753.60	243.12
753.93	242.92
754.26	242.70
754.59	242.45
754.91	242.26
755.24	242.05
755.57	241.86
755.90	241.67
756.22	241.45
756.55	241.26
756.88	241.07
757.20	240.77
757.53	240.54
757.86	240.43
758.19	240.30
758.51	240.12
758.84	239.92
759.17	239.72
759.49	239.56
759.82	239.48
760.15	239.31
760.47	239.18
760.80	239.02
761.13	238.89
761.45	238.76
761.78	238.62
762.11	238.45
762.43	238.34
762.76	238.20
763.08	238.11
763.41	237.98
763.74	237.84
764.06	237.74
764.39	237.63
764.71	237.46
765.04	237.35
765.37	237.23
765.69	237.07
766.02	236.97
766.34	236.87
766.67	236.70
767.00	236.61
767.32	236.56
767.65	236.52
767.97	236.44
768.30	236.35
768.62	236.28
768.95	236.17
769.27	236.05
769.60	235.96
769.92	235.86
770.25	235.76
770.57	235.68
770.90	235.56
771.22	235.47
771.55	235.41
771.87	235.34
772.20	235.25
772.52	235.26
772.85	235.29
773.17	235.17
773.50	235.06
773.82	234.93
774.15	234.81
774.47	234.67
774.80	234.60
775.12	234.50
775.45	234.41
775.77	234.34
776.09	234.27
776.42	234.21
776.74	234.14
777.07	234.04
777.39	233.93
777.72	233.83
778.04	233.76
778.36	233.66
778.69	233.55
779.01	233.45
779.33	233.30
779.66	233.14
779.98	233.08
780.31	233.04
780.63	233.04
780.95	232.98
781.28	232.91
781.60	232.81
781.92	232.73
782.25	232.66
782.57	232.58
782.89	232.49
783.22	232.42
783.54	232.32
783.86	232.30
784.19	232.26
784.51	232.26
784.83	232.20
785.16	232.13
785.48	232.08
785.80	232.06
786.12	232.03
786.45	231.98
786.77	231.92
787.09	231.86
