SpectraSuite Data File
++++++++++++++++++++++++++++++++++++
Date: Fri Feb 01 15:37:16 EST 2013
User: group
Dark Spectrum Present: No
Reference Spectrum Present: No
Number of Sampled Component Spectra: 1
Spectrometers: USB2E7196
Integration Time (usec): 35000 (USB2E7196)
Spectra Averaged: 100 (USB2E7196)
Boxcar Smoothing: 10 (USB2E7196)
Correct for Electrical Dark: No (USB2E7196)
Strobe/Lamp Enabled: No (USB2E7196)
Correct for Detector Non-linearity: No (USB2E7196)
Correct for Stray Light: No (USB2E7196)
Number of Pixels in Processed Spectrum: 2048
>>>>>Begin Processed Spectral Data<<<<<
339.09	0.00
339.48	214.83
339.86	216.67
340.24	217.97
340.63	218.83
341.01	221.82
341.39	222.02
341.78	222.71
342.16	224.10
342.54	225.23
342.93	213.15
343.31	223.92
343.69	224.46
344.07	224.92
344.46	225.34
344.84	225.72
345.22	225.98
345.60	226.21
345.99	226.42
346.37	226.59
346.75	226.66
347.13	226.73
347.52	226.79
347.90	226.85
348.28	226.86
348.66	226.88
349.05	226.88
349.43	226.96
349.81	226.97
350.19	227.04
350.57	227.09
350.96	227.13
351.34	227.22
351.72	227.28
352.10	227.35
352.48	227.40
352.87	227.46
353.25	227.50
353.63	227.55
354.01	227.60
354.39	227.66
354.77	227.74
355.15	227.82
355.54	227.88
355.92	227.92
356.30	227.97
356.68	228.12
357.06	228.21
357.44	228.25
357.82	228.33
358.20	228.42
358.58	228.47
358.97	228.57
359.35	228.65
359.73	228.77
360.11	228.83
360.49	228.90
360.87	228.96
361.25	229.05
361.63	229.15
362.01	229.21
362.39	229.24
362.77	229.27
363.15	229.32
363.53	229.34
363.91	229.35
364.29	229.41
364.67	229.36
365.05	229.38
365.43	229.42
365.81	229.45
366.19	229.47
366.57	229.50
366.95	229.50
367.33	229.45
367.71	229.42
368.09	229.44
368.47	229.42
368.85	229.38
369.23	229.34
369.61	229.27
369.99	229.28
370.37	229.23
370.75	229.27
371.13	229.22
371.51	229.16
371.89	229.15
372.27	229.10
372.65	229.06
373.03	229.02
373.41	228.95
373.78	228.88
374.16	228.79
374.54	228.71
374.92	228.61
375.30	228.56
375.68	228.47
376.06	228.42
376.44	228.36
376.82	228.32
377.19	228.27
377.57	228.21
377.95	228.11
378.33	228.05
378.71	227.92
379.09	227.86
379.47	227.82
379.84	227.75
380.22	227.66
380.60	227.57
380.98	227.51
381.36	227.46
381.73	227.42
382.11	227.39
382.49	227.35
382.87	227.28
383.25	227.22
383.62	227.26
384.00	227.18
384.38	227.14
384.76	227.07
385.13	227.06
385.51	227.01
385.89	226.95
386.27	226.92
386.64	226.88
387.02	226.82
387.40	226.76
387.78	226.72
388.15	226.70
388.53	226.67
388.91	226.64
389.29	226.59
389.66	226.56
390.04	226.49
390.42	226.48
390.79	226.49
391.17	226.48
391.55	226.37
391.92	226.36
392.30	226.34
392.68	226.35
393.05	226.33
393.43	226.32
393.81	226.31
394.18	226.27
394.56	226.29
394.94	226.35
395.31	226.34
395.69	226.41
396.06	226.46
396.44	226.48
396.82	226.48
397.19	226.56
397.57	226.61
397.95	226.65
398.32	226.67
398.70	226.74
399.07	226.84
399.45	226.90
399.82	226.95
400.20	227.01
400.58	227.06
400.95	227.09
401.33	227.20
401.70	227.37
402.08	227.50
402.45	227.62
402.83	227.73
403.20	227.90
403.58	227.98
403.95	228.10
404.33	228.24
404.71	228.37
405.08	228.57
405.46	228.68
405.83	228.83
406.21	228.98
406.58	229.16
406.96	229.31
407.33	229.49
407.70	229.70
408.08	229.96
408.45	230.18
408.83	230.44
409.20	230.64
409.58	230.80
409.95	231.08
410.33	231.33
410.70	231.55
411.08	231.84
411.45	232.14
411.82	232.43
412.20	232.79
412.57	233.22
412.95	233.52
413.32	233.94
413.69	234.37
414.07	234.81
414.44	235.31
414.82	235.80
415.19	236.38
415.56	236.92
415.94	237.47
416.31	238.14
416.68	238.79
417.06	239.52
417.43	240.21
417.81	240.94
418.18	241.72
418.55	242.59
418.93	243.47
419.30	244.37
419.67	245.30
420.04	246.29
420.42	247.28
420.79	248.46
421.16	249.64
421.54	250.83
421.91	252.03
422.28	253.26
422.66	254.56
423.03	255.84
423.40	257.19
423.77	258.61
424.15	260.05
424.52	261.50
424.89	263.11
425.26	264.63
425.64	266.09
426.01	267.69
426.38	269.34
426.75	271.02
427.13	272.76
427.50	274.57
427.87	276.42
428.24	278.26
428.61	279.97
428.99	281.91
429.36	284.01
429.73	286.08
430.10	288.11
430.47	290.15
430.85	292.26
431.22	294.53
431.59	296.90
431.96	299.10
432.33	301.60
432.70	303.97
433.08	306.84
433.45	309.47
433.82	312.08
434.19	314.99
434.56	317.76
434.93	320.40
435.30	323.01
435.68	325.86
436.05	328.66
436.42	331.42
436.79	333.89
437.16	336.56
437.53	339.42
437.90	342.21
438.27	344.98
438.64	347.85
439.01	350.42
439.38	352.68
439.75	354.87
440.13	357.34
440.50	359.65
440.87	361.48
441.24	363.41
441.61	365.55
441.98	366.98
442.35	368.79
442.72	370.63
443.09	372.41
443.46	373.41
443.83	374.02
444.20	374.55
444.57	375.42
444.94	375.69
445.31	376.00
445.68	376.34
446.05	376.40
446.42	375.97
446.79	375.53
447.16	375.04
447.53	374.67
447.90	373.50
448.27	372.33
448.64	370.73
449.01	369.60
449.37	367.65
449.74	365.80
450.11	363.56
450.48	361.09
450.85	358.57
451.22	356.44
451.59	354.42
451.96	352.48
452.33	349.88
452.70	347.54
453.07	344.70
453.43	341.77
453.80	339.01
454.17	336.31
454.54	333.76
454.91	331.05
455.28	328.40
455.65	325.93
456.02	323.52
456.38	321.38
456.75	318.73
457.12	316.45
457.49	314.24
457.86	312.06
458.23	310.21
458.59	308.17
458.96	306.10
459.33	304.25
459.70	302.39
460.07	300.90
460.43	299.23
460.80	297.65
461.17	296.24
461.54	294.71
461.91	293.33
462.27	291.89
462.64	290.63
463.01	289.32
463.38	288.04
463.74	286.69
464.11	285.53
464.48	284.52
464.85	283.42
465.21	282.55
465.58	281.65
465.95	280.54
466.32	279.69
466.68	278.81
467.05	277.92
467.42	277.06
467.78	276.13
468.15	275.21
468.52	274.55
468.88	273.71
469.25	272.96
469.62	272.30
469.98	271.65
470.35	271.04
470.72	270.44
471.08	269.77
471.45	269.22
471.82	268.68
472.18	268.08
472.55	267.65
472.92	267.13
473.28	266.67
473.65	266.28
474.02	265.82
474.38	265.44
474.75	265.12
475.11	264.75
475.48	264.45
475.85	264.23
476.21	263.97
476.58	263.73
476.94	263.61
477.31	263.47
477.67	263.29
478.04	263.18
478.41	263.09
478.77	263.14
479.14	263.08
479.50	263.09
479.87	263.13
480.23	263.20
480.60	263.27
480.96	263.33
481.33	263.50
481.69	263.69
482.06	263.85
482.42	264.05
482.79	264.31
483.15	264.64
483.52	265.05
483.88	265.39
484.25	265.76
484.61	266.18
484.98	266.62
485.34	267.20
485.71	267.77
486.07	268.37
486.44	268.95
486.80	269.67
487.17	270.41
487.53	271.23
487.90	272.08
488.26	273.02
488.62	274.00
488.99	274.95
489.35	276.01
489.72	277.14
490.08	278.32
490.44	279.56
490.81	280.87
491.17	282.19
491.54	283.66
491.90	285.21
492.26	286.82
492.63	288.52
492.99	290.27
493.36	292.15
493.72	294.21
494.08	296.25
494.45	298.46
494.81	300.82
495.17	303.23
495.54	305.77
495.90	308.40
496.26	311.22
496.63	314.20
496.99	317.29
497.35	320.52
497.72	323.90
498.08	327.43
498.44	331.07
498.80	335.00
499.17	339.03
499.53	343.22
499.89	347.59
500.26	352.12
500.62	356.78
500.98	361.77
501.34	366.81
501.71	372.16
502.07	377.58
502.43	383.15
502.79	389.01
503.16	395.12
503.52	401.42
503.88	407.82
504.24	414.44
504.60	421.37
504.97	428.48
505.33	435.86
505.69	443.58
506.05	451.41
506.41	459.25
506.78	467.40
507.14	475.87
507.50	484.63
507.86	493.69
508.22	502.95
508.59	512.19
508.95	521.78
509.31	531.54
509.67	541.67
510.03	551.99
510.39	562.52
510.75	573.34
511.12	584.28
511.48	595.57
511.84	606.98
512.20	618.45
512.56	630.37
512.92	642.43
513.28	654.70
513.64	667.14
514.00	679.88
514.37	692.87
514.73	705.85
515.09	718.84
515.45	732.13
515.81	745.73
516.17	759.63
516.53	773.70
516.89	787.94
517.25	802.17
517.61	816.58
517.97	831.07
518.33	845.55
518.69	860.29
519.05	875.31
519.41	890.55
519.77	906.19
520.13	921.76
520.49	937.32
520.85	952.85
521.21	968.65
521.57	984.87
521.93	1000.65
522.29	1017.19
522.65	1033.45
523.01	1049.59
523.37	1065.64
523.73	1081.98
524.09	1098.25
524.45	1114.55
524.81	1131.22
525.17	1148.01
525.53	1164.85
525.89	1181.67
526.25	1198.57
526.61	1214.88
526.97	1231.61
527.33	1248.02
527.68	1264.68
528.04	1281.17
528.40	1297.75
528.76	1314.80
529.12	1331.48
529.48	1348.37
529.84	1364.35
530.20	1381.11
530.56	1398.20
530.91	1415.55
531.27	1432.24
531.63	1448.65
531.99	1465.34
532.35	1481.28
532.71	1497.17
533.07	1513.55
533.42	1529.46
533.78	1545.49
534.14	1561.90
534.50	1577.21
534.86	1593.15
535.21	1608.33
535.57	1624.35
535.93	1639.82
536.29	1654.63
536.65	1669.73
537.00	1684.63
537.36	1699.97
537.72	1714.37
538.08	1728.69
538.44	1742.46
538.79	1756.26
539.15	1770.03
539.51	1783.73
539.87	1798.12
540.22	1811.98
540.58	1825.70
540.94	1839.04
541.29	1852.01
541.65	1864.67
542.01	1878.03
542.37	1890.28
542.72	1902.58
543.08	1914.24
543.44	1926.66
543.79	1937.80
544.15	1948.74
544.51	1960.21
544.87	1971.20
545.22	1982.03
545.58	1992.32
545.94	2002.14
546.29	2011.97
546.65	2021.65
547.01	2030.94
547.36	2039.64
547.72	2048.16
548.07	2056.01
548.43	2064.13
548.79	2072.14
549.14	2079.61
549.50	2086.91
549.86	2094.69
550.21	2102.16
550.57	2109.44
550.92	2115.99
551.28	2123.06
551.64	2130.10
551.99	2136.72
552.35	2142.86
552.70	2149.04
553.06	2154.98
553.41	2161.39
553.77	2167.48
554.13	2173.59
554.48	2179.71
554.84	2185.11
555.19	2190.49
555.55	2195.64
555.90	2200.20
556.26	2204.99
556.61	2209.83
556.97	2214.10
557.32	2218.15
557.68	2222.20
558.03	2226.46
558.39	2230.33
558.74	2235.08
559.10	2238.98
559.45	2242.55
559.81	2246.72
560.16	2250.59
560.52	2253.78
560.87	2257.19
561.23	2259.90
561.58	2262.90
561.94	2265.28
562.29	2267.74
562.64	2270.22
563.00	2272.74
563.35	2276.20
563.71	2279.39
564.06	2282.59
564.42	2285.40
564.77	2288.02
565.12	2290.20
565.48	2291.90
565.83	2293.60
566.19	2294.74
566.54	2295.65
566.89	2296.78
567.25	2297.37
567.60	2298.61
567.96	2300.44
568.31	2301.17
568.66	2302.35
569.02	2302.82
569.37	2303.16
569.72	2303.94
570.08	2304.15
570.43	2304.31
570.78	2303.65
571.14	2302.00
571.49	2300.68
571.84	2300.38
572.20	2299.08
572.55	2298.02
572.90	2296.48
573.26	2295.12
573.61	2293.41
573.96	2291.63
574.31	2288.47
574.67	2285.42
575.02	2281.85
575.37	2278.37
575.72	2274.55
576.08	2271.06
576.43	2267.83
576.78	2264.08
577.13	2260.85
577.49	2257.66
577.84	2254.17
578.19	2250.43
578.54	2246.87
578.90	2242.42
579.25	2236.83
579.60	2231.76
579.95	2226.85
580.30	2221.80
580.66	2216.59
581.01	2211.74
581.36	2206.80
581.71	2202.66
582.06	2198.20
582.42	2193.59
582.77	2188.35
583.12	2183.72
583.47	2178.96
583.82	2173.81
584.17	2168.52
584.53	2162.98
584.88	2157.18
585.23	2151.30
585.58	2145.76
585.93	2140.14
586.28	2135.44
586.63	2130.35
586.98	2125.26
587.34	2120.43
587.69	2115.63
588.04	2110.28
588.39	2104.57
588.74	2098.10
589.09	2091.97
589.44	2085.04
589.79	2079.02
590.14	2073.37
590.49	2066.76
590.84	2060.31
591.19	2054.38
591.54	2047.99
591.89	2040.67
592.25	2033.95
592.60	2026.54
592.95	2018.95
593.30	2011.67
593.65	2004.03
594.00	1996.97
594.35	1989.75
594.70	1981.77
595.05	1974.34
595.40	1967.01
595.75	1959.42
596.10	1953.10
596.45	1946.27
596.80	1940.16
597.15	1933.45
597.50	1926.26
597.85	1919.85
598.19	1913.30
598.54	1906.09
598.89	1899.42
599.24	1893.44
599.59	1886.71
599.94	1880.66
600.29	1874.37
600.64	1867.74
600.99	1860.30
601.34	1853.40
601.69	1846.42
602.04	1839.42
602.39	1832.17
602.74	1825.40
603.08	1818.59
603.43	1811.76
603.78	1804.53
604.13	1797.39
604.48	1790.12
604.83	1783.21
605.18	1776.21
605.53	1768.13
605.87	1760.13
606.22	1752.82
606.57	1744.82
606.92	1737.44
607.27	1730.12
607.62	1723.09
607.96	1715.85
608.31	1709.15
608.66	1701.51
609.01	1693.99
609.36	1686.43
609.70	1678.43
610.05	1670.24
610.40	1662.58
610.75	1654.35
611.10	1646.57
611.44	1638.08
611.79	1630.20
612.14	1621.64
612.49	1612.52
612.83	1604.15
613.18	1596.06
613.53	1588.02
613.88	1579.42
614.22	1571.21
614.57	1562.74
614.92	1554.83
615.27	1547.03
615.61	1538.77
615.96	1530.70
616.31	1522.96
616.65	1515.62
617.00	1508.08
617.35	1500.41
617.70	1492.02
618.04	1483.43
618.39	1475.26
618.74	1467.71
619.08	1459.32
619.43	1451.63
619.78	1444.65
620.12	1437.49
620.47	1429.86
620.82	1421.75
621.16	1414.48
621.51	1406.90
621.85	1399.21
622.20	1390.54
622.55	1382.26
622.89	1374.38
623.24	1366.83
623.59	1359.55
623.93	1351.90
624.28	1344.54
624.62	1337.09
624.97	1330.03
625.32	1323.36
625.66	1316.27
626.01	1309.06
626.35	1301.56
626.70	1293.94
627.04	1286.26
627.39	1278.36
627.73	1271.02
628.08	1264.08
628.43	1256.66
628.77	1249.29
629.12	1241.67
629.46	1234.61
629.81	1227.36
630.15	1220.12
630.50	1212.64
630.84	1204.37
631.19	1196.53
631.53	1189.09
631.88	1181.52
632.22	1173.85
632.57	1166.53
632.91	1159.02
633.26	1151.67
633.60	1144.35
633.95	1137.26
634.29	1130.23
634.64	1123.69
634.98	1116.19
635.32	1108.93
635.67	1102.48
636.01	1095.82
636.36	1089.12
636.70	1082.60
637.05	1076.04
637.39	1069.58
637.73	1063.05
638.08	1057.34
638.42	1051.33
638.77	1044.85
639.11	1038.21
639.45	1031.78
639.80	1025.12
640.14	1018.71
640.49	1012.16
640.83	1005.84
641.17	999.52
641.52	993.22
641.86	986.72
642.20	980.93
642.55	974.66
642.89	968.14
643.23	961.64
643.58	955.89
643.92	949.63
644.26	943.48
644.61	937.52
644.95	931.59
645.29	924.92
645.64	918.24
645.98	912.00
646.32	906.22
646.66	900.22
647.01	894.41
647.35	888.79
647.69	882.94
648.04	877.44
648.38	871.67
648.72	865.59
649.06	859.52
649.41	853.64
649.75	847.71
650.09	841.76
650.43	835.91
650.78	829.65
651.12	823.76
651.46	818.07
651.80	812.31
652.14	806.84
652.49	801.49
652.83	796.30
653.17	790.56
653.51	784.88
653.85	779.49
654.20	773.84
654.54	767.86
654.88	762.19
655.22	756.31
655.56	750.69
655.90	745.28
656.25	740.02
656.59	734.77
656.93	729.71
657.27	724.54
657.61	719.11
657.95	714.05
658.29	708.97
658.64	703.78
658.98	698.41
659.32	692.97
659.66	687.70
660.00	682.34
660.34	677.35
660.68	672.43
661.02	667.37
661.36	662.65
661.70	658.10
662.05	653.70
662.39	649.36
662.73	644.85
663.07	640.49
663.41	636.07
663.75	631.52
664.09	626.92
664.43	622.56
664.77	618.47
665.11	614.31
665.45	610.17
665.79	606.02
666.13	601.97
666.47	597.96
666.81	593.81
667.15	589.75
667.49	585.89
667.83	582.06
668.17	578.19
668.51	574.14
668.85	570.12
669.19	566.29
669.53	562.43
669.87	558.53
670.21	554.81
670.55	551.20
670.89	547.80
671.23	544.43
671.57	540.91
671.91	537.34
672.25	533.82
672.58	530.29
672.92	526.88
673.26	523.65
673.60	520.46
673.94	517.33
674.28	514.45
674.62	511.53
674.96	508.46
675.30	505.49
675.64	502.59
675.97	499.79
676.31	496.92
676.65	493.99
676.99	491.33
677.33	488.47
677.67	485.65
678.01	482.57
678.34	479.55
678.68	476.66
679.02	473.85
679.36	471.10
679.70	468.41
680.04	465.69
680.37	462.81
680.71	460.03
681.05	457.51
681.39	454.80
681.73	452.15
682.06	449.63
682.40	447.11
682.74	444.59
683.08	442.08
683.42	439.48
683.75	437.02
684.09	434.48
684.43	432.02
684.77	429.55
685.10	427.26
685.44	424.95
685.78	422.73
686.12	420.51
686.45	418.22
686.79	415.89
687.13	413.67
687.46	411.52
687.80	409.38
688.14	407.13
688.48	405.06
688.81	402.82
689.15	400.65
689.49	398.52
689.82	396.44
690.16	394.34
690.50	392.45
690.83	390.48
691.17	388.46
691.51	386.57
691.84	384.73
692.18	382.79
692.52	380.82
692.85	378.88
693.19	376.98
693.52	375.19
693.86	373.44
694.20	371.73
694.53	369.94
694.87	368.11
695.21	366.34
695.54	364.54
695.88	362.84
696.21	361.15
696.55	359.50
696.88	357.82
697.22	356.15
697.56	354.45
697.89	352.79
698.23	351.20
698.56	349.58
698.90	347.98
699.23	346.35
699.57	344.80
699.90	343.26
700.24	341.69
700.58	340.10
700.91	338.56
701.25	337.08
701.58	335.74
701.92	334.38
702.25	332.99
702.59	331.59
702.92	330.24
703.26	328.92
703.59	327.64
703.93	326.47
704.26	325.27
704.60	324.03
704.93	322.79
705.26	321.57
705.60	320.43
705.93	319.31
706.27	318.27
706.60	317.25
706.94	316.15
707.27	315.04
707.61	314.00
707.94	313.01
708.27	311.91
708.61	310.82
708.94	309.77
709.28	308.81
709.61	307.87
709.94	306.98
710.28	305.91
710.61	304.90
710.95	303.84
711.28	302.91
711.61	301.95
711.95	301.01
712.28	300.03
712.61	299.03
712.95	298.05
713.28	297.15
713.61	296.22
713.95	295.34
714.28	294.52
714.61	293.65
714.95	292.75
715.28	291.90
715.61	291.04
715.95	290.23
716.28	289.35
716.61	288.53
716.95	287.72
717.28	287.03
717.61	286.28
717.94	285.54
718.28	284.70
718.61	283.96
718.94	283.27
719.27	282.64
719.61	281.98
719.94	281.32
720.27	280.66
720.60	279.97
720.94	279.33
721.27	278.72
721.60	278.18
721.93	277.59
722.27	277.05
722.60	276.51
722.93	275.91
723.26	275.41
723.59	274.84
723.93	274.24
724.26	273.69
724.59	273.13
724.92	272.60
725.25	272.12
725.59	271.64
725.92	271.13
726.25	270.57
726.58	270.10
726.91	269.63
727.24	269.14
727.57	268.71
727.91	268.18
728.24	267.74
728.57	267.23
728.90	266.81
729.23	266.32
729.56	265.86
729.89	265.39
730.22	264.85
730.55	264.41
730.89	263.96
731.22	263.48
731.55	263.05
731.88	262.62
732.21	262.20
732.54	261.75
732.87	261.33
733.20	260.97
733.53	260.56
733.86	260.16
734.19	259.72
734.52	259.30
734.85	259.02
735.18	258.60
735.51	258.25
735.84	257.84
736.17	257.48
736.50	257.08
736.83	256.85
737.16	256.53
737.49	256.19
737.82	255.83
738.15	255.52
738.48	255.17
738.81	254.86
739.14	254.51
739.47	254.22
739.80	253.94
740.13	253.64
740.46	253.32
740.79	253.03
741.12	252.75
741.45	252.47
741.78	252.12
742.11	251.85
742.44	251.46
742.77	251.18
743.10	250.89
743.43	250.61
743.75	250.24
744.08	250.11
744.41	249.82
744.74	249.55
745.07	249.26
745.40	249.02
745.73	248.81
746.06	248.56
746.39	248.28
746.71	247.99
747.04	247.71
747.37	247.46
747.70	247.20
748.03	246.96
748.36	246.72
748.68	246.49
749.01	246.23
749.34	246.06
749.67	245.84
750.00	245.64
750.33	245.46
750.65	245.20
750.98	244.89
751.31	244.67
751.64	244.48
751.97	244.34
752.29	244.13
752.62	243.84
752.95	243.62
753.28	243.41
753.60	243.21
753.93	243.06
754.26	242.84
754.59	242.63
754.91	242.41
755.24	242.24
755.57	242.07
755.90	241.90
756.22	241.72
756.55	241.51
756.88	241.31
757.20	241.11
757.53	240.96
757.86	240.74
758.19	240.57
758.51	240.40
758.84	240.20
759.17	240.02
759.49	239.87
759.82	239.78
760.15	239.65
760.47	239.53
760.80	239.32
761.13	239.19
761.45	239.04
761.78	238.91
762.11	238.72
762.43	238.56
762.76	238.39
763.08	238.26
763.41	238.13
763.74	237.99
764.06	237.83
764.39	237.69
764.71	237.59
765.04	237.45
765.37	237.30
765.69	237.15
766.02	237.05
766.34	236.93
766.67	236.75
767.00	236.64
767.32	236.55
767.65	236.51
767.97	236.43
768.30	236.32
768.62	236.18
768.95	236.09
769.27	235.97
769.60	235.90
769.92	235.77
770.25	235.68
770.57	235.54
770.90	235.43
771.22	235.31
771.55	235.19
771.87	235.12
772.20	235.02
772.52	235.02
772.85	235.01
773.17	234.90
773.50	234.79
773.82	234.68
774.15	234.53
774.47	234.40
774.80	234.30
775.12	234.20
775.45	234.14
775.77	234.05
776.09	233.97
776.42	233.89
776.74	233.79
777.07	233.70
777.39	233.64
777.72	233.59
778.04	233.53
778.36	233.47
778.69	233.39
779.01	233.30
779.33	233.13
779.66	232.93
779.98	232.87
780.31	232.83
780.63	232.80
780.95	232.78
781.28	232.73
781.60	232.64
781.92	232.56
782.25	232.50
782.57	232.46
782.89	232.41
783.22	232.36
783.54	232.30
783.86	232.25
784.19	232.21
784.51	232.15
784.83	232.07
785.16	232.02
785.48	231.98
785.80	231.95
786.12	231.91
786.45	231.88
786.77	231.84
787.09	231.78
