SpectraSuite Data File
++++++++++++++++++++++++++++++++++++
Date: Fri Feb 01 16:58:08 EST 2013
User: group
Dark Spectrum Present: No
Reference Spectrum Present: No
Number of Sampled Component Spectra: 1
Spectrometers: USB2E7196
Integration Time (usec): 35000 (USB2E7196)
Spectra Averaged: 100 (USB2E7196)
Boxcar Smoothing: 10 (USB2E7196)
Correct for Electrical Dark: No (USB2E7196)
Strobe/Lamp Enabled: No (USB2E7196)
Correct for Detector Non-linearity: No (USB2E7196)
Correct for Stray Light: No (USB2E7196)
Number of Pixels in Processed Spectrum: 2048
>>>>>Begin Processed Spectral Data<<<<<
339.09	0.00
339.48	212.97
339.86	215.21
340.24	215.92
340.63	217.84
341.01	220.66
341.39	220.56
341.78	221.64
342.16	222.75
342.54	223.53
342.93	211.79
343.31	222.48
343.69	223.02
344.07	223.48
344.46	223.93
344.84	224.30
345.22	224.52
345.60	224.77
345.99	224.95
346.37	225.09
346.75	225.17
347.13	225.22
347.52	225.25
347.90	225.31
348.28	225.34
348.66	225.40
349.05	225.39
349.43	225.40
349.81	225.42
350.19	225.47
350.57	225.53
350.96	225.62
351.34	225.70
351.72	225.81
352.10	225.88
352.48	225.92
352.87	225.95
353.25	225.99
353.63	226.02
354.01	226.08
354.39	226.14
354.77	226.23
355.15	226.30
355.54	226.33
355.92	226.38
356.30	226.47
356.68	226.60
357.06	226.68
357.44	226.74
357.82	226.78
358.20	226.82
358.58	226.89
358.97	226.93
359.35	227.01
359.73	227.08
360.11	227.12
360.49	227.19
360.87	227.22
361.25	227.28
361.63	227.36
362.01	227.41
362.39	227.43
362.77	227.44
363.15	227.46
363.53	227.51
363.91	227.51
364.29	227.56
364.67	227.46
365.05	227.49
365.43	227.54
365.81	227.57
366.19	227.65
366.57	227.68
366.95	227.69
367.33	227.68
367.71	227.65
368.09	227.67
368.47	227.64
368.85	227.65
369.23	227.65
369.61	227.60
369.99	227.60
370.37	227.59
370.75	227.60
371.13	227.59
371.51	227.55
371.89	227.53
372.27	227.46
372.65	227.44
373.03	227.40
373.41	227.34
373.78	227.29
374.16	227.16
374.54	227.06
374.92	226.99
375.30	226.93
375.68	226.84
376.06	226.80
376.44	226.74
376.82	226.68
377.19	226.61
377.57	226.54
377.95	226.46
378.33	226.36
378.71	226.27
379.09	226.23
379.47	226.17
379.84	226.09
380.22	225.98
380.60	225.89
380.98	225.81
381.36	225.74
381.73	225.66
382.11	225.64
382.49	225.60
382.87	225.55
383.25	225.49
383.62	225.58
384.00	225.48
384.38	225.44
384.76	225.42
385.13	225.40
385.51	225.37
385.89	225.33
386.27	225.29
386.64	225.26
387.02	225.19
387.40	225.15
387.78	225.10
388.15	225.10
388.53	225.07
388.91	225.03
389.29	225.01
389.66	225.01
390.04	224.99
390.42	224.98
390.79	224.93
391.17	224.90
391.55	224.77
391.92	224.79
392.30	224.77
392.68	224.70
393.05	224.71
393.43	224.70
393.81	224.70
394.18	224.69
394.56	224.69
394.94	224.73
395.31	224.71
395.69	224.78
396.06	224.80
396.44	224.82
396.82	224.84
397.19	224.90
397.57	224.87
397.95	224.91
398.32	224.96
398.70	225.04
399.07	225.11
399.45	225.14
399.82	225.20
400.20	225.28
400.58	225.35
400.95	225.37
401.33	225.46
401.70	225.62
402.08	225.71
402.45	225.80
402.83	225.91
403.20	226.03
403.58	226.13
403.95	226.25
404.33	226.39
404.71	226.50
405.08	226.67
405.46	226.81
405.83	226.95
406.21	227.09
406.58	227.22
406.96	227.37
407.33	227.54
407.70	227.73
408.08	227.95
408.45	228.17
408.83	228.42
409.20	228.65
409.58	228.83
409.95	229.08
410.33	229.35
410.70	229.58
411.08	229.87
411.45	230.16
411.82	230.45
412.20	230.82
412.57	231.26
412.95	231.53
413.32	231.96
413.69	232.36
414.07	232.79
414.44	233.30
414.82	233.77
415.19	234.33
415.56	234.88
415.94	235.44
416.31	236.07
416.68	236.69
417.06	237.35
417.43	238.00
417.81	238.79
418.18	239.56
418.55	240.39
418.93	241.26
419.30	242.14
419.67	243.09
420.04	244.05
420.42	245.01
420.79	246.23
421.16	247.39
421.54	248.58
421.91	249.79
422.28	251.01
422.66	252.35
423.03	253.64
423.40	254.98
423.77	256.37
424.15	257.79
424.52	259.27
424.89	260.87
425.26	262.46
425.64	263.88
426.01	265.48
426.38	267.14
426.75	268.82
427.13	270.55
427.50	272.35
427.87	274.20
428.24	276.05
428.61	277.75
428.99	279.68
429.36	281.74
429.73	283.78
430.10	285.82
430.47	287.89
430.85	290.01
431.22	292.20
431.59	294.56
431.96	296.76
432.33	299.24
432.70	301.59
433.08	304.31
433.45	306.96
433.82	309.50
434.19	312.34
434.56	315.10
434.93	317.76
435.30	320.35
435.68	323.27
436.05	326.08
436.42	328.86
436.79	331.35
437.16	333.99
437.53	336.78
437.90	339.54
438.27	342.26
438.64	345.04
439.01	347.61
439.38	349.84
439.75	352.02
440.13	354.47
440.50	356.82
440.87	358.68
441.24	360.62
441.61	362.74
441.98	364.20
442.35	365.98
442.72	367.80
443.09	369.58
443.46	370.54
443.83	371.12
444.20	371.63
444.57	372.48
444.94	372.82
445.31	373.14
445.68	373.50
446.05	373.58
446.42	373.21
446.79	372.79
447.16	372.34
447.53	372.04
447.90	370.90
448.27	369.76
448.64	368.20
449.01	367.06
449.37	365.18
449.74	363.35
450.11	361.14
450.48	358.71
450.85	356.22
451.22	354.07
451.59	352.08
451.96	350.16
452.33	347.58
452.70	345.23
453.07	342.45
453.43	339.60
453.80	336.82
454.17	334.18
454.54	331.64
454.91	328.98
455.28	326.29
455.65	323.79
456.02	321.39
456.38	319.26
456.75	316.62
457.12	314.34
457.49	312.10
457.86	309.96
458.23	308.13
458.59	306.12
458.96	304.05
459.33	302.20
459.70	300.33
460.07	298.83
460.43	297.09
460.80	295.51
461.17	294.07
461.54	292.62
461.91	291.18
462.27	289.76
462.64	288.48
463.01	287.16
463.38	285.90
463.74	284.52
464.11	283.36
464.48	282.34
464.85	281.26
465.21	280.41
465.58	279.50
465.95	278.36
466.32	277.45
466.68	276.54
467.05	275.67
467.42	274.80
467.78	273.85
468.15	273.04
468.52	272.34
468.88	271.51
469.25	270.74
469.62	270.16
469.98	269.53
470.35	268.95
470.72	268.38
471.08	267.71
471.45	267.18
471.82	266.67
472.18	266.07
472.55	265.68
472.92	265.20
473.28	264.76
473.65	264.36
474.02	263.92
474.38	263.60
474.75	263.32
475.11	263.02
475.48	262.80
475.85	262.59
476.21	262.39
476.58	262.22
476.94	262.07
477.31	261.89
477.67	261.74
478.04	261.60
478.41	261.55
478.77	261.65
479.14	261.57
479.50	261.59
479.87	261.67
480.23	261.76
480.60	261.80
480.96	261.92
481.33	262.10
481.69	262.30
482.06	262.53
482.42	262.69
482.79	262.92
483.15	263.26
483.52	263.64
483.88	264.01
484.25	264.40
484.61	264.84
484.98	265.28
485.34	265.84
485.71	266.42
486.07	267.01
486.44	267.57
486.80	268.28
487.17	269.02
487.53	269.83
487.90	270.68
488.26	271.63
488.62	272.59
488.99	273.57
489.35	274.64
489.72	275.72
490.08	276.93
490.44	278.18
490.81	279.48
491.17	280.81
491.54	282.30
491.90	283.83
492.26	285.45
492.63	287.23
492.99	289.02
493.36	290.93
493.72	292.98
494.08	295.06
494.45	297.28
494.81	299.63
495.17	302.03
495.54	304.58
495.90	307.30
496.26	310.09
496.63	313.04
496.99	316.15
497.35	319.39
497.72	322.77
498.08	326.29
498.44	329.96
498.80	333.89
499.17	337.91
499.53	342.04
499.89	346.43
500.26	350.88
500.62	355.50
500.98	360.47
501.34	365.55
501.71	370.85
502.07	376.35
502.43	381.99
502.79	387.83
503.16	393.84
503.52	400.02
503.88	406.37
504.24	412.99
504.60	419.82
504.97	426.93
505.33	434.24
505.69	441.90
506.05	449.61
506.41	457.38
506.78	465.49
507.14	473.92
507.50	482.57
507.86	491.53
508.22	500.65
508.59	509.80
508.95	519.27
509.31	529.05
509.67	539.08
510.03	549.17
510.39	559.60
510.75	570.26
511.12	581.09
511.48	592.31
511.84	603.66
512.20	615.03
512.56	626.81
512.92	638.88
513.28	651.08
513.64	663.44
514.00	676.05
514.37	688.77
514.73	701.63
515.09	714.48
515.45	727.65
515.81	741.02
516.17	754.76
516.53	768.75
516.89	782.73
517.25	796.63
517.61	810.87
517.97	825.15
518.33	839.33
518.69	853.98
519.05	868.69
519.41	883.53
519.77	898.91
520.13	914.10
520.49	929.19
520.85	944.28
521.21	959.74
521.57	975.74
521.93	991.31
522.29	1007.38
522.65	1023.32
523.01	1039.25
523.37	1055.01
523.73	1070.95
524.09	1086.71
524.45	1102.56
524.81	1118.88
525.17	1135.25
525.53	1151.82
525.89	1168.39
526.25	1184.77
526.61	1200.93
526.97	1217.41
527.33	1233.47
527.68	1249.78
528.04	1266.00
528.40	1282.27
528.76	1299.01
529.12	1315.16
529.48	1331.70
529.84	1347.41
530.20	1363.73
530.56	1380.30
530.91	1397.41
531.27	1413.86
531.63	1430.05
531.99	1446.43
532.35	1462.05
532.71	1477.88
533.07	1493.68
533.42	1509.31
533.78	1525.14
534.14	1541.00
534.50	1556.04
534.86	1571.61
535.21	1586.52
535.57	1601.96
535.93	1617.12
536.29	1631.56
536.65	1646.37
537.00	1660.77
537.36	1675.84
537.72	1690.14
538.08	1704.25
538.44	1717.76
538.79	1731.30
539.15	1744.57
539.51	1758.01
539.87	1772.11
540.22	1785.43
540.58	1798.87
540.94	1811.95
541.29	1824.53
541.65	1836.96
542.01	1849.83
542.37	1861.80
542.72	1873.85
543.08	1885.50
543.44	1897.63
543.79	1908.75
544.15	1919.60
544.51	1931.00
544.87	1941.63
545.22	1952.21
545.58	1962.39
545.94	1971.99
546.29	1981.69
546.65	1991.57
547.01	2000.81
547.36	2009.30
547.72	2017.69
548.07	2025.58
548.43	2033.53
548.79	2041.32
549.14	2048.75
549.50	2055.92
549.86	2063.54
550.21	2070.86
550.57	2077.89
550.92	2084.54
551.28	2091.41
551.64	2098.26
551.99	2104.66
552.35	2110.91
552.70	2117.05
553.06	2122.98
553.41	2129.28
553.77	2135.28
554.13	2141.17
554.48	2147.15
554.84	2152.88
555.19	2158.07
555.55	2163.36
555.90	2167.94
556.26	2173.00
556.61	2177.71
556.97	2182.27
557.32	2186.53
557.68	2190.68
558.03	2195.13
558.39	2198.66
558.74	2203.48
559.10	2207.43
559.45	2211.27
559.81	2215.46
560.16	2219.34
560.52	2222.75
560.87	2226.13
561.23	2228.84
561.58	2231.85
561.94	2234.52
562.29	2236.67
562.64	2239.55
563.00	2242.08
563.35	2245.51
563.71	2248.58
564.06	2251.89
564.42	2254.82
564.77	2257.56
565.12	2260.05
565.48	2262.21
565.83	2264.35
566.19	2265.71
566.54	2266.65
566.89	2267.85
567.25	2268.59
567.60	2269.87
567.96	2271.70
568.31	2272.74
568.66	2274.19
569.02	2274.87
569.37	2275.43
569.72	2276.57
570.08	2276.79
570.43	2277.04
570.78	2276.87
571.14	2275.64
571.49	2274.47
571.84	2274.28
572.20	2273.33
572.55	2272.45
572.90	2270.81
573.26	2269.66
573.61	2267.96
573.96	2266.58
574.31	2263.83
574.67	2261.08
575.02	2257.72
575.37	2254.32
575.72	2250.77
576.08	2247.31
576.43	2244.11
576.78	2240.57
577.13	2237.57
577.49	2234.59
577.84	2231.20
578.19	2227.58
578.54	2224.25
578.90	2220.25
579.25	2214.78
579.60	2209.97
579.95	2205.11
580.30	2200.45
580.66	2195.42
581.01	2190.83
581.36	2186.14
581.71	2182.22
582.06	2178.00
582.42	2173.91
582.77	2168.90
583.12	2164.60
583.47	2160.24
583.82	2155.59
584.17	2150.55
584.53	2145.27
584.88	2139.91
585.23	2134.58
585.58	2129.34
585.93	2124.08
586.28	2119.51
586.63	2114.68
586.98	2109.78
587.34	2105.11
587.69	2100.23
588.04	2095.25
588.39	2089.74
588.74	2083.25
589.09	2077.30
589.44	2070.81
589.79	2064.65
590.14	2059.30
590.49	2052.74
590.84	2046.41
591.19	2040.57
591.54	2034.18
591.89	2027.09
592.25	2020.47
592.60	2013.26
592.95	2005.80
593.30	1998.54
593.65	1991.06
594.00	1984.26
594.35	1977.18
594.70	1969.43
595.05	1962.49
595.40	1955.23
595.75	1947.87
596.10	1942.03
596.45	1935.41
596.80	1929.50
597.15	1923.32
597.50	1916.49
597.85	1910.22
598.19	1903.85
598.54	1896.92
598.89	1890.47
599.24	1884.57
599.59	1878.20
599.94	1872.06
600.29	1865.97
600.64	1859.46
600.99	1852.27
601.34	1845.59
601.69	1838.67
602.04	1832.06
602.39	1824.85
602.74	1818.28
603.08	1811.70
603.43	1804.89
603.78	1797.67
604.13	1790.33
604.48	1783.09
604.83	1776.20
605.18	1769.56
605.53	1761.67
605.87	1753.74
606.22	1746.61
606.57	1738.81
606.92	1731.47
607.27	1724.60
607.62	1717.74
607.96	1710.70
608.31	1704.32
608.66	1696.72
609.01	1689.31
609.36	1681.70
609.70	1673.74
610.05	1665.69
610.40	1658.05
610.75	1649.97
611.10	1642.48
611.44	1634.10
611.79	1626.10
612.14	1617.45
612.49	1608.13
612.83	1599.80
613.18	1591.76
613.53	1583.75
613.88	1575.23
614.22	1567.01
614.57	1558.30
614.92	1550.30
615.27	1542.73
615.61	1534.37
615.96	1526.33
616.31	1518.75
616.65	1511.47
617.00	1504.00
617.35	1496.35
617.70	1488.16
618.04	1479.70
618.39	1471.50
618.74	1463.99
619.08	1455.73
619.43	1448.11
619.78	1441.24
620.12	1434.09
620.47	1426.53
620.82	1418.37
621.16	1410.99
621.51	1403.37
621.85	1395.75
622.20	1387.19
622.55	1378.79
622.89	1370.87
623.24	1363.36
623.59	1355.90
623.93	1348.37
624.28	1341.16
624.62	1333.72
624.97	1326.55
625.32	1319.65
625.66	1312.57
626.01	1305.45
626.35	1298.18
626.70	1290.58
627.04	1282.96
627.39	1275.13
627.73	1267.83
628.08	1260.87
628.43	1253.74
628.77	1246.38
629.12	1238.89
629.46	1231.87
629.81	1224.48
630.15	1217.28
630.50	1209.90
630.84	1201.79
631.19	1193.89
631.53	1186.38
631.88	1178.86
632.22	1171.24
632.57	1163.97
632.91	1156.38
633.26	1149.07
633.60	1141.60
633.95	1134.42
634.29	1127.34
634.64	1120.76
634.98	1113.37
635.32	1106.35
635.67	1099.58
636.01	1093.02
636.36	1086.28
636.70	1079.62
637.05	1073.09
637.39	1066.59
637.73	1060.10
638.08	1054.19
638.42	1048.16
638.77	1041.75
639.11	1035.23
639.45	1028.79
639.80	1022.25
640.14	1016.00
640.49	1009.39
640.83	1003.13
641.17	997.04
641.52	990.78
641.86	984.28
642.20	978.50
642.55	972.13
642.89	965.72
643.23	959.19
643.58	953.44
643.92	947.38
644.26	941.40
644.61	935.51
644.95	929.56
645.29	923.10
645.64	916.41
645.98	910.08
646.32	904.21
646.66	898.24
647.01	892.48
647.35	886.76
647.69	881.00
648.04	875.48
648.38	869.66
648.72	863.75
649.06	857.79
649.41	851.84
649.75	845.99
650.09	840.09
650.43	834.37
650.78	828.20
651.12	822.24
651.46	816.48
651.80	810.75
652.14	805.35
652.49	799.96
652.83	794.81
653.17	789.18
653.51	783.46
653.85	778.12
654.20	772.45
654.54	766.39
654.88	760.67
655.22	754.80
655.56	749.09
655.90	743.59
656.25	738.39
656.59	733.08
656.93	727.99
657.27	722.88
657.61	717.39
657.95	712.34
658.29	707.33
658.64	702.05
658.98	696.79
659.32	691.34
659.66	686.12
660.00	680.91
660.34	676.01
660.68	671.06
661.02	666.02
661.36	661.36
661.70	656.91
662.05	652.54
662.39	648.29
662.73	643.89
663.07	639.51
663.41	635.07
663.75	630.61
664.09	625.97
664.43	621.56
664.77	617.47
665.11	613.23
665.45	609.02
665.79	604.96
666.13	600.76
666.47	596.68
666.81	592.59
667.15	588.44
667.49	584.46
667.83	580.68
668.17	576.78
668.51	572.73
668.85	568.68
669.19	564.85
669.53	560.99
669.87	557.13
670.21	553.45
670.55	549.82
670.89	546.39
671.23	543.03
671.57	539.51
671.91	535.99
672.25	532.49
672.58	528.97
672.92	525.57
673.26	522.40
673.60	519.15
673.94	516.01
674.28	513.10
674.62	510.23
674.96	507.15
675.30	504.22
675.64	501.34
675.97	498.59
676.31	495.72
676.65	492.81
676.99	490.05
677.33	487.21
677.67	484.38
678.01	481.38
678.34	478.36
678.68	475.48
679.02	472.70
679.36	469.92
679.70	467.21
680.04	464.50
680.37	461.68
680.71	458.97
681.05	456.34
681.39	453.64
681.73	450.98
682.06	448.45
682.40	445.89
682.74	443.30
683.08	440.77
683.42	438.15
683.75	435.68
684.09	433.15
684.43	430.68
684.77	428.26
685.10	425.92
685.44	423.65
685.78	421.46
686.12	419.21
686.45	416.93
686.79	414.64
687.13	412.45
687.46	410.29
687.80	408.11
688.14	405.98
688.48	403.93
688.81	401.67
689.15	399.56
689.49	397.49
689.82	395.45
690.16	393.39
690.50	391.46
690.83	389.49
691.17	387.50
691.51	385.59
691.84	383.74
692.18	381.86
692.52	379.91
692.85	377.90
693.19	376.03
693.52	374.26
693.86	372.49
694.20	370.68
694.53	368.90
694.87	367.08
695.21	365.23
695.54	363.35
695.88	361.60
696.21	359.88
696.55	358.14
696.88	356.39
697.22	354.70
697.56	353.09
697.89	351.45
698.23	349.84
698.56	348.23
698.90	346.63
699.23	344.94
699.57	343.41
699.90	341.86
700.24	340.31
700.58	338.78
700.91	337.31
701.25	335.85
701.58	334.48
701.92	333.10
702.25	331.70
702.59	330.36
702.92	329.06
703.26	327.75
703.59	326.46
703.93	325.30
704.26	324.05
704.60	322.71
704.93	321.41
705.26	320.19
705.60	319.01
705.93	317.81
706.27	316.79
706.60	315.71
706.94	314.66
707.27	313.51
707.61	312.40
707.94	311.30
708.27	310.18
708.61	309.08
708.94	308.08
709.28	307.15
709.61	306.19
709.94	305.21
710.28	304.19
710.61	303.19
710.95	302.10
711.28	301.17
711.61	300.27
711.95	299.37
712.28	298.41
712.61	297.43
712.95	296.53
713.28	295.60
713.61	294.69
713.95	293.76
714.28	292.94
714.61	292.05
714.95	291.25
715.28	290.42
715.61	289.54
715.95	288.65
716.28	287.76
716.61	286.90
716.95	286.08
717.28	285.29
717.61	284.53
717.94	283.79
718.28	283.01
718.61	282.25
718.94	281.54
719.27	280.90
719.61	280.24
719.94	279.56
720.27	278.86
720.60	278.18
720.94	277.61
721.27	277.01
721.60	276.48
721.93	275.87
722.27	275.31
722.60	274.73
722.93	274.21
723.26	273.71
723.59	273.14
723.93	272.59
724.26	272.07
724.59	271.49
724.92	270.98
725.25	270.47
725.59	269.98
725.92	269.48
726.25	268.95
726.58	268.44
726.91	267.93
727.24	267.45
727.57	266.98
727.91	266.47
728.24	266.02
728.57	265.49
728.90	265.01
729.23	264.51
729.56	264.11
729.89	263.61
730.22	263.11
730.55	262.67
730.89	262.27
731.22	261.83
731.55	261.42
731.88	261.00
732.21	260.59
732.54	260.16
732.87	259.73
733.20	259.37
733.53	259.00
733.86	258.61
734.19	258.20
734.52	257.85
734.85	257.52
735.18	257.07
735.51	256.74
735.84	256.41
736.17	256.05
736.50	255.67
736.83	255.49
737.16	255.18
737.49	254.89
737.82	254.51
738.15	254.18
738.48	253.86
738.81	253.55
739.14	253.19
739.47	252.89
739.80	252.60
740.13	252.25
740.46	251.91
740.79	251.59
741.12	251.33
741.45	250.97
741.78	250.60
742.11	250.35
742.44	250.00
742.77	249.67
743.10	249.41
743.43	249.08
743.75	248.66
744.08	248.47
744.41	248.17
744.74	247.91
745.07	247.63
745.40	247.39
745.73	247.13
746.06	246.88
746.39	246.62
746.71	246.29
747.04	246.04
747.37	245.77
747.70	245.52
748.03	245.23
748.36	245.03
748.68	244.81
749.01	244.53
749.34	244.32
749.67	244.09
750.00	243.86
750.33	243.72
750.65	243.50
750.98	243.15
751.31	242.95
751.64	242.72
751.97	242.58
752.29	242.33
752.62	242.08
752.95	241.83
753.28	241.59
753.60	241.41
753.93	241.24
754.26	241.07
754.59	240.83
754.91	240.64
755.24	240.43
755.57	240.21
755.90	240.05
756.22	239.85
756.55	239.65
756.88	239.45
757.20	239.20
757.53	239.02
757.86	238.86
758.19	238.69
758.51	238.53
758.84	238.30
759.17	238.14
759.49	238.00
759.82	237.92
760.15	237.78
760.47	237.67
760.80	237.50
761.13	237.35
761.45	237.25
761.78	237.12
762.11	236.98
762.43	236.85
762.76	236.71
763.08	236.59
763.41	236.45
763.74	236.33
764.06	236.21
764.39	236.09
764.71	235.98
765.04	235.83
765.37	235.71
765.69	235.60
766.02	235.46
766.34	235.33
766.67	235.18
767.00	235.04
767.32	234.95
767.65	234.88
767.97	234.80
768.30	234.69
768.62	234.57
768.95	234.49
769.27	234.40
769.60	234.31
769.92	234.19
770.25	234.08
770.57	233.97
770.90	233.86
771.22	233.74
771.55	233.65
771.87	233.56
772.20	233.45
772.52	233.41
772.85	233.43
773.17	233.32
773.50	233.18
773.82	233.13
774.15	232.96
774.47	232.82
774.80	232.68
775.12	232.57
775.45	232.51
775.77	232.42
776.09	232.32
776.42	232.25
776.74	232.23
777.07	232.14
777.39	232.06
777.72	232.00
778.04	231.93
778.36	231.86
778.69	231.78
779.01	231.74
779.33	231.58
779.66	231.42
779.98	231.36
780.31	231.35
780.63	231.30
780.95	231.24
781.28	231.21
781.60	231.16
781.92	231.10
782.25	231.01
782.57	230.92
782.89	230.85
783.22	230.76
783.54	230.67
783.86	230.62
784.19	230.55
784.51	230.52
784.83	230.41
785.16	230.34
785.48	230.27
785.80	230.19
786.12	230.14
786.45	230.08
786.77	230.02
787.09	229.94
