SpectraSuite Data File
++++++++++++++++++++++++++++++++++++
Date: Fri Feb 01 18:00:02 EST 2013
User: group
Dark Spectrum Present: No
Reference Spectrum Present: No
Number of Sampled Component Spectra: 1
Spectrometers: USB2E7196
Integration Time (usec): 35000 (USB2E7196)
Spectra Averaged: 100 (USB2E7196)
Boxcar Smoothing: 10 (USB2E7196)
Correct for Electrical Dark: No (USB2E7196)
Strobe/Lamp Enabled: No (USB2E7196)
Correct for Detector Non-linearity: No (USB2E7196)
Correct for Stray Light: No (USB2E7196)
Number of Pixels in Processed Spectrum: 2048
>>>>>Begin Processed Spectral Data<<<<<
339.09	0.00
339.48	212.96
339.86	214.28
340.24	216.12
340.63	217.24
341.01	220.17
341.39	219.51
341.78	221.23
342.16	222.44
342.54	222.64
342.93	211.27
343.31	221.98
343.69	222.52
344.07	222.98
344.46	223.39
344.84	223.74
345.22	223.94
345.60	224.20
345.99	224.38
346.37	224.50
346.75	224.60
347.13	224.67
347.52	224.71
347.90	224.77
348.28	224.77
348.66	224.83
349.05	224.83
349.43	224.87
349.81	224.91
350.19	224.94
350.57	225.02
350.96	225.10
351.34	225.14
351.72	225.21
352.10	225.29
352.48	225.35
352.87	225.41
353.25	225.49
353.63	225.53
354.01	225.58
354.39	225.63
354.77	225.69
355.15	225.82
355.54	225.89
355.92	225.91
356.30	225.99
356.68	226.11
357.06	226.19
357.44	226.26
357.82	226.31
358.20	226.38
358.58	226.44
358.97	226.44
359.35	226.53
359.73	226.62
360.11	226.68
360.49	226.74
360.87	226.81
361.25	226.88
361.63	227.02
362.01	227.10
362.39	227.16
362.77	227.21
363.15	227.20
363.53	227.26
363.91	227.30
364.29	227.32
364.67	227.26
365.05	227.31
365.43	227.34
365.81	227.39
366.19	227.48
366.57	227.52
366.95	227.58
367.33	227.59
367.71	227.60
368.09	227.65
368.47	227.66
368.85	227.68
369.23	227.71
369.61	227.63
369.99	227.66
370.37	227.67
370.75	227.73
371.13	227.67
371.51	227.63
371.89	227.64
372.27	227.62
372.65	227.58
373.03	227.53
373.41	227.47
373.78	227.40
374.16	227.29
374.54	227.23
374.92	227.18
375.30	227.11
375.68	227.02
376.06	226.94
376.44	226.87
376.82	226.81
377.19	226.74
377.57	226.66
377.95	226.56
378.33	226.47
378.71	226.34
379.09	226.32
379.47	226.29
379.84	226.22
380.22	226.16
380.60	226.11
380.98	226.06
381.36	226.05
381.73	225.97
382.11	225.95
382.49	225.89
382.87	225.79
383.25	225.75
383.62	225.83
384.00	225.73
384.38	225.67
384.76	225.65
385.13	225.63
385.51	225.62
385.89	225.54
386.27	225.50
386.64	225.51
387.02	225.46
387.40	225.40
387.78	225.38
388.15	225.34
388.53	225.30
388.91	225.28
389.29	225.22
389.66	225.22
390.04	225.18
390.42	225.17
390.79	225.20
391.17	225.18
391.55	225.03
391.92	225.05
392.30	225.04
392.68	225.00
393.05	224.99
393.43	224.98
393.81	224.97
394.18	224.97
394.56	224.93
394.94	224.98
395.31	224.95
395.69	224.95
396.06	224.96
396.44	225.01
396.82	225.00
397.19	225.07
397.57	225.09
397.95	225.13
398.32	225.15
398.70	225.18
399.07	225.26
399.45	225.33
399.82	225.39
400.20	225.45
400.58	225.51
400.95	225.54
401.33	225.62
401.70	225.76
402.08	225.84
402.45	225.93
402.83	226.00
403.20	226.12
403.58	226.23
403.95	226.38
404.33	226.49
404.71	226.66
405.08	226.83
405.46	227.00
405.83	227.12
406.21	227.27
406.58	227.44
406.96	227.63
407.33	227.82
407.70	228.05
408.08	228.36
408.45	228.61
408.83	228.89
409.20	229.15
409.58	229.38
409.95	229.71
410.33	230.04
410.70	230.37
411.08	230.78
411.45	231.20
411.82	231.59
412.20	232.04
412.57	232.54
412.95	232.92
413.32	233.47
413.69	234.06
414.07	234.63
414.44	235.24
414.82	235.85
415.19	236.59
415.56	237.28
415.94	238.01
416.31	238.85
416.68	239.67
417.06	240.61
417.43	241.54
417.81	242.55
418.18	243.61
418.55	244.72
418.93	245.86
419.30	247.04
419.67	248.32
420.04	249.62
420.42	250.98
420.79	252.56
421.16	254.11
421.54	255.65
421.91	257.29
422.28	259.00
422.66	260.80
423.03	262.56
423.40	264.36
423.77	266.26
424.15	268.19
424.52	270.22
424.89	272.39
425.26	274.49
425.64	276.50
426.01	278.64
426.38	280.87
426.75	283.11
427.13	285.46
427.50	287.86
427.87	290.40
428.24	292.88
428.61	295.28
428.99	297.85
429.36	300.76
429.73	303.57
430.10	306.31
430.47	309.07
430.85	311.92
431.22	314.95
431.59	318.16
431.96	321.22
432.33	324.57
432.70	327.80
433.08	331.58
433.45	335.11
433.82	338.62
434.19	342.52
434.56	346.33
434.93	349.92
435.30	353.47
435.68	357.36
436.05	361.18
436.42	364.95
436.79	368.38
437.16	372.04
437.53	375.90
437.90	379.69
438.27	383.38
438.64	387.22
439.01	390.75
439.38	393.75
439.75	396.67
440.13	400.05
440.50	403.19
440.87	405.68
441.24	408.30
441.61	411.29
441.98	413.31
442.35	415.73
442.72	418.27
443.09	420.77
443.46	422.16
443.83	422.98
444.20	423.68
444.57	424.86
444.94	425.18
445.31	425.64
445.68	426.06
446.05	426.22
446.42	425.71
446.79	425.14
447.16	424.58
447.53	424.18
447.90	422.62
448.27	421.04
448.64	418.89
449.01	417.34
449.37	414.61
449.74	412.06
450.11	409.02
450.48	405.66
450.85	402.25
451.22	399.32
451.59	396.59
451.96	393.94
452.33	390.40
452.70	387.24
453.07	383.42
453.43	379.58
453.80	375.84
454.17	372.20
454.54	368.80
454.91	365.13
455.28	361.47
455.65	358.11
456.02	354.71
456.38	351.87
456.75	348.29
457.12	345.26
457.49	342.25
457.86	339.30
458.23	336.79
458.59	333.98
458.96	331.14
459.33	328.65
459.70	326.14
460.07	324.08
460.43	321.73
460.80	319.49
461.17	317.48
461.54	315.44
461.91	313.50
462.27	311.50
462.64	309.80
463.01	308.01
463.38	306.23
463.74	304.48
464.11	302.88
464.48	301.48
464.85	300.00
465.21	298.81
465.58	297.59
465.95	296.07
466.32	294.87
466.68	293.63
467.05	292.37
467.42	291.17
467.78	289.86
468.15	288.67
468.52	287.74
468.88	286.56
469.25	285.48
469.62	284.62
469.98	283.70
470.35	282.81
470.72	281.95
471.08	281.03
471.45	280.27
471.82	279.53
472.18	278.68
472.55	278.02
472.92	277.31
473.28	276.67
473.65	276.03
474.02	275.39
474.38	274.88
474.75	274.40
475.11	273.90
475.48	273.55
475.85	273.23
476.21	272.86
476.58	272.59
476.94	272.37
477.31	272.09
477.67	271.83
478.04	271.63
478.41	271.50
478.77	271.48
479.14	271.34
479.50	271.28
479.87	271.32
480.23	271.36
480.60	271.36
480.96	271.34
481.33	271.50
481.69	271.62
482.06	271.76
482.42	271.93
482.79	272.13
483.15	272.39
483.52	272.74
483.88	273.06
484.25	273.38
484.61	273.76
484.98	274.18
485.34	274.74
485.71	275.32
486.07	275.88
486.44	276.46
486.80	277.17
487.17	277.85
487.53	278.66
487.90	279.51
488.26	280.43
488.62	281.48
488.99	282.45
489.35	283.56
489.72	284.73
490.08	285.98
490.44	287.24
490.81	288.64
491.17	290.02
491.54	291.62
491.90	293.28
492.26	295.01
492.63	296.80
492.99	298.65
493.36	300.64
493.72	302.83
494.08	305.05
494.45	307.39
494.81	309.91
495.17	312.49
495.54	315.20
495.90	318.08
496.26	321.02
496.63	324.15
496.99	327.42
497.35	330.89
497.72	334.47
498.08	338.20
498.44	342.09
498.80	346.27
499.17	350.51
499.53	354.89
499.89	359.55
500.26	364.39
500.62	369.34
500.98	374.60
501.34	379.99
501.71	385.63
502.07	391.41
502.43	397.41
502.79	403.59
503.16	410.06
503.52	416.71
503.88	423.53
504.24	430.58
504.60	437.84
504.97	445.37
505.33	453.09
505.69	461.30
506.05	469.61
506.41	477.98
506.78	486.68
507.14	495.71
507.50	504.99
507.86	514.62
508.22	524.50
508.59	534.36
508.95	544.53
509.31	555.01
509.67	565.85
510.03	576.89
510.39	588.22
510.75	599.80
511.12	611.48
511.48	623.56
511.84	635.87
512.20	648.26
512.56	661.12
512.92	674.26
513.28	687.59
513.64	701.00
514.00	714.65
514.37	728.62
514.73	742.64
515.09	756.65
515.45	770.83
515.81	785.43
516.17	800.43
516.53	815.69
516.89	830.98
517.25	846.27
517.61	861.80
517.97	877.40
518.33	893.02
518.69	908.99
519.05	925.29
519.41	941.80
519.77	958.74
520.13	975.51
520.49	992.26
520.85	1008.95
521.21	1026.05
521.57	1043.80
521.93	1060.86
522.29	1078.74
522.65	1096.52
523.01	1114.34
523.37	1131.98
523.73	1149.78
524.09	1167.35
524.45	1185.32
524.81	1203.69
525.17	1222.18
525.53	1240.80
525.89	1259.37
526.25	1278.05
526.61	1296.16
526.97	1314.57
527.33	1332.86
527.68	1351.28
528.04	1369.58
528.40	1387.94
528.76	1406.87
529.12	1425.30
529.48	1444.25
529.84	1462.21
530.20	1480.81
530.56	1499.66
530.91	1519.05
531.27	1537.82
531.63	1556.45
531.99	1575.02
532.35	1592.87
532.71	1610.69
533.07	1628.97
533.42	1646.93
533.78	1665.05
534.14	1683.34
534.50	1700.81
534.86	1718.75
535.21	1736.01
535.57	1754.09
535.93	1771.78
536.29	1788.67
536.65	1805.88
537.00	1822.68
537.36	1840.21
537.72	1856.91
538.08	1873.70
538.44	1889.62
538.79	1905.71
539.15	1921.39
539.51	1937.34
539.87	1954.08
540.22	1970.17
540.58	1986.06
540.94	2001.56
541.29	2016.66
541.65	2031.65
542.01	2047.09
542.37	2061.66
542.72	2076.30
543.08	2090.29
543.44	2105.12
543.79	2118.71
544.15	2131.92
544.51	2145.82
544.87	2158.92
545.22	2171.98
545.58	2184.45
545.94	2196.44
546.29	2208.53
546.65	2220.68
547.01	2232.11
547.36	2242.90
547.72	2253.35
548.07	2263.57
548.43	2273.88
548.79	2283.81
549.14	2293.37
549.50	2302.67
549.86	2312.27
550.21	2321.58
550.57	2330.80
550.92	2339.22
551.28	2348.22
551.64	2357.19
551.99	2365.77
552.35	2373.83
552.70	2381.69
553.06	2389.49
553.41	2397.68
553.77	2405.40
554.13	2413.43
554.48	2421.41
554.84	2428.86
555.19	2435.87
555.55	2442.69
555.90	2448.86
556.26	2455.72
556.61	2462.04
556.97	2468.15
557.32	2473.85
557.68	2479.64
558.03	2485.47
558.39	2490.67
558.74	2496.77
559.10	2502.35
559.45	2507.37
559.81	2513.19
560.16	2518.69
560.52	2523.28
560.87	2528.00
561.23	2532.23
561.58	2536.30
561.94	2540.28
562.29	2543.82
562.64	2547.96
563.00	2551.82
563.35	2556.81
563.71	2561.11
564.06	2565.79
564.42	2570.05
564.77	2574.06
565.12	2577.71
565.48	2580.83
565.83	2583.95
566.19	2586.48
566.54	2588.27
566.89	2590.66
567.25	2592.36
567.60	2594.55
567.96	2597.44
568.31	2599.47
568.66	2601.67
569.02	2603.38
569.37	2604.40
569.72	2606.16
570.08	2607.25
570.43	2608.04
570.78	2608.25
571.14	2607.40
571.49	2606.38
571.84	2606.62
572.20	2605.96
572.55	2605.41
572.90	2604.26
573.26	2603.42
573.61	2602.08
573.96	2600.97
574.31	2598.20
574.67	2595.56
575.02	2592.34
575.37	2589.11
575.72	2585.37
576.08	2581.83
576.43	2578.59
576.78	2575.08
577.13	2571.77
577.49	2568.49
577.84	2565.18
578.19	2561.30
578.54	2557.68
578.90	2553.72
579.25	2547.80
579.60	2542.67
579.95	2537.44
580.30	2532.20
580.66	2526.71
581.01	2521.52
581.36	2516.17
581.71	2511.80
582.06	2507.06
582.42	2502.38
582.77	2496.65
583.12	2491.76
583.47	2486.88
583.82	2481.55
584.17	2475.83
584.53	2470.00
584.88	2463.98
585.23	2457.65
585.58	2451.58
585.93	2445.59
586.28	2440.29
586.63	2434.93
586.98	2429.35
587.34	2424.25
587.69	2418.92
588.04	2413.09
588.39	2406.84
588.74	2399.61
589.09	2392.75
589.44	2385.22
589.79	2378.17
590.14	2372.02
590.49	2364.51
590.84	2357.32
591.19	2350.47
591.54	2343.34
591.89	2335.26
592.25	2327.82
592.60	2319.69
592.95	2311.24
593.30	2303.03
593.65	2294.34
594.00	2286.23
594.35	2278.01
594.70	2268.76
595.05	2260.74
595.40	2252.44
595.75	2243.94
596.10	2236.89
596.45	2229.22
596.80	2222.23
597.15	2214.93
597.50	2207.04
597.85	2199.59
598.19	2191.84
598.54	2183.87
598.89	2176.14
599.24	2169.30
599.59	2161.72
599.94	2154.44
600.29	2147.08
600.64	2139.43
600.99	2131.07
601.34	2123.29
601.69	2115.25
602.04	2107.30
602.39	2098.70
602.74	2090.80
603.08	2082.99
603.43	2075.14
603.78	2066.69
604.13	2058.23
604.48	2049.67
604.83	2041.47
605.18	2033.77
605.53	2024.63
605.87	2015.29
606.22	2006.85
606.57	1997.49
606.92	1988.59
607.27	1980.38
607.62	1972.31
607.96	1963.88
608.31	1956.08
608.66	1947.18
609.01	1938.33
609.36	1929.54
609.70	1920.10
610.05	1910.75
610.40	1901.61
610.75	1891.83
611.10	1882.73
611.44	1872.72
611.79	1863.37
612.14	1853.16
612.49	1842.24
612.83	1832.34
613.18	1822.76
613.53	1813.22
613.88	1803.16
614.22	1793.49
614.57	1783.17
614.92	1773.72
615.27	1764.87
615.61	1755.10
615.96	1745.61
616.31	1736.51
616.65	1727.88
617.00	1719.01
617.35	1709.89
617.70	1700.32
618.04	1690.42
618.39	1680.66
618.74	1671.74
619.08	1661.81
619.43	1652.95
619.78	1644.78
620.12	1636.38
620.47	1627.50
620.82	1617.81
621.16	1609.06
621.51	1600.08
621.85	1591.18
622.20	1581.21
622.55	1571.24
622.89	1561.97
623.24	1552.85
623.59	1544.13
623.93	1535.28
624.28	1526.81
624.62	1517.99
624.97	1509.35
625.32	1501.28
625.66	1493.21
626.01	1484.79
626.35	1476.28
626.70	1467.17
627.04	1458.20
627.39	1448.99
627.73	1440.18
628.08	1432.19
628.43	1423.66
628.77	1415.09
629.12	1406.35
629.46	1397.91
629.81	1389.11
630.15	1380.54
630.50	1371.95
630.84	1362.51
631.19	1353.09
631.53	1344.06
631.88	1335.19
632.22	1326.38
632.57	1317.83
632.91	1308.92
633.26	1300.35
633.60	1291.61
633.95	1283.12
634.29	1274.75
634.64	1266.92
634.98	1258.43
635.32	1250.14
635.67	1242.31
636.01	1234.52
636.36	1226.51
636.70	1218.81
637.05	1211.12
637.39	1203.51
637.73	1195.93
638.08	1188.93
638.42	1181.85
638.77	1174.45
639.11	1166.81
639.45	1159.20
639.80	1151.39
640.14	1143.93
640.49	1136.22
640.83	1128.92
641.17	1121.70
641.52	1114.31
641.86	1106.70
642.20	1099.84
642.55	1092.24
642.89	1084.79
643.23	1077.00
643.58	1070.17
643.92	1063.05
644.26	1056.09
644.61	1049.08
644.95	1042.10
645.29	1034.55
645.64	1026.74
645.98	1019.42
646.32	1012.47
646.66	1005.61
647.01	998.98
647.35	992.32
647.69	985.44
648.04	978.93
648.38	972.21
648.72	965.37
649.06	958.42
649.41	951.59
649.75	944.80
650.09	937.90
650.43	931.30
650.78	924.17
651.12	917.26
651.46	910.59
651.80	903.90
652.14	897.59
652.49	891.26
652.83	885.28
653.17	878.78
653.51	872.26
653.85	865.96
654.20	859.42
654.54	852.45
654.88	845.93
655.22	839.05
655.56	832.47
655.90	826.06
656.25	819.94
656.59	813.69
656.93	807.77
657.27	801.83
657.61	795.47
657.95	789.63
658.29	783.67
658.64	777.55
658.98	771.49
659.32	765.13
659.66	759.19
660.00	753.12
660.34	747.24
660.68	741.54
661.02	735.66
661.36	730.11
661.70	724.89
662.05	719.83
662.39	714.93
662.73	709.74
663.07	704.72
663.41	699.58
663.75	694.46
664.09	689.22
664.43	684.04
664.77	679.36
665.11	674.40
665.45	669.66
665.79	664.97
666.13	660.16
666.47	655.47
666.81	650.64
667.15	645.86
667.49	641.43
667.83	637.00
668.17	632.52
668.51	627.92
668.85	623.31
669.19	618.83
669.53	614.43
669.87	610.02
670.21	605.75
670.55	601.57
670.89	597.56
671.23	593.67
671.57	589.70
671.91	585.64
672.25	581.65
672.58	577.63
672.92	573.68
673.26	570.01
673.60	566.36
673.94	562.76
674.28	559.42
674.62	556.02
674.96	552.46
675.30	549.10
675.64	545.73
675.97	542.51
676.31	539.21
676.65	535.81
676.99	532.67
677.33	529.33
677.67	526.13
678.01	522.66
678.34	519.20
678.68	515.87
679.02	512.64
679.36	509.43
679.70	506.25
680.04	503.13
680.37	499.88
680.71	496.65
681.05	493.65
681.39	490.55
681.73	487.46
682.06	484.53
682.40	481.55
682.74	478.60
683.08	475.62
683.42	472.60
683.75	469.71
684.09	466.73
684.43	463.88
684.77	461.01
685.10	458.30
685.44	455.56
685.78	452.86
686.12	450.20
686.45	447.54
686.79	444.96
687.13	442.37
687.46	439.85
687.80	437.32
688.14	434.68
688.48	432.21
688.81	429.64
689.15	427.19
689.49	424.71
689.82	422.29
690.16	419.82
690.50	417.55
690.83	415.31
691.17	412.95
691.51	410.75
691.84	408.59
692.18	406.34
692.52	404.11
692.85	401.89
693.19	399.74
693.52	397.55
693.86	395.36
694.20	393.30
694.53	391.22
694.87	389.09
695.21	387.05
695.54	384.94
695.88	382.88
696.21	380.81
696.55	378.83
696.88	376.83
697.22	374.96
697.56	373.05
697.89	371.11
698.23	369.32
698.56	367.42
698.90	365.57
699.23	363.70
699.57	361.83
699.90	360.00
700.24	358.19
700.58	356.45
700.91	354.73
701.25	353.01
701.58	351.38
701.92	349.82
702.25	348.22
702.59	346.65
702.92	345.14
703.26	343.64
703.59	342.18
703.93	340.82
704.26	339.36
704.60	337.88
704.93	336.43
705.26	335.00
705.60	333.66
705.93	332.30
706.27	331.04
706.60	329.82
706.94	328.58
707.27	327.25
707.61	326.01
707.94	324.79
708.27	323.52
708.61	322.26
708.94	321.06
709.28	319.92
709.61	318.79
709.94	317.68
710.28	316.49
710.61	315.34
710.95	314.07
711.28	312.96
711.61	311.84
711.95	310.77
712.28	309.63
712.61	308.46
712.95	307.36
713.28	306.34
713.61	305.30
713.95	304.25
714.28	303.31
714.61	302.29
714.95	301.31
715.28	300.35
715.61	299.35
715.95	298.37
716.28	297.36
716.61	296.35
716.95	295.37
717.28	294.49
717.61	293.60
717.94	292.78
718.28	291.88
718.61	291.07
718.94	290.24
719.27	289.46
719.61	288.69
719.94	287.94
720.27	287.10
720.60	286.34
720.94	285.62
721.27	284.90
721.60	284.22
721.93	283.53
722.27	282.87
722.60	282.23
722.93	281.56
723.26	280.93
723.59	280.31
723.93	279.67
724.26	279.06
724.59	278.37
724.92	277.74
725.25	277.16
725.59	276.52
725.92	275.91
726.25	275.35
726.58	274.79
726.91	274.20
727.24	273.67
727.57	273.11
727.91	272.51
728.24	271.96
728.57	271.39
728.90	270.83
729.23	270.26
729.56	269.72
729.89	269.14
730.22	268.58
730.55	268.01
730.89	267.52
731.22	266.99
731.55	266.50
731.88	266.01
732.21	265.51
732.54	265.01
732.87	264.52
733.20	264.03
733.53	263.60
733.86	263.16
734.19	262.69
734.52	262.22
734.85	261.87
735.18	261.43
735.51	261.00
735.84	260.61
736.17	260.19
736.50	259.73
736.83	259.48
737.16	259.09
737.49	258.72
737.82	258.28
738.15	257.92
738.48	257.58
738.81	257.18
739.14	256.83
739.47	256.48
739.80	256.12
740.13	255.75
740.46	255.37
740.79	255.00
741.12	254.65
741.45	254.34
741.78	253.93
742.11	253.57
742.44	253.22
742.77	252.85
743.10	252.52
743.43	252.20
743.75	251.79
744.08	251.60
744.41	251.32
744.74	251.02
745.07	250.70
745.40	250.37
745.73	250.10
746.06	249.75
746.39	249.45
746.71	249.12
747.04	248.79
747.37	248.48
747.70	248.17
748.03	247.82
748.36	247.53
748.68	247.27
749.01	246.99
749.34	246.71
749.67	246.46
750.00	246.21
750.33	246.02
750.65	245.75
750.98	245.37
751.31	245.11
751.64	244.85
751.97	244.64
752.29	244.39
752.62	244.13
752.95	243.91
753.28	243.68
753.60	243.48
753.93	243.29
754.26	243.07
754.59	242.85
754.91	242.65
755.24	242.43
755.57	242.21
755.90	242.00
756.22	241.79
756.55	241.56
756.88	241.32
757.20	241.04
757.53	240.80
757.86	240.61
758.19	240.45
758.51	240.29
758.84	240.03
759.17	239.85
759.49	239.65
759.82	239.49
760.15	239.33
760.47	239.12
760.80	238.93
761.13	238.75
761.45	238.55
761.78	238.39
762.11	238.23
762.43	238.03
762.76	237.87
763.08	237.74
763.41	237.59
763.74	237.43
764.06	237.31
764.39	237.16
764.71	236.97
765.04	236.76
765.37	236.56
765.69	236.42
766.02	236.25
766.34	236.09
766.67	235.96
767.00	235.79
767.32	235.71
767.65	235.64
767.97	235.51
768.30	235.42
768.62	235.30
768.95	235.14
769.27	235.02
769.60	234.91
769.92	234.78
770.25	234.62
770.57	234.50
770.90	234.34
771.22	234.23
771.55	234.15
771.87	234.08
772.20	233.96
772.52	233.92
772.85	233.93
773.17	233.85
773.50	233.73
773.82	233.63
774.15	233.49
774.47	233.30
774.80	233.19
775.12	233.08
775.45	233.00
775.77	232.94
776.09	232.85
776.42	232.74
776.74	232.66
777.07	232.58
777.39	232.48
777.72	232.39
778.04	232.31
778.36	232.20
778.69	232.12
779.01	232.05
779.33	231.91
779.66	231.71
779.98	231.61
780.31	231.56
780.63	231.52
780.95	231.47
781.28	231.45
781.60	231.37
781.92	231.32
782.25	231.24
782.57	231.16
782.89	231.09
783.22	231.04
783.54	230.97
783.86	230.92
784.19	230.87
784.51	230.86
784.83	230.80
785.16	230.75
785.48	230.68
785.80	230.62
786.12	230.60
786.45	230.57
