SpectraSuite Data File
++++++++++++++++++++++++++++++++++++
Date: Fri Feb 01 16:08:56 EST 2013
User: group
Dark Spectrum Present: No
Reference Spectrum Present: No
Number of Sampled Component Spectra: 1
Spectrometers: USB2E7196
Integration Time (usec): 35000 (USB2E7196)
Spectra Averaged: 100 (USB2E7196)
Boxcar Smoothing: 10 (USB2E7196)
Correct for Electrical Dark: No (USB2E7196)
Strobe/Lamp Enabled: No (USB2E7196)
Correct for Detector Non-linearity: No (USB2E7196)
Correct for Stray Light: No (USB2E7196)
Number of Pixels in Processed Spectrum: 2048
>>>>>Begin Processed Spectral Data<<<<<
339.09	0.00
339.48	214.43
339.86	216.39
340.24	217.65
340.63	218.83
341.01	222.15
341.39	221.21
341.78	222.57
342.16	224.16
342.54	224.35
342.93	212.98
343.31	223.77
343.69	224.32
344.07	224.78
344.46	225.19
344.84	225.56
345.22	225.75
345.60	226.00
345.99	226.19
346.37	226.31
346.75	226.42
347.13	226.45
347.52	226.54
347.90	226.62
348.28	226.63
348.66	226.65
349.05	226.61
349.43	226.66
349.81	226.69
350.19	226.75
350.57	226.79
350.96	226.82
351.34	226.87
351.72	226.94
352.10	226.98
352.48	227.03
352.87	227.07
353.25	227.12
353.63	227.19
354.01	227.27
354.39	227.35
354.77	227.40
355.15	227.51
355.54	227.56
355.92	227.59
356.30	227.65
356.68	227.80
357.06	227.87
357.44	227.92
357.82	228.00
358.20	228.03
358.58	228.11
358.97	228.16
359.35	228.23
359.73	228.31
360.11	228.38
360.49	228.47
360.87	228.56
361.25	228.63
361.63	228.71
362.01	228.77
362.39	228.79
362.77	228.85
363.15	228.86
363.53	228.88
363.91	228.91
364.29	228.95
364.67	228.87
365.05	228.88
365.43	228.89
365.81	228.90
366.19	228.98
366.57	229.00
366.95	229.01
367.33	228.96
367.71	228.93
368.09	228.93
368.47	228.92
368.85	228.89
369.23	228.86
369.61	228.83
369.99	228.79
370.37	228.75
370.75	228.78
371.13	228.77
371.51	228.72
371.89	228.69
372.27	228.62
372.65	228.60
373.03	228.55
373.41	228.52
373.78	228.45
374.16	228.33
374.54	228.25
374.92	228.16
375.30	228.11
375.68	228.06
376.06	228.03
376.44	227.92
376.82	227.86
377.19	227.84
377.57	227.74
377.95	227.66
378.33	227.62
378.71	227.50
379.09	227.45
379.47	227.38
379.84	227.30
380.22	227.24
380.60	227.11
380.98	227.05
381.36	226.94
381.73	226.85
382.11	226.81
382.49	226.79
382.87	226.74
383.25	226.70
383.62	226.75
384.00	226.69
384.38	226.66
384.76	226.63
385.13	226.60
385.51	226.54
385.89	226.46
386.27	226.39
386.64	226.33
387.02	226.29
387.40	226.28
387.78	226.24
388.15	226.20
388.53	226.22
388.91	226.17
389.29	226.18
389.66	226.22
390.04	226.17
390.42	226.13
390.79	226.15
391.17	226.12
391.55	225.99
391.92	225.98
392.30	225.97
392.68	225.93
393.05	225.91
393.43	225.95
393.81	225.95
394.18	225.95
394.56	225.98
394.94	225.99
395.31	225.99
395.69	226.08
396.06	226.13
396.44	226.15
396.82	226.21
397.19	226.30
397.57	226.31
397.95	226.36
398.32	226.41
398.70	226.44
399.07	226.55
399.45	226.59
399.82	226.66
400.20	226.69
400.58	226.80
400.95	226.82
401.33	226.92
401.70	227.10
402.08	227.22
402.45	227.29
402.83	227.40
403.20	227.55
403.58	227.62
403.95	227.77
404.33	227.93
404.71	228.05
405.08	228.21
405.46	228.35
405.83	228.55
406.21	228.67
406.58	228.88
406.96	229.04
407.33	229.25
407.70	229.42
408.08	229.73
408.45	229.89
408.83	230.13
409.20	230.35
409.58	230.53
409.95	230.78
410.33	231.07
410.70	231.32
411.08	231.56
411.45	231.85
411.82	232.13
412.20	232.47
412.57	232.91
412.95	233.19
413.32	233.59
413.69	233.97
414.07	234.41
414.44	234.85
414.82	235.30
415.19	235.87
415.56	236.45
415.94	236.99
416.31	237.68
416.68	238.34
417.06	239.03
417.43	239.72
417.81	240.49
418.18	241.25
418.55	242.09
418.93	242.97
419.30	243.90
419.67	244.87
420.04	245.80
420.42	246.78
420.79	248.00
421.16	249.20
421.54	250.39
421.91	251.60
422.28	252.84
422.66	254.18
423.03	255.42
423.40	256.72
423.77	258.12
424.15	259.53
424.52	261.00
424.89	262.61
425.26	264.15
425.64	265.59
426.01	267.20
426.38	268.83
426.75	270.52
427.13	272.20
427.50	273.96
427.87	275.84
428.24	277.69
428.61	279.42
428.99	281.31
429.36	283.38
429.73	285.46
430.10	287.50
430.47	289.51
430.85	291.64
431.22	293.89
431.59	296.26
431.96	298.46
432.33	300.94
432.70	303.31
433.08	306.11
433.45	308.71
433.82	311.29
434.19	314.17
434.56	316.97
434.93	319.61
435.30	322.24
435.68	325.08
436.05	327.86
436.42	330.65
436.79	333.14
437.16	335.85
437.53	338.68
437.90	341.46
438.27	344.22
438.64	347.02
439.01	349.63
439.38	351.82
439.75	354.01
440.13	356.46
440.50	358.81
440.87	360.59
441.24	362.55
441.61	364.68
441.98	366.15
442.35	367.96
442.72	369.83
443.09	371.59
443.46	372.62
443.83	373.24
444.20	373.72
444.57	374.57
444.94	374.82
445.31	375.12
445.68	375.44
446.05	375.53
446.42	375.14
446.79	374.67
447.16	374.20
447.53	373.91
447.90	372.76
448.27	371.58
448.64	370.06
449.01	368.94
449.37	367.02
449.74	365.14
450.11	362.88
450.48	360.39
450.85	357.89
451.22	355.75
451.59	353.70
451.96	351.75
452.33	349.12
452.70	346.76
453.07	343.96
453.43	341.05
453.80	338.29
454.17	335.66
454.54	333.15
454.91	330.48
455.28	327.76
455.65	325.31
456.02	322.88
456.38	320.75
456.75	318.02
457.12	315.78
457.49	313.55
457.86	311.38
458.23	309.55
458.59	307.50
458.96	305.42
459.33	303.58
459.70	301.74
460.07	300.26
460.43	298.59
460.80	296.96
461.17	295.54
461.54	294.06
461.91	292.65
462.27	291.19
462.64	289.93
463.01	288.60
463.38	287.28
463.74	285.90
464.11	284.74
464.48	283.75
464.85	282.63
465.21	281.78
465.58	280.86
465.95	279.79
466.32	278.90
466.68	278.02
467.05	277.16
467.42	276.25
467.78	275.34
468.15	274.47
468.52	273.81
468.88	272.98
469.25	272.21
469.62	271.58
469.98	270.92
470.35	270.32
470.72	269.73
471.08	269.08
471.45	268.56
471.82	268.03
472.18	267.48
472.55	267.07
472.92	266.54
473.28	266.09
473.65	265.63
474.02	265.22
474.38	264.84
474.75	264.50
475.11	264.16
475.48	263.91
475.85	263.69
476.21	263.47
476.58	263.27
476.94	263.13
477.31	262.97
477.67	262.82
478.04	262.66
478.41	262.60
478.77	262.66
479.14	262.56
479.50	262.55
479.87	262.62
480.23	262.68
480.60	262.78
480.96	262.86
481.33	263.05
481.69	263.25
482.06	263.43
482.42	263.61
482.79	263.88
483.15	264.22
483.52	264.62
483.88	264.97
484.25	265.41
484.61	265.83
484.98	266.26
485.34	266.85
485.71	267.48
486.07	268.07
486.44	268.64
486.80	269.40
487.17	270.15
487.53	270.95
487.90	271.80
488.26	272.74
488.62	273.71
488.99	274.69
489.35	275.68
489.72	276.87
490.08	278.10
490.44	279.36
490.81	280.69
491.17	282.01
491.54	283.49
491.90	285.01
492.26	286.64
492.63	288.37
492.99	290.14
493.36	292.03
493.72	294.09
494.08	296.20
494.45	298.44
494.81	300.76
495.17	303.18
495.54	305.79
495.90	308.44
496.26	311.24
496.63	314.21
496.99	317.40
497.35	320.59
497.72	323.98
498.08	327.49
498.44	331.14
498.80	335.10
499.17	339.15
499.53	343.32
499.89	347.74
500.26	352.27
500.62	356.95
500.98	361.94
501.34	367.01
501.71	372.37
502.07	377.80
502.43	383.46
502.79	389.30
503.16	395.36
503.52	401.69
503.88	408.08
504.24	414.75
504.60	421.62
504.97	428.80
505.33	436.14
505.69	443.89
506.05	451.64
506.41	459.51
506.78	467.65
507.14	476.11
507.50	484.83
507.86	493.86
508.22	503.12
508.59	512.31
508.95	521.89
509.31	531.69
509.67	541.81
510.03	552.19
510.39	562.75
510.75	573.55
511.12	584.45
511.48	595.82
511.84	607.29
512.20	618.76
512.56	630.72
512.92	642.87
513.28	655.23
513.64	667.70
514.00	680.38
514.37	693.31
514.73	706.38
515.09	719.41
515.45	732.65
515.81	746.11
516.17	760.10
516.53	774.18
516.89	788.34
517.25	802.53
517.61	816.95
517.97	831.34
518.33	845.74
518.69	860.49
519.05	875.42
519.41	890.58
519.77	906.13
520.13	921.59
520.49	936.93
520.85	952.23
521.21	967.92
521.57	984.13
521.93	999.90
522.29	1016.24
522.65	1032.35
523.01	1048.52
523.37	1064.61
523.73	1080.62
524.09	1096.65
524.45	1112.94
524.81	1129.53
525.17	1146.18
525.53	1163.09
525.89	1179.96
526.25	1196.75
526.61	1213.15
526.97	1229.83
527.33	1246.21
527.68	1262.64
528.04	1279.16
528.40	1295.73
528.76	1312.81
529.12	1329.38
529.48	1346.21
529.84	1362.03
530.20	1378.71
530.56	1395.73
530.91	1413.04
531.27	1429.88
531.63	1446.45
531.99	1462.93
532.35	1478.73
532.71	1494.60
533.07	1510.73
533.42	1526.49
533.78	1542.48
534.14	1558.67
534.50	1573.91
534.86	1589.71
535.21	1604.89
535.57	1620.76
535.93	1636.13
536.29	1650.87
536.65	1665.88
537.00	1680.55
537.36	1695.91
537.72	1710.31
538.08	1724.66
538.44	1738.30
538.79	1752.01
539.15	1765.47
539.51	1779.15
539.87	1793.48
540.22	1807.18
540.58	1820.89
540.94	1834.16
541.29	1847.02
541.65	1859.64
542.01	1872.72
542.37	1885.03
542.72	1897.50
543.08	1909.05
543.44	1921.44
543.79	1932.51
544.15	1943.39
544.51	1954.90
544.87	1965.73
545.22	1976.58
545.58	1986.74
545.94	1996.44
546.29	2006.34
546.65	2016.31
547.01	2025.66
547.36	2034.20
547.72	2042.61
548.07	2050.42
548.43	2058.51
548.79	2066.69
549.14	2074.19
549.50	2081.49
549.86	2089.15
550.21	2096.41
550.57	2103.68
550.92	2110.04
551.28	2117.18
551.64	2124.17
551.99	2130.72
552.35	2137.01
552.70	2143.06
553.06	2149.06
553.41	2155.44
553.77	2161.46
554.13	2167.35
554.48	2173.40
554.84	2178.89
555.19	2184.18
555.55	2189.32
555.90	2194.00
556.26	2198.60
556.61	2203.39
556.97	2207.80
557.32	2211.88
557.68	2215.92
558.03	2220.15
558.39	2223.95
558.74	2228.52
559.10	2232.43
559.45	2236.07
559.81	2240.25
560.16	2244.17
560.52	2247.31
560.87	2250.70
561.23	2253.43
561.58	2256.39
561.94	2258.92
562.29	2261.33
562.64	2264.21
563.00	2266.79
563.35	2270.19
563.71	2273.44
564.06	2276.58
564.42	2279.44
564.77	2281.85
565.12	2284.06
565.48	2286.05
565.83	2287.97
566.19	2289.37
566.54	2290.36
566.89	2291.51
567.25	2292.12
567.60	2293.31
567.96	2295.03
568.31	2295.86
568.66	2296.89
569.02	2297.60
569.37	2297.84
569.72	2298.74
570.08	2298.79
570.43	2298.80
570.78	2298.28
571.14	2296.66
571.49	2295.28
571.84	2294.99
572.20	2294.09
572.55	2293.22
572.90	2291.56
573.26	2290.27
573.61	2288.56
573.96	2286.85
574.31	2283.94
574.67	2281.03
575.02	2277.53
575.37	2274.23
575.72	2270.50
576.08	2267.15
576.43	2263.81
576.78	2260.27
577.13	2257.09
577.49	2253.83
577.84	2250.39
578.19	2246.59
578.54	2242.97
578.90	2238.77
579.25	2233.22
579.60	2228.21
579.95	2223.26
580.30	2218.48
580.66	2213.26
581.01	2208.31
581.36	2203.42
581.71	2199.22
582.06	2194.66
582.42	2190.34
582.77	2185.11
583.12	2180.67
583.47	2176.09
583.82	2171.09
584.17	2165.84
584.53	2160.34
584.88	2154.81
585.23	2149.13
585.58	2143.73
585.93	2138.37
586.28	2133.71
586.63	2128.68
586.98	2123.68
587.34	2118.89
587.69	2113.93
588.04	2108.67
588.39	2103.08
588.74	2096.65
589.09	2090.53
589.44	2083.87
589.79	2077.75
590.14	2072.21
590.49	2065.67
590.84	2059.25
591.19	2053.26
591.54	2046.87
591.89	2039.72
592.25	2033.03
592.60	2025.77
592.95	2018.11
593.30	2010.78
593.65	2003.15
594.00	1996.18
594.35	1988.81
594.70	1980.77
595.05	1973.66
595.40	1966.43
595.75	1958.91
596.10	1952.71
596.45	1945.95
596.80	1939.82
597.15	1933.20
597.50	1926.12
597.85	1919.64
598.19	1913.00
598.54	1905.82
598.89	1899.07
599.24	1893.13
599.59	1886.47
599.94	1880.36
600.29	1874.12
600.64	1867.48
600.99	1860.10
601.34	1853.15
601.69	1846.36
602.04	1839.50
602.39	1832.06
602.74	1825.39
603.08	1818.54
603.43	1811.73
603.78	1804.45
604.13	1797.29
604.48	1789.96
604.83	1783.12
605.18	1776.26
605.53	1768.36
605.87	1760.46
606.22	1753.27
606.57	1745.24
606.92	1737.79
607.27	1730.74
607.62	1723.83
607.96	1716.66
608.31	1710.04
608.66	1702.49
609.01	1694.87
609.36	1687.36
609.70	1679.34
610.05	1671.22
610.40	1663.65
610.75	1655.30
611.10	1647.56
611.44	1639.06
611.79	1631.13
612.14	1622.40
612.49	1613.06
612.83	1604.70
613.18	1596.54
613.53	1588.48
613.88	1580.11
614.22	1571.93
614.57	1563.25
614.92	1555.31
615.27	1547.71
615.61	1539.49
615.96	1531.44
616.31	1523.78
616.65	1516.31
617.00	1508.77
617.35	1501.19
617.70	1492.89
618.04	1484.41
618.39	1476.29
618.74	1468.80
619.08	1460.53
619.43	1453.00
619.78	1446.26
620.12	1438.99
620.47	1431.50
620.82	1423.33
621.16	1415.84
621.51	1408.15
621.85	1400.48
622.20	1391.84
622.55	1383.47
622.89	1375.61
623.24	1368.09
623.59	1360.76
623.93	1353.33
624.28	1346.05
624.62	1338.47
624.97	1331.21
625.32	1324.54
625.66	1317.52
626.01	1310.29
626.35	1302.83
626.70	1295.06
627.04	1287.32
627.39	1279.58
627.73	1272.22
628.08	1265.44
628.43	1258.16
628.77	1250.81
629.12	1243.35
629.46	1236.28
629.81	1228.80
630.15	1221.57
630.50	1214.10
630.84	1205.94
631.19	1198.09
631.53	1190.66
631.88	1183.18
632.22	1175.64
632.57	1168.28
632.91	1160.72
633.26	1153.32
633.60	1145.91
633.95	1138.81
634.29	1131.73
634.64	1125.04
634.98	1117.61
635.32	1110.34
635.67	1103.78
636.01	1097.15
636.36	1090.29
636.70	1083.69
637.05	1077.18
637.39	1070.61
637.73	1064.11
638.08	1058.21
638.42	1052.11
638.77	1045.67
639.11	1039.03
639.45	1032.55
639.80	1025.91
640.14	1019.56
640.49	1013.02
640.83	1006.74
641.17	1000.45
641.52	994.07
641.86	987.59
642.20	981.72
642.55	975.37
642.89	968.81
643.23	962.26
643.58	956.55
643.92	950.32
644.26	944.28
644.61	938.24
644.95	932.23
645.29	925.64
645.64	918.95
645.98	912.54
646.32	906.71
646.66	900.74
647.01	894.97
647.35	889.21
647.69	883.37
648.04	877.84
648.38	872.04
648.72	866.06
649.06	860.02
649.41	854.15
649.75	848.24
650.09	842.29
650.43	836.50
650.78	830.25
651.12	824.32
651.46	818.56
651.80	812.80
652.14	807.45
652.49	802.05
652.83	796.86
653.17	791.22
653.51	785.41
653.85	779.97
654.20	774.24
654.54	768.25
654.88	762.54
655.22	756.64
655.56	751.02
655.90	745.59
656.25	740.38
656.59	735.03
656.93	729.94
657.27	724.80
657.61	719.33
657.95	714.30
658.29	709.31
658.64	704.10
658.98	698.82
659.32	693.33
659.66	688.14
660.00	682.90
660.34	677.99
660.68	673.10
661.02	668.08
661.36	663.41
661.70	658.91
662.05	654.54
662.39	650.24
662.73	645.76
663.07	641.34
663.41	636.83
663.75	632.42
664.09	627.86
664.43	623.53
664.77	619.45
665.11	615.20
665.45	610.97
665.79	606.92
666.13	602.80
666.47	598.66
666.81	594.48
667.15	590.31
667.49	586.40
667.83	582.56
668.17	578.61
668.51	574.55
668.85	570.51
669.19	566.72
669.53	562.86
669.87	558.97
670.21	555.30
670.55	551.65
670.89	548.17
671.23	544.74
671.57	541.16
671.91	537.65
672.25	534.12
672.58	530.61
672.92	527.19
673.26	524.01
673.60	520.89
673.94	517.84
674.28	514.97
674.62	512.03
674.96	508.97
675.30	506.07
675.64	503.17
675.97	500.40
676.31	497.45
676.65	494.57
676.99	491.86
677.33	489.01
677.67	486.22
678.01	483.18
678.34	480.16
678.68	477.33
679.02	474.47
679.36	471.71
679.70	469.02
680.04	466.26
680.37	463.40
680.71	460.56
681.05	457.90
681.39	455.18
681.73	452.47
682.06	449.96
682.40	447.41
682.74	444.88
683.08	442.33
683.42	439.77
683.75	437.21
684.09	434.66
684.43	432.18
684.77	429.69
685.10	427.31
685.44	425.02
685.78	422.67
686.12	420.46
686.45	418.14
686.79	415.82
687.13	413.58
687.46	411.45
687.80	409.31
688.14	407.09
688.48	405.01
688.81	402.80
689.15	400.64
689.49	398.46
689.82	396.38
690.16	394.30
690.50	392.31
690.83	390.38
691.17	388.41
691.51	386.49
691.84	384.68
692.18	382.76
692.52	380.80
692.85	378.88
693.19	376.97
693.52	375.17
693.86	373.32
694.20	371.53
694.53	369.72
694.87	367.88
695.21	366.09
695.54	364.26
695.88	362.53
696.21	360.81
696.55	359.17
696.88	357.47
697.22	355.80
697.56	354.17
697.89	352.48
698.23	350.88
698.56	349.23
698.90	347.65
699.23	345.99
699.57	344.42
699.90	342.87
700.24	341.33
700.58	339.79
700.91	338.34
701.25	336.93
701.58	335.56
701.92	334.18
702.25	332.79
702.59	331.39
702.92	330.07
703.26	328.71
703.59	327.40
703.93	326.20
704.26	324.94
704.60	323.66
704.93	322.40
705.26	321.15
705.60	319.97
705.93	318.79
706.27	317.77
706.60	316.74
706.94	315.68
707.27	314.57
707.61	313.47
707.94	312.42
708.27	311.30
708.61	310.21
708.94	309.24
709.28	308.25
709.61	307.30
709.94	306.38
710.28	305.38
710.61	304.40
710.95	303.35
711.28	302.45
711.61	301.52
711.95	300.66
712.28	299.73
712.61	298.79
712.95	297.86
713.28	296.97
713.61	296.01
713.95	295.13
714.28	294.27
714.61	293.44
714.95	292.64
715.28	291.77
715.61	290.92
715.95	290.05
716.28	289.20
716.61	288.39
716.95	287.53
717.28	286.83
717.61	286.04
717.94	285.33
718.28	284.53
718.61	283.77
718.94	283.04
719.27	282.37
719.61	281.74
719.94	281.07
720.27	280.34
720.60	279.72
720.94	279.09
721.27	278.48
721.60	277.91
721.93	277.32
722.27	276.77
722.60	276.21
722.93	275.65
723.26	275.10
723.59	274.54
723.93	273.99
724.26	273.44
724.59	272.91
724.92	272.36
725.25	271.87
725.59	271.37
725.92	270.87
726.25	270.37
726.58	269.87
726.91	269.38
727.24	268.92
727.57	268.45
727.91	267.96
728.24	267.51
728.57	266.99
728.90	266.47
729.23	266.00
729.56	265.58
729.89	265.12
730.22	264.67
730.55	264.18
730.89	263.76
731.22	263.29
731.55	262.84
731.88	262.39
732.21	261.94
732.54	261.51
732.87	261.05
733.20	260.66
733.53	260.25
733.86	259.88
734.19	259.50
734.52	259.10
734.85	258.76
735.18	258.36
735.51	258.01
735.84	257.65
736.17	257.30
736.50	256.89
736.83	256.63
737.16	256.30
737.49	255.97
737.82	255.60
738.15	255.25
738.48	254.92
738.81	254.59
739.14	254.25
739.47	253.93
739.80	253.66
740.13	253.31
740.46	252.95
740.79	252.62
741.12	252.28
741.45	251.95
741.78	251.59
742.11	251.29
742.44	250.97
742.77	250.74
743.10	250.44
743.43	250.12
743.75	249.72
744.08	249.55
744.41	249.28
744.74	249.02
745.07	248.77
745.40	248.51
745.73	248.31
746.06	248.07
746.39	247.81
746.71	247.55
747.04	247.27
747.37	247.03
747.70	246.77
748.03	246.53
748.36	246.33
748.68	246.09
749.01	245.83
749.34	245.62
749.67	245.37
750.00	245.14
750.33	245.03
750.65	244.82
750.98	244.46
751.31	244.23
751.64	244.00
751.97	243.83
752.29	243.61
752.62	243.35
752.95	243.13
753.28	242.90
753.60	242.69
753.93	242.55
754.26	242.38
754.59	242.16
754.91	241.96
755.24	241.77
755.57	241.59
755.90	241.43
756.22	241.20
756.55	240.96
756.88	240.77
757.20	240.52
757.53	240.33
757.86	240.18
758.19	240.04
758.51	239.89
758.84	239.68
759.17	239.49
759.49	239.33
759.82	239.19
760.15	239.06
760.47	238.90
760.80	238.71
761.13	238.58
761.45	238.45
761.78	238.26
762.11	238.11
762.43	237.96
762.76	237.83
763.08	237.75
763.41	237.63
763.74	237.48
764.06	237.36
764.39	237.21
764.71	237.07
765.04	236.93
765.37	236.77
765.69	236.64
766.02	236.54
766.34	236.39
766.67	236.26
767.00	236.17
767.32	236.13
767.65	236.07
767.97	235.98
768.30	235.85
768.62	235.74
768.95	235.60
769.27	235.52
769.60	235.38
769.92	235.25
770.25	235.12
770.57	234.98
770.90	234.87
771.22	234.81
771.55	234.75
771.87	234.63
772.20	234.53
772.52	234.49
772.85	234.52
773.17	234.44
773.50	234.32
773.82	234.20
774.15	234.04
774.47	233.89
774.80	233.76
775.12	233.69
775.45	233.60
775.77	233.57
776.09	233.51
776.42	233.43
776.74	233.36
777.07	233.33
777.39	233.29
777.72	233.21
778.04	233.14
778.36	233.03
778.69	232.99
779.01	232.91
779.33	232.76
779.66	232.58
779.98	232.52
780.31	232.46
780.63	232.41
780.95	232.35
781.28	232.27
781.60	232.20
781.92	232.14
782.25	232.10
782.57	232.02
782.89	231.92
783.22	231.88
783.54	231.82
783.86	231.76
784.19	231.66
784.51	231.63
784.83	231.54
785.16	231.48
785.48	231.42
785.80	231.36
786.12	231.34
786.45	231.28
786.77	231.22
787.09	231.18
