SpectraSuite Data File
++++++++++++++++++++++++++++++++++++
Date: Fri Feb 01 16:27:07 EST 2013
User: group
Dark Spectrum Present: No
Reference Spectrum Present: No
Number of Sampled Component Spectra: 1
Spectrometers: USB2E7196
Integration Time (usec): 35000 (USB2E7196)
Spectra Averaged: 100 (USB2E7196)
Boxcar Smoothing: 10 (USB2E7196)
Correct for Electrical Dark: No (USB2E7196)
Strobe/Lamp Enabled: No (USB2E7196)
Correct for Detector Non-linearity: No (USB2E7196)
Correct for Stray Light: No (USB2E7196)
Number of Pixels in Processed Spectrum: 2048
>>>>>Begin Processed Spectral Data<<<<<
339.09	0.00
339.48	214.25
339.86	216.08
340.24	216.55
340.63	218.27
341.01	221.14
341.39	220.86
341.78	222.70
342.16	223.93
342.54	224.49
342.93	212.55
343.31	223.31
343.69	223.82
344.07	224.27
344.46	224.70
344.84	225.07
345.22	225.30
345.60	225.56
345.99	225.73
346.37	225.83
346.75	225.91
347.13	225.98
347.52	226.02
347.90	226.08
348.28	226.11
348.66	226.18
349.05	226.17
349.43	226.21
349.81	226.25
350.19	226.28
350.57	226.31
350.96	226.37
351.34	226.45
351.72	226.56
352.10	226.65
352.48	226.74
352.87	226.80
353.25	226.89
353.63	226.96
354.01	227.04
354.39	227.12
354.77	227.19
355.15	227.28
355.54	227.33
355.92	227.38
356.30	227.43
356.68	227.56
357.06	227.66
357.44	227.71
357.82	227.78
358.20	227.87
358.58	227.97
358.97	228.01
359.35	228.06
359.73	228.11
360.11	228.15
360.49	228.23
360.87	228.28
361.25	228.33
361.63	228.38
362.01	228.43
362.39	228.46
362.77	228.51
363.15	228.54
363.53	228.60
363.91	228.62
364.29	228.68
364.67	228.59
365.05	228.61
365.43	228.61
365.81	228.62
366.19	228.66
366.57	228.70
366.95	228.70
367.33	228.70
367.71	228.72
368.09	228.74
368.47	228.71
368.85	228.70
369.23	228.67
369.61	228.62
369.99	228.63
370.37	228.61
370.75	228.61
371.13	228.60
371.51	228.54
371.89	228.48
372.27	228.42
372.65	228.41
373.03	228.35
373.41	228.29
373.78	228.23
374.16	228.13
374.54	228.05
374.92	227.99
375.30	227.93
375.68	227.83
376.06	227.77
376.44	227.70
376.82	227.64
377.19	227.58
377.57	227.52
377.95	227.38
378.33	227.31
378.71	227.20
379.09	227.14
379.47	227.10
379.84	227.04
380.22	226.97
380.60	226.87
380.98	226.79
381.36	226.71
381.73	226.65
382.11	226.59
382.49	226.48
382.87	226.43
383.25	226.34
383.62	226.40
384.00	226.33
384.38	226.28
384.76	226.25
385.13	226.22
385.51	226.16
385.89	226.12
386.27	226.08
386.64	226.03
387.02	225.96
387.40	225.86
387.78	225.82
388.15	225.78
388.53	225.77
388.91	225.72
389.29	225.71
389.66	225.69
390.04	225.64
390.42	225.68
390.79	225.63
391.17	225.65
391.55	225.53
391.92	225.52
392.30	225.52
392.68	225.46
393.05	225.49
393.43	225.48
393.81	225.51
394.18	225.51
394.56	225.52
394.94	225.55
395.31	225.58
395.69	225.65
396.06	225.67
396.44	225.70
396.82	225.76
397.19	225.87
397.57	225.91
397.95	225.98
398.32	226.00
398.70	226.04
399.07	226.10
399.45	226.13
399.82	226.16
400.20	226.19
400.58	226.27
400.95	226.26
401.33	226.37
401.70	226.49
402.08	226.55
402.45	226.62
402.83	226.75
403.20	226.84
403.58	226.92
403.95	227.03
404.33	227.15
404.71	227.24
405.08	227.38
405.46	227.48
405.83	227.63
406.21	227.77
406.58	227.93
406.96	228.09
407.33	228.25
407.70	228.44
408.08	228.71
408.45	228.95
408.83	229.19
409.20	229.37
409.58	229.51
409.95	229.79
410.33	230.08
410.70	230.32
411.08	230.64
411.45	230.94
411.82	231.24
412.20	231.58
412.57	232.00
412.95	232.33
413.32	232.77
413.69	233.14
414.07	233.58
414.44	234.05
414.82	234.54
415.19	235.10
415.56	235.64
415.94	236.19
416.31	236.81
416.68	237.43
417.06	238.18
417.43	238.91
417.81	239.65
418.18	240.48
418.55	241.31
418.93	242.16
419.30	243.04
419.67	243.99
420.04	244.95
420.42	245.91
420.79	247.04
421.16	248.16
421.54	249.36
421.91	250.56
422.28	251.80
422.66	253.10
423.03	254.40
423.40	255.74
423.77	257.14
424.15	258.58
424.52	260.07
424.89	261.62
425.26	263.16
425.64	264.62
426.01	266.15
426.38	267.78
426.75	269.44
427.13	271.15
427.50	272.92
427.87	274.80
428.24	276.68
428.61	278.46
428.99	280.45
429.36	282.53
429.73	284.60
430.10	286.61
430.47	288.70
430.85	290.81
431.22	293.06
431.59	295.43
431.96	297.64
432.33	300.10
432.70	302.50
433.08	305.27
433.45	307.89
433.82	310.49
434.19	313.38
434.56	316.19
434.93	318.86
435.30	321.45
435.68	324.33
436.05	327.15
436.42	329.92
436.79	332.40
437.16	335.14
437.53	337.97
437.90	340.80
438.27	343.52
438.64	346.34
439.01	348.89
439.38	351.14
439.75	353.31
440.13	355.79
440.50	358.13
440.87	360.00
441.24	361.97
441.61	364.12
441.98	365.60
442.35	367.39
442.72	369.25
443.09	371.12
443.46	372.07
443.83	372.71
444.20	373.21
444.57	374.04
444.94	374.24
445.31	374.55
445.68	374.86
446.05	374.91
446.42	374.50
446.79	374.08
447.16	373.61
447.53	373.28
447.90	372.16
448.27	370.97
448.64	369.36
449.01	368.18
449.37	366.23
449.74	364.37
450.11	362.15
450.48	359.61
450.85	357.03
451.22	354.93
451.59	352.84
451.96	350.89
452.33	348.27
452.70	345.98
453.07	343.17
453.43	340.29
453.80	337.57
454.17	334.94
454.54	332.41
454.91	329.70
455.28	327.05
455.65	324.52
456.02	322.07
456.38	319.93
456.75	317.29
457.12	315.02
457.49	312.80
457.86	310.58
458.23	308.76
458.59	306.76
458.96	304.68
459.33	302.85
459.70	300.99
460.07	299.51
460.43	297.76
460.80	296.13
461.17	294.71
461.54	293.21
461.91	291.77
462.27	290.34
462.64	289.07
463.01	287.70
463.38	286.45
463.74	285.10
464.11	283.97
464.48	282.99
464.85	281.91
465.21	281.03
465.58	280.19
465.95	279.07
466.32	278.17
466.68	277.31
467.05	276.40
467.42	275.53
467.78	274.58
468.15	273.70
468.52	273.06
468.88	272.19
469.25	271.40
469.62	270.78
469.98	270.12
470.35	269.54
470.72	268.96
471.08	268.32
471.45	267.82
471.82	267.28
472.18	266.67
472.55	266.27
472.92	265.79
473.28	265.29
473.65	264.91
474.02	264.50
474.38	264.16
474.75	263.86
475.11	263.53
475.48	263.32
475.85	263.12
476.21	262.90
476.58	262.74
476.94	262.62
477.31	262.48
477.67	262.35
478.04	262.24
478.41	262.21
478.77	262.24
479.14	262.22
479.50	262.24
479.87	262.34
480.23	262.38
480.60	262.44
480.96	262.58
481.33	262.79
481.69	262.99
482.06	263.20
482.42	263.44
482.79	263.71
483.15	264.02
483.52	264.47
483.88	264.84
484.25	265.27
484.61	265.73
484.98	266.18
485.34	266.73
485.71	267.36
486.07	267.95
486.44	268.53
486.80	269.24
487.17	269.99
487.53	270.78
487.90	271.65
488.26	272.60
488.62	273.59
488.99	274.57
489.35	275.63
489.72	276.74
490.08	277.93
490.44	279.21
490.81	280.57
491.17	281.89
491.54	283.39
491.90	284.91
492.26	286.55
492.63	288.31
492.99	290.08
493.36	291.96
493.72	293.98
494.08	296.09
494.45	298.32
494.81	300.70
495.17	303.12
495.54	305.67
495.90	308.34
496.26	311.12
496.63	314.11
496.99	317.24
497.35	320.51
497.72	323.91
498.08	327.40
498.44	331.06
498.80	334.99
499.17	339.06
499.53	343.26
499.89	347.60
500.26	352.11
500.62	356.81
500.98	361.77
501.34	366.86
501.71	372.23
502.07	377.63
502.43	383.27
502.79	389.16
503.16	395.25
503.52	401.55
503.88	407.98
504.24	414.58
504.60	421.42
504.97	428.54
505.33	435.86
505.69	443.61
506.05	451.46
506.41	459.39
506.78	467.54
507.14	475.94
507.50	484.65
507.86	493.71
508.22	502.87
508.59	512.16
508.95	521.74
509.31	531.54
509.67	541.67
510.03	551.91
510.39	562.36
510.75	573.19
511.12	584.15
511.48	595.46
511.84	606.91
512.20	618.42
512.56	630.39
512.92	642.53
513.28	654.83
513.64	667.18
514.00	679.85
514.37	692.76
514.73	705.82
515.09	718.85
515.45	732.11
515.81	745.72
516.17	759.62
516.53	773.73
516.89	787.92
517.25	802.14
517.61	816.56
517.97	831.11
518.33	845.48
518.69	860.23
519.05	875.15
519.41	890.35
519.77	905.86
520.13	921.25
520.49	936.56
520.85	951.96
521.21	967.71
521.57	983.86
521.93	999.55
522.29	1015.87
522.65	1032.05
523.01	1048.12
523.37	1064.13
523.73	1080.23
524.09	1096.25
524.45	1112.48
524.81	1129.00
525.17	1145.78
525.53	1162.55
525.89	1179.38
526.25	1196.12
526.61	1212.45
526.97	1229.00
527.33	1245.37
527.68	1261.84
528.04	1278.19
528.40	1294.62
528.76	1311.58
529.12	1328.11
529.48	1344.95
529.84	1360.91
530.20	1377.49
530.56	1394.38
530.91	1411.69
531.27	1428.33
531.63	1444.64
531.99	1461.10
532.35	1476.97
532.71	1492.71
533.07	1508.82
533.42	1524.56
533.78	1540.47
534.14	1556.68
534.50	1572.05
534.86	1587.80
535.21	1602.85
535.57	1618.74
535.93	1634.14
536.29	1648.90
536.65	1663.74
537.00	1678.32
537.36	1693.55
537.72	1707.93
538.08	1722.34
538.44	1736.00
538.79	1749.85
539.15	1763.47
539.51	1777.06
539.87	1791.26
540.22	1804.92
540.58	1818.51
540.94	1831.89
541.29	1844.73
541.65	1857.30
542.01	1870.44
542.37	1882.67
542.72	1895.11
543.08	1906.82
543.44	1919.19
543.79	1930.29
544.15	1941.28
544.51	1952.85
544.87	1963.72
545.22	1974.60
545.58	1984.68
545.94	1994.37
546.29	2004.15
546.65	2013.96
547.01	2023.18
547.36	2031.70
547.72	2040.04
548.07	2047.83
548.43	2055.76
548.79	2063.73
549.14	2071.29
549.50	2078.32
549.86	2086.04
550.21	2093.20
550.57	2100.45
550.92	2106.90
551.28	2113.80
551.64	2120.84
551.99	2127.22
552.35	2133.34
552.70	2139.35
553.06	2145.42
553.41	2151.78
553.77	2157.79
554.13	2163.92
554.48	2170.06
554.84	2175.70
555.19	2181.03
555.55	2186.31
555.90	2190.89
556.26	2195.79
556.61	2200.40
556.97	2204.91
557.32	2208.89
557.68	2213.14
558.03	2217.34
558.39	2221.17
558.74	2225.86
559.10	2229.75
559.45	2233.47
559.81	2237.71
560.16	2241.56
560.52	2244.73
560.87	2248.03
561.23	2250.55
561.58	2253.39
561.94	2255.93
562.29	2258.32
562.64	2261.16
563.00	2263.68
563.35	2267.21
563.71	2270.22
564.06	2273.49
564.42	2276.36
564.77	2279.07
565.12	2281.43
565.48	2283.33
565.83	2285.10
566.19	2286.55
566.54	2287.34
566.89	2288.57
567.25	2289.22
567.60	2290.55
567.96	2292.42
568.31	2293.33
568.66	2294.61
569.02	2295.33
569.37	2295.70
569.72	2296.67
570.08	2296.79
570.43	2296.98
570.78	2296.37
571.14	2294.88
571.49	2293.50
571.84	2293.16
572.20	2292.03
572.55	2291.01
572.90	2289.42
573.26	2288.19
573.61	2286.50
573.96	2284.91
574.31	2281.91
574.67	2278.99
575.02	2275.32
575.37	2271.89
575.72	2268.22
576.08	2264.99
576.43	2261.69
576.78	2258.09
577.13	2254.86
577.49	2251.71
577.84	2248.24
578.19	2244.58
578.54	2241.26
578.90	2237.15
579.25	2231.72
579.60	2226.72
579.95	2221.63
580.30	2216.81
580.66	2211.63
581.01	2206.73
581.36	2201.82
581.71	2197.95
582.06	2193.53
582.42	2189.33
582.77	2184.09
583.12	2179.51
583.47	2174.82
583.82	2169.71
584.17	2164.59
584.53	2159.16
584.88	2153.75
585.23	2148.15
585.58	2142.78
585.93	2137.32
586.28	2132.74
586.63	2127.72
586.98	2122.81
587.34	2118.26
587.69	2113.27
588.04	2108.13
588.39	2102.50
588.74	2096.13
589.09	2089.85
589.44	2083.13
589.79	2077.03
590.14	2071.55
590.49	2065.11
590.84	2058.74
591.19	2052.93
591.54	2046.47
591.89	2039.16
592.25	2032.26
592.60	2024.91
592.95	2017.32
593.30	2009.87
593.65	2002.18
594.00	1995.15
594.35	1988.03
594.70	1980.05
595.05	1973.01
595.40	1965.68
595.75	1958.28
596.10	1952.14
596.45	1945.50
596.80	1939.39
597.15	1932.89
597.50	1925.78
597.85	1919.23
598.19	1912.62
598.54	1905.50
598.89	1898.80
599.24	1892.95
599.59	1886.30
599.94	1880.23
600.29	1873.93
600.64	1867.48
600.99	1860.07
601.34	1853.28
601.69	1846.27
602.04	1839.44
602.39	1832.11
602.74	1825.34
603.08	1818.57
603.43	1811.86
603.78	1804.51
604.13	1797.36
604.48	1790.04
604.83	1783.12
605.18	1776.25
605.53	1768.27
605.87	1760.43
606.22	1753.29
606.57	1745.45
606.92	1738.19
607.27	1731.07
607.62	1724.17
607.96	1716.94
608.31	1710.40
608.66	1702.87
609.01	1695.32
609.36	1687.70
609.70	1679.69
610.05	1671.83
610.40	1664.10
610.75	1655.82
611.10	1648.25
611.44	1639.78
611.79	1631.76
612.14	1623.19
612.49	1614.04
612.83	1605.78
613.18	1597.70
613.53	1589.53
613.88	1581.01
614.22	1572.76
614.57	1564.11
614.92	1556.15
615.27	1548.65
615.61	1540.26
615.96	1532.25
616.31	1524.74
616.65	1517.39
617.00	1509.87
617.35	1502.07
617.70	1493.83
618.04	1485.32
618.39	1477.13
618.74	1469.62
619.08	1461.34
619.43	1453.86
619.78	1447.02
620.12	1439.77
620.47	1432.08
620.82	1424.06
621.16	1416.53
621.51	1408.98
621.85	1401.41
622.20	1392.83
622.55	1384.52
622.89	1376.69
623.24	1368.99
623.59	1361.48
623.93	1353.90
624.28	1346.66
624.62	1339.25
624.97	1332.11
625.32	1325.32
625.66	1318.17
626.01	1311.00
626.35	1303.54
626.70	1295.64
627.04	1287.85
627.39	1280.09
627.73	1272.80
628.08	1265.81
628.43	1258.57
628.77	1251.13
629.12	1243.58
629.46	1236.40
629.81	1228.84
630.15	1221.57
630.50	1214.17
630.84	1206.04
631.19	1198.21
631.53	1190.74
631.88	1183.08
632.22	1175.38
632.57	1168.09
632.91	1160.62
633.26	1153.12
633.60	1145.75
633.95	1138.72
634.29	1131.72
634.64	1125.03
634.98	1117.54
635.32	1110.32
635.67	1103.63
636.01	1096.89
636.36	1090.10
636.70	1083.57
637.05	1077.00
637.39	1070.65
637.73	1064.14
638.08	1058.12
638.42	1052.13
638.77	1045.66
639.11	1039.10
639.45	1032.77
639.80	1026.04
640.14	1019.63
640.49	1013.11
640.83	1006.77
641.17	1000.51
641.52	994.09
641.86	987.55
642.20	981.67
642.55	975.39
642.89	968.95
643.23	962.44
643.58	956.57
643.92	950.43
644.26	944.42
644.61	938.25
644.95	932.21
645.29	925.69
645.64	918.92
645.98	912.55
646.32	906.73
646.66	900.67
647.01	895.00
647.35	889.25
647.69	883.42
648.04	877.95
648.38	872.22
648.72	866.28
649.06	860.24
649.41	854.39
649.75	848.45
650.09	842.52
650.43	836.76
650.78	830.60
651.12	824.60
651.46	818.84
651.80	813.25
652.14	807.83
652.49	802.39
652.83	797.27
653.17	791.62
653.51	785.85
653.85	780.42
654.20	774.67
654.54	768.62
654.88	762.88
655.22	756.97
655.56	751.25
655.90	745.83
656.25	740.63
656.59	735.31
656.93	730.27
657.27	725.14
657.61	719.66
657.95	714.53
658.29	709.42
658.64	704.17
658.98	698.79
659.32	693.38
659.66	688.18
660.00	682.83
660.34	677.88
660.68	673.04
661.02	667.99
661.36	663.28
661.70	658.86
662.05	654.50
662.39	650.17
662.73	645.72
663.07	641.33
663.41	636.85
663.75	632.32
664.09	627.73
664.43	623.31
664.77	619.24
665.11	615.07
665.45	610.99
665.79	606.89
666.13	602.75
666.47	598.71
666.81	594.58
667.15	590.44
667.49	586.52
667.83	582.63
668.17	578.78
668.51	574.75
668.85	570.70
669.19	566.83
669.53	562.99
669.87	559.10
670.21	555.40
670.55	551.81
670.89	548.40
671.23	544.93
671.57	541.41
671.91	537.86
672.25	534.31
672.58	530.81
672.92	527.37
673.26	524.19
673.60	520.94
673.94	517.84
674.28	514.94
674.62	511.97
674.96	508.82
675.30	505.85
675.64	502.87
675.97	500.03
676.31	497.18
676.65	494.25
676.99	491.54
677.33	488.60
677.67	485.69
678.01	482.62
678.34	479.70
678.68	476.81
679.02	473.95
679.36	471.18
679.70	468.42
680.04	465.69
680.37	462.82
680.71	460.05
681.05	457.43
681.39	454.66
681.73	451.94
682.06	449.46
682.40	446.93
682.74	444.42
683.08	441.91
683.42	439.29
683.75	436.81
684.09	434.23
684.43	431.81
684.77	429.38
685.10	427.04
685.44	424.71
685.78	422.40
686.12	420.21
686.45	417.90
686.79	415.57
687.13	413.35
687.46	411.19
687.80	408.99
688.14	406.69
688.48	404.66
688.81	402.42
689.15	400.22
689.49	398.05
689.82	395.93
690.16	393.83
690.50	391.88
690.83	389.89
691.17	387.93
691.51	386.05
691.84	384.20
692.18	382.29
692.52	380.28
692.85	378.38
693.19	376.51
693.52	374.67
693.86	372.90
694.20	371.15
694.53	369.34
694.87	367.53
695.21	365.78
695.54	363.94
695.88	362.25
696.21	360.53
696.55	358.85
696.88	357.25
697.22	355.61
697.56	353.99
697.89	352.36
698.23	350.76
698.56	349.14
698.90	347.55
699.23	345.87
699.57	344.37
699.90	342.84
700.24	341.32
700.58	339.85
700.91	338.32
701.25	336.89
701.58	335.51
701.92	334.19
702.25	332.84
702.59	331.49
702.92	330.16
703.26	328.89
703.59	327.60
703.93	326.38
704.26	325.16
704.60	323.86
704.93	322.60
705.26	321.40
705.60	320.22
705.93	319.09
706.27	318.09
706.60	317.03
706.94	315.91
707.27	314.77
707.61	313.68
707.94	312.70
708.27	311.57
708.61	310.51
708.94	309.49
709.28	308.51
709.61	307.54
709.94	306.62
710.28	305.57
710.61	304.63
710.95	303.55
711.28	302.61
711.61	301.65
711.95	300.71
712.28	299.69
712.61	298.69
712.95	297.73
713.28	296.85
713.61	295.94
713.95	295.10
714.28	294.24
714.61	293.36
714.95	292.46
715.28	291.63
715.61	290.74
715.95	289.86
716.28	288.98
716.61	288.14
716.95	287.26
717.28	286.53
717.61	285.73
717.94	284.99
718.28	284.13
718.61	283.43
718.94	282.74
719.27	282.12
719.61	281.47
719.94	280.80
720.27	280.09
720.60	279.38
720.94	278.72
721.27	278.06
721.60	277.52
721.93	276.89
722.27	276.30
722.60	275.72
722.93	275.14
723.26	274.63
723.59	274.04
723.93	273.52
724.26	272.92
724.59	272.34
724.92	271.79
725.25	271.29
725.59	270.75
725.92	270.21
726.25	269.67
726.58	269.17
726.91	268.65
727.24	268.15
727.57	267.72
727.91	267.18
728.24	266.71
728.57	266.17
728.90	265.76
729.23	265.27
729.56	264.85
729.89	264.41
730.22	263.88
730.55	263.43
730.89	262.97
731.22	262.55
731.55	262.09
731.88	261.68
732.21	261.27
732.54	260.86
732.87	260.46
733.20	260.05
733.53	259.67
733.86	259.30
734.19	258.93
734.52	258.53
734.85	258.23
735.18	257.87
735.51	257.49
735.84	257.11
736.17	256.78
736.50	256.41
736.83	256.14
737.16	255.87
737.49	255.54
737.82	255.19
738.15	254.86
738.48	254.56
738.81	254.22
739.14	253.91
739.47	253.60
739.80	253.30
740.13	252.99
740.46	252.66
740.79	252.37
741.12	252.02
741.45	251.72
741.78	251.37
742.11	251.04
742.44	250.71
742.77	250.44
743.10	250.16
743.43	249.83
743.75	249.50
744.08	249.35
744.41	249.08
744.74	248.83
745.07	248.56
745.40	248.33
745.73	248.13
746.06	247.86
746.39	247.64
746.71	247.39
747.04	247.14
747.37	246.92
747.70	246.67
748.03	246.44
748.36	246.25
748.68	246.02
749.01	245.83
749.34	245.66
749.67	245.43
750.00	245.20
750.33	245.08
750.65	244.85
750.98	244.52
751.31	244.30
751.64	244.10
751.97	243.97
752.29	243.75
752.62	243.46
752.95	243.25
753.28	242.98
753.60	242.77
753.93	242.59
754.26	242.39
754.59	242.17
754.91	241.95
755.24	241.68
755.57	241.51
755.90	241.32
756.22	241.08
756.55	240.86
756.88	240.64
757.20	240.40
757.53	240.20
757.86	239.99
758.19	239.82
758.51	239.63
758.84	239.42
759.17	239.21
759.49	239.08
759.82	238.95
760.15	238.80
760.47	238.62
760.80	238.43
761.13	238.29
761.45	238.11
761.78	237.98
762.11	237.88
762.43	237.70
762.76	237.52
763.08	237.42
763.41	237.28
763.74	237.13
764.06	236.96
764.39	236.76
764.71	236.63
765.04	236.47
765.37	236.33
765.69	236.20
766.02	236.07
766.34	235.90
766.67	235.76
767.00	235.66
767.32	235.60
767.65	235.54
767.97	235.40
768.30	235.27
768.62	235.14
768.95	234.97
769.27	234.86
769.60	234.74
769.92	234.59
770.25	234.44
770.57	234.30
770.90	234.21
771.22	234.14
771.55	234.04
771.87	233.94
772.20	233.82
772.52	233.77
772.85	233.83
773.17	233.74
773.50	233.60
773.82	233.43
774.15	233.27
774.47	233.12
774.80	233.04
775.12	232.94
775.45	232.84
775.77	232.77
776.09	232.69
776.42	232.63
776.74	232.61
777.07	232.58
777.39	232.54
777.72	232.43
778.04	232.36
778.36	232.32
778.69	232.26
779.01	232.21
779.33	232.07
779.66	231.90
779.98	231.81
780.31	231.76
780.63	231.77
780.95	231.76
781.28	231.68
781.60	231.59
781.92	231.56
782.25	231.52
782.57	231.45
782.89	231.40
783.22	231.32
783.54	231.24
783.86	231.17
784.19	231.10
784.51	231.10
784.83	231.03
785.16	230.95
785.48	230.91
785.80	230.87
786.12	230.80
786.45	230.74
786.77	230.72
787.09	230.69
