SpectraSuite Data File
++++++++++++++++++++++++++++++++++++
Date: Fri Feb 01 15:08:33 EST 2013
User: group
Dark Spectrum Present: No
Reference Spectrum Present: No
Number of Sampled Component Spectra: 1
Spectrometers: USB2E7196
Integration Time (usec): 35000 (USB2E7196)
Spectra Averaged: 100 (USB2E7196)
Boxcar Smoothing: 10 (USB2E7196)
Correct for Electrical Dark: No (USB2E7196)
Strobe/Lamp Enabled: No (USB2E7196)
Correct for Detector Non-linearity: No (USB2E7196)
Correct for Stray Light: No (USB2E7196)
Number of Pixels in Processed Spectrum: 2048
>>>>>Begin Processed Spectral Data<<<<<
339.09	0.00
339.48	214.21
339.86	216.09
340.24	218.03
340.63	219.55
341.01	222.09
341.39	221.94
341.78	222.89
342.16	224.69
342.54	224.46
342.93	213.22
343.31	224.01
343.69	224.58
344.07	225.07
344.46	225.50
344.84	225.86
345.22	226.10
345.60	226.34
345.99	226.53
346.37	226.68
346.75	226.81
347.13	226.94
347.52	227.00
347.90	227.03
348.28	227.06
348.66	227.13
349.05	227.13
349.43	227.16
349.81	227.21
350.19	227.26
350.57	227.34
350.96	227.42
351.34	227.49
351.72	227.57
352.10	227.68
352.48	227.74
352.87	227.80
353.25	227.88
353.63	227.95
354.01	228.05
354.39	228.14
354.77	228.22
355.15	228.29
355.54	228.38
355.92	228.42
356.30	228.50
356.68	228.67
357.06	228.77
357.44	228.84
357.82	228.93
358.20	229.01
358.58	229.08
358.97	229.15
359.35	229.25
359.73	229.36
360.11	229.42
360.49	229.49
360.87	229.54
361.25	229.57
361.63	229.66
362.01	229.69
362.39	229.72
362.77	229.75
363.15	229.78
363.53	229.77
363.91	229.82
364.29	229.85
364.67	229.74
365.05	229.78
365.43	229.81
365.81	229.81
366.19	229.82
366.57	229.86
366.95	229.86
367.33	229.83
367.71	229.83
368.09	229.79
368.47	229.78
368.85	229.78
369.23	229.77
369.61	229.69
369.99	229.71
370.37	229.63
370.75	229.61
371.13	229.52
371.51	229.48
371.89	229.44
372.27	229.42
372.65	229.36
373.03	229.29
373.41	229.22
373.78	229.16
374.16	229.07
374.54	228.96
374.92	228.87
375.30	228.80
375.68	228.71
376.06	228.62
376.44	228.51
376.82	228.43
377.19	228.34
377.57	228.31
377.95	228.17
378.33	228.14
378.71	228.04
379.09	228.00
379.47	227.93
379.84	227.85
380.22	227.75
380.60	227.67
380.98	227.55
381.36	227.54
381.73	227.45
382.11	227.38
382.49	227.29
382.87	227.25
383.25	227.15
383.62	227.19
384.00	227.14
384.38	227.11
384.76	227.09
385.13	227.06
385.51	226.97
385.89	226.91
386.27	226.83
386.64	226.77
387.02	226.75
387.40	226.70
387.78	226.63
388.15	226.58
388.53	226.55
388.91	226.53
389.29	226.45
389.66	226.43
390.04	226.42
390.42	226.42
390.79	226.38
391.17	226.38
391.55	226.25
391.92	226.26
392.30	226.23
392.68	226.19
393.05	226.19
393.43	226.19
393.81	226.22
394.18	226.21
394.56	226.24
394.94	226.23
395.31	226.24
395.69	226.33
396.06	226.39
396.44	226.45
396.82	226.49
397.19	226.58
397.57	226.64
397.95	226.68
398.32	226.71
398.70	226.77
399.07	226.85
399.45	226.98
399.82	227.06
400.20	227.14
400.58	227.22
400.95	227.27
401.33	227.37
401.70	227.53
402.08	227.66
402.45	227.78
402.83	227.92
403.20	228.07
403.58	228.17
403.95	228.32
404.33	228.48
404.71	228.58
405.08	228.77
405.46	228.89
405.83	229.07
406.21	229.23
406.58	229.40
406.96	229.59
407.33	229.74
407.70	229.94
408.08	230.24
408.45	230.49
408.83	230.74
409.20	230.98
409.58	231.17
409.95	231.43
410.33	231.69
410.70	231.94
411.08	232.26
411.45	232.61
411.82	232.89
412.20	233.21
412.57	233.67
412.95	233.97
413.32	234.41
413.69	234.84
414.07	235.32
414.44	235.80
414.82	236.26
415.19	236.81
415.56	237.35
415.94	237.90
416.31	238.55
416.68	239.21
417.06	239.95
417.43	240.64
417.81	241.41
418.18	242.18
418.55	243.05
418.93	243.91
419.30	244.76
419.67	245.71
420.04	246.67
420.42	247.66
420.79	248.83
421.16	249.97
421.54	251.14
421.91	252.31
422.28	253.59
422.66	254.95
423.03	256.26
423.40	257.57
423.77	258.98
424.15	260.38
424.52	261.85
424.89	263.45
425.26	264.99
425.64	266.44
426.01	268.02
426.38	269.65
426.75	271.31
427.13	273.03
427.50	274.84
427.87	276.74
428.24	278.60
428.61	280.35
428.99	282.28
429.36	284.36
429.73	286.46
430.10	288.45
430.47	290.52
430.85	292.64
431.22	294.87
431.59	297.26
431.96	299.52
432.33	301.96
432.70	304.33
433.08	307.15
433.45	309.81
433.82	312.45
434.19	315.36
434.56	318.16
434.93	320.84
435.30	323.48
435.68	326.37
436.05	329.12
436.42	331.96
436.79	334.48
437.16	337.20
437.53	340.03
437.90	342.82
438.27	345.56
438.64	348.38
439.01	351.03
439.38	353.26
439.75	355.42
440.13	357.94
440.50	360.26
440.87	362.13
441.24	364.01
441.61	366.11
441.98	367.62
442.35	369.40
442.72	371.28
443.09	373.08
443.46	374.08
443.83	374.72
444.20	375.22
444.57	376.06
444.94	376.33
445.31	376.70
445.68	377.12
446.05	377.16
446.42	376.79
446.79	376.36
447.16	375.92
447.53	375.62
447.90	374.51
448.27	373.39
448.64	371.80
449.01	370.70
449.37	368.78
449.74	366.85
450.11	364.62
450.48	362.13
450.85	359.60
451.22	357.42
451.59	355.41
451.96	353.47
452.33	350.86
452.70	348.49
453.07	345.67
453.43	342.75
453.80	339.97
454.17	337.29
454.54	334.71
454.91	331.94
455.28	329.25
455.65	326.76
456.02	324.26
456.38	322.12
456.75	319.50
457.12	317.25
457.49	315.07
457.86	312.91
458.23	311.07
458.59	309.04
458.96	306.95
459.33	305.13
459.70	303.25
460.07	301.75
460.43	300.04
460.80	298.39
461.17	296.94
461.54	295.43
461.91	294.02
462.27	292.57
462.64	291.33
463.01	289.96
463.38	288.63
463.74	287.24
464.11	286.06
464.48	285.02
464.85	283.92
465.21	283.02
465.58	282.05
465.95	280.94
466.32	279.99
466.68	279.09
467.05	278.19
467.42	277.27
467.78	276.31
468.15	275.43
468.52	274.78
468.88	273.90
469.25	273.11
469.62	272.45
469.98	271.79
470.35	271.14
470.72	270.49
471.08	269.82
471.45	269.29
471.82	268.76
472.18	268.10
472.55	267.58
472.92	267.07
473.28	266.58
473.65	266.11
474.02	265.67
474.38	265.26
474.75	264.90
475.11	264.57
475.48	264.27
475.85	264.02
476.21	263.75
476.58	263.53
476.94	263.39
477.31	263.19
477.67	263.02
478.04	262.87
478.41	262.82
478.77	262.85
479.14	262.77
479.50	262.76
479.87	262.86
480.23	262.97
480.60	263.02
480.96	263.12
481.33	263.33
481.69	263.53
482.06	263.72
482.42	263.86
482.79	264.11
483.15	264.43
483.52	264.80
483.88	265.12
484.25	265.53
484.61	265.98
484.98	266.47
485.34	267.02
485.71	267.60
486.07	268.22
486.44	268.79
486.80	269.48
487.17	270.17
487.53	270.97
487.90	271.84
488.26	272.75
488.62	273.71
488.99	274.67
489.35	275.69
489.72	276.84
490.08	278.08
490.44	279.30
490.81	280.66
491.17	282.00
491.54	283.45
491.90	285.01
492.26	286.67
492.63	288.40
492.99	290.18
493.36	292.08
493.72	294.11
494.08	296.19
494.45	298.47
494.81	300.83
495.17	303.26
495.54	305.75
495.90	308.44
496.26	311.26
496.63	314.24
496.99	317.37
497.35	320.60
497.72	323.98
498.08	327.51
498.44	331.12
498.80	335.06
499.17	339.11
499.53	343.24
499.89	347.55
500.26	352.00
500.62	356.69
500.98	361.65
501.34	366.71
501.71	372.05
502.07	377.47
502.43	383.09
502.79	388.91
503.16	395.02
503.52	401.23
503.88	407.57
504.24	414.17
504.60	421.01
504.97	428.10
505.33	435.44
505.69	443.13
506.05	450.94
506.41	458.85
506.78	467.06
507.14	475.52
507.50	484.19
507.86	493.22
508.22	502.37
508.59	511.54
508.95	521.09
509.31	530.89
509.67	541.00
510.03	551.31
510.39	561.88
510.75	572.67
511.12	583.67
511.48	594.97
511.84	606.46
512.20	617.98
512.56	629.99
512.92	642.21
513.28	654.49
513.64	666.95
514.00	679.62
514.37	692.48
514.73	705.50
515.09	718.56
515.45	731.84
515.81	745.49
516.17	759.54
516.53	773.71
516.89	787.89
517.25	802.12
517.61	816.52
517.97	830.97
518.33	845.39
518.69	860.22
519.05	875.26
519.41	890.40
519.77	905.96
520.13	921.44
520.49	936.84
520.85	952.42
521.21	968.25
521.57	984.57
521.93	1000.40
522.29	1016.96
522.65	1033.26
523.01	1049.48
523.37	1065.52
523.73	1081.60
524.09	1097.73
524.45	1114.09
524.81	1130.81
525.17	1147.77
525.53	1164.69
525.89	1181.66
526.25	1198.46
526.61	1214.95
526.97	1231.78
527.33	1248.33
527.68	1265.01
528.04	1281.56
528.40	1298.20
528.76	1315.21
529.12	1331.86
529.48	1348.84
529.84	1364.94
530.20	1381.70
530.56	1399.02
530.91	1416.42
531.27	1433.38
531.63	1449.98
531.99	1466.68
532.35	1482.64
532.71	1498.47
533.07	1514.76
533.42	1530.69
533.78	1546.74
534.14	1562.94
534.50	1578.33
534.86	1594.33
535.21	1609.46
535.57	1625.46
535.93	1641.03
536.29	1656.05
536.65	1671.20
537.00	1686.06
537.36	1701.40
537.72	1716.00
538.08	1730.28
538.44	1744.23
538.79	1758.18
539.15	1771.99
539.51	1785.84
539.87	1800.30
540.22	1814.22
540.58	1828.23
540.94	1841.77
541.29	1854.87
541.65	1867.70
542.01	1881.13
542.37	1893.41
542.72	1906.04
543.08	1917.79
543.44	1930.32
543.79	1941.54
544.15	1952.64
544.51	1964.18
544.87	1975.18
545.22	1985.91
545.58	1996.18
545.94	2006.04
546.29	2015.97
546.65	2025.71
547.01	2034.95
547.36	2043.73
547.72	2052.15
548.07	2060.02
548.43	2068.13
548.79	2076.28
549.14	2083.85
549.50	2091.17
549.86	2099.00
550.21	2106.30
550.57	2113.42
550.92	2119.93
551.28	2127.04
551.64	2134.04
551.99	2140.64
552.35	2146.84
552.70	2153.03
553.06	2159.04
553.41	2165.36
553.77	2171.33
554.13	2177.50
554.48	2183.49
554.84	2188.78
555.19	2194.12
555.55	2199.19
555.90	2203.69
556.26	2208.46
556.61	2213.16
556.97	2217.40
557.32	2221.64
557.68	2225.74
558.03	2230.12
558.39	2233.91
558.74	2238.51
559.10	2242.45
559.45	2246.06
559.81	2250.31
560.16	2254.10
560.52	2257.34
560.87	2260.76
561.23	2263.45
561.58	2266.29
561.94	2268.80
562.29	2271.26
562.64	2273.91
563.00	2276.40
563.35	2279.88
563.71	2283.01
564.06	2286.29
564.42	2288.97
564.77	2291.11
565.12	2293.22
565.48	2295.04
565.83	2296.72
566.19	2297.84
566.54	2298.63
566.89	2299.68
567.25	2300.09
567.60	2301.36
567.96	2302.86
568.31	2303.55
568.66	2304.54
569.02	2305.14
569.37	2305.47
569.72	2306.25
570.08	2306.16
570.43	2306.13
570.78	2305.19
571.14	2303.39
571.49	2301.88
571.84	2301.58
572.20	2300.36
572.55	2299.43
572.90	2297.70
573.26	2296.24
573.61	2294.42
573.96	2292.50
574.31	2289.48
574.67	2286.43
575.02	2282.76
575.37	2279.28
575.72	2275.34
576.08	2271.91
576.43	2268.37
576.78	2264.51
577.13	2261.13
577.49	2258.05
577.84	2254.41
578.19	2250.74
578.54	2246.98
578.90	2242.52
579.25	2236.81
579.60	2231.80
579.95	2226.47
580.30	2221.54
580.66	2216.23
581.01	2211.24
581.36	2206.13
581.71	2201.73
582.06	2197.10
582.42	2192.39
582.77	2187.04
583.12	2182.25
583.47	2177.22
583.82	2172.12
584.17	2166.69
584.53	2161.15
584.88	2155.42
585.23	2149.46
585.58	2143.93
585.93	2138.42
586.28	2133.68
586.63	2128.42
586.98	2123.15
587.34	2118.45
587.69	2113.37
588.04	2107.99
588.39	2102.15
588.74	2095.61
589.09	2089.47
589.44	2082.68
589.79	2076.88
590.14	2071.11
590.49	2064.58
590.84	2058.26
591.19	2052.10
591.54	2045.69
591.89	2038.11
592.25	2031.16
592.60	2023.76
592.95	2015.99
593.30	2008.60
593.65	2000.86
594.00	1993.84
594.35	1986.64
594.70	1978.53
595.05	1971.12
595.40	1963.78
595.75	1956.22
596.10	1949.88
596.45	1942.85
596.80	1936.57
597.15	1929.63
597.50	1922.38
597.85	1915.97
598.19	1909.33
598.54	1902.18
598.89	1895.39
599.24	1889.39
599.59	1882.56
599.94	1876.54
600.29	1870.18
600.64	1863.56
600.99	1856.04
601.34	1849.06
601.69	1841.92
602.04	1834.90
602.39	1827.65
602.74	1820.61
603.08	1813.93
603.43	1807.25
603.78	1800.02
604.13	1792.74
604.48	1785.44
604.83	1778.84
605.18	1771.73
605.53	1763.55
605.87	1755.58
606.22	1748.37
606.57	1740.61
606.92	1733.45
607.27	1726.11
607.62	1719.19
607.96	1711.89
608.31	1705.27
608.66	1697.68
609.01	1690.21
609.36	1682.73
609.70	1674.62
610.05	1666.63
610.40	1658.84
610.75	1650.45
611.10	1642.90
611.44	1634.62
611.79	1626.65
612.14	1617.80
612.49	1608.66
612.83	1600.39
613.18	1592.22
613.53	1584.25
613.88	1575.68
614.22	1567.26
614.57	1558.91
614.92	1550.81
615.27	1543.21
615.61	1534.85
615.96	1526.80
616.31	1519.18
616.65	1511.82
617.00	1504.30
617.35	1496.77
617.70	1488.43
618.04	1479.97
618.39	1471.71
618.74	1464.07
619.08	1455.79
619.43	1448.33
619.78	1441.50
620.12	1434.31
620.47	1426.79
620.82	1418.55
621.16	1411.11
621.51	1403.59
621.85	1395.99
622.20	1387.58
622.55	1379.37
622.89	1371.59
623.24	1364.09
623.59	1356.74
623.93	1349.19
624.28	1342.01
624.62	1334.44
624.97	1327.25
625.32	1320.59
625.66	1313.55
626.01	1306.25
626.35	1298.80
626.70	1291.02
627.04	1283.18
627.39	1275.47
627.73	1268.09
628.08	1261.22
628.43	1253.92
628.77	1246.58
629.12	1238.92
629.46	1231.71
629.81	1224.24
630.15	1217.13
630.50	1209.71
630.84	1201.49
631.19	1193.60
631.53	1186.14
631.88	1178.68
632.22	1171.10
632.57	1163.77
632.91	1156.30
633.26	1149.01
633.60	1141.65
633.95	1134.66
634.29	1127.72
634.64	1121.02
634.98	1113.86
635.32	1106.78
635.67	1100.28
636.01	1093.59
636.36	1086.84
636.70	1080.47
637.05	1073.91
637.39	1067.38
637.73	1060.88
638.08	1055.14
638.42	1049.19
638.77	1042.67
639.11	1035.94
639.45	1029.64
639.80	1023.09
640.14	1016.65
640.49	1010.17
640.83	1003.94
641.17	997.56
641.52	991.34
641.86	984.99
642.20	979.09
642.55	972.85
642.89	966.35
643.23	959.88
643.58	954.10
643.92	947.77
644.26	941.77
644.61	935.93
644.95	929.91
645.29	923.24
645.64	916.55
645.98	910.32
646.32	904.65
646.66	898.62
647.01	892.81
647.35	887.10
647.69	881.32
648.04	875.90
648.38	870.24
648.72	864.11
649.06	857.98
649.41	851.95
649.75	845.83
650.09	839.87
650.43	834.09
650.78	827.88
651.12	822.06
651.46	816.28
651.80	810.41
652.14	805.03
652.49	799.70
652.83	794.48
653.17	788.80
653.51	783.03
653.85	777.73
654.20	772.09
654.54	766.13
654.88	760.36
655.22	754.48
655.56	748.82
655.90	743.46
656.25	738.27
656.59	733.02
656.93	728.00
657.27	722.90
657.61	717.52
657.95	712.50
658.29	707.39
658.64	702.19
658.98	696.95
659.32	691.50
659.66	686.35
660.00	681.08
660.34	676.15
660.68	671.26
661.02	666.13
661.36	661.42
661.70	656.95
662.05	652.58
662.39	648.20
662.73	643.76
663.07	639.37
663.41	634.91
663.75	630.45
664.09	625.99
664.43	621.60
664.77	617.49
665.11	613.28
665.45	609.20
665.79	605.15
666.13	601.00
666.47	596.96
666.81	592.75
667.15	588.67
667.49	584.85
667.83	581.10
668.17	577.23
668.51	573.23
668.85	569.18
669.19	565.37
669.53	561.52
669.87	557.58
670.21	553.95
670.55	550.40
670.89	546.97
671.23	543.47
671.57	539.97
671.91	536.46
672.25	533.08
672.58	529.58
672.92	526.18
673.26	523.04
673.60	519.90
673.94	516.80
674.28	513.97
674.62	510.94
674.96	507.84
675.30	504.93
675.64	501.97
675.97	499.28
676.31	496.43
676.65	493.50
676.99	490.88
677.33	487.99
677.67	485.16
678.01	482.09
678.34	479.13
678.68	476.30
679.02	473.49
679.36	470.62
679.70	467.91
680.04	465.15
680.37	462.29
680.71	459.55
681.05	456.96
681.39	454.20
681.73	451.55
682.06	449.01
682.40	446.49
682.74	443.97
683.08	441.39
683.42	438.86
683.75	436.40
684.09	433.83
684.43	431.38
684.77	428.93
685.10	426.62
685.44	424.36
685.78	422.07
686.12	419.85
686.45	417.62
686.79	415.35
687.13	413.19
687.46	411.04
687.80	408.86
688.14	406.66
688.48	404.61
688.81	402.43
689.15	400.30
689.49	398.14
689.82	396.08
690.16	394.01
690.50	392.01
690.83	390.09
691.17	388.13
691.51	386.23
691.84	384.42
692.18	382.50
692.52	380.52
692.85	378.58
693.19	376.70
693.52	374.90
693.86	373.16
694.20	371.37
694.53	369.61
694.87	367.80
695.21	366.03
695.54	364.22
695.88	362.54
696.21	360.85
696.55	359.22
696.88	357.57
697.22	355.95
697.56	354.37
697.89	352.72
698.23	351.10
698.56	349.55
698.90	347.92
699.23	346.27
699.57	344.74
699.90	343.22
700.24	341.70
700.58	340.15
700.91	338.61
701.25	337.18
701.58	335.84
701.92	334.48
702.25	333.09
702.59	331.74
702.92	330.37
703.26	329.10
703.59	327.82
703.93	326.63
704.26	325.38
704.60	324.09
704.93	322.85
705.26	321.65
705.60	320.48
705.93	319.36
706.27	318.39
706.60	317.36
706.94	316.29
707.27	315.16
707.61	314.10
707.94	313.09
708.27	312.01
708.61	310.94
708.94	309.96
709.28	309.02
709.61	308.04
709.94	307.10
710.28	306.08
710.61	305.10
710.95	304.04
711.28	303.15
711.61	302.20
711.95	301.26
712.28	300.29
712.61	299.24
712.95	298.30
713.28	297.36
713.61	296.42
713.95	295.50
714.28	294.64
714.61	293.79
714.95	292.97
715.28	292.08
715.61	291.16
715.95	290.32
716.28	289.47
716.61	288.68
716.95	287.88
717.28	287.17
717.61	286.36
717.94	285.60
718.28	284.77
718.61	284.06
718.94	283.34
719.27	282.69
719.61	282.09
719.94	281.43
720.27	280.72
720.60	280.08
720.94	279.48
721.27	278.91
721.60	278.33
721.93	277.71
722.27	277.19
722.60	276.65
722.93	276.07
723.26	275.49
723.59	274.90
723.93	274.32
724.26	273.74
724.59	273.20
724.92	272.67
725.25	272.14
725.59	271.58
725.92	271.09
726.25	270.56
726.58	270.07
726.91	269.58
727.24	269.12
727.57	268.67
727.91	268.15
728.24	267.66
728.57	267.16
728.90	266.69
729.23	266.19
729.56	265.76
729.89	265.29
730.22	264.85
730.55	264.37
730.89	263.95
731.22	263.49
731.55	263.07
731.88	262.67
732.21	262.26
732.54	261.84
732.87	261.41
733.20	261.04
733.53	260.63
733.86	260.28
734.19	259.89
734.52	259.51
734.85	259.21
735.18	258.82
735.51	258.47
735.84	258.08
736.17	257.73
736.50	257.33
736.83	257.13
737.16	256.82
737.49	256.52
737.82	256.16
738.15	255.86
738.48	255.53
738.81	255.20
739.14	254.86
739.47	254.57
739.80	254.25
740.13	253.95
740.46	253.63
740.79	253.28
741.12	252.97
741.45	252.67
741.78	252.33
742.11	252.05
742.44	251.73
742.77	251.49
743.10	251.23
743.43	250.93
743.75	250.55
744.08	250.34
744.41	250.06
744.74	249.81
745.07	249.52
745.40	249.32
745.73	249.11
746.06	248.91
746.39	248.67
746.71	248.41
747.04	248.14
747.37	247.91
747.70	247.68
748.03	247.44
748.36	247.22
748.68	247.00
749.01	246.73
749.34	246.54
749.67	246.29
750.00	246.07
750.33	245.95
750.65	245.72
750.98	245.41
751.31	245.19
751.64	244.97
751.97	244.81
752.29	244.60
752.62	244.32
752.95	244.08
753.28	243.86
753.60	243.71
753.93	243.55
754.26	243.36
754.59	243.16
754.91	242.95
755.24	242.74
755.57	242.55
755.90	242.41
756.22	242.21
756.55	242.03
756.88	241.81
757.20	241.59
757.53	241.41
757.86	241.23
758.19	241.07
758.51	240.91
758.84	240.72
759.17	240.52
759.49	240.35
759.82	240.25
760.15	240.10
760.47	239.92
760.80	239.74
761.13	239.59
761.45	239.43
761.78	239.29
762.11	239.11
762.43	238.97
762.76	238.79
763.08	238.63
763.41	238.48
763.74	238.33
764.06	238.13
764.39	237.99
764.71	237.85
765.04	237.70
765.37	237.57
765.69	237.42
766.02	237.30
766.34	237.16
766.67	236.98
767.00	236.88
767.32	236.80
767.65	236.72
767.97	236.52
768.30	236.38
768.62	236.27
768.95	236.16
769.27	236.04
769.60	235.93
769.92	235.84
770.25	235.72
770.57	235.59
770.90	235.50
771.22	235.37
771.55	235.28
771.87	235.18
772.20	235.06
772.52	235.05
772.85	235.06
773.17	234.94
773.50	234.84
773.82	234.72
774.15	234.60
774.47	234.45
774.80	234.43
775.12	234.32
775.45	234.23
775.77	234.16
776.09	234.10
776.42	234.02
776.74	233.97
777.07	233.91
777.39	233.87
777.72	233.82
778.04	233.79
778.36	233.73
778.69	233.67
779.01	233.63
779.33	233.47
779.66	233.29
779.98	233.22
780.31	233.17
780.63	233.18
780.95	233.14
781.28	233.08
781.60	233.02
781.92	232.98
782.25	232.94
782.57	232.89
782.89	232.82
783.22	232.80
783.54	232.70
783.86	232.63
784.19	232.58
784.51	232.58
784.83	232.49
785.16	232.42
785.48	232.38
785.80	232.35
786.12	232.32
786.45	232.28
786.77	232.28
787.09	232.24
