SpectraSuite Data File
++++++++++++++++++++++++++++++++++++
Date: Fri Feb 01 16:43:17 EST 2013
User: group
Dark Spectrum Present: No
Reference Spectrum Present: No
Number of Sampled Component Spectra: 1
Spectrometers: USB2E7196
Integration Time (usec): 35000 (USB2E7196)
Spectra Averaged: 100 (USB2E7196)
Boxcar Smoothing: 10 (USB2E7196)
Correct for Electrical Dark: No (USB2E7196)
Strobe/Lamp Enabled: No (USB2E7196)
Correct for Detector Non-linearity: No (USB2E7196)
Correct for Stray Light: No (USB2E7196)
Number of Pixels in Processed Spectrum: 2048
>>>>>Begin Processed Spectral Data<<<<<
339.09	0.00
339.48	213.33
339.86	215.45
340.24	216.01
340.63	217.31
341.01	221.01
341.39	220.66
341.78	222.28
342.16	222.46
342.54	222.92
342.93	211.88
343.31	222.58
343.69	223.13
344.07	223.59
344.46	224.02
344.84	224.41
345.22	224.61
345.60	224.87
345.99	225.01
346.37	225.17
346.75	225.28
347.13	225.37
347.52	225.42
347.90	225.52
348.28	225.52
348.66	225.60
349.05	225.60
349.43	225.61
349.81	225.67
350.19	225.73
350.57	225.81
350.96	225.88
351.34	225.95
351.72	226.04
352.10	226.13
352.48	226.20
352.87	226.26
353.25	226.36
353.63	226.40
354.01	226.52
354.39	226.57
354.77	226.68
355.15	226.77
355.54	226.83
355.92	226.86
356.30	226.94
356.68	227.06
357.06	227.11
357.44	227.17
357.82	227.24
358.20	227.31
358.58	227.38
358.97	227.42
359.35	227.51
359.73	227.57
360.11	227.61
360.49	227.66
360.87	227.71
361.25	227.75
361.63	227.82
362.01	227.82
362.39	227.86
362.77	227.90
363.15	227.90
363.53	227.90
363.91	227.93
364.29	227.93
364.67	227.86
365.05	227.87
365.43	227.91
365.81	227.90
366.19	227.93
366.57	227.95
366.95	227.95
367.33	227.94
367.71	227.91
368.09	227.92
368.47	227.90
368.85	227.87
369.23	227.86
369.61	227.79
369.99	227.81
370.37	227.79
370.75	227.81
371.13	227.79
371.51	227.73
371.89	227.70
372.27	227.69
372.65	227.65
373.03	227.61
373.41	227.53
373.78	227.47
374.16	227.38
374.54	227.29
374.92	227.22
375.30	227.15
375.68	227.07
376.06	227.01
376.44	226.93
376.82	226.88
377.19	226.82
377.57	226.80
377.95	226.69
378.33	226.63
378.71	226.52
379.09	226.48
379.47	226.46
379.84	226.38
380.22	226.29
380.60	226.21
380.98	226.15
381.36	226.13
381.73	226.05
382.11	226.00
382.49	225.97
382.87	225.89
383.25	225.84
383.62	225.92
384.00	225.84
384.38	225.83
384.76	225.81
385.13	225.80
385.51	225.71
385.89	225.70
386.27	225.68
386.64	225.65
387.02	225.61
387.40	225.56
387.78	225.53
388.15	225.50
388.53	225.48
388.91	225.47
389.29	225.42
389.66	225.41
390.04	225.42
390.42	225.36
390.79	225.36
391.17	225.34
391.55	225.24
391.92	225.26
392.30	225.24
392.68	225.20
393.05	225.18
393.43	225.18
393.81	225.15
394.18	225.14
394.56	225.15
394.94	225.16
395.31	225.16
395.69	225.22
396.06	225.28
396.44	225.30
396.82	225.31
397.19	225.39
397.57	225.43
397.95	225.45
398.32	225.51
398.70	225.58
399.07	225.65
399.45	225.68
399.82	225.76
400.20	225.80
400.58	225.86
400.95	225.90
401.33	226.01
401.70	226.16
402.08	226.22
402.45	226.28
402.83	226.40
403.20	226.48
403.58	226.52
403.95	226.61
404.33	226.72
404.71	226.82
405.08	226.98
405.46	227.10
405.83	227.24
406.21	227.36
406.58	227.53
406.96	227.68
407.33	227.88
407.70	228.00
408.08	228.28
408.45	228.51
408.83	228.74
409.20	228.92
409.58	229.08
409.95	229.37
410.33	229.62
410.70	229.82
411.08	230.15
411.45	230.46
411.82	230.74
412.20	231.10
412.57	231.49
412.95	231.78
413.32	232.20
413.69	232.59
414.07	233.00
414.44	233.44
414.82	233.91
415.19	234.41
415.56	234.95
415.94	235.48
416.31	236.12
416.68	236.71
417.06	237.45
417.43	238.14
417.81	238.86
418.18	239.64
418.55	240.52
418.93	241.37
419.30	242.27
419.67	243.22
420.04	244.16
420.42	245.12
420.79	246.29
421.16	247.42
421.54	248.65
421.91	249.88
422.28	251.13
422.66	252.45
423.03	253.78
423.40	255.11
423.77	256.53
424.15	257.95
424.52	259.42
424.89	261.00
425.26	262.54
425.64	264.03
426.01	265.62
426.38	267.25
426.75	268.91
427.13	270.62
427.50	272.45
427.87	274.32
428.24	276.19
428.61	277.91
428.99	279.86
429.36	281.90
429.73	283.99
430.10	286.02
430.47	288.07
430.85	290.16
431.22	292.37
431.59	294.70
431.96	296.88
432.33	299.36
432.70	301.68
433.08	304.43
433.45	307.04
433.82	309.59
434.19	312.45
434.56	315.24
434.93	317.89
435.30	320.45
435.68	323.31
436.05	326.15
436.42	328.91
436.79	331.39
437.16	334.10
437.53	336.91
437.90	339.65
438.27	342.35
438.64	345.12
439.01	347.68
439.38	349.94
439.75	352.10
440.13	354.56
440.50	356.90
440.87	358.79
441.24	360.68
441.61	362.83
441.98	364.32
442.35	366.10
442.72	367.94
443.09	369.76
443.46	370.76
443.83	371.31
444.20	371.84
444.57	372.69
444.94	372.96
445.31	373.23
445.68	373.63
446.05	373.74
446.42	373.41
446.79	373.02
447.16	372.57
447.53	372.25
447.90	371.10
448.27	369.91
448.64	368.33
449.01	367.20
449.37	365.29
449.74	363.39
450.11	361.17
450.48	358.76
450.85	356.22
451.22	354.11
451.59	352.10
451.96	350.18
452.33	347.53
452.70	345.16
453.07	342.38
453.43	339.46
453.80	336.74
454.17	334.07
454.54	331.51
454.91	328.80
455.28	326.15
455.65	323.68
456.02	321.29
456.38	319.15
456.75	316.52
457.12	314.29
457.49	312.07
457.86	309.88
458.23	308.01
458.59	306.02
458.96	303.94
459.33	302.13
459.70	300.29
460.07	298.81
460.43	297.14
460.80	295.56
461.17	294.15
461.54	292.65
461.91	291.26
462.27	289.85
462.64	288.62
463.01	287.29
463.38	286.04
463.74	284.68
464.11	283.55
464.48	282.52
464.85	281.42
465.21	280.59
465.58	279.68
465.95	278.63
466.32	277.73
466.68	276.84
467.05	275.96
467.42	275.09
467.78	274.19
468.15	273.35
468.52	272.71
468.88	271.89
469.25	271.12
469.62	270.49
469.98	269.87
470.35	269.26
470.72	268.68
471.08	268.06
471.45	267.55
471.82	267.02
472.18	266.42
472.55	266.00
472.92	265.50
473.28	265.08
473.65	264.67
474.02	264.23
474.38	263.89
474.75	263.57
475.11	263.26
475.48	263.04
475.85	262.81
476.21	262.61
476.58	262.45
476.94	262.32
477.31	262.18
477.67	262.02
478.04	261.92
478.41	261.88
478.77	261.92
479.14	261.89
479.50	261.91
479.87	262.01
480.23	262.13
480.60	262.21
480.96	262.36
481.33	262.54
481.69	262.73
482.06	262.92
482.42	263.14
482.79	263.39
483.15	263.71
483.52	264.10
483.88	264.42
484.25	264.78
484.61	265.19
484.98	265.68
485.34	266.24
485.71	266.82
486.07	267.45
486.44	268.02
486.80	268.74
487.17	269.47
487.53	270.31
487.90	271.13
488.26	272.05
488.62	273.02
488.99	274.00
489.35	275.04
489.72	276.19
490.08	277.39
490.44	278.63
490.81	279.93
491.17	281.28
491.54	282.73
491.90	284.29
492.26	285.94
492.63	287.68
492.99	289.48
493.36	291.37
493.72	293.42
494.08	295.49
494.45	297.75
494.81	300.13
495.17	302.56
495.54	305.12
495.90	307.80
496.26	310.56
496.63	313.50
496.99	316.63
497.35	319.91
497.72	323.34
498.08	326.89
498.44	330.57
498.80	334.50
499.17	338.58
499.53	342.73
499.89	347.07
500.26	351.50
500.62	356.11
500.98	361.04
501.34	366.10
501.71	371.44
502.07	376.87
502.43	382.49
502.79	388.29
503.16	394.41
503.52	400.68
503.88	407.11
504.24	413.76
504.60	420.63
504.97	427.71
505.33	434.98
505.69	442.66
506.05	450.42
506.41	458.22
506.78	466.32
507.14	474.78
507.50	483.50
507.86	492.55
508.22	501.72
508.59	510.97
508.95	520.53
509.31	530.32
509.67	540.32
510.03	550.49
510.39	561.02
510.75	571.78
511.12	582.66
511.48	593.92
511.84	605.32
512.20	616.79
512.56	628.67
512.92	640.77
513.28	653.11
513.64	665.55
514.00	678.28
514.37	691.23
514.73	704.20
515.09	717.13
515.45	730.37
515.81	743.96
516.17	757.86
516.53	771.87
516.89	785.99
517.25	800.06
517.61	814.46
517.97	828.82
518.33	843.08
518.69	857.77
519.05	872.55
519.41	887.65
519.77	902.99
520.13	918.30
520.49	933.55
520.85	948.77
521.21	964.38
521.57	980.54
521.93	996.13
522.29	1012.36
522.65	1028.51
523.01	1044.52
523.37	1060.43
523.73	1076.46
524.09	1092.38
524.45	1108.47
524.81	1125.06
525.17	1141.64
525.53	1158.35
525.89	1175.09
526.25	1191.79
526.61	1208.12
526.97	1224.73
527.33	1241.15
527.68	1257.55
528.04	1273.92
528.40	1290.35
528.76	1307.24
529.12	1323.54
529.48	1340.29
529.84	1356.24
530.20	1372.66
530.56	1389.42
530.91	1406.62
531.27	1423.28
531.63	1439.66
531.99	1456.15
532.35	1472.10
532.71	1487.93
533.07	1503.98
533.42	1519.77
533.78	1535.64
534.14	1551.65
534.50	1566.67
534.86	1582.34
535.21	1597.47
535.57	1613.16
535.93	1628.45
536.29	1642.98
536.65	1657.84
537.00	1672.31
537.36	1687.29
537.72	1701.62
538.08	1715.96
538.44	1729.45
538.79	1743.10
539.15	1756.44
539.51	1769.80
539.87	1783.73
540.22	1797.19
540.58	1810.69
540.94	1823.76
541.29	1836.27
541.65	1848.75
542.01	1861.75
542.37	1873.86
542.72	1886.07
543.08	1897.64
543.44	1909.78
543.79	1920.89
544.15	1931.75
544.51	1943.21
544.87	1954.03
545.22	1964.74
545.58	1974.89
545.94	1984.61
546.29	1994.33
546.65	2004.25
547.01	2013.69
547.36	2022.35
547.72	2030.71
548.07	2038.73
548.43	2046.81
548.79	2054.74
549.14	2062.39
549.50	2069.71
549.86	2077.34
550.21	2084.48
550.57	2091.74
550.92	2098.32
551.28	2105.50
551.64	2112.45
551.99	2118.81
552.35	2125.04
552.70	2131.22
553.06	2137.16
553.41	2143.63
553.77	2149.45
554.13	2155.41
554.48	2161.32
554.84	2166.94
555.19	2172.20
555.55	2177.26
555.90	2181.83
556.26	2186.87
556.61	2191.38
556.97	2195.87
557.32	2200.03
557.68	2204.25
558.03	2208.44
558.39	2212.16
558.74	2216.66
559.10	2220.66
559.45	2224.51
559.81	2228.86
560.16	2232.67
560.52	2235.94
560.87	2239.22
561.23	2241.96
561.58	2244.84
561.94	2247.45
562.29	2249.59
562.64	2252.51
563.00	2255.15
563.35	2258.56
563.71	2261.75
564.06	2265.11
564.42	2267.95
564.77	2270.53
565.12	2273.04
565.48	2275.07
565.83	2277.09
566.19	2278.53
566.54	2279.36
566.89	2280.60
567.25	2281.28
567.60	2282.52
567.96	2284.27
568.31	2285.13
568.66	2286.48
569.02	2287.12
569.37	2287.52
569.72	2288.57
570.08	2288.79
570.43	2288.86
570.78	2288.38
571.14	2286.96
571.49	2285.63
571.84	2285.23
572.20	2284.20
572.55	2283.18
572.90	2281.66
573.26	2280.26
573.61	2278.54
573.96	2277.07
574.31	2274.23
574.67	2271.25
575.02	2267.74
575.37	2264.38
575.72	2260.76
576.08	2257.25
576.43	2254.03
576.78	2250.43
577.13	2247.14
577.49	2243.80
577.84	2240.44
578.19	2236.81
578.54	2233.24
578.90	2229.20
579.25	2223.73
579.60	2218.96
579.95	2214.07
580.30	2209.11
580.66	2204.06
581.01	2199.12
581.36	2194.10
581.71	2189.95
582.06	2185.70
582.42	2181.49
582.77	2176.50
583.12	2172.06
583.47	2167.65
583.82	2162.79
584.17	2157.58
584.53	2152.30
584.88	2146.94
585.23	2141.25
585.58	2135.80
585.93	2130.46
586.28	2125.54
586.63	2120.67
586.98	2115.65
587.34	2110.92
587.69	2106.00
588.04	2100.89
588.39	2095.44
588.74	2089.21
589.09	2083.02
589.44	2076.21
589.79	2070.06
590.14	2064.29
590.49	2057.73
590.84	2051.28
591.19	2045.31
591.54	2039.12
591.89	2032.05
592.25	2025.36
592.60	2018.28
592.95	2010.86
593.30	2003.52
593.65	1996.04
594.00	1989.02
594.35	1981.66
594.70	1973.66
595.05	1966.87
595.40	1959.57
595.75	1952.17
596.10	1946.07
596.45	1939.55
596.80	1933.48
597.15	1927.04
597.50	1920.27
597.85	1913.94
598.19	1907.42
598.54	1900.61
598.89	1893.92
599.24	1887.95
599.59	1881.51
599.94	1875.30
600.29	1868.92
600.64	1862.42
600.99	1855.30
601.34	1848.56
601.69	1841.67
602.04	1834.93
602.39	1827.50
602.74	1820.94
603.08	1814.36
603.43	1807.51
603.78	1800.25
604.13	1793.05
604.48	1785.89
604.83	1779.12
605.18	1772.45
605.53	1764.62
605.87	1756.56
606.22	1749.28
606.57	1741.25
606.92	1733.61
607.27	1726.58
607.62	1719.90
607.96	1712.60
608.31	1706.14
608.66	1698.71
609.01	1691.29
609.36	1683.89
609.70	1675.96
610.05	1667.89
610.40	1660.15
610.75	1651.96
611.10	1644.36
611.44	1635.98
611.79	1627.97
612.14	1619.16
612.49	1609.84
612.83	1601.39
613.18	1593.34
613.53	1585.37
613.88	1577.02
614.22	1568.96
614.57	1560.20
614.92	1552.26
615.27	1545.00
615.61	1536.58
615.96	1528.54
616.31	1520.93
616.65	1513.50
617.00	1505.84
617.35	1498.26
617.70	1490.05
618.04	1481.57
618.39	1473.32
618.74	1465.94
619.08	1457.71
619.43	1450.21
619.78	1443.37
620.12	1436.32
620.47	1428.75
620.82	1420.76
621.16	1413.27
621.51	1405.62
621.85	1398.06
622.20	1389.55
622.55	1381.05
622.89	1373.19
623.24	1365.50
623.59	1358.03
623.93	1350.54
624.28	1343.37
624.62	1335.79
624.97	1328.53
625.32	1321.72
625.66	1314.71
626.01	1307.48
626.35	1300.08
626.70	1292.32
627.04	1284.60
627.39	1276.81
627.73	1269.47
628.08	1262.45
628.43	1255.31
628.77	1248.16
629.12	1240.71
629.46	1233.50
629.81	1226.05
630.15	1218.88
630.50	1211.57
630.84	1203.46
631.19	1195.54
631.53	1187.99
631.88	1180.37
632.22	1172.81
632.57	1165.46
632.91	1157.95
633.26	1150.55
633.60	1143.14
633.95	1135.90
634.29	1128.81
634.64	1122.12
634.98	1114.75
635.32	1107.57
635.67	1100.79
636.01	1094.07
636.36	1087.31
636.70	1080.81
637.05	1074.20
637.39	1067.81
637.73	1061.34
638.08	1055.43
638.42	1049.36
638.77	1043.01
639.11	1036.58
639.45	1030.22
639.80	1023.70
640.14	1017.37
640.49	1010.85
640.83	1004.61
641.17	998.52
641.52	992.24
641.86	985.74
642.20	979.93
642.55	973.63
642.89	967.33
643.23	960.69
643.58	954.97
643.92	948.79
644.26	942.95
644.61	936.81
644.95	930.80
645.29	924.37
645.64	917.76
645.98	911.43
646.32	905.43
646.66	899.45
647.01	893.73
647.35	888.00
647.69	882.13
648.04	876.58
648.38	870.83
648.72	864.91
649.06	858.92
649.41	852.94
649.75	847.02
650.09	841.06
650.43	835.35
650.78	829.21
651.12	823.33
651.46	817.51
651.80	811.84
652.14	806.43
652.49	801.06
652.83	795.89
653.17	790.32
653.51	784.73
653.85	779.32
654.20	773.62
654.54	767.68
654.88	761.94
655.22	756.04
655.56	750.36
655.90	744.85
656.25	739.65
656.59	734.41
656.93	729.34
657.27	724.22
657.61	718.85
657.95	713.71
658.29	708.55
658.64	703.35
658.98	698.02
659.32	692.60
659.66	687.36
660.00	682.03
660.34	677.07
660.68	672.18
661.02	667.14
661.36	662.47
661.70	657.96
662.05	653.60
662.39	649.33
662.73	644.90
663.07	640.55
663.41	636.11
663.75	631.63
664.09	627.11
664.43	622.74
664.77	618.62
665.11	614.41
665.45	610.31
665.79	606.23
666.13	602.09
666.47	597.92
666.81	593.79
667.15	589.67
667.49	585.70
667.83	581.76
668.17	577.86
668.51	573.76
668.85	569.72
669.19	565.86
669.53	562.00
669.87	558.11
670.21	554.42
670.55	550.79
670.89	547.30
671.23	543.89
671.57	540.30
671.91	536.79
672.25	533.32
672.58	529.78
672.92	526.38
673.26	523.18
673.60	520.09
673.94	517.00
674.28	514.10
674.62	511.17
674.96	508.10
675.30	505.22
675.64	502.33
675.97	499.52
676.31	496.71
676.65	493.75
676.99	491.07
677.33	488.16
677.67	485.30
678.01	482.28
678.34	479.34
678.68	476.48
679.02	473.67
679.36	470.82
679.70	468.11
680.04	465.31
680.37	462.54
680.71	459.73
681.05	457.09
681.39	454.29
681.73	451.64
682.06	449.12
682.40	446.57
682.74	444.01
683.08	441.48
683.42	438.79
683.75	436.32
684.09	433.71
684.43	431.28
684.77	428.81
685.10	426.44
685.44	424.06
685.78	421.75
686.12	419.44
686.45	417.17
686.79	414.83
687.13	412.67
687.46	410.49
687.80	408.29
688.14	406.01
688.48	404.02
688.81	401.78
689.15	399.63
689.49	397.46
689.82	395.44
690.16	393.28
690.50	391.33
690.83	389.38
691.17	387.38
691.51	385.45
691.84	383.58
692.18	381.71
692.52	379.77
692.85	377.85
693.19	375.99
693.52	374.13
693.86	372.34
694.20	370.56
694.53	368.76
694.87	366.89
695.21	365.16
695.54	363.32
695.88	361.53
696.21	359.77
696.55	358.06
696.88	356.32
697.22	354.69
697.56	353.04
697.89	351.42
698.23	349.83
698.56	348.24
698.90	346.72
699.23	345.09
699.57	343.53
699.90	341.98
700.24	340.40
700.58	338.90
700.91	337.46
701.25	335.97
701.58	334.59
701.92	333.28
702.25	331.91
702.59	330.56
702.92	329.27
703.26	327.99
703.59	326.72
703.93	325.54
704.26	324.31
704.60	323.09
704.93	321.81
705.26	320.54
705.60	319.32
705.93	318.09
706.27	317.03
706.60	315.96
706.94	314.88
707.27	313.78
707.61	312.69
707.94	311.62
708.27	310.57
708.61	309.45
708.94	308.42
709.28	307.43
709.61	306.45
709.94	305.50
710.28	304.46
710.61	303.49
710.95	302.39
711.28	301.49
711.61	300.55
711.95	299.65
712.28	298.74
712.61	297.77
712.95	296.88
713.28	295.99
713.61	295.08
713.95	294.21
714.28	293.34
714.61	292.48
714.95	291.65
715.28	290.75
715.61	289.91
715.95	289.05
716.28	288.20
716.61	287.37
716.95	286.54
717.28	285.80
717.61	285.02
717.94	284.31
718.28	283.50
718.61	282.74
718.94	282.05
719.27	281.39
719.61	280.74
719.94	280.07
720.27	279.33
720.60	278.70
720.94	278.06
721.27	277.45
721.60	276.87
721.93	276.25
722.27	275.75
722.60	275.21
722.93	274.64
723.26	274.12
723.59	273.54
723.93	272.99
724.26	272.46
724.59	271.88
724.92	271.35
725.25	270.85
725.59	270.30
725.92	269.77
726.25	269.28
726.58	268.77
726.91	268.27
727.24	267.80
727.57	267.33
727.91	266.83
728.24	266.37
728.57	265.88
728.90	265.45
729.23	264.93
729.56	264.50
729.89	264.02
730.22	263.53
730.55	263.07
730.89	262.66
731.22	262.24
731.55	261.81
731.88	261.34
732.21	260.96
732.54	260.58
732.87	260.15
733.20	259.69
733.53	259.34
733.86	258.98
734.19	258.61
734.52	258.23
734.85	257.89
735.18	257.50
735.51	257.17
735.84	256.75
736.17	256.44
736.50	256.04
736.83	255.83
737.16	255.49
737.49	255.21
737.82	254.86
738.15	254.51
738.48	254.17
738.81	253.87
739.14	253.51
739.47	253.18
739.80	252.86
740.13	252.57
740.46	252.22
740.79	251.90
741.12	251.57
741.45	251.24
741.78	250.88
742.11	250.64
742.44	250.28
742.77	249.98
743.10	249.62
743.43	249.35
743.75	248.95
744.08	248.76
744.41	248.44
744.74	248.18
745.07	247.87
745.40	247.65
745.73	247.41
746.06	247.13
746.39	246.88
746.71	246.61
747.04	246.36
747.37	246.10
747.70	245.83
748.03	245.61
748.36	245.36
748.68	245.16
749.01	244.85
749.34	244.65
749.67	244.46
750.00	244.28
750.33	244.09
750.65	243.88
750.98	243.57
751.31	243.37
751.64	243.14
751.97	243.02
752.29	242.79
752.62	242.53
752.95	242.32
753.28	242.12
753.60	241.89
753.93	241.71
754.26	241.55
754.59	241.37
754.91	241.12
755.24	240.96
755.57	240.73
755.90	240.56
756.22	240.38
756.55	240.15
756.88	239.96
757.20	239.75
757.53	239.56
757.86	239.42
758.19	239.24
758.51	239.06
758.84	238.81
759.17	238.64
759.49	238.49
759.82	238.38
760.15	238.23
760.47	238.10
760.80	237.93
761.13	237.78
761.45	237.61
761.78	237.50
762.11	237.32
762.43	237.21
762.76	237.07
763.08	236.92
763.41	236.82
763.74	236.69
764.06	236.53
764.39	236.35
764.71	236.20
765.04	236.03
765.37	235.88
765.69	235.79
766.02	235.64
766.34	235.55
766.67	235.37
767.00	235.23
767.32	235.16
767.65	235.06
767.97	234.96
768.30	234.83
768.62	234.72
768.95	234.59
769.27	234.49
769.60	234.38
769.92	234.24
770.25	234.14
770.57	234.00
770.90	233.90
771.22	233.85
771.55	233.74
771.87	233.67
772.20	233.60
772.52	233.58
772.85	233.61
773.17	233.48
773.50	233.40
773.82	233.29
774.15	233.16
774.47	233.01
774.80	232.89
775.12	232.81
775.45	232.73
775.77	232.68
776.09	232.60
776.42	232.53
776.74	232.50
777.07	232.38
777.39	232.29
777.72	232.23
778.04	232.14
778.36	232.04
778.69	231.99
779.01	231.93
779.33	231.77
779.66	231.60
779.98	231.57
780.31	231.52
780.63	231.50
780.95	231.45
781.28	231.44
781.60	231.36
781.92	231.28
782.25	231.23
782.57	231.14
782.89	231.09
783.22	231.00
783.54	230.94
783.86	230.90
784.19	230.88
784.51	230.83
784.83	230.78
785.16	230.71
785.48	230.64
785.80	230.59
786.12	230.55
786.45	230.50
786.77	230.43
787.09	230.39
