SpectraSuite Data File
++++++++++++++++++++++++++++++++++++
Date: Fri Feb 01 16:13:30 EST 2013
User: group
Dark Spectrum Present: No
Reference Spectrum Present: No
Number of Sampled Component Spectra: 1
Spectrometers: USB2E7196
Integration Time (usec): 35000 (USB2E7196)
Spectra Averaged: 100 (USB2E7196)
Boxcar Smoothing: 10 (USB2E7196)
Correct for Electrical Dark: No (USB2E7196)
Strobe/Lamp Enabled: No (USB2E7196)
Correct for Detector Non-linearity: No (USB2E7196)
Correct for Stray Light: No (USB2E7196)
Number of Pixels in Processed Spectrum: 2048
>>>>>Begin Processed Spectral Data<<<<<
339.09	0.00
339.48	214.21
339.86	215.44
340.24	217.45
340.63	218.39
341.01	221.27
341.39	221.22
341.78	222.77
342.16	223.26
342.54	224.89
342.93	212.62
343.31	223.38
343.69	223.90
344.07	224.38
344.46	224.78
344.84	225.17
345.22	225.41
345.60	225.65
345.99	225.81
346.37	225.96
346.75	226.03
347.13	226.10
347.52	226.16
347.90	226.21
348.28	226.26
348.66	226.28
349.05	226.26
349.43	226.34
349.81	226.37
350.19	226.45
350.57	226.51
350.96	226.57
351.34	226.63
351.72	226.73
352.10	226.82
352.48	226.89
352.87	226.94
353.25	227.03
353.63	227.12
354.01	227.18
354.39	227.27
354.77	227.36
355.15	227.47
355.54	227.54
355.92	227.55
356.30	227.59
356.68	227.72
357.06	227.81
357.44	227.85
357.82	227.94
358.20	227.97
358.58	228.00
358.97	228.08
359.35	228.20
359.73	228.29
360.11	228.33
360.49	228.41
360.87	228.48
361.25	228.53
361.63	228.58
362.01	228.64
362.39	228.67
362.77	228.70
363.15	228.71
363.53	228.73
363.91	228.80
364.29	228.86
364.67	228.78
365.05	228.80
365.43	228.81
365.81	228.78
366.19	228.83
366.57	228.87
366.95	228.86
367.33	228.80
367.71	228.75
368.09	228.77
368.47	228.70
368.85	228.66
369.23	228.64
369.61	228.58
369.99	228.58
370.37	228.55
370.75	228.56
371.13	228.50
371.51	228.47
371.89	228.44
372.27	228.39
372.65	228.34
373.03	228.32
373.41	228.27
373.78	228.24
374.16	228.13
374.54	228.08
374.92	227.99
375.30	227.94
375.68	227.89
376.06	227.82
376.44	227.79
376.82	227.71
377.19	227.64
377.57	227.55
377.95	227.44
378.33	227.37
378.71	227.26
379.09	227.20
379.47	227.12
379.84	227.05
380.22	226.97
380.60	226.89
380.98	226.79
381.36	226.74
381.73	226.66
382.11	226.60
382.49	226.51
382.87	226.45
383.25	226.39
383.62	226.42
384.00	226.36
384.38	226.31
384.76	226.28
385.13	226.24
385.51	226.21
385.89	226.15
386.27	226.08
386.64	226.01
387.02	225.95
387.40	225.93
387.78	225.88
388.15	225.86
388.53	225.81
388.91	225.79
389.29	225.75
389.66	225.74
390.04	225.73
390.42	225.73
390.79	225.71
391.17	225.68
391.55	225.57
391.92	225.55
392.30	225.54
392.68	225.52
393.05	225.54
393.43	225.54
393.81	225.56
394.18	225.59
394.56	225.63
394.94	225.69
395.31	225.67
395.69	225.70
396.06	225.77
396.44	225.82
396.82	225.82
397.19	225.88
397.57	225.90
397.95	225.97
398.32	226.00
398.70	226.06
399.07	226.15
399.45	226.21
399.82	226.27
400.20	226.32
400.58	226.39
400.95	226.40
401.33	226.52
401.70	226.64
402.08	226.74
402.45	226.84
402.83	226.93
403.20	227.06
403.58	227.15
403.95	227.25
404.33	227.40
404.71	227.54
405.08	227.73
405.46	227.87
405.83	227.99
406.21	228.13
406.58	228.33
406.96	228.49
407.33	228.66
407.70	228.88
408.08	229.16
408.45	229.37
408.83	229.62
409.20	229.84
409.58	230.04
409.95	230.31
410.33	230.57
410.70	230.83
411.08	231.12
411.45	231.43
411.82	231.71
412.20	232.05
412.57	232.48
412.95	232.77
413.32	233.21
413.69	233.58
414.07	234.02
414.44	234.44
414.82	234.93
415.19	235.50
415.56	236.00
415.94	236.56
416.31	237.21
416.68	237.84
417.06	238.50
417.43	239.19
417.81	239.96
418.18	240.73
418.55	241.56
418.93	242.46
419.30	243.38
419.67	244.33
420.04	245.27
420.42	246.26
420.79	247.45
421.16	248.61
421.54	249.85
421.91	251.09
422.28	252.37
422.66	253.68
423.03	255.03
423.40	256.40
423.77	257.81
424.15	259.23
424.52	260.71
424.89	262.37
425.26	263.93
425.64	265.36
426.01	266.93
426.38	268.60
426.75	270.25
427.13	271.95
427.50	273.75
427.87	275.62
428.24	277.50
428.61	279.20
428.99	281.09
429.36	283.17
429.73	285.21
430.10	287.23
430.47	289.30
430.85	291.34
431.22	293.55
431.59	295.90
431.96	298.13
432.33	300.59
432.70	302.94
433.08	305.71
433.45	308.36
433.82	310.94
434.19	313.81
434.56	316.65
434.93	319.28
435.30	321.89
435.68	324.80
436.05	327.62
436.42	330.44
436.79	332.98
437.16	335.67
437.53	338.51
437.90	341.30
438.27	344.04
438.64	346.86
439.01	349.45
439.38	351.67
439.75	353.78
440.13	356.29
440.50	358.59
440.87	360.42
441.24	362.34
441.61	364.52
441.98	365.99
442.35	367.76
442.72	369.63
443.09	371.43
443.46	372.39
443.83	372.97
444.20	373.45
444.57	374.30
444.94	374.58
445.31	374.94
445.68	375.33
446.05	375.38
446.42	374.98
446.79	374.55
447.16	374.11
447.53	373.84
447.90	372.67
448.27	371.57
448.64	370.03
449.01	368.88
449.37	366.92
449.74	365.04
450.11	362.74
450.48	360.30
450.85	357.72
451.22	355.60
451.59	353.57
451.96	351.65
452.33	349.02
452.70	346.66
453.07	343.82
453.43	340.90
453.80	338.13
454.17	335.49
454.54	332.92
454.91	330.18
455.28	327.49
455.65	324.99
456.02	322.53
456.38	320.37
456.75	317.74
457.12	315.48
457.49	313.27
457.86	311.19
458.23	309.33
458.59	307.36
458.96	305.26
459.33	303.42
459.70	301.55
460.07	300.05
460.43	298.35
460.80	296.70
461.17	295.28
461.54	293.81
461.91	292.43
462.27	290.99
462.64	289.76
463.01	288.42
463.38	287.12
463.74	285.75
464.11	284.60
464.48	283.57
464.85	282.46
465.21	281.57
465.58	280.64
465.95	279.52
466.32	278.60
466.68	277.69
467.05	276.80
467.42	275.91
467.78	274.98
468.15	274.09
468.52	273.45
468.88	272.56
469.25	271.77
469.62	271.10
469.98	270.48
470.35	269.86
470.72	269.31
471.08	268.68
471.45	268.19
471.82	267.67
472.18	267.10
472.55	266.67
472.92	266.13
473.28	265.65
473.65	265.20
474.02	264.80
474.38	264.46
474.75	264.13
475.11	263.81
475.48	263.57
475.85	263.34
476.21	263.08
476.58	262.95
476.94	262.84
477.31	262.71
477.67	262.58
478.04	262.49
478.41	262.40
478.77	262.46
479.14	262.39
479.50	262.34
479.87	262.41
480.23	262.49
480.60	262.60
480.96	262.70
481.33	262.94
481.69	263.12
482.06	263.31
482.42	263.52
482.79	263.79
483.15	264.10
483.52	264.49
483.88	264.89
484.25	265.31
484.61	265.73
484.98	266.16
485.34	266.68
485.71	267.27
486.07	267.87
486.44	268.43
486.80	269.09
487.17	269.84
487.53	270.64
487.90	271.51
488.26	272.48
488.62	273.45
488.99	274.42
489.35	275.48
489.72	276.62
490.08	277.85
490.44	279.11
490.81	280.45
491.17	281.80
491.54	283.25
491.90	284.75
492.26	286.39
492.63	288.16
492.99	289.98
493.36	291.87
493.72	293.97
494.08	296.07
494.45	298.36
494.81	300.77
495.17	303.22
495.54	305.81
495.90	308.47
496.26	311.30
496.63	314.27
496.99	317.39
497.35	320.65
497.72	324.04
498.08	327.52
498.44	331.23
498.80	335.19
499.17	339.23
499.53	343.43
499.89	347.82
500.26	352.33
500.62	357.02
500.98	362.00
501.34	367.01
501.71	372.30
502.07	377.75
502.43	383.34
502.79	389.15
503.16	395.21
503.52	401.48
503.88	407.89
504.24	414.46
504.60	421.36
504.97	428.50
505.33	435.89
505.69	443.58
506.05	451.34
506.41	459.23
506.78	467.40
507.14	475.83
507.50	484.52
507.86	493.54
508.22	502.72
508.59	511.97
508.95	521.63
509.31	531.47
509.67	541.60
510.03	551.86
510.39	562.44
510.75	573.19
511.12	584.12
511.48	595.40
511.84	606.93
512.20	618.43
512.56	630.29
512.92	642.43
513.28	654.82
513.64	667.25
514.00	679.96
514.37	692.83
514.73	705.81
515.09	718.86
515.45	732.14
515.81	745.74
516.17	759.68
516.53	773.71
516.89	787.87
517.25	802.00
517.61	816.50
517.97	830.96
518.33	845.40
518.69	860.24
519.05	875.18
519.41	890.31
519.77	905.70
520.13	921.16
520.49	936.54
520.85	951.91
521.21	967.57
521.57	983.75
521.93	999.52
522.29	1015.93
522.65	1032.07
523.01	1048.21
523.37	1064.20
523.73	1080.30
524.09	1096.41
524.45	1112.72
524.81	1129.34
525.17	1146.10
525.53	1162.91
525.89	1179.79
526.25	1196.44
526.61	1212.75
526.97	1229.46
527.33	1246.06
527.68	1262.55
528.04	1278.97
528.40	1295.43
528.76	1312.52
529.12	1329.06
529.48	1345.82
529.84	1361.65
530.20	1378.35
530.56	1395.26
530.91	1412.53
531.27	1429.25
531.63	1445.62
531.99	1462.13
532.35	1478.04
532.71	1493.83
533.07	1510.06
533.42	1525.96
533.78	1542.00
534.14	1558.30
534.50	1573.57
534.86	1589.35
535.21	1604.48
535.57	1620.23
535.93	1635.73
536.29	1650.44
536.65	1665.45
537.00	1680.13
537.36	1695.52
537.72	1709.86
538.08	1724.29
538.44	1738.05
538.79	1751.85
539.15	1765.33
539.51	1779.03
539.87	1793.24
540.22	1806.83
540.58	1820.31
540.94	1833.39
541.29	1846.06
541.65	1858.56
542.01	1871.57
542.37	1883.86
542.72	1896.24
543.08	1907.96
543.44	1920.18
543.79	1931.31
544.15	1942.22
544.51	1953.82
544.87	1964.66
545.22	1975.54
545.58	1985.60
545.94	1995.35
546.29	2005.11
546.65	2014.98
547.01	2024.15
547.36	2032.89
547.72	2041.38
548.07	2049.46
548.43	2057.63
548.79	2065.59
549.14	2073.22
549.50	2080.58
549.86	2088.06
550.21	2095.31
550.57	2102.49
550.92	2109.12
551.28	2116.22
551.64	2123.29
551.99	2129.73
552.35	2135.90
552.70	2141.96
553.06	2148.07
553.41	2154.47
553.77	2160.50
554.13	2166.48
554.48	2172.54
554.84	2178.08
555.19	2183.20
555.55	2188.24
555.90	2192.69
556.26	2197.79
556.61	2202.42
556.97	2206.80
557.32	2210.90
557.68	2215.12
558.03	2219.46
558.39	2223.17
558.74	2227.78
559.10	2231.56
559.45	2235.27
559.81	2239.45
560.16	2243.22
560.52	2246.48
560.87	2249.86
561.23	2252.49
561.58	2255.43
561.94	2257.92
562.29	2260.16
562.64	2263.10
563.00	2265.72
563.35	2269.24
563.71	2272.36
564.06	2275.59
564.42	2278.41
564.77	2281.13
565.12	2283.55
565.48	2285.58
565.83	2287.48
566.19	2288.77
566.54	2289.61
566.89	2290.68
567.25	2291.37
567.60	2292.70
567.96	2294.33
568.31	2295.14
568.66	2296.43
569.02	2297.08
569.37	2297.50
569.72	2298.50
570.08	2298.65
570.43	2298.63
570.78	2298.21
571.14	2296.52
571.49	2295.16
571.84	2294.95
572.20	2293.76
572.55	2292.54
572.90	2290.87
573.26	2289.63
573.61	2287.99
573.96	2286.54
574.31	2283.67
574.67	2280.75
575.02	2277.17
575.37	2273.72
575.72	2270.05
576.08	2266.56
576.43	2263.31
576.78	2259.76
577.13	2256.36
577.49	2253.04
577.84	2249.73
578.19	2245.94
578.54	2242.49
578.90	2238.43
579.25	2232.92
579.60	2228.03
579.95	2223.12
580.30	2218.08
580.66	2212.82
581.01	2207.73
581.36	2202.70
581.71	2198.64
582.06	2194.33
582.42	2190.04
582.77	2184.96
583.12	2180.35
583.47	2175.86
583.82	2170.89
584.17	2165.64
584.53	2160.23
584.88	2154.83
585.23	2149.03
585.58	2143.62
585.93	2138.13
586.28	2133.25
586.63	2128.19
586.98	2123.14
587.34	2118.54
587.69	2113.74
588.04	2108.57
588.39	2103.03
588.74	2096.58
589.09	2090.48
589.44	2083.64
589.79	2077.38
590.14	2071.75
590.49	2065.19
590.84	2058.66
591.19	2052.62
591.54	2046.16
591.89	2038.93
592.25	2032.14
592.60	2025.01
592.95	2017.32
593.30	2009.96
593.65	2002.34
594.00	1995.31
594.35	1988.15
594.70	1980.03
595.05	1972.98
595.40	1965.60
595.75	1958.21
596.10	1951.99
596.45	1945.26
596.80	1939.12
597.15	1932.66
597.50	1925.72
597.85	1919.27
598.19	1912.67
598.54	1905.64
598.89	1899.03
599.24	1893.22
599.59	1886.75
599.94	1880.48
600.29	1874.33
600.64	1867.72
600.99	1860.45
601.34	1853.63
601.69	1846.50
602.04	1839.65
602.39	1832.23
602.74	1825.57
603.08	1818.79
603.43	1812.15
603.78	1804.78
604.13	1797.62
604.48	1790.47
604.83	1783.56
605.18	1776.71
605.53	1768.70
605.87	1760.79
606.22	1753.50
606.57	1745.49
606.92	1737.94
607.27	1730.87
607.62	1723.95
607.96	1716.86
608.31	1710.38
608.66	1702.75
609.01	1695.39
609.36	1687.83
609.70	1679.78
610.05	1671.74
610.40	1664.17
610.75	1655.92
611.10	1648.24
611.44	1639.79
611.79	1631.68
612.14	1622.98
612.49	1613.73
612.83	1605.40
613.18	1597.21
613.53	1589.19
613.88	1580.69
614.22	1572.46
614.57	1563.65
614.92	1555.64
615.27	1548.12
615.61	1539.75
615.96	1531.78
616.31	1524.02
616.65	1516.71
617.00	1509.16
617.35	1501.39
617.70	1493.07
618.04	1484.50
618.39	1476.45
618.74	1468.85
619.08	1460.49
619.43	1452.91
619.78	1446.02
620.12	1438.89
620.47	1431.40
620.82	1423.20
621.16	1415.76
621.51	1408.16
621.85	1400.67
622.20	1392.11
622.55	1383.68
622.89	1375.75
623.24	1368.04
623.59	1360.70
623.93	1353.07
624.28	1345.91
624.62	1338.49
624.97	1331.28
625.32	1324.42
625.66	1317.27
626.01	1310.18
626.35	1302.87
626.70	1295.10
627.04	1287.44
627.39	1279.63
627.73	1272.21
628.08	1265.30
628.43	1258.08
628.77	1250.79
629.12	1243.36
629.46	1236.25
629.81	1228.84
630.15	1221.68
630.50	1214.33
630.84	1206.17
631.19	1198.25
631.53	1190.70
631.88	1183.08
632.22	1175.42
632.57	1168.19
632.91	1160.62
633.26	1153.17
633.60	1145.67
633.95	1138.54
634.29	1131.41
634.64	1124.72
634.98	1117.38
635.32	1110.14
635.67	1103.45
636.01	1096.72
636.36	1089.85
636.70	1083.22
637.05	1076.72
637.39	1070.17
637.73	1063.64
638.08	1057.64
638.42	1051.65
638.77	1045.22
639.11	1038.72
639.45	1032.32
639.80	1025.64
640.14	1019.36
640.49	1012.83
640.83	1006.65
641.17	1000.42
641.52	994.07
641.86	987.59
642.20	981.69
642.55	975.38
642.89	968.91
643.23	962.34
643.58	956.55
643.92	950.34
644.26	944.22
644.61	938.23
644.95	932.21
645.29	925.81
645.64	919.08
645.98	912.69
646.32	906.78
646.66	900.73
647.01	894.95
647.35	889.23
647.69	883.37
648.04	877.77
648.38	872.02
648.72	866.14
649.06	860.15
649.41	854.31
649.75	848.39
650.09	842.45
650.43	836.70
650.78	830.60
651.12	824.60
651.46	818.82
651.80	813.02
652.14	807.69
652.49	802.26
652.83	797.10
653.17	791.47
653.51	785.76
653.85	780.35
654.20	774.68
654.54	768.62
654.88	762.83
655.22	756.91
655.56	751.21
655.90	745.67
656.25	740.41
656.59	735.01
656.93	729.92
657.27	724.81
657.61	719.38
657.95	714.17
658.29	709.13
658.64	703.86
658.98	698.58
659.32	693.03
659.66	687.88
660.00	682.62
660.34	677.63
660.68	672.75
661.02	667.69
661.36	662.98
661.70	658.52
662.05	654.21
662.39	649.94
662.73	645.47
663.07	641.14
663.41	636.71
663.75	632.26
664.09	627.71
664.43	623.26
664.77	619.18
665.11	615.03
665.45	610.91
665.79	606.91
666.13	602.76
666.47	598.66
666.81	594.44
667.15	590.28
667.49	586.38
667.83	582.50
668.17	578.61
668.51	574.56
668.85	570.45
669.19	566.48
669.53	562.68
669.87	558.81
670.21	555.09
670.55	551.37
670.89	547.86
671.23	544.40
671.57	540.91
671.91	537.35
672.25	533.78
672.58	530.24
672.92	526.81
673.26	523.66
673.60	520.51
673.94	517.38
674.28	514.45
674.62	511.49
674.96	508.41
675.30	505.49
675.64	502.53
675.97	499.74
676.31	496.95
676.65	493.94
676.99	491.21
677.33	488.35
677.67	485.54
678.01	482.55
678.34	479.62
678.68	476.76
679.02	473.96
679.36	471.19
679.70	468.43
680.04	465.64
680.37	462.79
680.71	459.98
681.05	457.36
681.39	454.65
681.73	451.95
682.06	449.37
682.40	446.86
682.74	444.34
683.08	441.80
683.42	439.19
683.75	436.72
684.09	434.14
684.43	431.70
684.77	429.23
685.10	426.91
685.44	424.60
685.78	422.29
686.12	419.99
686.45	417.66
686.79	415.44
687.13	413.27
687.46	411.07
687.80	408.95
688.14	406.74
688.48	404.71
688.81	402.57
689.15	400.41
689.49	398.22
689.82	396.11
690.16	394.04
690.50	392.09
690.83	390.15
691.17	388.21
691.51	386.31
691.84	384.53
692.18	382.60
692.52	380.63
692.85	378.71
693.19	376.85
693.52	375.02
693.86	373.16
694.20	371.36
694.53	369.60
694.87	367.77
695.21	366.01
695.54	364.15
695.88	362.36
696.21	360.67
696.55	358.97
696.88	357.33
697.22	355.65
697.56	354.00
697.89	352.32
698.23	350.72
698.56	349.07
698.90	347.46
699.23	345.80
699.57	344.30
699.90	342.73
700.24	341.19
700.58	339.75
700.91	338.27
701.25	336.84
701.58	335.45
701.92	334.08
702.25	332.68
702.59	331.34
702.92	330.06
703.26	328.74
703.59	327.49
703.93	326.31
704.26	325.14
704.60	323.91
704.93	322.69
705.26	321.40
705.60	320.23
705.93	319.06
706.27	318.01
706.60	316.93
706.94	315.90
707.27	314.76
707.61	313.64
707.94	312.59
708.27	311.50
708.61	310.44
708.94	309.42
709.28	308.44
709.61	307.45
709.94	306.48
710.28	305.46
710.61	304.47
710.95	303.34
711.28	302.37
711.61	301.39
711.95	300.44
712.28	299.46
712.61	298.45
712.95	297.51
713.28	296.60
713.61	295.70
713.95	294.77
714.28	293.93
714.61	293.09
714.95	292.25
715.28	291.37
715.61	290.47
715.95	289.60
716.28	288.76
716.61	287.91
716.95	287.05
717.28	286.29
717.61	285.51
717.94	284.80
718.28	283.99
718.61	283.25
718.94	282.55
719.27	281.99
719.61	281.36
719.94	280.69
720.27	280.00
720.60	279.30
720.94	278.66
721.27	278.05
721.60	277.45
721.93	276.90
722.27	276.38
722.60	275.85
722.93	275.27
723.26	274.71
723.59	274.17
723.93	273.66
724.26	273.10
724.59	272.55
724.92	271.99
725.25	271.50
725.59	270.96
725.92	270.45
726.25	269.89
726.58	269.42
726.91	268.94
727.24	268.49
727.57	268.03
727.91	267.55
728.24	267.10
728.57	266.61
728.90	266.12
729.23	265.61
729.56	265.15
729.89	264.71
730.22	264.21
730.55	263.75
730.89	263.28
731.22	262.87
731.55	262.42
731.88	262.03
732.21	261.63
732.54	261.22
732.87	260.81
733.20	260.41
733.53	259.99
733.86	259.63
734.19	259.18
734.52	258.80
734.85	258.47
735.18	258.08
735.51	257.74
735.84	257.39
736.17	257.03
736.50	256.63
736.83	256.39
737.16	256.09
737.49	255.77
737.82	255.44
738.15	255.09
738.48	254.74
738.81	254.42
739.14	254.06
739.47	253.74
739.80	253.39
740.13	253.09
740.46	252.76
740.79	252.43
741.12	252.17
741.45	251.88
741.78	251.51
742.11	251.23
742.44	250.89
742.77	250.59
743.10	250.32
743.43	250.03
743.75	249.66
744.08	249.49
744.41	249.21
744.74	248.97
745.07	248.68
745.40	248.45
745.73	248.22
746.06	247.99
746.39	247.71
746.71	247.51
747.04	247.22
747.37	246.98
747.70	246.75
748.03	246.49
748.36	246.25
748.68	246.02
749.01	245.73
749.34	245.52
749.67	245.29
750.00	245.05
750.33	244.91
750.65	244.65
750.98	244.31
751.31	244.11
751.64	243.86
751.97	243.72
752.29	243.49
752.62	243.19
752.95	242.95
753.28	242.78
753.60	242.53
753.93	242.36
754.26	242.13
754.59	241.89
754.91	241.66
755.24	241.45
755.57	241.26
755.90	241.07
756.22	240.87
756.55	240.62
756.88	240.42
757.20	240.18
757.53	240.02
757.86	239.82
758.19	239.63
758.51	239.45
758.84	239.24
759.17	239.09
759.49	238.98
759.82	238.87
760.15	238.68
760.47	238.54
760.80	238.36
761.13	238.24
761.45	238.10
761.78	237.94
762.11	237.80
762.43	237.65
762.76	237.51
763.08	237.39
763.41	237.31
763.74	237.18
764.06	237.01
764.39	236.86
764.71	236.76
765.04	236.63
765.37	236.53
765.69	236.39
766.02	236.27
766.34	236.15
766.67	236.00
767.00	235.95
767.32	235.88
767.65	235.86
767.97	235.76
768.30	235.64
768.62	235.55
768.95	235.45
769.27	235.33
769.60	235.24
769.92	235.12
770.25	234.99
770.57	234.86
770.90	234.76
771.22	234.65
771.55	234.56
771.87	234.51
772.20	234.44
772.52	234.45
772.85	234.44
773.17	234.33
773.50	234.20
773.82	234.09
774.15	233.95
774.47	233.82
774.80	233.72
775.12	233.68
775.45	233.61
775.77	233.51
776.09	233.45
776.42	233.37
776.74	233.34
777.07	233.26
777.39	233.23
777.72	233.18
778.04	233.14
778.36	233.05
778.69	232.94
779.01	232.87
779.33	232.70
779.66	232.55
779.98	232.48
780.31	232.42
780.63	232.36
780.95	232.34
781.28	232.26
781.60	232.17
781.92	232.05
782.25	231.96
782.57	231.91
782.89	231.87
783.22	231.78
783.54	231.70
783.86	231.63
784.19	231.57
784.51	231.53
784.83	231.44
785.16	231.41
785.48	231.37
785.80	231.30
786.12	231.26
786.45	231.20
786.77	231.16
787.09	231.12
