SpectraSuite Data File
++++++++++++++++++++++++++++++++++++
Date: Fri Feb 01 15:42:03 EST 2013
User: group
Dark Spectrum Present: No
Reference Spectrum Present: No
Number of Sampled Component Spectra: 1
Spectrometers: USB2E7196
Integration Time (usec): 35000 (USB2E7196)
Spectra Averaged: 100 (USB2E7196)
Boxcar Smoothing: 10 (USB2E7196)
Correct for Electrical Dark: No (USB2E7196)
Strobe/Lamp Enabled: No (USB2E7196)
Correct for Detector Non-linearity: No (USB2E7196)
Correct for Stray Light: No (USB2E7196)
Number of Pixels in Processed Spectrum: 2048
>>>>>Begin Processed Spectral Data<<<<<
339.09	0.00
339.48	214.95
339.86	216.49
340.24	218.25
340.63	219.91
341.01	221.53
341.39	221.86
341.78	223.14
342.16	224.65
342.54	225.19
342.93	213.34
343.31	224.11
343.69	224.66
344.07	225.12
344.46	225.53
344.84	225.86
345.22	226.15
345.60	226.36
345.99	226.55
346.37	226.65
346.75	226.73
347.13	226.81
347.52	226.88
347.90	226.94
348.28	226.94
348.66	226.96
349.05	226.96
349.43	226.97
349.81	227.00
350.19	227.03
350.57	227.08
350.96	227.17
351.34	227.24
351.72	227.30
352.10	227.38
352.48	227.43
352.87	227.49
353.25	227.53
353.63	227.62
354.01	227.67
354.39	227.78
354.77	227.83
355.15	227.89
355.54	227.93
355.92	227.95
356.30	228.05
356.68	228.21
357.06	228.28
357.44	228.30
357.82	228.37
358.20	228.46
358.58	228.54
358.97	228.60
359.35	228.68
359.73	228.76
360.11	228.82
360.49	228.89
360.87	228.94
361.25	229.00
361.63	229.07
362.01	229.14
362.39	229.15
362.77	229.23
363.15	229.29
363.53	229.34
363.91	229.39
364.29	229.41
364.67	229.31
365.05	229.32
365.43	229.38
365.81	229.40
366.19	229.43
366.57	229.46
366.95	229.45
367.33	229.43
367.71	229.44
368.09	229.45
368.47	229.41
368.85	229.36
369.23	229.36
369.61	229.31
369.99	229.31
370.37	229.29
370.75	229.30
371.13	229.23
371.51	229.17
371.89	229.15
372.27	229.10
372.65	229.06
373.03	229.04
373.41	229.02
373.78	228.97
374.16	228.88
374.54	228.76
374.92	228.71
375.30	228.65
375.68	228.58
376.06	228.54
376.44	228.49
376.82	228.44
377.19	228.38
377.57	228.29
377.95	228.18
378.33	228.09
378.71	227.97
379.09	227.94
379.47	227.89
379.84	227.78
380.22	227.71
380.60	227.62
380.98	227.57
381.36	227.46
381.73	227.38
382.11	227.33
382.49	227.29
382.87	227.20
383.25	227.13
383.62	227.15
384.00	227.06
384.38	226.98
384.76	226.94
385.13	226.90
385.51	226.87
385.89	226.83
386.27	226.79
386.64	226.73
387.02	226.60
387.40	226.55
387.78	226.52
388.15	226.47
388.53	226.42
388.91	226.35
389.29	226.32
389.66	226.31
390.04	226.26
390.42	226.25
390.79	226.27
391.17	226.26
391.55	226.14
391.92	226.14
392.30	226.13
392.68	226.14
393.05	226.12
393.43	226.12
393.81	226.14
394.18	226.12
394.56	226.13
394.94	226.21
395.31	226.23
395.69	226.26
396.06	226.33
396.44	226.39
396.82	226.41
397.19	226.52
397.57	226.53
397.95	226.58
398.32	226.60
398.70	226.63
399.07	226.71
399.45	226.72
399.82	226.77
400.20	226.85
400.58	226.94
400.95	226.97
401.33	227.11
401.70	227.21
402.08	227.32
402.45	227.43
402.83	227.56
403.20	227.69
403.58	227.82
403.95	227.92
404.33	228.06
404.71	228.18
405.08	228.34
405.46	228.49
405.83	228.65
406.21	228.80
406.58	228.95
406.96	229.12
407.33	229.34
407.70	229.50
408.08	229.78
408.45	229.96
408.83	230.20
409.20	230.37
409.58	230.59
409.95	230.87
410.33	231.14
410.70	231.37
411.08	231.66
411.45	231.94
411.82	232.23
412.20	232.60
412.57	233.02
412.95	233.32
413.32	233.74
413.69	234.18
414.07	234.62
414.44	235.11
414.82	235.59
415.19	236.16
415.56	236.77
415.94	237.32
416.31	237.97
416.68	238.63
417.06	239.36
417.43	240.04
417.81	240.85
418.18	241.65
418.55	242.49
418.93	243.36
419.30	244.27
419.67	245.25
420.04	246.19
420.42	247.21
420.79	248.41
421.16	249.57
421.54	250.74
421.91	251.96
422.28	253.24
422.66	254.58
423.03	255.87
423.40	257.20
423.77	258.65
424.15	260.08
424.52	261.56
424.89	263.19
425.26	264.74
425.64	266.15
426.01	267.76
426.38	269.42
426.75	271.12
427.13	272.87
427.50	274.67
427.87	276.56
428.24	278.41
428.61	280.17
428.99	282.07
429.36	284.20
429.73	286.26
430.10	288.26
430.47	290.30
430.85	292.45
431.22	294.68
431.59	297.03
431.96	299.29
432.33	301.77
432.70	304.16
433.08	306.97
433.45	309.63
433.82	312.22
434.19	315.10
434.56	317.87
434.93	320.50
435.30	323.11
435.68	326.01
436.05	328.83
436.42	331.61
436.79	334.13
437.16	336.80
437.53	339.61
437.90	342.45
438.27	345.24
438.64	348.05
439.01	350.64
439.38	352.89
439.75	355.02
440.13	357.52
440.50	359.83
440.87	361.66
441.24	363.61
441.61	365.75
441.98	367.22
442.35	369.02
442.72	370.85
443.09	372.61
443.46	373.58
443.83	374.14
444.20	374.66
444.57	375.51
444.94	375.78
445.31	376.12
445.68	376.45
446.05	376.48
446.42	376.04
446.79	375.59
447.16	375.14
447.53	374.89
447.90	373.71
448.27	372.53
448.64	370.95
449.01	369.72
449.37	367.77
449.74	365.87
450.11	363.62
450.48	361.12
450.85	358.62
451.22	356.45
451.59	354.47
451.96	352.52
452.33	349.92
452.70	347.56
453.07	344.73
453.43	341.80
453.80	339.03
454.17	336.39
454.54	333.87
454.91	331.11
455.28	328.35
455.65	325.94
456.02	323.50
456.38	321.32
456.75	318.66
457.12	316.40
457.49	314.13
457.86	311.95
458.23	310.09
458.59	308.04
458.96	305.96
459.33	304.11
459.70	302.23
460.07	300.70
460.43	298.98
460.80	297.38
461.17	295.96
461.54	294.48
461.91	293.02
462.27	291.58
462.64	290.35
463.01	289.05
463.38	287.70
463.74	286.32
464.11	285.17
464.48	284.23
464.85	283.13
465.21	282.32
465.58	281.43
465.95	280.36
466.32	279.46
466.68	278.58
467.05	277.64
467.42	276.77
467.78	275.84
468.15	274.94
468.52	274.26
468.88	273.39
469.25	272.64
469.62	272.05
469.98	271.37
470.35	270.72
470.72	270.07
471.08	269.39
471.45	268.85
471.82	268.34
472.18	267.75
472.55	267.31
472.92	266.80
473.28	266.30
473.65	265.88
474.02	265.47
474.38	265.10
474.75	264.80
475.11	264.43
475.48	264.22
475.85	264.06
476.21	263.84
476.58	263.71
476.94	263.56
477.31	263.39
477.67	263.26
478.04	263.15
478.41	263.13
478.77	263.18
479.14	263.12
479.50	263.12
479.87	263.16
480.23	263.25
480.60	263.30
480.96	263.44
481.33	263.62
481.69	263.80
482.06	264.02
482.42	264.23
482.79	264.50
483.15	264.80
483.52	265.16
483.88	265.50
484.25	265.84
484.61	266.28
484.98	266.75
485.34	267.31
485.71	267.89
486.07	268.49
486.44	269.04
486.80	269.72
487.17	270.46
487.53	271.28
487.90	272.09
488.26	273.08
488.62	274.04
488.99	275.02
489.35	276.06
489.72	277.15
490.08	278.36
490.44	279.61
490.81	280.93
491.17	282.23
491.54	283.74
491.90	285.28
492.26	286.90
492.63	288.61
492.99	290.38
493.36	292.31
493.72	294.30
494.08	296.40
494.45	298.68
494.81	301.03
495.17	303.44
495.54	306.03
495.90	308.68
496.26	311.47
496.63	314.44
496.99	317.58
497.35	320.86
497.72	324.29
498.08	327.75
498.44	331.43
498.80	335.37
499.17	339.40
499.53	343.58
499.89	347.96
500.26	352.47
500.62	357.14
500.98	362.10
501.34	367.18
501.71	372.54
502.07	377.99
502.43	383.60
502.79	389.41
503.16	395.49
503.52	401.73
503.88	408.17
504.24	414.78
504.60	421.68
504.97	428.79
505.33	436.07
505.69	443.84
506.05	451.60
506.41	459.49
506.78	467.67
507.14	476.10
507.50	484.82
507.86	493.88
508.22	503.00
508.59	512.16
508.95	521.80
509.31	531.61
509.67	541.72
510.03	552.02
510.39	562.57
510.75	573.38
511.12	584.40
511.48	595.62
511.84	607.13
512.20	618.64
512.56	630.63
512.92	642.85
513.28	655.21
513.64	667.70
514.00	680.43
514.37	693.38
514.73	706.49
515.09	719.56
515.45	732.85
515.81	746.44
516.17	760.39
516.53	774.50
516.89	788.76
517.25	803.00
517.61	817.46
517.97	831.96
518.33	846.43
518.69	861.18
519.05	876.21
519.41	891.36
519.77	906.90
520.13	922.30
520.49	937.66
520.85	952.99
521.21	968.71
521.57	985.02
521.93	1000.80
522.29	1017.15
522.65	1033.36
523.01	1049.57
523.37	1065.71
523.73	1081.96
524.09	1098.06
524.45	1114.35
524.81	1130.94
525.17	1147.82
525.53	1164.72
525.89	1181.53
526.25	1198.39
526.61	1214.80
526.97	1231.54
527.33	1248.02
527.68	1264.67
528.04	1281.19
528.40	1297.88
528.76	1314.91
529.12	1331.42
529.48	1348.23
529.84	1364.28
530.20	1381.00
530.56	1398.06
530.91	1415.41
531.27	1432.13
531.63	1448.56
531.99	1465.17
532.35	1481.24
532.71	1497.09
533.07	1513.40
533.42	1529.28
533.78	1545.29
534.14	1561.59
534.50	1576.98
534.86	1592.78
535.21	1607.93
535.57	1623.82
535.93	1639.38
536.29	1654.26
536.65	1669.32
537.00	1684.20
537.36	1699.56
537.72	1714.05
538.08	1728.43
538.44	1742.38
538.79	1756.36
539.15	1770.10
539.51	1783.79
539.87	1798.12
540.22	1811.78
540.58	1825.60
540.94	1838.94
541.29	1851.92
541.65	1864.65
542.01	1877.93
542.37	1890.35
542.72	1902.94
543.08	1914.73
543.44	1927.08
543.79	1938.37
544.15	1949.43
544.51	1960.89
544.87	1971.84
545.22	1982.67
545.58	1992.77
545.94	2002.41
546.29	2012.04
546.65	2021.85
547.01	2031.10
547.36	2039.77
547.72	2048.28
548.07	2056.07
548.43	2064.25
548.79	2072.21
549.14	2079.66
549.50	2086.87
549.86	2094.51
550.21	2101.55
550.57	2108.57
550.92	2115.10
551.28	2122.17
551.64	2129.26
551.99	2135.88
552.35	2142.01
552.70	2148.25
553.06	2154.35
553.41	2160.78
553.77	2166.95
554.13	2172.99
554.48	2179.10
554.84	2184.36
555.19	2189.74
555.55	2194.89
555.90	2199.46
556.26	2204.36
556.61	2209.16
556.97	2213.52
557.32	2217.61
557.68	2221.97
558.03	2226.41
558.39	2230.19
558.74	2234.74
559.10	2238.56
559.45	2242.30
559.81	2246.55
560.16	2250.34
560.52	2253.50
560.87	2256.81
561.23	2259.39
561.58	2262.30
561.94	2264.90
562.29	2267.39
562.64	2269.90
563.00	2272.49
563.35	2275.93
563.71	2279.05
564.06	2282.26
564.42	2285.08
564.77	2287.66
565.12	2289.87
565.48	2291.67
565.83	2293.59
566.19	2294.82
566.54	2295.66
566.89	2296.56
567.25	2297.15
567.60	2298.37
567.96	2300.18
568.31	2301.15
568.66	2302.43
569.02	2303.03
569.37	2303.21
569.72	2304.10
570.08	2304.35
570.43	2304.37
570.78	2303.74
571.14	2302.09
571.49	2300.68
571.84	2300.41
572.20	2299.24
572.55	2298.06
572.90	2296.64
573.26	2295.22
573.61	2293.58
573.96	2291.77
574.31	2288.89
574.67	2285.88
575.02	2282.22
575.37	2278.70
575.72	2274.80
576.08	2271.43
576.43	2268.13
576.78	2264.49
577.13	2261.25
577.49	2258.14
577.84	2254.56
578.19	2250.77
578.54	2247.13
578.90	2242.98
579.25	2237.47
579.60	2232.46
579.95	2227.56
580.30	2222.57
580.66	2217.32
581.01	2212.32
581.36	2207.42
581.71	2203.21
582.06	2198.81
582.42	2194.36
582.77	2189.19
583.12	2184.61
583.47	2179.86
583.82	2174.75
584.17	2169.45
584.53	2163.96
584.88	2158.25
585.23	2152.46
585.58	2147.02
585.93	2141.58
586.28	2136.75
586.63	2131.55
586.98	2126.37
587.34	2121.64
587.69	2116.61
588.04	2111.30
588.39	2105.70
588.74	2099.21
589.09	2093.09
589.44	2086.17
589.79	2080.15
590.14	2074.50
590.49	2067.79
590.84	2061.35
591.19	2055.39
591.54	2048.95
591.89	2041.55
592.25	2034.78
592.60	2027.68
592.95	2020.12
593.30	2012.80
593.65	2005.18
594.00	1998.09
594.35	1990.90
594.70	1982.85
595.05	1975.71
595.40	1968.42
595.75	1960.89
596.10	1954.72
596.45	1947.83
596.80	1941.66
597.15	1934.87
597.50	1927.69
597.85	1921.37
598.19	1914.61
598.54	1907.35
598.89	1900.71
599.24	1894.78
599.59	1887.95
599.94	1881.60
600.29	1875.21
600.64	1868.56
600.99	1861.16
601.34	1854.26
601.69	1847.25
602.04	1840.17
602.39	1832.66
602.74	1825.84
603.08	1818.98
603.43	1812.11
603.78	1805.00
604.13	1797.75
604.48	1790.55
604.83	1783.68
605.18	1776.62
605.53	1768.62
605.87	1760.70
606.22	1753.41
606.57	1745.57
606.92	1738.26
607.27	1731.09
607.62	1724.07
607.96	1716.80
608.31	1710.04
608.66	1702.43
609.01	1694.88
609.36	1687.37
609.70	1679.47
610.05	1671.27
610.40	1663.58
610.75	1655.23
611.10	1647.39
611.44	1639.12
611.79	1631.07
612.14	1622.38
612.49	1613.16
612.83	1604.89
613.18	1596.75
613.53	1588.68
613.88	1580.02
614.22	1571.70
614.57	1563.11
614.92	1555.08
615.27	1547.42
615.61	1539.02
615.96	1530.95
616.31	1523.35
616.65	1516.02
617.00	1508.46
617.35	1500.82
617.70	1492.44
618.04	1484.01
618.39	1475.86
618.74	1468.13
619.08	1459.97
619.43	1452.45
619.78	1445.52
620.12	1438.22
620.47	1430.63
620.82	1422.52
621.16	1415.19
621.51	1407.67
621.85	1400.07
622.20	1391.55
622.55	1383.15
622.89	1375.35
623.24	1367.88
623.59	1360.53
623.93	1352.98
624.28	1345.74
624.62	1338.23
624.97	1331.09
625.32	1324.45
625.66	1317.34
626.01	1310.13
626.35	1302.59
626.70	1294.74
627.04	1287.00
627.39	1279.33
627.73	1271.99
628.08	1265.01
628.43	1257.62
628.77	1250.20
629.12	1242.56
629.46	1235.36
629.81	1227.98
630.15	1220.72
630.50	1213.22
630.84	1205.02
631.19	1197.15
631.53	1189.56
631.88	1181.94
632.22	1174.29
632.57	1166.97
632.91	1159.42
633.26	1152.00
633.60	1144.67
633.95	1137.72
634.29	1130.80
634.64	1124.07
634.98	1116.73
635.32	1109.61
635.67	1103.11
636.01	1096.47
636.36	1089.79
636.70	1083.35
637.05	1076.87
637.39	1070.55
637.73	1064.00
638.08	1058.08
638.42	1052.14
638.77	1045.78
639.11	1039.20
639.45	1032.84
639.80	1026.04
640.14	1019.62
640.49	1013.10
640.83	1006.73
641.17	1000.45
641.52	994.06
641.86	987.67
642.20	981.79
642.55	975.47
642.89	968.88
643.23	962.36
643.58	956.63
643.92	950.45
644.26	944.40
644.61	938.32
644.95	932.32
645.29	925.71
645.64	918.91
645.98	912.53
646.32	906.82
646.66	900.84
647.01	895.15
647.35	889.47
647.69	883.68
648.04	878.18
648.38	872.40
648.72	866.36
649.06	860.29
649.41	854.45
649.75	848.42
650.09	842.53
650.43	836.71
650.78	830.39
651.12	824.35
651.46	818.62
651.80	812.89
652.14	807.52
652.49	802.16
652.83	796.97
653.17	791.22
653.51	785.48
653.85	780.08
654.20	774.41
654.54	768.37
654.88	762.67
655.22	756.78
655.56	750.99
655.90	745.59
656.25	740.30
656.59	734.89
656.93	729.83
657.27	724.53
657.61	719.17
657.95	714.18
658.29	709.23
658.64	704.01
658.98	698.65
659.32	693.16
659.66	687.96
660.00	682.61
660.34	677.67
660.68	672.74
661.02	667.69
661.36	662.92
661.70	658.48
662.05	654.07
662.39	649.74
662.73	645.35
663.07	640.94
663.41	636.50
663.75	632.00
664.09	627.38
664.43	623.07
664.77	618.88
665.11	614.59
665.45	610.48
665.79	606.32
666.13	602.22
666.47	598.16
666.81	593.95
667.15	589.88
667.49	586.01
667.83	582.21
668.17	578.25
668.51	574.21
668.85	570.19
669.19	566.37
669.53	562.51
669.87	558.60
670.21	554.99
670.55	551.32
670.89	547.91
671.23	544.55
671.57	541.09
671.91	537.58
672.25	534.08
672.58	530.50
672.92	527.11
673.26	523.90
673.60	520.72
673.94	517.68
674.28	514.79
674.62	511.90
674.96	508.73
675.30	505.81
675.64	502.88
675.97	500.08
676.31	497.17
676.65	494.29
676.99	491.68
677.33	488.83
677.67	486.02
678.01	483.00
678.34	480.02
678.68	477.12
679.02	474.28
679.36	471.56
679.70	468.90
680.04	466.15
680.37	463.31
680.71	460.57
681.05	457.94
681.39	455.20
681.73	452.50
682.06	450.01
682.40	447.53
682.74	445.01
683.08	442.48
683.42	439.90
683.75	437.34
684.09	434.67
684.43	432.22
684.77	429.82
685.10	427.46
685.44	425.19
685.78	422.91
686.12	420.71
686.45	418.35
686.79	416.00
687.13	413.87
687.46	411.73
687.80	409.57
688.14	407.36
688.48	405.32
688.81	403.08
689.15	400.94
689.49	398.76
689.82	396.69
690.16	394.59
690.50	392.67
690.83	390.72
691.17	388.82
691.51	386.87
691.84	384.98
692.18	383.04
692.52	381.00
692.85	379.10
693.19	377.23
693.52	375.49
693.86	373.68
694.20	371.87
694.53	370.03
694.87	368.19
695.21	366.43
695.54	364.63
695.88	362.89
696.21	361.17
696.55	359.49
696.88	357.81
697.22	356.18
697.56	354.51
697.89	352.87
698.23	351.21
698.56	349.58
698.90	348.01
699.23	346.37
699.57	344.86
699.90	343.33
700.24	341.80
700.58	340.21
700.91	338.71
701.25	337.25
701.58	335.90
701.92	334.52
702.25	333.17
702.59	331.76
702.92	330.41
703.26	329.11
703.59	327.87
703.93	326.66
704.26	325.41
704.60	324.11
704.93	322.83
705.26	321.58
705.60	320.42
705.93	319.26
706.27	318.23
706.60	317.14
706.94	316.07
707.27	314.90
707.61	313.90
707.94	312.89
708.27	311.82
708.61	310.71
708.94	309.72
709.28	308.69
709.61	307.76
709.94	306.84
710.28	305.81
710.61	304.83
710.95	303.77
711.28	302.86
711.61	301.96
711.95	301.07
712.28	300.16
712.61	299.18
712.95	298.25
713.28	297.38
713.61	296.50
713.95	295.59
714.28	294.80
714.61	293.88
714.95	293.05
715.28	292.15
715.61	291.29
715.95	290.43
716.28	289.59
716.61	288.77
716.95	287.93
717.28	287.20
717.61	286.41
717.94	285.69
718.28	284.94
718.61	284.19
718.94	283.51
719.27	282.85
719.61	282.23
719.94	281.62
720.27	280.90
720.60	280.24
720.94	279.62
721.27	278.99
721.60	278.44
721.93	277.83
722.27	277.30
722.60	276.78
722.93	276.25
723.26	275.72
723.59	275.14
723.93	274.64
724.26	274.08
724.59	273.54
724.92	273.03
725.25	272.48
725.59	271.99
725.92	271.47
726.25	270.98
726.58	270.45
726.91	269.93
727.24	269.48
727.57	269.01
727.91	268.49
728.24	268.05
728.57	267.51
728.90	267.08
729.23	266.62
729.56	266.18
729.89	265.69
730.22	265.15
730.55	264.73
730.89	264.26
731.22	263.82
731.55	263.37
731.88	262.91
732.21	262.50
732.54	262.08
732.87	261.67
733.20	261.26
733.53	260.88
733.86	260.51
734.19	260.10
734.52	259.74
734.85	259.42
735.18	258.96
735.51	258.63
735.84	258.23
736.17	257.87
736.50	257.45
736.83	257.21
737.16	256.94
737.49	256.56
737.82	256.22
738.15	255.89
738.48	255.54
738.81	255.19
739.14	254.82
739.47	254.51
739.80	254.20
740.13	253.89
740.46	253.51
740.79	253.14
741.12	252.81
741.45	252.49
741.78	252.14
742.11	251.89
742.44	251.53
742.77	251.24
743.10	250.93
743.43	250.59
743.75	250.20
744.08	250.04
744.41	249.77
744.74	249.50
745.07	249.23
745.40	248.98
745.73	248.76
746.06	248.52
746.39	248.22
746.71	247.97
747.04	247.68
747.37	247.46
747.70	247.23
748.03	246.99
748.36	246.80
748.68	246.54
749.01	246.27
749.34	246.10
749.67	245.87
750.00	245.64
750.33	245.53
750.65	245.32
750.98	244.97
751.31	244.76
751.64	244.55
751.97	244.38
752.29	244.17
752.62	243.95
752.95	243.76
753.28	243.56
753.60	243.32
753.93	243.16
754.26	242.94
754.59	242.72
754.91	242.52
755.24	242.29
755.57	242.12
755.90	241.95
756.22	241.76
756.55	241.58
756.88	241.42
757.20	241.20
757.53	241.02
757.86	240.85
758.19	240.70
758.51	240.56
758.84	240.32
759.17	240.16
759.49	240.00
759.82	239.84
760.15	239.68
760.47	239.53
760.80	239.37
761.13	239.26
761.45	239.12
761.78	238.98
762.11	238.86
762.43	238.69
762.76	238.55
763.08	238.43
763.41	238.27
763.74	238.12
764.06	237.95
764.39	237.80
764.71	237.67
765.04	237.52
765.37	237.37
765.69	237.29
766.02	237.16
766.34	236.99
766.67	236.86
767.00	236.78
767.32	236.75
767.65	236.67
767.97	236.55
768.30	236.46
768.62	236.38
768.95	236.24
769.27	236.14
769.60	236.07
769.92	235.91
770.25	235.79
770.57	235.66
770.90	235.57
771.22	235.47
771.55	235.33
771.87	235.29
772.20	235.17
772.52	235.12
772.85	235.10
773.17	235.03
773.50	234.93
773.82	234.83
774.15	234.68
774.47	234.54
774.80	234.42
775.12	234.33
775.45	234.21
775.77	234.13
776.09	234.05
776.42	233.95
776.74	233.92
777.07	233.87
777.39	233.80
777.72	233.70
778.04	233.64
778.36	233.56
778.69	233.44
779.01	233.36
779.33	233.20
779.66	233.03
779.98	232.93
780.31	232.85
780.63	232.81
780.95	232.73
781.28	232.68
781.60	232.57
781.92	232.51
782.25	232.43
782.57	232.38
782.89	232.32
783.22	232.22
783.54	232.15
783.86	232.10
784.19	232.05
784.51	232.04
784.83	231.97
785.16	231.92
785.48	231.85
785.80	231.81
786.12	231.79
786.45	231.77
786.77	231.75
787.09	231.71
