SpectraSuite Data File
++++++++++++++++++++++++++++++++++++
Date: Fri Feb 01 17:39:53 EST 2013
User: group
Dark Spectrum Present: No
Reference Spectrum Present: No
Number of Sampled Component Spectra: 1
Spectrometers: USB2E7196
Integration Time (usec): 35000 (USB2E7196)
Spectra Averaged: 100 (USB2E7196)
Boxcar Smoothing: 10 (USB2E7196)
Correct for Electrical Dark: No (USB2E7196)
Strobe/Lamp Enabled: No (USB2E7196)
Correct for Detector Non-linearity: No (USB2E7196)
Correct for Stray Light: No (USB2E7196)
Number of Pixels in Processed Spectrum: 2048
>>>>>Begin Processed Spectral Data<<<<<
339.09	0.00
339.48	212.46
339.86	214.44
340.24	215.74
340.63	216.70
341.01	220.17
341.39	219.49
341.78	220.32
342.16	222.51
342.54	222.73
342.93	211.22
343.31	221.90
343.69	222.47
344.07	222.92
344.46	223.35
344.84	223.75
345.22	223.99
345.60	224.26
345.99	224.48
346.37	224.60
346.75	224.70
347.13	224.77
347.52	224.83
347.90	224.95
348.28	224.99
348.66	225.05
349.05	225.04
349.43	225.07
349.81	225.10
350.19	225.13
350.57	225.22
350.96	225.29
351.34	225.36
351.72	225.47
352.10	225.56
352.48	225.64
352.87	225.69
353.25	225.75
353.63	225.80
354.01	225.84
354.39	225.92
354.77	225.99
355.15	226.11
355.54	226.18
355.92	226.19
356.30	226.22
356.68	226.33
357.06	226.38
357.44	226.42
357.82	226.50
358.20	226.59
358.58	226.63
358.97	226.68
359.35	226.77
359.73	226.81
360.11	226.88
360.49	226.92
360.87	226.99
361.25	227.06
361.63	227.10
362.01	227.18
362.39	227.21
362.77	227.23
363.15	227.22
363.53	227.22
363.91	227.23
364.29	227.25
364.67	227.16
365.05	227.18
365.43	227.21
365.81	227.21
366.19	227.25
366.57	227.31
366.95	227.31
367.33	227.26
367.71	227.24
368.09	227.23
368.47	227.22
368.85	227.17
369.23	227.14
369.61	227.12
369.99	227.09
370.37	227.08
370.75	227.14
371.13	227.07
371.51	227.02
371.89	226.99
372.27	226.93
372.65	226.90
373.03	226.87
373.41	226.85
373.78	226.78
374.16	226.67
374.54	226.56
374.92	226.50
375.30	226.44
375.68	226.35
376.06	226.28
376.44	226.22
376.82	226.16
377.19	226.09
377.57	226.03
377.95	225.93
378.33	225.84
378.71	225.68
379.09	225.65
379.47	225.61
379.84	225.52
380.22	225.47
380.60	225.41
380.98	225.36
381.36	225.29
381.73	225.24
382.11	225.19
382.49	225.12
382.87	225.07
383.25	225.03
383.62	225.09
384.00	225.00
384.38	224.93
384.76	224.90
385.13	224.88
385.51	224.82
385.89	224.79
386.27	224.75
386.64	224.74
387.02	224.70
387.40	224.69
387.78	224.69
388.15	224.64
388.53	224.59
388.91	224.57
389.29	224.51
389.66	224.51
390.04	224.48
390.42	224.49
390.79	224.48
391.17	224.47
391.55	224.37
391.92	224.40
392.30	224.42
392.68	224.40
393.05	224.39
393.43	224.43
393.81	224.41
394.18	224.42
394.56	224.44
394.94	224.47
395.31	224.48
395.69	224.52
396.06	224.59
396.44	224.63
396.82	224.63
397.19	224.72
397.57	224.72
397.95	224.78
398.32	224.78
398.70	224.82
399.07	224.87
399.45	224.90
399.82	224.95
400.20	224.99
400.58	225.05
400.95	225.05
401.33	225.10
401.70	225.26
402.08	225.33
402.45	225.41
402.83	225.52
403.20	225.58
403.58	225.67
403.95	225.76
404.33	225.87
404.71	225.99
405.08	226.17
405.46	226.34
405.83	226.46
406.21	226.61
406.58	226.77
406.96	226.97
407.33	227.15
407.70	227.34
408.08	227.62
408.45	227.85
408.83	228.11
409.20	228.33
409.58	228.50
409.95	228.74
410.33	229.06
410.70	229.31
411.08	229.63
411.45	229.93
411.82	230.24
412.20	230.61
412.57	231.02
412.95	231.31
413.32	231.74
413.69	232.18
414.07	232.66
414.44	233.12
414.82	233.63
415.19	234.22
415.56	234.83
415.94	235.42
416.31	236.11
416.68	236.82
417.06	237.62
417.43	238.37
417.81	239.21
418.18	240.01
418.55	240.92
418.93	241.87
419.30	242.84
419.67	243.86
420.04	244.89
420.42	245.97
420.79	247.26
421.16	248.47
421.54	249.73
421.91	251.01
422.28	252.41
422.66	253.85
423.03	255.26
423.40	256.65
423.77	258.19
424.15	259.75
424.52	261.34
424.89	263.07
425.26	264.77
425.64	266.34
426.01	268.08
426.38	269.87
426.75	271.66
427.13	273.50
427.50	275.47
427.87	277.48
428.24	279.49
428.61	281.42
428.99	283.52
429.36	285.81
429.73	288.09
430.10	290.29
430.47	292.50
430.85	294.76
431.22	297.21
431.59	299.74
431.96	302.19
432.33	304.86
432.70	307.42
433.08	310.42
433.45	313.28
433.82	316.07
434.19	319.22
434.56	322.25
434.93	325.13
435.30	327.97
435.68	331.05
436.05	334.14
436.42	337.10
436.79	339.83
437.16	342.75
437.53	345.80
437.90	348.84
438.27	351.77
438.64	354.79
439.01	357.57
439.38	359.99
439.75	362.26
440.13	364.93
440.50	367.45
440.87	369.46
441.24	371.56
441.61	373.88
441.98	375.42
442.35	377.40
442.72	379.43
443.09	381.41
443.46	382.54
443.83	383.22
444.20	383.82
444.57	384.75
444.94	385.11
445.31	385.46
445.68	385.83
446.05	385.98
446.42	385.64
446.79	385.21
447.16	384.77
447.53	384.47
447.90	383.27
448.27	382.03
448.64	380.39
449.01	379.18
449.37	377.10
449.74	375.10
450.11	372.67
450.48	370.04
450.85	367.30
451.22	364.99
451.59	362.80
451.96	360.67
452.33	357.88
452.70	355.34
453.07	352.31
453.43	349.20
453.80	346.20
454.17	343.35
454.54	340.65
454.91	337.74
455.28	334.87
455.65	332.20
456.02	329.55
456.38	327.18
456.75	324.30
457.12	321.89
457.49	319.49
457.86	317.15
458.23	315.13
458.59	312.92
458.96	310.68
459.33	308.64
459.70	306.65
460.07	304.99
460.43	303.15
460.80	301.42
461.17	299.85
461.54	298.23
461.91	296.67
462.27	295.09
462.64	293.68
463.01	292.20
463.38	290.79
463.74	289.35
464.11	288.07
464.48	286.99
464.85	285.81
465.21	284.84
465.58	283.82
465.95	282.63
466.32	281.64
466.68	280.68
467.05	279.72
467.42	278.76
467.78	277.78
468.15	276.85
468.52	276.12
468.88	275.20
469.25	274.35
469.62	273.71
469.98	272.99
470.35	272.34
470.72	271.71
471.08	270.98
471.45	270.40
471.82	269.85
472.18	269.17
472.55	268.69
472.92	268.15
473.28	267.68
473.65	267.18
474.02	266.68
474.38	266.25
474.75	265.90
475.11	265.52
475.48	265.20
475.85	264.91
476.21	264.64
476.58	264.41
476.94	264.24
477.31	264.01
477.67	263.80
478.04	263.64
478.41	263.55
478.77	263.60
479.14	263.52
479.50	263.48
479.87	263.56
480.23	263.62
480.60	263.68
480.96	263.78
481.33	263.99
481.69	264.21
482.06	264.42
482.42	264.61
482.79	264.91
483.15	265.24
483.52	265.57
483.88	265.91
484.25	266.32
484.61	266.74
484.98	267.20
485.34	267.78
485.71	268.39
486.07	268.99
486.44	269.55
486.80	270.22
487.17	270.97
487.53	271.80
487.90	272.63
488.26	273.55
488.62	274.51
488.99	275.46
489.35	276.48
489.72	277.61
490.08	278.83
490.44	280.02
490.81	281.33
491.17	282.73
491.54	284.19
491.90	285.72
492.26	287.37
492.63	289.10
492.99	290.84
493.36	292.72
493.72	294.77
494.08	296.88
494.45	299.12
494.81	301.47
495.17	303.88
495.54	306.44
495.90	309.13
496.26	311.93
496.63	314.92
496.99	317.95
497.35	321.13
497.72	324.52
498.08	328.02
498.44	331.68
498.80	335.55
499.17	339.57
499.53	343.75
499.89	348.13
500.26	352.58
500.62	357.19
500.98	362.18
501.34	367.17
501.71	372.44
502.07	377.84
502.43	383.42
502.79	389.16
503.16	395.22
503.52	401.45
503.88	407.78
504.24	414.33
504.60	421.20
504.97	428.36
505.33	435.59
505.69	443.30
506.05	451.04
506.41	458.79
506.78	466.82
507.14	475.12
507.50	483.70
507.86	492.58
508.22	501.71
508.59	510.77
508.95	520.31
509.31	530.04
509.67	540.04
510.03	550.13
510.39	560.59
510.75	571.18
511.12	581.92
511.48	593.03
511.84	604.36
512.20	615.73
512.56	627.44
512.92	639.40
513.28	651.49
513.64	663.72
514.00	676.28
514.37	689.11
514.73	702.00
515.09	714.79
515.45	727.85
515.81	741.19
516.17	754.81
516.53	768.66
516.89	782.57
517.25	796.45
517.61	810.67
517.97	824.89
518.33	839.11
518.69	853.61
519.05	868.37
519.41	883.23
519.77	898.45
520.13	913.64
520.49	928.87
520.85	944.01
521.21	959.40
521.57	975.39
521.93	990.89
522.29	1006.88
522.65	1022.95
523.01	1038.91
523.37	1054.67
523.73	1070.59
524.09	1086.25
524.45	1102.33
524.81	1118.67
525.17	1135.13
525.53	1151.66
525.89	1168.31
526.25	1184.90
526.61	1201.12
526.97	1217.64
527.33	1233.92
527.68	1250.32
528.04	1266.52
528.40	1282.80
528.76	1299.65
529.12	1316.06
529.48	1332.70
529.84	1348.55
530.20	1364.86
530.56	1381.62
530.91	1398.86
531.27	1415.49
531.63	1431.92
531.99	1448.35
532.35	1464.33
532.71	1480.12
533.07	1496.24
533.42	1511.98
533.78	1527.93
534.14	1543.96
534.50	1559.20
534.86	1574.94
535.21	1590.01
535.57	1605.81
535.93	1621.19
536.29	1635.97
536.65	1650.82
537.00	1665.51
537.36	1680.97
537.72	1695.41
538.08	1709.86
538.44	1723.65
538.79	1737.62
539.15	1751.21
539.51	1764.78
539.87	1779.19
540.22	1792.97
540.58	1806.84
540.94	1820.17
541.29	1833.06
541.65	1845.88
542.01	1859.03
542.37	1871.42
542.72	1884.00
543.08	1896.05
543.44	1908.73
543.79	1920.18
544.15	1931.40
544.51	1943.19
544.87	1954.16
545.22	1965.36
545.58	1975.85
545.94	1986.01
546.29	1996.19
546.65	2006.56
547.01	2016.23
547.36	2025.33
547.72	2034.19
548.07	2042.54
548.43	2051.02
548.79	2059.25
549.14	2067.29
549.50	2075.11
549.86	2083.14
550.21	2090.81
550.57	2098.35
550.92	2105.38
551.28	2112.90
551.64	2120.38
551.99	2127.33
552.35	2134.08
552.70	2140.67
553.06	2147.23
553.41	2154.03
553.77	2160.40
554.13	2166.81
554.48	2173.43
554.84	2179.40
555.19	2185.01
555.55	2190.53
555.90	2195.63
556.26	2201.31
556.61	2206.44
556.97	2211.49
557.32	2216.33
557.68	2220.98
558.03	2225.84
558.39	2229.95
558.74	2234.87
559.10	2239.32
559.45	2243.49
559.81	2248.11
560.16	2252.35
560.52	2256.13
560.87	2260.00
561.23	2263.28
561.58	2266.41
561.94	2269.44
562.29	2272.04
562.64	2275.58
563.00	2278.61
563.35	2282.63
563.71	2286.25
564.06	2289.82
564.42	2293.13
564.77	2296.26
565.12	2299.37
565.48	2301.71
565.83	2304.20
566.19	2306.40
566.54	2307.74
566.89	2309.45
567.25	2310.72
567.60	2312.62
567.96	2314.89
568.31	2316.22
568.66	2317.84
569.02	2319.30
569.37	2320.21
569.72	2321.61
570.08	2322.12
570.43	2322.61
570.78	2322.55
571.14	2321.48
571.49	2320.62
571.84	2320.62
572.20	2319.89
572.55	2318.97
572.90	2317.80
573.26	2316.83
573.61	2315.19
573.96	2314.19
574.31	2311.71
574.67	2309.17
575.02	2305.85
575.37	2302.60
575.72	2299.24
576.08	2296.02
576.43	2292.86
576.78	2289.77
577.13	2286.95
577.49	2284.07
577.84	2280.97
578.19	2277.52
578.54	2274.25
578.90	2270.64
579.25	2265.50
579.60	2260.94
579.95	2256.47
580.30	2251.77
580.66	2246.90
581.01	2242.26
581.36	2237.37
581.71	2233.56
582.06	2229.63
582.42	2225.76
582.77	2220.94
583.12	2216.55
583.47	2212.38
583.82	2207.93
584.17	2202.85
584.53	2197.67
584.88	2192.45
585.23	2187.16
585.58	2181.86
585.93	2176.61
586.28	2171.76
586.63	2166.89
586.98	2161.79
587.34	2157.06
587.69	2152.30
588.04	2147.56
588.39	2142.20
588.74	2135.78
589.09	2129.66
589.44	2122.86
589.79	2116.47
590.14	2110.78
590.49	2104.42
590.84	2098.08
591.19	2092.03
591.54	2085.60
591.89	2078.47
592.25	2071.92
592.60	2064.73
592.95	2057.38
593.30	2050.05
593.65	2042.58
594.00	2035.62
594.35	2028.55
594.70	2020.56
595.05	2013.65
595.40	2006.09
595.75	1998.67
596.10	1992.77
596.45	1986.10
596.80	1980.00
597.15	1973.68
597.50	1967.06
597.85	1960.49
598.19	1953.86
598.54	1947.02
598.89	1940.42
599.24	1934.40
599.59	1927.90
599.94	1921.63
600.29	1915.36
600.64	1908.83
600.99	1901.44
601.34	1894.50
601.69	1887.33
602.04	1880.55
602.39	1872.97
602.74	1866.14
603.08	1859.38
603.43	1852.41
603.78	1845.16
604.13	1837.83
604.48	1830.79
604.83	1823.68
605.18	1817.08
605.53	1809.18
605.87	1801.03
606.22	1793.60
606.57	1785.50
606.92	1777.65
607.27	1770.49
607.62	1763.44
607.96	1756.09
608.31	1749.76
608.66	1742.23
609.01	1734.65
609.36	1727.00
609.70	1719.02
610.05	1710.89
610.40	1703.05
610.75	1694.89
611.10	1687.06
611.44	1678.33
611.79	1669.79
612.14	1660.95
612.49	1651.34
612.83	1642.63
613.18	1634.18
613.53	1625.90
613.88	1617.20
614.22	1608.76
614.57	1599.73
614.92	1591.39
615.27	1583.72
615.61	1574.96
615.96	1566.62
616.31	1558.75
616.65	1551.04
617.00	1543.18
617.35	1535.23
617.70	1526.70
618.04	1517.85
618.39	1509.24
618.74	1501.71
619.08	1493.27
619.43	1485.40
619.78	1478.22
620.12	1470.97
620.47	1463.18
620.82	1454.66
621.16	1446.97
621.51	1439.07
621.85	1431.30
622.20	1422.59
622.55	1413.92
622.89	1405.75
623.24	1397.78
623.59	1390.04
623.93	1382.33
624.28	1374.87
624.62	1367.20
624.97	1359.80
625.32	1352.71
625.66	1345.43
626.01	1337.90
626.35	1330.38
626.70	1322.37
627.04	1314.46
627.39	1306.36
627.73	1298.65
628.08	1291.60
628.43	1284.29
628.77	1276.86
629.12	1269.19
629.46	1261.82
629.81	1253.88
630.15	1246.41
630.50	1238.86
630.84	1230.59
631.19	1222.34
631.53	1214.48
631.88	1206.58
632.22	1198.74
632.57	1191.04
632.91	1183.28
633.26	1175.60
633.60	1167.84
633.95	1160.39
634.29	1153.08
634.64	1146.01
634.98	1138.57
635.32	1131.22
635.67	1124.18
636.01	1117.21
636.36	1110.24
636.70	1103.49
637.05	1096.90
637.39	1090.26
637.73	1083.58
638.08	1077.51
638.42	1071.44
638.77	1064.94
639.11	1058.25
639.45	1051.68
639.80	1045.05
640.14	1038.56
640.49	1031.95
640.83	1025.43
641.17	1019.13
641.52	1012.69
641.86	1006.08
642.20	1000.14
642.55	993.65
642.89	987.09
643.23	980.31
643.58	974.34
643.92	968.09
644.26	962.05
644.61	955.75
644.95	949.70
645.29	943.06
645.64	936.12
645.98	929.60
646.32	923.39
646.66	917.15
647.01	911.07
647.35	905.26
647.69	899.15
648.04	893.50
648.38	887.61
648.72	881.49
649.06	875.46
649.41	869.33
649.75	863.36
650.09	857.29
650.43	851.35
650.78	845.11
651.12	838.92
651.46	832.89
651.80	827.19
652.14	821.48
652.49	815.96
652.83	810.61
653.17	804.85
653.51	799.31
653.85	793.84
654.20	788.18
654.54	782.03
654.88	776.19
655.22	770.17
655.56	764.32
655.90	758.61
656.25	753.21
656.59	747.69
656.93	742.32
657.27	737.14
657.61	731.59
657.95	726.33
658.29	721.14
658.64	715.68
658.98	710.14
659.32	704.57
659.66	699.20
660.00	693.87
660.34	688.84
660.68	683.61
661.02	678.40
661.36	673.63
661.70	669.04
662.05	664.62
662.39	660.29
662.73	655.75
663.07	651.36
663.41	646.82
663.75	642.29
664.09	637.71
664.43	633.17
664.77	629.06
665.11	624.68
665.45	620.44
665.79	616.39
666.13	612.20
666.47	608.06
666.81	603.94
667.15	599.72
667.49	595.70
667.83	591.82
668.17	587.79
668.51	583.64
668.85	579.48
669.19	575.43
669.53	571.47
669.87	567.59
670.21	563.79
670.55	560.01
670.89	556.47
671.23	552.93
671.57	549.29
671.91	545.71
672.25	542.10
672.58	538.55
672.92	535.04
673.26	531.75
673.60	528.54
673.94	525.26
674.28	522.22
674.62	519.18
674.96	516.03
675.30	513.10
675.64	510.12
675.97	507.21
676.31	504.35
676.65	501.35
676.99	498.52
677.33	495.58
677.67	492.74
678.01	489.63
678.34	486.68
678.68	483.76
679.02	480.83
679.36	478.04
679.70	475.21
680.04	472.40
680.37	469.54
680.71	466.62
681.05	463.93
681.39	461.21
681.73	458.48
682.06	455.93
682.40	453.35
682.74	450.72
683.08	448.17
683.42	445.44
683.75	442.91
684.09	440.26
684.43	437.72
684.77	435.20
685.10	432.86
685.44	430.39
685.78	428.01
686.12	425.67
686.45	423.30
686.79	420.98
687.13	418.76
687.46	416.52
687.80	414.34
688.14	412.05
688.48	409.93
688.81	407.67
689.15	405.48
689.49	403.15
689.82	401.00
690.16	398.78
690.50	396.81
690.83	394.80
691.17	392.72
691.51	390.78
691.84	388.83
692.18	386.83
692.52	384.91
692.85	382.93
693.19	380.98
693.52	379.10
693.86	377.20
694.20	375.30
694.53	373.45
694.87	371.56
695.21	369.69
695.54	367.78
695.88	365.92
696.21	364.12
696.55	362.45
696.88	360.68
697.22	359.00
697.56	357.26
697.89	355.56
698.23	353.93
698.56	352.25
698.90	350.66
699.23	348.97
699.57	347.29
699.90	345.68
700.24	344.07
700.58	342.48
700.91	340.97
701.25	339.43
701.58	337.99
701.92	336.54
702.25	335.11
702.59	333.66
702.92	332.30
703.26	330.88
703.59	329.59
703.93	328.36
704.26	327.10
704.60	325.78
704.93	324.45
705.26	323.15
705.60	321.86
705.93	320.65
706.27	319.54
706.60	318.42
706.94	317.31
707.27	316.16
707.61	315.00
707.94	313.92
708.27	312.79
708.61	311.69
708.94	310.67
709.28	309.65
709.61	308.67
709.94	307.70
710.28	306.70
710.61	305.65
710.95	304.51
711.28	303.50
711.61	302.53
711.95	301.57
712.28	300.63
712.61	299.63
712.95	298.59
713.28	297.64
713.61	296.73
713.95	295.82
714.28	294.97
714.61	294.10
714.95	293.22
715.28	292.37
715.61	291.45
715.95	290.53
716.28	289.67
716.61	288.79
716.95	287.91
717.28	287.10
717.61	286.30
717.94	285.56
718.28	284.73
718.61	284.00
718.94	283.33
719.27	282.62
719.61	281.99
719.94	281.37
720.27	280.63
720.60	279.93
720.94	279.28
721.27	278.65
721.60	278.10
721.93	277.48
722.27	276.91
722.60	276.33
722.93	275.73
723.26	275.16
723.59	274.63
723.93	274.08
724.26	273.53
724.59	272.94
724.92	272.36
725.25	271.86
725.59	271.31
725.92	270.76
726.25	270.23
726.58	269.74
726.91	269.23
727.24	268.79
727.57	268.29
727.91	267.78
728.24	267.28
728.57	266.73
728.90	266.25
729.23	265.73
729.56	265.33
729.89	264.87
730.22	264.37
730.55	263.87
730.89	263.41
731.22	262.95
731.55	262.50
731.88	262.05
732.21	261.62
732.54	261.17
732.87	260.73
733.20	260.32
733.53	259.86
733.86	259.48
734.19	259.04
734.52	258.67
734.85	258.32
735.18	257.89
735.51	257.53
735.84	257.13
736.17	256.80
736.50	256.34
736.83	256.09
737.16	255.78
737.49	255.44
737.82	255.09
738.15	254.76
738.48	254.39
738.81	254.09
739.14	253.73
739.47	253.41
739.80	253.08
740.13	252.76
740.46	252.45
740.79	252.09
741.12	251.74
741.45	251.41
741.78	251.04
742.11	250.78
742.44	250.38
742.77	250.11
743.10	249.80
743.43	249.52
743.75	249.14
744.08	248.96
744.41	248.67
744.74	248.37
745.07	248.06
745.40	247.82
745.73	247.58
746.06	247.34
746.39	247.04
746.71	246.76
747.04	246.46
747.37	246.18
747.70	245.94
748.03	245.69
748.36	245.45
748.68	245.19
749.01	244.89
749.34	244.69
749.67	244.41
750.00	244.15
750.33	243.96
750.65	243.71
750.98	243.34
751.31	243.14
751.64	242.94
751.97	242.77
752.29	242.52
752.62	242.24
752.95	242.00
753.28	241.77
753.60	241.55
753.93	241.38
754.26	241.18
754.59	240.93
754.91	240.72
755.24	240.51
755.57	240.33
755.90	240.13
756.22	239.91
756.55	239.71
756.88	239.51
757.20	239.28
757.53	239.06
757.86	238.87
758.19	238.66
758.51	238.48
758.84	238.28
759.17	238.13
759.49	237.96
759.82	237.88
760.15	237.75
760.47	237.61
760.80	237.43
761.13	237.32
761.45	237.20
761.78	237.08
762.11	236.94
762.43	236.79
762.76	236.68
763.08	236.55
763.41	236.43
763.74	236.31
764.06	236.15
764.39	236.03
764.71	235.91
765.04	235.77
765.37	235.64
765.69	235.50
766.02	235.37
766.34	235.26
766.67	235.09
767.00	234.98
767.32	234.91
767.65	234.87
767.97	234.74
768.30	234.62
768.62	234.50
768.95	234.40
769.27	234.31
769.60	234.19
769.92	234.09
770.25	233.95
770.57	233.82
770.90	233.76
771.22	233.68
771.55	233.57
771.87	233.49
772.20	233.39
772.52	233.39
772.85	233.41
773.17	233.29
773.50	233.19
773.82	233.08
774.15	232.94
774.47	232.76
774.80	232.63
775.12	232.57
775.45	232.48
775.77	232.39
776.09	232.28
776.42	232.20
776.74	232.13
777.07	232.05
777.39	231.98
777.72	231.89
778.04	231.82
778.36	231.72
778.69	231.64
779.01	231.57
779.33	231.42
779.66	231.20
779.98	231.11
780.31	231.06
780.63	231.01
780.95	230.95
781.28	230.88
781.60	230.80
781.92	230.71
782.25	230.64
782.57	230.60
782.89	230.51
783.22	230.40
783.54	230.34
783.86	230.27
784.19	230.22
784.51	230.15
784.83	230.06
785.16	230.00
785.48	229.95
785.80	229.87
786.12	229.83
786.45	229.77
786.77	229.74
