SpectraSuite Data File
++++++++++++++++++++++++++++++++++++
Date: Fri Feb 01 14:58:25 EST 2013
User: group
Dark Spectrum Present: No
Reference Spectrum Present: No
Number of Sampled Component Spectra: 1
Spectrometers: USB2E7196
Integration Time (usec): 35000 (USB2E7196)
Spectra Averaged: 100 (USB2E7196)
Boxcar Smoothing: 10 (USB2E7196)
Correct for Electrical Dark: No (USB2E7196)
Strobe/Lamp Enabled: No (USB2E7196)
Correct for Detector Non-linearity: No (USB2E7196)
Correct for Stray Light: No (USB2E7196)
Number of Pixels in Processed Spectrum: 2048
>>>>>Begin Processed Spectral Data<<<<<
339.09	0.00
339.48	215.39
339.86	216.04
340.24	217.83
340.63	219.45
341.01	222.38
341.39	222.50
341.78	223.17
342.16	224.77
342.54	225.47
342.93	213.50
343.31	224.28
343.69	224.79
344.07	225.29
344.46	225.72
344.84	226.10
345.22	226.31
345.60	226.52
345.99	226.75
346.37	226.85
346.75	226.91
347.13	227.01
347.52	227.06
347.90	227.15
348.28	227.18
348.66	227.24
349.05	227.21
349.43	227.24
349.81	227.30
350.19	227.33
350.57	227.39
350.96	227.44
351.34	227.52
351.72	227.59
352.10	227.66
352.48	227.74
352.87	227.79
353.25	227.88
353.63	227.95
354.01	227.99
354.39	228.09
354.77	228.20
355.15	228.28
355.54	228.36
355.92	228.41
356.30	228.49
356.68	228.61
357.06	228.69
357.44	228.78
357.82	228.84
358.20	228.95
358.58	229.02
358.97	229.06
359.35	229.15
359.73	229.25
360.11	229.31
360.49	229.36
360.87	229.41
361.25	229.46
361.63	229.54
362.01	229.57
362.39	229.58
362.77	229.62
363.15	229.62
363.53	229.62
363.91	229.65
364.29	229.64
364.67	229.57
365.05	229.56
365.43	229.57
365.81	229.59
366.19	229.63
366.57	229.65
366.95	229.66
367.33	229.63
367.71	229.63
368.09	229.67
368.47	229.63
368.85	229.58
369.23	229.59
369.61	229.50
369.99	229.49
370.37	229.48
370.75	229.46
371.13	229.43
371.51	229.38
371.89	229.32
372.27	229.27
372.65	229.20
373.03	229.17
373.41	229.07
373.78	228.99
374.16	228.86
374.54	228.73
374.92	228.65
375.30	228.61
375.68	228.52
376.06	228.42
376.44	228.37
376.82	228.30
377.19	228.23
377.57	228.18
377.95	228.09
378.33	228.00
378.71	227.86
379.09	227.78
379.47	227.72
379.84	227.63
380.22	227.56
380.60	227.49
380.98	227.43
381.36	227.36
381.73	227.28
382.11	227.21
382.49	227.15
382.87	227.08
383.25	226.98
383.62	226.97
384.00	226.87
384.38	226.80
384.76	226.75
385.13	226.70
385.51	226.68
385.89	226.64
386.27	226.60
386.64	226.59
387.02	226.54
387.40	226.48
387.78	226.47
388.15	226.44
388.53	226.38
388.91	226.34
389.29	226.28
389.66	226.24
390.04	226.23
390.42	226.21
390.79	226.19
391.17	226.18
391.55	226.08
391.92	226.10
392.30	226.11
392.68	226.11
393.05	226.10
393.43	226.09
393.81	226.08
394.18	226.10
394.56	226.12
394.94	226.17
395.31	226.22
395.69	226.27
396.06	226.33
396.44	226.40
396.82	226.42
397.19	226.54
397.57	226.61
397.95	226.68
398.32	226.75
398.70	226.85
399.07	226.95
399.45	227.06
399.82	227.16
400.20	227.24
400.58	227.34
400.95	227.41
401.33	227.52
401.70	227.71
402.08	227.82
402.45	227.91
402.83	228.02
403.20	228.15
403.58	228.28
403.95	228.38
404.33	228.53
404.71	228.69
405.08	228.88
405.46	229.03
405.83	229.19
406.21	229.34
406.58	229.52
406.96	229.72
407.33	229.90
407.70	230.06
408.08	230.36
408.45	230.58
408.83	230.84
409.20	231.04
409.58	231.22
409.95	231.46
410.33	231.78
410.70	232.05
411.08	232.33
411.45	232.67
411.82	232.99
412.20	233.33
412.57	233.76
412.95	234.07
413.32	234.47
413.69	234.92
414.07	235.37
414.44	235.79
414.82	236.26
415.19	236.82
415.56	237.40
415.94	237.92
416.31	238.56
416.68	239.18
417.06	239.87
417.43	240.58
417.81	241.35
418.18	242.08
418.55	242.91
418.93	243.80
419.30	244.67
419.67	245.59
420.04	246.56
420.42	247.52
420.79	248.74
421.16	249.90
421.54	251.05
421.91	252.24
422.28	253.50
422.66	254.79
423.03	256.07
423.40	257.40
423.77	258.79
424.15	260.17
424.52	261.63
424.89	263.27
425.26	264.74
425.64	266.19
426.01	267.80
426.38	269.43
426.75	271.06
427.13	272.75
427.50	274.55
427.87	276.42
428.24	278.26
428.61	279.94
428.99	281.86
429.36	283.96
429.73	286.02
430.10	288.05
430.47	290.12
430.85	292.25
431.22	294.46
431.59	296.84
431.96	299.12
432.33	301.64
432.70	304.01
433.08	306.85
433.45	309.49
433.82	312.10
434.19	314.97
434.56	317.83
434.93	320.53
435.30	323.18
435.68	326.07
436.05	328.95
436.42	331.78
436.79	334.31
437.16	337.02
437.53	339.87
437.90	342.69
438.27	345.51
438.64	348.31
439.01	350.95
439.38	353.21
439.75	355.35
440.13	357.88
440.50	360.20
440.87	362.09
441.24	364.07
441.61	366.24
441.98	367.81
442.35	369.62
442.72	371.45
443.09	373.25
443.46	374.26
443.83	374.85
444.20	375.34
444.57	376.18
444.94	376.51
445.31	376.89
445.68	377.27
446.05	377.28
446.42	376.92
446.79	376.49
447.16	376.05
447.53	375.78
447.90	374.59
448.27	373.44
448.64	371.83
449.01	370.67
449.37	368.72
449.74	366.79
450.11	364.53
450.48	362.07
450.85	359.57
451.22	357.37
451.59	355.34
451.96	353.45
452.33	350.83
452.70	348.48
453.07	345.63
453.43	342.76
453.80	339.99
454.17	337.29
454.54	334.75
454.91	332.01
455.28	329.34
455.65	326.85
456.02	324.42
456.38	322.27
456.75	319.64
457.12	317.37
457.49	315.15
457.86	312.97
458.23	311.16
458.59	309.09
458.96	307.06
459.33	305.18
459.70	303.29
460.07	301.78
460.43	300.01
460.80	298.38
461.17	296.89
461.54	295.38
461.91	293.98
462.27	292.51
462.64	291.28
463.01	289.94
463.38	288.65
463.74	287.24
464.11	286.06
464.48	285.01
464.85	283.86
465.21	282.97
465.58	282.05
465.95	280.93
466.32	280.01
466.68	279.07
467.05	278.17
467.42	277.26
467.78	276.31
468.15	275.43
468.52	274.73
468.88	273.85
469.25	273.07
469.62	272.42
469.98	271.72
470.35	271.05
470.72	270.35
471.08	269.68
471.45	269.17
471.82	268.60
472.18	267.94
472.55	267.50
472.92	266.93
473.28	266.43
473.65	265.96
474.02	265.50
474.38	265.12
474.75	264.79
475.11	264.40
475.48	264.16
475.85	263.90
476.21	263.65
476.58	263.46
476.94	263.31
477.31	263.10
477.67	262.91
478.04	262.76
478.41	262.70
478.77	262.70
479.14	262.57
479.50	262.57
479.87	262.63
480.23	262.70
480.60	262.77
480.96	262.85
481.33	263.02
481.69	263.20
482.06	263.36
482.42	263.54
482.79	263.81
483.15	264.09
483.52	264.45
483.88	264.83
484.25	265.21
484.61	265.59
484.98	266.08
485.34	266.70
485.71	267.29
486.07	267.90
486.44	268.49
486.80	269.21
487.17	269.93
487.53	270.77
487.90	271.64
488.26	272.56
488.62	273.57
488.99	274.58
489.35	275.61
489.72	276.72
490.08	277.92
490.44	279.16
490.81	280.50
491.17	281.83
491.54	283.29
491.90	284.85
492.26	286.53
492.63	288.24
492.99	289.99
493.36	291.93
493.72	294.01
494.08	296.12
494.45	298.36
494.81	300.73
495.17	303.17
495.54	305.73
495.90	308.44
496.26	311.23
496.63	314.13
496.99	317.24
497.35	320.52
497.72	323.96
498.08	327.47
498.44	331.08
498.80	335.00
499.17	339.02
499.53	343.17
499.89	347.54
500.26	352.05
500.62	356.69
500.98	361.57
501.34	366.55
501.71	371.83
502.07	377.29
502.43	382.92
502.79	388.68
503.16	394.75
503.52	400.95
503.88	407.30
504.24	413.91
504.60	420.78
504.97	427.85
505.33	435.11
505.69	442.86
506.05	450.63
506.41	458.48
506.78	466.60
507.14	475.02
507.50	483.66
507.86	492.67
508.22	501.85
508.59	510.98
508.95	520.61
509.31	530.38
509.67	540.41
510.03	550.62
510.39	561.13
510.75	571.85
511.12	582.75
511.48	594.03
511.84	605.53
512.20	617.05
512.56	628.99
512.92	641.17
513.28	653.36
513.64	665.88
514.00	678.58
514.37	691.52
514.73	704.58
515.09	717.68
515.45	731.00
515.81	744.58
516.17	758.57
516.53	772.65
516.89	786.84
517.25	801.01
517.61	815.48
517.97	829.95
518.33	844.51
518.69	859.33
519.05	874.33
519.41	889.43
519.77	904.99
520.13	920.46
520.49	935.88
520.85	951.43
521.21	967.24
521.57	983.54
521.93	999.38
522.29	1015.86
522.65	1032.13
523.01	1048.35
523.37	1064.47
523.73	1080.77
524.09	1096.90
524.45	1113.24
524.81	1129.98
525.17	1146.93
525.53	1163.94
525.89	1180.78
526.25	1197.60
526.61	1214.11
526.97	1230.91
527.33	1247.43
527.68	1264.09
528.04	1280.55
528.40	1297.27
528.76	1314.34
529.12	1331.02
529.48	1348.04
529.84	1364.14
530.20	1380.80
530.56	1397.84
530.91	1415.32
531.27	1432.16
531.63	1448.75
531.99	1465.47
532.35	1481.59
532.71	1497.55
533.07	1513.89
533.42	1529.96
533.78	1546.17
534.14	1562.62
534.50	1578.06
534.86	1594.11
535.21	1609.37
535.57	1625.55
535.93	1641.07
536.29	1655.91
536.65	1671.07
537.00	1685.97
537.36	1701.34
537.72	1716.05
538.08	1730.63
538.44	1744.51
538.79	1758.57
539.15	1772.51
539.51	1786.37
539.87	1800.82
540.22	1814.60
540.58	1828.47
540.94	1841.94
541.29	1854.98
541.65	1867.69
542.01	1880.98
542.37	1893.14
542.72	1905.66
543.08	1917.37
543.44	1929.90
543.79	1941.18
544.15	1952.30
544.51	1963.71
544.87	1974.71
545.22	1985.55
545.58	1995.73
545.94	2005.43
546.29	2015.22
546.65	2024.95
547.01	2034.19
547.36	2042.80
547.72	2051.27
548.07	2059.12
548.43	2067.22
548.79	2075.23
549.14	2082.72
549.50	2090.16
549.86	2098.19
550.21	2105.57
550.57	2112.74
550.92	2119.21
551.28	2126.28
551.64	2133.32
551.99	2139.94
552.35	2146.08
552.70	2152.15
553.06	2158.03
553.41	2164.37
553.77	2170.35
554.13	2176.36
554.48	2182.37
554.84	2187.81
555.19	2193.11
555.55	2198.22
555.90	2202.70
556.26	2207.45
556.61	2212.20
556.97	2216.32
557.32	2220.34
557.68	2224.37
558.03	2228.70
558.39	2232.51
558.74	2237.07
559.10	2240.82
559.45	2244.29
559.81	2248.57
560.16	2252.42
560.52	2255.63
560.87	2259.03
561.23	2261.60
561.58	2264.65
561.94	2267.19
562.29	2269.54
562.64	2272.18
563.00	2274.78
563.35	2278.18
563.71	2281.30
564.06	2284.43
564.42	2287.30
564.77	2289.61
565.12	2291.75
565.48	2293.42
565.83	2294.97
566.19	2296.15
566.54	2296.91
566.89	2298.04
567.25	2298.43
567.60	2299.70
567.96	2301.31
568.31	2302.06
568.66	2302.98
569.02	2303.35
569.37	2303.47
569.72	2304.09
570.08	2303.88
570.43	2303.65
570.78	2302.74
571.14	2300.99
571.49	2299.34
571.84	2298.83
572.20	2297.51
572.55	2296.26
572.90	2294.69
573.26	2293.09
573.61	2291.25
573.96	2289.38
574.31	2286.28
574.67	2283.18
575.02	2279.29
575.37	2275.76
575.72	2271.74
576.08	2268.44
576.43	2264.88
576.78	2260.99
577.13	2257.81
577.49	2254.72
577.84	2251.11
578.19	2247.36
578.54	2243.61
578.90	2239.28
579.25	2233.57
579.60	2228.43
579.95	2223.39
580.30	2218.17
580.66	2213.02
581.01	2208.04
581.36	2203.08
581.71	2198.75
582.06	2194.16
582.42	2189.48
582.77	2184.22
583.12	2179.59
583.47	2174.68
583.82	2169.61
584.17	2164.52
584.53	2158.72
584.88	2152.93
585.23	2146.96
585.58	2141.33
585.93	2135.66
586.28	2130.86
586.63	2125.71
586.98	2120.52
587.34	2115.76
587.69	2110.72
588.04	2105.42
588.39	2099.39
588.74	2092.76
589.09	2086.42
589.44	2079.42
589.79	2073.46
590.14	2067.55
590.49	2060.81
590.84	2054.16
591.19	2047.94
591.54	2041.31
591.89	2033.81
592.25	2026.91
592.60	2019.70
592.95	2011.99
593.30	2004.60
593.65	1996.77
594.00	1989.55
594.35	1982.26
594.70	1974.00
595.05	1966.56
595.40	1959.13
595.75	1951.70
596.10	1945.25
596.45	1938.44
596.80	1932.25
597.15	1925.36
597.50	1918.14
597.85	1911.62
598.19	1905.03
598.54	1897.85
598.89	1891.01
599.24	1885.16
599.59	1878.35
599.94	1871.94
600.29	1865.53
600.64	1858.95
600.99	1851.42
601.34	1844.58
601.69	1837.55
602.04	1830.55
602.39	1823.28
602.74	1816.44
603.08	1809.53
603.43	1802.84
603.78	1795.49
604.13	1788.29
604.48	1780.89
604.83	1774.12
605.18	1767.06
605.53	1759.01
605.87	1751.08
606.22	1743.84
606.57	1735.81
606.92	1728.60
607.27	1721.47
607.62	1714.52
607.96	1707.22
608.31	1700.68
608.66	1692.96
609.01	1685.51
609.36	1678.02
609.70	1670.14
610.05	1662.03
610.40	1654.45
610.75	1646.04
611.10	1638.47
611.44	1630.13
611.79	1622.30
612.14	1613.48
612.49	1604.48
612.83	1596.11
613.18	1587.95
613.53	1580.00
613.88	1571.54
614.22	1563.23
614.57	1554.69
614.92	1546.77
615.27	1539.26
615.61	1531.02
615.96	1523.07
616.31	1515.44
616.65	1508.19
617.00	1500.51
617.35	1492.90
617.70	1484.55
618.04	1476.12
618.39	1467.88
618.74	1460.30
619.08	1451.90
619.43	1444.58
619.78	1437.65
620.12	1430.44
620.47	1422.92
620.82	1414.76
621.16	1407.35
621.51	1399.77
621.85	1392.21
622.20	1383.81
622.55	1375.54
622.89	1367.67
623.24	1360.22
623.59	1352.92
623.93	1345.43
624.28	1338.31
624.62	1330.88
624.97	1323.78
625.32	1317.16
625.66	1310.30
626.01	1303.09
626.35	1295.79
626.70	1288.03
627.04	1280.34
627.39	1272.65
627.73	1265.29
628.08	1258.28
628.43	1251.00
628.77	1243.56
629.12	1236.07
629.46	1228.85
629.81	1221.47
630.15	1214.38
630.50	1207.00
630.84	1198.75
631.19	1190.89
631.53	1183.47
631.88	1175.89
632.22	1168.36
632.57	1161.11
632.91	1153.53
633.26	1146.14
633.60	1138.89
633.95	1131.90
634.29	1124.92
634.64	1118.33
634.98	1111.04
635.32	1103.91
635.67	1097.50
636.01	1091.02
636.36	1084.23
636.70	1077.70
637.05	1071.22
637.39	1064.80
637.73	1058.27
638.08	1052.47
638.42	1046.51
638.77	1039.99
639.11	1033.52
639.45	1027.17
639.80	1020.47
640.14	1014.00
640.49	1007.55
640.83	1001.27
641.17	994.96
641.52	988.70
641.86	982.32
642.20	976.48
642.55	970.36
642.89	963.84
643.23	957.37
643.58	951.63
643.92	945.45
644.26	939.26
644.61	933.24
644.95	927.24
645.29	920.72
645.64	913.98
645.98	907.74
646.32	901.92
646.66	895.98
647.01	890.30
647.35	884.69
647.69	878.94
648.04	873.38
648.38	867.63
648.72	861.70
649.06	855.66
649.41	849.82
649.75	843.86
650.09	837.95
650.43	832.17
650.78	826.01
651.12	820.18
651.46	814.51
651.80	808.77
652.14	803.39
652.49	798.02
652.83	792.90
653.17	787.24
653.51	781.52
653.85	776.06
654.20	770.41
654.54	764.41
654.88	758.68
655.22	752.84
655.56	747.25
655.90	741.77
656.25	736.53
656.59	731.19
656.93	726.02
657.27	720.89
657.61	715.50
657.95	710.45
658.29	705.35
658.64	700.15
658.98	694.94
659.32	689.55
659.66	684.40
660.00	679.09
660.34	674.21
660.68	669.28
661.02	664.36
661.36	659.67
661.70	655.30
662.05	650.96
662.39	646.66
662.73	642.25
663.07	637.90
663.41	633.56
663.75	629.14
664.09	624.73
664.43	620.44
664.77	616.37
665.11	612.20
665.45	608.21
665.79	604.16
666.13	600.04
666.47	595.96
666.81	591.80
667.15	587.75
667.49	583.89
667.83	580.16
668.17	576.26
668.51	572.24
668.85	568.21
669.19	564.38
669.53	560.57
669.87	556.71
670.21	553.07
670.55	549.41
670.89	546.02
671.23	542.59
671.57	539.06
671.91	535.60
672.25	532.16
672.58	528.62
672.92	525.32
673.26	522.20
673.60	519.08
673.94	516.00
674.28	513.10
674.62	510.12
674.96	507.06
675.30	504.19
675.64	501.32
675.97	498.61
676.31	495.78
676.65	492.89
676.99	490.18
677.33	487.28
677.67	484.50
678.01	481.50
678.34	478.56
678.68	475.70
679.02	472.79
679.36	470.08
679.70	467.33
680.04	464.54
680.37	461.67
680.71	458.92
681.05	456.33
681.39	453.67
681.73	451.09
682.06	448.55
682.40	445.96
682.74	443.39
683.08	440.84
683.42	438.25
683.75	435.73
684.09	433.21
684.43	430.83
684.77	428.40
685.10	426.10
685.44	423.79
685.78	421.54
686.12	419.33
686.45	417.02
686.79	414.76
687.13	412.58
687.46	410.43
687.80	408.34
688.14	406.13
688.48	404.06
688.81	401.74
689.15	399.63
689.49	397.52
689.82	395.49
690.16	393.44
690.50	391.54
690.83	389.60
691.17	387.65
691.51	385.72
691.84	383.91
692.18	381.90
692.52	379.97
692.85	378.03
693.19	376.20
693.52	374.39
693.86	372.63
694.20	370.89
694.53	369.08
694.87	367.18
695.21	365.44
695.54	363.63
695.88	361.97
696.21	360.21
696.55	358.52
696.88	356.84
697.22	355.17
697.56	353.55
697.89	351.93
698.23	350.34
698.56	348.77
698.90	347.12
699.23	345.51
699.57	343.93
699.90	342.45
700.24	340.88
700.58	339.36
700.91	337.85
701.25	336.42
701.58	335.07
701.92	333.71
702.25	332.32
702.59	330.98
702.92	329.65
703.26	328.38
703.59	327.09
703.93	325.92
704.26	324.69
704.60	323.38
704.93	322.13
705.26	320.90
705.60	319.76
705.93	318.64
706.27	317.66
706.60	316.64
706.94	315.51
707.27	314.43
707.61	313.38
707.94	312.37
708.27	311.27
708.61	310.23
708.94	309.30
709.28	308.33
709.61	307.40
709.94	306.45
710.28	305.44
710.61	304.50
710.95	303.47
711.28	302.56
711.61	301.64
711.95	300.73
712.28	299.81
712.61	298.84
712.95	297.91
713.28	297.03
713.61	296.13
713.95	295.30
714.28	294.46
714.61	293.60
714.95	292.75
715.28	291.95
715.61	291.10
715.95	290.22
716.28	289.38
716.61	288.52
716.95	287.75
717.28	287.01
717.61	286.25
717.94	285.52
718.28	284.76
718.61	284.07
718.94	283.40
719.27	282.74
719.61	282.11
719.94	281.46
720.27	280.76
720.60	280.13
720.94	279.49
721.27	278.88
721.60	278.33
721.93	277.78
722.27	277.22
722.60	276.65
722.93	276.11
723.26	275.57
723.59	275.00
723.93	274.44
724.26	273.90
724.59	273.36
724.92	272.82
725.25	272.29
725.59	271.75
725.92	271.23
726.25	270.71
726.58	270.19
726.91	269.68
727.24	269.19
727.57	268.72
727.91	268.23
728.24	267.80
728.57	267.27
728.90	266.77
729.23	266.26
729.56	265.85
729.89	265.35
730.22	264.92
730.55	264.49
730.89	264.07
731.22	263.63
731.55	263.21
731.88	262.83
732.21	262.38
732.54	261.96
732.87	261.52
733.20	261.10
733.53	260.72
733.86	260.40
734.19	260.04
734.52	259.65
734.85	259.33
735.18	258.92
735.51	258.59
735.84	258.24
736.17	257.91
736.50	257.48
736.83	257.26
737.16	256.88
737.49	256.54
737.82	256.14
738.15	255.84
738.48	255.51
738.81	255.15
739.14	254.84
739.47	254.51
739.80	254.20
740.13	253.91
740.46	253.58
740.79	253.22
741.12	252.89
741.45	252.61
741.78	252.28
742.11	251.98
742.44	251.64
742.77	251.37
743.10	251.04
743.43	250.77
743.75	250.41
744.08	250.27
744.41	250.02
744.74	249.78
745.07	249.48
745.40	249.23
745.73	249.01
746.06	248.70
746.39	248.48
746.71	248.23
747.04	247.98
747.37	247.72
747.70	247.50
748.03	247.28
748.36	247.04
748.68	246.83
749.01	246.60
749.34	246.42
749.67	246.20
750.00	246.01
750.33	245.82
750.65	245.64
750.98	245.30
751.31	245.07
751.64	244.87
751.97	244.68
752.29	244.46
752.62	244.25
752.95	244.09
753.28	243.87
753.60	243.69
753.93	243.51
754.26	243.32
754.59	243.09
754.91	242.86
755.24	242.69
755.57	242.48
755.90	242.29
756.22	242.09
756.55	241.87
756.88	241.67
757.20	241.46
757.53	241.21
757.86	241.08
758.19	240.94
758.51	240.78
758.84	240.63
759.17	240.47
759.49	240.30
759.82	240.18
760.15	240.03
760.47	239.84
760.80	239.64
761.13	239.50
761.45	239.33
761.78	239.15
762.11	238.97
762.43	238.83
762.76	238.68
763.08	238.53
763.41	238.41
763.74	238.30
764.06	238.14
764.39	238.01
764.71	237.85
765.04	237.70
765.37	237.53
765.69	237.36
766.02	237.23
766.34	237.07
766.67	236.91
767.00	236.81
767.32	236.73
767.65	236.74
767.97	236.62
768.30	236.51
768.62	236.41
768.95	236.28
769.27	236.16
769.60	236.07
769.92	235.95
770.25	235.82
770.57	235.71
770.90	235.61
771.22	235.53
771.55	235.40
771.87	235.29
772.20	235.23
772.52	235.21
772.85	235.20
773.17	235.10
773.50	234.98
773.82	234.84
774.15	234.71
774.47	234.51
774.80	234.43
775.12	234.36
775.45	234.28
775.77	234.21
776.09	234.09
776.42	233.99
776.74	233.94
777.07	233.85
777.39	233.78
777.72	233.71
778.04	233.64
778.36	233.57
778.69	233.52
779.01	233.43
779.33	233.29
779.66	233.11
779.98	233.03
780.31	232.98
780.63	232.97
780.95	232.92
781.28	232.87
781.60	232.76
781.92	232.69
782.25	232.60
782.57	232.52
782.89	232.50
783.22	232.45
783.54	232.39
783.86	232.38
784.19	232.30
784.51	232.26
784.83	232.19
785.16	232.16
785.48	232.07
785.80	232.03
786.12	232.00
786.45	231.94
786.77	231.95
787.09	231.87
