SpectraSuite Data File
++++++++++++++++++++++++++++++++++++
Date: Fri Feb 01 16:46:35 EST 2013
User: group
Dark Spectrum Present: No
Reference Spectrum Present: No
Number of Sampled Component Spectra: 1
Spectrometers: USB2E7196
Integration Time (usec): 35000 (USB2E7196)
Spectra Averaged: 100 (USB2E7196)
Boxcar Smoothing: 10 (USB2E7196)
Correct for Electrical Dark: No (USB2E7196)
Strobe/Lamp Enabled: No (USB2E7196)
Correct for Detector Non-linearity: No (USB2E7196)
Correct for Stray Light: No (USB2E7196)
Number of Pixels in Processed Spectrum: 2048
>>>>>Begin Processed Spectral Data<<<<<
339.09	0.00
339.48	213.60
339.86	214.86
340.24	216.81
340.63	217.89
341.01	220.41
341.39	219.73
341.78	221.49
342.16	222.87
342.54	223.58
342.93	211.74
343.31	222.46
343.69	222.99
344.07	223.45
344.46	223.83
344.84	224.16
345.22	224.38
345.60	224.67
345.99	224.84
346.37	224.97
346.75	225.05
347.13	225.11
347.52	225.17
347.90	225.24
348.28	225.26
348.66	225.33
349.05	225.30
349.43	225.37
349.81	225.40
350.19	225.39
350.57	225.45
350.96	225.53
351.34	225.58
351.72	225.66
352.10	225.74
352.48	225.84
352.87	225.90
353.25	225.98
353.63	226.02
354.01	226.11
354.39	226.18
354.77	226.21
355.15	226.33
355.54	226.37
355.92	226.38
356.30	226.45
356.68	226.55
357.06	226.63
357.44	226.64
357.82	226.71
358.20	226.83
358.58	226.89
358.97	226.91
359.35	226.99
359.73	227.02
360.11	227.08
360.49	227.12
360.87	227.18
361.25	227.24
361.63	227.32
362.01	227.34
362.39	227.36
362.77	227.44
363.15	227.46
363.53	227.52
363.91	227.57
364.29	227.59
364.67	227.54
365.05	227.56
365.43	227.62
365.81	227.65
366.19	227.69
366.57	227.73
366.95	227.76
367.33	227.73
367.71	227.76
368.09	227.79
368.47	227.76
368.85	227.75
369.23	227.76
369.61	227.69
369.99	227.72
370.37	227.72
370.75	227.74
371.13	227.70
371.51	227.66
371.89	227.63
372.27	227.61
372.65	227.55
373.03	227.52
373.41	227.49
373.78	227.44
374.16	227.34
374.54	227.24
374.92	227.17
375.30	227.12
375.68	227.06
376.06	227.01
376.44	226.92
376.82	226.87
377.19	226.80
377.57	226.73
377.95	226.65
378.33	226.57
378.71	226.47
379.09	226.42
379.47	226.31
379.84	226.23
380.22	226.20
380.60	226.12
380.98	226.01
381.36	225.95
381.73	225.87
382.11	225.83
382.49	225.82
382.87	225.76
383.25	225.74
383.62	225.77
384.00	225.69
384.38	225.70
384.76	225.67
385.13	225.67
385.51	225.65
385.89	225.61
386.27	225.59
386.64	225.54
387.02	225.49
387.40	225.51
387.78	225.45
388.15	225.39
388.53	225.37
388.91	225.35
389.29	225.28
389.66	225.26
390.04	225.19
390.42	225.19
390.79	225.16
391.17	225.13
391.55	225.00
391.92	224.98
392.30	224.97
392.68	224.94
393.05	224.92
393.43	224.90
393.81	224.88
394.18	224.82
394.56	224.83
394.94	224.88
395.31	224.87
395.69	224.96
396.06	225.00
396.44	225.03
396.82	225.07
397.19	225.16
397.57	225.17
397.95	225.23
398.32	225.23
398.70	225.30
399.07	225.39
399.45	225.46
399.82	225.52
400.20	225.54
400.58	225.60
400.95	225.61
401.33	225.71
401.70	225.84
402.08	225.96
402.45	226.07
402.83	226.15
403.20	226.20
403.58	226.27
403.95	226.39
404.33	226.52
404.71	226.61
405.08	226.78
405.46	226.90
405.83	227.07
406.21	227.20
406.58	227.31
406.96	227.42
407.33	227.57
407.70	227.72
408.08	228.00
408.45	228.20
408.83	228.43
409.20	228.62
409.58	228.81
409.95	229.06
410.33	229.28
410.70	229.51
411.08	229.85
411.45	230.15
411.82	230.42
412.20	230.77
412.57	231.21
412.95	231.52
413.32	231.90
413.69	232.30
414.07	232.78
414.44	233.27
414.82	233.79
415.19	234.38
415.56	234.95
415.94	235.51
416.31	236.18
416.68	236.85
417.06	237.58
417.43	238.27
417.81	239.03
418.18	239.85
418.55	240.68
418.93	241.52
419.30	242.40
419.67	243.33
420.04	244.24
420.42	245.19
420.79	246.34
421.16	247.53
421.54	248.74
421.91	249.90
422.28	251.15
422.66	252.41
423.03	253.66
423.40	254.95
423.77	256.35
424.15	257.76
424.52	259.21
424.89	260.80
425.26	262.35
425.64	263.82
426.01	265.38
426.38	267.04
426.75	268.73
427.13	270.47
427.50	272.28
427.87	274.23
428.24	276.11
428.61	277.88
428.99	279.82
429.36	281.86
429.73	283.92
430.10	285.94
430.47	288.03
430.85	290.17
431.22	292.41
431.59	294.76
431.96	296.96
432.33	299.45
432.70	301.82
433.08	304.57
433.45	307.16
433.82	309.75
434.19	312.61
434.56	315.36
434.93	317.96
435.30	320.60
435.68	323.44
436.05	326.22
436.42	328.94
436.79	331.38
437.16	334.09
437.53	336.87
437.90	339.66
438.27	342.38
438.64	345.20
439.01	347.82
439.38	350.04
439.75	352.18
440.13	354.59
440.50	356.86
440.87	358.74
441.24	360.64
441.61	362.76
441.98	364.22
442.35	366.03
442.72	367.89
443.09	369.65
443.46	370.64
443.83	371.22
444.20	371.72
444.57	372.59
444.94	372.83
445.31	373.17
445.68	373.49
446.05	373.57
446.42	373.17
446.79	372.69
447.16	372.21
447.53	371.92
447.90	370.83
448.27	369.69
448.64	368.14
449.01	367.06
449.37	365.13
449.74	363.24
450.11	361.06
450.48	358.62
450.85	356.10
451.22	353.95
451.59	351.95
451.96	350.06
452.33	347.50
452.70	345.17
453.07	342.39
453.43	339.57
453.80	336.82
454.17	334.16
454.54	331.71
454.91	329.03
455.28	326.36
455.65	323.87
456.02	321.43
456.38	319.26
456.75	316.59
457.12	314.35
457.49	312.18
457.86	310.00
458.23	308.13
458.59	306.12
458.96	304.07
459.33	302.26
459.70	300.37
460.07	298.88
460.43	297.17
460.80	295.56
461.17	294.14
461.54	292.63
461.91	291.23
462.27	289.75
462.64	288.53
463.01	287.21
463.38	285.93
463.74	284.60
464.11	283.46
464.48	282.47
464.85	281.37
465.21	280.53
465.58	279.61
465.95	278.56
466.32	277.67
466.68	276.76
467.05	275.90
467.42	275.06
467.78	274.16
468.15	273.30
468.52	272.67
468.88	271.79
469.25	271.07
469.62	270.47
469.98	269.84
470.35	269.23
470.72	268.62
471.08	268.00
471.45	267.50
471.82	266.97
472.18	266.39
472.55	266.00
472.92	265.51
473.28	265.11
473.65	264.70
474.02	264.29
474.38	264.00
474.75	263.67
475.11	263.35
475.48	263.10
475.85	262.92
476.21	262.71
476.58	262.54
476.94	262.42
477.31	262.23
477.67	262.08
478.04	261.99
478.41	261.91
478.77	261.94
479.14	261.86
479.50	261.83
479.87	261.89
480.23	261.95
480.60	262.00
480.96	262.05
481.33	262.26
481.69	262.44
482.06	262.60
482.42	262.82
482.79	263.07
483.15	263.37
483.52	263.75
483.88	264.11
484.25	264.51
484.61	264.95
484.98	265.40
485.34	265.98
485.71	266.55
486.07	267.21
486.44	267.79
486.80	268.49
487.17	269.27
487.53	270.11
487.90	270.96
488.26	271.91
488.62	272.93
488.99	273.85
489.35	274.90
489.72	276.02
490.08	277.21
490.44	278.44
490.81	279.79
491.17	281.10
491.54	282.58
491.90	284.10
492.26	285.71
492.63	287.46
492.99	289.22
493.36	291.10
493.72	293.14
494.08	295.23
494.45	297.51
494.81	299.86
495.17	302.25
495.54	304.82
495.90	307.45
496.26	310.22
496.63	313.19
496.99	316.35
497.35	319.62
497.72	323.02
498.08	326.50
498.44	330.18
498.80	334.13
499.17	338.18
499.53	342.32
499.89	346.72
500.26	351.20
500.62	355.87
500.98	360.86
501.34	365.91
501.71	371.25
502.07	376.68
502.43	382.28
502.79	388.10
503.16	394.15
503.52	400.49
503.88	406.92
504.24	413.52
504.60	420.41
504.97	427.57
505.33	434.84
505.69	442.56
506.05	450.37
506.41	458.23
506.78	466.36
507.14	474.84
507.50	483.53
507.86	492.57
508.22	501.74
508.59	510.92
508.95	520.47
509.31	530.17
509.67	540.19
510.03	550.53
510.39	561.01
510.75	571.79
511.12	582.59
511.48	593.82
511.84	605.24
512.20	616.64
512.56	628.45
512.92	640.61
513.28	652.96
513.64	665.36
514.00	677.98
514.37	690.82
514.73	703.80
515.09	716.76
515.45	729.95
515.81	743.41
516.17	757.37
516.53	771.44
516.89	785.62
517.25	799.74
517.61	814.04
517.97	828.48
518.33	842.76
518.69	857.49
519.05	872.32
519.41	887.41
519.77	902.89
520.13	918.20
520.49	933.46
520.85	948.65
521.21	964.25
521.57	980.34
521.93	996.01
522.29	1012.16
522.65	1028.27
523.01	1044.30
523.37	1060.27
523.73	1076.24
524.09	1092.07
524.45	1108.22
524.81	1124.69
525.17	1141.21
525.53	1157.94
525.89	1174.78
526.25	1191.52
526.61	1207.71
526.97	1224.19
527.33	1240.45
527.68	1256.91
528.04	1273.18
528.40	1289.56
528.76	1306.32
529.12	1322.73
529.48	1339.43
529.84	1355.25
530.20	1371.74
530.56	1388.52
530.91	1405.66
531.27	1422.20
531.63	1438.64
531.99	1455.00
532.35	1470.71
532.71	1486.54
533.07	1502.60
533.42	1518.32
533.78	1534.17
534.14	1550.33
534.50	1565.45
534.86	1581.01
535.21	1595.98
535.57	1611.69
535.93	1627.07
536.29	1641.72
536.65	1656.49
537.00	1670.93
537.36	1686.16
537.72	1700.46
538.08	1714.84
538.44	1728.56
538.79	1742.25
539.15	1755.57
539.51	1769.18
539.87	1783.45
540.22	1796.94
540.58	1810.45
540.94	1823.49
541.29	1836.08
541.65	1848.72
542.01	1861.87
542.37	1874.15
542.72	1886.55
543.08	1898.34
543.44	1910.56
543.79	1921.74
544.15	1932.64
544.51	1944.14
544.87	1954.89
545.22	1965.53
545.58	1975.51
545.94	1985.13
546.29	1994.91
546.65	2004.74
547.01	2014.05
547.36	2022.65
547.72	2031.07
548.07	2038.98
548.43	2047.00
548.79	2055.04
549.14	2062.44
549.50	2069.64
549.86	2077.25
550.21	2084.43
550.57	2091.42
550.92	2097.96
551.28	2104.85
551.64	2111.90
551.99	2118.40
552.35	2124.58
552.70	2130.81
553.06	2136.85
553.41	2143.20
553.77	2149.13
554.13	2155.12
554.48	2161.08
554.84	2166.61
555.19	2171.82
555.55	2177.02
555.90	2181.67
556.26	2186.46
556.61	2191.06
556.97	2195.52
557.32	2199.55
557.68	2203.69
558.03	2207.98
558.39	2211.52
558.74	2216.25
559.10	2220.16
559.45	2223.92
559.81	2228.24
560.16	2231.94
560.52	2235.18
560.87	2238.50
561.23	2241.29
561.58	2244.22
561.94	2246.77
562.29	2249.08
562.64	2251.86
563.00	2254.31
563.35	2257.89
563.71	2260.95
564.06	2264.17
564.42	2266.91
564.77	2269.52
565.12	2271.86
565.48	2273.99
565.83	2276.03
566.19	2277.35
566.54	2278.17
566.89	2279.30
567.25	2279.92
567.60	2281.31
567.96	2283.10
568.31	2283.99
568.66	2285.12
569.02	2285.82
569.37	2286.24
569.72	2287.20
570.08	2287.44
570.43	2287.49
570.78	2286.85
571.14	2285.48
571.49	2284.32
571.84	2284.07
572.20	2283.09
572.55	2282.22
572.90	2280.56
573.26	2279.46
573.61	2277.82
573.96	2276.26
574.31	2273.48
574.67	2270.61
575.02	2267.05
575.37	2263.64
575.72	2260.11
576.08	2256.81
576.43	2253.60
576.78	2250.01
577.13	2246.83
577.49	2243.74
577.84	2240.43
578.19	2236.79
578.54	2233.32
578.90	2229.19
579.25	2223.83
579.60	2219.02
579.95	2214.08
580.30	2209.21
580.66	2203.99
581.01	2199.08
581.36	2194.31
581.71	2190.28
582.06	2186.08
582.42	2181.85
582.77	2176.77
583.12	2172.15
583.47	2167.70
583.82	2162.80
584.17	2157.82
584.53	2152.48
584.88	2146.95
585.23	2141.37
585.58	2135.92
585.93	2130.57
586.28	2125.87
586.63	2121.00
586.98	2116.01
587.34	2111.32
587.69	2106.50
588.04	2101.46
588.39	2096.03
588.74	2089.77
589.09	2083.52
589.44	2076.71
589.79	2070.63
590.14	2065.14
590.49	2058.73
590.84	2052.19
591.19	2046.31
591.54	2039.90
591.89	2032.63
592.25	2026.12
592.60	2018.98
592.95	2011.63
593.30	2004.40
593.65	1996.93
594.00	1989.77
594.35	1982.54
594.70	1974.62
595.05	1967.65
595.40	1960.47
595.75	1952.95
596.10	1946.78
596.45	1940.40
596.80	1934.38
597.15	1927.89
597.50	1921.01
597.85	1914.63
598.19	1908.27
598.54	1901.23
598.89	1894.56
599.24	1888.75
599.59	1882.17
599.94	1875.90
600.29	1869.63
600.64	1863.02
600.99	1855.74
601.34	1849.06
601.69	1842.09
602.04	1835.37
602.39	1827.94
602.74	1820.98
603.08	1814.33
603.43	1807.67
603.78	1800.30
604.13	1793.19
604.48	1785.90
604.83	1779.01
605.18	1772.24
605.53	1764.30
605.87	1756.42
606.22	1749.17
606.57	1741.34
606.92	1733.87
607.27	1726.94
607.62	1720.12
607.96	1713.04
608.31	1706.54
608.66	1699.06
609.01	1691.75
609.36	1684.26
609.70	1676.42
610.05	1668.52
610.40	1661.01
610.75	1652.79
611.10	1645.22
611.44	1636.81
611.79	1628.97
612.14	1620.40
612.49	1611.14
612.83	1602.73
613.18	1594.60
613.53	1586.64
613.88	1578.08
614.22	1570.00
614.57	1561.48
614.92	1553.41
615.27	1545.89
615.61	1537.52
615.96	1529.45
616.31	1521.73
616.65	1514.38
617.00	1506.76
617.35	1499.22
617.70	1490.95
618.04	1482.48
618.39	1474.17
618.74	1466.56
619.08	1458.26
619.43	1450.58
619.78	1443.73
620.12	1436.60
620.47	1429.15
620.82	1420.90
621.16	1413.55
621.51	1405.83
621.85	1398.03
622.20	1389.50
622.55	1381.07
622.89	1373.21
623.24	1365.62
623.59	1358.11
623.93	1350.55
624.28	1343.40
624.62	1335.89
624.97	1328.66
625.32	1321.82
625.66	1314.88
626.01	1307.74
626.35	1300.32
626.70	1292.66
627.04	1284.92
627.39	1277.19
627.73	1269.81
628.08	1262.94
628.43	1255.74
628.77	1248.52
629.12	1241.05
629.46	1234.00
629.81	1226.61
630.15	1219.47
630.50	1212.14
630.84	1204.10
631.19	1196.17
631.53	1188.62
631.88	1181.07
632.22	1173.48
632.57	1166.11
632.91	1158.53
633.26	1151.12
633.60	1143.68
633.95	1136.45
634.29	1129.46
634.64	1122.78
634.98	1115.41
635.32	1108.24
635.67	1101.50
636.01	1094.76
636.36	1087.95
636.70	1081.36
637.05	1074.83
637.39	1068.26
637.73	1061.70
638.08	1055.80
638.42	1049.76
638.77	1043.32
639.11	1036.73
639.45	1030.30
639.80	1023.68
640.14	1017.34
640.49	1010.86
640.83	1004.57
641.17	998.47
641.52	992.08
641.86	985.54
642.20	979.69
642.55	973.36
642.89	966.98
643.23	960.57
643.58	954.87
643.92	948.76
644.26	942.75
644.61	936.74
644.95	930.79
645.29	924.34
645.64	917.66
645.98	911.33
646.32	905.34
646.66	899.34
647.01	893.57
647.35	887.89
647.69	881.95
648.04	876.49
648.38	870.73
648.72	864.83
649.06	858.83
649.41	852.95
649.75	847.02
650.09	841.13
650.43	835.29
650.78	829.11
651.12	823.16
651.46	817.45
651.80	811.80
652.14	806.41
652.49	801.09
652.83	796.03
653.17	790.39
653.51	784.76
653.85	779.34
654.20	773.66
654.54	767.63
654.88	761.82
655.22	755.94
655.56	750.19
655.90	744.73
656.25	739.53
656.59	734.16
656.93	729.08
657.27	723.88
657.61	718.39
657.95	713.31
658.29	708.19
658.64	702.90
658.98	697.53
659.32	692.04
659.66	686.67
660.00	681.30
660.34	676.41
660.68	671.49
661.02	666.52
661.36	661.86
661.70	657.39
662.05	653.12
662.39	648.84
662.73	644.38
663.07	639.99
663.41	635.54
663.75	631.08
664.09	626.55
664.43	622.15
664.77	618.12
665.11	613.88
665.45	609.70
665.79	605.61
666.13	601.52
666.47	597.42
666.81	593.37
667.15	589.21
667.49	585.24
667.83	581.38
668.17	577.37
668.51	573.31
668.85	569.31
669.19	565.47
669.53	561.65
669.87	557.81
670.21	554.12
670.55	550.45
670.89	546.95
671.23	543.52
671.57	539.94
671.91	536.34
672.25	532.78
672.58	529.25
672.92	525.82
673.26	522.59
673.60	519.44
673.94	516.30
674.28	513.38
674.62	510.46
674.96	507.35
675.30	504.47
675.64	501.59
675.97	498.75
676.31	495.87
676.65	492.89
676.99	490.16
677.33	487.25
677.67	484.41
678.01	481.38
678.34	478.44
678.68	475.62
679.02	472.86
679.36	470.13
679.70	467.41
680.04	464.66
680.37	461.84
680.71	458.99
681.05	456.37
681.39	453.65
681.73	450.98
682.06	448.53
682.40	445.95
682.74	443.39
683.08	440.78
683.42	438.18
683.75	435.68
684.09	433.08
684.43	430.66
684.77	428.24
685.10	425.93
685.44	423.57
685.78	421.26
686.12	418.96
686.45	416.64
686.79	414.36
687.13	412.17
687.46	410.05
687.80	407.92
688.14	405.72
688.48	403.67
688.81	401.47
689.15	399.28
689.49	397.12
689.82	395.03
690.16	392.93
690.50	390.99
690.83	389.03
691.17	387.06
691.51	385.15
691.84	383.30
692.18	381.37
692.52	379.45
692.85	377.55
693.19	375.69
693.52	373.85
693.86	372.03
694.20	370.26
694.53	368.38
694.87	366.59
695.21	364.76
695.54	362.93
695.88	361.15
696.21	359.41
696.55	357.71
696.88	355.99
697.22	354.34
697.56	352.71
697.89	351.07
698.23	349.47
698.56	347.86
698.90	346.25
699.23	344.64
699.57	343.07
699.90	341.53
700.24	339.95
700.58	338.45
700.91	336.97
701.25	335.50
701.58	334.17
701.92	332.77
702.25	331.42
702.59	330.07
702.92	328.78
703.26	327.46
703.59	326.24
703.93	325.11
704.26	323.93
704.60	322.66
704.93	321.38
705.26	320.15
705.60	318.95
705.93	317.80
706.27	316.74
706.60	315.66
706.94	314.57
707.27	313.46
707.61	312.39
707.94	311.39
708.27	310.31
708.61	309.20
708.94	308.21
709.28	307.21
709.61	306.26
709.94	305.32
710.28	304.32
710.61	303.32
710.95	302.24
711.28	301.31
711.61	300.38
711.95	299.50
712.28	298.58
712.61	297.64
712.95	296.72
713.28	295.83
713.61	294.96
713.95	294.06
714.28	293.20
714.61	292.38
714.95	291.48
715.28	290.66
715.61	289.78
715.95	288.92
716.28	288.07
716.61	287.23
716.95	286.37
717.28	285.62
717.61	284.88
717.94	284.11
718.28	283.30
718.61	282.53
718.94	281.80
719.27	281.13
719.61	280.45
719.94	279.76
720.27	279.04
720.60	278.37
720.94	277.75
721.27	277.19
721.60	276.58
721.93	275.98
722.27	275.44
722.60	274.90
722.93	274.32
723.26	273.82
723.59	273.23
723.93	272.64
724.26	272.08
724.59	271.51
724.92	271.00
725.25	270.54
725.59	270.05
725.92	269.53
726.25	269.00
726.58	268.52
726.91	268.04
727.24	267.58
727.57	267.06
727.91	266.58
728.24	266.11
728.57	265.60
728.90	265.15
729.23	264.65
729.56	264.20
729.89	263.77
730.22	263.23
730.55	262.77
730.89	262.36
731.22	261.93
731.55	261.48
731.88	261.06
732.21	260.61
732.54	260.18
732.87	259.77
733.20	259.39
733.53	259.00
733.86	258.64
734.19	258.25
734.52	257.91
734.85	257.59
735.18	257.18
735.51	256.84
735.84	256.49
736.17	256.12
736.50	255.74
736.83	255.51
737.16	255.23
737.49	254.93
737.82	254.60
738.15	254.26
738.48	253.92
738.81	253.59
739.14	253.26
739.47	252.94
739.80	252.65
740.13	252.33
740.46	251.99
740.79	251.66
741.12	251.35
741.45	251.03
741.78	250.70
742.11	250.41
742.44	250.07
742.77	249.80
743.10	249.51
743.43	249.19
743.75	248.76
744.08	248.58
744.41	248.31
744.74	248.02
745.07	247.76
745.40	247.54
745.73	247.32
746.06	247.04
746.39	246.81
746.71	246.51
747.04	246.26
747.37	246.02
747.70	245.81
748.03	245.56
748.36	245.34
748.68	245.08
749.01	244.83
749.34	244.62
749.67	244.39
750.00	244.17
750.33	243.99
750.65	243.79
750.98	243.43
751.31	243.23
751.64	243.03
751.97	242.87
752.29	242.63
752.62	242.37
752.95	242.16
753.28	241.94
753.60	241.79
753.93	241.60
754.26	241.41
754.59	241.17
754.91	240.95
755.24	240.76
755.57	240.58
755.90	240.42
756.22	240.20
756.55	239.98
756.88	239.77
757.20	239.57
757.53	239.36
757.86	239.23
758.19	239.04
758.51	238.87
758.84	238.66
759.17	238.48
759.49	238.31
759.82	238.20
760.15	238.03
760.47	237.84
760.80	237.64
761.13	237.49
761.45	237.34
761.78	237.23
762.11	237.06
762.43	236.89
762.76	236.74
763.08	236.62
763.41	236.46
763.74	236.35
764.06	236.19
764.39	236.07
764.71	235.93
765.04	235.78
765.37	235.63
765.69	235.48
766.02	235.36
766.34	235.20
766.67	235.02
767.00	234.93
767.32	234.88
767.65	234.83
767.97	234.68
768.30	234.54
768.62	234.39
768.95	234.24
769.27	234.14
769.60	234.02
769.92	233.92
770.25	233.85
770.57	233.69
770.90	233.62
771.22	233.48
771.55	233.35
771.87	233.26
772.20	233.15
772.52	233.16
772.85	233.15
773.17	233.09
773.50	233.00
773.82	232.89
774.15	232.76
774.47	232.62
774.80	232.55
775.12	232.48
775.45	232.40
775.77	232.35
776.09	232.25
776.42	232.19
776.74	232.12
777.07	232.04
777.39	232.00
777.72	231.88
778.04	231.87
778.36	231.81
778.69	231.75
779.01	231.73
779.33	231.56
779.66	231.39
779.98	231.32
780.31	231.29
780.63	231.30
780.95	231.25
781.28	231.17
781.60	231.12
781.92	231.06
782.25	230.99
782.57	230.91
782.89	230.87
783.22	230.80
783.54	230.74
783.86	230.69
784.19	230.65
784.51	230.63
784.83	230.56
785.16	230.51
785.48	230.43
785.80	230.41
786.12	230.41
786.45	230.37
786.77	230.35
787.09	230.31
