SpectraSuite Data File
++++++++++++++++++++++++++++++++++++
Date: Fri Feb 01 15:00:40 EST 2013
User: group
Dark Spectrum Present: No
Reference Spectrum Present: No
Number of Sampled Component Spectra: 1
Spectrometers: USB2E7196
Integration Time (usec): 35000 (USB2E7196)
Spectra Averaged: 100 (USB2E7196)
Boxcar Smoothing: 10 (USB2E7196)
Correct for Electrical Dark: No (USB2E7196)
Strobe/Lamp Enabled: No (USB2E7196)
Correct for Detector Non-linearity: No (USB2E7196)
Correct for Stray Light: No (USB2E7196)
Number of Pixels in Processed Spectrum: 2048
>>>>>Begin Processed Spectral Data<<<<<
339.09	0.00
339.48	215.36
339.86	216.56
340.24	217.64
340.63	219.20
341.01	222.72
341.39	221.91
341.78	224.27
342.16	224.91
342.54	225.26
342.93	213.62
343.31	224.37
343.69	224.93
344.07	225.39
344.46	225.85
344.84	226.23
345.22	226.44
345.60	226.70
345.99	226.85
346.37	226.97
346.75	227.07
347.13	227.09
347.52	227.13
347.90	227.21
348.28	227.24
348.66	227.31
349.05	227.28
349.43	227.30
349.81	227.35
350.19	227.38
350.57	227.44
350.96	227.55
351.34	227.69
351.72	227.76
352.10	227.86
352.48	227.93
352.87	228.02
353.25	228.09
353.63	228.16
354.01	228.20
354.39	228.29
354.77	228.39
355.15	228.52
355.54	228.57
355.92	228.59
356.30	228.64
356.68	228.74
357.06	228.84
357.44	228.90
357.82	228.96
358.20	229.02
358.58	229.06
358.97	229.08
359.35	229.13
359.73	229.21
360.11	229.24
360.49	229.29
360.87	229.29
361.25	229.35
361.63	229.43
362.01	229.50
362.39	229.54
362.77	229.55
363.15	229.56
363.53	229.61
363.91	229.64
364.29	229.68
364.67	229.62
365.05	229.60
365.43	229.63
365.81	229.64
366.19	229.67
366.57	229.68
366.95	229.68
367.33	229.64
367.71	229.60
368.09	229.62
368.47	229.56
368.85	229.54
369.23	229.50
369.61	229.39
369.99	229.36
370.37	229.30
370.75	229.30
371.13	229.24
371.51	229.16
371.89	229.12
372.27	229.02
372.65	228.97
373.03	228.89
373.41	228.83
373.78	228.75
374.16	228.67
374.54	228.59
374.92	228.50
375.30	228.41
375.68	228.32
376.06	228.24
376.44	228.18
376.82	228.09
377.19	228.02
377.57	228.00
377.95	227.94
378.33	227.85
378.71	227.68
379.09	227.62
379.47	227.58
379.84	227.47
380.22	227.45
380.60	227.34
380.98	227.28
381.36	227.20
381.73	227.11
382.11	227.05
382.49	226.99
382.87	226.93
383.25	226.88
383.62	226.94
384.00	226.84
384.38	226.79
384.76	226.76
385.13	226.72
385.51	226.64
385.89	226.54
386.27	226.53
386.64	226.52
387.02	226.48
387.40	226.44
387.78	226.39
388.15	226.32
388.53	226.32
388.91	226.30
389.29	226.28
389.66	226.26
390.04	226.21
390.42	226.19
390.79	226.18
391.17	226.16
391.55	226.04
391.92	226.07
392.30	226.07
392.68	226.09
393.05	226.10
393.43	226.11
393.81	226.10
394.18	226.07
394.56	226.10
394.94	226.15
395.31	226.15
395.69	226.25
396.06	226.31
396.44	226.37
396.82	226.42
397.19	226.52
397.57	226.56
397.95	226.66
398.32	226.70
398.70	226.79
399.07	226.88
399.45	226.96
399.82	227.04
400.20	227.13
400.58	227.21
400.95	227.25
401.33	227.38
401.70	227.60
402.08	227.72
402.45	227.85
402.83	227.94
403.20	228.11
403.58	228.20
403.95	228.35
404.33	228.46
404.71	228.59
405.08	228.78
405.46	228.93
405.83	229.06
406.21	229.22
406.58	229.41
406.96	229.59
407.33	229.79
407.70	229.96
408.08	230.22
408.45	230.44
408.83	230.70
409.20	230.92
409.58	231.11
409.95	231.38
410.33	231.66
410.70	231.94
411.08	232.22
411.45	232.54
411.82	232.85
412.20	233.18
412.57	233.63
412.95	233.94
413.32	234.35
413.69	234.80
414.07	235.25
414.44	235.69
414.82	236.18
415.19	236.72
415.56	237.28
415.94	237.80
416.31	238.45
416.68	239.07
417.06	239.81
417.43	240.46
417.81	241.19
418.18	241.93
418.55	242.78
418.93	243.65
419.30	244.50
419.67	245.44
420.04	246.39
420.42	247.35
420.79	248.51
421.16	249.66
421.54	250.85
421.91	252.05
422.28	253.37
422.66	254.70
423.03	255.99
423.40	257.35
423.77	258.79
424.15	260.22
424.52	261.70
424.89	263.32
425.26	264.91
425.64	266.38
426.01	267.99
426.38	269.65
426.75	271.34
427.13	273.10
427.50	274.89
427.87	276.76
428.24	278.63
428.61	280.40
428.99	282.36
429.36	284.43
429.73	286.46
430.10	288.44
430.47	290.48
430.85	292.60
431.22	294.81
431.59	297.18
431.96	299.37
432.33	301.85
432.70	304.20
433.08	306.98
433.45	309.62
433.82	312.25
434.19	315.13
434.56	317.94
434.93	320.60
435.30	323.26
435.68	326.18
436.05	329.05
436.42	331.87
436.79	334.38
437.16	337.11
437.53	339.99
437.90	342.81
438.27	345.56
438.64	348.40
439.01	351.06
439.38	353.31
439.75	355.54
440.13	358.10
440.50	360.45
440.87	362.32
441.24	364.28
441.61	366.41
441.98	367.93
442.35	369.77
442.72	371.62
443.09	373.41
443.46	374.39
443.83	374.98
444.20	375.46
444.57	376.34
444.94	376.63
445.31	377.00
445.68	377.37
446.05	377.47
446.42	377.10
446.79	376.66
447.16	376.21
447.53	375.86
447.90	374.64
448.27	373.50
448.64	371.94
449.01	370.78
449.37	368.79
449.74	366.91
450.11	364.64
450.48	362.18
450.85	359.65
451.22	357.52
451.59	355.47
451.96	353.49
452.33	350.85
452.70	348.43
453.07	345.56
453.43	342.67
453.80	339.92
454.17	337.27
454.54	334.71
454.91	331.97
455.28	329.29
455.65	326.82
456.02	324.31
456.38	322.11
456.75	319.43
457.12	317.18
457.49	314.86
457.86	312.67
458.23	310.80
458.59	308.75
458.96	306.66
459.33	304.78
459.70	302.95
460.07	301.45
460.43	299.76
460.80	298.16
461.17	296.67
461.54	295.15
461.91	293.68
462.27	292.23
462.64	291.01
463.01	289.65
463.38	288.34
463.74	287.00
464.11	285.81
464.48	284.78
464.85	283.65
465.21	282.80
465.58	281.89
465.95	280.75
466.32	279.80
466.68	278.92
467.05	278.03
467.42	277.12
467.78	276.13
468.15	275.24
468.52	274.54
468.88	273.71
469.25	272.93
469.62	272.28
469.98	271.54
470.35	270.86
470.72	270.24
471.08	269.60
471.45	269.03
471.82	268.51
472.18	267.88
472.55	267.41
472.92	266.87
473.28	266.41
473.65	265.98
474.02	265.57
474.38	265.14
474.75	264.81
475.11	264.45
475.48	264.20
475.85	263.99
476.21	263.73
476.58	263.50
476.94	263.33
477.31	263.19
477.67	263.07
478.04	262.98
478.41	262.89
478.77	262.91
479.14	262.84
479.50	262.87
479.87	262.98
480.23	263.09
480.60	263.16
480.96	263.24
481.33	263.46
481.69	263.61
482.06	263.84
482.42	264.06
482.79	264.31
483.15	264.61
483.52	264.98
483.88	265.34
484.25	265.74
484.61	266.18
484.98	266.58
485.34	267.17
485.71	267.75
486.07	268.35
486.44	268.91
486.80	269.60
487.17	270.32
487.53	271.11
487.90	271.93
488.26	272.87
488.62	273.86
488.99	274.80
489.35	275.87
489.72	276.95
490.08	278.11
490.44	279.38
490.81	280.71
491.17	282.07
491.54	283.52
491.90	285.07
492.26	286.71
492.63	288.46
492.99	290.21
493.36	292.09
493.72	294.13
494.08	296.23
494.45	298.49
494.81	300.82
495.17	303.24
495.54	305.83
495.90	308.52
496.26	311.28
496.63	314.24
496.99	317.32
497.35	320.57
497.72	323.97
498.08	327.45
498.44	331.09
498.80	334.99
499.17	338.97
499.53	343.09
499.89	347.46
500.26	351.95
500.62	356.60
500.98	361.54
501.34	366.58
501.71	371.89
502.07	377.27
502.43	382.83
502.79	388.58
503.16	394.60
503.52	400.84
503.88	407.18
504.24	413.73
504.60	420.60
504.97	427.68
505.33	434.95
505.69	442.61
506.05	450.34
506.41	458.22
506.78	466.41
507.14	474.87
507.50	483.50
507.86	492.51
508.22	501.72
508.59	510.90
508.95	520.42
509.31	530.20
509.67	540.28
510.03	550.57
510.39	561.17
510.75	571.96
511.12	582.85
511.48	594.12
511.84	605.57
512.20	617.08
512.56	629.03
512.92	641.21
513.28	653.51
513.64	666.00
514.00	678.68
514.37	691.60
514.73	704.65
515.09	717.68
515.45	730.94
515.81	744.44
516.17	758.46
516.53	772.61
516.89	786.80
517.25	801.00
517.61	815.48
517.97	829.94
518.33	844.38
518.69	859.13
519.05	874.25
519.41	889.44
519.77	904.91
520.13	920.50
520.49	935.95
520.85	951.43
521.21	967.19
521.57	983.51
521.93	999.31
522.29	1015.80
522.65	1032.24
523.01	1048.53
523.37	1064.70
523.73	1080.91
524.09	1097.18
524.45	1113.53
524.81	1130.41
525.17	1147.32
525.53	1164.33
525.89	1181.23
526.25	1198.22
526.61	1214.68
526.97	1231.54
527.33	1248.21
527.68	1264.88
528.04	1281.47
528.40	1298.21
528.76	1315.35
529.12	1331.94
529.48	1348.98
529.84	1365.03
530.20	1381.65
530.56	1398.78
530.91	1416.24
531.27	1433.08
531.63	1449.65
531.99	1466.43
532.35	1482.31
532.71	1498.26
533.07	1514.55
533.42	1530.58
533.78	1546.69
534.14	1562.91
534.50	1578.30
534.86	1594.31
535.21	1609.37
535.57	1625.47
535.93	1641.06
536.29	1655.94
536.65	1671.22
537.00	1686.04
537.36	1701.52
537.72	1716.13
538.08	1730.69
538.44	1744.63
538.79	1758.64
539.15	1772.42
539.51	1786.27
539.87	1800.75
540.22	1814.61
540.58	1828.62
540.94	1842.20
541.29	1855.32
541.65	1868.26
542.01	1881.63
542.37	1893.88
542.72	1906.61
543.08	1918.25
543.44	1930.61
543.79	1941.85
544.15	1952.81
544.51	1964.36
544.87	1975.32
545.22	1986.24
545.58	1996.33
545.94	2006.09
546.29	2016.00
546.65	2025.73
547.01	2034.92
547.36	2043.63
547.72	2052.07
548.07	2059.86
548.43	2067.91
548.79	2075.87
549.14	2083.29
549.50	2090.70
549.86	2098.52
550.21	2105.82
550.57	2113.12
550.92	2119.73
551.28	2126.92
551.64	2133.96
551.99	2140.60
552.35	2146.73
552.70	2152.85
553.06	2158.92
553.41	2165.16
553.77	2171.13
554.13	2177.18
554.48	2183.26
554.84	2188.61
555.19	2194.00
555.55	2199.16
555.90	2203.49
556.26	2208.36
556.61	2213.26
556.97	2217.28
557.32	2221.38
557.68	2225.40
558.03	2229.61
558.39	2233.36
558.74	2237.92
559.10	2241.73
559.45	2245.27
559.81	2249.59
560.16	2253.21
560.52	2256.39
560.87	2259.91
561.23	2262.54
561.58	2265.50
561.94	2268.00
562.29	2270.36
562.64	2272.95
563.00	2275.49
563.35	2279.16
563.71	2282.11
564.06	2284.97
564.42	2287.88
564.77	2290.30
565.12	2292.53
565.48	2294.21
565.83	2295.96
566.19	2297.14
566.54	2298.14
566.89	2299.19
567.25	2299.64
567.60	2301.00
567.96	2302.43
568.31	2303.14
568.66	2304.05
569.02	2304.50
569.37	2304.62
569.72	2305.37
570.08	2305.34
570.43	2305.17
570.78	2304.24
571.14	2302.71
571.49	2301.37
571.84	2300.92
572.20	2299.51
572.55	2298.32
572.90	2296.85
573.26	2295.36
573.61	2293.49
573.96	2291.40
574.31	2288.23
574.67	2284.99
575.02	2281.23
575.37	2277.77
575.72	2273.79
576.08	2270.32
576.43	2266.89
576.78	2263.06
577.13	2259.84
577.49	2256.63
577.84	2253.04
578.19	2249.35
578.54	2245.32
578.90	2240.92
579.25	2235.17
579.60	2230.13
579.95	2224.96
580.30	2219.68
580.66	2214.35
581.01	2209.40
581.36	2204.43
581.71	2200.14
582.06	2195.59
582.42	2190.91
582.77	2185.48
583.12	2180.84
583.47	2175.99
583.82	2170.84
584.17	2165.58
584.53	2159.93
584.88	2154.12
585.23	2148.21
585.58	2142.46
585.93	2137.06
586.28	2132.26
586.63	2127.03
586.98	2121.84
587.34	2116.93
587.69	2111.99
588.04	2106.54
588.39	2100.52
588.74	2093.90
589.09	2087.72
589.44	2080.75
589.79	2074.76
590.14	2069.10
590.49	2062.23
590.84	2055.76
591.19	2049.57
591.54	2042.90
591.89	2035.20
592.25	2028.21
592.60	2020.88
592.95	2013.27
593.30	2005.67
593.65	1997.88
594.00	1990.83
594.35	1983.53
594.70	1975.47
595.05	1968.08
595.40	1960.71
595.75	1953.23
596.10	1946.80
596.45	1939.81
596.80	1933.58
597.15	1926.66
597.50	1919.53
597.85	1913.28
598.19	1906.55
598.54	1899.44
598.89	1892.83
599.24	1886.88
599.59	1880.16
599.94	1873.92
600.29	1867.57
600.64	1861.00
600.99	1853.44
601.34	1846.47
601.69	1839.37
602.04	1832.38
602.39	1824.96
602.74	1818.10
603.08	1811.32
603.43	1804.54
603.78	1797.34
604.13	1790.16
604.48	1782.89
604.83	1775.98
605.18	1768.72
605.53	1760.61
605.87	1752.56
606.22	1745.21
606.57	1737.42
606.92	1730.16
607.27	1722.81
607.62	1715.80
607.96	1708.52
608.31	1701.89
608.66	1694.22
609.01	1686.64
609.36	1679.05
609.70	1671.09
610.05	1663.08
610.40	1655.37
610.75	1647.19
611.10	1639.55
611.44	1631.10
611.79	1623.12
612.14	1614.41
612.49	1605.41
612.83	1597.21
613.18	1589.14
613.53	1581.16
613.88	1572.54
614.22	1564.30
614.57	1555.78
614.92	1547.78
615.27	1540.27
615.61	1532.10
615.96	1524.24
616.31	1516.66
616.65	1509.42
617.00	1501.97
617.35	1494.25
617.70	1485.95
618.04	1477.32
618.39	1469.09
618.74	1461.60
619.08	1453.33
619.43	1445.80
619.78	1438.94
620.12	1431.64
620.47	1424.09
620.82	1415.99
621.16	1408.75
621.51	1401.19
621.85	1393.63
622.20	1385.18
622.55	1376.82
622.89	1368.99
623.24	1361.40
623.59	1354.13
623.93	1346.68
624.28	1339.38
624.62	1331.99
624.97	1324.94
625.32	1318.46
625.66	1311.51
626.01	1304.33
626.35	1296.95
626.70	1289.23
627.04	1281.39
627.39	1273.80
627.73	1266.46
628.08	1259.51
628.43	1252.10
628.77	1244.74
629.12	1237.18
629.46	1230.02
629.81	1222.73
630.15	1215.52
630.50	1208.10
630.84	1199.91
631.19	1192.04
631.53	1184.63
631.88	1177.02
632.22	1169.40
632.57	1162.02
632.91	1154.46
633.26	1147.07
633.60	1139.84
633.95	1132.87
634.29	1125.97
634.64	1119.28
634.98	1111.91
635.32	1104.78
635.67	1098.32
636.01	1091.79
636.36	1085.07
636.70	1078.54
637.05	1071.96
637.39	1065.63
637.73	1059.22
638.08	1053.32
638.42	1047.30
638.77	1040.85
639.11	1034.31
639.45	1027.98
639.80	1021.39
640.14	1014.95
640.49	1008.42
640.83	1002.08
641.17	995.84
641.52	989.53
641.86	983.23
642.20	977.52
642.55	971.36
642.89	964.85
643.23	958.24
643.58	952.52
643.92	946.36
644.26	940.31
644.61	934.29
644.95	928.21
645.29	921.73
645.64	915.01
645.98	908.76
646.32	902.97
646.66	896.93
647.01	891.11
647.35	885.46
647.69	879.68
648.04	874.25
648.38	868.48
648.72	862.50
649.06	856.38
649.41	850.42
649.75	844.34
650.09	838.39
650.43	832.59
650.78	826.40
651.12	820.53
651.46	814.87
651.80	809.09
652.14	803.79
652.49	798.43
652.83	793.29
653.17	787.59
653.51	781.88
653.85	776.52
654.20	770.85
654.54	764.89
654.88	759.21
655.22	753.25
655.56	747.59
655.90	742.14
656.25	736.87
656.59	731.59
656.93	726.60
657.27	721.51
657.61	716.19
657.95	711.12
658.29	706.04
658.64	700.78
658.98	695.48
659.32	690.05
659.66	684.90
660.00	679.57
660.34	674.65
660.68	669.78
661.02	664.79
661.36	660.15
661.70	655.69
662.05	651.31
662.39	647.01
662.73	642.60
663.07	638.35
663.41	633.96
663.75	629.48
664.09	624.98
664.43	620.66
664.77	616.46
665.11	612.24
665.45	608.19
665.79	604.14
666.13	600.12
666.47	596.08
666.81	591.88
667.15	587.84
667.49	583.99
667.83	580.27
668.17	576.39
668.51	572.31
668.85	568.37
669.19	564.60
669.53	560.76
669.87	556.89
670.21	553.19
670.55	549.63
670.89	546.23
671.23	542.83
671.57	539.30
671.91	535.84
672.25	532.40
672.58	528.92
672.92	525.62
673.26	522.45
673.60	519.36
673.94	516.29
674.28	513.41
674.62	510.51
674.96	507.37
675.30	504.49
675.64	501.69
675.97	498.94
676.31	496.11
676.65	493.22
676.99	490.53
677.33	487.69
677.67	484.85
678.01	481.79
678.34	478.83
678.68	475.95
679.02	473.18
679.36	470.46
679.70	467.77
680.04	465.01
680.37	462.13
680.71	459.32
681.05	456.79
681.39	454.09
681.73	451.41
682.06	448.92
682.40	446.39
682.74	443.80
683.08	441.25
683.42	438.69
683.75	436.28
684.09	433.74
684.43	431.27
684.77	428.84
685.10	426.54
685.44	424.23
685.78	421.99
686.12	419.75
686.45	417.43
686.79	415.14
687.13	412.97
687.46	410.81
687.80	408.66
688.14	406.40
688.48	404.37
688.81	402.15
689.15	399.99
689.49	397.87
689.82	395.87
690.16	393.84
690.50	391.87
690.83	389.88
691.17	387.92
691.51	385.99
691.84	384.14
692.18	382.21
692.52	380.25
692.85	378.38
693.19	376.50
693.52	374.74
693.86	372.93
694.20	371.11
694.53	369.39
694.87	367.55
695.21	365.79
695.54	363.94
695.88	362.26
696.21	360.52
696.55	358.79
696.88	357.08
697.22	355.40
697.56	353.79
697.89	352.18
698.23	350.60
698.56	349.06
698.90	347.50
699.23	345.85
699.57	344.33
699.90	342.80
700.24	341.29
700.58	339.74
700.91	338.20
701.25	336.77
701.58	335.35
701.92	334.01
702.25	332.63
702.59	331.26
702.92	329.93
703.26	328.68
703.59	327.40
703.93	326.25
704.26	325.01
704.60	323.71
704.93	322.43
705.26	321.20
705.60	320.03
705.93	318.88
706.27	317.86
706.60	316.81
706.94	315.72
707.27	314.59
707.61	313.59
707.94	312.60
708.27	311.52
708.61	310.46
708.94	309.42
709.28	308.46
709.61	307.52
709.94	306.56
710.28	305.55
710.61	304.59
710.95	303.50
711.28	302.60
711.61	301.69
711.95	300.81
712.28	299.81
712.61	298.85
712.95	297.91
713.28	297.07
713.61	296.16
713.95	295.28
714.28	294.45
714.61	293.55
714.95	292.74
715.28	291.89
715.61	291.02
715.95	290.22
716.28	289.37
716.61	288.58
716.95	287.81
717.28	287.06
717.61	286.29
717.94	285.56
718.28	284.77
718.61	284.05
718.94	283.37
719.27	282.77
719.61	282.14
719.94	281.47
720.27	280.71
720.60	280.06
720.94	279.44
721.27	278.86
721.60	278.28
721.93	277.65
722.27	277.12
722.60	276.59
722.93	275.99
723.26	275.46
723.59	274.88
723.93	274.32
724.26	273.78
724.59	273.23
724.92	272.69
725.25	272.18
725.59	271.66
725.92	271.15
726.25	270.63
726.58	270.13
726.91	269.62
727.24	269.17
727.57	268.72
727.91	268.23
728.24	267.76
728.57	267.26
728.90	266.86
729.23	266.38
729.56	265.95
729.89	265.49
730.22	265.03
730.55	264.58
730.89	264.13
731.22	263.69
731.55	263.26
731.88	262.85
732.21	262.46
732.54	261.99
732.87	261.57
733.20	261.16
733.53	260.75
733.86	260.40
734.19	260.02
734.52	259.61
734.85	259.29
735.18	258.86
735.51	258.52
735.84	258.10
736.17	257.78
736.50	257.38
736.83	257.18
737.16	256.85
737.49	256.52
737.82	256.19
738.15	255.86
738.48	255.49
738.81	255.20
739.14	254.85
739.47	254.56
739.80	254.25
740.13	253.96
740.46	253.63
740.79	253.31
741.12	253.00
741.45	252.71
741.78	252.31
742.11	252.02
742.44	251.70
742.77	251.39
743.10	251.05
743.43	250.74
743.75	250.35
744.08	250.20
744.41	249.93
744.74	249.64
745.07	249.38
745.40	249.22
745.73	248.95
746.06	248.69
746.39	248.43
746.71	248.19
747.04	247.94
747.37	247.70
747.70	247.44
748.03	247.18
748.36	246.97
748.68	246.76
749.01	246.53
749.34	246.35
749.67	246.13
750.00	245.92
750.33	245.78
750.65	245.56
750.98	245.21
751.31	244.97
751.64	244.78
751.97	244.61
752.29	244.34
752.62	244.08
752.95	243.89
753.28	243.69
753.60	243.46
753.93	243.28
754.26	243.12
754.59	242.93
754.91	242.73
755.24	242.52
755.57	242.34
755.90	242.15
756.22	241.93
756.55	241.76
756.88	241.56
757.20	241.33
757.53	241.16
757.86	241.00
758.19	240.86
758.51	240.69
758.84	240.48
759.17	240.35
759.49	240.24
759.82	240.11
760.15	239.95
760.47	239.81
760.80	239.64
761.13	239.52
761.45	239.37
761.78	239.23
762.11	239.09
762.43	238.97
762.76	238.84
763.08	238.71
763.41	238.55
763.74	238.41
764.06	238.28
764.39	238.10
764.71	237.98
765.04	237.83
765.37	237.67
765.69	237.53
766.02	237.40
766.34	237.23
766.67	237.07
767.00	236.94
767.32	236.85
767.65	236.77
767.97	236.61
768.30	236.48
768.62	236.35
768.95	236.25
769.27	236.10
769.60	235.99
769.92	235.88
770.25	235.78
770.57	235.66
770.90	235.55
771.22	235.45
771.55	235.34
771.87	235.24
772.20	235.15
772.52	235.14
772.85	235.13
773.17	235.04
773.50	234.97
773.82	234.87
774.15	234.73
774.47	234.60
774.80	234.53
775.12	234.45
775.45	234.39
775.77	234.30
776.09	234.22
776.42	234.16
776.74	234.10
777.07	234.02
777.39	233.96
777.72	233.86
778.04	233.81
778.36	233.73
778.69	233.68
779.01	233.63
779.33	233.48
779.66	233.32
779.98	233.28
780.31	233.21
780.63	233.19
780.95	233.15
781.28	233.07
781.60	232.98
781.92	232.89
782.25	232.83
782.57	232.78
782.89	232.73
783.22	232.64
783.54	232.53
783.86	232.47
784.19	232.43
784.51	232.40
784.83	232.36
785.16	232.30
785.48	232.22
785.80	232.15
786.12	232.13
786.45	232.08
786.77	232.03
787.09	231.98
