SpectraSuite Data File
++++++++++++++++++++++++++++++++++++
Date: Fri Feb 01 16:17:36 EST 2013
User: group
Dark Spectrum Present: No
Reference Spectrum Present: No
Number of Sampled Component Spectra: 1
Spectrometers: USB2E7196
Integration Time (usec): 35000 (USB2E7196)
Spectra Averaged: 100 (USB2E7196)
Boxcar Smoothing: 10 (USB2E7196)
Correct for Electrical Dark: No (USB2E7196)
Strobe/Lamp Enabled: No (USB2E7196)
Correct for Detector Non-linearity: No (USB2E7196)
Correct for Stray Light: No (USB2E7196)
Number of Pixels in Processed Spectrum: 2048
>>>>>Begin Processed Spectral Data<<<<<
339.09	0.00
339.48	214.40
339.86	215.76
340.24	217.19
340.63	218.50
341.01	221.23
341.39	220.99
341.78	222.29
342.16	223.69
342.54	223.64
342.93	212.57
343.31	223.29
343.69	223.81
344.07	224.27
344.46	224.66
344.84	225.00
345.22	225.25
345.60	225.51
345.99	225.70
346.37	225.82
346.75	225.95
347.13	226.03
347.52	226.06
347.90	226.11
348.28	226.11
348.66	226.15
349.05	226.13
349.43	226.16
349.81	226.19
350.19	226.25
350.57	226.30
350.96	226.34
351.34	226.43
351.72	226.54
352.10	226.65
352.48	226.73
352.87	226.80
353.25	226.85
353.63	226.89
354.01	226.97
354.39	227.05
354.77	227.11
355.15	227.23
355.54	227.33
355.92	227.40
356.30	227.47
356.68	227.60
357.06	227.70
357.44	227.77
357.82	227.85
358.20	227.94
358.58	228.02
358.97	228.09
359.35	228.19
359.73	228.25
360.11	228.32
360.49	228.43
360.87	228.48
361.25	228.54
361.63	228.61
362.01	228.67
362.39	228.71
362.77	228.79
363.15	228.78
363.53	228.77
363.91	228.76
364.29	228.84
364.67	228.76
365.05	228.73
365.43	228.75
365.81	228.79
366.19	228.81
366.57	228.85
366.95	228.88
367.33	228.84
367.71	228.85
368.09	228.81
368.47	228.76
368.85	228.72
369.23	228.70
369.61	228.66
369.99	228.66
370.37	228.64
370.75	228.62
371.13	228.54
371.51	228.48
371.89	228.48
372.27	228.40
372.65	228.38
373.03	228.34
373.41	228.28
373.78	228.17
374.16	228.07
374.54	227.93
374.92	227.82
375.30	227.78
375.68	227.65
376.06	227.60
376.44	227.49
376.82	227.43
377.19	227.37
377.57	227.28
377.95	227.14
378.33	227.05
378.71	226.94
379.09	226.90
379.47	226.84
379.84	226.75
380.22	226.68
380.60	226.58
380.98	226.53
381.36	226.46
381.73	226.42
382.11	226.38
382.49	226.33
382.87	226.27
383.25	226.19
383.62	226.27
384.00	226.18
384.38	226.17
384.76	226.12
385.13	226.12
385.51	226.08
385.89	226.03
386.27	225.97
386.64	225.92
387.02	225.85
387.40	225.84
387.78	225.83
388.15	225.81
388.53	225.77
388.91	225.71
389.29	225.62
389.66	225.61
390.04	225.57
390.42	225.57
390.79	225.55
391.17	225.53
391.55	225.38
391.92	225.40
392.30	225.40
392.68	225.41
393.05	225.35
393.43	225.36
393.81	225.35
394.18	225.36
394.56	225.39
394.94	225.41
395.31	225.41
395.69	225.44
396.06	225.47
396.44	225.50
396.82	225.53
397.19	225.66
397.57	225.69
397.95	225.72
398.32	225.74
398.70	225.80
399.07	225.86
399.45	225.96
399.82	226.02
400.20	226.07
400.58	226.16
400.95	226.22
401.33	226.32
401.70	226.48
402.08	226.58
402.45	226.65
402.83	226.83
403.20	226.97
403.58	227.07
403.95	227.22
404.33	227.34
404.71	227.50
405.08	227.68
405.46	227.80
405.83	227.95
406.21	228.11
406.58	228.28
406.96	228.48
407.33	228.62
407.70	228.82
408.08	229.09
408.45	229.32
408.83	229.56
409.20	229.80
409.58	229.98
409.95	230.24
410.33	230.53
410.70	230.75
411.08	231.01
411.45	231.27
411.82	231.55
412.20	231.91
412.57	232.32
412.95	232.60
413.32	232.99
413.69	233.41
414.07	233.83
414.44	234.28
414.82	234.72
415.19	235.28
415.56	235.86
415.94	236.37
416.31	236.98
416.68	237.56
417.06	238.26
417.43	238.95
417.81	239.71
418.18	240.49
418.55	241.29
418.93	242.18
419.30	243.10
419.67	244.01
420.04	244.97
420.42	245.96
420.79	247.17
421.16	248.36
421.54	249.53
421.91	250.74
422.28	252.00
422.66	253.35
423.03	254.65
423.40	255.92
423.77	257.33
424.15	258.75
424.52	260.28
424.89	261.90
425.26	263.43
425.64	264.86
426.01	266.44
426.38	268.08
426.75	269.75
427.13	271.48
427.50	273.28
427.87	275.13
428.24	276.94
428.61	278.64
428.99	280.58
429.36	282.67
429.73	284.77
430.10	286.77
430.47	288.81
430.85	290.89
431.22	293.15
431.59	295.52
431.96	297.79
432.33	300.26
432.70	302.63
433.08	305.46
433.45	308.07
433.82	310.68
434.19	313.62
434.56	316.38
434.93	319.02
435.30	321.67
435.68	324.59
436.05	327.45
436.42	330.25
436.79	332.75
437.16	335.45
437.53	338.24
437.90	341.07
438.27	343.80
438.64	346.62
439.01	349.23
439.38	351.46
439.75	353.58
440.13	356.08
440.50	358.38
440.87	360.19
441.24	362.14
441.61	364.34
441.98	365.78
442.35	367.58
442.72	369.41
443.09	371.15
443.46	372.14
443.83	372.71
444.20	373.19
444.57	374.03
444.94	374.32
445.31	374.70
445.68	375.09
446.05	375.19
446.42	374.80
446.79	374.37
447.16	373.92
447.53	373.64
447.90	372.45
448.27	371.29
448.64	369.72
449.01	368.63
449.37	366.65
449.74	364.73
450.11	362.53
450.48	360.12
450.85	357.63
451.22	355.48
451.59	353.46
451.96	351.56
452.33	348.91
452.70	346.57
453.07	343.70
453.43	340.76
453.80	338.04
454.17	335.37
454.54	332.84
454.91	330.12
455.28	327.43
455.65	324.95
456.02	322.46
456.38	320.35
456.75	317.63
457.12	315.36
457.49	313.18
457.86	311.01
458.23	309.14
458.59	307.09
458.96	305.01
459.33	303.18
459.70	301.33
460.07	299.88
460.43	298.11
460.80	296.49
461.17	295.08
461.54	293.54
461.91	292.14
462.27	290.68
462.64	289.45
463.01	288.07
463.38	286.76
463.74	285.44
464.11	284.23
464.48	283.22
464.85	282.12
465.21	281.26
465.58	280.34
465.95	279.24
466.32	278.34
466.68	277.44
467.05	276.56
467.42	275.65
467.78	274.73
468.15	273.88
468.52	273.25
468.88	272.35
469.25	271.57
469.62	270.98
469.98	270.31
470.35	269.68
470.72	269.08
471.08	268.48
471.45	267.93
471.82	267.42
472.18	266.82
472.55	266.39
472.92	265.81
473.28	265.33
473.65	264.94
474.02	264.51
474.38	264.15
474.75	263.81
475.11	263.48
475.48	263.21
475.85	262.98
476.21	262.74
476.58	262.63
476.94	262.50
477.31	262.32
477.67	262.21
478.04	262.08
478.41	262.06
478.77	262.12
479.14	262.07
479.50	262.09
479.87	262.15
480.23	262.26
480.60	262.36
480.96	262.47
481.33	262.64
481.69	262.87
482.06	263.06
482.42	263.29
482.79	263.56
483.15	263.86
483.52	264.28
483.88	264.64
484.25	265.02
484.61	265.45
484.98	265.92
485.34	266.47
485.71	267.08
486.07	267.70
486.44	268.25
486.80	268.95
487.17	269.71
487.53	270.55
487.90	271.37
488.26	272.36
488.62	273.35
488.99	274.34
489.35	275.36
489.72	276.51
490.08	277.73
490.44	278.96
490.81	280.33
491.17	281.67
491.54	283.17
491.90	284.68
492.26	286.34
492.63	288.05
492.99	289.84
493.36	291.75
493.72	293.82
494.08	295.97
494.45	298.26
494.81	300.66
495.17	303.14
495.54	305.75
495.90	308.43
496.26	311.29
496.63	314.23
496.99	317.36
497.35	320.63
497.72	324.03
498.08	327.55
498.44	331.25
498.80	335.22
499.17	339.23
499.53	343.46
499.89	347.85
500.26	352.38
500.62	357.08
500.98	362.04
501.34	367.12
501.71	372.41
502.07	377.85
502.43	383.49
502.79	389.31
503.16	395.38
503.52	401.66
503.88	408.05
504.24	414.69
504.60	421.62
504.97	428.75
505.33	436.10
505.69	443.78
506.05	451.53
506.41	459.38
506.78	467.57
507.14	476.02
507.50	484.73
507.86	493.75
508.22	502.94
508.59	512.17
508.95	521.69
509.31	531.52
509.67	541.69
510.03	552.00
510.39	562.51
510.75	573.28
511.12	584.25
511.48	595.58
511.84	607.02
512.20	618.48
512.56	630.44
512.92	642.57
513.28	654.93
513.64	667.43
514.00	680.19
514.37	693.13
514.73	706.18
515.09	719.26
515.45	732.60
515.81	746.19
516.17	760.17
516.53	774.39
516.89	788.55
517.25	802.72
517.61	817.11
517.97	831.56
518.33	845.95
518.69	860.69
519.05	875.60
519.41	890.72
519.77	906.24
520.13	921.68
520.49	937.00
520.85	952.35
521.21	968.08
521.57	984.22
521.93	999.99
522.29	1016.33
522.65	1032.44
523.01	1048.53
523.37	1064.47
523.73	1080.59
524.09	1096.60
524.45	1112.87
524.81	1129.39
525.17	1146.07
525.53	1162.86
525.89	1179.78
526.25	1196.53
526.61	1212.87
526.97	1229.58
527.33	1246.00
527.68	1262.48
528.04	1278.90
528.40	1295.45
528.76	1312.47
529.12	1329.08
529.48	1345.85
529.84	1361.75
530.20	1378.32
530.56	1395.36
530.91	1412.85
531.27	1429.56
531.63	1445.99
531.99	1462.50
532.35	1478.40
532.71	1494.23
533.07	1510.48
533.42	1526.28
533.78	1542.30
534.14	1558.49
534.50	1573.79
534.86	1589.52
535.21	1604.69
535.57	1620.67
535.93	1636.08
536.29	1650.72
536.65	1665.66
537.00	1680.27
537.36	1695.52
537.72	1710.17
538.08	1724.51
538.44	1738.16
538.79	1752.06
539.15	1765.60
539.51	1779.25
539.87	1793.52
540.22	1807.28
540.58	1821.00
540.94	1834.26
541.29	1847.06
541.65	1859.83
542.01	1872.94
542.37	1885.34
542.72	1897.79
543.08	1909.42
543.44	1921.88
543.79	1933.03
544.15	1943.87
544.51	1955.49
544.87	1966.57
545.22	1977.26
545.58	1987.45
545.94	1997.18
546.29	2006.90
546.65	2016.71
547.01	2025.93
547.36	2034.57
547.72	2042.94
548.07	2050.75
548.43	2058.82
548.79	2066.83
549.14	2074.22
549.50	2081.53
549.86	2089.16
550.21	2096.38
550.57	2103.46
550.92	2110.01
551.28	2117.05
551.64	2124.27
551.99	2130.87
552.35	2136.79
552.70	2142.86
553.06	2148.81
553.41	2155.07
553.77	2161.01
554.13	2167.06
554.48	2173.26
554.84	2178.77
555.19	2183.95
555.55	2189.26
555.90	2193.78
556.26	2198.60
556.61	2203.31
556.97	2207.72
557.32	2211.79
557.68	2215.84
558.03	2220.21
558.39	2223.83
558.74	2228.51
559.10	2232.35
559.45	2235.95
559.81	2240.34
560.16	2244.19
560.52	2247.43
560.87	2250.85
561.23	2253.58
561.58	2256.46
561.94	2258.86
562.29	2261.19
562.64	2263.95
563.00	2266.40
563.35	2269.93
563.71	2273.07
564.06	2276.38
564.42	2279.20
564.77	2281.78
565.12	2284.14
565.48	2286.14
565.83	2288.19
566.19	2289.49
566.54	2290.21
566.89	2291.34
567.25	2291.99
567.60	2293.30
567.96	2295.01
568.31	2295.96
568.66	2297.15
569.02	2297.83
569.37	2298.25
569.72	2299.20
570.08	2299.48
570.43	2299.56
570.78	2298.99
571.14	2297.40
571.49	2295.90
571.84	2295.62
572.20	2294.63
572.55	2293.61
572.90	2291.98
573.26	2290.54
573.61	2288.87
573.96	2287.34
574.31	2284.44
574.67	2281.50
575.02	2277.85
575.37	2274.43
575.72	2270.61
576.08	2267.33
576.43	2264.01
576.78	2260.28
577.13	2257.20
577.49	2254.03
577.84	2250.57
578.19	2246.83
578.54	2243.44
578.90	2239.41
579.25	2233.92
579.60	2228.95
579.95	2224.01
580.30	2219.12
580.66	2213.87
581.01	2209.00
581.36	2204.21
581.71	2200.17
582.06	2195.77
582.42	2191.40
582.77	2186.19
583.12	2181.83
583.47	2177.16
583.82	2172.25
584.17	2167.17
584.53	2161.67
584.88	2156.07
585.23	2150.46
585.58	2145.16
585.93	2139.66
586.28	2134.79
586.63	2129.83
586.98	2124.68
587.34	2119.98
587.69	2115.02
588.04	2109.86
588.39	2104.26
588.74	2097.76
589.09	2091.51
589.44	2084.76
589.79	2078.75
590.14	2073.30
590.49	2066.65
590.84	2060.28
591.19	2054.28
591.54	2047.91
591.89	2040.67
592.25	2033.90
592.60	2026.55
592.95	2018.99
593.30	2011.74
593.65	2004.26
594.00	1997.13
594.35	1989.94
594.70	1981.96
595.05	1974.88
595.40	1967.70
595.75	1960.30
596.10	1954.12
596.45	1947.45
596.80	1941.36
597.15	1934.77
597.50	1927.68
597.85	1921.21
598.19	1914.45
598.54	1907.28
598.89	1900.62
599.24	1894.61
599.59	1888.05
599.94	1881.87
600.29	1875.55
600.64	1868.92
600.99	1861.61
601.34	1854.87
601.69	1847.99
602.04	1841.16
602.39	1833.92
602.74	1827.07
603.08	1820.22
603.43	1813.43
603.78	1806.11
604.13	1798.88
604.48	1791.68
604.83	1784.72
605.18	1777.81
605.53	1769.99
605.87	1762.22
606.22	1754.99
606.57	1747.03
606.92	1739.71
607.27	1732.69
607.62	1725.81
607.96	1718.60
608.31	1711.94
608.66	1704.31
609.01	1696.82
609.36	1689.34
609.70	1681.30
610.05	1673.29
610.40	1665.66
610.75	1657.33
611.10	1649.68
611.44	1641.18
611.79	1633.17
612.14	1624.50
612.49	1615.31
612.83	1606.87
613.18	1598.62
613.53	1590.61
613.88	1582.06
614.22	1573.78
614.57	1565.08
614.92	1556.99
615.27	1549.52
615.61	1541.16
615.96	1533.04
616.31	1525.29
616.65	1517.80
617.00	1510.19
617.35	1502.46
617.70	1494.00
618.04	1485.54
618.39	1477.26
618.74	1469.73
619.08	1461.42
619.43	1453.91
619.78	1446.94
620.12	1439.79
620.47	1432.31
620.82	1424.02
621.16	1416.68
621.51	1409.07
621.85	1401.41
622.20	1392.86
622.55	1384.37
622.89	1376.52
623.24	1369.01
623.59	1361.58
623.93	1354.04
624.28	1346.83
624.62	1339.26
624.97	1332.15
625.32	1325.29
625.66	1318.34
626.01	1311.11
626.35	1303.55
626.70	1295.76
627.04	1288.05
627.39	1280.18
627.73	1272.83
628.08	1265.99
628.43	1258.59
628.77	1251.12
629.12	1243.67
629.46	1236.46
629.81	1229.04
630.15	1221.80
630.50	1214.32
630.84	1206.16
631.19	1198.21
631.53	1190.63
631.88	1183.18
632.22	1175.57
632.57	1168.26
632.91	1160.79
633.26	1153.37
633.60	1146.10
633.95	1138.98
634.29	1131.90
634.64	1125.27
634.98	1117.79
635.32	1110.47
635.67	1103.87
636.01	1097.25
636.36	1090.37
636.70	1083.86
637.05	1077.18
637.39	1070.77
637.73	1064.24
638.08	1058.35
638.42	1052.40
638.77	1045.90
639.11	1039.25
639.45	1032.93
639.80	1026.32
640.14	1019.87
640.49	1013.35
640.83	1007.03
641.17	1000.75
641.52	994.49
641.86	987.98
642.20	982.16
642.55	976.01
642.89	969.55
643.23	963.07
643.58	957.33
643.92	951.23
644.26	945.25
644.61	939.15
644.95	933.15
645.29	926.53
645.64	919.72
645.98	913.42
646.32	907.51
646.66	901.35
647.01	895.51
647.35	889.63
647.69	883.78
648.04	878.25
648.38	872.50
648.72	866.45
649.06	860.37
649.41	854.42
649.75	848.36
650.09	842.45
650.43	836.57
650.78	830.36
651.12	824.30
651.46	818.58
651.80	812.83
652.14	807.42
652.49	802.04
652.83	796.89
653.17	791.21
653.51	785.55
653.85	780.25
654.20	774.62
654.54	768.71
654.88	762.98
655.22	757.06
655.56	751.36
655.90	745.94
656.25	740.73
656.59	735.41
656.93	730.33
657.27	725.21
657.61	719.82
657.95	714.78
658.29	709.69
658.64	704.41
658.98	699.17
659.32	693.71
659.66	688.51
660.00	683.19
660.34	678.22
660.68	673.23
661.02	668.11
661.36	663.40
661.70	658.89
662.05	654.48
662.39	650.19
662.73	645.74
663.07	641.33
663.41	636.85
663.75	632.33
664.09	627.75
664.43	623.32
664.77	619.17
665.11	614.88
665.45	610.80
665.79	606.68
666.13	602.56
666.47	598.47
666.81	594.33
667.15	590.24
667.49	586.34
667.83	582.57
668.17	578.67
668.51	574.62
668.85	570.60
669.19	566.75
669.53	562.95
669.87	559.05
670.21	555.37
670.55	551.74
670.89	548.31
671.23	544.91
671.57	541.29
671.91	537.77
672.25	534.29
672.58	530.72
672.92	527.31
673.26	524.08
673.60	520.94
673.94	517.83
674.28	514.93
674.62	511.97
674.96	508.82
675.30	505.88
675.64	502.92
675.97	500.18
676.31	497.34
676.65	494.35
676.99	491.63
677.33	488.74
677.67	485.92
678.01	482.89
678.34	479.84
678.68	477.03
679.02	474.19
679.36	471.40
679.70	468.65
680.04	465.89
680.37	463.00
680.71	460.16
681.05	457.51
681.39	454.78
681.73	452.13
682.06	449.61
682.40	447.06
682.74	444.56
683.08	441.97
683.42	439.38
683.75	436.91
684.09	434.37
684.43	431.88
684.77	429.41
685.10	427.03
685.44	424.74
685.78	422.47
686.12	420.24
686.45	417.96
686.79	415.66
687.13	413.52
687.46	411.38
687.80	409.23
688.14	407.03
688.48	404.94
688.81	402.65
689.15	400.54
689.49	398.38
689.82	396.33
690.16	394.17
690.50	392.20
690.83	390.20
691.17	388.21
691.51	386.32
691.84	384.45
692.18	382.55
692.52	380.59
692.85	378.64
693.19	376.78
693.52	374.94
693.86	373.11
694.20	371.28
694.53	369.47
694.87	367.60
695.21	365.83
695.54	363.98
695.88	362.28
696.21	360.56
696.55	358.89
696.88	357.13
697.22	355.52
697.56	353.88
697.89	352.21
698.23	350.59
698.56	348.97
698.90	347.40
699.23	345.73
699.57	344.22
699.90	342.64
700.24	341.06
700.58	339.53
700.91	338.04
701.25	336.60
701.58	335.21
701.92	333.87
702.25	332.46
702.59	331.13
702.92	329.81
703.26	328.52
703.59	327.22
703.93	326.03
704.26	324.81
704.60	323.53
704.93	322.26
705.26	321.02
705.60	319.85
705.93	318.70
706.27	317.67
706.60	316.57
706.94	315.53
707.27	314.40
707.61	313.34
707.94	312.34
708.27	311.24
708.61	310.16
708.94	309.13
709.28	308.21
709.61	307.22
709.94	306.27
710.28	305.22
710.61	304.21
710.95	303.12
711.28	302.21
711.61	301.21
711.95	300.28
712.28	299.32
712.61	298.34
712.95	297.40
713.28	296.52
713.61	295.65
713.95	294.76
714.28	293.92
714.61	293.07
714.95	292.24
715.28	291.39
715.61	290.49
715.95	289.67
716.28	288.80
716.61	287.96
716.95	287.16
717.28	286.42
717.61	285.68
717.94	284.95
718.28	284.13
718.61	283.42
718.94	282.72
719.27	282.09
719.61	281.45
719.94	280.78
720.27	280.04
720.60	279.37
720.94	278.75
721.27	278.13
721.60	277.52
721.93	276.90
722.27	276.39
722.60	275.86
722.93	275.28
723.26	274.75
723.59	274.19
723.93	273.62
724.26	273.04
724.59	272.51
724.92	272.03
725.25	271.54
725.59	271.06
725.92	270.54
726.25	270.03
726.58	269.53
726.91	269.03
727.24	268.61
727.57	268.14
727.91	267.62
728.24	267.12
728.57	266.64
728.90	266.16
729.23	265.62
729.56	265.20
729.89	264.71
730.22	264.20
730.55	263.73
730.89	263.28
731.22	262.84
731.55	262.40
731.88	261.92
732.21	261.45
732.54	260.99
732.87	260.60
733.20	260.16
733.53	259.75
733.86	259.39
734.19	258.97
734.52	258.59
734.85	258.25
735.18	257.88
735.51	257.50
735.84	257.15
736.17	256.83
736.50	256.44
736.83	256.19
737.16	255.88
737.49	255.56
737.82	255.22
738.15	254.89
738.48	254.54
738.81	254.22
739.14	253.94
739.47	253.63
739.80	253.30
740.13	253.03
740.46	252.70
740.79	252.39
741.12	252.08
741.45	251.74
741.78	251.42
742.11	251.15
742.44	250.83
742.77	250.54
743.10	250.26
743.43	249.95
743.75	249.58
744.08	249.41
744.41	249.13
744.74	248.86
745.07	248.59
745.40	248.35
745.73	248.15
746.06	247.85
746.39	247.58
746.71	247.36
747.04	247.08
747.37	246.84
747.70	246.59
748.03	246.34
748.36	246.14
748.68	245.90
749.01	245.65
749.34	245.40
749.67	245.20
750.00	244.94
750.33	244.79
750.65	244.57
750.98	244.24
751.31	244.01
751.64	243.80
751.97	243.64
752.29	243.42
752.62	243.15
752.95	242.97
753.28	242.76
753.60	242.51
753.93	242.32
754.26	242.12
754.59	241.91
754.91	241.68
755.24	241.47
755.57	241.26
755.90	241.05
756.22	240.87
756.55	240.62
756.88	240.42
757.20	240.18
757.53	239.98
757.86	239.80
758.19	239.63
758.51	239.47
758.84	239.25
759.17	239.07
759.49	238.88
759.82	238.73
760.15	238.58
760.47	238.42
760.80	238.25
761.13	238.10
761.45	237.94
761.78	237.79
762.11	237.66
762.43	237.54
762.76	237.39
763.08	237.27
763.41	237.16
763.74	237.06
764.06	236.90
764.39	236.75
764.71	236.61
765.04	236.47
765.37	236.30
765.69	236.16
766.02	236.00
766.34	235.87
766.67	235.72
767.00	235.63
767.32	235.57
767.65	235.52
767.97	235.41
768.30	235.33
768.62	235.19
768.95	235.05
769.27	234.92
769.60	234.83
769.92	234.71
770.25	234.60
770.57	234.45
770.90	234.37
771.22	234.27
771.55	234.16
771.87	234.08
772.20	234.01
772.52	233.98
772.85	234.01
773.17	233.92
773.50	233.85
773.82	233.73
774.15	233.60
774.47	233.47
774.80	233.38
775.12	233.29
775.45	233.24
775.77	233.13
776.09	233.04
776.42	232.98
776.74	232.96
777.07	232.86
777.39	232.81
777.72	232.73
778.04	232.69
778.36	232.62
778.69	232.55
779.01	232.49
779.33	232.36
779.66	232.22
779.98	232.19
780.31	232.14
780.63	232.13
780.95	232.10
781.28	232.05
781.60	231.94
781.92	231.86
782.25	231.80
782.57	231.77
782.89	231.72
783.22	231.67
783.54	231.55
783.86	231.51
784.19	231.44
784.51	231.43
784.83	231.37
785.16	231.34
785.48	231.28
785.80	231.24
786.12	231.19
786.45	231.13
786.77	231.07
787.09	230.98
