SpectraSuite Data File
++++++++++++++++++++++++++++++++++++
Date: Fri Feb 01 16:20:16 EST 2013
User: group
Dark Spectrum Present: No
Reference Spectrum Present: No
Number of Sampled Component Spectra: 1
Spectrometers: USB2E7196
Integration Time (usec): 35000 (USB2E7196)
Spectra Averaged: 100 (USB2E7196)
Boxcar Smoothing: 10 (USB2E7196)
Correct for Electrical Dark: No (USB2E7196)
Strobe/Lamp Enabled: No (USB2E7196)
Correct for Detector Non-linearity: No (USB2E7196)
Correct for Stray Light: No (USB2E7196)
Number of Pixels in Processed Spectrum: 2048
>>>>>Begin Processed Spectral Data<<<<<
339.09	0.00
339.48	214.47
339.86	215.82
340.24	217.54
340.63	218.19
341.01	221.62
341.39	221.29
341.78	222.06
342.16	223.62
342.54	224.67
342.93	212.66
343.31	223.40
343.69	223.93
344.07	224.40
344.46	224.79
344.84	225.18
345.22	225.38
345.60	225.61
345.99	225.82
346.37	225.95
346.75	226.01
347.13	226.10
347.52	226.18
347.90	226.25
348.28	226.25
348.66	226.32
349.05	226.28
349.43	226.34
349.81	226.37
350.19	226.41
350.57	226.44
350.96	226.50
351.34	226.57
351.72	226.65
352.10	226.73
352.48	226.81
352.87	226.84
353.25	226.93
353.63	227.01
354.01	227.06
354.39	227.15
354.77	227.21
355.15	227.29
355.54	227.28
355.92	227.31
356.30	227.37
356.68	227.50
357.06	227.59
357.44	227.64
357.82	227.70
358.20	227.77
358.58	227.82
358.97	227.85
359.35	227.93
359.73	228.02
360.11	228.05
360.49	228.10
360.87	228.16
361.25	228.22
361.63	228.31
362.01	228.33
362.39	228.34
362.77	228.41
363.15	228.41
363.53	228.45
363.91	228.49
364.29	228.50
364.67	228.40
365.05	228.41
365.43	228.40
365.81	228.43
366.19	228.48
366.57	228.53
366.95	228.54
367.33	228.51
367.71	228.49
368.09	228.51
368.47	228.50
368.85	228.45
369.23	228.43
369.61	228.37
369.99	228.38
370.37	228.35
370.75	228.35
371.13	228.29
371.51	228.25
371.89	228.19
372.27	228.18
372.65	228.16
373.03	228.14
373.41	228.09
373.78	228.00
374.16	227.92
374.54	227.82
374.92	227.77
375.30	227.71
375.68	227.61
376.06	227.56
376.44	227.47
376.82	227.41
377.19	227.36
377.57	227.28
377.95	227.17
378.33	227.11
378.71	226.99
379.09	226.95
379.47	226.93
379.84	226.84
380.22	226.72
380.60	226.62
380.98	226.53
381.36	226.48
381.73	226.43
382.11	226.37
382.49	226.34
382.87	226.28
383.25	226.23
383.62	226.28
384.00	226.22
384.38	226.17
384.76	226.14
385.13	226.09
385.51	226.04
385.89	226.00
386.27	225.97
386.64	225.93
387.02	225.90
387.40	225.83
387.78	225.84
388.15	225.82
388.53	225.82
388.91	225.81
389.29	225.75
389.66	225.75
390.04	225.74
390.42	225.71
390.79	225.68
391.17	225.66
391.55	225.53
391.92	225.52
392.30	225.53
392.68	225.52
393.05	225.54
393.43	225.56
393.81	225.56
394.18	225.57
394.56	225.57
394.94	225.57
395.31	225.61
395.69	225.69
396.06	225.75
396.44	225.78
396.82	225.74
397.19	225.83
397.57	225.88
397.95	225.91
398.32	225.91
398.70	225.97
399.07	226.02
399.45	226.12
399.82	226.19
400.20	226.25
400.58	226.31
400.95	226.33
401.33	226.43
401.70	226.60
402.08	226.69
402.45	226.82
402.83	226.97
403.20	227.04
403.58	227.09
403.95	227.22
404.33	227.33
404.71	227.48
405.08	227.68
405.46	227.78
405.83	227.92
406.21	228.07
406.58	228.26
406.96	228.43
407.33	228.63
407.70	228.84
408.08	229.10
408.45	229.32
408.83	229.56
409.20	229.79
409.58	229.96
409.95	230.21
410.33	230.46
410.70	230.67
411.08	230.99
411.45	231.30
411.82	231.60
412.20	231.97
412.57	232.37
412.95	232.67
413.32	233.09
413.69	233.51
414.07	233.96
414.44	234.41
414.82	234.86
415.19	235.38
415.56	235.90
415.94	236.46
416.31	237.09
416.68	237.71
417.06	238.40
417.43	239.09
417.81	239.83
418.18	240.61
418.55	241.48
418.93	242.35
419.30	243.27
419.67	244.21
420.04	245.18
420.42	246.20
420.79	247.38
421.16	248.52
421.54	249.70
421.91	250.94
422.28	252.19
422.66	253.55
423.03	254.83
423.40	256.17
423.77	257.56
424.15	258.96
424.52	260.45
424.89	262.03
425.26	263.54
425.64	265.00
426.01	266.57
426.38	268.21
426.75	269.85
427.13	271.55
427.50	273.35
427.87	275.23
428.24	277.08
428.61	278.80
428.99	280.73
429.36	282.82
429.73	284.87
430.10	286.88
430.47	288.96
430.85	291.10
431.22	293.32
431.59	295.69
431.96	297.96
432.33	300.48
432.70	302.86
433.08	305.71
433.45	308.34
433.82	310.93
434.19	313.79
434.56	316.58
434.93	319.22
435.30	321.82
435.68	324.70
436.05	327.56
436.42	330.34
436.79	332.86
437.16	335.55
437.53	338.36
437.90	341.14
438.27	343.86
438.64	346.63
439.01	349.24
439.38	351.41
439.75	353.59
440.13	356.04
440.50	358.35
440.87	360.17
441.24	362.10
441.61	364.27
441.98	365.79
442.35	367.60
442.72	369.43
443.09	371.18
443.46	372.16
443.83	372.71
444.20	373.23
444.57	374.07
444.94	374.32
445.31	374.67
445.68	375.03
446.05	375.12
446.42	374.76
446.79	374.30
447.16	373.89
447.53	373.56
447.90	372.43
448.27	371.31
448.64	369.71
449.01	368.57
449.37	366.61
449.74	364.71
450.11	362.46
450.48	360.02
450.85	357.51
451.22	355.30
451.59	353.28
451.96	351.31
452.33	348.69
452.70	346.36
453.07	343.54
453.43	340.60
453.80	337.78
454.17	335.11
454.54	332.63
454.91	329.88
455.28	327.20
455.65	324.68
456.02	322.20
456.38	320.03
456.75	317.38
457.12	315.12
457.49	312.87
457.86	310.68
458.23	308.81
458.59	306.76
458.96	304.74
459.33	302.89
459.70	301.02
460.07	299.52
460.43	297.79
460.80	296.14
461.17	294.74
461.54	293.23
461.91	291.78
462.27	290.29
462.64	289.08
463.01	287.72
463.38	286.43
463.74	285.09
464.11	283.94
464.48	282.91
464.85	281.81
465.21	280.99
465.58	280.07
465.95	279.02
466.32	278.14
466.68	277.26
467.05	276.38
467.42	275.48
467.78	274.57
468.15	273.73
468.52	273.08
468.88	272.25
469.25	271.53
469.62	270.96
469.98	270.33
470.35	269.71
470.72	269.15
471.08	268.50
471.45	267.99
471.82	267.49
472.18	266.89
472.55	266.47
472.92	265.94
473.28	265.52
473.65	265.10
474.02	264.65
474.38	264.29
474.75	263.97
475.11	263.66
475.48	263.44
475.85	263.22
476.21	263.01
476.58	262.84
476.94	262.71
477.31	262.56
477.67	262.41
478.04	262.30
478.41	262.23
478.77	262.33
479.14	262.26
479.50	262.30
479.87	262.37
480.23	262.46
480.60	262.54
480.96	262.62
481.33	262.82
481.69	263.03
482.06	263.21
482.42	263.42
482.79	263.70
483.15	264.01
483.52	264.37
483.88	264.72
484.25	265.10
484.61	265.50
484.98	265.92
485.34	266.47
485.71	267.07
486.07	267.69
486.44	268.23
486.80	268.95
487.17	269.64
487.53	270.50
487.90	271.36
488.26	272.30
488.62	273.31
488.99	274.27
489.35	275.35
489.72	276.54
490.08	277.74
490.44	278.98
490.81	280.33
491.17	281.69
491.54	283.16
491.90	284.72
492.26	286.39
492.63	288.16
492.99	289.94
493.36	291.82
493.72	293.85
494.08	295.99
494.45	298.20
494.81	300.58
495.17	302.99
495.54	305.53
495.90	308.21
496.26	310.99
496.63	314.01
496.99	317.12
497.35	320.35
497.72	323.76
498.08	327.24
498.44	330.93
498.80	334.91
499.17	338.97
499.53	343.13
499.89	347.51
500.26	351.99
500.62	356.66
500.98	361.63
501.34	366.73
501.71	372.05
502.07	377.57
502.43	383.19
502.79	389.00
503.16	395.16
503.52	401.43
503.88	407.86
504.24	414.46
504.60	421.37
504.97	428.48
505.33	435.82
505.69	443.57
506.05	451.34
506.41	459.16
506.78	467.30
507.14	475.79
507.50	484.56
507.86	493.61
508.22	502.83
508.59	512.06
508.95	521.65
509.31	531.46
509.67	541.53
510.03	551.87
510.39	562.45
510.75	573.22
511.12	584.20
511.48	595.54
511.84	607.05
512.20	618.54
512.56	630.51
512.92	642.71
513.28	655.04
513.64	667.49
514.00	680.32
514.37	693.36
514.73	706.44
515.09	719.46
515.45	732.81
515.81	746.38
516.17	760.36
516.53	774.52
516.89	788.75
517.25	802.93
517.61	817.24
517.97	831.70
518.33	846.06
518.69	860.84
519.05	875.78
519.41	890.84
519.77	906.38
520.13	921.83
520.49	937.12
520.85	952.52
521.21	968.26
521.57	984.44
521.93	1000.10
522.29	1016.33
522.65	1032.55
523.01	1048.67
523.37	1064.71
523.73	1080.84
524.09	1096.87
524.45	1113.10
524.81	1129.68
525.17	1146.50
525.53	1163.32
525.89	1180.22
526.25	1197.04
526.61	1213.44
526.97	1230.16
527.33	1246.61
527.68	1263.17
528.04	1279.64
528.40	1296.16
528.76	1313.13
529.12	1329.60
529.48	1346.32
529.84	1362.34
530.20	1378.89
530.56	1395.87
530.91	1413.20
531.27	1429.83
531.63	1446.21
531.99	1462.67
532.35	1478.57
532.71	1494.41
533.07	1510.52
533.42	1526.17
533.78	1541.98
534.14	1558.08
534.50	1573.46
534.86	1589.23
535.21	1604.41
535.57	1620.30
535.93	1635.81
536.29	1650.56
536.65	1665.49
537.00	1680.25
537.36	1695.51
537.72	1710.05
538.08	1724.30
538.44	1737.97
538.79	1751.86
539.15	1765.51
539.51	1779.22
539.87	1793.49
540.22	1807.19
540.58	1820.84
540.94	1834.23
541.29	1847.14
541.65	1859.80
542.01	1872.81
542.37	1884.98
542.72	1897.23
543.08	1908.92
543.44	1921.22
543.79	1932.43
544.15	1943.45
544.51	1954.89
544.87	1965.81
545.22	1976.42
545.58	1986.55
545.94	1996.33
546.29	2006.07
546.65	2015.86
547.01	2025.03
547.36	2033.68
547.72	2042.13
548.07	2049.98
548.43	2058.08
548.79	2065.93
549.14	2073.44
549.50	2080.77
549.86	2088.47
550.21	2095.70
550.57	2102.86
550.92	2109.38
551.28	2116.25
551.64	2123.20
551.99	2129.70
552.35	2135.69
552.70	2141.97
553.06	2148.02
553.41	2154.28
553.77	2160.38
554.13	2166.41
554.48	2172.56
554.84	2177.97
555.19	2183.15
555.55	2188.40
555.90	2192.97
556.26	2197.89
556.61	2202.55
556.97	2206.82
557.32	2211.00
557.68	2215.23
558.03	2219.54
558.39	2223.14
558.74	2227.91
559.10	2231.86
559.45	2235.51
559.81	2239.93
560.16	2243.61
560.52	2246.94
560.87	2250.35
561.23	2252.97
561.58	2255.97
561.94	2258.51
562.29	2261.05
562.64	2263.61
563.00	2266.20
563.35	2269.62
563.71	2272.85
564.06	2276.22
564.42	2279.13
564.77	2281.61
565.12	2283.90
565.48	2285.80
565.83	2287.76
566.19	2289.12
566.54	2289.99
566.89	2291.25
567.25	2291.86
567.60	2293.13
567.96	2294.83
568.31	2295.67
568.66	2296.91
569.02	2297.42
569.37	2297.67
569.72	2298.52
570.08	2298.79
570.43	2298.88
570.78	2298.44
571.14	2296.90
571.49	2295.53
571.84	2295.35
572.20	2294.30
572.55	2293.25
572.90	2291.56
573.26	2290.31
573.61	2288.59
573.96	2286.89
574.31	2284.04
574.67	2280.99
575.02	2277.52
575.37	2274.20
575.72	2270.45
576.08	2267.05
576.43	2263.74
576.78	2260.19
577.13	2256.96
577.49	2253.87
577.84	2250.35
578.19	2246.45
578.54	2242.94
578.90	2238.65
579.25	2232.95
579.60	2228.01
579.95	2223.07
580.30	2218.26
580.66	2213.09
581.01	2208.29
581.36	2203.45
581.71	2199.24
582.06	2194.97
582.42	2190.51
582.77	2185.20
583.12	2180.81
583.47	2176.11
583.82	2171.32
584.17	2166.10
584.53	2160.62
584.88	2155.12
585.23	2149.55
585.58	2144.20
585.93	2138.75
586.28	2134.17
586.63	2129.21
586.98	2124.19
587.34	2119.54
587.69	2114.69
588.04	2109.44
588.39	2103.66
588.74	2097.32
589.09	2091.17
589.44	2084.40
589.79	2078.51
590.14	2072.99
590.49	2066.47
590.84	2060.21
591.19	2054.22
591.54	2047.87
591.89	2040.65
592.25	2033.91
592.60	2026.61
592.95	2019.14
593.30	2011.76
593.65	2004.10
594.00	1997.17
594.35	1989.87
594.70	1981.82
595.05	1974.63
595.40	1967.47
595.75	1960.10
596.10	1953.77
596.45	1946.99
596.80	1940.81
597.15	1934.24
597.50	1927.09
597.85	1920.66
598.19	1913.93
598.54	1906.76
598.89	1900.21
599.24	1894.26
599.59	1887.59
599.94	1881.42
600.29	1875.16
600.64	1868.64
600.99	1861.34
601.34	1854.48
601.69	1847.66
602.04	1840.94
602.39	1833.60
602.74	1826.61
603.08	1819.75
603.43	1813.02
603.78	1805.77
604.13	1798.69
604.48	1791.37
604.83	1784.40
605.18	1777.39
605.53	1769.33
605.87	1761.26
606.22	1754.14
606.57	1746.15
606.92	1738.91
607.27	1731.80
607.62	1724.78
607.96	1717.47
608.31	1710.81
608.66	1703.15
609.01	1695.69
609.36	1688.02
609.70	1679.99
610.05	1671.97
610.40	1664.32
610.75	1656.09
611.10	1648.45
611.44	1639.91
611.79	1631.87
612.14	1623.44
612.49	1614.26
612.83	1606.15
613.18	1598.01
613.53	1589.70
613.88	1581.24
614.22	1572.94
614.57	1564.33
614.92	1556.21
615.27	1548.68
615.61	1540.29
615.96	1532.36
616.31	1524.53
616.65	1517.08
617.00	1509.53
617.35	1501.90
617.70	1493.66
618.04	1485.21
618.39	1476.98
618.74	1469.51
619.08	1461.31
619.43	1453.73
619.78	1446.99
620.12	1439.76
620.47	1432.24
620.82	1424.08
621.16	1416.62
621.51	1408.98
621.85	1401.35
622.20	1392.99
622.55	1384.65
622.89	1376.86
623.24	1369.11
623.59	1361.84
623.93	1354.36
624.28	1347.15
624.62	1339.60
624.97	1332.42
625.32	1325.54
625.66	1318.57
626.01	1311.34
626.35	1303.75
626.70	1295.90
627.04	1288.10
627.39	1280.18
627.73	1272.85
628.08	1265.96
628.43	1258.68
628.77	1251.31
629.12	1243.77
629.46	1236.64
629.81	1229.26
630.15	1221.99
630.50	1214.60
630.84	1206.34
631.19	1198.45
631.53	1190.93
631.88	1183.39
632.22	1175.71
632.57	1168.37
632.91	1160.80
633.26	1153.26
633.60	1146.00
633.95	1138.93
634.29	1131.85
634.64	1125.28
634.98	1117.94
635.32	1110.71
635.67	1104.08
636.01	1097.37
636.36	1090.53
636.70	1084.01
637.05	1077.48
637.39	1071.03
637.73	1064.52
638.08	1058.56
638.42	1052.52
638.77	1046.06
639.11	1039.45
639.45	1033.14
639.80	1026.55
640.14	1020.13
640.49	1013.67
640.83	1007.26
641.17	1000.93
641.52	994.53
641.86	987.96
642.20	982.03
642.55	975.78
642.89	969.39
643.23	962.83
643.58	957.02
643.92	950.80
644.26	944.68
644.61	938.60
644.95	932.67
645.29	926.17
645.64	919.46
645.98	913.16
646.32	907.32
646.66	901.22
647.01	895.45
647.35	889.70
647.69	883.89
648.04	878.37
648.38	872.60
648.72	866.57
649.06	860.54
649.41	854.71
649.75	848.72
650.09	842.76
650.43	837.06
650.78	830.93
651.12	824.93
651.46	819.10
651.80	813.36
652.14	807.88
652.49	802.46
652.83	797.28
653.17	791.58
653.51	785.90
653.85	780.52
654.20	774.83
654.54	768.81
654.88	762.99
655.22	757.10
655.56	751.49
655.90	746.11
656.25	740.90
656.59	735.55
656.93	730.46
657.27	725.26
657.61	719.71
657.95	714.65
658.29	709.52
658.64	704.34
658.98	699.03
659.32	693.57
659.66	688.42
660.00	683.04
660.34	678.11
660.68	673.15
661.02	668.16
661.36	663.51
661.70	659.08
662.05	654.76
662.39	650.48
662.73	645.98
663.07	641.53
663.41	637.07
663.75	632.55
664.09	627.96
664.43	623.54
664.77	619.51
665.11	615.20
665.45	611.13
665.79	607.05
666.13	602.89
666.47	598.82
666.81	594.64
667.15	590.62
667.49	586.70
667.83	582.87
668.17	578.88
668.51	574.77
668.85	570.71
669.19	566.90
669.53	563.05
669.87	559.15
670.21	555.47
670.55	551.85
670.89	548.43
671.23	544.99
671.57	541.47
671.91	537.87
672.25	534.32
672.58	530.74
672.92	527.31
673.26	524.16
673.60	521.00
673.94	517.93
674.28	514.96
674.62	511.94
674.96	508.82
675.30	505.91
675.64	502.97
675.97	500.24
676.31	497.33
676.65	494.34
676.99	491.70
677.33	488.83
677.67	485.97
678.01	482.92
678.34	479.95
678.68	477.14
679.02	474.35
679.36	471.64
679.70	469.01
680.04	466.23
680.37	463.34
680.71	460.55
681.05	457.88
681.39	455.16
681.73	452.57
682.06	450.02
682.40	447.46
682.74	444.98
683.08	442.41
683.42	439.82
683.75	437.31
684.09	434.73
684.43	432.28
684.77	429.82
685.10	427.43
685.44	425.11
685.78	422.79
686.12	420.53
686.45	418.25
686.79	415.94
687.13	413.71
687.46	411.53
687.80	409.39
688.14	407.18
688.48	405.14
688.81	402.86
689.15	400.73
689.49	398.58
689.82	396.41
690.16	394.32
690.50	392.34
690.83	390.46
691.17	388.44
691.51	386.53
691.84	384.65
692.18	382.73
692.52	380.75
692.85	378.85
693.19	376.95
693.52	375.10
693.86	373.21
694.20	371.46
694.53	369.70
694.87	367.82
695.21	366.06
695.54	364.23
695.88	362.50
696.21	360.79
696.55	359.12
696.88	357.47
697.22	355.77
697.56	354.13
697.89	352.43
698.23	350.84
698.56	349.22
698.90	347.67
699.23	346.08
699.57	344.51
699.90	342.97
700.24	341.42
700.58	339.88
700.91	338.40
701.25	336.96
701.58	335.56
701.92	334.18
702.25	332.80
702.59	331.40
702.92	330.08
703.26	328.76
703.59	327.45
703.93	326.24
704.26	325.02
704.60	323.73
704.93	322.48
705.26	321.19
705.60	319.99
705.93	318.83
706.27	317.77
706.60	316.72
706.94	315.58
707.27	314.44
707.61	313.39
707.94	312.36
708.27	311.23
708.61	310.17
708.94	309.18
709.28	308.18
709.61	307.23
709.94	306.22
710.28	305.21
710.61	304.24
710.95	303.15
711.28	302.21
711.61	301.28
711.95	300.33
712.28	299.42
712.61	298.43
712.95	297.47
713.28	296.55
713.61	295.62
713.95	294.77
714.28	293.92
714.61	293.04
714.95	292.19
715.28	291.35
715.61	290.46
715.95	289.61
716.28	288.76
716.61	287.94
716.95	287.15
717.28	286.41
717.61	285.62
717.94	284.88
718.28	284.12
718.61	283.36
718.94	282.68
719.27	282.02
719.61	281.41
719.94	280.76
720.27	280.08
720.60	279.43
720.94	278.78
721.27	278.18
721.60	277.60
721.93	277.00
722.27	276.45
722.60	275.92
722.93	275.32
723.26	274.79
723.59	274.22
723.93	273.67
724.26	273.08
724.59	272.56
724.92	272.03
725.25	271.55
725.59	271.04
725.92	270.54
726.25	270.01
726.58	269.49
726.91	268.97
727.24	268.49
727.57	268.03
727.91	267.50
728.24	267.02
728.57	266.54
728.90	266.12
729.23	265.65
729.56	265.22
729.89	264.77
730.22	264.21
730.55	263.76
730.89	263.33
731.22	262.91
731.55	262.45
731.88	262.03
732.21	261.53
732.54	261.08
732.87	260.62
733.20	260.24
733.53	259.82
733.86	259.48
734.19	259.06
734.52	258.67
734.85	258.38
735.18	258.00
735.51	257.66
735.84	257.23
736.17	256.86
736.50	256.43
736.83	256.21
737.16	255.90
737.49	255.55
737.82	255.19
738.15	254.82
738.48	254.50
738.81	254.15
739.14	253.87
739.47	253.58
739.80	253.28
740.13	252.97
740.46	252.68
740.79	252.35
741.12	252.03
741.45	251.71
741.78	251.35
742.11	251.08
742.44	250.77
742.77	250.53
743.10	250.21
743.43	249.90
743.75	249.48
744.08	249.31
744.41	249.08
744.74	248.85
745.07	248.59
745.40	248.37
745.73	248.12
746.06	247.84
746.39	247.57
746.71	247.32
747.04	247.03
747.37	246.76
747.70	246.52
748.03	246.28
748.36	246.05
748.68	245.84
749.01	245.57
749.34	245.29
749.67	245.04
750.00	244.80
750.33	244.67
750.65	244.48
750.98	244.15
751.31	243.91
751.64	243.66
751.97	243.48
752.29	243.24
752.62	243.02
752.95	242.83
753.28	242.63
753.60	242.39
753.93	242.20
754.26	241.99
754.59	241.73
754.91	241.53
755.24	241.35
755.57	241.17
755.90	240.97
756.22	240.82
756.55	240.65
756.88	240.48
757.20	240.26
757.53	240.05
757.86	239.87
758.19	239.70
758.51	239.53
758.84	239.33
759.17	239.17
759.49	239.00
759.82	238.85
760.15	238.71
760.47	238.62
760.80	238.46
761.13	238.36
761.45	238.25
761.78	238.12
762.11	237.96
762.43	237.79
762.76	237.63
763.08	237.48
763.41	237.34
763.74	237.21
764.06	237.05
764.39	236.93
764.71	236.81
765.04	236.71
765.37	236.57
765.69	236.45
766.02	236.31
766.34	236.21
766.67	236.08
767.00	235.97
767.32	235.90
767.65	235.85
767.97	235.69
768.30	235.57
768.62	235.44
768.95	235.33
769.27	235.25
769.60	235.18
769.92	235.10
770.25	234.99
770.57	234.87
770.90	234.80
771.22	234.70
771.55	234.62
771.87	234.52
772.20	234.41
772.52	234.42
772.85	234.46
773.17	234.34
773.50	234.25
773.82	234.15
774.15	233.99
774.47	233.86
774.80	233.82
775.12	233.72
775.45	233.66
775.77	233.59
776.09	233.49
776.42	233.42
776.74	233.36
777.07	233.28
777.39	233.20
777.72	233.13
778.04	233.03
778.36	232.95
778.69	232.89
779.01	232.79
779.33	232.62
779.66	232.43
779.98	232.36
780.31	232.30
780.63	232.26
780.95	232.23
781.28	232.17
781.60	232.06
781.92	232.01
782.25	231.94
782.57	231.85
782.89	231.81
783.22	231.73
783.54	231.63
783.86	231.57
784.19	231.50
784.51	231.44
784.83	231.39
785.16	231.33
785.48	231.23
785.80	231.20
786.12	231.19
786.45	231.13
786.77	231.07
787.09	231.00
