SpectraSuite Data File
++++++++++++++++++++++++++++++++++++
Date: Fri Feb 01 18:12:03 EST 2013
User: group
Dark Spectrum Present: No
Reference Spectrum Present: No
Number of Sampled Component Spectra: 1
Spectrometers: USB2E7196
Integration Time (usec): 35000 (USB2E7196)
Spectra Averaged: 100 (USB2E7196)
Boxcar Smoothing: 10 (USB2E7196)
Correct for Electrical Dark: No (USB2E7196)
Strobe/Lamp Enabled: No (USB2E7196)
Correct for Detector Non-linearity: No (USB2E7196)
Correct for Stray Light: No (USB2E7196)
Number of Pixels in Processed Spectrum: 2048
>>>>>Begin Processed Spectral Data<<<<<
339.09	0.00
339.48	212.67
339.86	213.81
340.24	215.57
340.63	217.34
341.01	220.06
341.39	220.09
341.78	220.77
342.16	221.75
342.54	223.16
342.93	211.40
343.31	222.08
343.69	222.62
344.07	223.09
344.46	223.56
344.84	223.96
345.22	224.23
345.60	224.48
345.99	224.70
346.37	224.89
346.75	224.98
347.13	225.03
347.52	225.08
347.90	225.16
348.28	225.20
348.66	225.25
349.05	225.24
349.43	225.32
349.81	225.37
350.19	225.40
350.57	225.50
350.96	225.57
351.34	225.68
351.72	225.80
352.10	225.89
352.48	225.96
352.87	226.01
353.25	226.06
353.63	226.15
354.01	226.19
354.39	226.25
354.77	226.35
355.15	226.49
355.54	226.55
355.92	226.59
356.30	226.68
356.68	226.83
357.06	226.92
357.44	226.96
357.82	227.03
358.20	227.13
358.58	227.19
358.97	227.28
359.35	227.37
359.73	227.46
360.11	227.58
360.49	227.65
360.87	227.71
361.25	227.76
361.63	227.82
362.01	227.89
362.39	227.94
362.77	227.99
363.15	227.98
363.53	228.03
363.91	228.05
364.29	228.05
364.67	227.94
365.05	227.98
365.43	228.00
365.81	228.01
366.19	228.01
366.57	228.06
366.95	228.05
367.33	228.00
367.71	228.00
368.09	227.98
368.47	227.95
368.85	227.91
369.23	227.92
369.61	227.87
369.99	227.86
370.37	227.83
370.75	227.85
371.13	227.82
371.51	227.76
371.89	227.73
372.27	227.67
372.65	227.64
373.03	227.58
373.41	227.51
373.78	227.43
374.16	227.35
374.54	227.24
374.92	227.18
375.30	227.11
375.68	226.98
376.06	226.92
376.44	226.84
376.82	226.78
377.19	226.71
377.57	226.64
377.95	226.56
378.33	226.46
378.71	226.31
379.09	226.25
379.47	226.20
379.84	226.12
380.22	226.07
380.60	225.99
380.98	225.91
381.36	225.90
381.73	225.87
382.11	225.81
382.49	225.74
382.87	225.66
383.25	225.63
383.62	225.68
384.00	225.62
384.38	225.58
384.76	225.57
385.13	225.58
385.51	225.52
385.89	225.49
386.27	225.48
386.64	225.44
387.02	225.41
387.40	225.33
387.78	225.30
388.15	225.26
388.53	225.26
388.91	225.24
389.29	225.18
389.66	225.16
390.04	225.16
390.42	225.17
390.79	225.19
391.17	225.17
391.55	225.09
391.92	225.05
392.30	225.05
392.68	225.01
393.05	224.98
393.43	225.00
393.81	225.00
394.18	224.99
394.56	225.02
394.94	225.02
395.31	225.05
395.69	225.12
396.06	225.18
396.44	225.21
396.82	225.25
397.19	225.34
397.57	225.34
397.95	225.40
398.32	225.39
398.70	225.42
399.07	225.52
399.45	225.59
399.82	225.70
400.20	225.76
400.58	225.83
400.95	225.87
401.33	225.96
401.70	226.10
402.08	226.18
402.45	226.27
402.83	226.42
403.20	226.56
403.58	226.66
403.95	226.79
404.33	226.94
404.71	227.06
405.08	227.24
405.46	227.43
405.83	227.57
406.21	227.78
406.58	227.99
406.96	228.17
407.33	228.38
407.70	228.60
408.08	228.91
408.45	229.21
408.83	229.53
409.20	229.80
409.58	230.03
409.95	230.34
410.33	230.69
410.70	231.01
411.08	231.41
411.45	231.78
411.82	232.14
412.20	232.59
412.57	233.15
412.95	233.56
413.32	234.11
413.69	234.68
414.07	235.27
414.44	235.89
414.82	236.51
415.19	237.24
415.56	238.00
415.94	238.77
416.31	239.63
416.68	240.46
417.06	241.45
417.43	242.39
417.81	243.47
418.18	244.61
418.55	245.80
418.93	246.99
419.30	248.32
419.67	249.67
420.04	251.01
420.42	252.38
420.79	254.03
421.16	255.61
421.54	257.22
421.91	258.93
422.28	260.67
422.66	262.54
423.03	264.34
423.40	266.21
423.77	268.18
424.15	270.17
424.52	272.29
424.89	274.56
425.26	276.77
425.64	278.82
426.01	281.03
426.38	283.34
426.75	285.69
427.13	288.09
427.50	290.60
427.87	293.25
428.24	295.88
428.61	298.35
428.99	301.10
429.36	304.08
429.73	306.99
430.10	309.84
430.47	312.73
430.85	315.69
431.22	318.84
431.59	322.13
431.96	325.31
432.33	328.81
432.70	332.18
433.08	336.10
433.45	339.74
433.82	343.42
434.19	347.47
434.56	351.45
434.93	355.15
435.30	358.87
435.68	362.91
436.05	366.94
436.42	370.90
436.79	374.46
437.16	378.29
437.53	382.31
437.90	386.28
438.27	390.16
438.64	394.18
439.01	397.85
439.38	401.07
439.75	404.11
440.13	407.61
440.50	410.88
440.87	413.47
441.24	416.28
441.61	419.36
441.98	421.48
442.35	424.02
442.72	426.65
443.09	429.13
443.46	430.58
443.83	431.35
444.20	432.03
444.57	433.17
444.94	433.54
445.31	434.00
445.68	434.43
446.05	434.57
446.42	434.01
446.79	433.38
447.16	432.72
447.53	432.29
447.90	430.71
448.27	429.05
448.64	426.87
449.01	425.24
449.37	422.39
449.74	419.72
450.11	416.54
450.48	413.11
450.85	409.63
451.22	406.64
451.59	403.80
451.96	401.08
452.33	397.43
452.70	394.17
453.07	390.20
453.43	386.16
453.80	382.29
454.17	378.55
454.54	375.01
454.91	371.23
455.28	367.45
455.65	363.95
456.02	360.46
456.38	357.44
456.75	353.71
457.12	350.58
457.49	347.43
457.86	344.37
458.23	341.69
458.59	338.79
458.96	335.78
459.33	333.14
459.70	330.50
460.07	328.37
460.43	325.92
460.80	323.62
461.17	321.61
461.54	319.39
461.91	317.41
462.27	315.35
462.64	313.51
463.01	311.60
463.38	309.70
463.74	307.82
464.11	306.12
464.48	304.64
464.85	303.06
465.21	301.81
465.58	300.55
465.95	299.01
466.32	297.70
466.68	296.41
467.05	295.15
467.42	293.91
467.78	292.57
468.15	291.30
468.52	290.29
468.88	289.02
469.25	287.97
469.62	287.03
469.98	286.05
470.35	285.15
470.72	284.24
471.08	283.31
471.45	282.50
471.82	281.73
472.18	280.88
472.55	280.21
472.92	279.44
473.28	278.69
473.65	278.00
474.02	277.36
474.38	276.79
474.75	276.31
475.11	275.76
475.48	275.36
475.85	275.00
476.21	274.68
476.58	274.39
476.94	274.11
477.31	273.78
477.67	273.51
478.04	273.30
478.41	273.16
478.77	273.10
479.14	272.97
479.50	272.91
479.87	272.94
480.23	272.96
480.60	272.94
480.96	273.03
481.33	273.18
481.69	273.35
482.06	273.51
482.42	273.66
482.79	273.83
483.15	274.11
483.52	274.44
483.88	274.73
484.25	275.08
484.61	275.50
484.98	275.93
485.34	276.50
485.71	277.08
486.07	277.70
486.44	278.27
486.80	278.94
487.17	279.66
487.53	280.46
487.90	281.30
488.26	282.30
488.62	283.32
488.99	284.36
489.35	285.42
489.72	286.61
490.08	287.85
490.44	289.18
490.81	290.58
491.17	291.98
491.54	293.54
491.90	295.17
492.26	296.92
492.63	298.77
492.99	300.67
493.36	302.69
493.72	304.85
494.08	307.10
494.45	309.54
494.81	312.07
495.17	314.66
495.54	317.46
495.90	320.37
496.26	323.39
496.63	326.54
496.99	329.89
497.35	333.43
497.72	337.13
498.08	340.91
498.44	344.86
498.80	349.09
499.17	353.42
499.53	357.90
499.89	362.63
500.26	367.46
500.62	372.51
500.98	377.83
501.34	383.28
501.71	389.02
502.07	394.89
502.43	400.93
502.79	407.17
503.16	413.65
503.52	420.31
503.88	427.14
504.24	434.30
504.60	441.74
504.97	449.37
505.33	457.24
505.69	465.53
506.05	473.96
506.41	482.49
506.78	491.37
507.14	500.50
507.50	509.85
507.86	519.62
508.22	529.51
508.59	539.50
508.95	549.89
509.31	560.48
509.67	571.32
510.03	582.50
510.39	594.04
510.75	605.72
511.12	617.68
511.48	629.89
511.84	642.27
512.20	654.78
512.56	667.80
512.92	681.05
513.28	694.57
513.64	708.14
514.00	722.03
514.37	736.15
514.73	750.43
515.09	764.71
515.45	779.20
515.81	794.15
516.17	809.47
516.53	824.96
516.89	840.60
517.25	856.29
517.61	872.19
517.97	888.05
518.33	903.96
518.69	920.22
519.05	936.84
519.41	953.60
519.77	970.87
520.13	987.90
520.49	1004.90
520.85	1021.85
521.21	1039.28
521.57	1057.29
521.93	1074.81
522.29	1092.91
522.65	1110.96
523.01	1129.00
523.37	1146.97
523.73	1164.98
524.09	1182.98
524.45	1201.17
524.81	1219.68
525.17	1238.39
525.53	1257.27
525.89	1276.22
526.25	1295.23
526.61	1313.67
526.97	1332.59
527.33	1351.04
527.68	1369.78
528.04	1388.52
528.40	1407.33
528.76	1426.63
529.12	1445.32
529.48	1464.51
529.84	1482.82
530.20	1501.84
530.56	1521.16
530.91	1540.92
531.27	1560.10
531.63	1578.96
531.99	1597.91
532.35	1616.32
532.71	1634.61
533.07	1653.38
533.42	1671.76
533.78	1690.13
534.14	1708.95
534.50	1726.70
534.86	1744.98
535.21	1762.77
535.57	1781.15
535.93	1799.25
536.29	1816.53
536.65	1834.32
537.00	1851.47
537.36	1869.50
537.72	1886.53
538.08	1903.48
538.44	1919.70
538.79	1936.15
539.15	1952.16
539.51	1968.45
539.87	1985.48
540.22	2001.84
540.58	2018.20
540.94	2034.09
541.29	2049.61
541.65	2064.84
542.01	2080.75
542.37	2095.77
542.72	2110.73
543.08	2125.25
543.44	2140.20
543.79	2154.15
544.15	2167.55
544.51	2181.86
544.87	2195.18
545.22	2208.64
545.58	2221.59
545.94	2233.83
546.29	2246.18
546.65	2258.85
547.01	2270.70
547.36	2281.81
547.72	2292.79
548.07	2303.02
548.43	2313.57
548.79	2323.67
549.14	2333.66
549.50	2343.20
549.86	2353.15
550.21	2362.73
550.57	2372.10
550.92	2381.08
551.28	2390.31
551.64	2399.74
551.99	2408.30
552.35	2416.86
552.70	2425.19
553.06	2433.26
553.41	2441.84
553.77	2449.95
554.13	2458.05
554.48	2466.38
554.84	2474.10
555.19	2481.32
555.55	2488.57
555.90	2495.15
556.26	2502.45
556.61	2509.05
556.97	2515.38
557.32	2521.40
557.68	2527.29
558.03	2533.40
558.39	2538.56
558.74	2545.00
559.10	2550.72
559.45	2556.21
559.81	2562.17
560.16	2567.53
560.52	2572.45
560.87	2577.36
561.23	2581.59
561.58	2586.03
561.94	2590.03
562.29	2593.52
562.64	2597.87
563.00	2601.80
563.35	2606.78
563.71	2611.23
564.06	2615.84
564.42	2620.19
564.77	2624.18
565.12	2627.83
565.48	2631.10
565.83	2634.50
566.19	2637.13
566.54	2638.95
566.89	2641.36
567.25	2643.14
567.60	2645.61
567.96	2648.58
568.31	2650.62
568.66	2652.95
569.02	2654.44
569.37	2655.61
569.72	2657.59
570.08	2658.39
570.43	2659.27
570.78	2659.44
571.14	2658.46
571.49	2657.69
571.84	2658.10
572.20	2657.57
572.55	2657.15
572.90	2655.92
573.26	2655.00
573.61	2653.67
573.96	2652.51
574.31	2649.79
574.67	2646.82
575.02	2643.36
575.37	2639.94
575.72	2636.37
576.08	2632.77
576.43	2629.61
576.78	2626.14
577.13	2623.03
577.49	2619.96
577.84	2616.54
578.19	2612.65
578.54	2609.01
578.90	2604.70
579.25	2598.48
579.60	2593.34
579.95	2588.09
580.30	2582.76
580.66	2577.23
581.01	2571.89
581.36	2566.45
581.71	2562.04
582.06	2557.36
582.42	2552.63
582.77	2546.90
583.12	2541.80
583.47	2536.83
583.82	2531.37
584.17	2525.41
584.53	2519.35
584.88	2513.15
585.23	2506.76
585.58	2500.65
585.93	2494.54
586.28	2489.11
586.63	2483.65
586.98	2477.93
587.34	2472.57
587.69	2467.08
588.04	2461.23
588.39	2454.65
588.74	2447.39
589.09	2440.17
589.44	2432.48
589.79	2425.44
590.14	2418.86
590.49	2411.26
590.84	2403.94
591.19	2397.06
591.54	2389.72
591.89	2381.33
592.25	2373.65
592.60	2365.38
592.95	2356.83
593.30	2348.39
593.65	2339.66
594.00	2331.41
594.35	2322.82
594.70	2313.50
595.05	2305.21
595.40	2296.55
595.75	2287.93
596.10	2280.69
596.45	2272.95
596.80	2265.65
597.15	2257.99
597.50	2249.97
597.85	2242.39
598.19	2234.71
598.54	2226.48
598.89	2218.65
599.24	2211.71
599.59	2203.91
599.94	2196.40
600.29	2188.72
600.64	2180.84
600.99	2172.17
601.34	2164.19
601.69	2156.09
602.04	2148.13
602.39	2139.53
602.74	2131.57
603.08	2123.39
603.43	2115.28
603.78	2106.47
604.13	2098.04
604.48	2089.54
604.83	2081.34
605.18	2073.26
605.53	2063.74
605.87	2054.02
606.22	2045.30
606.57	2035.74
606.92	2026.69
607.27	2018.19
607.62	2009.92
607.96	2001.25
608.31	1993.44
608.66	1984.35
609.01	1975.20
609.36	1966.04
609.70	1956.30
610.05	1946.66
610.40	1937.68
610.75	1927.89
611.10	1918.82
611.44	1908.49
611.79	1898.70
612.14	1888.26
612.49	1877.27
612.83	1867.10
613.18	1857.35
613.53	1847.61
613.88	1837.37
614.22	1827.45
614.57	1817.16
614.92	1807.70
615.27	1798.83
615.61	1788.79
615.96	1779.01
616.31	1769.87
616.65	1761.01
617.00	1752.02
617.35	1742.87
617.70	1732.84
618.04	1722.65
618.39	1712.79
618.74	1703.80
619.08	1693.83
619.43	1684.65
619.78	1676.21
620.12	1667.72
620.47	1658.85
620.82	1649.01
621.16	1639.94
621.51	1630.74
621.85	1621.42
622.20	1611.08
622.55	1600.91
622.89	1591.34
623.24	1582.17
623.59	1573.21
623.93	1564.20
624.28	1555.52
624.62	1546.37
624.97	1537.73
625.32	1529.43
625.66	1520.95
626.01	1512.37
626.35	1503.54
626.70	1494.14
627.04	1484.80
627.39	1475.34
627.73	1466.23
628.08	1457.85
628.43	1449.12
628.77	1440.42
629.12	1431.50
629.46	1422.88
629.81	1413.78
630.15	1405.03
630.50	1396.20
630.84	1386.37
631.19	1376.69
631.53	1367.58
631.88	1358.53
632.22	1349.34
632.57	1340.56
632.91	1331.46
633.26	1322.52
633.60	1313.60
633.95	1305.07
634.29	1296.62
634.64	1288.56
634.98	1279.82
635.32	1271.37
635.67	1263.50
636.01	1255.65
636.36	1247.45
636.70	1239.51
637.05	1231.66
637.39	1223.94
637.73	1216.08
638.08	1209.05
638.42	1201.83
638.77	1194.14
639.11	1186.24
639.45	1178.73
639.80	1170.74
640.14	1163.06
640.49	1155.32
640.83	1147.76
641.17	1140.41
641.52	1132.90
641.86	1125.22
642.20	1118.18
642.55	1110.63
642.89	1102.89
643.23	1094.92
643.58	1088.11
643.92	1080.83
644.26	1073.76
644.61	1066.57
644.95	1059.45
645.29	1051.71
645.64	1043.72
645.98	1036.15
646.32	1029.10
646.66	1021.78
647.01	1014.96
647.35	1008.18
647.69	1001.15
648.04	994.57
648.38	987.76
648.72	980.70
649.06	973.55
649.41	966.48
649.75	959.48
650.09	952.51
650.43	945.68
650.78	938.31
651.12	931.27
651.46	924.47
651.80	917.73
652.14	911.37
652.49	904.97
652.83	898.87
653.17	892.25
653.51	885.59
653.85	879.18
654.20	872.53
654.54	865.41
654.88	858.64
655.22	851.68
655.56	844.93
655.90	838.39
656.25	832.18
656.59	825.96
656.93	819.89
657.27	813.75
657.61	807.33
657.95	801.37
658.29	795.38
658.64	789.13
658.98	782.80
659.32	776.35
659.66	770.20
660.00	764.02
660.34	758.15
660.68	752.37
661.02	746.48
661.36	740.98
661.70	735.72
662.05	730.54
662.39	725.40
662.73	720.13
663.07	714.97
663.41	709.75
663.75	704.47
664.09	699.08
664.43	693.94
664.77	689.09
665.11	684.07
665.45	679.18
665.79	674.37
666.13	669.56
666.47	664.75
666.81	659.90
667.15	654.97
667.49	650.31
667.83	645.72
668.17	641.16
668.51	636.33
668.85	631.59
669.19	627.07
669.53	622.62
669.87	618.07
670.21	613.75
670.55	609.45
670.89	605.37
671.23	601.29
671.57	597.10
671.91	592.95
672.25	588.79
672.58	584.62
672.92	580.59
673.26	576.87
673.60	573.13
673.94	569.45
674.28	566.01
674.62	562.57
674.96	559.00
675.30	555.54
675.64	552.11
675.97	548.77
676.31	545.48
676.65	542.07
676.99	538.85
677.33	535.45
677.67	532.15
678.01	528.65
678.34	525.22
678.68	521.86
679.02	518.52
679.36	515.23
679.70	512.04
680.04	508.83
680.37	505.46
680.71	502.12
681.05	499.01
681.39	495.83
681.73	492.61
682.06	489.61
682.40	486.62
682.74	483.56
683.08	480.54
683.42	477.39
683.75	474.39
684.09	471.28
684.43	468.39
684.77	465.46
685.10	462.61
685.44	459.85
685.78	457.09
686.12	454.41
686.45	451.65
686.79	448.94
687.13	446.34
687.46	443.74
687.80	441.17
688.14	438.57
688.48	436.11
688.81	433.52
689.15	430.98
689.49	428.37
689.82	425.92
690.16	423.44
690.50	421.13
690.83	418.85
691.17	416.52
691.51	414.21
691.84	411.98
692.18	409.67
692.52	407.35
692.85	405.07
693.19	402.81
693.52	400.65
693.86	398.50
694.20	396.33
694.53	394.21
694.87	392.06
695.21	389.91
695.54	387.72
695.88	385.61
696.21	383.55
696.55	381.53
696.88	379.49
697.22	377.51
697.56	375.56
697.89	373.59
698.23	371.74
698.56	369.87
698.90	368.09
699.23	366.18
699.57	364.31
699.90	362.47
700.24	360.67
700.58	358.92
700.91	357.17
701.25	355.51
701.58	353.88
701.92	352.21
702.25	350.61
702.59	349.04
702.92	347.52
703.26	345.99
703.59	344.51
703.93	343.18
704.26	341.80
704.60	340.27
704.93	338.79
705.26	337.29
705.60	335.89
705.93	334.43
706.27	333.24
706.60	332.00
706.94	330.74
707.27	329.42
707.61	328.13
707.94	326.91
708.27	325.59
708.61	324.30
708.94	323.13
709.28	321.94
709.61	320.80
709.94	319.67
710.28	318.47
710.61	317.32
710.95	316.02
711.28	314.91
711.61	313.81
711.95	312.70
712.28	311.61
712.61	310.45
712.95	309.36
713.28	308.27
713.61	307.21
713.95	306.20
714.28	305.22
714.61	304.24
714.95	303.25
715.28	302.26
715.61	301.23
715.95	300.21
716.28	299.20
716.61	298.22
716.95	297.22
717.28	296.30
717.61	295.40
717.94	294.52
718.28	293.58
718.61	292.68
718.94	291.87
719.27	291.07
719.61	290.31
719.94	289.51
720.27	288.67
720.60	287.86
720.94	287.09
721.27	286.39
721.60	285.69
721.93	284.97
722.27	284.34
722.60	283.72
722.93	283.10
723.26	282.49
723.59	281.81
723.93	281.18
724.26	280.55
724.59	279.88
724.92	279.28
725.25	278.68
725.59	278.11
725.92	277.50
726.25	276.91
726.58	276.30
726.91	275.72
727.24	275.18
727.57	274.66
727.91	274.05
728.24	273.46
728.57	272.86
728.90	272.34
729.23	271.70
729.56	271.19
729.89	270.61
730.22	270.05
730.55	269.51
730.89	268.99
731.22	268.45
731.55	267.92
731.88	267.37
732.21	266.86
732.54	266.35
732.87	265.84
733.20	265.37
733.53	264.93
733.86	264.50
734.19	264.02
734.52	263.52
734.85	263.16
735.18	262.70
735.51	262.24
735.84	261.75
736.17	261.34
736.50	260.84
736.83	260.51
737.16	260.11
737.49	259.68
737.82	259.24
738.15	258.84
738.48	258.46
738.81	258.08
739.14	257.69
739.47	257.31
739.80	256.94
740.13	256.56
740.46	256.10
740.79	255.70
741.12	255.31
741.45	254.94
741.78	254.52
742.11	254.15
742.44	253.81
742.77	253.45
743.10	253.12
743.43	252.74
743.75	252.30
744.08	252.12
744.41	251.82
744.74	251.51
745.07	251.20
745.40	250.89
745.73	250.61
746.06	250.29
746.39	249.97
746.71	249.66
747.04	249.35
747.37	249.09
747.70	248.77
748.03	248.52
748.36	248.23
748.68	247.98
749.01	247.69
749.34	247.43
749.67	247.15
750.00	246.85
750.33	246.68
750.65	246.46
750.98	246.05
751.31	245.77
751.64	245.53
751.97	245.32
752.29	245.02
752.62	244.72
752.95	244.49
753.28	244.23
753.60	244.00
753.93	243.79
754.26	243.58
754.59	243.35
754.91	243.07
755.24	242.87
755.57	242.61
755.90	242.40
756.22	242.16
756.55	241.92
756.88	241.70
757.20	241.42
757.53	241.17
757.86	240.98
758.19	240.80
758.51	240.59
758.84	240.37
759.17	240.20
759.49	240.05
759.82	239.87
760.15	239.71
760.47	239.52
760.80	239.31
761.13	239.12
761.45	238.94
761.78	238.78
762.11	238.59
762.43	238.44
762.76	238.25
763.08	238.13
763.41	238.00
763.74	237.85
764.06	237.70
764.39	237.53
764.71	237.38
765.04	237.19
765.37	237.02
765.69	236.84
766.02	236.71
766.34	236.55
766.67	236.39
767.00	236.27
767.32	236.18
767.65	236.14
767.97	236.02
768.30	235.93
768.62	235.82
768.95	235.66
769.27	235.50
769.60	235.40
769.92	235.26
770.25	235.14
770.57	235.03
770.90	234.90
771.22	234.79
771.55	234.68
771.87	234.57
772.20	234.47
772.52	234.45
772.85	234.46
773.17	234.36
773.50	234.25
773.82	234.11
774.15	233.96
774.47	233.76
774.80	233.64
775.12	233.51
775.45	233.43
775.77	233.36
776.09	233.30
776.42	233.19
776.74	233.10
777.07	233.00
777.39	232.91
777.72	232.81
778.04	232.71
778.36	232.61
778.69	232.53
779.01	232.46
779.33	232.28
779.66	232.07
779.98	232.00
780.31	231.92
780.63	231.91
780.95	231.85
781.28	231.77
781.60	231.69
781.92	231.61
782.25	231.53
782.57	231.45
782.89	231.38
783.22	231.33
783.54	231.29
783.86	231.23
784.19	231.18
784.51	231.14
784.83	231.10
785.16	231.03
785.48	231.00
785.80	230.93
786.12	230.89
786.45	230.85
