SpectraSuite Data File
++++++++++++++++++++++++++++++++++++
Date: Fri Feb 01 16:41:08 EST 2013
User: group
Dark Spectrum Present: No
Reference Spectrum Present: No
Number of Sampled Component Spectra: 1
Spectrometers: USB2E7196
Integration Time (usec): 35000 (USB2E7196)
Spectra Averaged: 100 (USB2E7196)
Boxcar Smoothing: 10 (USB2E7196)
Correct for Electrical Dark: No (USB2E7196)
Strobe/Lamp Enabled: No (USB2E7196)
Correct for Detector Non-linearity: No (USB2E7196)
Correct for Stray Light: No (USB2E7196)
Number of Pixels in Processed Spectrum: 2048
>>>>>Begin Processed Spectral Data<<<<<
339.09	0.00
339.48	213.47
339.86	215.15
340.24	216.66
340.63	217.90
341.01	220.57
341.39	220.35
341.78	221.63
342.16	223.12
342.54	223.52
342.93	212.10
343.31	222.83
343.69	223.36
344.07	223.79
344.46	224.22
344.84	224.59
345.22	224.83
345.60	225.11
345.99	225.29
346.37	225.44
346.75	225.57
347.13	225.61
347.52	225.71
347.90	225.79
348.28	225.82
348.66	225.82
349.05	225.80
349.43	225.82
349.81	225.86
350.19	225.85
350.57	225.93
350.96	225.97
351.34	226.04
351.72	226.13
352.10	226.25
352.48	226.34
352.87	226.41
353.25	226.49
353.63	226.52
354.01	226.58
354.39	226.64
354.77	226.69
355.15	226.80
355.54	226.84
355.92	226.86
356.30	226.93
356.68	227.09
357.06	227.16
357.44	227.25
357.82	227.31
358.20	227.43
358.58	227.49
358.97	227.55
359.35	227.61
359.73	227.68
360.11	227.72
360.49	227.76
360.87	227.78
361.25	227.81
361.63	227.90
362.01	227.96
362.39	227.97
362.77	228.01
363.15	228.05
363.53	228.07
363.91	228.12
364.29	228.16
364.67	228.07
365.05	228.11
365.43	228.11
365.81	228.14
366.19	228.18
366.57	228.22
366.95	228.21
367.33	228.20
367.71	228.21
368.09	228.22
368.47	228.21
368.85	228.17
369.23	228.19
369.61	228.11
369.99	228.15
370.37	228.15
370.75	228.19
371.13	228.12
371.51	228.09
371.89	228.04
372.27	228.00
372.65	227.95
373.03	227.88
373.41	227.79
373.78	227.74
374.16	227.66
374.54	227.57
374.92	227.51
375.30	227.46
375.68	227.38
376.06	227.33
376.44	227.24
376.82	227.22
377.19	227.15
377.57	227.10
377.95	226.96
378.33	226.91
378.71	226.77
379.09	226.69
379.47	226.62
379.84	226.55
380.22	226.50
380.60	226.44
380.98	226.38
381.36	226.35
381.73	226.24
382.11	226.17
382.49	226.11
382.87	226.02
383.25	225.96
383.62	226.04
384.00	225.96
384.38	225.91
384.76	225.89
385.13	225.87
385.51	225.81
385.89	225.76
386.27	225.73
386.64	225.69
387.02	225.64
387.40	225.59
387.78	225.55
388.15	225.49
388.53	225.43
388.91	225.41
389.29	225.38
389.66	225.41
390.04	225.37
390.42	225.38
390.79	225.39
391.17	225.36
391.55	225.17
391.92	225.14
392.30	225.16
392.68	225.11
393.05	225.11
393.43	225.14
393.81	225.13
394.18	225.11
394.56	225.13
394.94	225.19
395.31	225.21
395.69	225.28
396.06	225.32
396.44	225.39
396.82	225.38
397.19	225.46
397.57	225.48
397.95	225.55
398.32	225.57
398.70	225.61
399.07	225.72
399.45	225.85
399.82	225.95
400.20	226.01
400.58	226.08
400.95	226.11
401.33	226.18
401.70	226.37
402.08	226.46
402.45	226.55
402.83	226.65
403.20	226.77
403.58	226.85
403.95	227.00
404.33	227.13
404.71	227.30
405.08	227.47
405.46	227.60
405.83	227.74
406.21	227.88
406.58	228.02
406.96	228.14
407.33	228.28
407.70	228.44
408.08	228.68
408.45	228.93
408.83	229.16
409.20	229.38
409.58	229.52
409.95	229.77
410.33	230.04
410.70	230.29
411.08	230.59
411.45	230.91
411.82	231.20
412.20	231.53
412.57	231.90
412.95	232.14
413.32	232.53
413.69	232.94
414.07	233.35
414.44	233.83
414.82	234.30
415.19	234.84
415.56	235.41
415.94	235.97
416.31	236.59
416.68	237.23
417.06	237.94
417.43	238.62
417.81	239.38
418.18	240.13
418.55	240.95
418.93	241.78
419.30	242.64
419.67	243.58
420.04	244.51
420.42	245.50
420.79	246.74
421.16	247.84
421.54	249.00
421.91	250.23
422.28	251.47
422.66	252.80
423.03	254.05
423.40	255.37
423.77	256.77
424.15	258.14
424.52	259.56
424.89	261.15
425.26	262.72
425.64	264.13
426.01	265.74
426.38	267.37
426.75	269.04
427.13	270.75
427.50	272.51
427.87	274.39
428.24	276.21
428.61	277.94
428.99	279.95
429.36	282.04
429.73	284.08
430.10	286.12
430.47	288.17
430.85	290.28
431.22	292.47
431.59	294.84
431.96	297.06
432.33	299.52
432.70	301.86
433.08	304.65
433.45	307.30
433.82	309.85
434.19	312.71
434.56	315.51
434.93	318.13
435.30	320.72
435.68	323.55
436.05	326.35
436.42	329.11
436.79	331.54
437.16	334.18
437.53	336.97
437.90	339.72
438.27	342.42
438.64	345.25
439.01	347.81
439.38	349.97
439.75	352.15
440.13	354.68
440.50	357.00
440.87	358.82
441.24	360.74
441.61	362.92
441.98	364.40
442.35	366.12
442.72	367.94
443.09	369.81
443.46	370.82
443.83	371.45
444.20	371.94
444.57	372.77
444.94	373.15
445.31	373.51
445.68	373.91
446.05	373.98
446.42	373.64
446.79	373.25
447.16	372.84
447.53	372.55
447.90	371.40
448.27	370.28
448.64	368.68
449.01	367.55
449.37	365.56
449.74	363.72
450.11	361.56
450.48	359.14
450.85	356.58
451.22	354.47
451.59	352.47
451.96	350.55
452.33	348.02
452.70	345.68
453.07	342.88
453.43	339.99
453.80	337.28
454.17	334.62
454.54	332.12
454.91	329.44
455.28	326.76
455.65	324.28
456.02	321.85
456.38	319.75
456.75	317.17
457.12	314.97
457.49	312.74
457.86	310.58
458.23	308.76
458.59	306.75
458.96	304.70
459.33	302.84
459.70	300.96
460.07	299.46
460.43	297.74
460.80	296.10
461.17	294.68
461.54	293.16
461.91	291.76
462.27	290.32
462.64	289.09
463.01	287.77
463.38	286.50
463.74	285.14
464.11	283.96
464.48	282.92
464.85	281.85
465.21	281.00
465.58	280.11
465.95	279.02
466.32	278.12
466.68	277.21
467.05	276.33
467.42	275.47
467.78	274.50
468.15	273.61
468.52	272.95
468.88	272.07
469.25	271.31
469.62	270.67
469.98	269.97
470.35	269.31
470.72	268.72
471.08	268.04
471.45	267.49
471.82	266.94
472.18	266.35
472.55	265.89
472.92	265.35
473.28	264.89
473.65	264.44
474.02	264.03
474.38	263.70
474.75	263.37
475.11	263.04
475.48	262.81
475.85	262.59
476.21	262.38
476.58	262.23
476.94	262.09
477.31	261.91
477.67	261.81
478.04	261.70
478.41	261.65
478.77	261.69
479.14	261.64
479.50	261.66
479.87	261.76
480.23	261.85
480.60	261.92
480.96	262.00
481.33	262.20
481.69	262.41
482.06	262.56
482.42	262.75
482.79	263.02
483.15	263.33
483.52	263.74
483.88	264.09
484.25	264.49
484.61	264.94
484.98	265.42
485.34	265.95
485.71	266.54
486.07	267.17
486.44	267.75
486.80	268.47
487.17	269.24
487.53	270.03
487.90	270.89
488.26	271.87
488.62	272.89
488.99	273.86
489.35	274.88
489.72	276.02
490.08	277.26
490.44	278.54
490.81	279.89
491.17	281.26
491.54	282.78
491.90	284.26
492.26	285.90
492.63	287.65
492.99	289.44
493.36	291.34
493.72	293.39
494.08	295.49
494.45	297.72
494.81	300.10
495.17	302.53
495.54	305.11
495.90	307.78
496.26	310.57
496.63	313.56
496.99	316.69
497.35	319.96
497.72	323.33
498.08	326.86
498.44	330.54
498.80	334.47
499.17	338.49
499.53	342.68
499.89	347.03
500.26	351.54
500.62	356.18
500.98	361.13
501.34	366.19
501.71	371.53
502.07	377.00
502.43	382.60
502.79	388.43
503.16	394.47
503.52	400.73
503.88	407.14
504.24	413.75
504.60	420.63
504.97	427.78
505.33	435.11
505.69	442.80
506.05	450.55
506.41	458.36
506.78	466.50
507.14	474.96
507.50	483.68
507.86	492.69
508.22	501.91
508.59	511.11
508.95	520.65
509.31	530.44
509.67	540.51
510.03	550.82
510.39	561.44
510.75	572.24
511.12	583.18
511.48	594.45
511.84	605.85
512.20	617.28
512.56	629.22
512.92	641.33
513.28	653.58
513.64	666.06
514.00	678.76
514.37	691.70
514.73	704.77
515.09	717.76
515.45	730.98
515.81	744.51
516.17	758.48
516.53	772.58
516.89	786.68
517.25	800.74
517.61	815.05
517.97	829.35
518.33	843.67
518.69	858.31
519.05	873.11
519.41	888.32
519.77	903.77
520.13	919.11
520.49	934.46
520.85	949.77
521.21	965.36
521.57	981.50
521.93	997.12
522.29	1013.22
522.65	1029.37
523.01	1045.39
523.37	1061.41
523.73	1077.43
524.09	1093.42
524.45	1109.66
524.81	1126.19
525.17	1142.78
525.53	1159.58
525.89	1176.34
526.25	1193.12
526.61	1209.45
526.97	1225.94
527.33	1242.29
527.68	1258.68
528.04	1275.05
528.40	1291.46
528.76	1308.40
529.12	1324.78
529.48	1341.56
529.84	1357.47
530.20	1373.96
530.56	1390.80
530.91	1407.91
531.27	1424.60
531.63	1440.85
531.99	1457.16
532.35	1472.95
532.71	1488.77
533.07	1504.84
533.42	1520.71
533.78	1536.66
534.14	1552.84
534.50	1568.06
534.86	1583.74
535.21	1598.90
535.57	1614.55
535.93	1629.90
536.29	1644.53
536.65	1659.50
537.00	1674.04
537.36	1689.29
537.72	1703.78
538.08	1718.17
538.44	1731.89
538.79	1745.46
539.15	1758.89
539.51	1772.49
539.87	1786.66
540.22	1800.12
540.58	1813.78
540.94	1826.64
541.29	1839.21
541.65	1851.66
542.01	1864.71
542.37	1877.00
542.72	1889.28
543.08	1901.07
543.44	1913.31
543.79	1924.53
544.15	1935.35
544.51	1946.75
544.87	1957.54
545.22	1968.14
545.58	1978.25
545.94	1987.92
546.29	1997.86
546.65	2007.79
547.01	2017.04
547.36	2025.84
547.72	2034.44
548.07	2042.26
548.43	2050.46
548.79	2058.33
549.14	2065.96
549.50	2073.11
549.86	2080.70
550.21	2087.83
550.57	2094.97
550.92	2101.49
551.28	2108.45
551.64	2115.60
551.99	2122.13
552.35	2128.30
552.70	2134.37
553.06	2140.22
553.41	2146.44
553.77	2152.32
554.13	2158.33
554.48	2164.36
554.84	2169.88
555.19	2174.93
555.55	2180.06
555.90	2184.67
556.26	2189.65
556.61	2194.27
556.97	2198.68
557.32	2202.68
557.68	2206.79
558.03	2210.91
558.39	2214.70
558.74	2219.19
559.10	2222.93
559.45	2226.56
559.81	2230.69
560.16	2234.51
560.52	2237.81
560.87	2241.22
561.23	2243.82
561.58	2246.69
561.94	2249.36
562.29	2251.54
562.64	2254.44
563.00	2256.89
563.35	2260.37
563.71	2263.48
564.06	2266.58
564.42	2269.57
564.77	2272.24
565.12	2274.62
565.48	2276.74
565.83	2278.64
566.19	2280.12
566.54	2281.12
566.89	2282.41
567.25	2283.25
567.60	2284.53
567.96	2286.27
568.31	2287.12
568.66	2288.29
569.02	2289.01
569.37	2289.39
569.72	2290.37
570.08	2290.63
570.43	2290.80
570.78	2290.39
571.14	2288.85
571.49	2287.50
571.84	2287.05
572.20	2286.09
572.55	2285.06
572.90	2283.28
573.26	2281.90
573.61	2280.05
573.96	2278.34
574.31	2275.43
574.67	2272.56
575.02	2269.13
575.37	2265.79
575.72	2262.20
576.08	2258.85
576.43	2255.53
576.78	2251.96
577.13	2248.78
577.49	2245.44
577.84	2242.13
578.19	2238.32
578.54	2234.90
578.90	2231.03
579.25	2225.64
579.60	2220.82
579.95	2216.02
580.30	2211.19
580.66	2206.16
581.01	2201.34
581.36	2196.42
581.71	2192.45
582.06	2188.03
582.42	2183.68
582.77	2178.62
583.12	2174.15
583.47	2169.76
583.82	2165.02
584.17	2159.83
584.53	2154.43
584.88	2149.03
585.23	2143.38
585.58	2137.93
585.93	2132.58
586.28	2127.65
586.63	2122.66
586.98	2117.50
587.34	2112.73
587.69	2107.90
588.04	2102.80
588.39	2097.24
588.74	2090.88
589.09	2084.66
589.44	2077.94
589.79	2071.80
590.14	2066.06
590.49	2059.48
590.84	2052.86
591.19	2046.74
591.54	2040.40
591.89	2033.28
592.25	2026.63
592.60	2019.36
592.95	2011.97
593.30	2004.75
593.65	1997.27
594.00	1990.20
594.35	1983.13
594.70	1975.12
595.05	1968.15
595.40	1960.88
595.75	1953.48
596.10	1947.53
596.45	1941.06
596.80	1935.02
597.15	1928.58
597.50	1921.88
597.85	1915.61
598.19	1909.24
598.54	1902.39
598.89	1895.73
599.24	1889.78
599.59	1883.25
599.94	1877.18
600.29	1870.87
600.64	1864.10
600.99	1856.97
601.34	1850.33
601.69	1843.27
602.04	1836.63
602.39	1829.34
602.74	1822.64
603.08	1816.01
603.43	1809.29
603.78	1801.83
604.13	1794.66
604.48	1787.57
604.83	1780.71
605.18	1773.98
605.53	1766.13
605.87	1758.13
606.22	1750.92
606.57	1742.92
606.92	1735.52
607.27	1728.48
607.62	1721.74
607.96	1714.74
608.31	1708.22
608.66	1700.64
609.01	1693.27
609.36	1685.72
609.70	1677.82
610.05	1669.80
610.40	1662.28
610.75	1653.92
611.10	1646.34
611.44	1637.93
611.79	1629.84
612.14	1621.23
612.49	1611.88
612.83	1603.42
613.18	1595.31
613.53	1587.33
613.88	1578.95
614.22	1570.71
614.57	1562.12
614.92	1554.11
615.27	1546.71
615.61	1538.37
615.96	1530.42
616.31	1522.68
616.65	1515.34
617.00	1507.70
617.35	1500.01
617.70	1491.66
618.04	1483.31
618.39	1475.05
618.74	1467.49
619.08	1459.25
619.43	1451.66
619.78	1444.75
620.12	1437.65
620.47	1430.18
620.82	1421.96
621.16	1414.51
621.51	1406.90
621.85	1399.19
622.20	1390.63
622.55	1382.17
622.89	1374.33
623.24	1366.68
623.59	1359.31
623.93	1351.83
624.28	1344.58
624.62	1337.21
624.97	1329.97
625.32	1323.10
625.66	1316.19
626.01	1309.06
626.35	1301.74
626.70	1293.94
627.04	1286.40
627.39	1278.61
627.73	1271.13
628.08	1264.17
628.43	1257.04
628.77	1249.81
629.12	1242.26
629.46	1235.21
629.81	1227.74
630.15	1220.49
630.50	1213.09
630.84	1205.03
631.19	1196.96
631.53	1189.45
631.88	1181.84
632.22	1174.30
632.57	1166.98
632.91	1159.43
633.26	1151.91
633.60	1144.45
633.95	1137.24
634.29	1130.12
634.64	1123.35
634.98	1116.08
635.32	1109.00
635.67	1102.25
636.01	1095.47
636.36	1088.63
636.70	1081.97
637.05	1075.47
637.39	1068.91
637.73	1062.49
638.08	1056.57
638.42	1050.71
638.77	1044.30
639.11	1037.78
639.45	1031.40
639.80	1024.88
640.14	1018.57
640.49	1012.05
640.83	1005.75
641.17	999.63
641.52	993.23
641.86	986.85
642.20	980.88
642.55	974.55
642.89	968.15
643.23	961.61
643.58	955.95
643.92	949.85
644.26	943.80
644.61	937.79
644.95	931.77
645.29	925.18
645.64	918.45
645.98	912.14
646.32	906.20
646.66	900.13
647.01	894.21
647.35	888.50
647.69	882.76
648.04	877.20
648.38	871.43
648.72	865.52
649.06	859.47
649.41	853.59
649.75	847.74
650.09	841.78
650.43	836.05
650.78	829.87
651.12	823.92
651.46	818.19
651.80	812.57
652.14	807.07
652.49	801.75
652.83	796.63
653.17	791.01
653.51	785.34
653.85	779.90
654.20	774.35
654.54	768.22
654.88	762.46
655.22	756.59
655.56	750.84
655.90	745.33
656.25	740.09
656.59	734.79
656.93	729.59
657.27	724.50
657.61	719.07
657.95	713.98
658.29	708.90
658.64	703.66
658.98	698.23
659.32	692.82
659.66	687.58
660.00	682.26
660.34	677.28
660.68	672.37
661.02	667.35
661.36	662.65
661.70	658.24
662.05	653.86
662.39	649.52
662.73	645.10
663.07	640.71
663.41	636.34
663.75	631.87
664.09	627.33
664.43	622.88
664.77	618.77
665.11	614.57
665.45	610.42
665.79	606.31
666.13	602.30
666.47	598.19
666.81	593.98
667.15	589.87
667.49	585.89
667.83	582.01
668.17	578.04
668.51	573.97
668.85	569.89
669.19	566.03
669.53	562.25
669.87	558.39
670.21	554.64
670.55	551.00
670.89	547.59
671.23	544.16
671.57	540.60
671.91	537.05
672.25	533.48
672.58	529.96
672.92	526.50
673.26	523.25
673.60	520.14
673.94	517.08
674.28	514.06
674.62	511.11
674.96	508.06
675.30	505.19
675.64	502.25
675.97	499.49
676.31	496.61
676.65	493.65
676.99	490.91
677.33	488.10
677.67	485.28
678.01	482.21
678.34	479.24
678.68	476.42
679.02	473.65
679.36	470.84
679.70	468.11
680.04	465.34
680.37	462.50
680.71	459.67
681.05	456.99
681.39	454.32
681.73	451.66
682.06	449.11
682.40	446.54
682.74	443.95
683.08	441.39
683.42	438.82
683.75	436.36
684.09	433.75
684.43	431.31
684.77	428.76
685.10	426.39
685.44	424.08
685.78	421.79
686.12	419.49
686.45	417.21
686.79	414.89
687.13	412.67
687.46	410.50
687.80	408.34
688.14	406.15
688.48	404.13
688.81	401.94
689.15	399.75
689.49	397.62
689.82	395.55
690.16	393.43
690.50	391.44
690.83	389.48
691.17	387.54
691.51	385.59
691.84	383.77
692.18	381.87
692.52	379.92
692.85	377.97
693.19	376.06
693.52	374.25
693.86	372.42
694.20	370.66
694.53	368.87
694.87	366.97
695.21	365.15
695.54	363.29
695.88	361.50
696.21	359.82
696.55	358.12
696.88	356.43
697.22	354.79
697.56	353.14
697.89	351.49
698.23	349.92
698.56	348.32
698.90	346.79
699.23	345.17
699.57	343.55
699.90	342.01
700.24	340.51
700.58	338.98
700.91	337.53
701.25	336.10
701.58	334.76
701.92	333.45
702.25	332.12
702.59	330.78
702.92	329.51
703.26	328.20
703.59	326.94
703.93	325.77
704.26	324.54
704.60	323.25
704.93	321.97
705.26	320.68
705.60	319.52
705.93	318.30
706.27	317.27
706.60	316.27
706.94	315.23
707.27	314.13
707.61	313.06
707.94	312.02
708.27	310.93
708.61	309.82
708.94	308.81
709.28	307.80
709.61	306.83
709.94	305.86
710.28	304.81
710.61	303.81
710.95	302.72
711.28	301.79
711.61	300.86
711.95	299.94
712.28	299.04
712.61	298.04
712.95	297.11
713.28	296.25
713.61	295.29
713.95	294.38
714.28	293.47
714.61	292.65
714.95	291.79
715.28	290.91
715.61	290.05
715.95	289.18
716.28	288.28
716.61	287.47
716.95	286.62
717.28	285.85
717.61	285.08
717.94	284.38
718.28	283.58
718.61	282.86
718.94	282.14
719.27	281.46
719.61	280.84
719.94	280.19
720.27	279.43
720.60	278.78
720.94	278.15
721.27	277.58
721.60	276.98
721.93	276.40
722.27	275.86
722.60	275.31
722.93	274.74
723.26	274.25
723.59	273.68
723.93	273.13
724.26	272.63
724.59	272.06
724.92	271.50
725.25	271.05
725.59	270.52
725.92	270.00
726.25	269.44
726.58	268.92
726.91	268.40
727.24	267.94
727.57	267.48
727.91	266.97
728.24	266.49
728.57	265.98
728.90	265.52
729.23	265.03
729.56	264.57
729.89	264.09
730.22	263.60
730.55	263.11
730.89	262.68
731.22	262.24
731.55	261.80
731.88	261.36
732.21	260.93
732.54	260.52
732.87	260.11
733.20	259.74
733.53	259.37
733.86	259.01
734.19	258.58
734.52	258.23
734.85	257.94
735.18	257.56
735.51	257.20
735.84	256.84
736.17	256.49
736.50	256.10
736.83	255.90
737.16	255.57
737.49	255.26
737.82	254.92
738.15	254.57
738.48	254.23
738.81	253.92
739.14	253.58
739.47	253.27
739.80	252.98
740.13	252.68
740.46	252.37
740.79	252.04
741.12	251.75
741.45	251.43
741.78	251.06
742.11	250.73
742.44	250.41
742.77	250.11
743.10	249.84
743.43	249.55
743.75	249.18
744.08	249.05
744.41	248.78
744.74	248.51
745.07	248.23
745.40	248.01
745.73	247.75
746.06	247.49
746.39	247.19
746.71	246.90
747.04	246.67
747.37	246.40
747.70	246.13
748.03	245.92
748.36	245.67
748.68	245.47
749.01	245.23
749.34	245.03
749.67	244.84
750.00	244.60
750.33	244.46
750.65	244.22
750.98	243.89
751.31	243.68
751.64	243.47
751.97	243.31
752.29	243.06
752.62	242.82
752.95	242.61
753.28	242.42
753.60	242.24
753.93	241.99
754.26	241.78
754.59	241.57
754.91	241.32
755.24	241.13
755.57	240.90
755.90	240.73
756.22	240.51
756.55	240.29
756.88	240.10
757.20	239.83
757.53	239.67
757.86	239.43
758.19	239.26
758.51	239.07
758.84	238.86
759.17	238.69
759.49	238.55
759.82	238.41
760.15	238.24
760.47	238.07
760.80	237.91
761.13	237.77
761.45	237.63
761.78	237.47
762.11	237.31
762.43	237.17
762.76	237.00
763.08	236.87
763.41	236.73
763.74	236.60
764.06	236.46
764.39	236.29
764.71	236.15
765.04	236.01
765.37	235.88
765.69	235.77
766.02	235.62
766.34	235.48
766.67	235.34
767.00	235.26
767.32	235.18
767.65	235.10
767.97	234.98
768.30	234.86
768.62	234.76
768.95	234.66
769.27	234.52
769.60	234.44
769.92	234.31
770.25	234.19
770.57	234.05
770.90	233.98
771.22	233.87
771.55	233.80
771.87	233.68
772.20	233.61
772.52	233.60
772.85	233.66
773.17	233.57
773.50	233.47
773.82	233.35
774.15	233.27
774.47	233.16
774.80	233.07
775.12	233.02
775.45	232.94
775.77	232.86
776.09	232.83
776.42	232.77
776.74	232.74
777.07	232.64
777.39	232.56
777.72	232.49
778.04	232.42
778.36	232.33
778.69	232.27
779.01	232.19
779.33	232.00
779.66	231.82
779.98	231.72
780.31	231.67
780.63	231.65
780.95	231.56
781.28	231.51
781.60	231.50
781.92	231.45
782.25	231.41
782.57	231.34
782.89	231.27
783.22	231.20
783.54	231.10
783.86	231.08
784.19	231.00
784.51	230.96
784.83	230.91
785.16	230.88
785.48	230.84
785.80	230.78
786.12	230.75
786.45	230.73
786.77	230.71
787.09	230.65
