SpectraSuite Data File
++++++++++++++++++++++++++++++++++++
Date: Fri Feb 01 15:37:23 EST 2013
User: group
Dark Spectrum Present: No
Reference Spectrum Present: No
Number of Sampled Component Spectra: 1
Spectrometers: USB2E7196
Integration Time (usec): 35000 (USB2E7196)
Spectra Averaged: 100 (USB2E7196)
Boxcar Smoothing: 10 (USB2E7196)
Correct for Electrical Dark: No (USB2E7196)
Strobe/Lamp Enabled: No (USB2E7196)
Correct for Detector Non-linearity: No (USB2E7196)
Correct for Stray Light: No (USB2E7196)
Number of Pixels in Processed Spectrum: 2048
>>>>>Begin Processed Spectral Data<<<<<
339.09	0.00
339.48	214.58
339.86	216.19
340.24	217.12
340.63	219.03
341.01	221.45
341.39	221.69
341.78	223.06
342.16	224.56
342.54	224.65
342.93	213.12
343.31	223.88
343.69	224.45
344.07	224.94
344.46	225.41
344.84	225.76
345.22	226.01
345.60	226.27
345.99	226.46
346.37	226.61
346.75	226.72
347.13	226.79
347.52	226.86
347.90	226.95
348.28	226.96
348.66	227.04
349.05	227.01
349.43	227.06
349.81	227.14
350.19	227.17
350.57	227.24
350.96	227.36
351.34	227.47
351.72	227.50
352.10	227.60
352.48	227.66
352.87	227.76
353.25	227.86
353.63	227.92
354.01	228.02
354.39	228.08
354.77	228.16
355.15	228.25
355.54	228.29
355.92	228.34
356.30	228.40
356.68	228.52
357.06	228.60
357.44	228.64
357.82	228.70
358.20	228.79
358.58	228.83
358.97	228.88
359.35	228.92
359.73	229.03
360.11	229.09
360.49	229.17
360.87	229.20
361.25	229.22
361.63	229.30
362.01	229.30
362.39	229.32
362.77	229.34
363.15	229.36
363.53	229.38
363.91	229.38
364.29	229.41
364.67	229.31
365.05	229.29
365.43	229.34
365.81	229.34
366.19	229.37
366.57	229.42
366.95	229.40
367.33	229.36
367.71	229.34
368.09	229.33
368.47	229.30
368.85	229.26
369.23	229.24
369.61	229.19
369.99	229.21
370.37	229.18
370.75	229.21
371.13	229.15
371.51	229.14
371.89	229.11
372.27	229.07
372.65	229.05
373.03	229.03
373.41	228.96
373.78	228.91
374.16	228.80
374.54	228.70
374.92	228.65
375.30	228.61
375.68	228.56
376.06	228.46
376.44	228.38
376.82	228.32
377.19	228.25
377.57	228.18
377.95	228.04
378.33	227.97
378.71	227.82
379.09	227.74
379.47	227.66
379.84	227.57
380.22	227.47
380.60	227.40
380.98	227.31
381.36	227.21
381.73	227.12
382.11	227.07
382.49	227.00
382.87	226.86
383.25	226.81
383.62	226.86
384.00	226.83
384.38	226.79
384.76	226.75
385.13	226.77
385.51	226.69
385.89	226.66
386.27	226.65
386.64	226.66
387.02	226.60
387.40	226.55
387.78	226.54
388.15	226.51
388.53	226.44
388.91	226.45
389.29	226.44
389.66	226.44
390.04	226.42
390.42	226.40
390.79	226.48
391.17	226.46
391.55	226.31
391.92	226.30
392.30	226.30
392.68	226.30
393.05	226.26
393.43	226.28
393.81	226.29
394.18	226.28
394.56	226.28
394.94	226.33
395.31	226.35
395.69	226.41
396.06	226.45
396.44	226.53
396.82	226.51
397.19	226.62
397.57	226.64
397.95	226.71
398.32	226.78
398.70	226.83
399.07	226.93
399.45	226.95
399.82	227.03
400.20	227.06
400.58	227.11
400.95	227.17
401.33	227.26
401.70	227.44
402.08	227.51
402.45	227.61
402.83	227.70
403.20	227.84
403.58	227.92
403.95	228.07
404.33	228.20
404.71	228.36
405.08	228.51
405.46	228.64
405.83	228.80
406.21	228.91
406.58	229.07
406.96	229.18
407.33	229.40
407.70	229.59
408.08	229.89
408.45	230.12
408.83	230.36
409.20	230.58
409.58	230.74
409.95	231.01
410.33	231.30
410.70	231.59
411.08	231.86
411.45	232.17
411.82	232.46
412.20	232.81
412.57	233.21
412.95	233.51
413.32	233.94
413.69	234.32
414.07	234.75
414.44	235.23
414.82	235.71
415.19	236.24
415.56	236.78
415.94	237.33
416.31	237.98
416.68	238.60
417.06	239.33
417.43	239.98
417.81	240.73
418.18	241.49
418.55	242.32
418.93	243.21
419.30	244.12
419.67	245.04
420.04	246.01
420.42	246.97
420.79	248.14
421.16	249.28
421.54	250.48
421.91	251.73
422.28	252.95
422.66	254.33
423.03	255.64
423.40	256.97
423.77	258.36
424.15	259.78
424.52	261.25
424.89	262.86
425.26	264.44
425.64	265.91
426.01	267.49
426.38	269.13
426.75	270.78
427.13	272.48
427.50	274.29
427.87	276.20
428.24	278.10
428.61	279.83
428.99	281.79
429.36	283.90
429.73	285.95
430.10	287.99
430.47	290.02
430.85	292.14
431.22	294.39
431.59	296.78
431.96	299.05
432.33	301.55
432.70	303.91
433.08	306.72
433.45	309.36
433.82	311.95
434.19	314.84
434.56	317.69
434.93	320.35
435.30	322.98
435.68	325.82
436.05	328.65
436.42	331.45
436.79	333.97
437.16	336.62
437.53	339.44
437.90	342.26
438.27	345.00
438.64	347.83
439.01	350.42
439.38	352.66
439.75	354.87
440.13	357.37
440.50	359.70
440.87	361.53
441.24	363.44
441.61	365.64
441.98	367.13
442.35	368.90
442.72	370.75
443.09	372.57
443.46	373.60
443.83	374.20
444.20	374.73
444.57	375.58
444.94	375.92
445.31	376.25
445.68	376.59
446.05	376.65
446.42	376.27
446.79	375.86
447.16	375.41
447.53	375.04
447.90	373.87
448.27	372.75
448.64	371.15
449.01	370.02
449.37	368.05
449.74	366.17
450.11	363.92
450.48	361.48
450.85	358.96
451.22	356.77
451.59	354.73
451.96	352.76
452.33	350.10
452.70	347.73
453.07	344.91
453.43	342.03
453.80	339.29
454.17	336.60
454.54	334.07
454.91	331.33
455.28	328.67
455.65	326.17
456.02	323.71
456.38	321.62
456.75	318.96
457.12	316.70
457.49	314.50
457.86	312.34
458.23	310.45
458.59	308.41
458.96	306.33
459.33	304.51
459.70	302.68
460.07	301.17
460.43	299.47
460.80	297.83
461.17	296.37
461.54	294.89
461.91	293.48
462.27	292.00
462.64	290.72
463.01	289.34
463.38	288.04
463.74	286.65
464.11	285.44
464.48	284.45
464.85	283.33
465.21	282.44
465.58	281.47
465.95	280.37
466.32	279.40
466.68	278.49
467.05	277.55
467.42	276.65
467.78	275.75
468.15	274.85
468.52	274.22
468.88	273.38
469.25	272.58
469.62	271.96
469.98	271.30
470.35	270.69
470.72	270.11
471.08	269.46
471.45	268.95
471.82	268.41
472.18	267.77
472.55	267.36
472.92	266.79
473.28	266.35
473.65	265.91
474.02	265.51
474.38	265.14
474.75	264.82
475.11	264.47
475.48	264.19
475.85	263.97
476.21	263.71
476.58	263.51
476.94	263.37
477.31	263.18
477.67	263.00
478.04	262.87
478.41	262.82
478.77	262.84
479.14	262.73
479.50	262.72
479.87	262.79
480.23	262.88
480.60	262.98
480.96	263.09
481.33	263.30
481.69	263.50
482.06	263.72
482.42	263.90
482.79	264.18
483.15	264.51
483.52	264.90
483.88	265.23
484.25	265.65
484.61	266.07
484.98	266.51
485.34	267.09
485.71	267.71
486.07	268.34
486.44	268.90
486.80	269.62
487.17	270.36
487.53	271.20
487.90	272.04
488.26	272.97
488.62	273.95
488.99	274.91
489.35	275.94
489.72	277.07
490.08	278.27
490.44	279.48
490.81	280.79
491.17	282.10
491.54	283.60
491.90	285.09
492.26	286.73
492.63	288.51
492.99	290.30
493.36	292.14
493.72	294.15
494.08	296.28
494.45	298.54
494.81	300.90
495.17	303.34
495.54	305.90
495.90	308.57
496.26	311.38
496.63	314.33
496.99	317.48
497.35	320.73
497.72	324.15
498.08	327.68
498.44	331.37
498.80	335.35
499.17	339.35
499.53	343.57
499.89	347.97
500.26	352.43
500.62	357.09
500.98	362.10
501.34	367.17
501.71	372.52
502.07	377.98
502.43	383.62
502.79	389.44
503.16	395.54
503.52	401.81
503.88	408.20
504.24	414.89
504.60	421.78
504.97	428.89
505.33	436.25
505.69	443.97
506.05	451.79
506.41	459.61
506.78	467.78
507.14	476.19
507.50	484.88
507.86	493.96
508.22	503.17
508.59	512.33
508.95	521.92
509.31	531.68
509.67	541.82
510.03	552.11
510.39	562.66
510.75	573.47
511.12	584.50
511.48	595.79
511.84	607.28
512.20	618.76
512.56	630.76
512.92	642.94
513.28	655.30
513.64	667.78
514.00	680.53
514.37	693.49
514.73	706.59
515.09	719.61
515.45	732.96
515.81	746.57
516.17	760.57
516.53	774.64
516.89	788.84
517.25	803.02
517.61	817.38
517.97	831.83
518.33	846.25
518.69	860.94
519.05	875.99
519.41	891.17
519.77	906.69
520.13	922.10
520.49	937.48
520.85	952.89
521.21	968.66
521.57	984.87
521.93	1000.64
522.29	1016.95
522.65	1033.27
523.01	1049.43
523.37	1065.44
523.73	1081.59
524.09	1097.72
524.45	1114.05
524.81	1130.74
525.17	1147.58
525.53	1164.46
525.89	1181.28
526.25	1198.09
526.61	1214.45
526.97	1231.15
527.33	1247.63
527.68	1264.30
528.04	1280.80
528.40	1297.43
528.76	1314.45
529.12	1331.08
529.48	1347.96
529.84	1364.08
530.20	1380.68
530.56	1397.71
530.91	1415.24
531.27	1432.17
531.63	1448.73
531.99	1465.40
532.35	1481.34
532.71	1497.27
533.07	1513.54
533.42	1529.52
533.78	1545.55
534.14	1561.86
534.50	1577.33
534.86	1593.28
535.21	1608.43
535.57	1624.40
535.93	1639.74
536.29	1654.52
536.65	1669.70
537.00	1684.59
537.36	1699.87
537.72	1714.44
538.08	1728.87
538.44	1742.55
538.79	1756.38
539.15	1770.01
539.51	1783.74
539.87	1798.14
540.22	1811.97
540.58	1825.79
540.94	1839.12
541.29	1852.18
541.65	1864.95
542.01	1878.04
542.37	1890.40
542.72	1902.91
543.08	1914.63
543.44	1927.16
543.79	1938.43
544.15	1949.36
544.51	1960.92
544.87	1972.00
545.22	1982.88
545.58	1993.10
545.94	2002.95
546.29	2012.79
546.65	2022.67
547.01	2031.81
547.36	2040.41
547.72	2048.83
548.07	2056.67
548.43	2064.85
548.79	2072.84
549.14	2080.33
549.50	2087.83
549.86	2095.67
550.21	2103.09
550.57	2110.13
550.92	2116.74
551.28	2123.76
551.64	2130.84
551.99	2137.33
552.35	2143.39
552.70	2149.48
553.06	2155.43
553.41	2161.78
553.77	2167.81
554.13	2173.94
554.48	2180.25
554.84	2185.75
555.19	2191.13
555.55	2196.27
555.90	2200.80
556.26	2205.71
556.61	2210.48
556.97	2214.47
557.32	2218.41
557.68	2222.48
558.03	2226.96
558.39	2230.68
558.74	2235.35
559.10	2239.18
559.45	2242.75
559.81	2247.04
560.16	2250.98
560.52	2254.30
560.87	2257.72
561.23	2260.42
561.58	2263.39
561.94	2265.83
562.29	2268.45
562.64	2270.93
563.00	2273.59
563.35	2277.09
563.71	2280.14
564.06	2283.38
564.42	2286.39
564.77	2288.87
565.12	2291.14
565.48	2292.99
565.83	2294.84
566.19	2296.04
566.54	2297.00
566.89	2298.12
567.25	2298.62
567.60	2299.85
567.96	2301.48
568.31	2302.19
568.66	2303.19
569.02	2303.75
569.37	2304.11
569.72	2304.76
570.08	2304.99
570.43	2304.97
570.78	2304.25
571.14	2302.74
571.49	2301.41
571.84	2301.03
572.20	2299.82
572.55	2298.60
572.90	2297.11
573.26	2295.77
573.61	2294.13
573.96	2292.28
574.31	2289.31
574.67	2286.29
575.02	2282.55
575.37	2279.02
575.72	2275.21
576.08	2271.90
576.43	2268.35
576.78	2264.55
577.13	2261.33
577.49	2258.17
577.84	2254.59
578.19	2250.95
578.54	2247.24
578.90	2242.84
579.25	2237.31
579.60	2232.37
579.95	2227.32
580.30	2222.19
580.66	2216.82
581.01	2211.84
581.36	2206.87
581.71	2202.76
582.06	2198.41
582.42	2193.98
582.77	2188.77
583.12	2184.20
583.47	2179.42
583.82	2174.46
584.17	2169.17
584.53	2163.54
584.88	2157.81
585.23	2152.09
585.58	2146.42
585.93	2140.87
586.28	2136.15
586.63	2131.03
586.98	2125.97
587.34	2121.25
587.69	2116.30
588.04	2110.97
588.39	2105.39
588.74	2098.94
589.09	2092.80
589.44	2085.81
589.79	2079.73
590.14	2074.21
590.49	2067.61
590.84	2061.13
591.19	2055.04
591.54	2048.52
591.89	2041.12
592.25	2034.34
592.60	2027.04
592.95	2019.58
593.30	2012.29
593.65	2004.66
594.00	1997.65
594.35	1990.31
594.70	1982.21
595.05	1974.90
595.40	1967.63
595.75	1960.02
596.10	1953.62
596.45	1946.64
596.80	1940.63
597.15	1934.02
597.50	1926.72
597.85	1920.34
598.19	1913.69
598.54	1906.51
598.89	1899.98
599.24	1894.11
599.59	1887.36
599.94	1881.19
600.29	1874.82
600.64	1868.09
600.99	1860.54
601.34	1853.55
601.69	1846.63
602.04	1839.78
602.39	1832.41
602.74	1825.56
603.08	1818.68
603.43	1812.09
603.78	1804.84
604.13	1797.51
604.48	1790.05
604.83	1783.20
605.18	1775.96
605.53	1767.94
605.87	1759.97
606.22	1752.61
606.57	1744.57
606.92	1737.26
607.27	1729.97
607.62	1723.03
607.96	1715.83
608.31	1709.16
608.66	1701.59
609.01	1693.91
609.36	1686.25
609.70	1678.32
610.05	1670.22
610.40	1662.50
610.75	1654.13
611.10	1646.42
611.44	1638.03
611.79	1630.08
612.14	1621.30
612.49	1612.31
612.83	1603.96
613.18	1595.91
613.53	1587.91
613.88	1579.46
614.22	1571.15
614.57	1562.68
614.92	1554.56
615.27	1547.04
615.61	1538.72
615.96	1530.71
616.31	1523.13
616.65	1515.84
617.00	1508.26
617.35	1500.73
617.70	1492.42
618.04	1483.98
618.39	1475.86
618.74	1468.34
619.08	1460.16
619.43	1452.69
619.78	1445.79
620.12	1438.58
620.47	1431.07
620.82	1422.87
621.16	1415.52
621.51	1407.90
621.85	1400.17
622.20	1391.67
622.55	1383.27
622.89	1375.40
623.24	1367.75
623.59	1360.32
623.93	1352.79
624.28	1345.59
624.62	1338.02
624.97	1330.81
625.32	1324.03
625.66	1317.02
626.01	1309.72
626.35	1302.26
626.70	1294.49
627.04	1286.71
627.39	1278.97
627.73	1271.50
628.08	1264.64
628.43	1257.19
628.77	1249.84
629.12	1242.14
629.46	1235.00
629.81	1227.63
630.15	1220.45
630.50	1213.05
630.84	1204.82
631.19	1196.95
631.53	1189.48
631.88	1181.90
632.22	1174.37
632.57	1167.04
632.91	1159.38
633.26	1151.96
633.60	1144.52
633.95	1137.46
634.29	1130.48
634.64	1123.79
634.98	1116.47
635.32	1109.16
635.67	1102.62
636.01	1096.04
636.36	1089.43
636.70	1082.95
637.05	1076.34
637.39	1069.91
637.73	1063.41
638.08	1057.64
638.42	1051.55
638.77	1045.01
639.11	1038.47
639.45	1032.08
639.80	1025.44
640.14	1018.96
640.49	1012.36
640.83	1006.03
641.17	999.73
641.52	993.36
641.86	986.85
642.20	980.91
642.55	974.71
642.89	968.25
643.23	961.70
643.58	955.98
643.92	949.65
644.26	943.57
644.61	937.50
644.95	931.49
645.29	924.85
645.64	918.14
645.98	911.80
646.32	905.88
646.66	899.90
647.01	894.09
647.35	888.50
647.69	882.75
648.04	877.27
648.38	871.51
648.72	865.49
649.06	859.45
649.41	853.55
649.75	847.47
650.09	841.56
650.43	835.79
650.78	829.50
651.12	823.63
651.46	817.88
651.80	812.13
652.14	806.77
652.49	801.44
652.83	796.34
653.17	790.60
653.51	784.86
653.85	779.36
654.20	773.77
654.54	767.73
654.88	761.98
655.22	756.15
655.56	750.46
655.90	745.07
656.25	739.89
656.59	734.64
656.93	729.59
657.27	724.42
657.61	718.96
657.95	713.90
658.29	708.81
658.64	703.63
658.98	698.26
659.32	692.79
659.66	687.59
660.00	682.25
660.34	677.39
660.68	672.53
661.02	667.55
661.36	662.76
661.70	658.28
662.05	653.94
662.39	649.57
662.73	645.15
663.07	640.74
663.41	636.34
663.75	631.72
664.09	627.17
664.43	622.78
664.77	618.74
665.11	614.53
665.45	610.41
665.79	606.27
666.13	602.21
666.47	598.13
666.81	593.98
667.15	589.85
667.49	585.91
667.83	582.16
668.17	578.21
668.51	574.16
668.85	570.17
669.19	566.34
669.53	562.47
669.87	558.54
670.21	554.87
670.55	551.16
670.89	547.83
671.23	544.45
671.57	540.93
671.91	537.33
672.25	533.85
672.58	530.36
672.92	526.98
673.26	523.87
673.60	520.70
673.94	517.58
674.28	514.66
674.62	511.73
674.96	508.56
675.30	505.72
675.64	502.80
675.97	500.05
676.31	497.19
676.65	494.27
676.99	491.58
677.33	488.73
677.67	485.93
678.01	482.90
678.34	479.92
678.68	477.08
679.02	474.24
679.36	471.47
679.70	468.74
680.04	465.95
680.37	463.04
680.71	460.22
681.05	457.60
681.39	454.91
681.73	452.21
682.06	449.73
682.40	447.13
682.74	444.61
683.08	442.06
683.42	439.43
683.75	436.92
684.09	434.35
684.43	431.86
684.77	429.43
685.10	427.12
685.44	424.84
685.78	422.53
686.12	420.28
686.45	417.98
686.79	415.68
687.13	413.51
687.46	411.34
687.80	409.21
688.14	407.03
688.48	404.95
688.81	402.75
689.15	400.62
689.49	398.49
689.82	396.41
690.16	394.31
690.50	392.39
690.83	390.45
691.17	388.50
691.51	386.58
691.84	384.73
692.18	382.79
692.52	380.80
692.85	378.88
693.19	377.03
693.52	375.25
693.86	373.42
694.20	371.64
694.53	369.84
694.87	367.97
695.21	366.20
695.54	364.40
695.88	362.69
696.21	360.94
696.55	359.28
696.88	357.54
697.22	355.91
697.56	354.29
697.89	352.61
698.23	351.05
698.56	349.49
698.90	347.84
699.23	346.19
699.57	344.60
699.90	343.05
700.24	341.49
700.58	339.93
700.91	338.47
701.25	337.04
701.58	335.65
701.92	334.29
702.25	332.89
702.59	331.53
702.92	330.24
703.26	328.95
703.59	327.63
703.93	326.51
704.26	325.24
704.60	323.91
704.93	322.69
705.26	321.43
705.60	320.22
705.93	319.07
706.27	318.06
706.60	317.02
706.94	315.94
707.27	314.86
707.61	313.81
707.94	312.79
708.27	311.71
708.61	310.63
708.94	309.66
709.28	308.70
709.61	307.72
709.94	306.77
710.28	305.75
710.61	304.79
710.95	303.71
711.28	302.80
711.61	301.88
711.95	300.96
712.28	300.02
712.61	299.07
712.95	298.19
713.28	297.29
713.61	296.41
713.95	295.52
714.28	294.67
714.61	293.78
714.95	292.92
715.28	292.05
715.61	291.24
715.95	290.39
716.28	289.53
716.61	288.70
716.95	287.88
717.28	287.15
717.61	286.39
717.94	285.65
718.28	284.86
718.61	284.15
718.94	283.52
719.27	282.87
719.61	282.22
719.94	281.58
720.27	280.86
720.60	280.20
720.94	279.61
721.27	278.99
721.60	278.43
721.93	277.83
722.27	277.23
722.60	276.64
722.93	276.05
723.26	275.53
723.59	274.98
723.93	274.41
724.26	273.84
724.59	273.29
724.92	272.77
725.25	272.29
725.59	271.78
725.92	271.20
726.25	270.66
726.58	270.14
726.91	269.60
727.24	269.14
727.57	268.65
727.91	268.12
728.24	267.70
728.57	267.21
728.90	266.81
729.23	266.36
729.56	265.93
729.89	265.48
730.22	264.98
730.55	264.52
730.89	264.10
731.22	263.66
731.55	263.20
731.88	262.74
732.21	262.28
732.54	261.80
732.87	261.41
733.20	261.01
733.53	260.61
733.86	260.24
734.19	259.80
734.52	259.43
734.85	259.10
735.18	258.66
735.51	258.29
735.84	257.86
736.17	257.53
736.50	257.13
736.83	256.89
737.16	256.57
737.49	256.20
737.82	255.84
738.15	255.50
738.48	255.21
738.81	254.92
739.14	254.63
739.47	254.30
739.80	253.96
740.13	253.65
740.46	253.34
740.79	253.01
741.12	252.73
741.45	252.42
741.78	252.10
742.11	251.80
742.44	251.45
742.77	251.19
743.10	250.84
743.43	250.55
743.75	250.16
744.08	249.98
744.41	249.73
744.74	249.47
745.07	249.18
745.40	248.92
745.73	248.69
746.06	248.39
746.39	248.18
746.71	247.92
747.04	247.68
747.37	247.42
747.70	247.19
748.03	246.94
748.36	246.73
748.68	246.50
749.01	246.23
749.34	246.01
749.67	245.77
750.00	245.58
750.33	245.38
750.65	245.16
750.98	244.85
751.31	244.62
751.64	244.41
751.97	244.26
752.29	244.05
752.62	243.77
752.95	243.56
753.28	243.32
753.60	243.14
753.93	242.95
754.26	242.77
754.59	242.56
754.91	242.35
755.24	242.14
755.57	241.94
755.90	241.79
756.22	241.63
756.55	241.44
756.88	241.23
757.20	241.03
757.53	240.83
757.86	240.65
758.19	240.53
758.51	240.35
758.84	240.15
759.17	239.98
759.49	239.83
759.82	239.72
760.15	239.59
760.47	239.44
760.80	239.26
761.13	239.10
761.45	238.94
761.78	238.82
762.11	238.70
762.43	238.54
762.76	238.37
763.08	238.23
763.41	238.10
763.74	238.03
764.06	237.88
764.39	237.76
764.71	237.63
765.04	237.48
765.37	237.36
765.69	237.23
766.02	237.10
766.34	236.97
766.67	236.82
767.00	236.74
767.32	236.69
767.65	236.64
767.97	236.56
768.30	236.43
768.62	236.32
768.95	236.21
769.27	236.08
769.60	236.00
769.92	235.91
770.25	235.78
770.57	235.64
770.90	235.54
771.22	235.43
771.55	235.33
771.87	235.24
772.20	235.12
772.52	235.09
772.85	235.11
773.17	235.02
773.50	234.94
773.82	234.82
774.15	234.66
774.47	234.50
774.80	234.43
775.12	234.35
775.45	234.25
775.77	234.14
776.09	234.11
776.42	234.06
776.74	233.97
777.07	233.90
777.39	233.85
777.72	233.77
778.04	233.72
778.36	233.68
778.69	233.63
779.01	233.59
779.33	233.46
779.66	233.28
779.98	233.19
780.31	233.13
780.63	233.08
780.95	233.04
781.28	232.97
781.60	232.87
781.92	232.80
782.25	232.71
782.57	232.65
782.89	232.57
783.22	232.48
783.54	232.43
783.86	232.38
784.19	232.27
784.51	232.24
784.83	232.18
785.16	232.07
785.48	232.02
785.80	231.97
786.12	231.93
786.45	231.85
786.77	231.83
787.09	231.75
