SpectraSuite Data File
++++++++++++++++++++++++++++++++++++
Date: Fri Feb 01 18:12:11 EST 2013
User: group
Dark Spectrum Present: No
Reference Spectrum Present: No
Number of Sampled Component Spectra: 1
Spectrometers: USB2E7196
Integration Time (usec): 35000 (USB2E7196)
Spectra Averaged: 100 (USB2E7196)
Boxcar Smoothing: 10 (USB2E7196)
Correct for Electrical Dark: No (USB2E7196)
Strobe/Lamp Enabled: No (USB2E7196)
Correct for Detector Non-linearity: No (USB2E7196)
Correct for Stray Light: No (USB2E7196)
Number of Pixels in Processed Spectrum: 2048
>>>>>Begin Processed Spectral Data<<<<<
339.09	0.00
339.48	212.94
339.86	214.23
340.24	215.84
340.63	217.51
341.01	220.22
341.39	219.95
341.78	221.29
342.16	222.44
342.54	222.68
342.93	211.52
343.31	222.21
343.69	222.78
344.07	223.25
344.46	223.67
344.84	224.05
345.22	224.29
345.60	224.55
345.99	224.77
346.37	224.90
346.75	225.04
347.13	225.12
347.52	225.18
347.90	225.24
348.28	225.31
348.66	225.34
349.05	225.37
349.43	225.35
349.81	225.40
350.19	225.50
350.57	225.59
350.96	225.66
351.34	225.75
351.72	225.82
352.10	225.93
352.48	226.02
352.87	226.05
353.25	226.11
353.63	226.16
354.01	226.20
354.39	226.29
354.77	226.34
355.15	226.45
355.54	226.53
355.92	226.58
356.30	226.62
356.68	226.73
357.06	226.78
357.44	226.88
357.82	226.94
358.20	226.98
358.58	227.03
358.97	227.12
359.35	227.19
359.73	227.30
360.11	227.37
360.49	227.46
360.87	227.53
361.25	227.59
361.63	227.65
362.01	227.69
362.39	227.74
362.77	227.80
363.15	227.78
363.53	227.79
363.91	227.80
364.29	227.84
364.67	227.78
365.05	227.78
365.43	227.83
365.81	227.84
366.19	227.90
366.57	227.94
366.95	227.88
367.33	227.87
367.71	227.83
368.09	227.81
368.47	227.76
368.85	227.71
369.23	227.72
369.61	227.71
369.99	227.71
370.37	227.68
370.75	227.69
371.13	227.63
371.51	227.58
371.89	227.59
372.27	227.54
372.65	227.51
373.03	227.49
373.41	227.41
373.78	227.35
374.16	227.23
374.54	227.11
374.92	227.10
375.30	227.02
375.68	226.95
376.06	226.89
376.44	226.83
376.82	226.80
377.19	226.72
377.57	226.60
377.95	226.50
378.33	226.41
378.71	226.29
379.09	226.26
379.47	226.19
379.84	226.12
380.22	226.04
380.60	225.94
380.98	225.85
381.36	225.77
381.73	225.69
382.11	225.62
382.49	225.58
382.87	225.50
383.25	225.46
383.62	225.49
384.00	225.43
384.38	225.36
384.76	225.32
385.13	225.33
385.51	225.31
385.89	225.25
386.27	225.25
386.64	225.26
387.02	225.18
387.40	225.16
387.78	225.14
388.15	225.13
388.53	225.12
388.91	225.08
389.29	225.08
389.66	225.07
390.04	225.05
390.42	225.03
390.79	225.02
391.17	225.02
391.55	224.95
391.92	224.95
392.30	224.96
392.68	224.95
393.05	224.93
393.43	224.96
393.81	225.01
394.18	224.96
394.56	224.96
394.94	225.05
395.31	225.07
395.69	225.11
396.06	225.12
396.44	225.16
396.82	225.23
397.19	225.31
397.57	225.36
397.95	225.45
398.32	225.49
398.70	225.53
399.07	225.57
399.45	225.61
399.82	225.68
400.20	225.73
400.58	225.77
400.95	225.84
401.33	225.90
401.70	226.02
402.08	226.14
402.45	226.23
402.83	226.34
403.20	226.47
403.58	226.58
403.95	226.72
404.33	226.87
404.71	227.02
405.08	227.22
405.46	227.41
405.83	227.57
406.21	227.77
406.58	228.01
406.96	228.24
407.33	228.45
407.70	228.71
408.08	229.05
408.45	229.35
408.83	229.65
409.20	229.96
409.58	230.19
409.95	230.51
410.33	230.88
410.70	231.19
411.08	231.59
411.45	231.99
411.82	232.42
412.20	232.87
412.57	233.36
412.95	233.75
413.32	234.27
413.69	234.81
414.07	235.38
414.44	236.01
414.82	236.66
415.19	237.41
415.56	238.13
415.94	238.87
416.31	239.75
416.68	240.60
417.06	241.60
417.43	242.53
417.81	243.66
418.18	244.71
418.55	245.88
418.93	247.09
419.30	248.35
419.67	249.63
420.04	250.99
420.42	252.42
420.79	254.07
421.16	255.67
421.54	257.32
421.91	259.03
422.28	260.81
422.66	262.63
423.03	264.45
423.40	266.36
423.77	268.36
424.15	270.39
424.52	272.49
424.89	274.74
425.26	276.91
425.64	278.94
426.01	281.17
426.38	283.48
426.75	285.80
427.13	288.20
427.50	290.77
427.87	293.40
428.24	296.02
428.61	298.50
428.99	301.24
429.36	304.27
429.73	307.21
430.10	310.03
430.47	313.00
430.85	315.97
431.22	319.08
431.59	322.36
431.96	325.49
432.33	328.98
432.70	332.32
433.08	336.28
433.45	339.92
433.82	343.63
434.19	347.70
434.56	351.64
434.93	355.35
435.30	359.00
435.68	363.04
436.05	367.03
436.42	370.97
436.79	374.48
437.16	378.27
437.53	382.21
437.90	386.14
438.27	389.99
438.64	393.98
439.01	397.67
439.38	400.86
439.75	403.92
440.13	407.43
440.50	410.72
440.87	413.37
441.24	416.14
441.61	419.17
441.98	421.23
442.35	423.82
442.72	426.51
443.09	429.06
443.46	430.51
443.83	431.34
444.20	432.09
444.57	433.36
444.94	433.74
445.31	434.22
445.68	434.73
446.05	434.84
446.42	434.34
446.79	433.80
447.16	433.19
447.53	432.74
447.90	431.12
448.27	429.55
448.64	427.34
449.01	425.82
449.37	423.03
449.74	420.42
450.11	417.23
450.48	413.70
450.85	410.18
451.22	407.18
451.59	404.33
451.96	401.59
452.33	397.91
452.70	394.62
453.07	390.68
453.43	386.68
453.80	382.80
454.17	379.02
454.54	375.43
454.91	371.63
455.28	367.86
455.65	364.37
456.02	360.80
456.38	357.74
456.75	353.94
457.12	350.75
457.49	347.59
457.86	344.57
458.23	341.99
458.59	339.06
458.96	336.07
459.33	333.46
459.70	330.78
460.07	328.62
460.43	326.19
460.80	323.87
461.17	321.76
461.54	319.61
461.91	317.56
462.27	315.50
462.64	313.70
463.01	311.76
463.38	309.87
463.74	308.04
464.11	306.36
464.48	304.88
464.85	303.32
465.21	302.07
465.58	300.74
465.95	299.17
466.32	297.87
466.68	296.59
467.05	295.26
467.42	294.00
467.78	292.63
468.15	291.38
468.52	290.41
468.88	289.22
469.25	288.11
469.62	287.20
469.98	286.20
470.35	285.26
470.72	284.42
471.08	283.50
471.45	282.70
471.82	281.90
472.18	281.04
472.55	280.41
472.92	279.66
473.28	279.01
473.65	278.36
474.02	277.72
474.38	277.18
474.75	276.71
475.11	276.17
475.48	275.78
475.85	275.39
476.21	274.99
476.58	274.66
476.94	274.38
477.31	274.07
477.67	273.77
478.04	273.55
478.41	273.38
478.77	273.30
479.14	273.10
479.50	273.03
479.87	273.03
480.23	273.04
480.60	273.03
480.96	273.02
481.33	273.17
481.69	273.28
482.06	273.41
482.42	273.53
482.79	273.74
483.15	273.99
483.52	274.36
483.88	274.69
484.25	275.03
484.61	275.46
484.98	275.93
485.34	276.52
485.71	277.10
486.07	277.68
486.44	278.26
486.80	278.98
487.17	279.73
487.53	280.57
487.90	281.42
488.26	282.37
488.62	283.37
488.99	284.36
489.35	285.49
489.72	286.67
490.08	287.95
490.44	289.21
490.81	290.62
491.17	292.02
491.54	293.61
491.90	295.19
492.26	296.92
492.63	298.76
492.99	300.61
493.36	302.61
493.72	304.81
494.08	307.02
494.45	309.41
494.81	311.93
495.17	314.49
495.54	317.24
495.90	320.12
496.26	323.16
496.63	326.29
496.99	329.60
497.35	333.04
497.72	336.67
498.08	340.48
498.44	344.44
498.80	348.63
499.17	352.93
499.53	357.45
499.89	362.14
500.26	366.93
500.62	371.96
500.98	377.28
501.34	382.73
501.71	388.48
502.07	394.39
502.43	400.40
502.79	406.68
503.16	413.22
503.52	419.96
503.88	426.83
504.24	434.05
504.60	441.44
504.97	449.12
505.33	457.02
505.69	465.39
506.05	473.75
506.41	482.26
506.78	491.07
507.14	500.18
507.50	509.65
507.86	519.38
508.22	529.31
508.59	539.26
508.95	549.60
509.31	560.26
509.67	571.10
510.03	582.23
510.39	593.66
510.75	605.35
511.12	617.26
511.48	629.53
511.84	641.98
512.20	654.57
512.56	667.55
512.92	680.79
513.28	694.21
513.64	707.85
514.00	721.77
514.37	735.91
514.73	750.23
515.09	764.40
515.45	778.95
515.81	793.81
516.17	809.11
516.53	824.63
516.89	840.19
517.25	855.91
517.61	871.75
517.97	887.74
518.33	903.66
518.69	919.92
519.05	936.50
519.41	953.22
519.77	970.39
520.13	987.58
520.49	1004.63
520.85	1021.63
521.21	1038.99
521.57	1057.01
521.93	1074.60
522.29	1092.82
522.65	1111.02
523.01	1129.01
523.37	1147.07
523.73	1165.21
524.09	1183.22
524.45	1201.38
524.81	1219.96
525.17	1238.76
525.53	1257.61
525.89	1276.59
526.25	1295.63
526.61	1314.00
526.97	1332.85
527.33	1351.39
527.68	1370.04
528.04	1388.63
528.40	1407.44
528.76	1426.85
529.12	1445.63
529.48	1464.85
529.84	1483.01
530.20	1501.86
530.56	1521.27
530.91	1540.85
531.27	1560.00
531.63	1578.80
531.99	1597.79
532.35	1616.10
532.71	1634.59
533.07	1653.30
533.42	1671.72
533.78	1690.18
534.14	1709.08
534.50	1726.88
534.86	1745.28
535.21	1762.99
535.57	1781.53
535.93	1799.57
536.29	1816.80
536.65	1834.40
537.00	1851.42
537.36	1869.38
537.72	1886.45
538.08	1903.53
538.44	1919.88
538.79	1936.30
539.15	1952.35
539.51	1968.75
539.87	1985.66
540.22	2001.91
540.58	2018.36
540.94	2034.21
541.29	2049.64
541.65	2064.96
542.01	2080.92
542.37	2095.87
542.72	2110.84
543.08	2125.16
543.44	2140.23
543.79	2154.06
544.15	2167.43
544.51	2181.84
544.87	2195.39
545.22	2208.80
545.58	2221.40
545.94	2233.75
546.29	2246.25
546.65	2258.80
547.01	2270.50
547.36	2281.79
547.72	2292.69
548.07	2302.82
548.43	2313.18
548.79	2323.48
549.14	2333.22
549.50	2342.65
549.86	2352.54
550.21	2362.18
550.57	2371.70
550.92	2380.49
551.28	2389.68
551.64	2399.03
551.99	2407.57
552.35	2415.98
552.70	2424.47
553.06	2432.71
553.41	2441.18
553.77	2449.16
554.13	2457.28
554.48	2465.67
554.84	2473.31
555.19	2480.35
555.55	2487.62
555.90	2494.28
556.26	2501.19
556.61	2507.85
556.97	2514.20
557.32	2520.29
557.68	2526.19
558.03	2532.30
558.39	2537.76
558.74	2544.37
559.10	2550.07
559.45	2555.56
559.81	2561.15
560.16	2566.44
560.52	2571.33
560.87	2576.34
561.23	2580.49
561.58	2584.98
561.94	2588.88
562.29	2592.36
562.64	2596.66
563.00	2600.70
563.35	2605.58
563.71	2610.13
564.06	2614.90
564.42	2619.28
564.77	2623.18
565.12	2627.02
565.48	2630.26
565.83	2633.47
566.19	2636.05
566.54	2638.20
566.89	2640.60
567.25	2642.62
567.60	2645.09
567.96	2648.00
568.31	2649.97
568.66	2652.22
569.02	2653.79
569.37	2655.05
569.72	2657.08
570.08	2658.35
570.43	2659.08
570.78	2659.38
571.14	2658.54
571.49	2657.70
571.84	2657.99
572.20	2657.58
572.55	2657.09
572.90	2655.82
573.26	2654.90
573.61	2653.52
573.96	2652.16
574.31	2649.43
574.67	2646.70
575.02	2643.18
575.37	2639.76
575.72	2635.93
576.08	2632.66
576.43	2629.26
576.78	2625.60
577.13	2622.35
577.49	2619.01
577.84	2615.53
578.19	2611.58
578.54	2607.98
578.90	2603.70
579.25	2597.69
579.60	2592.38
579.95	2586.96
580.30	2581.77
580.66	2576.19
581.01	2570.83
581.36	2565.49
581.71	2561.02
582.06	2556.18
582.42	2551.36
582.77	2545.74
583.12	2541.01
583.47	2535.96
583.82	2530.74
584.17	2525.00
584.53	2518.95
584.88	2512.94
585.23	2506.69
585.58	2500.63
585.93	2494.46
586.28	2489.10
586.63	2483.67
586.98	2478.07
587.34	2472.87
587.69	2467.22
588.04	2461.44
588.39	2455.05
588.74	2447.67
589.09	2440.55
589.44	2432.88
589.79	2425.88
590.14	2419.37
590.49	2411.61
590.84	2404.03
591.19	2397.21
591.54	2389.77
591.89	2381.47
592.25	2373.57
592.60	2365.19
592.95	2356.63
593.30	2348.13
593.65	2339.38
594.00	2330.93
594.35	2322.24
594.70	2312.82
595.05	2304.75
595.40	2296.18
595.75	2287.42
596.10	2280.31
596.45	2272.48
596.80	2265.30
597.15	2257.86
597.50	2249.65
597.85	2242.11
598.19	2234.57
598.54	2226.22
598.89	2218.44
599.24	2211.54
599.59	2203.73
599.94	2196.43
600.29	2188.77
600.64	2180.93
600.99	2172.15
601.34	2164.13
601.69	2156.00
602.04	2147.99
602.39	2139.22
602.74	2131.08
603.08	2123.08
603.43	2114.96
603.78	2106.25
604.13	2097.54
604.48	2088.78
604.83	2080.60
605.18	2072.51
605.53	2062.97
605.87	2053.32
606.22	2044.69
606.57	2035.08
606.92	2026.18
607.27	2017.69
607.62	2009.54
607.96	2000.97
608.31	1993.12
608.66	1984.02
609.01	1975.08
609.36	1966.05
609.70	1956.42
610.05	1946.81
610.40	1937.63
610.75	1927.76
611.10	1918.65
611.44	1908.59
611.79	1898.93
612.14	1888.63
612.49	1877.59
612.83	1867.51
613.18	1857.69
613.53	1847.95
613.88	1837.73
614.22	1827.89
614.57	1817.42
614.92	1807.74
615.27	1798.60
615.61	1788.68
615.96	1779.14
616.31	1769.86
616.65	1760.92
617.00	1751.79
617.35	1742.62
617.70	1732.77
618.04	1722.54
618.39	1712.67
618.74	1703.63
619.08	1693.75
619.43	1684.47
619.78	1676.15
620.12	1667.46
620.47	1658.53
620.82	1648.61
621.16	1639.57
621.51	1630.30
621.85	1621.09
622.20	1610.81
622.55	1600.75
622.89	1591.16
623.24	1581.80
623.59	1572.84
623.93	1563.66
624.28	1555.03
624.62	1545.89
624.97	1537.15
625.32	1528.89
625.66	1520.40
626.01	1511.76
626.35	1502.75
626.70	1493.44
627.04	1484.12
627.39	1474.74
627.73	1465.89
628.08	1457.62
628.43	1449.01
628.77	1440.23
629.12	1431.22
629.46	1422.67
629.81	1413.68
630.15	1404.94
630.50	1396.15
630.84	1386.42
631.19	1376.90
631.53	1367.85
631.88	1358.78
632.22	1349.58
632.57	1340.80
632.91	1331.71
633.26	1322.75
633.60	1313.88
633.95	1305.32
634.29	1296.70
634.64	1288.74
634.98	1279.76
635.32	1271.19
635.67	1263.14
636.01	1255.23
636.36	1247.09
636.70	1239.19
637.05	1231.29
637.39	1223.58
637.73	1215.74
638.08	1208.60
638.42	1201.47
638.77	1193.83
639.11	1185.95
639.45	1178.34
639.80	1170.42
640.14	1162.79
640.49	1155.02
640.83	1147.53
641.17	1140.21
641.52	1132.70
641.86	1124.96
642.20	1118.07
642.55	1110.53
642.89	1102.82
643.23	1094.88
643.58	1088.07
643.92	1080.72
644.26	1073.67
644.61	1066.38
644.95	1059.36
645.29	1051.59
645.64	1043.60
645.98	1035.93
646.32	1028.87
646.66	1021.71
647.01	1014.95
647.35	1008.17
647.69	1001.17
648.04	994.57
648.38	987.66
648.72	980.67
649.06	973.60
649.41	966.62
649.75	959.56
650.09	952.55
650.43	945.78
650.78	938.49
651.12	931.48
651.46	924.64
651.80	917.90
652.14	911.41
652.49	905.09
652.83	899.01
653.17	892.38
653.51	885.75
653.85	879.33
654.20	872.57
654.54	865.46
654.88	858.70
655.22	851.67
655.56	844.97
655.90	838.43
656.25	832.21
656.59	825.84
656.93	819.87
657.27	813.77
657.61	807.32
657.95	801.28
658.29	795.22
658.64	788.97
658.98	782.69
659.32	776.21
659.66	770.00
660.00	763.73
660.34	757.83
660.68	752.03
661.02	746.11
661.36	740.55
661.70	735.24
662.05	730.17
662.39	725.15
662.73	719.86
663.07	714.75
663.41	709.48
663.75	704.22
664.09	698.70
664.43	693.47
664.77	688.60
665.11	683.57
665.45	678.68
665.79	673.86
666.13	669.01
666.47	664.28
666.81	659.43
667.15	654.57
667.49	649.96
667.83	645.39
668.17	640.77
668.51	636.05
668.85	631.29
669.19	626.68
669.53	622.16
669.87	617.63
670.21	613.26
670.55	608.95
670.89	604.85
671.23	600.89
671.57	596.82
671.91	592.73
672.25	588.56
672.58	584.42
672.92	580.43
673.26	576.65
673.60	572.91
673.94	569.25
674.28	565.70
674.62	562.20
674.96	558.58
675.30	555.10
675.64	551.65
675.97	548.35
676.31	545.01
676.65	541.47
676.99	538.25
677.33	534.89
677.67	531.60
678.01	528.07
678.34	524.60
678.68	521.18
679.02	517.81
679.36	514.58
679.70	511.41
680.04	508.16
680.37	504.87
680.71	501.56
681.05	498.47
681.39	495.33
681.73	492.25
682.06	489.26
682.40	486.34
682.74	483.35
683.08	480.34
683.42	477.24
683.75	474.37
684.09	471.36
684.43	468.45
684.77	465.57
685.10	462.77
685.44	460.05
685.78	457.32
686.12	454.63
686.45	451.90
686.79	449.16
687.13	446.60
687.46	444.00
687.80	441.40
688.14	438.79
688.48	436.37
688.81	433.75
689.15	431.23
689.49	428.63
689.82	426.17
690.16	423.70
690.50	421.39
690.83	419.10
691.17	416.77
691.51	414.51
691.84	412.30
692.18	410.03
692.52	407.67
692.85	405.39
693.19	403.21
693.52	401.05
693.86	398.90
694.20	396.81
694.53	394.67
694.87	392.52
695.21	390.40
695.54	388.19
695.88	386.11
696.21	384.02
696.55	382.10
696.88	380.11
697.22	378.16
697.56	376.23
697.89	374.27
698.23	372.39
698.56	370.47
698.90	368.60
699.23	366.69
699.57	364.88
699.90	363.10
700.24	361.24
700.58	359.44
700.91	357.70
701.25	355.92
701.58	354.27
701.92	352.69
702.25	351.08
702.59	349.47
702.92	347.94
703.26	346.39
703.59	344.83
703.93	343.39
704.26	341.97
704.60	340.42
704.93	338.92
705.26	337.40
705.60	336.03
705.93	334.63
706.27	333.38
706.60	332.12
706.94	330.80
707.27	329.47
707.61	328.14
707.94	326.88
708.27	325.60
708.61	324.31
708.94	323.12
709.28	321.91
709.61	320.75
709.94	319.60
710.28	318.42
710.61	317.25
710.95	315.97
711.28	314.83
711.61	313.74
711.95	312.63
712.28	311.53
712.61	310.33
712.95	309.25
713.28	308.13
713.61	307.09
713.95	306.06
714.28	305.09
714.61	304.10
714.95	303.08
715.28	302.03
715.61	301.01
715.95	299.99
716.28	298.97
716.61	297.99
716.95	297.01
717.28	296.12
717.61	295.23
717.94	294.37
718.28	293.42
718.61	292.55
718.94	291.73
719.27	290.94
719.61	290.14
719.94	289.34
720.27	288.51
720.60	287.68
720.94	286.93
721.27	286.20
721.60	285.50
721.93	284.81
722.27	284.15
722.60	283.48
722.93	282.78
723.26	282.15
723.59	281.50
723.93	280.85
724.26	280.14
724.59	279.48
724.92	278.86
725.25	278.28
725.59	277.65
725.92	277.05
726.25	276.46
726.58	275.93
726.91	275.35
727.24	274.83
727.57	274.25
727.91	273.68
728.24	273.12
728.57	272.57
728.90	272.01
729.23	271.50
729.56	270.98
729.89	270.43
730.22	269.85
730.55	269.32
730.89	268.79
731.22	268.29
731.55	267.80
731.88	267.30
732.21	266.80
732.54	266.27
732.87	265.77
733.20	265.29
733.53	264.83
733.86	264.38
734.19	263.92
734.52	263.50
734.85	263.09
735.18	262.60
735.51	262.17
735.84	261.76
736.17	261.35
736.50	260.88
736.83	260.58
737.16	260.20
737.49	259.82
737.82	259.38
738.15	259.01
738.48	258.60
738.81	258.18
739.14	257.82
739.47	257.43
739.80	257.04
740.13	256.68
740.46	256.29
740.79	255.89
741.12	255.52
741.45	255.15
741.78	254.75
742.11	254.45
742.44	254.06
742.77	253.68
743.10	253.30
743.43	252.98
743.75	252.52
744.08	252.30
744.41	251.96
744.74	251.63
745.07	251.30
745.40	251.00
745.73	250.74
746.06	250.39
746.39	250.07
746.71	249.74
747.04	249.41
747.37	249.05
747.70	248.78
748.03	248.48
748.36	248.19
748.68	247.91
749.01	247.57
749.34	247.30
749.67	247.04
750.00	246.78
750.33	246.56
750.65	246.30
750.98	245.95
751.31	245.70
751.64	245.52
751.97	245.31
752.29	245.04
752.62	244.75
752.95	244.52
753.28	244.29
753.60	244.06
753.93	243.85
754.26	243.66
754.59	243.38
754.91	243.11
755.24	242.87
755.57	242.67
755.90	242.46
756.22	242.24
756.55	242.01
756.88	241.75
757.20	241.48
757.53	241.30
757.86	241.11
758.19	240.87
758.51	240.62
758.84	240.35
759.17	240.17
759.49	239.97
759.82	239.82
760.15	239.67
760.47	239.52
760.80	239.30
761.13	239.14
761.45	238.99
761.78	238.85
762.11	238.71
762.43	238.53
762.76	238.40
763.08	238.27
763.41	238.10
763.74	237.98
764.06	237.83
764.39	237.68
764.71	237.50
765.04	237.33
765.37	237.19
765.69	237.05
766.02	236.90
766.34	236.79
766.67	236.62
767.00	236.47
767.32	236.38
767.65	236.34
767.97	236.18
768.30	236.02
768.62	235.87
768.95	235.72
769.27	235.58
769.60	235.47
769.92	235.31
770.25	235.18
770.57	235.05
770.90	234.92
771.22	234.78
771.55	234.67
771.87	234.60
772.20	234.46
772.52	234.44
772.85	234.46
773.17	234.34
773.50	234.22
773.82	234.09
774.15	233.92
774.47	233.76
774.80	233.66
775.12	233.60
775.45	233.52
775.77	233.46
776.09	233.37
776.42	233.24
776.74	233.16
777.07	233.07
777.39	232.97
777.72	232.87
778.04	232.81
778.36	232.71
778.69	232.65
779.01	232.59
779.33	232.44
779.66	232.22
779.98	232.09
780.31	231.98
780.63	231.96
780.95	231.89
781.28	231.78
781.60	231.70
781.92	231.61
782.25	231.54
782.57	231.43
782.89	231.35
783.22	231.26
783.54	231.19
783.86	231.11
784.19	231.03
784.51	230.99
784.83	230.92
785.16	230.85
785.48	230.76
785.80	230.70
786.12	230.62
786.45	230.58
