SpectraSuite Data File
++++++++++++++++++++++++++++++++++++
Date: Fri Feb 01 17:59:39 EST 2013
User: group
Dark Spectrum Present: No
Reference Spectrum Present: No
Number of Sampled Component Spectra: 1
Spectrometers: USB2E7196
Integration Time (usec): 35000 (USB2E7196)
Spectra Averaged: 100 (USB2E7196)
Boxcar Smoothing: 10 (USB2E7196)
Correct for Electrical Dark: No (USB2E7196)
Strobe/Lamp Enabled: No (USB2E7196)
Correct for Detector Non-linearity: No (USB2E7196)
Correct for Stray Light: No (USB2E7196)
Number of Pixels in Processed Spectrum: 2048
>>>>>Begin Processed Spectral Data<<<<<
339.09	0.00
339.48	212.52
339.86	214.13
340.24	215.93
340.63	217.08
341.01	219.88
341.39	219.51
341.78	221.17
342.16	222.10
342.54	222.37
342.93	211.14
343.31	221.81
343.69	222.34
344.07	222.78
344.46	223.17
344.84	223.56
345.22	223.79
345.60	224.05
345.99	224.20
346.37	224.32
346.75	224.44
347.13	224.51
347.52	224.55
347.90	224.63
348.28	224.67
348.66	224.74
349.05	224.74
349.43	224.79
349.81	224.83
350.19	224.90
350.57	224.95
350.96	225.02
351.34	225.12
351.72	225.22
352.10	225.33
352.48	225.42
352.87	225.47
353.25	225.54
353.63	225.58
354.01	225.67
354.39	225.78
354.77	225.87
355.15	225.99
355.54	226.09
355.92	226.11
356.30	226.19
356.68	226.30
357.06	226.41
357.44	226.48
357.82	226.56
358.20	226.65
358.58	226.70
358.97	226.78
359.35	226.85
359.73	226.96
360.11	227.05
360.49	227.11
360.87	227.16
361.25	227.26
361.63	227.37
362.01	227.42
362.39	227.43
362.77	227.47
363.15	227.50
363.53	227.53
363.91	227.58
364.29	227.61
364.67	227.55
365.05	227.55
365.43	227.56
365.81	227.56
366.19	227.62
366.57	227.67
366.95	227.69
367.33	227.64
367.71	227.63
368.09	227.65
368.47	227.65
368.85	227.63
369.23	227.61
369.61	227.53
369.99	227.55
370.37	227.56
370.75	227.58
371.13	227.55
371.51	227.51
371.89	227.46
372.27	227.42
372.65	227.40
373.03	227.36
373.41	227.32
373.78	227.28
374.16	227.14
374.54	227.06
374.92	226.99
375.30	226.98
375.68	226.91
376.06	226.85
376.44	226.80
376.82	226.74
377.19	226.67
377.57	226.63
377.95	226.54
378.33	226.43
378.71	226.34
379.09	226.28
379.47	226.23
379.84	226.18
380.22	226.11
380.60	226.02
380.98	225.94
381.36	225.88
381.73	225.81
382.11	225.76
382.49	225.71
382.87	225.64
383.25	225.58
383.62	225.61
384.00	225.52
384.38	225.46
384.76	225.47
385.13	225.45
385.51	225.40
385.89	225.36
386.27	225.37
386.64	225.31
387.02	225.25
387.40	225.19
387.78	225.17
388.15	225.14
388.53	225.09
388.91	225.06
389.29	225.03
389.66	225.02
390.04	224.99
390.42	224.99
390.79	224.98
391.17	224.95
391.55	224.83
391.92	224.82
392.30	224.83
392.68	224.74
393.05	224.73
393.43	224.72
393.81	224.71
394.18	224.68
394.56	224.70
394.94	224.73
395.31	224.72
395.69	224.72
396.06	224.74
396.44	224.78
396.82	224.81
397.19	224.89
397.57	224.93
397.95	225.00
398.32	225.01
398.70	225.09
399.07	225.15
399.45	225.23
399.82	225.28
400.20	225.31
400.58	225.43
400.95	225.47
401.33	225.59
401.70	225.75
402.08	225.83
402.45	225.91
402.83	226.02
403.20	226.18
403.58	226.28
403.95	226.46
404.33	226.63
404.71	226.78
405.08	226.96
405.46	227.10
405.83	227.27
406.21	227.44
406.58	227.58
406.96	227.76
407.33	227.95
407.70	228.18
408.08	228.53
408.45	228.79
408.83	229.07
409.20	229.30
409.58	229.53
409.95	229.84
410.33	230.15
410.70	230.47
411.08	230.83
411.45	231.23
411.82	231.61
412.20	232.03
412.57	232.53
412.95	232.92
413.32	233.42
413.69	233.93
414.07	234.51
414.44	235.14
414.82	235.80
415.19	236.54
415.56	237.25
415.94	237.97
416.31	238.79
416.68	239.63
417.06	240.59
417.43	241.50
417.81	242.52
418.18	243.55
418.55	244.68
418.93	245.84
419.30	247.04
419.67	248.26
420.04	249.51
420.42	250.87
420.79	252.45
421.16	254.04
421.54	255.64
421.91	257.28
422.28	258.96
422.66	260.74
423.03	262.46
423.40	264.26
423.77	266.13
424.15	268.06
424.52	270.05
424.89	272.22
425.26	274.32
425.64	276.29
426.01	278.49
426.38	280.72
426.75	282.95
427.13	285.27
427.50	287.72
427.87	290.29
428.24	292.76
428.61	295.14
428.99	297.73
429.36	300.55
429.73	303.37
430.10	306.12
430.47	308.90
430.85	311.81
431.22	314.86
431.59	318.04
431.96	321.08
432.33	324.42
432.70	327.61
433.08	331.38
433.45	334.94
433.82	338.43
434.19	342.33
434.56	346.12
434.93	349.74
435.30	353.28
435.68	357.14
436.05	360.99
436.42	364.74
436.79	368.18
437.16	371.85
437.53	375.63
437.90	379.41
438.27	383.06
438.64	386.83
439.01	390.29
439.38	393.32
439.75	396.23
440.13	399.57
440.50	402.76
440.87	405.27
441.24	407.89
441.61	410.82
441.98	412.80
442.35	415.26
442.72	417.74
443.09	420.16
443.46	421.54
443.83	422.31
444.20	423.01
444.57	424.14
444.94	424.54
445.31	425.02
445.68	425.46
446.05	425.60
446.42	425.13
446.79	424.61
447.16	424.04
447.53	423.61
447.90	422.09
448.27	420.52
448.64	418.39
449.01	416.89
449.37	414.23
449.74	411.75
450.11	408.70
450.48	405.38
450.85	402.01
451.22	399.12
451.59	396.46
451.96	393.82
452.33	390.29
452.70	387.12
453.07	383.33
453.43	379.45
453.80	375.72
454.17	372.13
454.54	368.67
454.91	365.02
455.28	361.45
455.65	358.07
456.02	354.72
456.38	351.81
456.75	348.18
457.12	345.17
457.49	342.08
457.86	339.14
458.23	336.61
458.59	333.86
458.96	331.02
459.33	328.45
459.70	325.95
460.07	323.93
460.43	321.59
460.80	319.36
461.17	317.38
461.54	315.35
461.91	313.38
462.27	311.43
462.64	309.70
463.01	307.85
463.38	306.08
463.74	304.25
464.11	302.63
464.48	301.23
464.85	299.71
465.21	298.55
465.58	297.28
465.95	295.80
466.32	294.52
466.68	293.31
467.05	292.09
467.42	290.86
467.78	289.53
468.15	288.30
468.52	287.36
468.88	286.17
469.25	285.11
469.62	284.26
469.98	283.34
470.35	282.48
470.72	281.64
471.08	280.77
471.45	280.00
471.82	279.28
472.18	278.47
472.55	277.83
472.92	277.08
473.28	276.47
473.65	275.83
474.02	275.24
474.38	274.69
474.75	274.22
475.11	273.73
475.48	273.36
475.85	273.05
476.21	272.74
476.58	272.48
476.94	272.25
477.31	271.96
477.67	271.69
478.04	271.51
478.41	271.36
478.77	271.32
479.14	271.17
479.50	271.11
479.87	271.10
480.23	271.12
480.60	271.15
480.96	271.16
481.33	271.35
481.69	271.52
482.06	271.64
482.42	271.81
482.79	272.01
483.15	272.31
483.52	272.67
483.88	272.96
484.25	273.30
484.61	273.67
484.98	274.12
485.34	274.68
485.71	275.25
486.07	275.85
486.44	276.44
486.80	277.15
487.17	277.87
487.53	278.74
487.90	279.59
488.26	280.57
488.62	281.59
488.99	282.53
489.35	283.56
489.72	284.74
490.08	286.03
490.44	287.28
490.81	288.68
491.17	290.09
491.54	291.67
491.90	293.30
492.26	295.06
492.63	296.85
492.99	298.69
493.36	300.71
493.72	302.84
494.08	305.04
494.45	307.43
494.81	309.91
495.17	312.46
495.54	315.20
495.90	318.03
496.26	321.00
496.63	324.17
496.99	327.48
497.35	330.96
497.72	334.53
498.08	338.34
498.44	342.25
498.80	346.31
499.17	350.58
499.53	354.97
499.89	359.60
500.26	364.38
500.62	369.35
500.98	374.56
501.34	379.94
501.71	385.55
502.07	391.34
502.43	397.28
502.79	403.41
503.16	409.82
503.52	416.40
503.88	423.14
504.24	430.17
504.60	437.45
504.97	444.97
505.33	452.68
505.69	460.81
506.05	469.02
506.41	477.45
506.78	486.10
507.14	495.12
507.50	504.33
507.86	513.90
508.22	523.71
508.59	533.63
508.95	543.86
509.31	554.37
509.67	565.11
510.03	576.16
510.39	587.51
510.75	599.06
511.12	610.83
511.48	622.98
511.84	635.19
512.20	647.55
512.56	660.35
512.92	673.40
513.28	686.62
513.64	700.07
514.00	713.77
514.37	727.74
514.73	741.73
515.09	755.80
515.45	770.13
515.81	784.75
516.17	799.70
516.53	814.97
516.89	830.26
517.25	845.59
517.61	861.21
517.97	876.85
518.33	892.52
518.69	908.56
519.05	924.78
519.41	941.33
519.77	958.30
520.13	975.13
520.49	991.96
520.85	1008.81
521.21	1025.95
521.57	1043.64
521.93	1060.77
522.29	1078.70
522.65	1096.50
523.01	1114.26
523.37	1131.87
523.73	1149.55
524.09	1167.22
524.45	1185.11
524.81	1203.49
525.17	1221.83
525.53	1240.42
525.89	1259.08
526.25	1277.57
526.61	1295.68
526.97	1314.09
527.33	1332.24
527.68	1350.60
528.04	1368.80
528.40	1387.08
528.76	1406.05
529.12	1424.51
529.48	1443.42
529.84	1461.34
530.20	1480.01
530.56	1498.95
530.91	1518.33
531.27	1537.32
531.63	1555.74
531.99	1574.38
532.35	1592.33
532.71	1610.36
533.07	1628.72
533.42	1646.63
533.78	1664.75
534.14	1683.17
534.50	1700.57
534.86	1718.62
535.21	1735.87
535.57	1754.00
535.93	1771.94
536.29	1788.82
536.65	1806.07
537.00	1822.86
537.36	1840.36
537.72	1856.81
538.08	1873.40
538.44	1889.36
538.79	1905.29
539.15	1921.13
539.51	1937.03
539.87	1953.60
540.22	1969.42
540.58	1985.41
540.94	2000.94
541.29	2016.00
541.65	2030.91
542.01	2046.41
542.37	2061.00
542.72	2075.69
543.08	2089.81
543.44	2104.29
543.79	2117.74
544.15	2130.86
544.51	2144.77
544.87	2157.99
545.22	2171.18
545.58	2183.76
545.94	2195.66
546.29	2207.78
546.65	2219.81
547.01	2231.38
547.36	2242.08
547.72	2252.76
548.07	2262.64
548.43	2272.80
548.79	2282.80
549.14	2292.45
549.50	2301.84
549.86	2311.32
550.21	2320.59
550.57	2329.74
550.92	2338.21
551.28	2347.18
551.64	2356.23
551.99	2364.69
552.35	2372.74
552.70	2380.82
553.06	2388.58
553.41	2396.84
553.77	2404.68
554.13	2412.57
554.48	2420.46
554.84	2428.01
555.19	2434.92
555.55	2441.80
555.90	2448.05
556.26	2454.89
556.61	2461.17
556.97	2467.28
557.32	2473.15
557.68	2478.97
558.03	2484.72
558.39	2489.96
558.74	2496.23
559.10	2501.79
559.45	2506.95
559.81	2512.73
560.16	2518.08
560.52	2522.61
560.87	2527.39
561.23	2531.31
561.58	2535.59
561.94	2539.46
562.29	2542.92
562.64	2547.03
563.00	2550.94
563.35	2555.81
563.71	2560.21
564.06	2564.71
564.42	2568.83
564.77	2572.67
565.12	2576.41
565.48	2579.53
565.83	2582.60
566.19	2585.08
566.54	2586.84
566.89	2589.15
567.25	2590.78
567.60	2593.05
567.96	2596.02
568.31	2597.92
568.66	2600.16
569.02	2601.76
569.37	2602.90
569.72	2604.73
570.08	2605.68
570.43	2606.52
570.78	2606.62
571.14	2605.56
571.49	2604.78
571.84	2605.04
572.20	2604.53
572.55	2603.78
572.90	2602.80
573.26	2602.09
573.61	2600.69
573.96	2599.49
574.31	2596.75
574.67	2594.06
575.02	2590.60
575.37	2587.30
575.72	2583.76
576.08	2580.54
576.43	2577.23
576.78	2573.71
577.13	2570.60
577.49	2567.44
577.84	2564.02
578.19	2560.35
578.54	2556.93
578.90	2552.87
579.25	2547.08
579.60	2541.92
579.95	2536.79
580.30	2531.39
580.66	2525.88
581.01	2520.62
581.36	2515.32
581.71	2510.81
582.06	2506.18
582.42	2501.56
582.77	2496.00
583.12	2490.95
583.47	2485.89
583.82	2480.68
584.17	2475.03
584.53	2469.07
584.88	2463.23
585.23	2457.02
585.58	2450.94
585.93	2444.89
586.28	2439.53
586.63	2433.95
586.98	2428.32
587.34	2423.11
587.69	2417.61
588.04	2411.88
588.39	2405.66
588.74	2398.44
589.09	2391.70
589.44	2384.04
589.79	2377.15
590.14	2370.84
590.49	2363.59
590.84	2356.38
591.19	2349.55
591.54	2342.32
591.89	2334.20
592.25	2326.59
592.60	2318.39
592.95	2309.94
593.30	2301.66
593.65	2292.98
594.00	2285.11
594.35	2276.95
594.70	2267.77
595.05	2260.05
595.40	2251.67
595.75	2243.22
596.10	2236.31
596.45	2228.81
596.80	2221.67
597.15	2214.25
597.50	2206.33
597.85	2198.86
598.19	2191.43
598.54	2183.38
598.89	2175.74
599.24	2168.84
599.59	2161.16
599.94	2154.02
600.29	2146.75
600.64	2139.13
600.99	2130.71
601.34	2122.87
601.69	2114.76
602.04	2106.95
602.39	2098.36
602.74	2090.51
603.08	2082.75
603.43	2074.90
603.78	2066.19
604.13	2057.87
604.48	2049.34
604.83	2041.25
605.18	2033.31
605.53	2023.97
605.87	2014.64
606.22	2006.14
606.57	1996.87
606.92	1988.12
607.27	1979.79
607.62	1971.67
607.96	1963.23
608.31	1955.50
608.66	1946.53
609.01	1937.73
609.36	1928.89
609.70	1919.30
610.05	1909.83
610.40	1900.82
610.75	1890.98
611.10	1882.16
611.44	1872.33
611.79	1862.95
612.14	1852.80
612.49	1841.97
612.83	1831.99
613.18	1822.37
613.53	1812.87
613.88	1802.85
614.22	1793.25
614.57	1783.09
614.92	1773.61
615.27	1764.81
615.61	1755.12
615.96	1745.67
616.31	1736.68
616.65	1728.04
617.00	1719.26
617.35	1710.24
617.70	1700.46
618.04	1690.61
618.39	1680.76
618.74	1671.86
619.08	1662.11
619.43	1653.16
619.78	1644.99
620.12	1636.66
620.47	1627.87
620.82	1618.25
621.16	1609.48
621.51	1600.45
621.85	1591.47
622.20	1581.54
622.55	1571.58
622.89	1562.25
623.24	1553.24
623.59	1544.50
623.93	1535.56
624.28	1527.08
624.62	1518.17
624.97	1509.65
625.32	1501.50
625.66	1493.27
626.01	1484.81
626.35	1476.10
626.70	1466.88
627.04	1457.89
627.39	1448.66
627.73	1439.89
628.08	1431.78
628.43	1423.33
628.77	1414.62
629.12	1405.67
629.46	1397.31
629.81	1388.47
630.15	1379.90
630.50	1371.15
630.84	1361.65
631.19	1352.31
631.53	1343.37
631.88	1334.51
632.22	1325.52
632.57	1317.03
632.91	1308.18
633.26	1299.46
633.60	1290.76
633.95	1282.43
634.29	1273.94
634.64	1266.07
634.98	1257.47
635.32	1249.05
635.67	1241.20
636.01	1233.44
636.36	1225.62
636.70	1217.80
637.05	1210.16
637.39	1202.56
637.73	1194.95
638.08	1188.04
638.42	1180.97
638.77	1173.49
639.11	1165.82
639.45	1158.51
639.80	1150.73
640.14	1143.24
640.49	1135.64
640.83	1128.26
641.17	1120.99
641.52	1113.73
641.86	1106.21
642.20	1099.34
642.55	1091.91
642.89	1084.44
643.23	1076.77
643.58	1070.00
643.92	1062.86
644.26	1055.98
644.61	1049.01
644.95	1042.10
645.29	1034.34
645.64	1026.55
645.98	1019.18
646.32	1012.35
646.66	1005.24
647.01	998.47
647.35	991.79
647.69	984.97
648.04	978.46
648.38	971.83
648.72	964.98
649.06	958.05
649.41	951.15
649.75	944.36
650.09	937.47
650.43	930.85
650.78	923.66
651.12	916.75
651.46	910.07
651.80	903.49
652.14	897.23
652.49	891.03
652.83	885.07
653.17	878.49
653.51	871.89
653.85	865.57
654.20	859.08
654.54	852.20
654.88	845.52
655.22	838.70
655.56	832.16
655.90	825.69
656.25	819.63
656.59	813.58
656.93	807.70
657.27	801.73
657.61	795.42
657.95	789.59
658.29	783.71
658.64	777.60
658.98	771.39
659.32	765.06
659.66	759.01
660.00	752.89
660.34	747.18
660.68	741.44
661.02	735.66
661.36	730.25
661.70	725.00
662.05	720.02
662.39	715.11
662.73	709.85
663.07	704.90
663.41	699.73
663.75	694.43
664.09	689.11
664.43	684.07
664.77	679.34
665.11	674.45
665.45	669.75
665.79	664.95
666.13	660.18
666.47	655.44
666.81	650.72
667.15	645.95
667.49	641.47
667.83	637.14
668.17	632.60
668.51	627.92
668.85	623.32
669.19	618.83
669.53	614.35
669.87	609.91
670.21	605.59
670.55	601.37
670.89	597.42
671.23	593.47
671.57	589.34
671.91	585.26
672.25	581.18
672.58	577.06
672.92	573.22
673.26	569.54
673.60	565.93
673.94	562.38
674.28	559.02
674.62	555.56
674.96	551.95
675.30	548.65
675.64	545.25
675.97	542.00
676.31	538.71
676.65	535.38
676.99	532.28
677.33	529.06
677.67	525.78
678.01	522.32
678.34	518.92
678.68	515.57
679.02	512.35
679.36	509.19
679.70	506.04
680.04	502.86
680.37	499.58
680.71	496.35
681.05	493.31
681.39	490.13
681.73	487.06
682.06	484.20
682.40	481.25
682.74	478.38
683.08	475.43
683.42	472.47
683.75	469.56
684.09	466.53
684.43	463.63
684.77	460.82
685.10	458.13
685.44	455.45
685.78	452.82
686.12	450.12
686.45	447.45
686.79	444.81
687.13	442.29
687.46	439.80
687.80	437.27
688.14	434.66
688.48	432.28
688.81	429.75
689.15	427.22
689.49	424.67
689.82	422.20
690.16	419.77
690.50	417.50
690.83	415.30
691.17	413.07
691.51	410.82
691.84	408.63
692.18	406.38
692.52	404.10
692.85	401.87
693.19	399.76
693.52	397.65
693.86	395.52
694.20	393.43
694.53	391.33
694.87	389.14
695.21	387.06
695.54	384.90
695.88	382.87
696.21	380.81
696.55	378.83
696.88	376.88
697.22	374.95
697.56	373.04
697.89	371.10
698.23	369.21
698.56	367.35
698.90	365.53
699.23	363.59
699.57	361.74
699.90	359.94
700.24	358.09
700.58	356.29
700.91	354.56
701.25	352.84
701.58	351.22
701.92	349.63
702.25	348.03
702.59	346.50
702.92	344.94
703.26	343.43
703.59	342.00
703.93	340.57
704.26	339.20
704.60	337.67
704.93	336.18
705.26	334.74
705.60	333.34
705.93	331.96
706.27	330.76
706.60	329.54
706.94	328.29
707.27	326.99
707.61	325.74
707.94	324.48
708.27	323.20
708.61	321.92
708.94	320.78
709.28	319.62
709.61	318.47
709.94	317.36
710.28	316.19
710.61	314.97
710.95	313.67
711.28	312.58
711.61	311.48
711.95	310.43
712.28	309.30
712.61	308.17
712.95	307.07
713.28	306.02
713.61	304.94
713.95	303.90
714.28	302.91
714.61	301.91
714.95	300.96
715.28	299.98
715.61	299.01
715.95	298.00
716.28	297.00
716.61	296.03
716.95	295.06
717.28	294.19
717.61	293.33
717.94	292.56
718.28	291.60
718.61	290.74
718.94	289.91
719.27	289.18
719.61	288.42
719.94	287.66
720.27	286.87
720.60	286.13
720.94	285.43
721.27	284.75
721.60	284.06
721.93	283.39
722.27	282.77
722.60	282.12
722.93	281.47
723.26	280.87
723.59	280.20
723.93	279.59
724.26	278.96
724.59	278.32
724.92	277.65
725.25	277.09
725.59	276.52
725.92	275.94
726.25	275.39
726.58	274.84
726.91	274.27
727.24	273.71
727.57	273.12
727.91	272.54
728.24	272.03
728.57	271.48
728.90	270.94
729.23	270.38
729.56	269.88
729.89	269.36
730.22	268.79
730.55	268.29
730.89	267.79
731.22	267.26
731.55	266.82
731.88	266.36
732.21	265.87
732.54	265.39
732.87	264.88
733.20	264.41
733.53	263.93
733.86	263.52
734.19	263.10
734.52	262.72
734.85	262.32
735.18	261.80
735.51	261.43
735.84	260.96
736.17	260.51
736.50	260.04
736.83	259.78
737.16	259.39
737.49	258.99
737.82	258.59
738.15	258.24
738.48	257.78
738.81	257.42
739.14	257.03
739.47	256.64
739.80	256.27
740.13	255.88
740.46	255.51
740.79	255.14
741.12	254.75
741.45	254.36
741.78	253.97
742.11	253.66
742.44	253.23
742.77	252.94
743.10	252.62
743.43	252.26
743.75	251.76
744.08	251.58
744.41	251.25
744.74	250.90
745.07	250.57
745.40	250.31
745.73	250.01
746.06	249.68
746.39	249.40
746.71	249.11
747.04	248.80
747.37	248.50
747.70	248.21
748.03	247.91
748.36	247.65
748.68	247.34
749.01	247.06
749.34	246.80
749.67	246.48
750.00	246.24
750.33	246.07
750.65	245.85
750.98	245.45
751.31	245.21
751.64	245.01
751.97	244.76
752.29	244.48
752.62	244.17
752.95	243.95
753.28	243.68
753.60	243.43
753.93	243.19
754.26	242.92
754.59	242.64
754.91	242.41
755.24	242.16
755.57	241.98
755.90	241.74
756.22	241.52
756.55	241.30
756.88	241.04
757.20	240.76
757.53	240.50
757.86	240.33
758.19	240.13
758.51	239.91
758.84	239.70
759.17	239.52
759.49	239.36
759.82	239.16
760.15	239.01
760.47	238.82
760.80	238.63
761.13	238.51
761.45	238.36
761.78	238.20
762.11	238.03
762.43	237.85
762.76	237.69
763.08	237.54
763.41	237.40
763.74	237.26
764.06	237.09
764.39	236.97
764.71	236.77
765.04	236.63
765.37	236.43
765.69	236.30
766.02	236.13
766.34	236.00
766.67	235.87
767.00	235.76
767.32	235.66
767.65	235.61
767.97	235.47
768.30	235.34
768.62	235.26
768.95	235.11
769.27	235.00
769.60	234.88
769.92	234.76
770.25	234.64
770.57	234.50
770.90	234.41
771.22	234.29
771.55	234.21
771.87	234.13
772.20	234.05
772.52	234.03
772.85	234.09
773.17	233.97
773.50	233.86
773.82	233.77
774.15	233.63
774.47	233.46
774.80	233.36
775.12	233.27
775.45	233.17
775.77	233.11
776.09	233.01
776.42	232.92
776.74	232.86
777.07	232.76
777.39	232.66
777.72	232.60
778.04	232.51
778.36	232.43
778.69	232.31
779.01	232.24
779.33	232.02
779.66	231.83
779.98	231.78
780.31	231.69
780.63	231.64
780.95	231.59
781.28	231.52
781.60	231.45
781.92	231.37
782.25	231.27
782.57	231.19
782.89	231.11
783.22	231.02
783.54	230.96
783.86	230.89
784.19	230.87
784.51	230.80
784.83	230.75
785.16	230.67
785.48	230.61
785.80	230.54
786.12	230.50
786.45	230.41
