SpectraSuite Data File
++++++++++++++++++++++++++++++++++++
Date: Fri Feb 01 14:54:00 EST 2013
User: group
Dark Spectrum Present: No
Reference Spectrum Present: No
Number of Sampled Component Spectra: 1
Spectrometers: USB2E7196
Integration Time (usec): 35000 (USB2E7196)
Spectra Averaged: 100 (USB2E7196)
Boxcar Smoothing: 10 (USB2E7196)
Correct for Electrical Dark: No (USB2E7196)
Strobe/Lamp Enabled: No (USB2E7196)
Correct for Detector Non-linearity: No (USB2E7196)
Correct for Stray Light: No (USB2E7196)
Number of Pixels in Processed Spectrum: 2048
>>>>>Begin Processed Spectral Data<<<<<
339.09	0.00
339.48	215.22
339.86	216.63
340.24	217.93
340.63	219.96
341.01	222.06
341.39	222.58
341.78	223.74
342.16	224.73
342.54	225.21
342.93	213.67
343.31	224.50
343.69	225.07
344.07	225.53
344.46	225.99
344.84	226.34
345.22	226.57
345.60	226.80
345.99	226.98
346.37	227.11
346.75	227.22
347.13	227.27
347.52	227.36
347.90	227.43
348.28	227.42
348.66	227.47
349.05	227.49
349.43	227.51
349.81	227.58
350.19	227.60
350.57	227.66
350.96	227.78
351.34	227.83
351.72	227.92
352.10	228.04
352.48	228.10
352.87	228.19
353.25	228.27
353.63	228.34
354.01	228.42
354.39	228.47
354.77	228.55
355.15	228.63
355.54	228.67
355.92	228.71
356.30	228.82
356.68	228.92
357.06	228.99
357.44	229.03
357.82	229.07
358.20	229.18
358.58	229.20
358.97	229.27
359.35	229.33
359.73	229.39
360.11	229.43
360.49	229.44
360.87	229.45
361.25	229.51
361.63	229.59
362.01	229.63
362.39	229.68
362.77	229.71
363.15	229.73
363.53	229.74
363.91	229.79
364.29	229.76
364.67	229.69
365.05	229.65
365.43	229.68
365.81	229.71
366.19	229.71
366.57	229.72
366.95	229.70
367.33	229.68
367.71	229.64
368.09	229.61
368.47	229.58
368.85	229.54
369.23	229.51
369.61	229.40
369.99	229.36
370.37	229.32
370.75	229.29
371.13	229.25
371.51	229.22
371.89	229.13
372.27	229.09
372.65	229.04
373.03	229.02
373.41	228.90
373.78	228.83
374.16	228.71
374.54	228.63
374.92	228.52
375.30	228.43
375.68	228.31
376.06	228.23
376.44	228.18
376.82	228.12
377.19	228.05
377.57	228.01
377.95	227.89
378.33	227.80
378.71	227.68
379.09	227.60
379.47	227.49
379.84	227.43
380.22	227.33
380.60	227.25
380.98	227.16
381.36	227.10
381.73	227.04
382.11	227.01
382.49	226.92
382.87	226.86
383.25	226.81
383.62	226.87
384.00	226.81
384.38	226.74
384.76	226.70
385.13	226.67
385.51	226.62
385.89	226.59
386.27	226.56
386.64	226.50
387.02	226.45
387.40	226.41
387.78	226.37
388.15	226.38
388.53	226.35
388.91	226.30
389.29	226.29
389.66	226.25
390.04	226.18
390.42	226.19
390.79	226.20
391.17	226.20
391.55	226.09
391.92	226.12
392.30	226.15
392.68	226.16
393.05	226.17
393.43	226.15
393.81	226.21
394.18	226.21
394.56	226.28
394.94	226.31
395.31	226.36
395.69	226.46
396.06	226.51
396.44	226.59
396.82	226.66
397.19	226.75
397.57	226.82
397.95	226.94
398.32	226.97
398.70	227.06
399.07	227.16
399.45	227.25
399.82	227.31
400.20	227.36
400.58	227.44
400.95	227.51
401.33	227.64
401.70	227.80
402.08	227.93
402.45	228.04
402.83	228.20
403.20	228.32
403.58	228.43
403.95	228.57
404.33	228.68
404.71	228.83
405.08	229.04
405.46	229.19
405.83	229.36
406.21	229.54
406.58	229.71
406.96	229.88
407.33	230.06
407.70	230.25
408.08	230.56
408.45	230.79
408.83	231.03
409.20	231.25
409.58	231.40
409.95	231.67
410.33	231.97
410.70	232.23
411.08	232.51
411.45	232.80
411.82	233.12
412.20	233.48
412.57	233.89
412.95	234.17
413.32	234.53
413.69	234.95
414.07	235.36
414.44	235.83
414.82	236.29
415.19	236.84
415.56	237.38
415.94	237.91
416.31	238.55
416.68	239.17
417.06	239.89
417.43	240.59
417.81	241.35
418.18	242.06
418.55	242.89
418.93	243.78
419.30	244.69
419.67	245.62
420.04	246.56
420.42	247.50
420.79	248.67
421.16	249.84
421.54	250.98
421.91	252.21
422.28	253.46
422.66	254.80
423.03	256.12
423.40	257.43
423.77	258.81
424.15	260.21
424.52	261.69
424.89	263.30
425.26	264.86
425.64	266.28
426.01	267.90
426.38	269.55
426.75	271.19
427.13	272.85
427.50	274.61
427.87	276.46
428.24	278.33
428.61	280.03
428.99	281.95
429.36	284.09
429.73	286.13
430.10	288.17
430.47	290.24
430.85	292.36
431.22	294.60
431.59	296.98
431.96	299.26
432.33	301.70
432.70	304.08
433.08	306.89
433.45	309.53
433.82	312.16
434.19	315.06
434.56	317.91
434.93	320.60
435.30	323.30
435.68	326.21
436.05	329.06
436.42	331.90
436.79	334.46
437.16	337.13
437.53	339.94
437.90	342.76
438.27	345.49
438.64	348.31
439.01	350.92
439.38	353.19
439.75	355.32
440.13	357.87
440.50	360.22
440.87	362.10
441.24	364.03
441.61	366.17
441.98	367.69
442.35	369.46
442.72	371.34
443.09	373.11
443.46	374.12
443.83	374.73
444.20	375.22
444.57	376.11
444.94	376.40
445.31	376.82
445.68	377.15
446.05	377.21
446.42	376.82
446.79	376.43
447.16	375.98
447.53	375.68
447.90	374.49
448.27	373.30
448.64	371.69
449.01	370.62
449.37	368.66
449.74	366.74
450.11	364.53
450.48	362.05
450.85	359.46
451.22	357.31
451.59	355.34
451.96	353.42
452.33	350.74
452.70	348.42
453.07	345.53
453.43	342.64
453.80	339.87
454.17	337.18
454.54	334.62
454.91	331.91
455.28	329.26
455.65	326.80
456.02	324.36
456.38	322.21
456.75	319.50
457.12	317.24
457.49	315.02
457.86	312.82
458.23	310.95
458.59	308.98
458.96	306.90
459.33	305.00
459.70	303.14
460.07	301.63
460.43	299.92
460.80	298.30
461.17	296.86
461.54	295.38
461.91	293.98
462.27	292.55
462.64	291.27
463.01	289.90
463.38	288.56
463.74	287.18
464.11	286.02
464.48	284.99
464.85	283.85
465.21	282.96
465.58	282.07
465.95	280.98
466.32	280.06
466.68	279.14
467.05	278.20
467.42	277.28
467.78	276.36
468.15	275.46
468.52	274.78
468.88	273.89
469.25	273.12
469.62	272.45
469.98	271.75
470.35	271.10
470.72	270.49
471.08	269.81
471.45	269.28
471.82	268.69
472.18	268.06
472.55	267.64
472.92	267.09
473.28	266.60
473.65	266.12
474.02	265.67
474.38	265.31
474.75	264.98
475.11	264.59
475.48	264.28
475.85	264.04
476.21	263.81
476.58	263.65
476.94	263.46
477.31	263.27
477.67	263.09
478.04	262.96
478.41	262.89
478.77	262.91
479.14	262.85
479.50	262.89
479.87	262.95
480.23	263.00
480.60	263.07
480.96	263.15
481.33	263.34
481.69	263.52
482.06	263.72
482.42	263.91
482.79	264.22
483.15	264.54
483.52	264.90
483.88	265.25
484.25	265.59
484.61	266.06
484.98	266.47
485.34	267.03
485.71	267.63
486.07	268.24
486.44	268.81
486.80	269.47
487.17	270.18
487.53	271.00
487.90	271.87
488.26	272.81
488.62	273.78
488.99	274.74
489.35	275.77
489.72	276.86
490.08	278.06
490.44	279.32
490.81	280.64
491.17	282.03
491.54	283.48
491.90	285.04
492.26	286.66
492.63	288.42
492.99	290.17
493.36	292.03
493.72	294.03
494.08	296.15
494.45	298.38
494.81	300.72
495.17	303.13
495.54	305.69
495.90	308.37
496.26	311.15
496.63	314.12
496.99	317.21
497.35	320.47
497.72	323.85
498.08	327.33
498.44	330.92
498.80	334.76
499.17	338.77
499.53	342.92
499.89	347.26
500.26	351.80
500.62	356.44
500.98	361.41
501.34	366.48
501.71	371.81
502.07	377.21
502.43	382.80
502.79	388.53
503.16	394.54
503.52	400.76
503.88	407.11
504.24	413.67
504.60	420.56
504.97	427.62
505.33	434.89
505.69	442.56
506.05	450.40
506.41	458.20
506.78	466.36
507.14	474.75
507.50	483.49
507.86	492.42
508.22	501.57
508.59	510.79
508.95	520.35
509.31	530.08
509.67	540.20
510.03	550.45
510.39	561.06
510.75	571.87
511.12	582.86
511.48	594.21
511.84	605.66
512.20	617.05
512.56	628.95
512.92	641.01
513.28	653.22
513.64	665.64
514.00	678.38
514.37	691.21
514.73	704.21
515.09	717.23
515.45	730.56
515.81	744.21
516.17	758.16
516.53	772.31
516.89	786.55
517.25	800.65
517.61	815.08
517.97	829.52
518.33	843.93
518.69	858.64
519.05	873.65
519.41	888.85
519.77	904.52
520.13	920.07
520.49	935.61
520.85	951.19
521.21	966.98
521.57	983.31
521.93	999.20
522.29	1015.63
522.65	1031.82
523.01	1048.02
523.37	1064.08
523.73	1080.37
524.09	1096.51
524.45	1112.81
524.81	1129.59
525.17	1146.52
525.53	1163.47
525.89	1180.41
526.25	1197.25
526.61	1213.68
526.97	1230.41
527.33	1246.79
527.68	1263.43
528.04	1279.95
528.40	1296.53
528.76	1313.61
529.12	1330.20
529.48	1347.21
529.84	1363.41
530.20	1380.16
530.56	1397.35
530.91	1414.80
531.27	1431.58
531.63	1448.18
531.99	1464.83
532.35	1480.81
532.71	1496.67
533.07	1512.99
533.42	1528.99
533.78	1545.19
534.14	1561.44
534.50	1576.92
534.86	1593.02
535.21	1608.20
535.57	1624.21
535.93	1639.90
536.29	1654.82
536.65	1670.01
537.00	1684.95
537.36	1700.24
537.72	1715.01
538.08	1729.40
538.44	1743.32
538.79	1757.25
539.15	1771.02
539.51	1784.94
539.87	1799.45
540.22	1813.45
540.58	1827.29
540.94	1840.80
541.29	1853.80
541.65	1866.61
542.01	1879.99
542.37	1892.39
542.72	1904.98
543.08	1916.84
543.44	1929.24
543.79	1940.57
544.15	1951.55
544.51	1963.05
544.87	1974.13
545.22	1984.88
545.58	1995.13
545.94	2005.00
546.29	2014.94
546.65	2024.76
547.01	2033.83
547.36	2042.57
547.72	2050.97
548.07	2058.83
548.43	2066.90
548.79	2074.91
549.14	2082.50
549.50	2089.89
549.86	2097.59
550.21	2104.90
550.57	2112.04
550.92	2118.59
551.28	2125.70
551.64	2132.78
551.99	2139.38
552.35	2145.38
552.70	2151.40
553.06	2157.30
553.41	2163.52
553.77	2169.47
554.13	2175.48
554.48	2181.64
554.84	2187.05
555.19	2192.24
555.55	2197.35
555.90	2201.87
556.26	2206.65
556.61	2211.35
556.97	2215.27
557.32	2219.26
557.68	2223.38
558.03	2227.66
558.39	2231.44
558.74	2235.86
559.10	2239.60
559.45	2242.94
559.81	2247.36
560.16	2251.04
560.52	2254.17
560.87	2257.55
561.23	2260.15
561.58	2262.88
561.94	2265.29
562.29	2267.52
562.64	2270.10
563.00	2272.71
563.35	2275.94
563.71	2278.94
564.06	2282.04
564.42	2284.99
564.77	2287.24
565.12	2289.16
565.48	2290.87
565.83	2292.49
566.19	2293.60
566.54	2294.54
566.89	2295.67
567.25	2296.03
567.60	2297.20
567.96	2298.76
568.31	2299.22
568.66	2300.06
569.02	2300.48
569.37	2300.72
569.72	2301.31
570.08	2301.33
570.43	2301.02
570.78	2300.11
571.14	2298.34
571.49	2296.69
571.84	2296.24
572.20	2294.97
572.55	2293.74
572.90	2291.90
573.26	2290.02
573.61	2288.22
573.96	2286.22
574.31	2282.94
574.67	2279.71
575.02	2276.02
575.37	2272.39
575.72	2268.53
576.08	2265.02
576.43	2261.63
576.78	2257.84
577.13	2254.48
577.49	2251.27
577.84	2247.72
578.19	2244.07
578.54	2240.14
578.90	2235.78
579.25	2229.91
579.60	2224.87
579.95	2219.75
580.30	2214.61
580.66	2209.36
581.01	2204.09
581.36	2198.94
581.71	2194.62
582.06	2189.94
582.42	2185.18
582.77	2179.74
583.12	2174.91
583.47	2169.97
583.82	2164.65
584.17	2159.15
584.53	2153.46
584.88	2147.48
585.23	2141.42
585.58	2135.62
585.93	2130.20
586.28	2125.29
586.63	2120.14
586.98	2114.84
587.34	2110.09
587.69	2105.07
588.04	2099.81
588.39	2094.15
588.74	2087.41
589.09	2081.11
589.44	2074.12
589.79	2068.07
590.14	2062.39
590.49	2055.74
590.84	2049.19
591.19	2043.07
591.54	2036.48
591.89	2029.06
592.25	2022.23
592.60	2015.01
592.95	2007.31
593.30	1999.79
593.65	1992.13
594.00	1984.91
594.35	1977.59
594.70	1969.30
595.05	1961.94
595.40	1954.68
595.75	1947.14
596.10	1941.04
596.45	1934.07
596.80	1927.92
597.15	1921.16
597.50	1914.04
597.85	1907.60
598.19	1900.98
598.54	1893.89
598.89	1887.27
599.24	1881.29
599.59	1874.60
599.94	1868.32
600.29	1862.04
600.64	1855.48
600.99	1847.93
601.34	1841.12
601.69	1834.17
602.04	1827.26
602.39	1819.84
602.74	1812.88
603.08	1806.04
603.43	1799.31
603.78	1792.23
604.13	1785.04
604.48	1777.75
604.83	1770.88
605.18	1763.96
605.53	1755.88
605.87	1747.79
606.22	1740.51
606.57	1732.59
606.92	1725.24
607.27	1718.04
607.62	1710.99
607.96	1703.63
608.31	1697.17
608.66	1689.49
609.01	1682.00
609.36	1674.50
609.70	1666.68
610.05	1658.66
610.40	1650.96
610.75	1642.53
611.10	1634.87
611.44	1626.57
611.79	1618.66
612.14	1610.01
612.49	1600.88
612.83	1592.62
613.18	1584.49
613.53	1576.49
613.88	1568.02
614.22	1559.83
614.57	1551.22
614.92	1543.36
615.27	1535.96
615.61	1527.56
615.96	1519.73
616.31	1512.01
616.65	1504.74
617.00	1497.19
617.35	1489.67
617.70	1481.24
618.04	1472.79
618.39	1464.67
618.74	1457.06
619.08	1448.85
619.43	1441.40
619.78	1434.57
620.12	1427.52
620.47	1420.22
620.82	1412.00
621.16	1404.61
621.51	1397.14
621.85	1389.71
622.20	1381.32
622.55	1373.00
622.89	1365.21
623.24	1357.59
623.59	1350.36
623.93	1342.92
624.28	1335.80
624.62	1328.24
624.97	1321.30
625.32	1314.67
625.66	1307.75
626.01	1300.62
626.35	1293.25
626.70	1285.48
627.04	1277.84
627.39	1270.08
627.73	1262.70
628.08	1255.89
628.43	1248.65
628.77	1241.17
629.12	1233.64
629.46	1226.49
629.81	1219.07
630.15	1212.01
630.50	1204.69
630.84	1196.56
631.19	1188.75
631.53	1181.29
631.88	1173.83
632.22	1166.34
632.57	1159.16
632.91	1151.52
633.26	1144.17
633.60	1136.86
633.95	1129.93
634.29	1122.83
634.64	1116.23
634.98	1108.98
635.32	1101.94
635.67	1095.43
636.01	1088.86
636.36	1082.11
636.70	1075.61
637.05	1069.19
637.39	1062.75
637.73	1056.37
638.08	1050.58
638.42	1044.64
638.77	1038.29
639.11	1031.77
639.45	1025.41
639.80	1018.76
640.14	1012.51
640.49	1006.07
640.83	999.82
641.17	993.58
641.52	987.40
641.86	981.06
642.20	975.28
642.55	969.10
642.89	962.68
643.23	956.29
643.58	950.64
643.92	944.55
644.26	938.50
644.61	932.51
644.95	926.54
645.29	919.99
645.64	913.30
645.98	907.04
646.32	901.28
646.66	895.34
647.01	889.59
647.35	883.92
647.69	878.09
648.04	872.56
648.38	866.85
648.72	860.87
649.06	854.82
649.41	848.90
649.75	842.91
650.09	836.95
650.43	831.16
650.78	824.96
651.12	819.03
651.46	813.37
651.80	807.67
652.14	802.23
652.49	796.90
652.83	791.75
653.17	786.06
653.51	780.32
653.85	774.91
654.20	769.28
654.54	763.34
654.88	757.69
655.22	751.88
655.56	746.20
655.90	740.82
656.25	735.63
656.59	730.40
656.93	725.34
657.27	720.26
657.61	714.92
657.95	709.94
658.29	704.90
658.64	699.67
658.98	694.41
659.32	688.97
659.66	683.86
660.00	678.59
660.34	673.67
660.68	668.80
661.02	663.81
661.36	659.15
661.70	654.66
662.05	650.28
662.39	645.92
662.73	641.49
663.07	637.09
663.41	632.70
663.75	628.26
664.09	623.75
664.43	619.44
664.77	615.32
665.11	611.03
665.45	606.92
665.79	602.87
666.13	598.72
666.47	594.67
666.81	590.50
667.15	586.45
667.49	582.67
667.83	578.92
668.17	575.03
668.51	571.02
668.85	567.03
669.19	563.27
669.53	559.48
669.87	555.64
670.21	552.01
670.55	548.38
670.89	544.96
671.23	541.55
671.57	538.01
671.91	534.55
672.25	531.19
672.58	527.76
672.92	524.44
673.26	521.41
673.60	518.32
673.94	515.27
674.28	512.35
674.62	509.47
674.96	506.38
675.30	503.53
675.64	500.60
675.97	497.91
676.31	495.11
676.65	492.28
676.99	489.70
677.33	486.88
677.67	484.10
678.01	481.10
678.34	478.18
678.68	475.44
679.02	472.63
679.36	469.84
679.70	467.16
680.04	464.39
680.37	461.51
680.71	458.73
681.05	456.18
681.39	453.50
681.73	450.83
682.06	448.39
682.40	445.85
682.74	443.39
683.08	440.87
683.42	438.27
683.75	435.78
684.09	433.17
684.43	430.75
684.77	428.42
685.10	426.11
685.44	423.85
685.78	421.54
686.12	419.36
686.45	417.14
686.79	414.84
687.13	412.70
687.46	410.59
687.80	408.48
688.14	406.26
688.48	404.25
688.81	402.02
689.15	399.89
689.49	397.82
689.82	395.82
690.16	393.74
690.50	391.79
690.83	389.88
691.17	387.98
691.51	386.08
691.84	384.19
692.18	382.27
692.52	380.29
692.85	378.40
693.19	376.51
693.52	374.73
693.86	372.96
694.20	371.20
694.53	369.43
694.87	367.58
695.21	365.83
695.54	364.01
695.88	362.35
696.21	360.61
696.55	358.90
696.88	357.18
697.22	355.50
697.56	353.91
697.89	352.23
698.23	350.61
698.56	348.98
698.90	347.37
699.23	345.71
699.57	344.13
699.90	342.60
700.24	341.04
700.58	339.47
700.91	337.94
701.25	336.44
701.58	335.06
701.92	333.75
702.25	332.32
702.59	330.95
702.92	329.58
703.26	328.24
703.59	326.99
703.93	325.80
704.26	324.62
704.60	323.32
704.93	322.08
705.26	320.84
705.60	319.70
705.93	318.58
706.27	317.55
706.60	316.55
706.94	315.50
707.27	314.38
707.61	313.35
707.94	312.36
708.27	311.31
708.61	310.22
708.94	309.21
709.28	308.25
709.61	307.32
709.94	306.42
710.28	305.47
710.61	304.49
710.95	303.43
711.28	302.54
711.61	301.61
711.95	300.71
712.28	299.78
712.61	298.79
712.95	297.85
713.28	296.98
713.61	296.09
713.95	295.17
714.28	294.39
714.61	293.54
714.95	292.75
715.28	291.94
715.61	291.10
715.95	290.26
716.28	289.43
716.61	288.59
716.95	287.76
717.28	287.01
717.61	286.29
717.94	285.56
718.28	284.73
718.61	284.07
718.94	283.41
719.27	282.77
719.61	282.14
719.94	281.50
720.27	280.84
720.60	280.17
720.94	279.58
721.27	278.95
721.60	278.38
721.93	277.79
722.27	277.21
722.60	276.66
722.93	276.11
723.26	275.56
723.59	275.03
723.93	274.48
724.26	273.93
724.59	273.34
724.92	272.81
725.25	272.32
725.59	271.79
725.92	271.27
726.25	270.75
726.58	270.26
726.91	269.77
727.24	269.28
727.57	268.84
727.91	268.35
728.24	267.89
728.57	267.39
728.90	266.90
729.23	266.44
729.56	266.01
729.89	265.53
730.22	265.03
730.55	264.55
730.89	264.11
731.22	263.69
731.55	263.26
731.88	262.85
732.21	262.43
732.54	262.02
732.87	261.62
733.20	261.21
733.53	260.82
733.86	260.47
734.19	260.05
734.52	259.62
734.85	259.29
735.18	258.91
735.51	258.54
735.84	258.20
736.17	257.83
736.50	257.43
736.83	257.20
737.16	256.87
737.49	256.52
737.82	256.13
738.15	255.76
738.48	255.43
738.81	255.08
739.14	254.71
739.47	254.38
739.80	254.07
740.13	253.77
740.46	253.46
740.79	253.12
741.12	252.82
741.45	252.50
741.78	252.16
742.11	251.87
742.44	251.53
742.77	251.22
743.10	250.95
743.43	250.66
743.75	250.25
744.08	250.14
744.41	249.88
744.74	249.64
745.07	249.39
745.40	249.17
745.73	248.98
746.06	248.70
746.39	248.43
746.71	248.15
747.04	247.88
747.37	247.60
747.70	247.36
748.03	247.12
748.36	246.92
748.68	246.68
749.01	246.43
749.34	246.23
749.67	245.99
750.00	245.78
750.33	245.62
750.65	245.43
750.98	245.08
751.31	244.87
751.64	244.70
751.97	244.56
752.29	244.32
752.62	244.01
752.95	243.89
753.28	243.67
753.60	243.47
753.93	243.27
754.26	243.09
754.59	242.85
754.91	242.65
755.24	242.43
755.57	242.25
755.90	242.08
756.22	241.88
756.55	241.68
756.88	241.47
757.20	241.26
757.53	241.05
757.86	240.91
758.19	240.74
758.51	240.53
758.84	240.30
759.17	240.16
759.49	240.01
759.82	239.86
760.15	239.73
760.47	239.57
760.80	239.42
761.13	239.28
761.45	239.16
761.78	239.00
762.11	238.86
762.43	238.70
762.76	238.58
763.08	238.46
763.41	238.35
763.74	238.20
764.06	238.05
764.39	237.94
764.71	237.75
765.04	237.64
765.37	237.51
765.69	237.39
766.02	237.25
766.34	237.13
766.67	236.99
767.00	236.88
767.32	236.83
767.65	236.79
767.97	236.68
768.30	236.54
768.62	236.44
768.95	236.32
769.27	236.22
769.60	236.09
769.92	235.95
770.25	235.82
770.57	235.73
770.90	235.63
771.22	235.50
771.55	235.45
771.87	235.39
772.20	235.30
772.52	235.29
772.85	235.31
773.17	235.19
773.50	235.08
773.82	235.00
774.15	234.85
774.47	234.70
774.80	234.60
775.12	234.54
775.45	234.45
775.77	234.40
776.09	234.32
776.42	234.25
776.74	234.23
777.07	234.13
777.39	234.07
777.72	233.97
778.04	233.95
778.36	233.90
778.69	233.81
779.01	233.74
779.33	233.57
779.66	233.40
779.98	233.36
780.31	233.34
780.63	233.28
780.95	233.29
781.28	233.23
781.60	233.15
781.92	233.11
782.25	233.10
782.57	233.02
782.89	232.97
783.22	232.93
783.54	232.84
783.86	232.80
784.19	232.73
784.51	232.74
784.83	232.67
785.16	232.56
785.48	232.52
785.80	232.50
786.12	232.46
786.45	232.40
786.77	232.37
787.09	232.28
