SpectraSuite Data File
++++++++++++++++++++++++++++++++++++
Date: Fri Feb 01 16:05:03 EST 2013
User: group
Dark Spectrum Present: No
Reference Spectrum Present: No
Number of Sampled Component Spectra: 1
Spectrometers: USB2E7196
Integration Time (usec): 35000 (USB2E7196)
Spectra Averaged: 100 (USB2E7196)
Boxcar Smoothing: 10 (USB2E7196)
Correct for Electrical Dark: No (USB2E7196)
Strobe/Lamp Enabled: No (USB2E7196)
Correct for Detector Non-linearity: No (USB2E7196)
Correct for Stray Light: No (USB2E7196)
Number of Pixels in Processed Spectrum: 2048
>>>>>Begin Processed Spectral Data<<<<<
339.09	0.00
339.48	214.64
339.86	215.73
340.24	217.16
340.63	218.69
341.01	221.58
341.39	221.85
341.78	222.76
342.16	223.78
342.54	224.46
342.93	212.87
343.31	223.62
343.69	224.17
344.07	224.64
344.46	225.07
344.84	225.47
345.22	225.69
345.60	225.93
345.99	226.11
346.37	226.23
346.75	226.34
347.13	226.39
347.52	226.47
347.90	226.53
348.28	226.60
348.66	226.62
349.05	226.61
349.43	226.65
349.81	226.70
350.19	226.76
350.57	226.82
350.96	226.93
351.34	227.04
351.72	227.13
352.10	227.25
352.48	227.34
352.87	227.39
353.25	227.52
353.63	227.59
354.01	227.71
354.39	227.81
354.77	227.90
355.15	228.02
355.54	228.06
355.92	228.15
356.30	228.22
356.68	228.40
357.06	228.50
357.44	228.57
357.82	228.63
358.20	228.69
358.58	228.73
358.97	228.82
359.35	228.90
359.73	228.97
360.11	229.05
360.49	229.13
360.87	229.17
361.25	229.20
361.63	229.28
362.01	229.31
362.39	229.38
362.77	229.40
363.15	229.43
363.53	229.42
363.91	229.46
364.29	229.49
364.67	229.40
365.05	229.43
365.43	229.43
365.81	229.45
366.19	229.50
366.57	229.58
366.95	229.55
367.33	229.53
367.71	229.50
368.09	229.46
368.47	229.41
368.85	229.36
369.23	229.34
369.61	229.24
369.99	229.22
370.37	229.16
370.75	229.16
371.13	229.11
371.51	229.10
371.89	229.03
372.27	228.97
372.65	228.93
373.03	228.84
373.41	228.81
373.78	228.72
374.16	228.59
374.54	228.48
374.92	228.38
375.30	228.34
375.68	228.27
376.06	228.22
376.44	228.17
376.82	228.14
377.19	228.09
377.57	228.03
377.95	227.92
378.33	227.82
378.71	227.68
379.09	227.60
379.47	227.55
379.84	227.48
380.22	227.43
380.60	227.36
380.98	227.32
381.36	227.22
381.73	227.15
382.11	227.10
382.49	227.03
382.87	226.96
383.25	226.87
383.62	226.91
384.00	226.79
384.38	226.70
384.76	226.64
385.13	226.62
385.51	226.57
385.89	226.48
386.27	226.47
386.64	226.47
387.02	226.42
387.40	226.35
387.78	226.29
388.15	226.21
388.53	226.13
388.91	226.11
389.29	226.06
389.66	226.06
390.04	226.05
390.42	226.05
390.79	226.08
391.17	226.07
391.55	225.96
391.92	225.99
392.30	225.99
392.68	225.98
393.05	225.96
393.43	225.94
393.81	225.98
394.18	225.97
394.56	225.99
394.94	226.01
395.31	226.01
395.69	226.09
396.06	226.13
396.44	226.21
396.82	226.23
397.19	226.33
397.57	226.33
397.95	226.36
398.32	226.35
398.70	226.40
399.07	226.48
399.45	226.53
399.82	226.60
400.20	226.70
400.58	226.78
400.95	226.86
401.33	226.98
401.70	227.14
402.08	227.24
402.45	227.35
402.83	227.48
403.20	227.63
403.58	227.73
403.95	227.87
404.33	228.01
404.71	228.14
405.08	228.30
405.46	228.49
405.83	228.64
406.21	228.80
406.58	228.96
406.96	229.09
407.33	229.25
407.70	229.46
408.08	229.73
408.45	229.94
408.83	230.18
409.20	230.37
409.58	230.58
409.95	230.88
410.33	231.13
410.70	231.40
411.08	231.68
411.45	231.99
411.82	232.30
412.20	232.64
412.57	233.06
412.95	233.37
413.32	233.76
413.69	234.18
414.07	234.65
414.44	235.12
414.82	235.63
415.19	236.20
415.56	236.73
415.94	237.28
416.31	237.92
416.68	238.53
417.06	239.28
417.43	239.94
417.81	240.67
418.18	241.45
418.55	242.30
418.93	243.18
419.30	244.06
419.67	245.01
420.04	245.94
420.42	246.91
420.79	248.07
421.16	249.24
421.54	250.42
421.91	251.63
422.28	252.85
422.66	254.15
423.03	255.47
423.40	256.80
423.77	258.19
424.15	259.59
424.52	261.04
424.89	262.63
425.26	264.17
425.64	265.60
426.01	267.16
426.38	268.81
426.75	270.45
427.13	272.16
427.50	273.94
427.87	275.85
428.24	277.73
428.61	279.47
428.99	281.40
429.36	283.53
429.73	285.58
430.10	287.62
430.47	289.65
430.85	291.76
431.22	293.99
431.59	296.33
431.96	298.56
432.33	301.06
432.70	303.43
433.08	306.27
433.45	308.94
433.82	311.52
434.19	314.40
434.56	317.24
434.93	319.92
435.30	322.51
435.68	325.38
436.05	328.23
436.42	330.99
436.79	333.53
437.16	336.25
437.53	339.05
437.90	341.87
438.27	344.65
438.64	347.48
439.01	350.10
439.38	352.37
439.75	354.53
440.13	357.01
440.50	359.33
440.87	361.18
441.24	363.13
441.61	365.33
441.98	366.83
442.35	368.62
442.72	370.43
443.09	372.26
443.46	373.29
443.83	373.85
444.20	374.36
444.57	375.16
444.94	375.40
445.31	375.75
445.68	376.12
446.05	376.22
446.42	375.83
446.79	375.36
447.16	374.91
447.53	374.62
447.90	373.45
448.27	372.30
448.64	370.69
449.01	369.53
449.37	367.52
449.74	365.62
450.11	363.32
450.48	360.86
450.85	358.35
451.22	356.17
451.59	354.16
451.96	352.24
452.33	349.61
452.70	347.26
453.07	344.44
453.43	341.54
453.80	338.74
454.17	336.06
454.54	333.52
454.91	330.78
455.28	328.12
455.65	325.63
456.02	323.19
456.38	321.02
456.75	318.37
457.12	316.12
457.49	313.85
457.86	311.74
458.23	309.94
458.59	307.89
458.96	305.80
459.33	303.94
459.70	302.09
460.07	300.61
460.43	298.90
460.80	297.29
461.17	295.85
461.54	294.38
461.91	292.98
462.27	291.53
462.64	290.33
463.01	288.97
463.38	287.67
463.74	286.33
464.11	285.20
464.48	284.17
464.85	283.09
465.21	282.26
465.58	281.30
465.95	280.15
466.32	279.23
466.68	278.36
467.05	277.43
467.42	276.49
467.78	275.55
468.15	274.67
468.52	274.00
468.88	273.10
469.25	272.33
469.62	271.67
469.98	271.02
470.35	270.37
470.72	269.78
471.08	269.14
471.45	268.58
471.82	268.00
472.18	267.40
472.55	266.95
472.92	266.45
473.28	265.99
473.65	265.55
474.02	265.11
474.38	264.71
474.75	264.42
475.11	264.12
475.48	263.87
475.85	263.61
476.21	263.42
476.58	263.26
476.94	263.11
477.31	262.97
477.67	262.82
478.04	262.71
478.41	262.63
478.77	262.67
479.14	262.64
479.50	262.69
479.87	262.79
480.23	262.88
480.60	262.90
480.96	263.02
481.33	263.26
481.69	263.46
482.06	263.67
482.42	263.86
482.79	264.13
483.15	264.47
483.52	264.89
483.88	265.20
484.25	265.60
484.61	266.01
484.98	266.48
485.34	267.04
485.71	267.63
486.07	268.25
486.44	268.82
486.80	269.52
487.17	270.23
487.53	271.05
487.90	271.91
488.26	272.87
488.62	273.88
488.99	274.86
489.35	275.94
489.72	277.10
490.08	278.29
490.44	279.52
490.81	280.87
491.17	282.22
491.54	283.72
491.90	285.22
492.26	286.88
492.63	288.61
492.99	290.42
493.36	292.31
493.72	294.39
494.08	296.49
494.45	298.76
494.81	301.11
495.17	303.54
495.54	306.15
495.90	308.83
496.26	311.63
496.63	314.61
496.99	317.71
497.35	320.93
497.72	324.35
498.08	327.89
498.44	331.56
498.80	335.51
499.17	339.62
499.53	343.84
499.89	348.21
500.26	352.72
500.62	357.36
500.98	362.34
501.34	367.41
501.71	372.78
502.07	378.20
502.43	383.89
502.79	389.71
503.16	395.75
503.52	402.05
503.88	408.45
504.24	415.10
504.60	422.05
504.97	429.25
505.33	436.61
505.69	444.33
506.05	452.13
506.41	459.96
506.78	468.01
507.14	476.42
507.50	485.10
507.86	494.14
508.22	503.49
508.59	512.62
508.95	522.22
509.31	532.01
509.67	542.16
510.03	552.38
510.39	562.94
510.75	573.79
511.12	584.74
511.48	596.09
511.84	607.51
512.20	618.92
512.56	630.82
512.92	642.93
513.28	655.34
513.64	667.80
514.00	680.51
514.37	693.53
514.73	706.65
515.09	719.71
515.45	733.01
515.81	746.49
516.17	760.56
516.53	774.68
516.89	788.88
517.25	803.02
517.61	817.51
517.97	831.91
518.33	846.29
518.69	861.06
519.05	876.02
519.41	891.06
519.77	906.64
520.13	922.08
520.49	937.48
520.85	952.73
521.21	968.42
521.57	984.57
521.93	1000.37
522.29	1016.72
522.65	1033.01
523.01	1049.25
523.37	1065.20
523.73	1081.42
524.09	1097.58
524.45	1113.92
524.81	1130.55
525.17	1147.29
525.53	1164.13
525.89	1181.03
526.25	1197.88
526.61	1214.19
526.97	1230.95
527.33	1247.45
527.68	1264.09
528.04	1280.56
528.40	1297.10
528.76	1314.18
529.12	1330.97
529.48	1347.81
529.84	1363.72
530.20	1380.33
530.56	1397.19
530.91	1414.53
531.27	1431.17
531.63	1447.43
531.99	1464.02
532.35	1480.00
532.71	1495.89
533.07	1512.16
533.42	1527.98
533.78	1543.85
534.14	1560.13
534.50	1575.53
534.86	1591.30
535.21	1606.47
535.57	1622.39
535.93	1637.94
536.29	1652.65
536.65	1667.53
537.00	1682.17
537.36	1697.38
537.72	1711.89
538.08	1726.26
538.44	1740.04
538.79	1753.87
539.15	1767.56
539.51	1781.14
539.87	1795.45
540.22	1809.07
540.58	1822.78
540.94	1836.05
541.29	1848.97
541.65	1861.61
542.01	1874.72
542.37	1887.06
542.72	1899.32
543.08	1911.03
543.44	1923.40
543.79	1934.57
544.15	1945.54
544.51	1957.16
544.87	1968.21
545.22	1978.95
545.58	1989.19
545.94	1999.03
546.29	2008.89
546.65	2018.74
547.01	2028.02
547.36	2036.58
547.72	2045.14
548.07	2052.95
548.43	2061.14
548.79	2069.00
549.14	2076.55
549.50	2083.98
549.86	2091.67
550.21	2098.96
550.57	2106.12
550.92	2112.66
551.28	2119.94
551.64	2126.98
551.99	2133.60
552.35	2139.71
552.70	2145.92
553.06	2151.87
553.41	2158.12
553.77	2163.99
554.13	2170.10
554.48	2176.18
554.84	2181.71
555.19	2186.97
555.55	2192.22
555.90	2196.76
556.26	2201.78
556.61	2206.50
556.97	2210.74
557.32	2214.81
557.68	2219.06
558.03	2223.26
558.39	2226.92
558.74	2231.42
559.10	2235.41
559.45	2238.85
559.81	2243.03
560.16	2246.76
560.52	2249.94
560.87	2253.38
561.23	2256.24
561.58	2259.04
561.94	2261.47
562.29	2263.71
562.64	2266.30
563.00	2268.89
563.35	2272.31
563.71	2275.39
564.06	2278.53
564.42	2281.47
564.77	2284.13
565.12	2286.43
565.48	2288.48
565.83	2290.49
566.19	2291.81
566.54	2292.59
566.89	2293.78
567.25	2294.50
567.60	2295.77
567.96	2297.58
568.31	2298.36
568.66	2299.35
569.02	2300.02
569.37	2300.41
569.72	2301.50
570.08	2301.72
570.43	2301.64
570.78	2301.08
571.14	2299.52
571.49	2298.23
571.84	2297.90
572.20	2296.71
572.55	2295.67
572.90	2294.02
573.26	2292.46
573.61	2290.82
573.96	2289.07
574.31	2286.11
574.67	2283.08
575.02	2279.50
575.37	2276.13
575.72	2272.57
576.08	2269.33
576.43	2266.11
576.78	2262.60
577.13	2259.35
577.49	2256.19
577.84	2252.83
578.19	2249.11
578.54	2245.59
578.90	2241.31
579.25	2235.77
579.60	2230.77
579.95	2225.67
580.30	2220.74
580.66	2215.77
581.01	2210.69
581.36	2205.91
581.71	2201.81
582.06	2197.53
582.42	2193.17
582.77	2187.72
583.12	2183.06
583.47	2178.40
583.82	2173.43
584.17	2168.14
584.53	2162.62
584.88	2157.15
585.23	2151.41
585.58	2145.92
585.93	2140.48
586.28	2135.79
586.63	2130.81
586.98	2125.72
587.34	2121.13
587.69	2116.28
588.04	2110.98
588.39	2105.40
588.74	2098.87
589.09	2092.74
589.44	2085.89
589.79	2079.83
590.14	2074.48
590.49	2067.88
590.84	2061.45
591.19	2055.32
591.54	2048.88
591.89	2041.68
592.25	2034.76
592.60	2027.55
592.95	2020.07
593.30	2012.66
593.65	2004.93
594.00	1997.82
594.35	1990.56
594.70	1982.44
595.05	1975.32
595.40	1968.05
595.75	1960.45
596.10	1954.38
596.45	1947.83
596.80	1941.69
597.15	1934.96
597.50	1927.89
597.85	1921.52
598.19	1914.93
598.54	1907.87
598.89	1901.26
599.24	1895.30
599.59	1888.70
599.94	1882.40
600.29	1876.06
600.64	1869.47
600.99	1862.19
601.34	1855.27
601.69	1848.32
602.04	1841.55
602.39	1834.08
602.74	1827.29
603.08	1820.66
603.43	1813.77
603.78	1806.21
604.13	1798.95
604.48	1792.00
604.83	1784.98
605.18	1777.96
605.53	1769.83
605.87	1761.81
606.22	1754.59
606.57	1746.59
606.92	1739.27
607.27	1732.30
607.62	1725.43
607.96	1718.25
608.31	1711.68
608.66	1704.19
609.01	1696.64
609.36	1689.06
609.70	1681.06
610.05	1672.99
610.40	1665.24
610.75	1656.96
611.10	1649.41
611.44	1640.99
611.79	1632.79
612.14	1624.14
612.49	1615.02
612.83	1606.73
613.18	1598.65
613.53	1590.51
613.88	1582.06
614.22	1573.83
614.57	1565.12
614.92	1556.99
615.27	1549.39
615.61	1540.96
615.96	1532.86
616.31	1525.34
616.65	1517.88
617.00	1510.28
617.35	1502.61
617.70	1494.30
618.04	1485.71
618.39	1477.36
618.74	1469.82
619.08	1461.47
619.43	1454.04
619.78	1447.09
620.12	1439.97
620.47	1432.41
620.82	1424.18
621.16	1416.59
621.51	1408.92
621.85	1401.22
622.20	1392.75
622.55	1384.39
622.89	1376.51
623.24	1368.83
623.59	1361.36
623.93	1353.95
624.28	1346.67
624.62	1339.13
624.97	1332.04
625.32	1325.30
625.66	1318.36
626.01	1311.23
626.35	1303.88
626.70	1296.09
627.04	1288.43
627.39	1280.56
627.73	1273.14
628.08	1266.28
628.43	1259.11
628.77	1251.73
629.12	1244.19
629.46	1237.00
629.81	1229.64
630.15	1222.46
630.50	1215.13
630.84	1206.91
631.19	1198.84
631.53	1191.41
631.88	1183.80
632.22	1176.06
632.57	1168.73
632.91	1161.26
633.26	1153.75
633.60	1146.29
633.95	1139.06
634.29	1131.95
634.64	1125.24
634.98	1117.92
635.32	1110.66
635.67	1104.01
636.01	1097.38
636.36	1090.65
636.70	1084.08
637.05	1077.42
637.39	1070.93
637.73	1064.37
638.08	1058.54
638.42	1052.58
638.77	1046.12
639.11	1039.61
639.45	1033.32
639.80	1026.66
640.14	1020.11
640.49	1013.65
640.83	1007.40
641.17	1001.26
641.52	994.96
641.86	988.57
642.20	982.65
642.55	976.36
642.89	969.92
643.23	963.31
643.58	957.52
643.92	951.44
644.26	945.38
644.61	939.37
644.95	933.39
645.29	926.79
645.64	919.99
645.98	913.73
646.32	907.93
646.66	901.85
647.01	896.09
647.35	890.33
647.69	884.43
648.04	878.86
648.38	873.00
648.72	866.98
649.06	860.86
649.41	854.91
649.75	848.94
650.09	842.90
650.43	837.11
650.78	830.89
651.12	824.90
651.46	819.16
651.80	813.41
652.14	807.97
652.49	802.55
652.83	797.34
653.17	791.64
653.51	785.86
653.85	780.41
654.20	774.79
654.54	768.77
654.88	762.96
655.22	757.03
655.56	751.41
655.90	745.90
656.25	740.69
656.59	735.42
656.93	730.34
657.27	725.21
657.61	719.80
657.95	714.66
658.29	709.48
658.64	704.18
658.98	698.83
659.32	693.45
659.66	688.25
660.00	683.02
660.34	677.95
660.68	672.98
661.02	667.93
661.36	663.21
661.70	658.80
662.05	654.49
662.39	650.18
662.73	645.65
663.07	641.29
663.41	636.80
663.75	632.27
664.09	627.72
664.43	623.34
664.77	619.24
665.11	615.12
665.45	611.05
665.79	607.06
666.13	602.97
666.47	598.76
666.81	594.60
667.15	590.49
667.49	586.62
667.83	582.75
668.17	578.84
668.51	574.75
668.85	570.69
669.19	566.82
669.53	563.02
669.87	559.14
670.21	555.39
670.55	551.78
670.89	548.41
671.23	544.93
671.57	541.44
671.91	537.87
672.25	534.32
672.58	530.79
672.92	527.28
673.26	524.12
673.60	521.06
673.94	517.98
674.28	515.09
674.62	512.21
674.96	509.14
675.30	506.28
675.64	503.37
675.97	500.58
676.31	497.72
676.65	494.75
676.99	492.07
677.33	489.22
677.67	486.39
678.01	483.33
678.34	480.38
678.68	477.50
679.02	474.69
679.36	471.87
679.70	469.15
680.04	466.43
680.37	463.57
680.71	460.78
681.05	458.13
681.39	455.36
681.73	452.67
682.06	450.16
682.40	447.54
682.74	444.95
683.08	442.38
683.42	439.78
683.75	437.29
684.09	434.71
684.43	432.28
684.77	429.82
685.10	427.46
685.44	425.19
685.78	422.88
686.12	420.62
686.45	418.39
686.79	416.11
687.13	413.90
687.46	411.75
687.80	409.51
688.14	407.29
688.48	405.26
688.81	402.95
689.15	400.83
689.49	398.70
689.82	396.63
690.16	394.57
690.50	392.61
690.83	390.75
691.17	388.78
691.51	386.84
691.84	384.97
692.18	383.00
692.52	381.01
692.85	379.07
693.19	377.20
693.52	375.34
693.86	373.49
694.20	371.69
694.53	369.87
694.87	368.03
695.21	366.23
695.54	364.39
695.88	362.72
696.21	360.95
696.55	359.29
696.88	357.63
697.22	355.97
697.56	354.36
697.89	352.61
698.23	351.02
698.56	349.43
698.90	347.85
699.23	346.29
699.57	344.73
699.90	343.13
700.24	341.58
700.58	340.07
700.91	338.57
701.25	337.16
701.58	335.85
701.92	334.50
702.25	333.13
702.59	331.79
702.92	330.48
703.26	329.15
703.59	327.85
703.93	326.65
704.26	325.41
704.60	324.10
704.93	322.85
705.26	321.57
705.60	320.40
705.93	319.29
706.27	318.21
706.60	317.17
706.94	316.15
707.27	315.01
707.61	313.97
707.94	312.96
708.27	311.86
708.61	310.73
708.94	309.72
709.28	308.80
709.61	307.80
709.94	306.85
710.28	305.84
710.61	304.88
710.95	303.80
711.28	302.89
711.61	301.94
711.95	301.03
712.28	300.08
712.61	299.07
712.95	298.10
713.28	297.23
713.61	296.34
713.95	295.43
714.28	294.61
714.61	293.73
714.95	292.92
715.28	292.07
715.61	291.18
715.95	290.29
716.28	289.42
716.61	288.59
716.95	287.75
717.28	287.00
717.61	286.22
717.94	285.47
718.28	284.67
718.61	283.92
718.94	283.24
719.27	282.56
719.61	281.90
719.94	281.21
720.27	280.46
720.60	279.76
720.94	279.13
721.27	278.52
721.60	277.93
721.93	277.31
722.27	276.72
722.60	276.19
722.93	275.63
723.26	275.04
723.59	274.45
723.93	273.93
724.26	273.41
724.59	272.84
724.92	272.30
725.25	271.80
725.59	271.31
725.92	270.76
726.25	270.25
726.58	269.77
726.91	269.29
727.24	268.82
727.57	268.36
727.91	267.86
728.24	267.41
728.57	266.93
728.90	266.46
729.23	266.01
729.56	265.59
729.89	265.11
730.22	264.61
730.55	264.15
730.89	263.67
731.22	263.19
731.55	262.75
731.88	262.35
732.21	261.90
732.54	261.48
732.87	261.09
733.20	260.70
733.53	260.32
733.86	259.95
734.19	259.60
734.52	259.20
734.85	258.89
735.18	258.46
735.51	258.07
735.84	257.71
736.17	257.34
736.50	256.93
736.83	256.73
737.16	256.47
737.49	256.17
737.82	255.83
738.15	255.52
738.48	255.22
738.81	254.87
739.14	254.58
739.47	254.26
739.80	253.98
740.13	253.64
740.46	253.31
740.79	252.99
741.12	252.64
741.45	252.35
741.78	252.02
742.11	251.74
742.44	251.45
742.77	251.14
743.10	250.84
743.43	250.55
743.75	250.14
744.08	249.95
744.41	249.67
744.74	249.41
745.07	249.17
745.40	248.93
745.73	248.71
746.06	248.44
746.39	248.21
746.71	247.91
747.04	247.67
747.37	247.44
747.70	247.19
748.03	246.95
748.36	246.71
748.68	246.46
749.01	246.22
749.34	246.00
749.67	245.79
750.00	245.57
750.33	245.43
750.65	245.21
750.98	244.86
751.31	244.65
751.64	244.45
751.97	244.24
752.29	243.99
752.62	243.74
752.95	243.51
753.28	243.28
753.60	243.09
753.93	242.93
754.26	242.71
754.59	242.49
754.91	242.26
755.24	242.08
755.57	241.88
755.90	241.69
756.22	241.49
756.55	241.30
756.88	241.10
757.20	240.85
757.53	240.66
757.86	240.49
758.19	240.32
758.51	240.14
758.84	239.94
759.17	239.77
759.49	239.63
759.82	239.50
760.15	239.35
760.47	239.19
760.80	238.98
761.13	238.86
761.45	238.71
761.78	238.58
762.11	238.42
762.43	238.25
762.76	238.10
763.08	237.97
763.41	237.82
763.74	237.65
764.06	237.48
764.39	237.35
764.71	237.21
765.04	237.05
765.37	236.93
765.69	236.79
766.02	236.67
766.34	236.53
766.67	236.35
767.00	236.24
767.32	236.14
767.65	236.06
767.97	235.93
768.30	235.83
768.62	235.71
768.95	235.54
769.27	235.47
769.60	235.37
769.92	235.24
770.25	235.11
770.57	235.07
770.90	234.99
771.22	234.86
771.55	234.79
771.87	234.68
772.20	234.58
772.52	234.56
772.85	234.58
773.17	234.45
773.50	234.39
773.82	234.27
774.15	234.17
774.47	234.07
774.80	233.97
775.12	233.86
775.45	233.75
775.77	233.73
776.09	233.65
776.42	233.57
776.74	233.52
777.07	233.44
777.39	233.35
777.72	233.24
778.04	233.22
778.36	233.16
778.69	233.10
779.01	233.02
779.33	232.87
779.66	232.72
779.98	232.67
780.31	232.61
780.63	232.59
780.95	232.50
781.28	232.43
781.60	232.35
781.92	232.27
782.25	232.24
782.57	232.17
782.89	232.07
783.22	231.99
783.54	231.93
783.86	231.89
784.19	231.80
784.51	231.80
784.83	231.72
785.16	231.65
785.48	231.60
785.80	231.55
786.12	231.52
786.45	231.48
786.77	231.44
787.09	231.39
