SpectraSuite Data File
++++++++++++++++++++++++++++++++++++
Date: Fri Feb 01 16:48:45 EST 2013
User: group
Dark Spectrum Present: No
Reference Spectrum Present: No
Number of Sampled Component Spectra: 1
Spectrometers: USB2E7196
Integration Time (usec): 35000 (USB2E7196)
Spectra Averaged: 100 (USB2E7196)
Boxcar Smoothing: 10 (USB2E7196)
Correct for Electrical Dark: No (USB2E7196)
Strobe/Lamp Enabled: No (USB2E7196)
Correct for Detector Non-linearity: No (USB2E7196)
Correct for Stray Light: No (USB2E7196)
Number of Pixels in Processed Spectrum: 2048
>>>>>Begin Processed Spectral Data<<<<<
339.09	0.00
339.48	213.58
339.86	214.78
340.24	215.83
340.63	217.80
341.01	220.32
341.39	220.71
341.78	221.53
342.16	223.15
342.54	223.66
342.93	211.84
343.31	222.55
343.69	223.09
344.07	223.55
344.46	223.99
344.84	224.34
345.22	224.59
345.60	224.80
345.99	224.99
346.37	225.08
346.75	225.15
347.13	225.20
347.52	225.26
347.90	225.33
348.28	225.33
348.66	225.37
349.05	225.33
349.43	225.38
349.81	225.44
350.19	225.48
350.57	225.52
350.96	225.56
351.34	225.64
351.72	225.71
352.10	225.82
352.48	225.90
352.87	225.99
353.25	226.04
353.63	226.12
354.01	226.15
354.39	226.25
354.77	226.33
355.15	226.44
355.54	226.47
355.92	226.51
356.30	226.60
356.68	226.73
357.06	226.83
357.44	226.87
357.82	226.92
358.20	226.98
358.58	227.02
358.97	227.10
359.35	227.15
359.73	227.21
360.11	227.25
360.49	227.30
360.87	227.31
361.25	227.35
361.63	227.44
362.01	227.48
362.39	227.51
362.77	227.55
363.15	227.60
363.53	227.62
363.91	227.64
364.29	227.67
364.67	227.64
365.05	227.62
365.43	227.68
365.81	227.69
366.19	227.73
366.57	227.77
366.95	227.78
367.33	227.77
367.71	227.78
368.09	227.80
368.47	227.80
368.85	227.80
369.23	227.80
369.61	227.71
369.99	227.74
370.37	227.72
370.75	227.73
371.13	227.64
371.51	227.61
371.89	227.59
372.27	227.57
372.65	227.53
373.03	227.53
373.41	227.42
373.78	227.36
374.16	227.27
374.54	227.19
374.92	227.11
375.30	227.06
375.68	226.98
376.06	226.93
376.44	226.88
376.82	226.83
377.19	226.78
377.57	226.76
377.95	226.65
378.33	226.58
378.71	226.46
379.09	226.44
379.47	226.40
379.84	226.35
380.22	226.30
380.60	226.19
380.98	226.11
381.36	226.08
381.73	226.02
382.11	225.97
382.49	225.92
382.87	225.87
383.25	225.81
383.62	225.86
384.00	225.78
384.38	225.69
384.76	225.64
385.13	225.64
385.51	225.57
385.89	225.54
386.27	225.51
386.64	225.50
387.02	225.46
387.40	225.40
387.78	225.34
388.15	225.27
388.53	225.25
388.91	225.20
389.29	225.16
389.66	225.15
390.04	225.11
390.42	225.09
390.79	225.09
391.17	225.07
391.55	224.95
391.92	224.91
392.30	224.92
392.68	224.89
393.05	224.87
393.43	224.85
393.81	224.83
394.18	224.82
394.56	224.80
394.94	224.82
395.31	224.82
395.69	224.86
396.06	224.89
396.44	224.93
396.82	224.98
397.19	225.02
397.57	225.01
397.95	225.10
398.32	225.09
398.70	225.14
399.07	225.20
399.45	225.26
399.82	225.35
400.20	225.39
400.58	225.44
400.95	225.47
401.33	225.57
401.70	225.77
402.08	225.86
402.45	225.94
402.83	226.05
403.20	226.17
403.58	226.27
403.95	226.38
404.33	226.48
404.71	226.61
405.08	226.82
405.46	226.92
405.83	227.06
406.21	227.21
406.58	227.34
406.96	227.47
407.33	227.61
407.70	227.78
408.08	228.05
408.45	228.29
408.83	228.51
409.20	228.74
409.58	228.88
409.95	229.15
410.33	229.45
410.70	229.65
411.08	229.91
411.45	230.18
411.82	230.47
412.20	230.82
412.57	231.22
412.95	231.50
413.32	231.95
413.69	232.35
414.07	232.79
414.44	233.28
414.82	233.79
415.19	234.36
415.56	234.91
415.94	235.43
416.31	236.07
416.68	236.71
417.06	237.41
417.43	238.10
417.81	238.82
418.18	239.56
418.55	240.42
418.93	241.34
419.30	242.23
419.67	243.22
420.04	244.16
420.42	245.17
420.79	246.34
421.16	247.48
421.54	248.65
421.91	249.85
422.28	251.09
422.66	252.39
423.03	253.69
423.40	255.03
423.77	256.45
424.15	257.80
424.52	259.25
424.89	260.86
425.26	262.40
425.64	263.89
426.01	265.48
426.38	267.15
426.75	268.82
427.13	270.56
427.50	272.34
427.87	274.20
428.24	276.02
428.61	277.74
428.99	279.66
429.36	281.80
429.73	283.88
430.10	285.88
430.47	287.91
430.85	290.03
431.22	292.25
431.59	294.62
431.96	296.89
432.33	299.35
432.70	301.67
433.08	304.43
433.45	306.99
433.82	309.57
434.19	312.39
434.56	315.16
434.93	317.78
435.30	320.36
435.68	323.25
436.05	326.08
436.42	328.86
436.79	331.36
437.16	333.96
437.53	336.71
437.90	339.51
438.27	342.24
438.64	345.02
439.01	347.60
439.38	349.76
439.75	351.88
440.13	354.29
440.50	356.60
440.87	358.43
441.24	360.39
441.61	362.50
441.98	364.01
442.35	365.78
442.72	367.59
443.09	369.38
443.46	370.32
443.83	370.90
444.20	371.40
444.57	372.21
444.94	372.50
445.31	372.92
445.68	373.28
446.05	373.33
446.42	372.98
446.79	372.53
447.16	372.15
447.53	371.85
447.90	370.77
448.27	369.64
448.64	368.10
449.01	366.99
449.37	365.01
449.74	363.13
450.11	360.92
450.48	358.54
450.85	356.07
451.22	353.99
451.59	351.96
451.96	350.07
452.33	347.51
452.70	345.22
453.07	342.40
453.43	339.52
453.80	336.82
454.17	334.16
454.54	331.62
454.91	328.90
455.28	326.25
455.65	323.78
456.02	321.40
456.38	319.27
456.75	316.63
457.12	314.39
457.49	312.17
457.86	310.00
458.23	308.14
458.59	306.11
458.96	304.05
459.33	302.20
459.70	300.35
460.07	298.89
460.43	297.14
460.80	295.51
461.17	294.07
461.54	292.60
461.91	291.20
462.27	289.82
462.64	288.61
463.01	287.30
463.38	286.02
463.74	284.66
464.11	283.48
464.48	282.48
464.85	281.44
465.21	280.60
465.58	279.71
465.95	278.61
466.32	277.70
466.68	276.82
467.05	275.95
467.42	275.06
467.78	274.07
468.15	273.25
468.52	272.61
468.88	271.77
469.25	270.98
469.62	270.33
469.98	269.68
470.35	269.01
470.72	268.40
471.08	267.79
471.45	267.24
471.82	266.73
472.18	266.13
472.55	265.71
472.92	265.22
473.28	264.76
473.65	264.35
474.02	263.90
474.38	263.52
474.75	263.23
475.11	262.91
475.48	262.70
475.85	262.44
476.21	262.23
476.58	262.04
476.94	261.94
477.31	261.78
477.67	261.63
478.04	261.54
478.41	261.52
478.77	261.57
479.14	261.52
479.50	261.51
479.87	261.61
480.23	261.70
480.60	261.79
480.96	261.87
481.33	262.09
481.69	262.31
482.06	262.52
482.42	262.70
482.79	263.01
483.15	263.33
483.52	263.73
483.88	264.09
484.25	264.48
484.61	264.93
484.98	265.39
485.34	265.96
485.71	266.57
486.07	267.15
486.44	267.72
486.80	268.42
487.17	269.17
487.53	269.99
487.90	270.81
488.26	271.72
488.62	272.72
488.99	273.65
489.35	274.70
489.72	275.84
490.08	277.03
490.44	278.24
490.81	279.57
491.17	280.92
491.54	282.38
491.90	283.91
492.26	285.51
492.63	287.26
492.99	289.01
493.36	290.89
493.72	292.94
494.08	295.03
494.45	297.27
494.81	299.66
495.17	302.07
495.54	304.63
495.90	307.27
496.26	310.10
496.63	313.06
496.99	316.18
497.35	319.41
497.72	322.81
498.08	326.32
498.44	329.97
498.80	333.92
499.17	337.97
499.53	342.14
499.89	346.51
500.26	350.96
500.62	355.65
500.98	360.57
501.34	365.65
501.71	370.98
502.07	376.47
502.43	382.07
502.79	387.85
503.16	393.93
503.52	400.23
503.88	406.58
504.24	413.20
504.60	419.99
504.97	427.12
505.33	434.41
505.69	442.10
506.05	449.90
506.41	457.70
506.78	465.79
507.14	474.23
507.50	482.90
507.86	491.90
508.22	501.06
508.59	510.27
508.95	519.79
509.31	529.51
509.67	539.50
510.03	549.71
510.39	560.29
510.75	571.00
511.12	581.84
511.48	593.04
511.84	604.47
512.20	616.00
512.56	627.85
512.92	639.91
513.28	652.14
513.64	664.50
514.00	677.11
514.37	690.01
514.73	702.95
515.09	715.83
515.45	728.99
515.81	742.52
516.17	756.38
516.53	770.43
516.89	784.49
517.25	798.54
517.61	812.89
517.97	827.23
518.33	841.53
518.69	856.17
519.05	871.09
519.41	886.12
519.77	901.46
520.13	916.81
520.49	932.10
520.85	947.30
521.21	962.82
521.57	978.95
521.93	994.50
522.29	1010.70
522.65	1026.92
523.01	1042.99
523.37	1058.78
523.73	1074.73
524.09	1090.66
524.45	1106.77
524.81	1123.25
525.17	1139.84
525.53	1156.46
525.89	1173.19
526.25	1189.85
526.61	1206.12
526.97	1222.76
527.33	1239.18
527.68	1255.55
528.04	1271.87
528.40	1288.28
528.76	1305.25
529.12	1321.62
529.48	1338.37
529.84	1354.19
530.20	1370.62
530.56	1387.35
530.91	1404.55
531.27	1421.17
531.63	1437.30
531.99	1453.74
532.35	1469.72
532.71	1485.41
533.07	1501.51
533.42	1517.18
533.78	1533.03
534.14	1548.96
534.50	1564.02
534.86	1579.56
535.21	1594.63
535.57	1610.33
535.93	1625.66
536.29	1640.18
536.65	1655.10
537.00	1669.64
537.36	1684.80
537.72	1699.05
538.08	1713.46
538.44	1727.17
538.79	1740.92
539.15	1754.34
539.51	1767.85
539.87	1781.79
540.22	1795.38
540.58	1808.76
540.94	1821.80
541.29	1834.41
541.65	1846.94
542.01	1859.89
542.37	1872.10
542.72	1884.24
543.08	1895.85
543.44	1908.09
543.79	1919.25
544.15	1930.07
544.51	1941.55
544.87	1952.33
545.22	1963.11
545.58	1973.10
545.94	1982.73
546.29	1992.43
546.65	2002.31
547.01	2011.49
547.36	2020.17
547.72	2028.59
548.07	2036.69
548.43	2044.78
548.79	2052.64
549.14	2060.15
549.50	2067.42
549.86	2074.86
550.21	2082.14
550.57	2089.33
550.92	2095.88
551.28	2102.87
551.64	2109.80
551.99	2116.17
552.35	2122.31
552.70	2128.35
553.06	2134.41
553.41	2140.63
553.77	2146.48
554.13	2152.44
554.48	2158.49
554.84	2163.98
555.19	2169.07
555.55	2174.09
555.90	2178.59
556.26	2183.64
556.61	2188.31
556.97	2192.81
557.32	2197.16
557.68	2201.37
558.03	2205.50
558.39	2209.23
558.74	2213.71
559.10	2217.57
559.45	2221.37
559.81	2225.73
560.16	2229.58
560.52	2232.76
560.87	2236.24
561.23	2239.10
561.58	2242.06
561.94	2244.60
562.29	2246.86
562.64	2249.75
563.00	2252.34
563.35	2255.86
563.71	2259.03
564.06	2262.14
564.42	2264.99
564.77	2267.55
565.12	2269.96
565.48	2272.05
565.83	2273.93
566.19	2275.50
566.54	2276.45
566.89	2277.65
567.25	2278.35
567.60	2279.70
567.96	2281.53
568.31	2282.38
568.66	2283.60
569.02	2284.33
569.37	2284.81
569.72	2285.93
570.08	2286.14
570.43	2286.28
570.78	2286.00
571.14	2284.62
571.49	2283.54
571.84	2283.24
572.20	2282.16
572.55	2281.03
572.90	2279.38
573.26	2278.13
573.61	2276.41
573.96	2274.89
574.31	2272.08
574.67	2269.17
575.02	2265.61
575.37	2262.16
575.72	2258.54
576.08	2254.97
576.43	2251.73
576.78	2248.31
577.13	2245.01
577.49	2241.73
577.84	2238.33
578.19	2234.49
578.54	2230.92
578.90	2226.84
579.25	2221.36
579.60	2216.63
579.95	2211.88
580.30	2207.15
580.66	2202.02
581.01	2197.18
581.36	2192.29
581.71	2188.24
582.06	2183.93
582.42	2179.65
582.77	2174.63
583.12	2170.23
583.47	2165.97
583.82	2161.31
584.17	2156.22
584.53	2150.85
584.88	2145.64
585.23	2140.13
585.58	2134.89
585.93	2129.51
586.28	2124.69
586.63	2119.86
586.98	2114.80
587.34	2110.07
587.69	2105.23
588.04	2100.33
588.39	2094.79
588.74	2088.37
589.09	2082.26
589.44	2075.65
589.79	2069.54
590.14	2063.94
590.49	2057.46
590.84	2051.08
591.19	2045.02
591.54	2038.59
591.89	2031.58
592.25	2024.95
592.60	2017.81
592.95	2010.43
593.30	2003.14
593.65	1995.72
594.00	1988.67
594.35	1981.53
594.70	1973.50
595.05	1966.52
595.40	1959.13
595.75	1951.76
596.10	1945.92
596.45	1939.36
596.80	1933.20
597.15	1926.86
597.50	1920.15
597.85	1913.76
598.19	1907.15
598.54	1900.32
598.89	1893.71
599.24	1887.63
599.59	1881.22
599.94	1875.01
600.29	1868.71
600.64	1862.30
600.99	1855.10
601.34	1848.48
601.69	1841.50
602.04	1834.88
602.39	1827.56
602.74	1820.94
603.08	1814.32
603.43	1807.51
603.78	1800.18
604.13	1793.12
604.48	1785.91
604.83	1778.99
605.18	1772.29
605.53	1764.45
605.87	1756.41
606.22	1749.17
606.57	1741.49
606.92	1733.91
607.27	1726.90
607.62	1720.17
607.96	1712.98
608.31	1706.50
608.66	1699.00
609.01	1691.66
609.36	1684.18
609.70	1676.27
610.05	1668.35
610.40	1660.76
610.75	1652.47
611.10	1645.02
611.44	1636.62
611.79	1628.62
612.14	1620.01
612.49	1610.69
612.83	1602.36
613.18	1594.26
613.53	1586.21
613.88	1577.74
614.22	1569.60
614.57	1560.90
614.92	1552.88
615.27	1545.45
615.61	1537.11
615.96	1529.01
616.31	1521.31
616.65	1513.99
617.00	1506.48
617.35	1498.75
617.70	1490.41
618.04	1482.18
618.39	1473.88
618.74	1466.47
619.08	1458.19
619.43	1450.67
619.78	1443.82
620.12	1436.73
620.47	1429.23
620.82	1421.22
621.16	1413.72
621.51	1406.05
621.85	1398.53
622.20	1389.97
622.55	1381.58
622.89	1373.73
623.24	1366.07
623.59	1358.67
623.93	1351.10
624.28	1343.94
624.62	1336.43
624.97	1329.29
625.32	1322.30
625.66	1315.25
626.01	1307.89
626.35	1300.63
626.70	1292.83
627.04	1285.20
627.39	1277.39
627.73	1269.93
628.08	1262.99
628.43	1255.78
628.77	1248.49
629.12	1240.99
629.46	1233.88
629.81	1226.34
630.15	1219.08
630.50	1211.80
630.84	1203.73
631.19	1195.77
631.53	1188.20
631.88	1180.60
632.22	1172.99
632.57	1165.71
632.91	1158.19
633.26	1150.73
633.60	1143.24
633.95	1136.02
634.29	1128.83
634.64	1122.22
634.98	1114.92
635.32	1107.79
635.67	1101.16
636.01	1094.50
636.36	1087.78
636.70	1081.18
637.05	1074.68
637.39	1068.23
637.73	1061.74
638.08	1055.82
638.42	1049.77
638.77	1043.38
639.11	1036.95
639.45	1030.60
639.80	1023.95
640.14	1017.62
640.49	1011.23
640.83	1004.98
641.17	998.94
641.52	992.74
641.86	986.20
642.20	980.44
642.55	974.00
642.89	967.56
643.23	960.94
643.58	955.17
643.92	949.06
644.26	943.13
644.61	937.00
644.95	930.94
645.29	924.41
645.64	917.77
645.98	911.36
646.32	905.36
646.66	899.33
647.01	893.56
647.35	887.78
647.69	881.92
648.04	876.37
648.38	870.52
648.72	864.60
649.06	858.57
649.41	852.57
649.75	846.78
650.09	840.89
650.43	835.23
650.78	829.11
651.12	823.10
651.46	817.30
651.80	811.76
652.14	806.42
652.49	801.09
652.83	795.97
653.17	790.42
653.51	784.85
653.85	779.53
654.20	773.95
654.54	768.01
654.88	762.29
655.22	756.37
655.56	750.67
655.90	745.11
656.25	739.93
656.59	734.67
656.93	729.54
657.27	724.42
657.61	718.95
657.95	713.83
658.29	708.81
658.64	703.61
658.98	698.14
659.32	692.60
659.66	687.34
660.00	682.10
660.34	677.15
660.68	672.15
661.02	667.02
661.36	662.28
661.70	657.81
662.05	653.48
662.39	649.25
662.73	644.82
663.07	640.47
663.41	636.05
663.75	631.55
664.09	626.95
664.43	622.45
664.77	618.42
665.11	614.15
665.45	609.91
665.79	605.76
666.13	601.76
666.47	597.67
666.81	593.55
667.15	589.38
667.49	585.35
667.83	581.50
668.17	577.60
668.51	573.59
668.85	569.55
669.19	565.66
669.53	561.80
669.87	557.94
670.21	554.24
670.55	550.56
670.89	547.07
671.23	543.67
671.57	540.14
671.91	536.58
672.25	533.01
672.58	529.59
672.92	526.16
673.26	522.95
673.60	519.78
673.94	516.67
674.28	513.73
674.62	510.82
674.96	507.77
675.30	504.88
675.64	501.95
675.97	499.16
676.31	496.25
676.65	493.30
676.99	490.58
677.33	487.66
677.67	484.81
678.01	481.87
678.34	478.88
678.68	476.04
679.02	473.18
679.36	470.39
679.70	467.64
680.04	464.95
680.37	462.07
680.71	459.27
681.05	456.64
681.39	453.94
681.73	451.31
682.06	448.74
682.40	446.17
682.74	443.55
683.08	440.93
683.42	438.30
683.75	435.79
684.09	433.18
684.43	430.77
684.77	428.27
685.10	425.83
685.44	423.52
685.78	421.20
686.12	418.97
686.45	416.69
686.79	414.42
687.13	412.21
687.46	410.05
687.80	407.90
688.14	405.63
688.48	403.58
688.81	401.35
689.15	399.27
689.49	397.09
689.82	395.07
690.16	393.05
690.50	391.11
690.83	389.20
691.17	387.27
691.51	385.35
691.84	383.54
692.18	381.71
692.52	379.80
692.85	377.88
693.19	376.00
693.52	374.16
693.86	372.34
694.20	370.55
694.53	368.79
694.87	366.95
695.21	365.22
695.54	363.35
695.88	361.62
696.21	359.84
696.55	358.16
696.88	356.46
697.22	354.78
697.56	353.14
697.89	351.49
698.23	349.88
698.56	348.25
698.90	346.70
699.23	345.03
699.57	343.41
699.90	341.89
700.24	340.36
700.58	338.87
700.91	337.40
701.25	335.98
701.58	334.58
701.92	333.21
702.25	331.83
702.59	330.47
702.92	329.15
703.26	327.82
703.59	326.57
703.93	325.39
704.26	324.15
704.60	322.91
704.93	321.69
705.26	320.41
705.60	319.24
705.93	318.07
706.27	316.96
706.60	315.98
706.94	314.90
707.27	313.77
707.61	312.68
707.94	311.61
708.27	310.49
708.61	309.39
708.94	308.40
709.28	307.37
709.61	306.40
709.94	305.45
710.28	304.45
710.61	303.47
710.95	302.38
711.28	301.46
711.61	300.48
711.95	299.55
712.28	298.61
712.61	297.62
712.95	296.66
713.28	295.82
713.61	294.86
713.95	293.99
714.28	293.12
714.61	292.27
714.95	291.40
715.28	290.54
715.61	289.69
715.95	288.84
716.28	288.02
716.61	287.16
716.95	286.32
717.28	285.60
717.61	284.82
717.94	284.09
718.28	283.29
718.61	282.54
718.94	281.80
719.27	281.17
719.61	280.54
719.94	279.89
720.27	279.13
720.60	278.45
720.94	277.78
721.27	277.18
721.60	276.59
721.93	276.01
722.27	275.49
722.60	274.93
722.93	274.33
723.26	273.75
723.59	273.20
723.93	272.65
724.26	272.05
724.59	271.46
724.92	270.89
725.25	270.40
725.59	269.87
725.92	269.36
726.25	268.82
726.58	268.32
726.91	267.80
727.24	267.38
727.57	266.94
727.91	266.43
728.24	265.99
728.57	265.51
728.90	265.05
729.23	264.51
729.56	264.08
729.89	263.63
730.22	263.19
730.55	262.76
730.89	262.31
731.22	261.89
731.55	261.48
731.88	261.09
732.21	260.66
732.54	260.25
732.87	259.82
733.20	259.42
733.53	259.03
733.86	258.70
734.19	258.25
734.52	257.84
734.85	257.50
735.18	257.05
735.51	256.65
735.84	256.28
736.17	255.97
736.50	255.56
736.83	255.34
737.16	254.97
737.49	254.62
737.82	254.26
738.15	253.94
738.48	253.59
738.81	253.23
739.14	252.88
739.47	252.57
739.80	252.26
740.13	251.95
740.46	251.63
740.79	251.28
741.12	250.99
741.45	250.71
741.78	250.40
742.11	250.10
742.44	249.82
742.77	249.51
743.10	249.18
743.43	248.91
743.75	248.50
744.08	248.40
744.41	248.13
744.74	247.82
745.07	247.53
745.40	247.28
745.73	247.09
746.06	246.84
746.39	246.57
746.71	246.30
747.04	246.04
747.37	245.74
747.70	245.48
748.03	245.23
748.36	244.98
748.68	244.70
749.01	244.43
749.34	244.20
749.67	244.01
750.00	243.80
750.33	243.60
750.65	243.42
750.98	243.05
751.31	242.81
751.64	242.64
751.97	242.49
752.29	242.26
752.62	241.97
752.95	241.74
753.28	241.56
753.60	241.34
753.93	241.18
754.26	240.99
754.59	240.76
754.91	240.57
755.24	240.34
755.57	240.17
755.90	240.04
756.22	239.84
756.55	239.61
756.88	239.41
757.20	239.20
757.53	238.97
757.86	238.80
758.19	238.66
758.51	238.53
758.84	238.29
759.17	238.12
759.49	237.97
759.82	237.85
760.15	237.70
760.47	237.59
760.80	237.37
761.13	237.27
761.45	237.15
761.78	236.98
762.11	236.87
762.43	236.73
762.76	236.63
763.08	236.52
763.41	236.42
763.74	236.30
764.06	236.13
764.39	235.99
764.71	235.83
765.04	235.67
765.37	235.52
765.69	235.44
766.02	235.33
766.34	235.25
766.67	235.09
767.00	235.01
767.32	234.93
767.65	234.93
767.97	234.77
768.30	234.66
768.62	234.60
768.95	234.46
769.27	234.38
769.60	234.26
769.92	234.13
770.25	234.00
770.57	233.89
770.90	233.82
771.22	233.73
771.55	233.68
771.87	233.58
772.20	233.51
772.52	233.48
772.85	233.50
773.17	233.37
773.50	233.30
773.82	233.16
774.15	233.05
774.47	232.87
774.80	232.79
775.12	232.69
775.45	232.60
775.77	232.55
776.09	232.45
776.42	232.35
776.74	232.31
777.07	232.25
777.39	232.18
777.72	232.09
778.04	232.05
778.36	231.95
778.69	231.90
779.01	231.84
779.33	231.68
779.66	231.51
779.98	231.47
780.31	231.39
780.63	231.35
780.95	231.28
781.28	231.22
781.60	231.16
781.92	231.10
782.25	231.05
782.57	230.99
782.89	230.94
783.22	230.85
783.54	230.77
783.86	230.70
784.19	230.63
784.51	230.59
784.83	230.52
785.16	230.48
785.48	230.45
785.80	230.38
786.12	230.32
786.45	230.31
786.77	230.28
787.09	230.23
