SpectraSuite Data File
++++++++++++++++++++++++++++++++++++
Date: Fri Feb 01 14:57:56 EST 2013
User: group
Dark Spectrum Present: No
Reference Spectrum Present: No
Number of Sampled Component Spectra: 1
Spectrometers: USB2E7196
Integration Time (usec): 35000 (USB2E7196)
Spectra Averaged: 100 (USB2E7196)
Boxcar Smoothing: 10 (USB2E7196)
Correct for Electrical Dark: No (USB2E7196)
Strobe/Lamp Enabled: No (USB2E7196)
Correct for Detector Non-linearity: No (USB2E7196)
Correct for Stray Light: No (USB2E7196)
Number of Pixels in Processed Spectrum: 2048
>>>>>Begin Processed Spectral Data<<<<<
339.09	0.00
339.48	214.89
339.86	216.93
340.24	217.75
340.63	219.77
341.01	222.10
341.39	222.33
341.78	223.43
342.16	224.69
342.54	224.89
342.93	213.60
343.31	224.38
343.69	224.96
344.07	225.42
344.46	225.85
344.84	226.21
345.22	226.49
345.60	226.73
345.99	226.94
346.37	227.07
346.75	227.20
347.13	227.24
347.52	227.32
347.90	227.36
348.28	227.42
348.66	227.45
349.05	227.42
349.43	227.43
349.81	227.46
350.19	227.49
350.57	227.57
350.96	227.65
351.34	227.72
351.72	227.76
352.10	227.86
352.48	227.94
352.87	228.00
353.25	228.04
353.63	228.10
354.01	228.15
354.39	228.23
354.77	228.30
355.15	228.40
355.54	228.42
355.92	228.45
356.30	228.48
356.68	228.61
357.06	228.68
357.44	228.76
357.82	228.85
358.20	228.92
358.58	228.99
358.97	229.02
359.35	229.12
359.73	229.18
360.11	229.22
360.49	229.27
360.87	229.30
361.25	229.35
361.63	229.40
362.01	229.45
362.39	229.47
362.77	229.51
363.15	229.53
363.53	229.59
363.91	229.63
364.29	229.67
364.67	229.57
365.05	229.58
365.43	229.59
365.81	229.61
366.19	229.63
366.57	229.62
366.95	229.59
367.33	229.56
367.71	229.53
368.09	229.53
368.47	229.51
368.85	229.48
369.23	229.46
369.61	229.39
369.99	229.40
370.37	229.37
370.75	229.34
371.13	229.27
371.51	229.20
371.89	229.17
372.27	229.12
372.65	229.08
373.03	229.01
373.41	228.94
373.78	228.88
374.16	228.79
374.54	228.76
374.92	228.70
375.30	228.61
375.68	228.53
376.06	228.46
376.44	228.37
376.82	228.29
377.19	228.21
377.57	228.13
377.95	228.01
378.33	227.91
378.71	227.81
379.09	227.73
379.47	227.67
379.84	227.57
380.22	227.44
380.60	227.34
380.98	227.29
381.36	227.22
381.73	227.12
382.11	227.06
382.49	226.95
382.87	226.86
383.25	226.83
383.62	226.92
384.00	226.82
384.38	226.78
384.76	226.75
385.13	226.71
385.51	226.67
385.89	226.58
386.27	226.56
386.64	226.52
387.02	226.44
387.40	226.38
387.78	226.35
388.15	226.34
388.53	226.32
388.91	226.27
389.29	226.21
389.66	226.18
390.04	226.16
390.42	226.17
390.79	226.17
391.17	226.17
391.55	226.02
391.92	226.00
392.30	226.00
392.68	225.97
393.05	225.97
393.43	226.00
393.81	226.07
394.18	226.07
394.56	226.10
394.94	226.17
395.31	226.19
395.69	226.23
396.06	226.28
396.44	226.35
396.82	226.39
397.19	226.50
397.57	226.57
397.95	226.66
398.32	226.70
398.70	226.78
399.07	226.86
399.45	226.94
399.82	227.03
400.20	227.14
400.58	227.26
400.95	227.32
401.33	227.40
401.70	227.53
402.08	227.64
402.45	227.75
402.83	227.90
403.20	228.06
403.58	228.18
403.95	228.32
404.33	228.46
404.71	228.61
405.08	228.79
405.46	228.93
405.83	229.08
406.21	229.25
406.58	229.44
406.96	229.59
407.33	229.79
407.70	230.01
408.08	230.25
408.45	230.50
408.83	230.75
409.20	230.98
409.58	231.17
409.95	231.45
410.33	231.72
410.70	231.96
411.08	232.23
411.45	232.56
411.82	232.86
412.20	233.21
412.57	233.62
412.95	233.97
413.32	234.39
413.69	234.79
414.07	235.21
414.44	235.64
414.82	236.13
415.19	236.66
415.56	237.24
415.94	237.78
416.31	238.40
416.68	239.03
417.06	239.72
417.43	240.40
417.81	241.17
418.18	241.96
418.55	242.78
418.93	243.66
419.30	244.52
419.67	245.47
420.04	246.42
420.42	247.39
420.79	248.54
421.16	249.70
421.54	250.88
421.91	252.11
422.28	253.39
422.66	254.70
423.03	256.01
423.40	257.30
423.77	258.72
424.15	260.11
424.52	261.59
424.89	263.24
425.26	264.78
425.64	266.21
426.01	267.78
426.38	269.42
426.75	271.09
427.13	272.83
427.50	274.63
427.87	276.51
428.24	278.40
428.61	280.14
428.99	282.09
429.36	284.21
429.73	286.27
430.10	288.27
430.47	290.35
430.85	292.45
431.22	294.70
431.59	297.07
431.96	299.35
432.33	301.84
432.70	304.20
433.08	307.02
433.45	309.63
433.82	312.27
434.19	315.16
434.56	317.99
434.93	320.63
435.30	323.25
435.68	326.11
436.05	328.92
436.42	331.71
436.79	334.23
437.16	336.95
437.53	339.80
437.90	342.67
438.27	345.41
438.64	348.29
439.01	350.88
439.38	353.13
439.75	355.33
440.13	357.84
440.50	360.17
440.87	362.01
441.24	363.99
441.61	366.12
441.98	367.62
442.35	369.41
442.72	371.27
443.09	373.11
443.46	374.14
443.83	374.72
444.20	375.27
444.57	376.07
444.94	376.34
445.31	376.70
445.68	376.98
446.05	377.09
446.42	376.70
446.79	376.28
447.16	375.84
447.53	375.49
447.90	374.33
448.27	373.21
448.64	371.62
449.01	370.47
449.37	368.52
449.74	366.64
450.11	364.37
450.48	361.88
450.85	359.35
451.22	357.18
451.59	355.14
451.96	353.13
452.33	350.53
452.70	348.16
453.07	345.30
453.43	342.40
453.80	339.65
454.17	336.96
454.54	334.41
454.91	331.68
455.28	329.00
455.65	326.55
456.02	324.06
456.38	321.96
456.75	319.30
457.12	317.08
457.49	314.86
457.86	312.68
458.23	310.85
458.59	308.78
458.96	306.71
459.33	304.88
459.70	303.07
460.07	301.57
460.43	299.82
460.80	298.21
461.17	296.81
461.54	295.28
461.91	293.85
462.27	292.42
462.64	291.15
463.01	289.76
463.38	288.42
463.74	287.03
464.11	285.83
464.48	284.81
464.85	283.65
465.21	282.75
465.58	281.82
465.95	280.78
466.32	279.87
466.68	278.97
467.05	278.05
467.42	277.08
467.78	276.12
468.15	275.25
468.52	274.58
468.88	273.65
469.25	272.86
469.62	272.23
469.98	271.52
470.35	270.89
470.72	270.31
471.08	269.63
471.45	269.08
471.82	268.52
472.18	267.91
472.55	267.46
472.92	266.94
473.28	266.50
473.65	265.98
474.02	265.52
474.38	265.11
474.75	264.82
475.11	264.50
475.48	264.28
475.85	264.04
476.21	263.77
476.58	263.61
476.94	263.45
477.31	263.26
477.67	263.10
478.04	262.96
478.41	262.85
478.77	262.88
479.14	262.86
479.50	262.84
479.87	262.87
480.23	262.95
480.60	263.02
480.96	263.06
481.33	263.29
481.69	263.45
482.06	263.64
482.42	263.79
482.79	264.07
483.15	264.37
483.52	264.76
483.88	265.12
484.25	265.51
484.61	265.93
484.98	266.37
485.34	266.95
485.71	267.55
486.07	268.16
486.44	268.70
486.80	269.40
487.17	270.17
487.53	271.02
487.90	271.86
488.26	272.77
488.62	273.75
488.99	274.72
489.35	275.79
489.72	276.92
490.08	278.11
490.44	279.34
490.81	280.63
491.17	281.95
491.54	283.41
491.90	284.94
492.26	286.56
492.63	288.30
492.99	290.10
493.36	291.97
493.72	294.01
494.08	296.11
494.45	298.31
494.81	300.65
495.17	303.06
495.54	305.59
495.90	308.26
496.26	311.02
496.63	313.96
496.99	317.07
497.35	320.33
497.72	323.71
498.08	327.22
498.44	330.86
498.80	334.78
499.17	338.83
499.53	342.97
499.89	347.30
500.26	351.74
500.62	356.36
500.98	361.31
501.34	366.35
501.71	371.65
502.07	377.09
502.43	382.68
502.79	388.49
503.16	394.59
503.52	400.83
503.88	407.23
504.24	413.81
504.60	420.68
504.97	427.79
505.33	435.09
505.69	442.74
506.05	450.50
506.41	458.34
506.78	466.44
507.14	474.86
507.50	483.54
507.86	492.58
508.22	501.71
508.59	510.93
508.95	520.48
509.31	530.30
509.67	540.37
510.03	550.63
510.39	561.13
510.75	571.84
511.12	582.74
511.48	594.07
511.84	605.55
512.20	617.04
512.56	628.92
512.92	641.12
513.28	653.29
513.64	665.79
514.00	678.55
514.37	691.41
514.73	704.47
515.09	717.54
515.45	730.81
515.81	744.39
516.17	758.36
516.53	772.55
516.89	786.73
517.25	800.88
517.61	815.41
517.97	829.87
518.33	844.33
518.69	859.16
519.05	874.10
519.41	889.30
519.77	904.88
520.13	920.40
520.49	935.72
520.85	951.35
521.21	967.05
521.57	983.32
521.93	999.20
522.29	1015.57
522.65	1031.82
523.01	1048.08
523.37	1064.30
523.73	1080.52
524.09	1096.56
524.45	1112.93
524.81	1129.64
525.17	1146.45
525.53	1163.40
525.89	1180.27
526.25	1197.08
526.61	1213.61
526.97	1230.27
527.33	1246.93
527.68	1263.58
528.04	1280.21
528.40	1296.89
528.76	1313.98
529.12	1330.61
529.48	1347.60
529.84	1363.75
530.20	1380.46
530.56	1397.62
530.91	1415.07
531.27	1431.95
531.63	1448.50
531.99	1465.09
532.35	1481.19
532.71	1497.10
533.07	1513.45
533.42	1529.55
533.78	1545.75
534.14	1562.04
534.50	1577.56
534.86	1593.44
535.21	1608.57
535.57	1624.63
535.93	1640.15
536.29	1655.14
536.65	1670.28
537.00	1685.16
537.36	1700.64
537.72	1715.39
538.08	1729.80
538.44	1743.65
538.79	1757.55
539.15	1771.48
539.51	1785.35
539.87	1799.84
540.22	1813.75
540.58	1827.72
540.94	1841.15
541.29	1854.26
541.65	1867.16
542.01	1880.51
542.37	1892.80
542.72	1905.48
543.08	1917.24
543.44	1929.69
543.79	1941.16
544.15	1952.29
544.51	1963.70
544.87	1974.70
545.22	1985.59
545.58	1995.94
545.94	2005.77
546.29	2015.81
546.65	2025.57
547.01	2034.96
547.36	2043.59
547.72	2051.96
548.07	2059.95
548.43	2068.28
548.79	2076.23
549.14	2083.55
549.50	2090.91
549.86	2098.85
550.21	2106.14
550.57	2113.43
550.92	2120.04
551.28	2126.98
551.64	2133.96
551.99	2140.68
552.35	2146.82
552.70	2152.72
553.06	2158.51
553.41	2164.88
553.77	2170.82
554.13	2176.95
554.48	2182.95
554.84	2188.27
555.19	2193.71
555.55	2198.56
555.90	2202.84
556.26	2207.55
556.61	2212.33
556.97	2216.43
557.32	2220.37
557.68	2224.37
558.03	2228.73
558.39	2232.48
558.74	2237.04
559.10	2240.81
559.45	2244.34
559.81	2248.70
560.16	2252.53
560.52	2255.83
560.87	2259.13
561.23	2261.70
561.58	2264.66
561.94	2266.99
562.29	2269.50
562.64	2271.93
563.00	2274.57
563.35	2278.00
563.71	2281.16
564.06	2284.37
564.42	2287.25
564.77	2289.57
565.12	2291.74
565.48	2293.42
565.83	2294.96
566.19	2295.94
566.54	2296.86
566.89	2297.81
567.25	2298.12
567.60	2299.44
567.96	2300.91
568.31	2301.59
568.66	2302.47
569.02	2302.65
569.37	2302.82
569.72	2303.40
570.08	2303.37
570.43	2303.22
570.78	2302.43
571.14	2300.65
571.49	2299.05
571.84	2298.65
572.20	2297.28
572.55	2296.00
572.90	2294.30
573.26	2292.72
573.61	2290.95
573.96	2288.98
574.31	2285.83
574.67	2282.53
575.02	2278.63
575.37	2275.15
575.72	2271.13
576.08	2267.70
576.43	2264.42
576.78	2260.69
577.13	2257.45
577.49	2254.29
577.84	2250.59
578.19	2246.77
578.54	2242.92
578.90	2238.54
579.25	2232.62
579.60	2227.44
579.95	2222.30
580.30	2217.08
580.66	2211.84
581.01	2206.89
581.36	2201.81
581.71	2197.54
582.06	2193.02
582.42	2188.42
582.77	2183.07
583.12	2178.31
583.47	2173.45
583.82	2168.21
584.17	2162.84
584.53	2157.19
584.88	2151.36
585.23	2145.45
585.58	2139.72
585.93	2134.29
586.28	2129.47
586.63	2124.45
586.98	2119.43
587.34	2114.83
587.69	2109.75
588.04	2104.41
588.39	2098.46
588.74	2091.91
589.09	2085.67
589.44	2078.69
589.79	2072.61
590.14	2066.90
590.49	2060.34
590.84	2053.83
591.19	2047.64
591.54	2041.09
591.89	2033.51
592.25	2026.64
592.60	2019.32
592.95	2011.60
593.30	2004.11
593.65	1996.40
594.00	1989.25
594.35	1981.86
594.70	1973.69
595.05	1966.40
595.40	1959.05
595.75	1951.73
596.10	1945.31
596.45	1938.37
596.80	1932.25
597.15	1925.57
597.50	1918.25
597.85	1911.83
598.19	1905.06
598.54	1897.92
598.89	1891.17
599.24	1885.29
599.59	1878.46
599.94	1872.17
600.29	1865.84
600.64	1859.18
600.99	1851.57
601.34	1844.66
601.69	1837.68
602.04	1830.57
602.39	1823.17
602.74	1816.36
603.08	1809.43
603.43	1802.76
603.78	1795.58
604.13	1788.27
604.48	1780.73
604.83	1773.98
605.18	1766.68
605.53	1758.61
605.87	1750.70
606.22	1743.46
606.57	1735.60
606.92	1728.27
607.27	1721.09
607.62	1714.19
607.96	1706.87
608.31	1700.23
608.66	1692.49
609.01	1684.89
609.36	1677.44
609.70	1669.46
610.05	1661.31
610.40	1653.65
610.75	1645.22
611.10	1637.58
611.44	1629.33
611.79	1621.35
612.14	1612.66
612.49	1603.76
612.83	1595.54
613.18	1587.37
613.53	1579.18
613.88	1570.57
614.22	1562.44
614.57	1553.99
614.92	1545.95
615.27	1538.45
615.61	1530.23
615.96	1522.38
616.31	1514.89
616.65	1507.55
617.00	1500.06
617.35	1492.48
617.70	1484.09
618.04	1475.60
618.39	1467.36
618.74	1459.71
619.08	1451.64
619.43	1444.15
619.78	1437.23
620.12	1429.99
620.47	1422.38
620.82	1414.45
621.16	1407.15
621.51	1399.57
621.85	1391.91
622.20	1383.53
622.55	1375.34
622.89	1367.57
623.24	1359.95
623.59	1352.62
623.93	1345.13
624.28	1337.94
624.62	1330.51
624.97	1323.39
625.32	1316.89
625.66	1309.95
626.01	1302.84
626.35	1295.27
626.70	1287.56
627.04	1279.82
627.39	1272.28
627.73	1265.02
628.08	1258.18
628.43	1250.74
628.77	1243.31
629.12	1235.77
629.46	1228.67
629.81	1221.25
630.15	1214.06
630.50	1206.81
630.84	1198.63
631.19	1190.85
631.53	1183.44
631.88	1175.88
632.22	1168.41
632.57	1161.08
632.91	1153.51
633.26	1146.12
633.60	1138.91
633.95	1131.91
634.29	1125.04
634.64	1118.34
634.98	1111.05
635.32	1103.93
635.67	1097.57
636.01	1091.02
636.36	1084.28
636.70	1077.84
637.05	1071.30
637.39	1064.96
637.73	1058.41
638.08	1052.59
638.42	1046.58
638.77	1040.13
639.11	1033.56
639.45	1027.17
639.80	1020.54
640.14	1014.18
640.49	1007.70
640.83	1001.51
641.17	995.26
641.52	988.94
641.86	982.52
642.20	976.76
642.55	970.55
642.89	964.03
643.23	957.49
643.58	951.75
643.92	945.62
644.26	939.54
644.61	933.55
644.95	927.54
645.29	920.95
645.64	914.27
645.98	907.94
646.32	902.17
646.66	896.15
647.01	890.41
647.35	884.75
647.69	878.99
648.04	873.43
648.38	867.61
648.72	861.56
649.06	855.64
649.41	849.66
649.75	843.59
650.09	837.63
650.43	831.99
650.78	825.89
651.12	819.84
651.46	814.16
651.80	808.34
652.14	802.98
652.49	797.59
652.83	792.43
653.17	786.78
653.51	781.00
653.85	775.69
654.20	770.02
654.54	764.05
654.88	758.36
655.22	752.56
655.56	746.92
655.90	741.54
656.25	736.15
656.59	730.87
656.93	725.88
657.27	720.80
657.61	715.31
657.95	710.26
658.29	705.20
658.64	699.99
658.98	694.72
659.32	689.31
659.66	684.17
660.00	678.84
660.34	673.92
660.68	669.07
661.02	664.06
661.36	659.42
661.70	654.92
662.05	650.52
662.39	646.16
662.73	641.73
663.07	637.37
663.41	633.09
663.75	628.67
664.09	624.11
664.43	619.76
664.77	615.71
665.11	611.48
665.45	607.47
665.79	603.38
666.13	599.33
666.47	595.29
666.81	591.16
667.15	587.13
667.49	583.35
667.83	579.67
668.17	575.72
668.51	571.66
668.85	567.72
669.19	564.00
669.53	560.22
669.87	556.36
670.21	552.71
670.55	549.09
670.89	545.70
671.23	542.28
671.57	538.81
671.91	535.32
672.25	531.89
672.58	528.40
672.92	525.12
673.26	522.01
673.60	518.92
673.94	515.88
674.28	513.02
674.62	510.10
674.96	506.99
675.30	504.19
675.64	501.34
675.97	498.65
676.31	495.74
676.65	492.85
676.99	490.21
677.33	487.39
677.67	484.57
678.01	481.55
678.34	478.64
678.68	475.84
679.02	473.06
679.36	470.31
679.70	467.58
680.04	464.84
680.37	462.00
680.71	459.19
681.05	456.59
681.39	453.86
681.73	451.18
682.06	448.70
682.40	446.08
682.74	443.54
683.08	440.99
683.42	438.48
683.75	436.03
684.09	433.55
684.43	431.10
684.77	428.67
685.10	426.33
685.44	424.07
685.78	421.76
686.12	419.52
686.45	417.26
686.79	415.00
687.13	412.81
687.46	410.69
687.80	408.58
688.14	406.37
688.48	404.34
688.81	402.10
689.15	399.94
689.49	397.87
689.82	395.82
690.16	393.72
690.50	391.73
690.83	389.79
691.17	387.77
691.51	385.84
691.84	384.01
692.18	382.11
692.52	380.08
692.85	378.17
693.19	376.29
693.52	374.48
693.86	372.67
694.20	370.91
694.53	369.06
694.87	367.25
695.21	365.48
695.54	363.66
695.88	361.98
696.21	360.26
696.55	358.56
696.88	356.87
697.22	355.27
697.56	353.67
697.89	352.01
698.23	350.37
698.56	348.78
698.90	347.17
699.23	345.49
699.57	343.97
699.90	342.45
700.24	340.95
700.58	339.43
700.91	337.93
701.25	336.47
701.58	335.13
701.92	333.72
702.25	332.36
702.59	331.05
702.92	329.74
703.26	328.46
703.59	327.23
703.93	326.05
704.26	324.83
704.60	323.54
704.93	322.28
705.26	321.09
705.60	319.94
705.93	318.82
706.27	317.85
706.60	316.86
706.94	315.78
707.27	314.69
707.61	313.65
707.94	312.68
708.27	311.58
708.61	310.53
708.94	309.61
709.28	308.62
709.61	307.67
709.94	306.70
710.28	305.68
710.61	304.67
710.95	303.61
711.28	302.71
711.61	301.79
711.95	300.90
712.28	299.96
712.61	299.00
712.95	298.03
713.28	297.15
713.61	296.21
713.95	295.34
714.28	294.47
714.61	293.63
714.95	292.75
715.28	291.93
715.61	291.09
715.95	290.22
716.28	289.39
716.61	288.54
716.95	287.73
717.28	286.99
717.61	286.25
717.94	285.55
718.28	284.71
718.61	283.99
718.94	283.30
719.27	282.66
719.61	282.03
719.94	281.40
720.27	280.71
720.60	280.08
720.94	279.45
721.27	278.87
721.60	278.30
721.93	277.73
722.27	277.22
722.60	276.63
722.93	276.07
723.26	275.54
723.59	275.00
723.93	274.51
724.26	273.95
724.59	273.43
724.92	272.92
725.25	272.48
725.59	271.95
725.92	271.44
726.25	270.92
726.58	270.43
726.91	269.93
727.24	269.48
727.57	268.99
727.91	268.51
728.24	268.04
728.57	267.53
728.90	267.06
729.23	266.51
729.56	266.10
729.89	265.61
730.22	265.13
730.55	264.65
730.89	264.15
731.22	263.72
731.55	263.28
731.88	262.80
732.21	262.34
732.54	261.91
732.87	261.49
733.20	261.10
733.53	260.68
733.86	260.31
734.19	259.91
734.52	259.55
734.85	259.23
735.18	258.81
735.51	258.43
735.84	258.07
736.17	257.73
736.50	257.31
736.83	257.08
737.16	256.75
737.49	256.43
737.82	256.10
738.15	255.78
738.48	255.42
738.81	255.10
739.14	254.80
739.47	254.47
739.80	254.19
740.13	253.85
740.46	253.56
740.79	253.21
741.12	252.87
741.45	252.53
741.78	252.18
742.11	251.89
742.44	251.56
742.77	251.27
743.10	250.99
743.43	250.72
743.75	250.34
744.08	250.18
744.41	249.90
744.74	249.60
745.07	249.31
745.40	249.05
745.73	248.85
746.06	248.55
746.39	248.34
746.71	248.05
747.04	247.82
747.37	247.54
747.70	247.30
748.03	247.06
748.36	246.83
748.68	246.58
749.01	246.31
749.34	246.11
749.67	245.86
750.00	245.61
750.33	245.41
750.65	245.18
750.98	244.88
751.31	244.65
751.64	244.48
751.97	244.33
752.29	244.13
752.62	243.87
752.95	243.68
753.28	243.44
753.60	243.25
753.93	243.06
754.26	242.89
754.59	242.69
754.91	242.47
755.24	242.29
755.57	242.11
755.90	241.95
756.22	241.74
756.55	241.57
756.88	241.39
757.20	241.17
757.53	241.03
757.86	240.86
758.19	240.73
758.51	240.54
758.84	240.31
759.17	240.14
759.49	240.00
759.82	239.87
760.15	239.75
760.47	239.58
760.80	239.43
761.13	239.30
761.45	239.12
761.78	239.02
762.11	238.90
762.43	238.75
762.76	238.65
763.08	238.57
763.41	238.43
763.74	238.31
764.06	238.18
764.39	238.04
764.71	237.88
765.04	237.74
765.37	237.63
765.69	237.54
766.02	237.44
766.34	237.32
766.67	237.19
767.00	237.07
767.32	237.01
767.65	236.94
767.97	236.82
768.30	236.72
768.62	236.61
768.95	236.48
769.27	236.36
769.60	236.27
769.92	236.14
770.25	236.01
770.57	235.88
770.90	235.80
771.22	235.69
771.55	235.60
771.87	235.50
772.20	235.41
772.52	235.37
772.85	235.38
773.17	235.26
773.50	235.17
773.82	235.05
774.15	234.89
774.47	234.72
774.80	234.61
775.12	234.55
775.45	234.46
775.77	234.37
776.09	234.31
776.42	234.20
776.74	234.13
777.07	234.04
777.39	233.97
777.72	233.87
778.04	233.80
778.36	233.71
778.69	233.62
779.01	233.55
779.33	233.38
779.66	233.18
779.98	233.11
780.31	233.01
780.63	233.02
780.95	232.96
781.28	232.88
781.60	232.81
781.92	232.71
782.25	232.59
782.57	232.52
782.89	232.46
783.22	232.38
783.54	232.29
783.86	232.24
784.19	232.19
784.51	232.17
784.83	232.11
785.16	232.03
785.48	231.99
785.80	231.92
786.12	231.89
786.45	231.86
786.77	231.84
787.09	231.76
