SpectraSuite Data File
++++++++++++++++++++++++++++++++++++
Date: Fri Feb 01 18:13:12 EST 2013
User: group
Dark Spectrum Present: No
Reference Spectrum Present: No
Number of Sampled Component Spectra: 1
Spectrometers: USB2E7196
Integration Time (usec): 35000 (USB2E7196)
Spectra Averaged: 100 (USB2E7196)
Boxcar Smoothing: 10 (USB2E7196)
Correct for Electrical Dark: No (USB2E7196)
Strobe/Lamp Enabled: No (USB2E7196)
Correct for Detector Non-linearity: No (USB2E7196)
Correct for Stray Light: No (USB2E7196)
Number of Pixels in Processed Spectrum: 2048
>>>>>Begin Processed Spectral Data<<<<<
339.09	0.00
339.48	212.43
339.86	214.36
340.24	215.19
340.63	217.01
341.01	220.04
341.39	219.75
341.78	221.47
342.16	222.21
342.54	223.22
342.93	211.26
343.31	221.93
343.69	222.48
344.07	222.97
344.46	223.45
344.84	223.86
345.22	224.09
345.60	224.34
345.99	224.54
346.37	224.69
346.75	224.79
347.13	224.86
347.52	224.96
347.90	225.05
348.28	225.10
348.66	225.18
349.05	225.19
349.43	225.24
349.81	225.29
350.19	225.32
350.57	225.36
350.96	225.47
351.34	225.59
351.72	225.67
352.10	225.73
352.48	225.78
352.87	225.81
353.25	225.88
353.63	226.00
354.01	226.04
354.39	226.14
354.77	226.19
355.15	226.29
355.54	226.34
355.92	226.38
356.30	226.46
356.68	226.59
357.06	226.68
357.44	226.74
357.82	226.82
358.20	226.90
358.58	226.99
358.97	227.06
359.35	227.14
359.73	227.24
360.11	227.32
360.49	227.39
360.87	227.44
361.25	227.54
361.63	227.58
362.01	227.64
362.39	227.66
362.77	227.74
363.15	227.75
363.53	227.78
363.91	227.81
364.29	227.84
364.67	227.76
365.05	227.80
365.43	227.84
365.81	227.83
366.19	227.92
366.57	227.97
366.95	227.93
367.33	227.89
367.71	227.88
368.09	227.90
368.47	227.88
368.85	227.87
369.23	227.84
369.61	227.81
369.99	227.83
370.37	227.82
370.75	227.85
371.13	227.81
371.51	227.77
371.89	227.73
372.27	227.70
372.65	227.66
373.03	227.58
373.41	227.51
373.78	227.50
374.16	227.37
374.54	227.32
374.92	227.27
375.30	227.21
375.68	227.13
376.06	227.06
376.44	226.97
376.82	226.93
377.19	226.85
377.57	226.78
377.95	226.70
378.33	226.61
378.71	226.47
379.09	226.43
379.47	226.35
379.84	226.27
380.22	226.16
380.60	226.10
380.98	226.05
381.36	226.00
381.73	225.86
382.11	225.84
382.49	225.75
382.87	225.70
383.25	225.65
383.62	225.71
384.00	225.67
384.38	225.69
384.76	225.64
385.13	225.65
385.51	225.61
385.89	225.51
386.27	225.50
386.64	225.46
387.02	225.40
387.40	225.38
387.78	225.36
388.15	225.32
388.53	225.28
388.91	225.25
389.29	225.21
389.66	225.24
390.04	225.16
390.42	225.15
390.79	225.13
391.17	225.09
391.55	224.97
391.92	224.97
392.30	224.92
392.68	224.90
393.05	224.87
393.43	224.85
393.81	224.90
394.18	224.89
394.56	224.94
394.94	224.94
395.31	224.95
395.69	225.03
396.06	225.10
396.44	225.14
396.82	225.18
397.19	225.23
397.57	225.25
397.95	225.34
398.32	225.37
398.70	225.40
399.07	225.50
399.45	225.55
399.82	225.57
400.20	225.65
400.58	225.73
400.95	225.74
401.33	225.86
401.70	226.00
402.08	226.07
402.45	226.11
402.83	226.25
403.20	226.39
403.58	226.44
403.95	226.56
404.33	226.72
404.71	226.86
405.08	227.09
405.46	227.26
405.83	227.42
406.21	227.60
406.58	227.85
406.96	228.02
407.33	228.24
407.70	228.46
408.08	228.78
408.45	229.06
408.83	229.36
409.20	229.58
409.58	229.83
409.95	230.16
410.33	230.52
410.70	230.86
411.08	231.26
411.45	231.70
411.82	232.12
412.20	232.55
412.57	233.10
412.95	233.52
413.32	234.06
413.69	234.61
414.07	235.21
414.44	235.82
414.82	236.54
415.19	237.29
415.56	238.04
415.94	238.79
416.31	239.69
416.68	240.55
417.06	241.56
417.43	242.49
417.81	243.57
418.18	244.65
418.55	245.79
418.93	247.00
419.30	248.26
419.67	249.59
420.04	250.91
420.42	252.29
420.79	253.88
421.16	255.51
421.54	257.17
421.91	258.87
422.28	260.66
422.66	262.48
423.03	264.26
423.40	266.15
423.77	268.11
424.15	270.09
424.52	272.21
424.89	274.48
425.26	276.71
425.64	278.76
426.01	281.02
426.38	283.37
426.75	285.68
427.13	288.06
427.50	290.57
427.87	293.26
428.24	295.94
428.61	298.48
428.99	301.24
429.36	304.21
429.73	307.14
430.10	309.94
430.47	312.85
430.85	315.87
431.22	319.06
431.59	322.40
431.96	325.57
432.33	329.04
432.70	332.35
433.08	336.27
433.45	339.94
433.82	343.61
434.19	347.65
434.56	351.62
434.93	355.37
435.30	359.07
435.68	363.16
436.05	367.09
436.42	370.99
436.79	374.50
437.16	378.33
437.53	382.32
437.90	386.29
438.27	390.14
438.64	394.05
439.01	397.72
439.38	400.93
439.75	403.98
440.13	407.53
440.50	410.82
440.87	413.45
441.24	416.21
441.61	419.25
441.98	421.41
442.35	423.98
442.72	426.62
443.09	429.19
443.46	430.55
443.83	431.43
444.20	432.15
444.57	433.36
444.94	433.77
445.31	434.26
445.68	434.80
446.05	434.93
446.42	434.45
446.79	433.84
447.16	433.22
447.53	432.79
447.90	431.14
448.27	429.56
448.64	427.35
449.01	425.79
449.37	422.97
449.74	420.27
450.11	417.03
450.48	413.51
450.85	409.97
451.22	406.99
451.59	404.10
451.96	401.40
452.33	397.67
452.70	394.26
453.07	390.25
453.43	386.14
453.80	382.23
454.17	378.52
454.54	374.92
454.91	371.07
455.28	367.29
455.65	363.81
456.02	360.29
456.38	357.21
456.75	353.45
457.12	350.33
457.49	347.17
457.86	344.17
458.23	341.53
458.59	338.59
458.96	335.60
459.33	332.96
459.70	330.26
460.07	328.16
460.43	325.77
460.80	323.44
461.17	321.33
461.54	319.22
461.91	317.15
462.27	315.13
462.64	313.37
463.01	311.41
463.38	309.53
463.74	307.64
464.11	305.99
464.48	304.49
464.85	302.90
465.21	301.67
465.58	300.34
465.95	298.81
466.32	297.54
466.68	296.24
467.05	294.95
467.42	293.67
467.78	292.33
468.15	291.05
468.52	290.10
468.88	288.89
469.25	287.75
469.62	286.82
469.98	285.81
470.35	284.85
470.72	284.01
471.08	283.06
471.45	282.25
471.82	281.45
472.18	280.60
472.55	279.97
472.92	279.19
473.28	278.50
473.65	277.86
474.02	277.19
474.38	276.64
474.75	276.18
475.11	275.69
475.48	275.28
475.85	274.95
476.21	274.61
476.58	274.35
476.94	274.14
477.31	273.87
477.67	273.61
478.04	273.42
478.41	273.22
478.77	273.17
479.14	273.04
479.50	272.99
479.87	273.04
480.23	273.01
480.60	273.07
480.96	273.11
481.33	273.30
481.69	273.47
482.06	273.62
482.42	273.76
482.79	273.97
483.15	274.29
483.52	274.65
483.88	274.96
484.25	275.32
484.61	275.72
484.98	276.17
485.34	276.72
485.71	277.34
486.07	278.01
486.44	278.61
486.80	279.31
487.17	280.02
487.53	280.84
487.90	281.76
488.26	282.72
488.62	283.79
488.99	284.78
489.35	285.85
489.72	287.06
490.08	288.34
490.44	289.67
490.81	291.04
491.17	292.51
491.54	294.09
491.90	295.69
492.26	297.45
492.63	299.29
492.99	301.20
493.36	303.15
493.72	305.32
494.08	307.58
494.45	310.02
494.81	312.57
495.17	315.14
495.54	317.86
495.90	320.69
496.26	323.69
496.63	326.89
496.99	330.23
497.35	333.70
497.72	337.31
498.08	341.07
498.44	344.99
498.80	349.15
499.17	353.51
499.53	358.06
499.89	362.73
500.26	367.53
500.62	372.53
500.98	377.88
501.34	383.27
501.71	388.94
502.07	394.80
502.43	400.86
502.79	407.12
503.16	413.64
503.52	420.42
503.88	427.26
504.24	434.33
504.60	441.77
504.97	449.46
505.33	457.35
505.69	465.65
506.05	474.02
506.41	482.54
506.78	491.28
507.14	500.34
507.50	509.79
507.86	519.60
508.22	529.57
508.59	539.53
508.95	549.94
509.31	560.53
509.67	571.38
510.03	582.46
510.39	593.93
510.75	605.67
511.12	617.48
511.48	629.73
511.84	642.20
512.20	654.68
512.56	667.60
512.92	680.85
513.28	694.42
513.64	708.04
514.00	721.94
514.37	736.12
514.73	750.33
515.09	764.49
515.45	779.03
515.81	793.83
516.17	809.15
516.53	824.65
516.89	840.29
517.25	855.94
517.61	871.85
517.97	887.70
518.33	903.47
518.69	919.78
519.05	936.27
519.41	953.08
519.77	970.26
520.13	987.39
520.49	1004.48
520.85	1021.48
521.21	1038.87
521.57	1056.85
521.93	1074.28
522.29	1092.60
522.65	1110.71
523.01	1128.73
523.37	1146.70
523.73	1164.79
524.09	1182.77
524.45	1200.91
524.81	1219.51
525.17	1238.21
525.53	1257.19
525.89	1276.26
526.25	1295.15
526.61	1313.66
526.97	1332.39
527.33	1351.11
527.68	1369.80
528.04	1388.47
528.40	1407.19
528.76	1426.52
529.12	1445.31
529.48	1464.64
529.84	1482.80
530.20	1501.81
530.56	1521.12
530.91	1540.97
531.27	1560.15
531.63	1578.96
531.99	1598.03
532.35	1616.39
532.71	1634.75
533.07	1653.57
533.42	1671.90
533.78	1690.57
534.14	1709.38
534.50	1727.27
534.86	1745.53
535.21	1763.21
535.57	1781.73
535.93	1799.79
536.29	1817.13
536.65	1834.74
537.00	1851.78
537.36	1869.83
537.72	1886.83
538.08	1903.91
538.44	1920.15
538.79	1936.51
539.15	1952.70
539.51	1969.01
539.87	1985.93
540.22	2002.43
540.58	2018.84
540.94	2034.76
541.29	2050.12
541.65	2065.50
542.01	2081.44
542.37	2096.42
542.72	2111.48
543.08	2125.81
543.44	2140.83
543.79	2154.63
544.15	2168.14
544.51	2182.53
544.87	2195.97
545.22	2209.43
545.58	2222.29
545.94	2234.52
546.29	2246.89
546.65	2259.42
547.01	2271.07
547.36	2282.41
547.72	2293.19
548.07	2303.43
548.43	2313.85
548.79	2324.13
549.14	2333.93
549.50	2343.35
549.86	2353.26
550.21	2362.85
550.57	2372.33
550.92	2381.25
551.28	2390.45
551.64	2399.87
551.99	2408.61
552.35	2416.96
552.70	2425.22
553.06	2433.13
553.41	2441.76
553.77	2449.90
554.13	2458.02
554.48	2466.38
554.84	2473.84
555.19	2481.13
555.55	2488.19
555.90	2494.79
556.26	2501.91
556.61	2508.60
556.97	2515.19
557.32	2521.19
557.68	2527.20
558.03	2533.33
558.39	2538.76
558.74	2545.32
559.10	2550.93
559.45	2556.20
559.81	2562.18
560.16	2567.77
560.52	2572.77
560.87	2577.84
561.23	2581.99
561.58	2586.48
561.94	2590.51
562.29	2594.26
562.64	2598.62
563.00	2602.66
563.35	2607.58
563.71	2612.03
564.06	2616.64
564.42	2620.80
564.77	2624.82
565.12	2628.57
565.48	2631.68
565.83	2634.85
566.19	2637.43
566.54	2639.36
566.89	2641.85
567.25	2643.73
567.60	2646.16
567.96	2649.09
568.31	2650.92
568.66	2653.27
569.02	2654.85
569.37	2656.14
569.72	2658.22
570.08	2659.18
570.43	2660.10
570.78	2660.44
571.14	2659.58
571.49	2658.89
571.84	2659.23
572.20	2658.74
572.55	2658.26
572.90	2657.29
573.26	2656.44
573.61	2655.09
573.96	2654.01
574.31	2651.26
574.67	2648.49
575.02	2644.85
575.37	2641.49
575.72	2637.77
576.08	2634.37
576.43	2631.00
576.78	2627.50
577.13	2624.25
577.49	2620.99
577.84	2617.49
578.19	2613.45
578.54	2609.80
578.90	2605.61
579.25	2599.50
579.60	2594.18
579.95	2588.77
580.30	2583.54
580.66	2578.02
581.01	2572.57
581.36	2567.07
581.71	2562.61
582.06	2557.78
582.42	2553.28
582.77	2547.59
583.12	2542.71
583.47	2537.76
583.82	2532.45
584.17	2526.53
584.53	2520.48
584.88	2514.38
585.23	2507.96
585.58	2502.07
585.93	2496.04
586.28	2490.59
586.63	2485.19
586.98	2479.62
587.34	2474.42
587.69	2468.68
588.04	2462.74
588.39	2456.49
588.74	2449.08
589.09	2442.06
589.44	2434.30
589.79	2427.15
590.14	2420.65
590.49	2413.03
590.84	2405.60
591.19	2398.71
591.54	2391.44
591.89	2382.90
592.25	2375.13
592.60	2366.92
592.95	2358.12
593.30	2349.59
593.65	2340.66
594.00	2332.43
594.35	2323.89
594.70	2314.36
595.05	2306.05
595.40	2297.56
595.75	2288.80
596.10	2281.83
596.45	2274.03
596.80	2266.78
597.15	2259.24
597.50	2251.24
597.85	2243.76
598.19	2236.05
598.54	2227.91
598.89	2220.00
599.24	2213.08
599.59	2205.31
599.94	2197.88
600.29	2190.54
600.64	2182.65
600.99	2173.90
601.34	2165.79
601.69	2157.55
602.04	2149.68
602.39	2141.10
602.74	2133.08
603.08	2124.99
603.43	2116.75
603.78	2107.93
604.13	2099.37
604.48	2090.77
604.83	2082.37
605.18	2074.13
605.53	2064.64
605.87	2054.87
606.22	2046.03
606.57	2036.51
606.92	2027.46
607.27	2018.91
607.62	2010.60
607.96	2001.93
608.31	1994.16
608.66	1985.10
609.01	1976.17
609.36	1967.03
609.70	1957.28
610.05	1947.49
610.40	1938.40
610.75	1928.48
611.10	1919.38
611.44	1909.29
611.79	1899.48
612.14	1889.14
612.49	1878.05
612.83	1867.94
613.18	1858.12
613.53	1848.57
613.88	1838.35
614.22	1828.65
614.57	1818.36
614.92	1808.72
615.27	1799.70
615.61	1789.75
615.96	1780.06
616.31	1770.80
616.65	1761.90
617.00	1752.94
617.35	1743.73
617.70	1733.83
618.04	1723.61
618.39	1713.66
618.74	1704.37
619.08	1694.47
619.43	1685.26
619.78	1676.97
620.12	1668.45
620.47	1659.49
620.82	1649.59
621.16	1640.44
621.51	1631.12
621.85	1621.93
622.20	1611.62
622.55	1601.39
622.89	1591.76
623.24	1582.52
623.59	1573.51
623.93	1564.45
624.28	1555.62
624.62	1546.59
624.97	1537.89
625.32	1529.71
625.66	1521.29
626.01	1512.81
626.35	1503.88
626.70	1494.51
627.04	1485.19
627.39	1475.58
627.73	1466.64
628.08	1458.34
628.43	1449.79
628.77	1440.96
629.12	1431.76
629.46	1423.21
629.81	1414.23
630.15	1405.56
630.50	1396.64
630.84	1386.75
631.19	1377.21
631.53	1368.14
631.88	1359.06
632.22	1349.85
632.57	1341.07
632.91	1331.96
633.26	1323.01
633.60	1314.06
633.95	1305.51
634.29	1297.06
634.64	1289.19
634.98	1280.34
635.32	1271.67
635.67	1263.69
636.01	1255.63
636.36	1247.61
636.70	1239.59
637.05	1231.87
637.39	1224.13
637.73	1216.32
638.08	1209.26
638.42	1202.05
638.77	1194.34
639.11	1186.52
639.45	1178.92
639.80	1170.94
640.14	1163.35
640.49	1155.58
640.83	1148.15
641.17	1140.84
641.52	1133.24
641.86	1125.48
642.20	1118.48
642.55	1110.95
642.89	1103.22
643.23	1095.46
643.58	1088.55
643.92	1081.32
644.26	1074.15
644.61	1066.95
644.95	1059.80
645.29	1052.11
645.64	1044.17
645.98	1036.67
646.32	1029.57
646.66	1022.38
647.01	1015.65
647.35	1008.86
647.69	1001.84
648.04	995.20
648.38	988.30
648.72	981.31
649.06	974.11
649.41	967.20
649.75	960.16
650.09	953.16
650.43	946.36
650.78	939.04
651.12	931.90
651.46	925.04
651.80	918.30
652.14	911.93
652.49	905.55
652.83	899.41
653.17	892.77
653.51	886.12
653.85	879.71
654.20	872.95
654.54	865.79
654.88	859.03
655.22	852.01
655.56	845.23
655.90	838.65
656.25	832.48
656.59	826.13
656.93	820.18
657.27	814.09
657.61	807.64
657.95	801.62
658.29	795.64
658.64	789.37
658.98	783.01
659.32	776.54
659.66	770.34
660.00	764.06
660.34	758.20
660.68	752.33
661.02	746.39
661.36	740.87
661.70	735.50
662.05	730.42
662.39	725.42
662.73	720.12
663.07	715.01
663.41	709.73
663.75	704.44
664.09	699.00
664.43	693.74
664.77	688.90
665.11	683.87
665.45	679.01
665.79	674.25
666.13	669.41
666.47	664.60
666.81	659.74
667.15	654.84
667.49	650.17
667.83	645.68
668.17	641.02
668.51	636.20
668.85	631.44
669.19	626.87
669.53	622.31
669.87	617.74
670.21	613.33
670.55	608.94
670.89	604.86
671.23	600.81
671.57	596.68
671.91	592.45
672.25	588.33
672.58	584.18
672.92	580.11
673.26	576.39
673.60	572.65
673.94	568.97
674.28	565.55
674.62	562.09
674.96	558.45
675.30	554.99
675.64	551.55
675.97	548.33
676.31	544.89
676.65	541.46
676.99	538.30
677.33	534.97
677.67	531.74
678.01	528.17
678.34	524.67
678.68	521.28
679.02	518.02
679.36	514.73
679.70	511.55
680.04	508.33
680.37	505.00
680.71	501.74
681.05	498.67
681.39	495.47
681.73	492.29
682.06	489.32
682.40	486.37
682.74	483.38
683.08	480.31
683.42	477.28
683.75	474.33
684.09	471.27
684.43	468.32
684.77	465.46
685.10	462.67
685.44	460.01
685.78	457.35
686.12	454.65
686.45	451.94
686.79	449.19
687.13	446.54
687.46	443.92
687.80	441.31
688.14	438.66
688.48	436.23
688.81	433.64
689.15	431.11
689.49	428.55
689.82	426.11
690.16	423.67
690.50	421.35
690.83	419.06
691.17	416.71
691.51	414.47
691.84	412.21
692.18	409.94
692.52	407.61
692.85	405.29
693.19	403.07
693.52	400.89
693.86	398.73
694.20	396.63
694.53	394.53
694.87	392.37
695.21	390.28
695.54	388.12
695.88	386.07
696.21	384.01
696.55	382.05
696.88	380.08
697.22	378.15
697.56	376.24
697.89	374.28
698.23	372.42
698.56	370.50
698.90	368.65
699.23	366.72
699.57	364.85
699.90	363.04
700.24	361.24
700.58	359.45
700.91	357.73
701.25	356.06
701.58	354.44
701.92	352.84
702.25	351.22
702.59	349.63
702.92	348.07
703.26	346.50
703.59	344.99
703.93	343.53
704.26	342.09
704.60	340.54
704.93	339.03
705.26	337.52
705.60	336.13
705.93	334.74
706.27	333.52
706.60	332.28
706.94	330.98
707.27	329.62
707.61	328.35
707.94	327.16
708.27	325.89
708.61	324.55
708.94	323.34
709.28	322.17
709.61	320.99
709.94	319.82
710.28	318.61
710.61	317.40
710.95	316.12
711.28	314.99
711.61	313.86
711.95	312.80
712.28	311.74
712.61	310.57
712.95	309.48
713.28	308.40
713.61	307.29
713.95	306.26
714.28	305.23
714.61	304.21
714.95	303.11
715.28	302.11
715.61	301.07
715.95	300.07
716.28	299.08
716.61	298.09
716.95	297.13
717.28	296.25
717.61	295.33
717.94	294.48
718.28	293.46
718.61	292.60
718.94	291.74
719.27	290.93
719.61	290.17
719.94	289.37
720.27	288.53
720.60	287.76
720.94	287.01
721.27	286.29
721.60	285.62
721.93	284.95
722.27	284.26
722.60	283.64
722.93	282.96
723.26	282.32
723.59	281.65
723.93	280.98
724.26	280.33
724.59	279.69
724.92	279.05
725.25	278.51
725.59	277.89
725.92	277.33
726.25	276.71
726.58	276.13
726.91	275.56
727.24	275.00
727.57	274.46
727.91	273.84
728.24	273.28
728.57	272.69
728.90	272.13
729.23	271.53
729.56	271.00
729.89	270.44
730.22	269.88
730.55	269.34
730.89	268.81
731.22	268.29
731.55	267.78
731.88	267.29
732.21	266.79
732.54	266.28
732.87	265.75
733.20	265.31
733.53	264.82
733.86	264.35
734.19	263.87
734.52	263.43
734.85	263.06
735.18	262.59
735.51	262.18
735.84	261.74
736.17	261.32
736.50	260.84
736.83	260.51
737.16	260.07
737.49	259.69
737.82	259.31
738.15	258.87
738.48	258.47
738.81	258.06
739.14	257.67
739.47	257.29
739.80	256.94
740.13	256.54
740.46	256.18
740.79	255.82
741.12	255.46
741.45	255.04
741.78	254.63
742.11	254.28
742.44	253.87
742.77	253.51
743.10	253.17
743.43	252.81
743.75	252.39
744.08	252.18
744.41	251.84
744.74	251.52
745.07	251.17
745.40	250.85
745.73	250.56
746.06	250.24
746.39	249.93
746.71	249.60
747.04	249.26
747.37	248.92
747.70	248.60
748.03	248.30
748.36	248.05
748.68	247.76
749.01	247.47
749.34	247.25
749.67	246.99
750.00	246.73
750.33	246.54
750.65	246.28
750.98	245.90
751.31	245.60
751.64	245.37
751.97	245.20
752.29	244.97
752.62	244.69
752.95	244.41
753.28	244.16
753.60	243.93
753.93	243.73
754.26	243.51
754.59	243.27
754.91	243.01
755.24	242.77
755.57	242.54
755.90	242.33
756.22	242.06
756.55	241.82
756.88	241.57
757.20	241.32
757.53	241.10
757.86	240.93
758.19	240.76
758.51	240.51
758.84	240.26
759.17	240.01
759.49	239.79
759.82	239.64
760.15	239.44
760.47	239.24
760.80	239.03
761.13	238.87
761.45	238.65
761.78	238.47
762.11	238.27
762.43	238.09
762.76	237.93
763.08	237.80
763.41	237.63
763.74	237.47
764.06	237.28
764.39	237.11
764.71	236.94
765.04	236.78
765.37	236.66
765.69	236.51
766.02	236.39
766.34	236.27
766.67	236.09
767.00	235.96
767.32	235.92
767.65	235.85
767.97	235.71
768.30	235.59
768.62	235.47
768.95	235.36
769.27	235.22
769.60	235.06
769.92	234.90
770.25	234.75
770.57	234.63
770.90	234.53
771.22	234.43
771.55	234.33
771.87	234.19
772.20	234.04
772.52	234.01
772.85	234.03
773.17	233.90
773.50	233.80
773.82	233.68
774.15	233.50
774.47	233.35
774.80	233.25
775.12	233.15
775.45	233.07
775.77	233.00
776.09	232.93
776.42	232.87
776.74	232.81
777.07	232.75
777.39	232.70
777.72	232.59
778.04	232.48
778.36	232.38
778.69	232.32
779.01	232.27
779.33	232.11
779.66	231.92
779.98	231.86
780.31	231.80
780.63	231.77
780.95	231.71
781.28	231.64
781.60	231.58
781.92	231.55
782.25	231.47
782.57	231.41
782.89	231.35
783.22	231.31
783.54	231.20
783.86	231.17
784.19	231.11
784.51	231.12
784.83	231.11
785.16	231.06
785.48	231.03
785.80	230.99
786.12	230.97
786.45	230.93
