SpectraSuite Data File
++++++++++++++++++++++++++++++++++++
Date: Fri Feb 01 17:47:19 EST 2013
User: group
Dark Spectrum Present: No
Reference Spectrum Present: No
Number of Sampled Component Spectra: 1
Spectrometers: USB2E7196
Integration Time (usec): 35000 (USB2E7196)
Spectra Averaged: 100 (USB2E7196)
Boxcar Smoothing: 10 (USB2E7196)
Correct for Electrical Dark: No (USB2E7196)
Strobe/Lamp Enabled: No (USB2E7196)
Correct for Detector Non-linearity: No (USB2E7196)
Correct for Stray Light: No (USB2E7196)
Number of Pixels in Processed Spectrum: 2048
>>>>>Begin Processed Spectral Data<<<<<
339.09	0.00
339.48	212.58
339.86	213.84
340.24	215.46
340.63	216.75
341.01	219.76
341.39	219.60
341.78	221.16
342.16	222.06
342.54	223.12
342.93	211.13
343.31	221.77
343.69	222.33
344.07	222.82
344.46	223.22
344.84	223.62
345.22	223.88
345.60	224.12
345.99	224.32
346.37	224.45
346.75	224.52
347.13	224.58
347.52	224.70
347.90	224.76
348.28	224.82
348.66	224.86
349.05	224.88
349.43	224.90
349.81	224.98
350.19	225.07
350.57	225.13
350.96	225.19
351.34	225.31
351.72	225.41
352.10	225.51
352.48	225.62
352.87	225.69
353.25	225.72
353.63	225.78
354.01	225.82
354.39	225.90
354.77	225.99
355.15	226.07
355.54	226.12
355.92	226.17
356.30	226.24
356.68	226.37
357.06	226.43
357.44	226.48
357.82	226.54
358.20	226.59
358.58	226.64
358.97	226.70
359.35	226.76
359.73	226.81
360.11	226.84
360.49	226.87
360.87	226.90
361.25	226.98
361.63	227.05
362.01	227.10
362.39	227.11
362.77	227.17
363.15	227.19
363.53	227.20
363.91	227.24
364.29	227.26
364.67	227.17
365.05	227.19
365.43	227.24
365.81	227.24
366.19	227.27
366.57	227.29
366.95	227.31
367.33	227.30
367.71	227.26
368.09	227.27
368.47	227.27
368.85	227.26
369.23	227.27
369.61	227.25
369.99	227.24
370.37	227.25
370.75	227.25
371.13	227.21
371.51	227.19
371.89	227.13
372.27	227.08
372.65	227.06
373.03	227.02
373.41	226.97
373.78	226.92
374.16	226.82
374.54	226.79
374.92	226.71
375.30	226.68
375.68	226.63
376.06	226.59
376.44	226.51
376.82	226.44
377.19	226.37
377.57	226.28
377.95	226.20
378.33	226.11
378.71	226.00
379.09	225.93
379.47	225.86
379.84	225.78
380.22	225.70
380.60	225.60
380.98	225.53
381.36	225.46
381.73	225.40
382.11	225.39
382.49	225.29
382.87	225.25
383.25	225.16
383.62	225.23
384.00	225.17
384.38	225.14
384.76	225.11
385.13	225.07
385.51	225.06
385.89	224.99
386.27	224.96
386.64	224.95
387.02	224.91
387.40	224.88
387.78	224.87
388.15	224.86
388.53	224.84
388.91	224.80
389.29	224.77
389.66	224.74
390.04	224.69
390.42	224.71
390.79	224.69
391.17	224.66
391.55	224.56
391.92	224.55
392.30	224.53
392.68	224.50
393.05	224.51
393.43	224.48
393.81	224.49
394.18	224.49
394.56	224.52
394.94	224.53
395.31	224.52
395.69	224.54
396.06	224.56
396.44	224.60
396.82	224.64
397.19	224.71
397.57	224.73
397.95	224.76
398.32	224.78
398.70	224.83
399.07	224.90
399.45	224.94
399.82	224.97
400.20	225.05
400.58	225.14
400.95	225.18
401.33	225.27
401.70	225.43
402.08	225.52
402.45	225.57
402.83	225.71
403.20	225.85
403.58	225.98
403.95	226.13
404.33	226.28
404.71	226.43
405.08	226.61
405.46	226.79
405.83	226.98
406.21	227.14
406.58	227.33
406.96	227.51
407.33	227.70
407.70	227.96
408.08	228.28
408.45	228.53
408.83	228.80
409.20	229.06
409.58	229.29
409.95	229.60
410.33	229.95
410.70	230.23
411.08	230.62
411.45	230.96
411.82	231.31
412.20	231.77
412.57	232.27
412.95	232.67
413.32	233.17
413.69	233.70
414.07	234.28
414.44	234.88
414.82	235.49
415.19	236.22
415.56	236.92
415.94	237.59
416.31	238.42
416.68	239.21
417.06	240.14
417.43	241.00
417.81	241.98
418.18	242.95
418.55	244.05
418.93	245.15
419.30	246.31
419.67	247.50
420.04	248.66
420.42	249.90
420.79	251.38
421.16	252.87
421.54	254.38
421.91	255.89
422.28	257.46
422.66	259.13
423.03	260.73
423.40	262.38
423.77	264.18
424.15	266.00
424.52	267.86
424.89	269.91
425.26	271.90
425.64	273.77
426.01	275.80
426.38	277.94
426.75	280.03
427.13	282.24
427.50	284.58
427.87	287.01
428.24	289.43
428.61	291.71
428.99	294.13
429.36	296.80
429.73	299.45
430.10	302.02
430.47	304.64
430.85	307.46
431.22	310.36
431.59	313.41
431.96	316.28
432.33	319.44
432.70	322.48
433.08	326.08
433.45	329.44
433.82	332.79
434.19	336.45
434.56	340.07
434.93	343.44
435.30	346.79
435.68	350.51
436.05	354.11
436.42	357.64
436.79	360.89
437.16	364.35
437.53	367.96
437.90	371.58
438.27	375.13
438.64	378.67
439.01	381.96
439.38	384.79
439.75	387.52
440.13	390.72
440.50	393.73
440.87	396.10
441.24	398.55
441.61	401.29
441.98	403.22
442.35	405.57
442.72	407.94
443.09	410.24
443.46	411.51
443.83	412.31
444.20	412.98
444.57	414.06
444.94	414.43
445.31	414.90
445.68	415.34
446.05	415.48
446.42	415.05
446.79	414.52
447.16	414.05
447.53	413.68
447.90	412.22
448.27	410.72
448.64	408.70
449.01	407.30
449.37	404.81
449.74	402.39
450.11	399.51
450.48	396.40
450.85	393.18
451.22	390.45
451.59	387.85
451.96	385.36
452.33	382.04
452.70	379.03
453.07	375.41
453.43	371.74
453.80	368.16
454.17	364.72
454.54	361.47
454.91	357.98
455.28	354.58
455.65	351.40
456.02	348.25
456.38	345.49
456.75	342.06
457.12	339.15
457.49	336.26
457.86	333.46
458.23	331.01
458.59	328.39
458.96	325.67
459.33	323.30
459.70	320.92
460.07	318.98
460.43	316.75
460.80	314.62
461.17	312.75
461.54	310.80
461.91	308.91
462.27	307.03
462.64	305.38
463.01	303.61
463.38	301.89
463.74	300.17
464.11	298.68
464.48	297.37
464.85	295.96
465.21	294.87
465.58	293.63
465.95	292.26
466.32	291.07
466.68	289.90
467.05	288.71
467.42	287.57
467.78	286.36
468.15	285.23
468.52	284.40
468.88	283.29
469.25	282.32
469.62	281.53
469.98	280.66
470.35	279.83
470.72	279.05
471.08	278.21
471.45	277.51
471.82	276.79
472.18	276.01
472.55	275.43
472.92	274.71
473.28	274.09
473.65	273.47
474.02	272.91
474.38	272.45
474.75	272.00
475.11	271.55
475.48	271.18
475.85	270.85
476.21	270.53
476.58	270.27
476.94	270.04
477.31	269.79
477.67	269.57
478.04	269.40
478.41	269.29
478.77	269.31
479.14	269.16
479.50	269.10
479.87	269.14
480.23	269.16
480.60	269.20
480.96	269.30
481.33	269.51
481.69	269.65
482.06	269.80
482.42	269.92
482.79	270.07
483.15	270.35
483.52	270.70
483.88	271.00
484.25	271.34
484.61	271.74
484.98	272.17
485.34	272.73
485.71	273.29
486.07	273.85
486.44	274.38
486.80	275.08
487.17	275.80
487.53	276.60
487.90	277.48
488.26	278.43
488.62	279.42
488.99	280.39
489.35	281.47
489.72	282.60
490.08	283.88
490.44	285.17
490.81	286.54
491.17	287.92
491.54	289.45
491.90	291.03
492.26	292.79
492.63	294.59
492.99	296.42
493.36	298.39
493.72	300.52
494.08	302.74
494.45	305.10
494.81	307.54
495.17	310.10
495.54	312.76
495.90	315.58
496.26	318.49
496.63	321.56
496.99	324.80
497.35	328.21
497.72	331.73
498.08	335.41
498.44	339.33
498.80	343.47
499.17	347.70
499.53	352.11
499.89	356.67
500.26	361.37
500.62	366.21
500.98	371.39
501.34	376.71
501.71	382.26
502.07	387.92
502.43	393.81
502.79	399.88
503.16	406.23
503.52	412.76
503.88	419.41
504.24	426.39
504.60	433.58
504.97	441.08
505.33	448.79
505.69	456.84
506.05	464.97
506.41	473.23
506.78	481.77
507.14	490.66
507.50	499.81
507.86	509.28
508.22	518.92
508.59	528.64
508.95	538.66
509.31	548.91
509.67	559.56
510.03	570.36
510.39	581.46
510.75	592.80
511.12	604.29
511.48	616.27
511.84	628.38
512.20	640.51
512.56	652.99
512.92	665.92
513.28	679.02
513.64	692.23
514.00	705.62
514.37	719.41
514.73	733.11
515.09	746.86
515.45	760.95
515.81	775.39
516.17	790.15
516.53	805.10
516.89	820.19
517.25	835.17
517.61	850.49
517.97	865.93
518.33	881.32
518.69	897.08
519.05	912.97
519.41	929.05
519.77	945.57
520.13	961.99
520.49	978.23
520.85	994.56
521.21	1011.29
521.57	1028.66
521.93	1045.31
522.29	1062.85
522.65	1080.27
523.01	1097.66
523.37	1114.86
523.73	1132.24
524.09	1149.59
524.45	1167.11
524.81	1184.99
525.17	1203.04
525.53	1221.16
525.89	1239.27
526.25	1257.38
526.61	1275.19
526.97	1293.18
527.33	1311.05
527.68	1329.11
528.04	1347.05
528.40	1364.99
528.76	1383.52
529.12	1401.45
529.48	1419.96
529.84	1437.46
530.20	1455.46
530.56	1473.82
530.91	1492.72
531.27	1511.02
531.63	1528.97
531.99	1546.99
532.35	1564.62
532.71	1581.99
533.07	1599.86
533.42	1617.40
533.78	1635.11
534.14	1652.87
534.50	1669.96
534.86	1687.45
535.21	1704.32
535.57	1721.86
535.93	1739.14
536.29	1755.49
536.65	1772.19
537.00	1788.46
537.36	1805.55
537.72	1821.75
538.08	1838.10
538.44	1853.60
538.79	1869.16
539.15	1884.47
539.51	1899.99
539.87	1915.88
540.22	1931.31
540.58	1946.66
540.94	1961.65
541.29	1976.20
541.65	1990.65
542.01	2005.68
542.37	2019.78
542.72	2033.85
543.08	2047.56
543.44	2061.77
543.79	2074.84
544.15	2087.55
544.51	2100.99
544.87	2113.63
545.22	2126.27
545.58	2138.14
545.94	2149.64
546.29	2161.30
546.65	2172.98
547.01	2184.04
547.36	2194.55
547.72	2204.81
548.07	2214.46
548.43	2224.36
548.79	2233.92
549.14	2243.18
549.50	2251.88
549.86	2261.05
550.21	2270.04
550.57	2278.78
550.92	2286.90
551.28	2295.57
551.64	2304.35
551.99	2312.44
552.35	2320.24
552.70	2327.95
553.06	2335.53
553.41	2343.59
553.77	2351.11
554.13	2358.58
554.48	2366.33
554.84	2373.59
555.19	2380.30
555.55	2386.95
555.90	2392.94
556.26	2399.56
556.61	2405.70
556.97	2411.72
557.32	2417.35
557.68	2422.90
558.03	2428.44
558.39	2433.36
558.74	2439.30
559.10	2444.52
559.45	2449.33
559.81	2454.82
560.16	2459.99
560.52	2464.51
560.87	2468.96
561.23	2472.81
561.58	2476.92
561.94	2480.54
562.29	2483.70
562.64	2487.94
563.00	2491.73
563.35	2496.33
563.71	2500.58
564.06	2504.74
564.42	2508.75
564.77	2512.45
565.12	2515.99
565.48	2518.92
565.83	2521.98
566.19	2524.40
566.54	2526.02
566.89	2528.30
567.25	2529.68
567.60	2531.93
567.96	2534.57
568.31	2536.34
568.66	2538.45
569.02	2539.92
569.37	2541.04
569.72	2542.76
570.08	2543.40
570.43	2544.00
570.78	2544.28
571.14	2543.16
571.49	2542.30
571.84	2542.36
572.20	2541.86
572.55	2541.22
572.90	2540.13
573.26	2539.10
573.61	2537.70
573.96	2536.63
574.31	2533.89
574.67	2531.28
575.02	2527.76
575.37	2524.62
575.72	2520.93
576.08	2517.46
576.43	2514.25
576.78	2510.84
577.13	2507.78
577.49	2504.58
577.84	2501.31
578.19	2497.29
578.54	2493.82
578.90	2489.84
579.25	2484.13
579.60	2479.05
579.95	2473.94
580.30	2468.83
580.66	2463.42
581.01	2458.11
581.36	2452.83
581.71	2448.64
582.06	2444.09
582.42	2439.64
582.77	2433.95
583.12	2429.21
583.47	2424.34
583.82	2419.22
584.17	2413.50
584.53	2407.71
584.88	2401.80
585.23	2395.73
585.58	2389.91
585.93	2384.10
586.28	2378.91
586.63	2373.69
586.98	2368.05
587.34	2362.89
587.69	2357.50
588.04	2352.13
588.39	2346.24
588.74	2339.33
589.09	2332.61
589.44	2325.11
589.79	2318.23
590.14	2312.09
590.49	2304.91
590.84	2297.92
591.19	2291.43
591.54	2284.41
591.89	2276.50
592.25	2269.13
592.60	2261.20
592.95	2253.04
593.30	2245.01
593.65	2236.64
594.00	2228.74
594.35	2220.79
594.70	2211.88
595.05	2204.24
595.40	2196.11
595.75	2187.77
596.10	2180.90
596.45	2173.44
596.80	2166.73
597.15	2159.54
597.50	2151.85
597.85	2144.62
598.19	2137.33
598.54	2129.41
598.89	2122.05
599.24	2115.32
599.59	2108.11
599.94	2101.08
600.29	2093.80
600.64	2086.28
600.99	2078.03
601.34	2070.46
601.69	2062.56
602.04	2054.99
602.39	2046.56
602.74	2038.85
603.08	2031.30
603.43	2023.64
603.78	2015.35
604.13	2007.29
604.48	1999.28
604.83	1991.44
605.18	1983.79
605.53	1974.89
605.87	1965.79
606.22	1957.47
606.57	1948.49
606.92	1939.81
607.27	1931.65
607.62	1923.93
607.96	1915.85
608.31	1908.43
608.66	1899.69
609.01	1891.24
609.36	1882.62
609.70	1873.57
610.05	1864.43
610.40	1855.74
610.75	1846.46
611.10	1837.93
611.44	1828.27
611.79	1819.02
612.14	1809.10
612.49	1798.60
612.83	1788.96
613.18	1779.67
613.53	1770.46
613.88	1760.76
614.22	1751.46
614.57	1741.57
614.92	1732.43
615.27	1723.88
615.61	1714.43
615.96	1705.29
616.31	1696.48
616.65	1687.97
617.00	1679.38
617.35	1670.56
617.70	1661.08
618.04	1651.30
618.39	1641.72
618.74	1632.95
619.08	1623.45
619.43	1614.82
619.78	1606.82
620.12	1598.59
620.47	1590.07
620.82	1580.73
621.16	1572.16
621.51	1563.41
621.85	1554.69
622.20	1544.99
622.55	1535.30
622.89	1526.20
623.24	1517.45
623.59	1509.00
623.93	1500.53
624.28	1492.24
624.62	1483.63
624.97	1475.33
625.32	1467.46
625.66	1459.43
626.01	1451.28
626.35	1442.86
626.70	1433.96
627.04	1425.17
627.39	1416.22
627.73	1407.71
628.08	1399.86
628.43	1391.79
628.77	1383.45
629.12	1374.84
629.46	1366.65
629.81	1357.94
630.15	1349.57
630.50	1341.16
630.84	1331.96
631.19	1322.69
631.53	1313.96
631.88	1305.39
632.22	1296.73
632.57	1288.47
632.91	1279.78
633.26	1271.41
633.60	1262.88
633.95	1254.71
634.29	1246.63
634.64	1239.06
634.98	1230.67
635.32	1222.48
635.67	1214.74
636.01	1207.16
636.36	1199.57
636.70	1192.04
637.05	1184.69
637.39	1177.45
637.73	1170.00
638.08	1163.09
638.42	1156.33
638.77	1149.10
639.11	1141.65
639.45	1134.35
639.80	1126.76
640.14	1119.61
640.49	1112.18
640.83	1105.05
641.17	1098.06
641.52	1090.89
641.86	1083.45
642.20	1076.76
642.55	1069.53
642.89	1062.21
643.23	1054.66
643.58	1048.03
643.92	1041.11
644.26	1034.32
644.61	1027.38
644.95	1020.63
645.29	1013.33
645.64	1005.79
645.98	998.61
646.32	991.87
646.66	985.09
647.01	978.56
647.35	972.03
647.69	965.33
648.04	959.05
648.38	952.60
648.72	946.05
649.06	939.28
649.41	932.62
649.75	925.97
650.09	919.28
650.43	912.80
650.78	905.93
651.12	899.15
651.46	892.68
651.80	886.29
652.14	880.15
652.49	874.11
652.83	868.20
653.17	861.84
653.51	855.47
653.85	849.32
654.20	843.04
654.54	836.34
654.88	829.93
655.22	823.30
655.56	816.80
655.90	810.53
656.25	804.66
656.59	798.66
656.93	792.95
657.27	787.20
657.61	781.12
657.95	775.26
658.29	769.54
658.64	763.55
658.98	757.48
659.32	751.36
659.66	745.48
660.00	739.55
660.34	733.88
660.68	728.28
661.02	722.60
661.36	717.22
661.70	712.09
662.05	707.17
662.39	702.34
662.73	697.31
663.07	692.34
663.41	687.34
663.75	682.30
664.09	677.11
664.43	672.12
664.77	667.52
665.11	662.79
665.45	658.14
665.79	653.60
666.13	649.08
666.47	644.49
666.81	639.81
667.15	635.13
667.49	630.80
667.83	626.53
668.17	622.13
668.51	617.57
668.85	613.09
669.19	608.75
669.53	604.42
669.87	600.13
670.21	595.90
670.55	591.74
670.89	587.84
671.23	584.01
671.57	580.06
671.91	576.00
672.25	572.00
672.58	568.00
672.92	564.11
673.26	560.48
673.60	556.89
673.94	553.41
674.28	550.14
674.62	546.82
674.96	543.31
675.30	540.05
675.64	536.80
675.97	533.62
676.31	530.38
676.65	527.10
676.99	523.99
677.33	520.78
677.67	517.63
678.01	514.29
678.34	510.96
678.68	507.66
679.02	504.52
679.36	501.45
679.70	498.46
680.04	495.45
680.37	492.26
680.71	489.10
681.05	486.15
681.39	483.13
681.73	480.13
682.06	477.33
682.40	474.59
682.74	471.69
683.08	468.86
683.42	465.90
683.75	463.07
684.09	460.22
684.43	457.49
684.77	454.78
685.10	452.05
685.44	449.43
685.78	446.85
686.12	444.35
686.45	441.74
686.79	439.13
687.13	436.65
687.46	434.19
687.80	431.77
688.14	429.22
688.48	426.87
688.81	424.34
689.15	421.90
689.49	419.34
689.82	417.04
690.16	414.64
690.50	412.44
690.83	410.30
691.17	408.01
691.51	405.83
691.84	403.71
692.18	401.62
692.52	399.42
692.85	397.24
693.19	395.12
693.52	393.03
693.86	390.99
694.20	388.91
694.53	386.88
694.87	384.79
695.21	382.79
695.54	380.70
695.88	378.74
696.21	376.80
696.55	374.93
696.88	372.99
697.22	371.16
697.56	369.32
697.89	367.45
698.23	365.67
698.56	363.89
698.90	362.10
699.23	360.22
699.57	358.48
699.90	356.73
700.24	354.97
700.58	353.31
700.91	351.60
701.25	349.99
701.58	348.43
701.92	346.88
702.25	345.32
702.59	343.78
702.92	342.32
703.26	340.87
703.59	339.43
703.93	338.09
704.26	336.67
704.60	335.18
704.93	333.72
705.26	332.24
705.60	330.86
705.93	329.49
706.27	328.26
706.60	327.02
706.94	325.81
707.27	324.54
707.61	323.30
707.94	322.11
708.27	320.83
708.61	319.59
708.94	318.44
709.28	317.33
709.61	316.21
709.94	315.04
710.28	313.85
710.61	312.72
710.95	311.48
711.28	310.43
711.61	309.38
711.95	308.32
712.28	307.27
712.61	306.15
712.95	305.11
713.28	304.07
713.61	303.06
713.95	302.07
714.28	301.10
714.61	300.12
714.95	299.17
715.28	298.22
715.61	297.23
715.95	296.28
716.28	295.28
716.61	294.33
716.95	293.41
717.28	292.54
717.61	291.68
717.94	290.83
718.28	289.91
718.61	289.07
718.94	288.22
719.27	287.51
719.61	286.78
719.94	286.00
720.27	285.24
720.60	284.46
720.94	283.70
721.27	283.03
721.60	282.34
721.93	281.66
722.27	281.03
722.60	280.42
722.93	279.73
723.26	279.17
723.59	278.55
723.93	277.94
724.26	277.28
724.59	276.62
724.92	276.00
725.25	275.41
725.59	274.84
725.92	274.26
726.25	273.63
726.58	273.07
726.91	272.52
727.24	271.98
727.57	271.45
727.91	270.88
728.24	270.35
728.57	269.81
728.90	269.27
729.23	268.72
729.56	268.22
729.89	267.69
730.22	267.12
730.55	266.61
730.89	266.11
731.22	265.64
731.55	265.16
731.88	264.68
732.21	264.20
732.54	263.72
732.87	263.27
733.20	262.83
733.53	262.37
733.86	261.97
734.19	261.54
734.52	261.11
734.85	260.81
735.18	260.35
735.51	259.96
735.84	259.57
736.17	259.17
736.50	258.73
736.83	258.49
737.16	258.11
737.49	257.75
737.82	257.43
738.15	257.06
738.48	256.67
738.81	256.35
739.14	256.02
739.47	255.66
739.80	255.29
740.13	254.98
740.46	254.62
740.79	254.25
741.12	253.91
741.45	253.56
741.78	253.15
742.11	252.82
742.44	252.47
742.77	252.15
743.10	251.84
743.43	251.51
743.75	251.09
744.08	250.95
744.41	250.65
744.74	250.32
745.07	250.00
745.40	249.75
745.73	249.50
746.06	249.20
746.39	248.92
746.71	248.69
747.04	248.40
747.37	248.10
747.70	247.79
748.03	247.53
748.36	247.29
748.68	247.05
749.01	246.79
749.34	246.56
749.67	246.31
750.00	246.07
750.33	245.89
750.65	245.65
750.98	245.28
751.31	245.02
751.64	244.81
751.97	244.63
752.29	244.39
752.62	244.09
752.95	243.86
753.28	243.63
753.60	243.38
753.93	243.19
754.26	243.04
754.59	242.83
754.91	242.60
755.24	242.36
755.57	242.11
755.90	241.90
756.22	241.65
756.55	241.42
756.88	241.17
757.20	240.90
757.53	240.68
757.86	240.49
758.19	240.33
758.51	240.15
758.84	239.94
759.17	239.75
759.49	239.62
759.82	239.48
760.15	239.33
760.47	239.13
760.80	238.89
761.13	238.71
761.45	238.54
761.78	238.36
762.11	238.21
762.43	238.06
762.76	237.91
763.08	237.78
763.41	237.62
763.74	237.51
764.06	237.34
764.39	237.16
764.71	237.00
765.04	236.83
765.37	236.60
765.69	236.42
766.02	236.28
766.34	236.08
766.67	235.91
767.00	235.77
767.32	235.71
767.65	235.63
767.97	235.46
768.30	235.34
768.62	235.21
768.95	235.05
769.27	234.93
769.60	234.80
769.92	234.63
770.25	234.47
770.57	234.30
770.90	234.18
771.22	234.06
771.55	233.96
771.87	233.84
772.20	233.73
772.52	233.71
772.85	233.67
773.17	233.59
773.50	233.43
773.82	233.29
774.15	233.10
774.47	232.93
774.80	232.80
775.12	232.70
775.45	232.62
775.77	232.55
776.09	232.47
776.42	232.35
776.74	232.31
777.07	232.21
777.39	232.16
777.72	232.05
778.04	231.98
778.36	231.86
778.69	231.76
779.01	231.70
779.33	231.52
779.66	231.34
779.98	231.22
780.31	231.18
780.63	231.17
780.95	231.12
781.28	231.06
781.60	231.00
781.92	230.91
782.25	230.80
782.57	230.71
782.89	230.64
783.22	230.58
783.54	230.50
783.86	230.46
784.19	230.37
784.51	230.37
784.83	230.33
785.16	230.28
785.48	230.23
785.80	230.18
786.12	230.11
786.45	230.04
786.77	230.05
