SpectraSuite Data File
++++++++++++++++++++++++++++++++++++
Date: Fri Feb 01 16:18:12 EST 2013
User: group
Dark Spectrum Present: No
Reference Spectrum Present: No
Number of Sampled Component Spectra: 1
Spectrometers: USB2E7196
Integration Time (usec): 35000 (USB2E7196)
Spectra Averaged: 100 (USB2E7196)
Boxcar Smoothing: 10 (USB2E7196)
Correct for Electrical Dark: No (USB2E7196)
Strobe/Lamp Enabled: No (USB2E7196)
Correct for Detector Non-linearity: No (USB2E7196)
Correct for Stray Light: No (USB2E7196)
Number of Pixels in Processed Spectrum: 2048
>>>>>Begin Processed Spectral Data<<<<<
339.09	0.00
339.48	213.50
339.86	215.52
340.24	216.93
340.63	218.46
341.01	220.74
341.39	220.65
341.78	222.17
342.16	223.82
342.54	223.90
342.93	212.44
343.31	223.20
343.69	223.77
344.07	224.20
344.46	224.64
344.84	225.01
345.22	225.26
345.60	225.53
345.99	225.73
346.37	225.85
346.75	225.96
347.13	226.06
347.52	226.06
347.90	226.16
348.28	226.19
348.66	226.22
349.05	226.19
349.43	226.21
349.81	226.29
350.19	226.34
350.57	226.37
350.96	226.46
351.34	226.53
351.72	226.62
352.10	226.74
352.48	226.80
352.87	226.85
353.25	226.92
353.63	226.97
354.01	227.02
354.39	227.11
354.77	227.18
355.15	227.27
355.54	227.35
355.92	227.35
356.30	227.42
356.68	227.57
357.06	227.66
357.44	227.75
357.82	227.76
358.20	227.83
358.58	227.89
358.97	227.94
359.35	228.01
359.73	228.08
360.11	228.13
360.49	228.17
360.87	228.20
361.25	228.26
361.63	228.36
362.01	228.41
362.39	228.44
362.77	228.51
363.15	228.55
363.53	228.59
363.91	228.64
364.29	228.65
364.67	228.58
365.05	228.61
365.43	228.68
365.81	228.73
366.19	228.82
366.57	228.88
366.95	228.90
367.33	228.88
367.71	228.87
368.09	228.91
368.47	228.87
368.85	228.88
369.23	228.87
369.61	228.80
369.99	228.80
370.37	228.74
370.75	228.72
371.13	228.64
371.51	228.59
371.89	228.54
372.27	228.53
372.65	228.48
373.03	228.43
373.41	228.34
373.78	228.28
374.16	228.16
374.54	228.06
374.92	227.95
375.30	227.88
375.68	227.80
376.06	227.76
376.44	227.75
376.82	227.73
377.19	227.66
377.57	227.60
377.95	227.50
378.33	227.45
378.71	227.32
379.09	227.27
379.47	227.19
379.84	227.12
380.22	227.01
380.60	226.94
380.98	226.88
381.36	226.83
381.73	226.77
382.11	226.70
382.49	226.63
382.87	226.56
383.25	226.52
383.62	226.55
384.00	226.41
384.38	226.35
384.76	226.28
385.13	226.26
385.51	226.23
385.89	226.18
386.27	226.15
386.64	226.16
387.02	226.09
387.40	226.06
387.78	226.02
388.15	226.01
388.53	225.96
388.91	225.92
389.29	225.88
389.66	225.86
390.04	225.83
390.42	225.83
390.79	225.84
391.17	225.83
391.55	225.74
391.92	225.76
392.30	225.72
392.68	225.70
393.05	225.68
393.43	225.68
393.81	225.66
394.18	225.65
394.56	225.64
394.94	225.66
395.31	225.68
395.69	225.73
396.06	225.77
396.44	225.79
396.82	225.81
397.19	225.89
397.57	225.91
397.95	225.97
398.32	226.01
398.70	226.08
399.07	226.14
399.45	226.16
399.82	226.23
400.20	226.31
400.58	226.36
400.95	226.38
401.33	226.47
401.70	226.63
402.08	226.74
402.45	226.85
402.83	226.98
403.20	227.09
403.58	227.18
403.95	227.30
404.33	227.45
404.71	227.59
405.08	227.75
405.46	227.89
405.83	228.05
406.21	228.20
406.58	228.33
406.96	228.50
407.33	228.71
407.70	228.87
408.08	229.14
408.45	229.39
408.83	229.66
409.20	229.84
409.58	230.02
409.95	230.26
410.33	230.54
410.70	230.77
411.08	231.04
411.45	231.37
411.82	231.66
412.20	231.97
412.57	232.38
412.95	232.66
413.32	233.09
413.69	233.49
414.07	233.93
414.44	234.42
414.82	234.89
415.19	235.46
415.56	236.01
415.94	236.56
416.31	237.21
416.68	237.82
417.06	238.54
417.43	239.26
417.81	240.03
418.18	240.78
418.55	241.64
418.93	242.53
419.30	243.41
419.67	244.37
420.04	245.37
420.42	246.36
420.79	247.56
421.16	248.66
421.54	249.83
421.91	251.03
422.28	252.23
422.66	253.54
423.03	254.83
423.40	256.17
423.77	257.57
424.15	258.99
424.52	260.46
424.89	262.09
425.26	263.62
425.64	265.06
426.01	266.66
426.38	268.29
426.75	269.94
427.13	271.65
427.50	273.42
427.87	275.26
428.24	277.10
428.61	278.85
428.99	280.83
429.36	282.96
429.73	285.00
430.10	287.05
430.47	289.15
430.85	291.25
431.22	293.50
431.59	295.85
431.96	298.06
432.33	300.53
432.70	302.88
433.08	305.65
433.45	308.31
433.82	310.91
434.19	313.85
434.56	316.68
434.93	319.32
435.30	321.98
435.68	324.86
436.05	327.68
436.42	330.43
436.79	332.92
437.16	335.57
437.53	338.43
437.90	341.24
438.27	343.90
438.64	346.73
439.01	349.30
439.38	351.53
439.75	353.70
440.13	356.19
440.50	358.55
440.87	360.40
441.24	362.34
441.61	364.45
441.98	365.88
442.35	367.64
442.72	369.49
443.09	371.29
443.46	372.27
443.83	372.87
444.20	373.38
444.57	374.22
444.94	374.54
445.31	374.88
445.68	375.27
446.05	375.37
446.42	374.99
446.79	374.55
447.16	374.07
447.53	373.75
447.90	372.63
448.27	371.44
448.64	369.83
449.01	368.68
449.37	366.68
449.74	364.75
450.11	362.55
450.48	360.08
450.85	357.56
451.22	355.39
451.59	353.36
451.96	351.41
452.33	348.79
452.70	346.44
453.07	343.57
453.43	340.61
453.80	337.82
454.17	335.12
454.54	332.59
454.91	329.87
455.28	327.20
455.65	324.67
456.02	322.25
456.38	320.15
456.75	317.49
457.12	315.29
457.49	313.10
457.86	310.91
458.23	309.08
458.59	307.02
458.96	304.98
459.33	303.11
459.70	301.28
460.07	299.81
460.43	298.09
460.80	296.51
461.17	295.09
461.54	293.65
461.91	292.24
462.27	290.78
462.64	289.60
463.01	288.19
463.38	286.93
463.74	285.54
464.11	284.37
464.48	283.36
464.85	282.25
465.21	281.38
465.58	280.48
465.95	279.38
466.32	278.46
466.68	277.55
467.05	276.68
467.42	275.81
467.78	274.86
468.15	273.99
468.52	273.25
468.88	272.41
469.25	271.62
469.62	271.02
469.98	270.40
470.35	269.76
470.72	269.20
471.08	268.56
471.45	268.04
471.82	267.49
472.18	266.85
472.55	266.44
472.92	265.90
473.28	265.40
473.65	264.96
474.02	264.54
474.38	264.19
474.75	263.89
475.11	263.55
475.48	263.29
475.85	263.06
476.21	262.88
476.58	262.72
476.94	262.58
477.31	262.41
477.67	262.25
478.04	262.11
478.41	262.06
478.77	262.09
479.14	261.98
479.50	262.01
479.87	262.12
480.23	262.20
480.60	262.31
480.96	262.41
481.33	262.63
481.69	262.83
482.06	263.00
482.42	263.17
482.79	263.37
483.15	263.69
483.52	264.07
483.88	264.42
484.25	264.79
484.61	265.23
484.98	265.63
485.34	266.19
485.71	266.84
486.07	267.43
486.44	268.02
486.80	268.80
487.17	269.52
487.53	270.32
487.90	271.18
488.26	272.10
488.62	273.09
488.99	274.06
489.35	275.09
489.72	276.23
490.08	277.46
490.44	278.76
490.81	280.10
491.17	281.42
491.54	282.93
491.90	284.46
492.26	286.09
492.63	287.90
492.99	289.67
493.36	291.55
493.72	293.62
494.08	295.76
494.45	298.02
494.81	300.41
495.17	302.85
495.54	305.41
495.90	308.11
496.26	310.95
496.63	313.93
496.99	317.10
497.35	320.37
497.72	323.82
498.08	327.33
498.44	330.98
498.80	334.98
499.17	339.01
499.53	343.19
499.89	347.52
500.26	352.01
500.62	356.72
500.98	361.74
501.34	366.87
501.71	372.22
502.07	377.68
502.43	383.32
502.79	389.15
503.16	395.28
503.52	401.60
503.88	408.04
504.24	414.70
504.60	421.60
504.97	428.74
505.33	436.04
505.69	443.78
506.05	451.57
506.41	459.41
506.78	467.60
507.14	476.07
507.50	484.86
507.86	493.96
508.22	503.13
508.59	512.31
508.95	521.89
509.31	531.65
509.67	541.77
510.03	552.03
510.39	562.60
510.75	573.40
511.12	584.36
511.48	595.70
511.84	607.19
512.20	618.61
512.56	630.59
512.92	642.80
513.28	655.20
513.64	667.72
514.00	680.49
514.37	693.41
514.73	706.50
515.09	719.56
515.45	732.78
515.81	746.39
516.17	760.38
516.53	774.45
516.89	788.62
517.25	802.76
517.61	817.18
517.97	831.71
518.33	846.17
518.69	860.90
519.05	875.90
519.41	890.97
519.77	906.55
520.13	921.96
520.49	937.28
520.85	952.63
521.21	968.34
521.57	984.57
521.93	1000.27
522.29	1016.58
522.65	1032.74
523.01	1048.95
523.37	1064.99
523.73	1081.08
524.09	1097.13
524.45	1113.45
524.81	1129.96
525.17	1146.81
525.53	1163.61
525.89	1180.46
526.25	1197.26
526.61	1213.47
526.97	1230.28
527.33	1246.68
527.68	1263.23
528.04	1279.74
528.40	1296.24
528.76	1313.17
529.12	1329.68
529.48	1346.59
529.84	1362.58
530.20	1379.15
530.56	1396.08
530.91	1413.40
531.27	1430.09
531.63	1446.57
531.99	1463.10
532.35	1479.07
532.71	1494.88
533.07	1511.12
533.42	1526.88
533.78	1542.93
534.14	1559.24
534.50	1574.39
534.86	1590.36
535.21	1605.55
535.57	1621.36
535.93	1636.85
536.29	1651.61
536.65	1666.74
537.00	1681.45
537.36	1696.62
537.72	1711.05
538.08	1725.44
538.44	1739.25
538.79	1753.13
539.15	1766.58
539.51	1780.34
539.87	1794.50
540.22	1808.11
540.58	1821.74
540.94	1834.95
541.29	1847.79
541.65	1860.39
542.01	1873.59
542.37	1885.83
542.72	1898.07
543.08	1909.80
543.44	1922.11
543.79	1933.32
544.15	1943.94
544.51	1955.46
544.87	1966.37
545.22	1977.29
545.58	1987.44
545.94	1997.13
546.29	2006.90
546.65	2016.87
547.01	2026.17
547.36	2035.08
547.72	2043.56
548.07	2051.43
548.43	2059.69
548.79	2067.58
549.14	2075.08
549.50	2082.35
549.86	2089.90
550.21	2097.17
550.57	2104.30
550.92	2110.89
551.28	2117.93
551.64	2125.23
551.99	2131.66
552.35	2137.95
552.70	2144.05
553.06	2149.92
553.41	2156.15
553.77	2162.05
554.13	2168.05
554.48	2174.00
554.84	2179.40
555.19	2184.67
555.55	2189.74
555.90	2194.07
556.26	2198.97
556.61	2203.73
556.97	2208.07
557.32	2212.25
557.68	2216.48
558.03	2220.78
558.39	2224.47
558.74	2229.20
559.10	2232.96
559.45	2236.69
559.81	2240.79
560.16	2244.59
560.52	2247.88
560.87	2251.24
561.23	2253.97
561.58	2257.00
561.94	2259.50
562.29	2261.86
562.64	2264.41
563.00	2267.14
563.35	2270.64
563.71	2273.69
564.06	2276.75
564.42	2279.62
564.77	2282.03
565.12	2284.32
565.48	2286.30
565.83	2288.25
566.19	2289.47
566.54	2290.38
566.89	2291.45
567.25	2292.30
567.60	2293.49
567.96	2295.38
568.31	2296.48
568.66	2297.77
569.02	2298.37
569.37	2298.65
569.72	2299.56
570.08	2299.94
570.43	2300.00
570.78	2299.66
571.14	2298.10
571.49	2296.81
571.84	2296.58
572.20	2295.56
572.55	2294.52
572.90	2292.98
573.26	2291.41
573.61	2289.65
573.96	2287.99
574.31	2285.13
574.67	2282.17
575.02	2278.83
575.37	2275.35
575.72	2271.49
576.08	2267.99
576.43	2264.66
576.78	2261.08
577.13	2257.94
577.49	2254.79
577.84	2251.32
578.19	2247.54
578.54	2244.07
578.90	2239.92
579.25	2234.24
579.60	2229.31
579.95	2224.31
580.30	2219.26
580.66	2214.30
581.01	2209.53
581.36	2204.60
581.71	2200.58
582.06	2196.22
582.42	2191.63
582.77	2186.45
583.12	2181.98
583.47	2177.45
583.82	2172.45
584.17	2167.28
584.53	2161.74
584.88	2156.23
585.23	2150.43
585.58	2144.97
585.93	2139.59
586.28	2134.98
586.63	2130.01
586.98	2124.94
587.34	2120.37
587.69	2115.55
588.04	2110.24
588.39	2104.60
588.74	2098.28
589.09	2092.13
589.44	2085.33
589.79	2079.34
590.14	2073.84
590.49	2067.23
590.84	2060.87
591.19	2055.05
591.54	2048.61
591.89	2041.39
592.25	2034.57
592.60	2027.45
592.95	2019.95
593.30	2012.57
593.65	2005.02
594.00	1998.18
594.35	1991.07
594.70	1982.93
595.05	1975.77
595.40	1968.58
595.75	1961.11
596.10	1954.94
596.45	1948.08
596.80	1941.93
597.15	1935.49
597.50	1928.25
597.85	1921.92
598.19	1915.25
598.54	1908.00
598.89	1901.43
599.24	1895.63
599.59	1888.98
599.94	1882.80
600.29	1876.44
600.64	1869.87
600.99	1862.41
601.34	1855.49
601.69	1848.55
602.04	1841.85
602.39	1834.48
602.74	1827.78
603.08	1821.11
603.43	1814.23
603.78	1806.98
604.13	1799.65
604.48	1792.25
604.83	1785.49
605.18	1778.42
605.53	1770.48
605.87	1762.59
606.22	1755.25
606.57	1747.24
606.92	1739.98
607.27	1732.78
607.62	1725.87
607.96	1718.67
608.31	1712.21
608.66	1704.59
609.01	1697.09
609.36	1689.49
609.70	1681.52
610.05	1673.36
610.40	1665.65
610.75	1657.48
611.10	1649.89
611.44	1641.51
611.79	1633.53
612.14	1624.83
612.49	1615.74
612.83	1607.35
613.18	1599.14
613.53	1591.07
613.88	1582.50
614.22	1574.17
614.57	1565.53
614.92	1557.50
615.27	1549.77
615.61	1541.35
615.96	1533.32
616.31	1525.68
616.65	1518.23
617.00	1510.60
617.35	1503.02
617.70	1494.63
618.04	1486.03
618.39	1477.85
618.74	1470.27
619.08	1461.93
619.43	1454.37
619.78	1447.42
620.12	1440.25
620.47	1432.79
620.82	1424.77
621.16	1417.29
621.51	1409.64
621.85	1402.05
622.20	1393.51
622.55	1385.33
622.89	1377.44
623.24	1369.76
623.59	1362.26
623.93	1354.75
624.28	1347.55
624.62	1339.89
624.97	1332.69
625.32	1325.91
625.66	1318.86
626.01	1311.69
626.35	1304.28
626.70	1296.57
627.04	1288.90
627.39	1281.13
627.73	1273.70
628.08	1266.72
628.43	1259.46
628.77	1252.03
629.12	1244.42
629.46	1237.29
629.81	1229.73
630.15	1222.56
630.50	1215.20
630.84	1207.03
631.19	1199.10
631.53	1191.59
631.88	1184.05
632.22	1176.42
632.57	1169.09
632.91	1161.43
633.26	1153.99
633.60	1146.60
633.95	1139.45
634.29	1132.34
634.64	1125.56
634.98	1118.16
635.32	1110.83
635.67	1104.21
636.01	1097.63
636.36	1090.83
636.70	1084.30
637.05	1077.81
637.39	1071.25
637.73	1064.76
638.08	1058.82
638.42	1052.81
638.77	1046.39
639.11	1039.75
639.45	1033.40
639.80	1026.80
640.14	1020.44
640.49	1013.92
640.83	1007.69
641.17	1001.33
641.52	995.00
641.86	988.54
642.20	982.73
642.55	976.56
642.89	970.10
643.23	963.54
643.58	957.74
643.92	951.56
644.26	945.51
644.61	939.50
644.95	933.42
645.29	926.86
645.64	920.11
645.98	913.76
646.32	908.02
646.66	901.99
647.01	896.26
647.35	890.50
647.69	884.67
648.04	879.06
648.38	873.37
648.72	867.33
649.06	861.31
649.41	855.42
649.75	849.39
650.09	843.37
650.43	837.57
650.78	831.44
651.12	825.42
651.46	819.67
651.80	813.86
652.14	808.43
652.49	803.02
652.83	797.85
653.17	792.06
653.51	786.30
653.85	780.85
654.20	775.12
654.54	769.13
654.88	763.32
655.22	757.39
655.56	751.67
655.90	746.23
656.25	741.01
656.59	735.67
656.93	730.58
657.27	725.51
657.61	720.10
657.95	715.04
658.29	709.95
658.64	704.68
658.98	699.36
659.32	693.91
659.66	688.68
660.00	683.28
660.34	678.41
660.68	673.40
661.02	668.33
661.36	663.62
661.70	659.12
662.05	654.81
662.39	650.49
662.73	646.01
663.07	641.61
663.41	637.09
663.75	632.58
664.09	628.02
664.43	623.54
664.77	619.41
665.11	615.07
665.45	610.92
665.79	606.85
666.13	602.71
666.47	598.67
666.81	594.50
667.15	590.46
667.49	586.52
667.83	582.77
668.17	578.82
668.51	574.73
668.85	570.69
669.19	566.81
669.53	562.93
669.87	559.09
670.21	555.34
670.55	551.71
670.89	548.21
671.23	544.73
671.57	541.21
671.91	537.63
672.25	534.15
672.58	530.66
672.92	527.20
673.26	524.00
673.60	520.81
673.94	517.64
674.28	514.65
674.62	511.68
674.96	508.55
675.30	505.68
675.64	502.75
675.97	499.93
676.31	497.06
676.65	494.12
676.99	491.42
677.33	488.58
677.67	485.81
678.01	482.78
678.34	479.84
678.68	476.95
679.02	474.16
679.36	471.39
679.70	468.64
680.04	465.88
680.37	463.00
680.71	460.23
681.05	457.70
681.39	455.02
681.73	452.39
682.06	449.81
682.40	447.26
682.74	444.73
683.08	442.17
683.42	439.56
683.75	437.04
684.09	434.47
684.43	431.99
684.77	429.44
685.10	427.04
685.44	424.71
685.78	422.43
686.12	420.19
686.45	417.89
686.79	415.58
687.13	413.38
687.46	411.23
687.80	409.03
688.14	406.81
688.48	404.79
688.81	402.47
689.15	400.31
689.49	398.17
689.82	396.07
690.16	394.04
690.50	392.11
690.83	390.20
691.17	388.23
691.51	386.32
691.84	384.48
692.18	382.55
692.52	380.58
692.85	378.66
693.19	376.78
693.52	374.94
693.86	373.14
694.20	371.37
694.53	369.60
694.87	367.76
695.21	365.92
695.54	364.09
695.88	362.42
696.21	360.71
696.55	359.02
696.88	357.35
697.22	355.61
697.56	353.99
697.89	352.29
698.23	350.65
698.56	349.04
698.90	347.47
699.23	345.86
699.57	344.28
699.90	342.76
700.24	341.20
700.58	339.65
700.91	338.14
701.25	336.67
701.58	335.32
701.92	333.97
702.25	332.56
702.59	331.17
702.92	329.82
703.26	328.57
703.59	327.28
703.93	326.08
704.26	324.87
704.60	323.53
704.93	322.28
705.26	321.04
705.60	319.83
705.93	318.66
706.27	317.63
706.60	316.65
706.94	315.52
707.27	314.39
707.61	313.33
707.94	312.32
708.27	311.23
708.61	310.09
708.94	309.10
709.28	308.18
709.61	307.20
709.94	306.22
710.28	305.16
710.61	304.16
710.95	303.08
711.28	302.18
711.61	301.24
711.95	300.35
712.28	299.39
712.61	298.45
712.95	297.52
713.28	296.63
713.61	295.68
713.95	294.80
714.28	293.97
714.61	293.11
714.95	292.24
715.28	291.36
715.61	290.49
715.95	289.62
716.28	288.77
716.61	287.96
716.95	287.18
717.28	286.41
717.61	285.64
717.94	284.85
718.28	284.00
718.61	283.29
718.94	282.59
719.27	281.95
719.61	281.31
719.94	280.63
720.27	279.91
720.60	279.23
720.94	278.59
721.27	277.97
721.60	277.36
721.93	276.79
722.27	276.26
722.60	275.75
722.93	275.19
723.26	274.63
723.59	274.07
723.93	273.48
724.26	272.98
724.59	272.45
724.92	271.96
725.25	271.50
725.59	270.94
725.92	270.42
726.25	269.91
726.58	269.40
726.91	268.89
727.24	268.40
727.57	267.92
727.91	267.42
728.24	266.96
728.57	266.49
728.90	266.03
729.23	265.56
729.56	265.09
729.89	264.59
730.22	264.10
730.55	263.68
730.89	263.26
731.22	262.79
731.55	262.35
731.88	261.93
732.21	261.49
732.54	261.06
732.87	260.62
733.20	260.18
733.53	259.80
733.86	259.44
734.19	259.05
734.52	258.71
734.85	258.39
735.18	257.98
735.51	257.62
735.84	257.22
736.17	256.85
736.50	256.47
736.83	256.26
737.16	255.91
737.49	255.57
737.82	255.22
738.15	254.92
738.48	254.57
738.81	254.27
739.14	253.93
739.47	253.63
739.80	253.33
740.13	253.06
740.46	252.75
740.79	252.41
741.12	252.09
741.45	251.75
741.78	251.40
742.11	251.11
742.44	250.78
742.77	250.49
743.10	250.23
743.43	249.94
743.75	249.52
744.08	249.37
744.41	249.06
744.74	248.79
745.07	248.48
745.40	248.24
745.73	247.96
746.06	247.76
746.39	247.50
746.71	247.23
747.04	246.94
747.37	246.67
747.70	246.43
748.03	246.20
748.36	246.01
748.68	245.75
749.01	245.52
749.34	245.28
749.67	245.06
750.00	244.81
750.33	244.66
750.65	244.47
750.98	244.17
751.31	243.95
751.64	243.72
751.97	243.54
752.29	243.31
752.62	243.08
752.95	242.83
753.28	242.61
753.60	242.40
753.93	242.21
754.26	242.00
754.59	241.74
754.91	241.51
755.24	241.30
755.57	241.12
755.90	240.94
756.22	240.78
756.55	240.58
756.88	240.39
757.20	240.11
757.53	239.93
757.86	239.74
758.19	239.61
758.51	239.47
758.84	239.26
759.17	239.09
759.49	238.92
759.82	238.79
760.15	238.64
760.47	238.52
760.80	238.36
761.13	238.22
761.45	238.09
761.78	237.97
762.11	237.81
762.43	237.67
762.76	237.52
763.08	237.39
763.41	237.24
763.74	237.09
764.06	236.98
764.39	236.86
764.71	236.71
765.04	236.55
765.37	236.41
765.69	236.32
766.02	236.18
766.34	236.05
766.67	235.94
767.00	235.86
767.32	235.77
767.65	235.72
767.97	235.60
768.30	235.53
768.62	235.43
768.95	235.32
769.27	235.20
769.60	235.11
769.92	234.98
770.25	234.84
770.57	234.72
770.90	234.61
771.22	234.47
771.55	234.37
771.87	234.28
772.20	234.18
772.52	234.16
772.85	234.20
773.17	234.10
773.50	233.96
773.82	233.82
774.15	233.68
774.47	233.50
774.80	233.40
775.12	233.30
775.45	233.22
775.77	233.15
776.09	233.06
776.42	232.97
776.74	232.94
777.07	232.89
777.39	232.83
777.72	232.72
778.04	232.68
778.36	232.63
778.69	232.56
779.01	232.48
779.33	232.31
779.66	232.12
779.98	232.02
780.31	231.96
780.63	231.97
780.95	231.93
781.28	231.89
781.60	231.82
781.92	231.74
782.25	231.67
782.57	231.61
782.89	231.58
783.22	231.52
783.54	231.41
783.86	231.32
784.19	231.24
784.51	231.25
784.83	231.17
785.16	231.11
785.48	231.07
785.80	231.00
786.12	230.94
786.45	230.92
786.77	230.90
787.09	230.86
