SpectraSuite Data File
++++++++++++++++++++++++++++++++++++
Date: Fri Feb 01 15:06:07 EST 2013
User: group
Dark Spectrum Present: No
Reference Spectrum Present: No
Number of Sampled Component Spectra: 1
Spectrometers: USB2E7196
Integration Time (usec): 35000 (USB2E7196)
Spectra Averaged: 100 (USB2E7196)
Boxcar Smoothing: 10 (USB2E7196)
Correct for Electrical Dark: No (USB2E7196)
Strobe/Lamp Enabled: No (USB2E7196)
Correct for Detector Non-linearity: No (USB2E7196)
Correct for Stray Light: No (USB2E7196)
Number of Pixels in Processed Spectrum: 2048
>>>>>Begin Processed Spectral Data<<<<<
339.09	0.00
339.48	215.09
339.86	216.75
340.24	218.11
340.63	219.23
341.01	222.77
341.39	221.99
341.78	223.57
342.16	224.22
342.54	225.21
342.93	213.52
343.31	224.30
343.69	224.83
344.07	225.31
344.46	225.72
344.84	226.11
345.22	226.30
345.60	226.56
345.99	226.77
346.37	226.90
346.75	227.02
347.13	227.05
347.52	227.05
347.90	227.13
348.28	227.14
348.66	227.18
349.05	227.21
349.43	227.23
349.81	227.29
350.19	227.33
350.57	227.36
350.96	227.41
351.34	227.50
351.72	227.58
352.10	227.64
352.48	227.74
352.87	227.80
353.25	227.86
353.63	227.88
354.01	227.93
354.39	228.03
354.77	228.08
355.15	228.19
355.54	228.28
355.92	228.31
356.30	228.40
356.68	228.51
357.06	228.57
357.44	228.64
357.82	228.68
358.20	228.76
358.58	228.84
358.97	228.92
359.35	228.99
359.73	229.09
360.11	229.15
360.49	229.22
360.87	229.24
361.25	229.33
361.63	229.44
362.01	229.49
362.39	229.52
362.77	229.55
363.15	229.56
363.53	229.60
363.91	229.63
364.29	229.63
364.67	229.58
365.05	229.61
365.43	229.62
365.81	229.65
366.19	229.68
366.57	229.71
366.95	229.70
367.33	229.69
367.71	229.65
368.09	229.63
368.47	229.58
368.85	229.54
369.23	229.54
369.61	229.43
369.99	229.41
370.37	229.37
370.75	229.39
371.13	229.34
371.51	229.26
371.89	229.25
372.27	229.17
372.65	229.11
373.03	229.04
373.41	228.96
373.78	228.90
374.16	228.79
374.54	228.67
374.92	228.60
375.30	228.52
375.68	228.44
376.06	228.36
376.44	228.27
376.82	228.21
377.19	228.13
377.57	228.06
377.95	227.94
378.33	227.85
378.71	227.72
379.09	227.63
379.47	227.57
379.84	227.43
380.22	227.37
380.60	227.27
380.98	227.18
381.36	227.12
381.73	227.02
382.11	226.98
382.49	226.93
382.87	226.86
383.25	226.80
383.62	226.83
384.00	226.80
384.38	226.77
384.76	226.74
385.13	226.69
385.51	226.67
385.89	226.59
386.27	226.53
386.64	226.50
387.02	226.47
387.40	226.45
387.78	226.40
388.15	226.36
388.53	226.35
388.91	226.34
389.29	226.29
389.66	226.28
390.04	226.24
390.42	226.24
390.79	226.22
391.17	226.22
391.55	226.13
391.92	226.09
392.30	226.11
392.68	226.09
393.05	226.08
393.43	226.08
393.81	226.12
394.18	226.14
394.56	226.14
394.94	226.17
395.31	226.16
395.69	226.25
396.06	226.31
396.44	226.37
396.82	226.41
397.19	226.51
397.57	226.59
397.95	226.69
398.32	226.74
398.70	226.83
399.07	226.89
399.45	226.95
399.82	227.02
400.20	227.05
400.58	227.13
400.95	227.18
401.33	227.29
401.70	227.48
402.08	227.60
402.45	227.73
402.83	227.85
403.20	227.97
403.58	228.07
403.95	228.22
404.33	228.37
404.71	228.48
405.08	228.67
405.46	228.77
405.83	228.88
406.21	229.03
406.58	229.18
406.96	229.36
407.33	229.56
407.70	229.77
408.08	230.05
408.45	230.29
408.83	230.56
409.20	230.79
409.58	230.93
409.95	231.20
410.33	231.47
410.70	231.75
411.08	232.06
411.45	232.39
411.82	232.70
412.20	233.04
412.57	233.47
412.95	233.77
413.32	234.18
413.69	234.63
414.07	235.04
414.44	235.48
414.82	235.97
415.19	236.50
415.56	237.04
415.94	237.61
416.31	238.25
416.68	238.88
417.06	239.56
417.43	240.28
417.81	241.03
418.18	241.85
418.55	242.70
418.93	243.55
419.30	244.44
419.67	245.35
420.04	246.33
420.42	247.33
420.79	248.48
421.16	249.62
421.54	250.82
421.91	252.07
422.28	253.35
422.66	254.63
423.03	255.94
423.40	257.28
423.77	258.67
424.15	260.10
424.52	261.59
424.89	263.20
425.26	264.72
425.64	266.17
426.01	267.73
426.38	269.33
426.75	271.03
427.13	272.76
427.50	274.59
427.87	276.44
428.24	278.30
428.61	280.09
428.99	282.11
429.36	284.20
429.73	286.24
430.10	288.26
430.47	290.34
430.85	292.47
431.22	294.71
431.59	297.11
431.96	299.32
432.33	301.77
432.70	304.17
433.08	307.00
433.45	309.65
433.82	312.21
434.19	315.14
434.56	318.00
434.93	320.69
435.30	323.29
435.68	326.22
436.05	329.09
436.42	331.90
436.79	334.35
437.16	337.05
437.53	339.88
437.90	342.72
438.27	345.47
438.64	348.33
439.01	350.95
439.38	353.25
439.75	355.43
440.13	357.99
440.50	360.33
440.87	362.24
441.24	364.18
441.61	366.42
441.98	367.93
442.35	369.69
442.72	371.52
443.09	373.31
443.46	374.27
443.83	374.83
444.20	375.35
444.57	376.19
444.94	376.49
445.31	376.91
445.68	377.24
446.05	377.34
446.42	376.95
446.79	376.53
447.16	376.09
447.53	375.79
447.90	374.62
448.27	373.44
448.64	371.79
449.01	370.64
449.37	368.66
449.74	366.77
450.11	364.51
450.48	362.05
450.85	359.58
451.22	357.46
451.59	355.43
451.96	353.42
452.33	350.85
452.70	348.48
453.07	345.58
453.43	342.68
453.80	339.90
454.17	337.21
454.54	334.70
454.91	331.92
455.28	329.23
455.65	326.74
456.02	324.31
456.38	322.20
456.75	319.54
457.12	317.29
457.49	315.04
457.86	312.87
458.23	311.00
458.59	308.93
458.96	306.85
459.33	305.00
459.70	303.18
460.07	301.69
460.43	299.97
460.80	298.38
461.17	296.96
461.54	295.42
461.91	294.01
462.27	292.51
462.64	291.24
463.01	289.90
463.38	288.59
463.74	287.19
464.11	286.02
464.48	284.99
464.85	283.81
465.21	282.92
465.58	281.96
465.95	280.87
466.32	279.94
466.68	278.99
467.05	278.07
467.42	277.17
467.78	276.22
468.15	275.30
468.52	274.61
468.88	273.74
469.25	273.01
469.62	272.34
469.98	271.62
470.35	270.97
470.72	270.34
471.08	269.64
471.45	269.11
471.82	268.52
472.18	267.90
472.55	267.49
472.92	266.96
473.28	266.51
473.65	266.03
474.02	265.59
474.38	265.23
474.75	264.90
475.11	264.53
475.48	264.27
475.85	264.05
476.21	263.74
476.58	263.49
476.94	263.30
477.31	263.13
477.67	263.03
478.04	262.90
478.41	262.82
478.77	262.84
479.14	262.74
479.50	262.73
479.87	262.82
480.23	262.86
480.60	262.93
480.96	263.01
481.33	263.24
481.69	263.43
482.06	263.60
482.42	263.78
482.79	264.01
483.15	264.32
483.52	264.68
483.88	265.08
484.25	265.48
484.61	265.93
484.98	266.38
485.34	266.87
485.71	267.46
486.07	268.10
486.44	268.65
486.80	269.37
487.17	270.13
487.53	270.90
487.90	271.76
488.26	272.68
488.62	273.66
488.99	274.63
489.35	275.67
489.72	276.82
490.08	278.01
490.44	279.27
490.81	280.59
491.17	281.92
491.54	283.42
491.90	284.97
492.26	286.61
492.63	288.35
492.99	290.17
493.36	292.05
493.72	294.05
494.08	296.18
494.45	298.44
494.81	300.76
495.17	303.22
495.54	305.77
495.90	308.45
496.26	311.22
496.63	314.20
496.99	317.26
497.35	320.48
497.72	323.88
498.08	327.39
498.44	331.03
498.80	334.94
499.17	338.92
499.53	343.07
499.89	347.40
500.26	351.89
500.62	356.53
500.98	361.52
501.34	366.51
501.71	371.83
502.07	377.23
502.43	382.80
502.79	388.56
503.16	394.60
503.52	400.84
503.88	407.24
504.24	413.84
504.60	420.70
504.97	427.79
505.33	435.07
505.69	442.79
506.05	450.52
506.41	458.40
506.78	466.57
507.14	474.99
507.50	483.70
507.86	492.66
508.22	501.80
508.59	510.90
508.95	520.55
509.31	530.37
509.67	540.44
510.03	550.79
510.39	561.39
510.75	572.29
511.12	583.21
511.48	594.54
511.84	605.94
512.20	617.47
512.56	629.39
512.92	641.61
513.28	653.81
513.64	666.35
514.00	679.08
514.37	691.97
514.73	705.12
515.09	718.15
515.45	731.48
515.81	745.11
516.17	759.12
516.53	773.25
516.89	787.31
517.25	801.49
517.61	815.82
517.97	830.29
518.33	844.70
518.69	859.59
519.05	874.53
519.41	889.75
519.77	905.37
520.13	920.88
520.49	936.19
520.85	951.77
521.21	967.50
521.57	983.75
521.93	999.69
522.29	1016.11
522.65	1032.40
523.01	1048.74
523.37	1064.87
523.73	1081.14
524.09	1097.30
524.45	1113.80
524.81	1130.60
525.17	1147.61
525.53	1164.44
525.89	1181.42
526.25	1198.21
526.61	1214.76
526.97	1231.54
527.33	1248.06
527.68	1264.85
528.04	1281.52
528.40	1298.22
528.76	1315.27
529.12	1331.84
529.48	1348.74
529.84	1364.81
530.20	1381.48
530.56	1398.58
530.91	1416.11
531.27	1432.81
531.63	1449.42
531.99	1466.14
532.35	1482.11
532.71	1497.99
533.07	1514.44
533.42	1530.25
533.78	1546.45
534.14	1562.73
534.50	1578.08
534.86	1594.14
535.21	1609.27
535.57	1625.32
535.93	1640.83
536.29	1655.86
536.65	1671.07
537.00	1685.89
537.36	1701.32
537.72	1715.97
538.08	1730.37
538.44	1744.18
538.79	1758.40
539.15	1772.08
539.51	1785.81
539.87	1800.27
540.22	1814.11
540.58	1828.05
540.94	1841.65
541.29	1854.62
541.65	1867.48
542.01	1880.85
542.37	1893.11
542.72	1905.64
543.08	1917.46
543.44	1929.96
543.79	1941.20
544.15	1952.19
544.51	1963.75
544.87	1974.72
545.22	1985.71
545.58	1996.05
545.94	2005.92
546.29	2015.79
546.65	2025.66
547.01	2034.99
547.36	2043.75
547.72	2052.18
548.07	2060.05
548.43	2068.25
548.79	2076.23
549.14	2083.72
549.50	2091.27
549.86	2099.06
550.21	2106.37
550.57	2113.41
550.92	2120.00
551.28	2127.11
551.64	2134.20
551.99	2140.88
552.35	2147.04
552.70	2153.03
553.06	2158.89
553.41	2165.20
553.77	2171.11
554.13	2177.21
554.48	2183.23
554.84	2188.59
555.19	2194.11
555.55	2199.04
555.90	2203.51
556.26	2208.32
556.61	2212.96
556.97	2217.06
557.32	2221.13
557.68	2225.37
558.03	2229.75
558.39	2233.43
558.74	2238.02
559.10	2241.88
559.45	2245.30
559.81	2249.61
560.16	2253.27
560.52	2256.51
560.87	2259.78
561.23	2262.37
561.58	2265.40
561.94	2267.89
562.29	2270.33
562.64	2272.79
563.00	2275.51
563.35	2278.84
563.71	2282.00
564.06	2285.22
564.42	2287.95
564.77	2290.42
565.12	2292.45
565.48	2294.11
565.83	2295.73
566.19	2296.82
566.54	2297.69
566.89	2298.99
567.25	2299.38
567.60	2300.88
567.96	2302.38
568.31	2303.09
568.66	2304.01
569.02	2304.26
569.37	2304.49
569.72	2305.05
570.08	2305.02
570.43	2304.82
570.78	2303.96
571.14	2302.20
571.49	2300.68
571.84	2300.26
572.20	2298.94
572.55	2297.67
572.90	2296.14
573.26	2294.65
573.61	2292.92
573.96	2290.90
574.31	2287.52
574.67	2284.28
575.02	2280.41
575.37	2277.09
575.72	2273.15
576.08	2269.80
576.43	2266.52
576.78	2262.70
577.13	2259.48
577.49	2256.38
577.84	2252.87
578.19	2249.18
578.54	2245.39
578.90	2240.92
579.25	2235.26
579.60	2230.11
579.95	2225.06
580.30	2220.04
580.66	2214.82
581.01	2209.67
581.36	2204.65
581.71	2200.45
582.06	2195.93
582.42	2191.23
582.77	2185.90
583.12	2181.23
583.47	2176.34
583.82	2171.10
584.17	2165.79
584.53	2160.15
584.88	2154.28
585.23	2148.22
585.58	2142.69
585.93	2137.29
586.28	2132.63
586.63	2127.45
586.98	2122.22
587.34	2117.50
587.69	2112.34
588.04	2106.98
588.39	2101.16
588.74	2094.72
589.09	2088.61
589.44	2081.72
589.79	2075.74
590.14	2069.92
590.49	2063.40
590.84	2056.97
591.19	2050.83
591.54	2044.30
591.89	2036.73
592.25	2029.94
592.60	2022.82
592.95	2014.92
593.30	2007.40
593.65	1999.53
594.00	1992.43
594.35	1985.17
594.70	1976.98
595.05	1969.74
595.40	1962.37
595.75	1954.88
596.10	1948.41
596.45	1941.36
596.80	1935.13
597.15	1928.32
597.50	1921.01
597.85	1914.36
598.19	1907.69
598.54	1900.46
598.89	1893.68
599.24	1887.84
599.59	1880.94
599.94	1874.65
600.29	1868.51
600.64	1861.91
600.99	1854.44
601.34	1847.48
601.69	1840.53
602.04	1833.53
602.39	1826.14
602.74	1819.36
603.08	1812.58
603.43	1805.83
603.78	1798.57
604.13	1791.44
604.48	1784.19
604.83	1777.43
605.18	1770.35
605.53	1762.16
605.87	1754.16
606.22	1747.00
606.57	1738.98
606.92	1731.76
607.27	1724.39
607.62	1717.22
607.96	1709.77
608.31	1703.05
608.66	1695.39
609.01	1687.86
609.36	1680.49
609.70	1672.35
610.05	1664.21
610.40	1656.53
610.75	1648.27
611.10	1640.56
611.44	1632.26
611.79	1624.20
612.14	1615.50
612.49	1606.59
612.83	1598.38
613.18	1590.29
613.53	1582.13
613.88	1573.57
614.22	1565.37
614.57	1556.96
614.92	1549.06
615.27	1541.58
615.61	1533.44
615.96	1525.43
616.31	1517.76
616.65	1510.23
617.00	1502.84
617.35	1495.25
617.70	1486.88
618.04	1478.48
618.39	1470.35
618.74	1462.71
619.08	1454.47
619.43	1446.86
619.78	1439.88
620.12	1432.72
620.47	1425.23
620.82	1417.08
621.16	1409.81
621.51	1402.14
621.85	1394.60
622.20	1386.14
622.55	1377.80
622.89	1369.96
623.24	1362.43
623.59	1355.07
623.93	1347.76
624.28	1340.57
624.62	1333.05
624.97	1325.98
625.32	1319.22
625.66	1312.24
626.01	1304.99
626.35	1297.56
626.70	1289.92
627.04	1282.20
627.39	1274.47
627.73	1267.07
628.08	1260.24
628.43	1252.86
628.77	1245.51
629.12	1237.86
629.46	1230.69
629.81	1223.41
630.15	1216.24
630.50	1208.86
630.84	1200.72
631.19	1192.73
631.53	1185.21
631.88	1177.68
632.22	1170.01
632.57	1162.76
632.91	1155.29
633.26	1147.90
633.60	1140.62
633.95	1133.62
634.29	1126.68
634.64	1120.09
634.98	1112.79
635.32	1105.71
635.67	1099.36
636.01	1092.83
636.36	1086.18
636.70	1079.74
637.05	1073.17
637.39	1066.77
637.73	1060.27
638.08	1054.45
638.42	1048.52
638.77	1042.09
639.11	1035.53
639.45	1029.28
639.80	1022.60
640.14	1016.22
640.49	1009.74
640.83	1003.50
641.17	997.27
641.52	991.01
641.86	984.58
642.20	978.80
642.55	972.53
642.89	965.92
643.23	959.39
643.58	953.56
643.92	947.38
644.26	941.34
644.61	935.38
644.95	929.37
645.29	922.70
645.64	915.93
645.98	909.61
646.32	903.76
646.66	897.62
647.01	891.86
647.35	886.11
647.69	880.31
648.04	874.84
648.38	869.03
648.72	862.84
649.06	856.76
649.41	850.86
649.75	844.85
650.09	839.02
650.43	833.22
650.78	827.02
651.12	821.07
651.46	815.38
651.80	809.59
652.14	804.24
652.49	798.96
652.83	793.85
653.17	788.18
653.51	782.51
653.85	777.18
654.20	771.55
654.54	765.62
654.88	759.97
655.22	754.02
655.56	748.31
655.90	743.04
656.25	737.80
656.59	732.42
656.93	727.38
657.27	722.19
657.61	716.76
657.95	711.76
658.29	706.70
658.64	701.47
658.98	696.21
659.32	690.77
659.66	685.60
660.00	680.28
660.34	675.41
660.68	670.51
661.02	665.56
661.36	660.86
661.70	656.39
662.05	651.99
662.39	647.71
662.73	643.29
663.07	638.97
663.41	634.56
663.75	630.08
664.09	625.56
664.43	621.21
664.77	617.06
665.11	612.80
665.45	608.68
665.79	604.64
666.13	600.50
666.47	596.44
666.81	592.31
667.15	588.24
667.49	584.35
667.83	580.59
668.17	576.69
668.51	572.72
668.85	568.72
669.19	564.88
669.53	561.07
669.87	557.25
670.21	553.57
670.55	549.92
670.89	546.57
671.23	543.15
671.57	539.70
671.91	536.20
672.25	532.76
672.58	529.26
672.92	525.87
673.26	522.77
673.60	519.68
673.94	516.55
674.28	513.70
674.62	510.74
674.96	507.61
675.30	504.73
675.64	501.79
675.97	499.03
676.31	496.18
676.65	493.24
676.99	490.54
677.33	487.65
677.67	484.87
678.01	481.81
678.34	478.83
678.68	475.96
679.02	473.19
679.36	470.49
679.70	467.76
680.04	465.01
680.37	462.11
680.71	459.30
681.05	456.68
681.39	453.93
681.73	451.35
682.06	448.81
682.40	446.22
682.74	443.71
683.08	441.18
683.42	438.62
683.75	436.15
684.09	433.63
684.43	431.16
684.77	428.72
685.10	426.45
685.44	424.21
685.78	421.91
686.12	419.70
686.45	417.37
686.79	415.12
687.13	412.95
687.46	410.84
687.80	408.71
688.14	406.56
688.48	404.56
688.81	402.31
689.15	400.22
689.49	398.16
689.82	396.07
690.16	393.95
690.50	392.00
690.83	390.07
691.17	388.11
691.51	386.21
691.84	384.37
692.18	382.44
692.52	380.42
692.85	378.50
693.19	376.57
693.52	374.78
693.86	373.02
694.20	371.23
694.53	369.43
694.87	367.59
695.21	365.81
695.54	363.96
695.88	362.26
696.21	360.52
696.55	358.80
696.88	357.12
697.22	355.50
697.56	353.90
697.89	352.23
698.23	350.63
698.56	349.02
698.90	347.42
699.23	345.81
699.57	344.28
699.90	342.75
700.24	341.26
700.58	339.72
700.91	338.19
701.25	336.81
701.58	335.45
701.92	334.08
702.25	332.73
702.59	331.38
702.92	330.04
703.26	328.74
703.59	327.45
703.93	326.31
704.26	325.05
704.60	323.77
704.93	322.52
705.26	321.30
705.60	320.17
705.93	319.03
706.27	317.96
706.60	316.90
706.94	315.83
707.27	314.74
707.61	313.69
707.94	312.66
708.27	311.52
708.61	310.48
708.94	309.49
709.28	308.51
709.61	307.54
709.94	306.63
710.28	305.60
710.61	304.64
710.95	303.57
711.28	302.69
711.61	301.73
711.95	300.84
712.28	299.86
712.61	298.88
712.95	297.96
713.28	297.11
713.61	296.21
713.95	295.35
714.28	294.45
714.61	293.61
714.95	292.80
715.28	291.98
715.61	291.08
715.95	290.24
716.28	289.41
716.61	288.62
716.95	287.78
717.28	287.08
717.61	286.32
717.94	285.58
718.28	284.80
718.61	284.10
718.94	283.42
719.27	282.79
719.61	282.15
719.94	281.51
720.27	280.80
720.60	280.12
720.94	279.49
721.27	278.96
721.60	278.37
721.93	277.77
722.27	277.23
722.60	276.71
722.93	276.09
723.26	275.59
723.59	274.98
723.93	274.49
724.26	273.95
724.59	273.40
724.92	272.88
725.25	272.41
725.59	271.89
725.92	271.37
726.25	270.85
726.58	270.35
726.91	269.85
727.24	269.41
727.57	268.99
727.91	268.46
728.24	267.94
728.57	267.47
728.90	267.01
729.23	266.50
729.56	266.07
729.89	265.65
730.22	265.08
730.55	264.62
730.89	264.15
731.22	263.69
731.55	263.28
731.88	262.89
732.21	262.42
732.54	261.99
732.87	261.57
733.20	261.16
733.53	260.78
733.86	260.41
734.19	259.95
734.52	259.55
734.85	259.28
735.18	258.92
735.51	258.56
735.84	258.17
736.17	257.81
736.50	257.39
736.83	257.14
737.16	256.84
737.49	256.53
737.82	256.16
738.15	255.83
738.48	255.49
738.81	255.12
739.14	254.79
739.47	254.47
739.80	254.15
740.13	253.86
740.46	253.53
740.79	253.21
741.12	252.93
741.45	252.63
741.78	252.26
742.11	251.96
742.44	251.61
742.77	251.33
743.10	251.00
743.43	250.68
743.75	250.29
744.08	250.12
744.41	249.84
744.74	249.59
745.07	249.32
745.40	249.04
745.73	248.78
746.06	248.52
746.39	248.24
746.71	247.97
747.04	247.67
747.37	247.37
747.70	247.08
748.03	246.80
748.36	246.60
748.68	246.39
749.01	246.12
749.34	245.92
749.67	245.69
750.00	245.52
750.33	245.35
750.65	245.17
750.98	244.82
751.31	244.64
751.64	244.46
751.97	244.28
752.29	244.10
752.62	243.89
752.95	243.68
753.28	243.50
753.60	243.32
753.93	243.17
754.26	243.00
754.59	242.78
754.91	242.61
755.24	242.39
755.57	242.18
755.90	242.02
756.22	241.84
756.55	241.67
756.88	241.47
757.20	241.28
757.53	241.08
757.86	240.93
758.19	240.77
758.51	240.57
758.84	240.38
759.17	240.19
759.49	240.03
759.82	239.88
760.15	239.74
760.47	239.57
760.80	239.39
761.13	239.26
761.45	239.14
761.78	238.98
762.11	238.83
762.43	238.69
762.76	238.55
763.08	238.41
763.41	238.28
763.74	238.18
764.06	238.04
764.39	237.91
764.71	237.77
765.04	237.61
765.37	237.46
765.69	237.30
766.02	237.19
766.34	237.05
766.67	236.92
767.00	236.82
767.32	236.77
767.65	236.75
767.97	236.64
768.30	236.53
768.62	236.44
768.95	236.32
769.27	236.19
769.60	236.09
769.92	235.98
770.25	235.86
770.57	235.69
770.90	235.59
771.22	235.49
771.55	235.39
771.87	235.29
772.20	235.21
772.52	235.21
772.85	235.27
773.17	235.20
773.50	235.09
773.82	234.97
774.15	234.84
774.47	234.65
774.80	234.57
775.12	234.47
775.45	234.37
775.77	234.31
776.09	234.25
776.42	234.16
776.74	234.09
777.07	234.01
777.39	233.98
777.72	233.89
778.04	233.81
778.36	233.74
778.69	233.69
779.01	233.66
779.33	233.54
779.66	233.32
779.98	233.24
780.31	233.18
780.63	233.15
780.95	233.08
781.28	233.04
781.60	232.94
781.92	232.92
782.25	232.87
782.57	232.82
782.89	232.74
783.22	232.68
783.54	232.61
783.86	232.56
784.19	232.46
784.51	232.43
784.83	232.38
785.16	232.34
785.48	232.28
785.80	232.19
786.12	232.11
786.45	232.05
786.77	232.01
787.09	231.98
