SpectraSuite Data File
++++++++++++++++++++++++++++++++++++
Date: Fri Feb 01 16:22:31 EST 2013
User: group
Dark Spectrum Present: No
Reference Spectrum Present: No
Number of Sampled Component Spectra: 1
Spectrometers: USB2E7196
Integration Time (usec): 35000 (USB2E7196)
Spectra Averaged: 100 (USB2E7196)
Boxcar Smoothing: 10 (USB2E7196)
Correct for Electrical Dark: No (USB2E7196)
Strobe/Lamp Enabled: No (USB2E7196)
Correct for Detector Non-linearity: No (USB2E7196)
Correct for Stray Light: No (USB2E7196)
Number of Pixels in Processed Spectrum: 2048
>>>>>Begin Processed Spectral Data<<<<<
339.09	0.00
339.48	213.84
339.86	215.36
340.24	216.79
340.63	217.71
341.01	220.88
341.39	220.37
341.78	222.30
342.16	222.95
342.54	223.53
342.93	212.10
343.31	222.83
343.69	223.36
344.07	223.82
344.46	224.24
344.84	224.62
345.22	224.83
345.60	225.06
345.99	225.23
346.37	225.36
346.75	225.44
347.13	225.53
347.52	225.58
347.90	225.66
348.28	225.65
348.66	225.71
349.05	225.71
349.43	225.75
349.81	225.83
350.19	225.91
350.57	225.97
350.96	226.03
351.34	226.10
351.72	226.17
352.10	226.25
352.48	226.32
352.87	226.37
353.25	226.46
353.63	226.57
354.01	226.64
354.39	226.72
354.77	226.81
355.15	226.91
355.54	226.97
355.92	227.00
356.30	227.09
356.68	227.23
357.06	227.31
357.44	227.37
357.82	227.42
358.20	227.48
358.58	227.54
358.97	227.65
359.35	227.74
359.73	227.81
360.11	227.89
360.49	227.96
360.87	228.04
361.25	228.13
361.63	228.20
362.01	228.27
362.39	228.33
362.77	228.40
363.15	228.45
363.53	228.49
363.91	228.56
364.29	228.62
364.67	228.56
365.05	228.57
365.43	228.60
365.81	228.66
366.19	228.71
366.57	228.75
366.95	228.75
367.33	228.72
367.71	228.76
368.09	228.77
368.47	228.77
368.85	228.75
369.23	228.74
369.61	228.69
369.99	228.71
370.37	228.69
370.75	228.74
371.13	228.64
371.51	228.59
371.89	228.53
372.27	228.48
372.65	228.46
373.03	228.41
373.41	228.34
373.78	228.29
374.16	228.18
374.54	228.10
374.92	228.02
375.30	228.00
375.68	227.90
376.06	227.81
376.44	227.77
376.82	227.73
377.19	227.64
377.57	227.56
377.95	227.45
378.33	227.41
378.71	227.25
379.09	227.22
379.47	227.16
379.84	227.09
380.22	227.01
380.60	226.95
380.98	226.90
381.36	226.86
381.73	226.74
382.11	226.74
382.49	226.67
382.87	226.60
383.25	226.53
383.62	226.60
384.00	226.54
384.38	226.47
384.76	226.43
385.13	226.42
385.51	226.38
385.89	226.33
386.27	226.24
386.64	226.23
387.02	226.17
387.40	226.13
387.78	226.06
388.15	226.06
388.53	225.98
388.91	225.92
389.29	225.89
389.66	225.89
390.04	225.80
390.42	225.80
390.79	225.79
391.17	225.76
391.55	225.65
391.92	225.63
392.30	225.61
392.68	225.56
393.05	225.54
393.43	225.53
393.81	225.55
394.18	225.58
394.56	225.60
394.94	225.66
395.31	225.63
395.69	225.71
396.06	225.71
396.44	225.77
396.82	225.84
397.19	225.92
397.57	225.94
397.95	225.99
398.32	226.03
398.70	226.07
399.07	226.17
399.45	226.19
399.82	226.25
400.20	226.31
400.58	226.41
400.95	226.46
401.33	226.57
401.70	226.70
402.08	226.77
402.45	226.83
402.83	226.96
403.20	227.12
403.58	227.20
403.95	227.34
404.33	227.46
404.71	227.58
405.08	227.77
405.46	227.92
405.83	228.08
406.21	228.20
406.58	228.39
406.96	228.52
407.33	228.74
407.70	228.94
408.08	229.22
408.45	229.43
408.83	229.70
409.20	229.87
409.58	230.06
409.95	230.31
410.33	230.58
410.70	230.81
411.08	231.10
411.45	231.39
411.82	231.68
412.20	232.00
412.57	232.39
412.95	232.66
413.32	233.04
413.69	233.49
414.07	233.90
414.44	234.35
414.82	234.83
415.19	235.34
415.56	235.87
415.94	236.40
416.31	237.01
416.68	237.60
417.06	238.33
417.43	239.00
417.81	239.77
418.18	240.55
418.55	241.37
418.93	242.25
419.30	243.14
419.67	244.07
420.04	245.04
420.42	246.02
420.79	247.17
421.16	248.32
421.54	249.47
421.91	250.71
422.28	251.91
422.66	253.24
423.03	254.58
423.40	255.91
423.77	257.31
424.15	258.71
424.52	260.18
424.89	261.76
425.26	263.29
425.64	264.72
426.01	266.29
426.38	267.94
426.75	269.57
427.13	271.26
427.50	273.08
427.87	274.95
428.24	276.80
428.61	278.52
428.99	280.47
429.36	282.58
429.73	284.64
430.10	286.70
430.47	288.73
430.85	290.81
431.22	293.05
431.59	295.39
431.96	297.67
432.33	300.18
432.70	302.59
433.08	305.43
433.45	308.07
433.82	310.66
434.19	313.57
434.56	316.40
434.93	319.12
435.30	321.75
435.68	324.61
436.05	327.49
436.42	330.30
436.79	332.82
437.16	335.45
437.53	338.26
437.90	341.06
438.27	343.83
438.64	346.63
439.01	349.24
439.38	351.53
439.75	353.67
440.13	356.12
440.50	358.43
440.87	360.24
441.24	362.20
441.61	364.38
441.98	365.80
442.35	367.57
442.72	369.34
443.09	371.11
443.46	372.13
443.83	372.69
444.20	373.22
444.57	374.05
444.94	374.40
445.31	374.72
445.68	375.06
446.05	375.15
446.42	374.77
446.79	374.35
447.16	373.86
447.53	373.55
447.90	372.41
448.27	371.28
448.64	369.71
449.01	368.54
449.37	366.56
449.74	364.70
450.11	362.50
450.48	360.07
450.85	357.56
451.22	355.38
451.59	353.33
451.96	351.41
452.33	348.83
452.70	346.44
453.07	343.66
453.43	340.79
453.80	338.03
454.17	335.40
454.54	332.83
454.91	330.15
455.28	327.48
455.65	324.99
456.02	322.51
456.38	320.37
456.75	317.69
457.12	315.46
457.49	313.20
457.86	311.06
458.23	309.22
458.59	307.20
458.96	305.14
459.33	303.27
459.70	301.37
460.07	299.89
460.43	298.15
460.80	296.52
461.17	295.09
461.54	293.57
461.91	292.15
462.27	290.71
462.64	289.41
463.01	288.06
463.38	286.78
463.74	285.44
464.11	284.30
464.48	283.29
464.85	282.18
465.21	281.36
465.58	280.42
465.95	279.33
466.32	278.43
466.68	277.56
467.05	276.70
467.42	275.85
467.78	274.89
468.15	274.05
468.52	273.39
468.88	272.54
469.25	271.78
469.62	271.17
469.98	270.51
470.35	269.92
470.72	269.34
471.08	268.65
471.45	268.10
471.82	267.54
472.18	266.94
472.55	266.51
472.92	265.97
473.28	265.51
473.65	265.05
474.02	264.61
474.38	264.22
474.75	263.92
475.11	263.57
475.48	263.34
475.85	263.15
476.21	262.92
476.58	262.73
476.94	262.60
477.31	262.42
477.67	262.27
478.04	262.16
478.41	262.12
478.77	262.19
479.14	262.15
479.50	262.19
479.87	262.28
480.23	262.37
480.60	262.44
480.96	262.53
481.33	262.74
481.69	262.91
482.06	263.13
482.42	263.31
482.79	263.59
483.15	263.89
483.52	264.20
483.88	264.57
484.25	264.97
484.61	265.37
484.98	265.85
485.34	266.42
485.71	267.00
486.07	267.64
486.44	268.22
486.80	268.94
487.17	269.67
487.53	270.48
487.90	271.33
488.26	272.28
488.62	273.29
488.99	274.26
489.35	275.33
489.72	276.44
490.08	277.67
490.44	278.88
490.81	280.24
491.17	281.61
491.54	283.09
491.90	284.65
492.26	286.29
492.63	288.04
492.99	289.82
493.36	291.71
493.72	293.73
494.08	295.84
494.45	298.11
494.81	300.50
495.17	302.91
495.54	305.49
495.90	308.21
496.26	311.03
496.63	313.99
496.99	317.13
497.35	320.40
497.72	323.81
498.08	327.34
498.44	331.01
498.80	334.96
499.17	338.97
499.53	343.09
499.89	347.49
500.26	352.00
500.62	356.62
500.98	361.58
501.34	366.65
501.71	371.98
502.07	377.42
502.43	383.02
502.79	388.83
503.16	394.96
503.52	401.23
503.88	407.65
504.24	414.33
504.60	421.23
504.97	428.37
505.33	435.70
505.69	443.38
506.05	451.17
506.41	459.02
506.78	467.19
507.14	475.65
507.50	484.41
507.86	493.38
508.22	502.66
508.59	511.91
508.95	521.56
509.31	531.34
509.67	541.42
510.03	551.76
510.39	562.36
510.75	573.13
511.12	584.04
511.48	595.32
511.84	606.75
512.20	618.23
512.56	630.22
512.92	642.38
513.28	654.77
513.64	667.22
514.00	679.94
514.37	692.97
514.73	706.10
515.09	719.02
515.45	732.32
515.81	745.94
516.17	759.95
516.53	773.97
516.89	788.12
517.25	802.28
517.61	816.64
517.97	831.03
518.33	845.40
518.69	860.09
519.05	875.06
519.41	890.21
519.77	905.77
520.13	921.19
520.49	936.57
520.85	951.87
521.21	967.54
521.57	983.73
521.93	999.37
522.29	1015.66
522.65	1031.95
523.01	1048.17
523.37	1064.01
523.73	1080.09
524.09	1096.20
524.45	1112.50
524.81	1129.10
525.17	1145.84
525.53	1162.68
525.89	1179.54
526.25	1196.47
526.61	1212.67
526.97	1229.28
527.33	1245.55
527.68	1262.07
528.04	1278.42
528.40	1294.99
528.76	1311.97
529.12	1328.56
529.48	1345.40
529.84	1361.37
530.20	1377.99
530.56	1394.88
530.91	1412.33
531.27	1429.04
531.63	1445.42
531.99	1461.90
532.35	1477.79
532.71	1493.64
533.07	1509.82
533.42	1525.62
533.78	1541.57
534.14	1557.83
534.50	1573.15
534.86	1588.97
535.21	1604.05
535.57	1619.86
535.93	1635.34
536.29	1650.03
536.65	1664.95
537.00	1679.49
537.36	1694.68
537.72	1709.01
538.08	1723.42
538.44	1737.12
538.79	1750.82
539.15	1764.41
539.51	1778.04
539.87	1792.32
540.22	1806.00
540.58	1819.77
540.94	1832.96
541.29	1845.63
541.65	1858.26
542.01	1871.47
542.37	1883.71
542.72	1896.08
543.08	1907.88
543.44	1920.12
543.79	1931.35
544.15	1942.24
544.51	1953.87
544.87	1964.69
545.22	1975.46
545.58	1985.61
545.94	1995.25
546.29	2005.04
546.65	2014.89
547.01	2024.12
547.36	2032.72
547.72	2041.05
548.07	2048.84
548.43	2057.06
548.79	2065.13
549.14	2072.60
549.50	2079.77
549.86	2087.43
550.21	2094.78
550.57	2101.82
550.92	2108.38
551.28	2115.36
551.64	2122.47
551.99	2128.98
552.35	2135.12
552.70	2141.31
553.06	2147.32
553.41	2153.62
553.77	2159.77
554.13	2165.64
554.48	2171.80
554.84	2177.32
555.19	2182.69
555.55	2187.84
555.90	2192.27
556.26	2197.14
556.61	2201.90
556.97	2206.28
557.32	2210.42
557.68	2214.41
558.03	2218.78
558.39	2222.51
558.74	2227.13
559.10	2230.94
559.45	2234.66
559.81	2238.92
560.16	2242.81
560.52	2245.98
560.87	2249.45
561.23	2252.02
561.58	2255.10
561.94	2257.60
562.29	2259.96
562.64	2262.67
563.00	2265.24
563.35	2268.76
563.71	2271.80
564.06	2275.02
564.42	2277.90
564.77	2280.45
565.12	2282.87
565.48	2284.84
565.83	2286.72
566.19	2288.27
566.54	2289.13
566.89	2290.24
567.25	2291.01
567.60	2292.31
567.96	2294.20
568.31	2295.06
568.66	2296.31
569.02	2296.92
569.37	2297.24
569.72	2298.13
570.08	2298.26
570.43	2298.34
570.78	2297.80
571.14	2296.39
571.49	2295.16
571.84	2294.81
572.20	2293.80
572.55	2292.71
572.90	2291.18
573.26	2289.87
573.61	2287.94
573.96	2286.43
574.31	2283.53
574.67	2280.61
575.02	2277.01
575.37	2273.33
575.72	2269.62
576.08	2266.36
576.43	2263.02
576.78	2259.59
577.13	2256.49
577.49	2253.42
577.84	2249.88
578.19	2246.19
578.54	2242.67
578.90	2238.55
579.25	2233.04
579.60	2228.10
579.95	2223.01
580.30	2218.00
580.66	2212.82
581.01	2208.01
581.36	2203.08
581.71	2198.92
582.06	2194.46
582.42	2190.09
582.77	2185.19
583.12	2180.63
583.47	2175.86
583.82	2170.97
584.17	2165.64
584.53	2160.16
584.88	2154.66
585.23	2149.04
585.58	2143.54
585.93	2138.17
586.28	2133.23
586.63	2128.27
586.98	2123.33
587.34	2118.76
587.69	2113.87
588.04	2108.60
588.39	2103.12
588.74	2096.74
589.09	2090.60
589.44	2083.93
589.79	2077.73
590.14	2071.99
590.49	2065.35
590.84	2059.11
591.19	2053.12
591.54	2046.56
591.89	2039.19
592.25	2032.40
592.60	2025.33
592.95	2017.91
593.30	2010.45
593.65	2002.93
594.00	1995.90
594.35	1988.56
594.70	1980.59
595.05	1973.61
595.40	1966.43
595.75	1958.81
596.10	1952.64
596.45	1945.98
596.80	1939.78
597.15	1933.32
597.50	1926.29
597.85	1920.04
598.19	1913.34
598.54	1906.25
598.89	1899.85
599.24	1894.08
599.59	1887.45
599.94	1881.17
600.29	1874.84
600.64	1868.46
600.99	1861.04
601.34	1854.20
601.69	1847.31
602.04	1840.52
602.39	1833.11
602.74	1826.32
603.08	1819.63
603.43	1812.85
603.78	1805.53
604.13	1798.44
604.48	1791.26
604.83	1784.35
605.18	1777.31
605.53	1769.34
605.87	1761.37
606.22	1754.17
606.57	1746.22
606.92	1738.92
607.27	1731.73
607.62	1724.83
607.96	1717.51
608.31	1711.11
608.66	1703.56
609.01	1695.99
609.36	1688.42
609.70	1680.31
610.05	1672.26
610.40	1664.55
610.75	1656.24
611.10	1648.64
611.44	1640.19
611.79	1632.20
612.14	1623.63
612.49	1614.45
612.83	1606.04
613.18	1597.87
613.53	1589.75
613.88	1581.18
614.22	1572.89
614.57	1564.37
614.92	1556.41
615.27	1548.91
615.61	1540.53
615.96	1532.50
616.31	1524.96
616.65	1517.46
617.00	1510.07
617.35	1502.43
617.70	1494.21
618.04	1485.73
618.39	1477.49
618.74	1469.84
619.08	1461.55
619.43	1453.84
619.78	1447.09
620.12	1440.00
620.47	1432.44
620.82	1424.24
621.16	1416.81
621.51	1409.17
621.85	1401.49
622.20	1392.86
622.55	1384.44
622.89	1376.57
623.24	1368.86
623.59	1361.41
623.93	1354.01
624.28	1346.75
624.62	1339.21
624.97	1331.95
625.32	1325.20
625.66	1318.24
626.01	1311.18
626.35	1303.74
626.70	1296.01
627.04	1288.17
627.39	1280.34
627.73	1272.99
628.08	1266.03
628.43	1258.77
628.77	1251.29
629.12	1243.76
629.46	1236.56
629.81	1229.12
630.15	1221.84
630.50	1214.49
630.84	1206.19
631.19	1198.21
631.53	1190.65
631.88	1183.07
632.22	1175.47
632.57	1168.15
632.91	1160.43
633.26	1152.88
633.60	1145.41
633.95	1138.45
634.29	1131.44
634.64	1124.72
634.98	1117.37
635.32	1110.25
635.67	1103.75
636.01	1097.23
636.36	1090.33
636.70	1083.84
637.05	1077.21
637.39	1070.74
637.73	1064.23
638.08	1058.37
638.42	1052.39
638.77	1045.88
639.11	1039.36
639.45	1032.93
639.80	1026.27
640.14	1019.98
640.49	1013.49
640.83	1007.15
641.17	1000.84
641.52	994.45
641.86	987.99
642.20	982.11
642.55	975.71
642.89	969.11
643.23	962.56
643.58	956.86
643.92	950.66
644.26	944.63
644.61	938.65
644.95	932.68
645.29	926.12
645.64	919.33
645.98	913.10
646.32	907.26
646.66	901.26
647.01	895.45
647.35	889.63
647.69	883.73
648.04	878.23
648.38	872.34
648.72	866.40
649.06	860.41
649.41	854.65
649.75	848.74
650.09	842.82
650.43	837.02
650.78	830.89
651.12	824.98
651.46	819.32
651.80	813.53
652.14	808.15
652.49	802.80
652.83	797.61
653.17	791.76
653.51	786.02
653.85	780.64
654.20	774.95
654.54	768.99
654.88	763.24
655.22	757.32
655.56	751.71
655.90	746.23
656.25	741.00
656.59	735.57
656.93	730.49
657.27	725.38
657.61	719.97
657.95	714.88
658.29	709.79
658.64	704.46
658.98	699.14
659.32	693.65
659.66	688.50
660.00	683.22
660.34	678.41
660.68	673.48
661.02	668.39
661.36	663.66
661.70	659.13
662.05	654.81
662.39	650.48
662.73	646.05
663.07	641.68
663.41	637.16
663.75	632.60
664.09	628.00
664.43	623.55
664.77	619.36
665.11	615.04
665.45	610.86
665.79	606.77
666.13	602.63
666.47	598.53
666.81	594.30
667.15	590.18
667.49	586.25
667.83	582.41
668.17	578.45
668.51	574.44
668.85	570.44
669.19	566.62
669.53	562.80
669.87	558.92
670.21	555.22
670.55	551.56
670.89	548.18
671.23	544.74
671.57	541.19
671.91	537.68
672.25	534.20
672.58	530.65
672.92	527.25
673.26	524.07
673.60	520.87
673.94	517.73
674.28	514.84
674.62	511.82
674.96	508.70
675.30	505.84
675.64	502.87
675.97	500.07
676.31	497.13
676.65	494.15
676.99	491.41
677.33	488.53
677.67	485.69
678.01	482.63
678.34	479.62
678.68	476.69
679.02	473.88
679.36	471.09
679.70	468.38
680.04	465.58
680.37	462.69
680.71	459.85
681.05	457.23
681.39	454.51
681.73	451.85
682.06	449.29
682.40	446.67
682.74	444.14
683.08	441.56
683.42	438.99
683.75	436.49
684.09	433.96
684.43	431.50
684.77	429.01
685.10	426.68
685.44	424.43
685.78	422.18
686.12	419.87
686.45	417.56
686.79	415.30
687.13	413.16
687.46	411.01
687.80	408.91
688.14	406.73
688.48	404.69
688.81	402.46
689.15	400.33
689.49	398.23
689.82	396.18
690.16	394.11
690.50	392.14
690.83	390.27
691.17	388.22
691.51	386.34
691.84	384.55
692.18	382.64
692.52	380.64
692.85	378.67
693.19	376.86
693.52	375.06
693.86	373.23
694.20	371.43
694.53	369.67
694.87	367.85
695.21	366.08
695.54	364.24
695.88	362.53
696.21	360.78
696.55	359.11
696.88	357.39
697.22	355.76
697.56	354.10
697.89	352.43
698.23	350.85
698.56	349.21
698.90	347.62
699.23	345.92
699.57	344.41
699.90	342.90
700.24	341.35
700.58	339.85
700.91	338.41
701.25	336.94
701.58	335.57
701.92	334.20
702.25	332.83
702.59	331.47
702.92	330.12
703.26	328.86
703.59	327.53
703.93	326.36
704.26	325.12
704.60	323.83
704.93	322.58
705.26	321.33
705.60	320.17
705.93	318.99
706.27	317.99
706.60	316.93
706.94	315.81
707.27	314.68
707.61	313.60
707.94	312.51
708.27	311.45
708.61	310.31
708.94	309.28
709.28	308.27
709.61	307.31
709.94	306.39
710.28	305.34
710.61	304.36
710.95	303.28
711.28	302.34
711.61	301.39
711.95	300.42
712.28	299.43
712.61	298.39
712.95	297.44
713.28	296.50
713.61	295.59
713.95	294.71
714.28	293.87
714.61	293.00
714.95	292.14
715.28	291.26
715.61	290.35
715.95	289.48
716.28	288.60
716.61	287.72
716.95	286.85
717.28	286.08
717.61	285.32
717.94	284.58
718.28	283.76
718.61	283.03
718.94	282.35
719.27	281.67
719.61	281.03
719.94	280.36
720.27	279.66
720.60	278.96
720.94	278.35
721.27	277.69
721.60	277.07
721.93	276.44
722.27	275.88
722.60	275.33
722.93	274.76
723.26	274.26
723.59	273.67
723.93	273.10
724.26	272.55
724.59	271.99
724.92	271.45
725.25	270.97
725.59	270.44
725.92	269.90
726.25	269.43
726.58	268.95
726.91	268.45
727.24	267.96
727.57	267.51
727.91	266.97
728.24	266.54
728.57	266.06
728.90	265.62
729.23	265.13
729.56	264.72
729.89	264.29
730.22	263.76
730.55	263.30
730.89	262.90
731.22	262.48
731.55	262.08
731.88	261.69
732.21	261.25
732.54	260.85
732.87	260.45
733.20	260.07
733.53	259.67
733.86	259.28
734.19	258.91
734.52	258.53
734.85	258.27
735.18	257.84
735.51	257.51
735.84	257.16
736.17	256.82
736.50	256.44
736.83	256.17
737.16	255.89
737.49	255.60
737.82	255.26
738.15	254.96
738.48	254.61
738.81	254.26
739.14	253.95
739.47	253.67
739.80	253.34
740.13	253.04
740.46	252.73
740.79	252.46
741.12	252.16
741.45	251.88
741.78	251.50
742.11	251.27
742.44	250.94
742.77	250.65
743.10	250.34
743.43	250.00
743.75	249.62
744.08	249.49
744.41	249.21
744.74	248.94
745.07	248.63
745.40	248.40
745.73	248.17
746.06	247.89
746.39	247.61
746.71	247.37
747.04	247.10
747.37	246.84
747.70	246.59
748.03	246.29
748.36	246.06
748.68	245.82
749.01	245.54
749.34	245.28
749.67	245.04
750.00	244.86
750.33	244.73
750.65	244.51
750.98	244.11
751.31	243.86
751.64	243.65
751.97	243.50
752.29	243.20
752.62	242.92
752.95	242.70
753.28	242.49
753.60	242.25
753.93	242.03
754.26	241.84
754.59	241.58
754.91	241.34
755.24	241.10
755.57	240.87
755.90	240.65
756.22	240.46
756.55	240.24
756.88	239.98
757.20	239.72
757.53	239.54
757.86	239.35
758.19	239.18
758.51	238.98
758.84	238.73
759.17	238.56
759.49	238.39
759.82	238.28
760.15	238.09
760.47	237.94
760.80	237.76
761.13	237.61
761.45	237.46
761.78	237.37
762.11	237.24
762.43	237.10
762.76	236.97
763.08	236.84
763.41	236.77
763.74	236.64
764.06	236.49
764.39	236.32
764.71	236.22
765.04	236.10
765.37	235.99
765.69	235.89
766.02	235.76
766.34	235.66
766.67	235.46
767.00	235.37
767.32	235.27
767.65	235.22
767.97	235.11
768.30	235.00
768.62	234.85
768.95	234.73
769.27	234.64
769.60	234.58
769.92	234.46
770.25	234.32
770.57	234.21
770.90	234.13
771.22	234.07
771.55	233.95
771.87	233.86
772.20	233.74
772.52	233.74
772.85	233.78
773.17	233.69
773.50	233.61
773.82	233.54
774.15	233.46
774.47	233.32
774.80	233.24
775.12	233.18
775.45	233.10
775.77	233.02
776.09	232.94
776.42	232.87
776.74	232.81
777.07	232.70
777.39	232.64
777.72	232.59
778.04	232.53
778.36	232.50
778.69	232.45
779.01	232.42
779.33	232.27
779.66	232.13
779.98	232.07
780.31	232.04
780.63	231.99
780.95	231.96
781.28	231.89
781.60	231.82
781.92	231.74
782.25	231.73
782.57	231.68
782.89	231.62
783.22	231.56
783.54	231.51
783.86	231.52
784.19	231.44
784.51	231.41
784.83	231.33
785.16	231.27
785.48	231.23
785.80	231.17
786.12	231.12
786.45	231.06
786.77	231.03
787.09	230.99
