SpectraSuite Data File
++++++++++++++++++++++++++++++++++++
Date: Fri Feb 01 14:51:05 EST 2013
User: group
Dark Spectrum Present: No
Reference Spectrum Present: No
Number of Sampled Component Spectra: 1
Spectrometers: USB2E7196
Integration Time (usec): 35000 (USB2E7196)
Spectra Averaged: 100 (USB2E7196)
Boxcar Smoothing: 10 (USB2E7196)
Correct for Electrical Dark: No (USB2E7196)
Strobe/Lamp Enabled: No (USB2E7196)
Correct for Detector Non-linearity: No (USB2E7196)
Correct for Stray Light: No (USB2E7196)
Number of Pixels in Processed Spectrum: 2048
>>>>>Begin Processed Spectral Data<<<<<
339.09	0.00
339.48	215.17
339.86	216.91
340.24	218.55
340.63	219.82
341.01	222.52
341.39	222.66
341.78	223.13
342.16	225.16
342.54	225.59
342.93	213.92
343.31	224.71
343.69	225.27
344.07	225.73
344.46	226.16
344.84	226.53
345.22	226.78
345.60	227.01
345.99	227.24
346.37	227.36
346.75	227.47
347.13	227.52
347.52	227.57
347.90	227.64
348.28	227.65
348.66	227.70
349.05	227.68
349.43	227.71
349.81	227.79
350.19	227.82
350.57	227.84
350.96	227.92
351.34	228.05
351.72	228.13
352.10	228.23
352.48	228.30
352.87	228.35
353.25	228.41
353.63	228.50
354.01	228.55
354.39	228.64
354.77	228.71
355.15	228.83
355.54	228.91
355.92	228.94
356.30	229.01
356.68	229.14
357.06	229.24
357.44	229.29
357.82	229.33
358.20	229.45
358.58	229.53
358.97	229.60
359.35	229.68
359.73	229.76
360.11	229.84
360.49	229.89
360.87	229.95
361.25	229.99
361.63	230.05
362.01	230.11
362.39	230.12
362.77	230.15
363.15	230.13
363.53	230.11
363.91	230.13
364.29	230.15
364.67	230.07
365.05	230.06
365.43	230.09
365.81	230.15
366.19	230.17
366.57	230.17
366.95	230.15
367.33	230.09
367.71	230.05
368.09	230.03
368.47	230.03
368.85	230.00
369.23	230.00
369.61	229.93
369.99	229.93
370.37	229.94
370.75	229.96
371.13	229.89
371.51	229.86
371.89	229.82
372.27	229.74
372.65	229.66
373.03	229.59
373.41	229.50
373.78	229.38
374.16	229.26
374.54	229.18
374.92	229.11
375.30	229.05
375.68	228.94
376.06	228.86
376.44	228.73
376.82	228.67
377.19	228.56
377.57	228.47
377.95	228.35
378.33	228.25
378.71	228.09
379.09	228.08
379.47	227.98
379.84	227.88
380.22	227.78
380.60	227.72
380.98	227.65
381.36	227.57
381.73	227.49
382.11	227.43
382.49	227.38
382.87	227.28
383.25	227.22
383.62	227.27
384.00	227.21
384.38	227.17
384.76	227.12
385.13	227.13
385.51	227.07
385.89	226.99
386.27	226.92
386.64	226.90
387.02	226.82
387.40	226.77
387.78	226.73
388.15	226.74
388.53	226.68
388.91	226.68
389.29	226.65
389.66	226.62
390.04	226.58
390.42	226.55
390.79	226.57
391.17	226.57
391.55	226.47
391.92	226.45
392.30	226.47
392.68	226.46
393.05	226.45
393.43	226.46
393.81	226.47
394.18	226.49
394.56	226.52
394.94	226.58
395.31	226.61
395.69	226.68
396.06	226.72
396.44	226.78
396.82	226.83
397.19	226.94
397.57	227.00
397.95	227.10
398.32	227.17
398.70	227.24
399.07	227.36
399.45	227.44
399.82	227.54
400.20	227.61
400.58	227.69
400.95	227.76
401.33	227.90
401.70	228.09
402.08	228.20
402.45	228.30
402.83	228.42
403.20	228.56
403.58	228.69
403.95	228.84
404.33	228.99
404.71	229.14
405.08	229.34
405.46	229.48
405.83	229.65
406.21	229.81
406.58	229.97
406.96	230.13
407.33	230.31
407.70	230.52
408.08	230.80
408.45	231.04
408.83	231.28
409.20	231.46
409.58	231.66
409.95	231.94
410.33	232.24
410.70	232.50
411.08	232.80
411.45	233.10
411.82	233.41
412.20	233.79
412.57	234.19
412.95	234.49
413.32	234.89
413.69	235.29
414.07	235.73
414.44	236.21
414.82	236.69
415.19	237.24
415.56	237.76
415.94	238.32
416.31	238.97
416.68	239.60
417.06	240.36
417.43	241.03
417.81	241.77
418.18	242.55
418.55	243.43
418.93	244.31
419.30	245.19
419.67	246.10
420.04	247.06
420.42	248.06
420.79	249.24
421.16	250.37
421.54	251.54
421.91	252.74
422.28	253.96
422.66	255.27
423.03	256.56
423.40	257.87
423.77	259.25
424.15	260.65
424.52	262.12
424.89	263.69
425.26	265.19
425.64	266.66
426.01	268.20
426.38	269.78
426.75	271.41
427.13	273.14
427.50	274.96
427.87	276.80
428.24	278.62
428.61	280.33
428.99	282.26
429.36	284.40
429.73	286.47
430.10	288.50
430.47	290.55
430.85	292.66
431.22	294.88
431.59	297.26
431.96	299.49
432.33	301.97
432.70	304.37
433.08	307.18
433.45	309.76
433.82	312.37
434.19	315.28
434.56	318.14
434.93	320.78
435.30	323.36
435.68	326.20
436.05	328.98
436.42	331.78
436.79	334.33
437.16	337.00
437.53	339.83
437.90	342.64
438.27	345.41
438.64	348.21
439.01	350.75
439.38	352.96
439.75	355.10
440.13	357.57
440.50	359.91
440.87	361.76
441.24	363.75
441.61	365.92
441.98	367.41
442.35	369.17
442.72	371.05
443.09	372.89
443.46	373.90
443.83	374.56
444.20	375.08
444.57	375.93
444.94	376.23
445.31	376.52
445.68	376.90
446.05	376.94
446.42	376.60
446.79	376.23
447.16	375.78
447.53	375.52
447.90	374.37
448.27	373.18
448.64	371.59
449.01	370.45
449.37	368.50
449.74	366.59
450.11	364.37
450.48	361.89
450.85	359.33
451.22	357.22
451.59	355.23
451.96	353.29
452.33	350.66
452.70	348.29
453.07	345.51
453.43	342.60
453.80	339.86
454.17	337.15
454.54	334.64
454.91	331.97
455.28	329.27
455.65	326.82
456.02	324.36
456.38	322.27
456.75	319.63
457.12	317.34
457.49	315.16
457.86	312.98
458.23	311.17
458.59	309.16
458.96	307.11
459.33	305.27
459.70	303.41
460.07	301.90
460.43	300.21
460.80	298.56
461.17	297.14
461.54	295.65
461.91	294.27
462.27	292.83
462.64	291.57
463.01	290.22
463.38	288.88
463.74	287.56
464.11	286.37
464.48	285.34
464.85	284.20
465.21	283.30
465.58	282.38
465.95	281.23
466.32	280.29
466.68	279.34
467.05	278.37
467.42	277.49
467.78	276.56
468.15	275.66
468.52	275.04
468.88	274.15
469.25	273.36
469.62	272.71
469.98	272.03
470.35	271.40
470.72	270.77
471.08	270.12
471.45	269.55
471.82	268.97
472.18	268.34
472.55	267.94
472.92	267.40
473.28	266.87
473.65	266.38
474.02	265.96
474.38	265.57
474.75	265.22
475.11	264.82
475.48	264.52
475.85	264.27
476.21	263.96
476.58	263.75
476.94	263.58
477.31	263.40
477.67	263.21
478.04	263.07
478.41	262.99
478.77	263.02
479.14	262.93
479.50	262.94
479.87	262.98
480.23	263.03
480.60	263.12
480.96	263.26
481.33	263.47
481.69	263.65
482.06	263.83
482.42	264.04
482.79	264.30
483.15	264.62
483.52	264.98
483.88	265.36
484.25	265.74
484.61	266.15
484.98	266.60
485.34	267.11
485.71	267.68
486.07	268.29
486.44	268.84
486.80	269.56
487.17	270.28
487.53	271.07
487.90	271.91
488.26	272.81
488.62	273.76
488.99	274.74
489.35	275.75
489.72	276.86
490.08	278.04
490.44	279.27
490.81	280.64
491.17	281.98
491.54	283.47
491.90	284.97
492.26	286.58
492.63	288.28
492.99	290.06
493.36	291.93
493.72	293.94
494.08	296.00
494.45	298.22
494.81	300.58
495.17	303.00
495.54	305.51
495.90	308.17
496.26	310.98
496.63	313.93
496.99	317.02
497.35	320.26
497.72	323.69
498.08	327.15
498.44	330.72
498.80	334.57
499.17	338.60
499.53	342.71
499.89	347.05
500.26	351.54
500.62	356.17
500.98	361.11
501.34	366.15
501.71	371.47
502.07	376.88
502.43	382.43
502.79	388.21
503.16	394.28
503.52	400.50
503.88	406.82
504.24	413.38
504.60	420.24
504.97	427.33
505.33	434.54
505.69	442.16
506.05	449.86
506.41	457.74
506.78	465.78
507.14	474.25
507.50	482.97
507.86	491.93
508.22	501.07
508.59	510.23
508.95	519.77
509.31	529.56
509.67	539.59
510.03	549.84
510.39	560.40
510.75	571.20
511.12	582.09
511.48	593.34
511.84	604.75
512.20	616.21
512.56	628.12
512.92	640.34
513.28	652.66
513.64	665.15
514.00	677.85
514.37	690.76
514.73	703.78
515.09	716.81
515.45	730.06
515.81	743.63
516.17	757.57
516.53	771.64
516.89	785.77
517.25	800.01
517.61	814.49
517.97	828.94
518.33	843.26
518.69	858.02
519.05	873.02
519.41	888.21
519.77	903.79
520.13	919.30
520.49	934.64
520.85	950.09
521.21	965.80
521.57	982.10
521.93	997.95
522.29	1014.44
522.65	1030.63
523.01	1046.93
523.37	1063.08
523.73	1079.27
524.09	1095.40
524.45	1111.74
524.81	1128.39
525.17	1145.28
525.53	1162.26
525.89	1179.18
526.25	1196.16
526.61	1212.60
526.97	1229.37
527.33	1245.84
527.68	1262.37
528.04	1278.98
528.40	1295.61
528.76	1312.79
529.12	1329.43
529.48	1346.37
529.84	1362.41
530.20	1379.15
530.56	1396.22
530.91	1413.66
531.27	1430.56
531.63	1447.12
531.99	1463.82
532.35	1479.87
532.71	1495.67
533.07	1511.96
533.42	1527.98
533.78	1543.94
534.14	1560.34
534.50	1575.75
534.86	1591.73
535.21	1607.09
535.57	1623.03
535.93	1638.58
536.29	1653.36
536.65	1668.52
537.00	1683.43
537.36	1698.71
537.72	1713.30
538.08	1727.76
538.44	1741.53
538.79	1755.48
539.15	1769.41
539.51	1783.30
539.87	1797.81
540.22	1811.64
540.58	1825.48
540.94	1839.00
541.29	1852.08
541.65	1864.83
542.01	1878.15
542.37	1890.57
542.72	1903.08
543.08	1914.91
543.44	1927.33
543.79	1938.65
544.15	1949.66
544.51	1961.16
544.87	1972.22
545.22	1983.10
545.58	1993.38
545.94	2003.32
546.29	2013.22
546.65	2022.85
547.01	2031.99
547.36	2040.69
547.72	2049.16
548.07	2057.08
548.43	2065.13
548.79	2073.01
549.14	2080.50
549.50	2087.81
549.86	2095.52
550.21	2102.63
550.57	2109.70
550.92	2116.36
551.28	2123.41
551.64	2130.32
551.99	2136.77
552.35	2142.91
552.70	2148.85
553.06	2154.71
553.41	2160.82
553.77	2166.80
554.13	2172.86
554.48	2178.78
554.84	2183.95
555.19	2189.22
555.55	2194.18
555.90	2198.66
556.26	2203.51
556.61	2208.09
556.97	2212.11
557.32	2216.01
557.68	2220.06
558.03	2224.40
558.39	2227.97
558.74	2232.50
559.10	2236.16
559.45	2239.72
559.81	2243.80
560.16	2247.51
560.52	2250.48
560.87	2253.92
561.23	2256.38
561.58	2259.16
561.94	2261.69
562.29	2264.09
562.64	2266.59
563.00	2269.03
563.35	2272.30
563.71	2275.31
564.06	2278.36
564.42	2281.20
564.77	2283.50
565.12	2285.83
565.48	2287.36
565.83	2288.94
566.19	2289.95
566.54	2290.88
566.89	2291.85
567.25	2292.28
567.60	2293.60
567.96	2295.21
568.31	2295.73
568.66	2296.62
569.02	2296.92
569.37	2297.01
569.72	2297.59
570.08	2297.44
570.43	2297.03
570.78	2295.92
571.14	2294.10
571.49	2292.64
571.84	2292.07
572.20	2290.69
572.55	2289.25
572.90	2287.49
573.26	2285.91
573.61	2284.10
573.96	2281.95
574.31	2278.79
574.67	2275.61
575.02	2271.60
575.37	2267.90
575.72	2263.79
576.08	2260.28
576.43	2256.87
576.78	2252.88
577.13	2249.38
577.49	2246.25
577.84	2242.72
578.19	2239.13
578.54	2235.21
578.90	2230.62
579.25	2224.94
579.60	2219.87
579.95	2214.65
580.30	2209.50
580.66	2204.21
581.01	2198.96
581.36	2193.95
581.71	2189.42
582.06	2184.87
582.42	2180.32
582.77	2174.94
583.12	2170.32
583.47	2165.38
583.82	2160.11
584.17	2154.90
584.53	2149.34
584.88	2143.30
585.23	2137.38
585.58	2131.64
585.93	2126.03
586.28	2121.21
586.63	2115.86
586.98	2110.59
587.34	2105.79
587.69	2100.74
588.04	2095.24
588.39	2089.49
588.74	2082.98
589.09	2076.82
589.44	2069.64
589.79	2063.35
590.14	2057.55
590.49	2050.87
590.84	2044.28
591.19	2038.08
591.54	2031.47
591.89	2023.90
592.25	2017.10
592.60	2009.80
592.95	2001.97
593.30	1994.60
593.65	1986.81
594.00	1979.71
594.35	1972.31
594.70	1964.20
595.05	1956.78
595.40	1949.54
595.75	1941.96
596.10	1935.58
596.45	1928.63
596.80	1922.39
597.15	1915.83
597.50	1908.72
597.85	1902.28
598.19	1895.65
598.54	1888.53
598.89	1881.78
599.24	1875.78
599.59	1868.98
599.94	1862.82
600.29	1856.59
600.64	1849.93
600.99	1842.49
601.34	1835.66
601.69	1828.71
602.04	1821.73
602.39	1814.48
602.74	1807.58
603.08	1800.80
603.43	1794.01
603.78	1786.87
604.13	1779.76
604.48	1772.45
604.83	1765.63
605.18	1758.57
605.53	1750.52
605.87	1742.52
606.22	1735.30
606.57	1727.54
606.92	1720.36
607.27	1713.15
607.62	1706.25
607.96	1699.05
608.31	1692.59
608.66	1684.98
609.01	1677.46
609.36	1669.99
609.70	1662.07
610.05	1654.13
610.40	1646.53
610.75	1638.28
611.10	1630.57
611.44	1622.22
611.79	1614.23
612.14	1605.58
612.49	1596.52
612.83	1588.33
613.18	1580.42
613.53	1572.35
613.88	1563.76
614.22	1555.56
614.57	1547.06
614.92	1539.14
615.27	1531.76
615.61	1523.41
615.96	1515.54
616.31	1507.98
616.65	1500.68
617.00	1493.19
617.35	1485.53
617.70	1477.31
618.04	1468.85
618.39	1460.78
618.74	1453.38
619.08	1445.20
619.43	1437.79
619.78	1431.04
620.12	1423.92
620.47	1416.28
620.82	1408.32
621.16	1401.11
621.51	1393.51
621.85	1386.05
622.20	1377.69
622.55	1369.40
622.89	1361.69
623.24	1354.15
623.59	1346.97
623.93	1339.49
624.28	1332.33
624.62	1324.85
624.97	1317.80
625.32	1311.19
625.66	1304.23
626.01	1297.06
626.35	1289.70
626.70	1282.01
627.04	1274.23
627.39	1266.58
627.73	1259.29
628.08	1252.42
628.43	1245.15
628.77	1237.91
629.12	1230.34
629.46	1223.22
629.81	1215.89
630.15	1208.83
630.50	1201.45
630.84	1193.25
631.19	1185.51
631.53	1178.02
631.88	1170.62
632.22	1163.02
632.57	1155.90
632.91	1148.49
633.26	1141.16
633.60	1133.91
633.95	1126.98
634.29	1120.06
634.64	1113.48
634.98	1106.32
635.32	1099.34
635.67	1092.97
636.01	1086.41
636.36	1079.63
636.70	1073.25
637.05	1066.77
637.39	1060.32
637.73	1054.04
638.08	1048.34
638.42	1042.49
638.77	1036.25
639.11	1029.70
639.45	1023.48
639.80	1016.78
640.14	1010.45
640.49	1004.04
640.83	997.79
641.17	991.66
641.52	985.40
641.86	979.11
642.20	973.36
642.55	967.11
642.89	960.68
643.23	954.24
643.58	948.70
643.92	942.54
644.26	936.55
644.61	930.59
644.95	924.58
645.29	918.00
645.64	911.27
645.98	905.00
646.32	899.33
646.66	893.29
647.01	887.65
647.35	882.00
647.69	876.18
648.04	870.75
648.38	865.01
648.72	859.06
649.06	853.00
649.41	847.13
649.75	841.09
650.09	835.14
650.43	829.43
650.78	823.32
651.12	817.45
651.46	811.77
651.80	806.09
652.14	800.74
652.49	795.48
652.83	790.36
653.17	784.72
653.51	779.02
653.85	773.78
654.20	768.12
654.54	762.15
654.88	756.54
655.22	750.69
655.56	745.00
655.90	739.68
656.25	734.45
656.59	729.12
656.93	724.17
657.27	719.09
657.61	713.71
657.95	708.70
658.29	703.63
658.64	698.43
658.98	693.20
659.32	687.84
659.66	682.67
660.00	677.35
660.34	672.48
660.68	667.66
661.02	662.64
661.36	658.08
661.70	653.69
662.05	649.40
662.39	645.10
662.73	640.78
663.07	636.47
663.41	632.12
663.75	627.70
664.09	623.19
664.43	618.87
664.77	614.80
665.11	610.54
665.45	606.45
665.79	602.44
666.13	598.39
666.47	594.29
666.81	590.16
667.15	586.18
667.49	582.36
667.83	578.57
668.17	574.70
668.51	570.66
668.85	566.69
669.19	562.80
669.53	558.98
669.87	555.14
670.21	551.43
670.55	547.83
670.89	544.53
671.23	541.17
671.57	537.69
671.91	534.21
672.25	530.82
672.58	527.37
672.92	524.04
673.26	520.91
673.60	517.87
673.94	514.83
674.28	511.90
674.62	509.01
674.96	505.97
675.30	503.11
675.64	500.21
675.97	497.49
676.31	494.72
676.65	491.91
676.99	489.18
677.33	486.39
677.67	483.61
678.01	480.59
678.34	477.63
678.68	474.83
679.02	472.05
679.36	469.34
679.70	466.67
680.04	463.90
680.37	461.07
680.71	458.28
681.05	455.75
681.39	453.15
681.73	450.48
682.06	447.99
682.40	445.48
682.74	442.96
683.08	440.42
683.42	437.83
683.75	435.37
684.09	432.91
684.43	430.49
684.77	428.08
685.10	425.76
685.44	423.52
685.78	421.24
686.12	419.00
686.45	416.72
686.79	414.50
687.13	412.40
687.46	410.25
687.80	408.12
688.14	405.90
688.48	403.89
688.81	401.66
689.15	399.54
689.49	397.38
689.82	395.38
690.16	393.29
690.50	391.41
690.83	389.50
691.17	387.56
691.51	385.70
691.84	383.85
692.18	381.92
692.52	379.95
692.85	378.08
693.19	376.19
693.52	374.39
693.86	372.62
694.20	370.84
694.53	369.08
694.87	367.23
695.21	365.46
695.54	363.57
695.88	361.86
696.21	360.14
696.55	358.51
696.88	356.82
697.22	355.20
697.56	353.59
697.89	351.94
698.23	350.32
698.56	348.73
698.90	347.15
699.23	345.51
699.57	343.96
699.90	342.43
700.24	340.92
700.58	339.39
700.91	337.88
701.25	336.45
701.58	335.08
701.92	333.77
702.25	332.40
702.59	331.11
702.92	329.79
703.26	328.52
703.59	327.23
703.93	326.02
704.26	324.80
704.60	323.50
704.93	322.25
705.26	321.01
705.60	319.85
705.93	318.73
706.27	317.76
706.60	316.72
706.94	315.65
707.27	314.53
707.61	313.48
707.94	312.52
708.27	311.42
708.61	310.38
708.94	309.39
709.28	308.42
709.61	307.44
709.94	306.58
710.28	305.59
710.61	304.64
710.95	303.60
711.28	302.76
711.61	301.84
711.95	300.95
712.28	300.04
712.61	299.05
712.95	298.12
713.28	297.25
713.61	296.37
713.95	295.52
714.28	294.74
714.61	293.92
714.95	293.05
715.28	292.25
715.61	291.34
715.95	290.53
716.28	289.72
716.61	288.93
716.95	288.08
717.28	287.35
717.61	286.62
717.94	285.92
718.28	285.09
718.61	284.40
718.94	283.73
719.27	283.09
719.61	282.48
719.94	281.81
720.27	281.09
720.60	280.46
720.94	279.83
721.27	279.22
721.60	278.65
721.93	278.05
722.27	277.49
722.60	276.99
722.93	276.38
723.26	275.86
723.59	275.32
723.93	274.80
724.26	274.26
724.59	273.67
724.92	273.13
725.25	272.67
725.59	272.13
725.92	271.65
726.25	271.16
726.58	270.65
726.91	270.16
727.24	269.69
727.57	269.22
727.91	268.71
728.24	268.27
728.57	267.76
728.90	267.31
729.23	266.78
729.56	266.35
729.89	265.90
730.22	265.42
730.55	264.91
730.89	264.47
731.22	264.01
731.55	263.61
731.88	263.22
732.21	262.76
732.54	262.31
732.87	261.87
733.20	261.45
733.53	261.05
733.86	260.67
734.19	260.27
734.52	259.91
734.85	259.61
735.18	259.15
735.51	258.81
735.84	258.46
736.17	258.13
736.50	257.71
736.83	257.48
737.16	257.14
737.49	256.83
737.82	256.49
738.15	256.16
738.48	255.81
738.81	255.42
739.14	255.11
739.47	254.78
739.80	254.47
740.13	254.14
740.46	253.83
740.79	253.53
741.12	253.24
741.45	252.91
741.78	252.53
742.11	252.29
742.44	251.95
742.77	251.65
743.10	251.35
743.43	251.05
743.75	250.66
744.08	250.53
744.41	250.26
744.74	249.97
745.07	249.68
745.40	249.45
745.73	249.26
746.06	248.98
746.39	248.72
746.71	248.47
747.04	248.21
747.37	247.97
747.70	247.72
748.03	247.47
748.36	247.28
748.68	247.06
749.01	246.81
749.34	246.59
749.67	246.35
750.00	246.15
750.33	246.02
750.65	245.79
750.98	245.42
751.31	245.23
751.64	245.03
751.97	244.92
752.29	244.72
752.62	244.47
752.95	244.28
753.28	244.11
753.60	243.90
753.93	243.76
754.26	243.55
754.59	243.34
754.91	243.12
755.24	242.87
755.57	242.68
755.90	242.47
756.22	242.30
756.55	242.10
756.88	241.91
757.20	241.69
757.53	241.50
757.86	241.35
758.19	241.19
758.51	240.99
758.84	240.77
759.17	240.58
759.49	240.41
759.82	240.27
760.15	240.11
760.47	239.95
760.80	239.76
761.13	239.65
761.45	239.50
761.78	239.36
762.11	239.20
762.43	239.07
762.76	238.96
763.08	238.81
763.41	238.70
763.74	238.58
764.06	238.45
764.39	238.32
764.71	238.19
765.04	238.06
765.37	237.94
765.69	237.80
766.02	237.71
766.34	237.60
766.67	237.48
767.00	237.37
767.32	237.33
767.65	237.31
767.97	237.17
768.30	237.05
768.62	236.91
768.95	236.82
769.27	236.72
769.60	236.64
769.92	236.51
770.25	236.40
770.57	236.26
770.90	236.15
771.22	236.00
771.55	235.91
771.87	235.78
772.20	235.68
772.52	235.63
772.85	235.61
773.17	235.52
773.50	235.40
773.82	235.29
774.15	235.13
774.47	234.89
774.80	234.79
775.12	234.71
775.45	234.68
775.77	234.57
776.09	234.48
776.42	234.36
776.74	234.32
777.07	234.21
777.39	234.12
777.72	234.01
778.04	234.01
778.36	233.90
778.69	233.87
779.01	233.80
779.33	233.69
779.66	233.51
779.98	233.39
780.31	233.34
780.63	233.29
780.95	233.22
781.28	233.18
781.60	233.12
781.92	233.04
782.25	232.97
782.57	232.90
782.89	232.82
783.22	232.76
783.54	232.67
783.86	232.63
784.19	232.61
784.51	232.60
784.83	232.49
785.16	232.43
785.48	232.36
785.80	232.32
786.12	232.25
786.45	232.15
786.77	232.16
787.09	232.11
