SpectraSuite Data File
++++++++++++++++++++++++++++++++++++
Date: Fri Feb 01 18:14:21 EST 2013
User: group
Dark Spectrum Present: No
Reference Spectrum Present: No
Number of Sampled Component Spectra: 1
Spectrometers: USB2E7196
Integration Time (usec): 35000 (USB2E7196)
Spectra Averaged: 100 (USB2E7196)
Boxcar Smoothing: 10 (USB2E7196)
Correct for Electrical Dark: No (USB2E7196)
Strobe/Lamp Enabled: No (USB2E7196)
Correct for Detector Non-linearity: No (USB2E7196)
Correct for Stray Light: No (USB2E7196)
Number of Pixels in Processed Spectrum: 2048
>>>>>Begin Processed Spectral Data<<<<<
339.09	0.00
339.48	213.28
339.86	214.40
340.24	215.86
340.63	218.20
341.01	220.42
341.39	220.25
341.78	221.71
342.16	222.06
342.54	223.25
342.93	211.70
343.31	222.40
343.69	222.94
344.07	223.42
344.46	223.84
344.84	224.18
345.22	224.45
345.60	224.69
345.99	224.87
346.37	225.03
346.75	225.14
347.13	225.18
347.52	225.23
347.90	225.32
348.28	225.34
348.66	225.37
349.05	225.33
349.43	225.36
349.81	225.42
350.19	225.47
350.57	225.53
350.96	225.62
351.34	225.72
351.72	225.78
352.10	225.86
352.48	225.91
352.87	225.97
353.25	225.98
353.63	226.04
354.01	226.07
354.39	226.15
354.77	226.24
355.15	226.39
355.54	226.42
355.92	226.48
356.30	226.51
356.68	226.63
357.06	226.71
357.44	226.77
357.82	226.83
358.20	226.91
358.58	226.98
358.97	227.02
359.35	227.10
359.73	227.21
360.11	227.26
360.49	227.35
360.87	227.37
361.25	227.42
361.63	227.50
362.01	227.61
362.39	227.66
362.77	227.69
363.15	227.72
363.53	227.78
363.91	227.79
364.29	227.84
364.67	227.78
365.05	227.82
365.43	227.83
365.81	227.85
366.19	227.89
366.57	227.95
366.95	227.96
367.33	227.91
367.71	227.92
368.09	227.95
368.47	227.95
368.85	227.96
369.23	227.98
369.61	227.92
369.99	227.93
370.37	227.87
370.75	227.87
371.13	227.81
371.51	227.79
371.89	227.76
372.27	227.74
372.65	227.71
373.03	227.65
373.41	227.64
373.78	227.59
374.16	227.52
374.54	227.43
374.92	227.40
375.30	227.37
375.68	227.28
376.06	227.23
376.44	227.15
376.82	227.10
377.19	227.08
377.57	226.99
377.95	226.90
378.33	226.87
378.71	226.77
379.09	226.70
379.47	226.63
379.84	226.56
380.22	226.50
380.60	226.41
380.98	226.36
381.36	226.28
381.73	226.23
382.11	226.18
382.49	226.12
382.87	226.03
383.25	225.96
383.62	226.01
384.00	225.96
384.38	225.94
384.76	225.91
385.13	225.86
385.51	225.87
385.89	225.81
386.27	225.73
386.64	225.72
387.02	225.66
387.40	225.59
387.78	225.54
388.15	225.52
388.53	225.50
388.91	225.45
389.29	225.43
389.66	225.40
390.04	225.35
390.42	225.33
390.79	225.36
391.17	225.36
391.55	225.24
391.92	225.22
392.30	225.20
392.68	225.18
393.05	225.19
393.43	225.17
393.81	225.15
394.18	225.17
394.56	225.17
394.94	225.23
395.31	225.24
395.69	225.34
396.06	225.37
396.44	225.41
396.82	225.46
397.19	225.55
397.57	225.59
397.95	225.62
398.32	225.65
398.70	225.67
399.07	225.75
399.45	225.80
399.82	225.85
400.20	225.91
400.58	226.00
400.95	226.02
401.33	226.13
401.70	226.31
402.08	226.38
402.45	226.46
402.83	226.58
403.20	226.69
403.58	226.77
403.95	226.90
404.33	227.03
404.71	227.18
405.08	227.39
405.46	227.53
405.83	227.74
406.21	227.91
406.58	228.12
406.96	228.31
407.33	228.55
407.70	228.79
408.08	229.10
408.45	229.35
408.83	229.65
409.20	229.88
409.58	230.10
409.95	230.46
410.33	230.84
410.70	231.21
411.08	231.60
411.45	232.00
411.82	232.41
412.20	232.85
412.57	233.40
412.95	233.81
413.32	234.36
413.69	234.88
414.07	235.47
414.44	236.11
414.82	236.74
415.19	237.44
415.56	238.20
415.94	238.96
416.31	239.83
416.68	240.70
417.06	241.73
417.43	242.68
417.81	243.74
418.18	244.76
418.55	245.89
418.93	247.10
419.30	248.38
419.67	249.66
420.04	251.01
420.42	252.36
420.79	254.00
421.16	255.59
421.54	257.25
421.91	258.96
422.28	260.73
422.66	262.64
423.03	264.48
423.40	266.34
423.77	268.32
424.15	270.32
424.52	272.42
424.89	274.65
425.26	276.84
425.64	278.87
426.01	281.21
426.38	283.58
426.75	285.96
427.13	288.40
427.50	290.99
427.87	293.64
428.24	296.29
428.61	298.72
428.99	301.45
429.36	304.49
429.73	307.38
430.10	310.20
430.47	313.08
430.85	316.10
431.22	319.25
431.59	322.57
431.96	325.71
432.33	329.25
432.70	332.59
433.08	336.57
433.45	340.28
433.82	343.87
434.19	347.91
434.56	351.82
434.93	355.51
435.30	359.15
435.68	363.18
436.05	367.16
436.42	371.14
436.79	374.69
437.16	378.43
437.53	382.43
437.90	386.42
438.27	390.25
438.64	394.22
439.01	397.89
439.38	401.11
439.75	404.21
440.13	407.73
440.50	411.02
440.87	413.63
441.24	416.42
441.61	419.50
441.98	421.62
442.35	424.23
442.72	426.87
443.09	429.44
443.46	430.91
443.83	431.73
444.20	432.42
444.57	433.67
444.94	434.09
445.31	434.55
445.68	435.01
446.05	435.17
446.42	434.64
446.79	434.07
447.16	433.39
447.53	432.94
447.90	431.31
448.27	429.69
448.64	427.44
449.01	425.84
449.37	423.03
449.74	420.32
450.11	417.13
450.48	413.62
450.85	410.08
451.22	407.06
451.59	404.20
451.96	401.46
452.33	397.76
452.70	394.40
453.07	390.43
453.43	386.39
453.80	382.45
454.17	378.68
454.54	375.08
454.91	371.25
455.28	367.45
455.65	363.89
456.02	360.33
456.38	357.31
456.75	353.52
457.12	350.34
457.49	347.23
457.86	344.16
458.23	341.53
458.59	338.60
458.96	335.60
459.33	333.00
459.70	330.36
460.07	328.20
460.43	325.78
460.80	323.47
461.17	321.37
461.54	319.24
461.91	317.17
462.27	315.11
462.64	313.31
463.01	311.38
463.38	309.53
463.74	307.71
464.11	306.04
464.48	304.58
464.85	302.99
465.21	301.72
465.58	300.39
465.95	298.83
466.32	297.56
466.68	296.32
467.05	295.03
467.42	293.74
467.78	292.41
468.15	291.19
468.52	290.22
468.88	289.08
469.25	287.98
469.62	287.14
469.98	286.16
470.35	285.29
470.72	284.45
471.08	283.54
471.45	282.73
471.82	281.94
472.18	281.07
472.55	280.46
472.92	279.71
473.28	279.04
473.65	278.44
474.02	277.77
474.38	277.20
474.75	276.73
475.11	276.21
475.48	275.81
475.85	275.41
476.21	275.06
476.58	274.74
476.94	274.50
477.31	274.18
477.67	273.92
478.04	273.70
478.41	273.53
478.77	273.48
479.14	273.26
479.50	273.16
479.87	273.17
480.23	273.17
480.60	273.16
480.96	273.17
481.33	273.25
481.69	273.45
482.06	273.61
482.42	273.73
482.79	273.92
483.15	274.22
483.52	274.59
483.88	274.92
484.25	275.30
484.61	275.67
484.98	276.09
485.34	276.64
485.71	277.22
486.07	277.83
486.44	278.35
486.80	279.09
487.17	279.85
487.53	280.70
487.90	281.62
488.26	282.59
488.62	283.62
488.99	284.68
489.35	285.72
489.72	286.87
490.08	288.18
490.44	289.54
490.81	290.90
491.17	292.29
491.54	293.85
491.90	295.41
492.26	297.16
492.63	299.01
492.99	300.86
493.36	302.89
493.72	305.08
494.08	307.36
494.45	309.77
494.81	312.31
495.17	314.87
495.54	317.54
495.90	320.42
496.26	323.41
496.63	326.58
496.99	329.90
497.35	333.41
497.72	337.07
498.08	340.79
498.44	344.76
498.80	349.00
499.17	353.36
499.53	357.88
499.89	362.57
500.26	367.39
500.62	372.47
500.98	377.81
501.34	383.23
501.71	388.97
502.07	394.88
502.43	400.93
502.79	407.20
503.16	413.76
503.52	420.50
503.88	427.38
504.24	434.48
504.60	441.87
504.97	449.58
505.33	457.45
505.69	465.83
506.05	474.21
506.41	482.72
506.78	491.52
507.14	500.73
507.50	510.17
507.86	519.94
508.22	529.87
508.59	539.83
508.95	550.14
509.31	560.82
509.67	571.72
510.03	582.89
510.39	594.42
510.75	606.11
511.12	617.97
511.48	630.29
511.84	642.84
512.20	655.41
512.56	668.39
512.92	681.65
513.28	695.11
513.64	708.78
514.00	722.74
514.37	736.90
514.73	751.10
515.09	765.30
515.45	779.90
515.81	794.77
516.17	810.05
516.53	825.69
516.89	841.26
517.25	856.86
517.61	872.79
517.97	888.66
518.33	904.61
518.69	920.97
519.05	937.43
519.41	954.13
519.77	971.31
520.13	988.46
520.49	1005.47
520.85	1022.57
521.21	1039.96
521.57	1057.91
521.93	1075.40
522.29	1093.66
522.65	1111.86
523.01	1129.92
523.37	1147.82
523.73	1165.92
524.09	1183.86
524.45	1202.07
524.81	1220.64
525.17	1239.39
525.53	1258.29
525.89	1277.28
526.25	1296.21
526.61	1314.78
526.97	1333.70
527.33	1352.32
527.68	1370.99
528.04	1389.68
528.40	1408.40
528.76	1427.67
529.12	1446.51
529.48	1465.66
529.84	1483.76
530.20	1502.63
530.56	1521.90
530.91	1541.72
531.27	1560.82
531.63	1579.69
531.99	1598.63
532.35	1617.06
532.71	1635.43
533.07	1654.21
533.42	1672.62
533.78	1691.10
534.14	1709.96
534.50	1727.83
534.86	1746.29
535.21	1764.00
535.57	1782.51
535.93	1800.49
536.29	1817.84
536.65	1835.43
537.00	1852.64
537.36	1870.64
537.72	1887.74
538.08	1904.81
538.44	1921.19
538.79	1937.76
539.15	1954.00
539.51	1970.31
539.87	1987.34
540.22	2003.61
540.58	2019.98
540.94	2035.83
541.29	2051.32
541.65	2066.52
542.01	2082.21
542.37	2097.07
542.72	2112.05
543.08	2126.45
543.44	2141.59
543.79	2155.34
544.15	2168.91
544.51	2183.30
544.87	2196.81
545.22	2210.32
545.58	2223.07
545.94	2235.33
546.29	2247.61
546.65	2260.12
547.01	2271.87
547.36	2282.97
547.72	2293.90
548.07	2304.22
548.43	2314.94
548.79	2325.09
549.14	2335.14
549.50	2344.74
549.86	2354.80
550.21	2364.54
550.57	2374.06
550.92	2382.76
551.28	2392.13
551.64	2401.65
551.99	2410.40
552.35	2418.85
552.70	2427.04
553.06	2435.24
553.41	2443.59
553.77	2451.76
554.13	2459.81
554.48	2468.27
554.84	2475.91
555.19	2483.15
555.55	2490.18
555.90	2496.53
556.26	2503.78
556.61	2510.32
556.97	2516.79
557.32	2522.65
557.68	2528.43
558.03	2534.42
558.39	2539.91
558.74	2546.32
559.10	2551.93
559.45	2557.27
559.81	2563.16
560.16	2568.68
560.52	2573.67
560.87	2578.81
561.23	2583.04
561.58	2587.48
561.94	2591.47
562.29	2595.16
562.64	2599.48
563.00	2603.62
563.35	2608.65
563.71	2613.23
564.06	2617.84
564.42	2621.94
564.77	2626.08
565.12	2629.94
565.48	2633.26
565.83	2636.61
566.19	2639.43
566.54	2641.29
566.89	2643.66
567.25	2645.51
567.60	2648.00
567.96	2650.82
568.31	2652.91
568.66	2655.08
569.02	2656.84
569.37	2658.11
569.72	2660.03
570.08	2661.15
570.43	2661.93
570.78	2662.07
571.14	2661.18
571.49	2660.38
571.84	2660.88
572.20	2660.39
572.55	2659.95
572.90	2658.81
573.26	2657.89
573.61	2656.42
573.96	2655.29
574.31	2652.43
574.67	2649.63
575.02	2646.09
575.37	2642.73
575.72	2638.96
576.08	2635.51
576.43	2632.08
576.78	2628.57
577.13	2625.49
577.49	2622.22
577.84	2618.90
578.19	2614.99
578.54	2611.17
578.90	2606.89
579.25	2600.79
579.60	2595.51
579.95	2590.11
580.30	2584.79
580.66	2579.26
581.01	2573.95
581.36	2568.50
581.71	2564.25
582.06	2559.48
582.42	2554.87
582.77	2549.21
583.12	2544.18
583.47	2539.34
583.82	2534.02
584.17	2528.17
584.53	2521.92
584.88	2515.68
585.23	2509.25
585.58	2503.19
585.93	2497.10
586.28	2491.78
586.63	2486.40
586.98	2480.76
587.34	2475.49
587.69	2469.89
588.04	2464.05
588.39	2457.65
588.74	2450.21
589.09	2443.13
589.44	2435.45
589.79	2428.13
590.14	2421.74
590.49	2414.19
590.84	2406.83
591.19	2399.95
591.54	2392.39
591.89	2384.07
592.25	2376.30
592.60	2367.96
592.95	2359.38
593.30	2350.93
593.65	2342.01
594.00	2333.64
594.35	2325.05
594.70	2315.65
595.05	2307.47
595.40	2298.79
595.75	2290.12
596.10	2283.01
596.45	2275.22
596.80	2268.13
597.15	2260.67
597.50	2252.56
597.85	2244.89
598.19	2237.03
598.54	2228.72
598.89	2220.89
599.24	2214.06
599.59	2206.37
599.94	2199.05
600.29	2191.46
600.64	2183.58
600.99	2174.96
601.34	2166.96
601.69	2158.67
602.04	2150.66
602.39	2141.95
602.74	2133.94
603.08	2125.87
603.43	2117.89
603.78	2109.07
604.13	2100.27
604.48	2091.66
604.83	2083.24
605.18	2075.15
605.53	2065.60
605.87	2055.97
606.22	2047.26
606.57	2037.51
606.92	2028.52
607.27	2020.06
607.62	2011.79
607.96	2003.20
608.31	1995.38
608.66	1986.24
609.01	1977.41
609.36	1968.22
609.70	1958.53
610.05	1948.87
610.40	1939.66
610.75	1929.65
611.10	1920.51
611.44	1910.42
611.79	1900.71
612.14	1890.24
612.49	1879.16
612.83	1869.16
613.18	1859.36
613.53	1849.75
613.88	1839.56
614.22	1829.64
614.57	1819.10
614.92	1809.59
615.27	1800.51
615.61	1790.45
615.96	1780.76
616.31	1771.45
616.65	1762.59
617.00	1753.59
617.35	1744.33
617.70	1734.39
618.04	1724.18
618.39	1714.25
618.74	1705.01
619.08	1695.03
619.43	1685.97
619.78	1677.69
620.12	1669.13
620.47	1660.14
620.82	1650.24
621.16	1641.33
621.51	1632.05
621.85	1622.79
622.20	1612.36
622.55	1602.22
622.89	1592.73
623.24	1583.50
623.59	1574.52
623.93	1565.48
624.28	1556.73
624.62	1547.76
624.97	1539.02
625.32	1530.74
625.66	1522.23
626.01	1513.73
626.35	1504.92
626.70	1495.52
627.04	1486.24
627.39	1476.77
627.73	1467.79
628.08	1459.44
628.43	1450.73
628.77	1442.03
629.12	1432.96
629.46	1424.38
629.81	1415.38
630.15	1406.73
630.50	1397.85
630.84	1388.02
631.19	1378.47
631.53	1369.35
631.88	1360.19
632.22	1350.99
632.57	1342.17
632.91	1333.10
633.26	1324.18
633.60	1315.19
633.95	1306.69
634.29	1298.06
634.64	1290.09
634.98	1281.28
635.32	1272.79
635.67	1264.73
636.01	1256.68
636.36	1248.56
636.70	1240.62
637.05	1232.74
637.39	1224.80
637.73	1216.98
638.08	1209.78
638.42	1202.57
638.77	1194.75
639.11	1186.98
639.45	1179.29
639.80	1171.37
640.14	1163.66
640.49	1155.87
640.83	1148.31
641.17	1140.89
641.52	1133.36
641.86	1125.57
642.20	1118.54
642.55	1110.82
642.89	1103.26
643.23	1095.41
643.58	1088.68
643.92	1081.43
644.26	1074.33
644.61	1067.25
644.95	1060.19
645.29	1052.45
645.64	1044.42
645.98	1036.89
646.32	1029.77
646.66	1022.73
647.01	1015.87
647.35	1009.16
647.69	1002.14
648.04	995.62
648.38	988.83
648.72	981.78
649.06	974.66
649.41	967.67
649.75	960.74
650.09	953.72
650.43	946.87
650.78	939.47
651.12	932.35
651.46	925.48
651.80	918.71
652.14	912.26
652.49	905.99
652.83	899.90
653.17	893.25
653.51	886.55
653.85	880.10
654.20	873.47
654.54	866.38
654.88	859.59
655.22	852.54
655.56	845.67
655.90	839.26
656.25	833.04
656.59	826.65
656.93	820.58
657.27	814.31
657.61	807.93
657.95	801.91
658.29	795.91
658.64	789.71
658.98	783.40
659.32	777.01
659.66	770.80
660.00	764.60
660.34	758.79
660.68	752.96
661.02	747.01
661.36	741.36
661.70	735.99
662.05	730.85
662.39	725.81
662.73	720.60
663.07	715.38
663.41	710.03
663.75	704.78
664.09	699.40
664.43	694.23
664.77	689.40
665.11	684.35
665.45	679.46
665.79	674.67
666.13	669.83
666.47	664.89
666.81	660.01
667.15	655.12
667.49	650.45
667.83	645.89
668.17	641.33
668.51	636.58
668.85	631.84
669.19	627.32
669.53	622.74
669.87	618.18
670.21	613.85
670.55	609.54
670.89	605.48
671.23	601.41
671.57	597.29
671.91	593.15
672.25	589.01
672.58	584.90
672.92	580.87
673.26	577.08
673.60	573.35
673.94	569.70
674.28	566.26
674.62	562.79
674.96	559.13
675.30	555.71
675.64	552.27
675.97	549.02
676.31	545.61
676.65	542.18
676.99	538.91
677.33	535.49
677.67	532.20
678.01	528.59
678.34	525.10
678.68	521.72
679.02	518.36
679.36	515.11
679.70	511.87
680.04	508.59
680.37	505.26
680.71	502.00
681.05	498.91
681.39	495.73
681.73	492.66
682.06	489.71
682.40	486.71
682.74	483.66
683.08	480.68
683.42	477.62
683.75	474.68
684.09	471.71
684.43	468.83
684.77	466.00
685.10	463.30
685.44	460.64
685.78	457.94
686.12	455.27
686.45	452.57
686.79	449.85
687.13	447.30
687.46	444.74
687.80	442.19
688.14	439.54
688.48	437.08
688.81	434.41
689.15	431.86
689.49	429.26
689.82	426.89
690.16	424.34
690.50	422.05
690.83	419.71
691.17	417.34
691.51	415.07
691.84	412.85
692.18	410.58
692.52	408.22
692.85	405.90
693.19	403.68
693.52	401.51
693.86	399.32
694.20	397.19
694.53	395.01
694.87	392.80
695.21	390.68
695.54	388.50
695.88	386.42
696.21	384.37
696.55	382.39
696.88	380.33
697.22	378.42
697.56	376.47
697.89	374.55
698.23	372.69
698.56	370.79
698.90	368.98
699.23	367.04
699.57	365.18
699.90	363.39
700.24	361.55
700.58	359.70
700.91	357.99
701.25	356.27
701.58	354.67
701.92	353.07
702.25	351.48
702.59	349.88
702.92	348.36
703.26	346.86
703.59	345.34
703.93	343.93
704.26	342.48
704.60	340.95
704.93	339.47
705.26	337.96
705.60	336.55
705.93	335.13
706.27	333.86
706.60	332.61
706.94	331.27
707.27	329.97
707.61	328.76
707.94	327.50
708.27	326.22
708.61	324.92
708.94	323.72
709.28	322.56
709.61	321.36
709.94	320.18
710.28	318.93
710.61	317.78
710.95	316.52
711.28	315.41
711.61	314.30
711.95	313.22
712.28	312.10
712.61	310.94
712.95	309.79
713.28	308.72
713.61	307.67
713.95	306.67
714.28	305.64
714.61	304.59
714.95	303.62
715.28	302.58
715.61	301.54
715.95	300.54
716.28	299.48
716.61	298.54
716.95	297.59
717.28	296.68
717.61	295.76
717.94	294.90
718.28	293.93
718.61	293.05
718.94	292.18
719.27	291.40
719.61	290.66
719.94	289.85
720.27	288.97
720.60	288.15
720.94	287.41
721.27	286.68
721.60	285.97
721.93	285.27
722.27	284.60
722.60	283.96
722.93	283.28
723.26	282.66
723.59	281.97
723.93	281.29
724.26	280.63
724.59	279.95
724.92	279.24
725.25	278.61
725.59	277.99
725.92	277.42
726.25	276.80
726.58	276.22
726.91	275.61
727.24	275.09
727.57	274.55
727.91	273.91
728.24	273.33
728.57	272.74
728.90	272.15
729.23	271.57
729.56	271.03
729.89	270.45
730.22	269.85
730.55	269.30
730.89	268.73
731.22	268.22
731.55	267.70
731.88	267.23
732.21	266.73
732.54	266.23
732.87	265.70
733.20	265.21
733.53	264.73
733.86	264.32
734.19	263.87
734.52	263.43
734.85	263.03
735.18	262.56
735.51	262.13
735.84	261.70
736.17	261.30
736.50	260.83
736.83	260.54
737.16	260.19
737.49	259.82
737.82	259.45
738.15	259.05
738.48	258.66
738.81	258.28
739.14	257.95
739.47	257.56
739.80	257.21
740.13	256.85
740.46	256.43
740.79	256.07
741.12	255.71
741.45	255.34
741.78	254.98
742.11	254.66
742.44	254.30
742.77	253.97
743.10	253.62
743.43	253.27
743.75	252.84
744.08	252.61
744.41	252.29
744.74	251.98
745.07	251.66
745.40	251.36
745.73	251.10
746.06	250.75
746.39	250.44
746.71	250.10
747.04	249.78
747.37	249.48
747.70	249.15
748.03	248.83
748.36	248.58
748.68	248.30
749.01	247.99
749.34	247.75
749.67	247.46
750.00	247.19
750.33	247.01
750.65	246.76
750.98	246.39
751.31	246.13
751.64	245.86
751.97	245.66
752.29	245.43
752.62	245.12
752.95	244.86
753.28	244.60
753.60	244.37
753.93	244.16
754.26	243.94
754.59	243.71
754.91	243.44
755.24	243.16
755.57	242.90
755.90	242.67
756.22	242.40
756.55	242.16
756.88	241.93
757.20	241.63
757.53	241.38
757.86	241.18
758.19	240.99
758.51	240.76
758.84	240.48
759.17	240.26
759.49	240.06
759.82	239.96
760.15	239.80
760.47	239.59
760.80	239.39
761.13	239.22
761.45	239.03
761.78	238.86
762.11	238.69
762.43	238.53
762.76	238.34
763.08	238.20
763.41	238.10
763.74	237.92
764.06	237.74
764.39	237.61
764.71	237.41
765.04	237.22
765.37	237.09
765.69	236.94
766.02	236.80
766.34	236.65
766.67	236.41
767.00	236.27
767.32	236.20
767.65	236.15
767.97	236.00
768.30	235.85
768.62	235.73
768.95	235.59
769.27	235.46
769.60	235.36
769.92	235.22
770.25	235.03
770.57	234.91
770.90	234.80
771.22	234.64
771.55	234.53
771.87	234.46
772.20	234.35
772.52	234.33
772.85	234.31
773.17	234.22
773.50	234.14
773.82	234.01
774.15	233.85
774.47	233.63
774.80	233.52
775.12	233.43
775.45	233.37
775.77	233.27
776.09	233.19
776.42	233.10
776.74	233.04
777.07	232.94
777.39	232.83
777.72	232.74
778.04	232.69
778.36	232.59
778.69	232.50
779.01	232.43
779.33	232.28
779.66	232.11
779.98	232.02
780.31	231.95
780.63	231.93
780.95	231.90
781.28	231.87
781.60	231.76
781.92	231.65
782.25	231.58
782.57	231.49
782.89	231.38
783.22	231.32
783.54	231.23
783.86	231.16
784.19	231.11
784.51	231.09
784.83	231.03
785.16	230.94
785.48	230.86
785.80	230.83
786.12	230.77
786.45	230.70
