SpectraSuite Data File
++++++++++++++++++++++++++++++++++++
Date: Fri Feb 01 17:23:46 EST 2013
User: group
Dark Spectrum Present: No
Reference Spectrum Present: No
Number of Sampled Component Spectra: 1
Spectrometers: USB2E7196
Integration Time (usec): 35000 (USB2E7196)
Spectra Averaged: 100 (USB2E7196)
Boxcar Smoothing: 10 (USB2E7196)
Correct for Electrical Dark: No (USB2E7196)
Strobe/Lamp Enabled: No (USB2E7196)
Correct for Detector Non-linearity: No (USB2E7196)
Correct for Stray Light: No (USB2E7196)
Number of Pixels in Processed Spectrum: 2048
>>>>>Begin Processed Spectral Data<<<<<
339.09	0.00
339.48	212.61
339.86	214.96
340.24	216.12
340.63	216.63
341.01	219.96
341.39	220.36
341.78	221.16
342.16	222.46
342.54	223.40
342.93	211.41
343.31	222.07
343.69	222.63
344.07	223.06
344.46	223.47
344.84	223.85
345.22	224.07
345.60	224.28
345.99	224.48
346.37	224.60
346.75	224.64
347.13	224.69
347.52	224.74
347.90	224.77
348.28	224.74
348.66	224.79
349.05	224.76
349.43	224.84
349.81	224.84
350.19	224.86
350.57	224.96
350.96	225.03
351.34	225.11
351.72	225.18
352.10	225.27
352.48	225.31
352.87	225.36
353.25	225.42
353.63	225.47
354.01	225.53
354.39	225.61
354.77	225.71
355.15	225.81
355.54	225.85
355.92	225.87
356.30	225.97
356.68	226.08
357.06	226.14
357.44	226.17
357.82	226.27
358.20	226.36
358.58	226.42
358.97	226.48
359.35	226.56
359.73	226.65
360.11	226.68
360.49	226.78
360.87	226.83
361.25	226.90
361.63	226.99
362.01	227.00
362.39	227.05
362.77	227.10
363.15	227.13
363.53	227.17
363.91	227.23
364.29	227.26
364.67	227.21
365.05	227.24
365.43	227.24
365.81	227.23
366.19	227.30
366.57	227.34
366.95	227.35
367.33	227.33
367.71	227.32
368.09	227.36
368.47	227.34
368.85	227.34
369.23	227.36
369.61	227.32
369.99	227.38
370.37	227.36
370.75	227.37
371.13	227.32
371.51	227.30
371.89	227.28
372.27	227.24
372.65	227.22
373.03	227.21
373.41	227.20
373.78	227.18
374.16	227.09
374.54	227.03
374.92	226.97
375.30	226.95
375.68	226.88
376.06	226.85
376.44	226.79
376.82	226.76
377.19	226.71
377.57	226.64
377.95	226.53
378.33	226.47
378.71	226.34
379.09	226.31
379.47	226.26
379.84	226.20
380.22	226.12
380.60	226.04
380.98	225.97
381.36	225.89
381.73	225.82
382.11	225.79
382.49	225.75
382.87	225.67
383.25	225.60
383.62	225.65
384.00	225.55
384.38	225.51
384.76	225.44
385.13	225.42
385.51	225.35
385.89	225.28
386.27	225.24
386.64	225.23
387.02	225.19
387.40	225.13
387.78	225.10
388.15	225.08
388.53	225.04
388.91	224.98
389.29	224.95
389.66	224.93
390.04	224.86
390.42	224.81
390.79	224.78
391.17	224.78
391.55	224.63
391.92	224.62
392.30	224.61
392.68	224.59
393.05	224.55
393.43	224.55
393.81	224.54
394.18	224.52
394.56	224.51
394.94	224.52
395.31	224.51
395.69	224.52
396.06	224.56
396.44	224.58
396.82	224.61
397.19	224.68
397.57	224.70
397.95	224.78
398.32	224.81
398.70	224.87
399.07	224.91
399.45	224.97
399.82	225.02
400.20	225.06
400.58	225.10
400.95	225.15
401.33	225.27
401.70	225.42
402.08	225.52
402.45	225.58
402.83	225.69
403.20	225.78
403.58	225.86
403.95	225.94
404.33	226.02
404.71	226.15
405.08	226.32
405.46	226.42
405.83	226.54
406.21	226.66
406.58	226.81
406.96	226.98
407.33	227.16
407.70	227.37
408.08	227.64
408.45	227.88
408.83	228.11
409.20	228.30
409.58	228.49
409.95	228.75
410.33	229.03
410.70	229.27
411.08	229.59
411.45	229.92
411.82	230.28
412.20	230.68
412.57	231.12
412.95	231.40
413.32	231.80
413.69	232.20
414.07	232.66
414.44	233.15
414.82	233.61
415.19	234.19
415.56	234.71
415.94	235.23
416.31	235.88
416.68	236.52
417.06	237.26
417.43	237.98
417.81	238.73
418.18	239.55
418.55	240.40
418.93	241.32
419.30	242.26
419.67	243.22
420.04	244.23
420.42	245.25
420.79	246.47
421.16	247.66
421.54	248.95
421.91	250.20
422.28	251.46
422.66	252.84
423.03	254.17
423.40	255.56
423.77	257.04
424.15	258.51
424.52	260.03
424.89	261.73
425.26	263.32
425.64	264.83
426.01	266.47
426.38	268.21
426.75	269.92
427.13	271.71
427.50	273.56
427.87	275.46
428.24	277.39
428.61	279.23
428.99	281.24
429.36	283.35
429.73	285.47
430.10	287.56
430.47	289.71
430.85	291.91
431.22	294.23
431.59	296.70
431.96	299.05
432.33	301.61
432.70	304.07
433.08	306.97
433.45	309.73
433.82	312.43
434.19	315.42
434.56	318.34
434.93	321.03
435.30	323.84
435.68	326.82
436.05	329.73
436.42	332.60
436.79	335.27
437.16	338.10
437.53	341.05
437.90	343.99
438.27	346.81
438.64	349.74
439.01	352.47
439.38	354.83
439.75	357.05
440.13	359.67
440.50	362.11
440.87	364.00
441.24	366.01
441.61	368.23
441.98	369.78
442.35	371.67
442.72	373.63
443.09	375.49
443.46	376.55
443.83	377.17
444.20	377.70
444.57	378.58
444.94	378.90
445.31	379.26
445.68	379.67
446.05	379.78
446.42	379.44
446.79	379.02
447.16	378.55
447.53	378.27
447.90	377.10
448.27	375.88
448.64	374.31
449.01	373.14
449.37	371.17
449.74	369.26
450.11	366.99
450.48	364.49
450.85	361.86
451.22	359.71
451.59	357.68
451.96	355.72
452.33	353.01
452.70	350.58
453.07	347.67
453.43	344.68
453.80	341.83
454.17	339.09
454.54	336.47
454.91	333.66
455.28	330.89
455.65	328.29
456.02	325.76
456.38	323.53
456.75	320.82
457.12	318.51
457.49	316.18
457.86	313.91
458.23	311.98
458.59	309.83
458.96	307.63
459.33	305.68
459.70	303.72
460.07	302.16
460.43	300.39
460.80	298.73
461.17	297.23
461.54	295.67
461.91	294.13
462.27	292.59
462.64	291.29
463.01	289.88
463.38	288.54
463.74	287.15
464.11	285.95
464.48	284.85
464.85	283.68
465.21	282.75
465.58	281.78
465.95	280.64
466.32	279.70
466.68	278.75
467.05	277.82
467.42	276.87
467.78	275.91
468.15	275.00
468.52	274.31
468.88	273.40
469.25	272.59
469.62	271.96
469.98	271.28
470.35	270.63
470.72	270.00
471.08	269.30
471.45	268.71
471.82	268.10
472.18	267.49
472.55	267.04
472.92	266.51
473.28	266.03
473.65	265.57
474.02	265.11
474.38	264.75
474.75	264.44
475.11	264.09
475.48	263.84
475.85	263.59
476.21	263.36
476.58	263.20
476.94	263.07
477.31	262.87
477.67	262.71
478.04	262.61
478.41	262.58
478.77	262.66
479.14	262.59
479.50	262.64
479.87	262.71
480.23	262.82
480.60	262.91
480.96	262.98
481.33	263.20
481.69	263.38
482.06	263.61
482.42	263.81
482.79	264.08
483.15	264.37
483.52	264.72
483.88	265.07
484.25	265.49
484.61	265.89
484.98	266.36
485.34	266.94
485.71	267.51
486.07	268.13
486.44	268.66
486.80	269.39
487.17	270.12
487.53	270.96
487.90	271.80
488.26	272.73
488.62	273.74
488.99	274.68
489.35	275.72
489.72	276.82
490.08	277.97
490.44	279.21
490.81	280.55
491.17	281.89
491.54	283.37
491.90	284.89
492.26	286.52
492.63	288.26
492.99	290.04
493.36	291.91
493.72	293.93
494.08	296.06
494.45	298.24
494.81	300.61
495.17	303.01
495.54	305.58
495.90	308.21
496.26	310.97
496.63	313.92
496.99	317.00
497.35	320.24
497.72	323.64
498.08	327.13
498.44	330.78
498.80	334.70
499.17	338.67
499.53	342.83
499.89	347.18
500.26	351.62
500.62	356.25
500.98	361.20
501.34	366.21
501.71	371.47
502.07	376.86
502.43	382.40
502.79	388.10
503.16	394.11
503.52	400.33
503.88	406.68
504.24	413.20
504.60	420.03
504.97	427.07
505.33	434.21
505.69	441.84
506.05	449.49
506.41	457.26
506.78	465.32
507.14	473.60
507.50	482.14
507.86	491.00
508.22	500.04
508.59	509.14
508.95	518.57
509.31	528.25
509.67	538.21
510.03	548.30
510.39	558.71
510.75	569.29
511.12	579.93
511.48	590.95
511.84	602.20
512.20	613.37
512.56	625.03
512.92	636.97
513.28	649.09
513.64	661.34
514.00	673.79
514.37	686.42
514.73	699.18
515.09	711.92
515.45	724.90
515.81	738.24
516.17	751.81
516.53	765.53
516.89	779.30
517.25	793.10
517.61	807.20
517.97	821.34
518.33	835.40
518.69	849.91
519.05	864.53
519.41	879.32
519.77	894.56
520.13	909.59
520.49	924.68
520.85	939.58
521.21	954.85
521.57	970.67
521.93	986.01
522.29	1001.94
522.65	1017.78
523.01	1033.60
523.37	1049.17
523.73	1064.92
524.09	1080.73
524.45	1096.61
524.81	1112.93
525.17	1129.21
525.53	1145.63
525.89	1162.03
526.25	1178.48
526.61	1194.44
526.97	1210.87
527.33	1227.00
527.68	1243.25
528.04	1259.36
528.40	1275.54
528.76	1292.30
529.12	1308.40
529.48	1324.87
529.84	1340.50
530.20	1356.67
530.56	1373.16
530.91	1390.17
531.27	1406.60
531.63	1422.69
531.99	1439.03
532.35	1454.65
532.71	1470.32
533.07	1486.29
533.42	1501.92
533.78	1517.67
534.14	1533.56
534.50	1548.51
534.86	1564.05
535.21	1578.94
535.57	1594.44
535.93	1609.67
536.29	1624.12
536.65	1638.97
537.00	1653.59
537.36	1668.63
537.72	1682.97
538.08	1697.25
538.44	1710.86
538.79	1724.71
539.15	1737.98
539.51	1751.29
539.87	1765.38
540.22	1778.84
540.58	1792.30
540.94	1805.29
541.29	1817.78
541.65	1830.36
542.01	1843.40
542.37	1855.56
542.72	1867.83
543.08	1879.62
543.44	1892.00
543.79	1903.27
544.15	1914.12
544.51	1925.67
544.87	1936.62
545.22	1947.53
545.58	1957.80
545.94	1967.55
546.29	1977.22
546.65	1987.35
547.01	1996.84
547.36	2005.71
547.72	2014.25
548.07	2022.39
548.43	2030.81
548.79	2038.90
549.14	2046.73
549.50	2054.18
549.86	2061.90
550.21	2069.28
550.57	2076.68
550.92	2083.43
551.28	2090.52
551.64	2097.83
551.99	2104.38
552.35	2110.88
552.70	2117.28
553.06	2123.56
553.41	2130.12
553.77	2136.35
554.13	2142.51
554.48	2148.71
554.84	2154.56
555.19	2160.00
555.55	2165.40
555.90	2170.14
556.26	2175.56
556.61	2180.43
556.97	2185.18
557.32	2189.83
557.68	2194.27
558.03	2198.66
558.39	2202.43
558.74	2207.47
559.10	2211.85
559.45	2215.88
559.81	2220.23
560.16	2224.26
560.52	2227.83
560.87	2231.54
561.23	2234.66
561.58	2237.82
561.94	2240.84
562.29	2243.36
562.64	2246.71
563.00	2249.53
563.35	2253.39
563.71	2256.89
564.06	2260.46
564.42	2263.68
564.77	2266.59
565.12	2269.48
565.48	2271.87
565.83	2274.44
566.19	2276.18
566.54	2277.08
566.89	2278.63
567.25	2279.81
567.60	2281.42
567.96	2283.49
568.31	2284.77
568.66	2286.15
569.02	2287.24
569.37	2288.00
569.72	2289.32
570.08	2289.77
570.43	2290.30
570.78	2290.19
571.14	2289.06
571.49	2288.02
571.84	2287.90
572.20	2287.06
572.55	2286.24
572.90	2284.97
573.26	2283.86
573.61	2282.34
573.96	2281.33
574.31	2278.80
574.67	2276.32
575.02	2273.09
575.37	2269.85
575.72	2266.33
576.08	2263.24
576.43	2260.15
576.78	2256.93
577.13	2253.88
577.49	2250.92
577.84	2247.70
578.19	2244.10
578.54	2240.73
578.90	2237.05
579.25	2231.93
579.60	2227.33
579.95	2222.78
580.30	2218.14
580.66	2213.28
581.01	2208.69
581.36	2203.88
581.71	2200.05
582.06	2195.83
582.42	2191.82
582.77	2187.06
583.12	2182.95
583.47	2178.88
583.82	2174.40
584.17	2169.40
584.53	2164.36
584.88	2159.34
585.23	2153.94
585.58	2148.88
585.93	2143.62
586.28	2138.95
586.63	2134.20
586.98	2129.45
587.34	2124.97
587.69	2120.35
588.04	2115.57
588.39	2110.14
588.74	2103.92
589.09	2098.02
589.44	2091.47
589.79	2085.40
590.14	2079.94
590.49	2073.54
590.84	2067.04
591.19	2061.16
591.54	2054.91
591.89	2047.92
592.25	2041.32
592.60	2034.31
592.95	2026.98
593.30	2019.90
593.65	2012.43
594.00	2005.54
594.35	1998.34
594.70	1990.39
595.05	1983.51
595.40	1976.08
595.75	1968.70
596.10	1962.74
596.45	1956.21
596.80	1950.25
597.15	1944.03
597.50	1937.26
597.85	1930.78
598.19	1924.35
598.54	1917.50
598.89	1910.98
599.24	1904.94
599.59	1898.43
599.94	1892.24
600.29	1885.90
600.64	1879.34
600.99	1872.16
601.34	1865.36
601.69	1858.31
602.04	1851.66
602.39	1844.27
602.74	1837.65
603.08	1831.07
603.43	1824.39
603.78	1817.14
604.13	1809.85
604.48	1802.51
604.83	1795.62
605.18	1788.96
605.53	1781.19
605.87	1773.10
606.22	1765.79
606.57	1757.88
606.92	1750.27
607.27	1743.20
607.62	1736.44
607.96	1729.35
608.31	1722.90
608.66	1715.62
609.01	1708.23
609.36	1700.69
609.70	1692.72
610.05	1684.69
610.40	1676.99
610.75	1668.76
611.10	1661.00
611.44	1652.53
611.79	1644.42
612.14	1635.72
612.49	1626.43
612.83	1617.81
613.18	1609.64
613.53	1601.41
613.88	1592.84
614.22	1584.60
614.57	1575.86
614.92	1567.67
615.27	1560.04
615.61	1551.67
615.96	1543.28
616.31	1535.47
616.65	1527.92
617.00	1520.28
617.35	1512.48
617.70	1504.04
618.04	1495.43
618.39	1487.08
618.74	1479.44
619.08	1471.15
619.43	1463.47
619.78	1456.36
620.12	1449.24
620.47	1441.66
620.82	1433.46
621.16	1425.95
621.51	1418.20
621.85	1410.39
622.20	1401.83
622.55	1393.31
622.89	1385.20
623.24	1377.49
623.59	1370.06
623.93	1362.38
624.28	1354.99
624.62	1347.41
624.97	1340.14
625.32	1333.10
625.66	1325.98
626.01	1318.81
626.35	1311.36
626.70	1303.44
627.04	1295.80
627.39	1287.83
627.73	1280.31
628.08	1273.20
628.43	1265.93
628.77	1258.59
629.12	1251.07
629.46	1243.85
629.81	1236.21
630.15	1228.83
630.50	1221.33
630.84	1213.06
631.19	1205.01
631.53	1197.35
631.88	1189.64
632.22	1182.01
632.57	1174.64
632.91	1166.95
633.26	1159.41
633.60	1151.74
633.95	1144.54
634.29	1137.28
634.64	1130.54
634.98	1123.08
635.32	1115.89
635.67	1109.10
636.01	1102.25
636.36	1095.43
636.70	1088.79
637.05	1082.20
637.39	1075.71
637.73	1069.19
638.08	1063.25
638.42	1057.27
638.77	1050.83
639.11	1044.24
639.45	1037.76
639.80	1031.17
640.14	1024.89
640.49	1018.39
640.83	1012.17
641.17	1006.01
641.52	999.61
641.86	993.02
642.20	987.08
642.55	980.66
642.89	974.21
643.23	967.69
643.58	961.82
643.92	955.71
644.26	949.75
644.61	943.63
644.95	937.56
645.29	931.03
645.64	924.26
645.98	917.93
646.32	911.89
646.66	905.83
647.01	899.96
647.35	894.17
647.69	888.21
648.04	882.57
648.38	876.67
648.72	870.75
649.06	864.72
649.41	858.86
649.75	852.95
650.09	846.96
650.43	841.13
650.78	834.89
651.12	828.85
651.46	823.04
651.80	817.40
652.14	811.93
652.49	806.51
652.83	801.29
653.17	795.59
653.51	790.06
653.85	784.58
654.20	778.99
654.54	772.92
654.88	767.11
655.22	761.23
655.56	755.52
655.90	749.99
656.25	744.79
656.59	739.37
656.93	734.29
657.27	729.13
657.61	723.68
657.95	718.57
658.29	713.41
658.64	708.08
658.98	702.61
659.32	697.10
659.66	691.86
660.00	686.58
660.34	681.58
660.68	676.58
661.02	671.49
661.36	666.63
661.70	662.08
662.05	657.74
662.39	653.47
662.73	648.93
663.07	644.52
663.41	639.99
663.75	635.52
664.09	630.90
664.43	626.48
664.77	622.40
665.11	618.16
665.45	613.97
665.79	609.94
666.13	605.83
666.47	601.75
666.81	597.55
667.15	593.30
667.49	589.32
667.83	585.43
668.17	581.48
668.51	577.44
668.85	573.37
669.19	569.42
669.53	565.52
669.87	561.69
670.21	557.93
670.55	554.26
670.89	550.85
671.23	547.46
671.57	543.90
671.91	540.30
672.25	536.77
672.58	533.23
672.92	529.69
673.26	526.51
673.60	523.31
673.94	520.19
674.28	517.31
674.62	514.42
674.96	511.37
675.30	508.45
675.64	505.56
675.97	502.78
676.31	499.94
676.65	496.97
676.99	494.23
677.33	491.35
677.67	488.58
678.01	485.52
678.34	482.49
678.68	479.59
679.02	476.74
679.36	473.90
679.70	471.14
680.04	468.39
680.37	465.51
680.71	462.70
681.05	460.06
681.39	457.32
681.73	454.58
682.06	451.98
682.40	449.42
682.74	446.77
683.08	444.19
683.42	441.55
683.75	439.05
684.09	436.39
684.43	433.93
684.77	431.39
685.10	428.97
685.44	426.59
685.78	424.29
686.12	422.01
686.45	419.70
686.79	417.43
687.13	415.25
687.46	413.07
687.80	410.90
688.14	408.68
688.48	406.58
688.81	404.36
689.15	402.19
689.49	399.96
689.82	397.85
690.16	395.70
690.50	393.67
690.83	391.67
691.17	389.67
691.51	387.71
691.84	385.79
692.18	383.86
692.52	381.94
692.85	379.96
693.19	378.08
693.52	376.25
693.86	374.34
694.20	372.52
694.53	370.65
694.87	368.75
695.21	366.90
695.54	365.00
695.88	363.21
696.21	361.46
696.55	359.82
696.88	358.16
697.22	356.48
697.56	354.81
697.89	353.18
698.23	351.58
698.56	349.98
698.90	348.44
699.23	346.77
699.57	345.15
699.90	343.61
700.24	341.96
700.58	340.41
700.91	338.95
701.25	337.46
701.58	336.12
701.92	334.71
702.25	333.32
702.59	331.99
702.92	330.68
703.26	329.32
703.59	328.01
703.93	326.78
704.26	325.59
704.60	324.31
704.93	322.98
705.26	321.77
705.60	320.53
705.93	319.34
706.27	318.26
706.60	317.20
706.94	316.09
707.27	314.99
707.61	313.89
707.94	312.79
708.27	311.68
708.61	310.57
708.94	309.57
709.28	308.55
709.61	307.50
709.94	306.47
710.28	305.43
710.61	304.40
710.95	303.29
711.28	302.28
711.61	301.30
711.95	300.38
712.28	299.41
712.61	298.42
712.95	297.44
713.28	296.56
713.61	295.62
713.95	294.73
714.28	293.89
714.61	293.00
714.95	292.16
715.28	291.29
715.61	290.37
715.95	289.47
716.28	288.66
716.61	287.82
716.95	286.98
717.28	286.21
717.61	285.41
717.94	284.67
718.28	283.86
718.61	283.07
718.94	282.34
719.27	281.65
719.61	280.99
719.94	280.31
720.27	279.59
720.60	278.93
720.94	278.27
721.27	277.61
721.60	277.01
721.93	276.42
722.27	275.86
722.60	275.32
722.93	274.75
723.26	274.15
723.59	273.63
723.93	273.06
724.26	272.52
724.59	271.96
724.92	271.40
725.25	270.92
725.59	270.42
725.92	269.88
726.25	269.32
726.58	268.83
726.91	268.33
727.24	267.83
727.57	267.34
727.91	266.83
728.24	266.36
728.57	265.87
728.90	265.38
729.23	264.88
729.56	264.45
729.89	263.99
730.22	263.51
730.55	262.99
730.89	262.54
731.22	262.09
731.55	261.68
731.88	261.26
732.21	260.79
732.54	260.35
732.87	259.96
733.20	259.60
733.53	259.17
733.86	258.80
734.19	258.41
734.52	258.03
734.85	257.74
735.18	257.33
735.51	256.95
735.84	256.59
736.17	256.25
736.50	255.81
736.83	255.58
737.16	255.28
737.49	254.94
737.82	254.60
738.15	254.27
738.48	253.95
738.81	253.63
739.14	253.34
739.47	253.04
739.80	252.75
740.13	252.42
740.46	252.12
740.79	251.77
741.12	251.45
741.45	251.14
741.78	250.75
742.11	250.49
742.44	250.16
742.77	249.84
743.10	249.53
743.43	249.27
743.75	248.86
744.08	248.70
744.41	248.44
744.74	248.17
745.07	247.90
745.40	247.66
745.73	247.39
746.06	247.10
746.39	246.85
746.71	246.57
747.04	246.29
747.37	246.01
747.70	245.75
748.03	245.50
748.36	245.27
748.68	245.01
749.01	244.75
749.34	244.55
749.67	244.33
750.00	244.10
750.33	243.94
750.65	243.71
750.98	243.32
751.31	243.11
751.64	242.90
751.97	242.74
752.29	242.47
752.62	242.21
752.95	241.99
753.28	241.76
753.60	241.53
753.93	241.34
754.26	241.15
754.59	240.94
754.91	240.72
755.24	240.47
755.57	240.32
755.90	240.12
756.22	239.93
756.55	239.74
756.88	239.53
757.20	239.27
757.53	239.06
757.86	238.89
758.19	238.74
758.51	238.54
758.84	238.33
759.17	238.14
759.49	238.02
759.82	237.89
760.15	237.70
760.47	237.55
760.80	237.37
761.13	237.24
761.45	237.07
761.78	236.93
762.11	236.80
762.43	236.60
762.76	236.42
763.08	236.26
763.41	236.09
763.74	235.96
764.06	235.82
764.39	235.67
764.71	235.51
765.04	235.34
765.37	235.17
765.69	235.04
766.02	234.92
766.34	234.76
766.67	234.63
767.00	234.52
767.32	234.43
767.65	234.37
767.97	234.20
768.30	234.13
768.62	234.03
768.95	233.91
769.27	233.81
769.60	233.74
769.92	233.62
770.25	233.52
770.57	233.41
770.90	233.31
771.22	233.23
771.55	233.19
771.87	233.11
772.20	233.06
772.52	233.05
772.85	233.10
773.17	233.02
773.50	232.90
773.82	232.81
774.15	232.69
774.47	232.57
774.80	232.52
775.12	232.43
775.45	232.35
775.77	232.29
776.09	232.22
776.42	232.15
776.74	232.14
777.07	232.06
777.39	232.01
777.72	231.93
778.04	231.92
778.36	231.81
778.69	231.77
779.01	231.68
779.33	231.53
779.66	231.35
779.98	231.27
780.31	231.24
780.63	231.23
780.95	231.22
781.28	231.16
781.60	231.06
781.92	231.01
782.25	230.95
782.57	230.92
782.89	230.88
783.22	230.82
783.54	230.76
783.86	230.70
784.19	230.63
784.51	230.60
784.83	230.50
785.16	230.47
785.48	230.41
785.80	230.40
786.12	230.35
786.45	230.30
786.77	230.27
787.09	230.21
