SpectraSuite Data File
++++++++++++++++++++++++++++++++++++
Date: Fri Feb 01 15:52:09 EST 2013
User: group
Dark Spectrum Present: No
Reference Spectrum Present: No
Number of Sampled Component Spectra: 1
Spectrometers: USB2E7196
Integration Time (usec): 35000 (USB2E7196)
Spectra Averaged: 100 (USB2E7196)
Boxcar Smoothing: 10 (USB2E7196)
Correct for Electrical Dark: No (USB2E7196)
Strobe/Lamp Enabled: No (USB2E7196)
Correct for Detector Non-linearity: No (USB2E7196)
Correct for Stray Light: No (USB2E7196)
Number of Pixels in Processed Spectrum: 2048
>>>>>Begin Processed Spectral Data<<<<<
339.09	0.00
339.48	215.10
339.86	216.81
340.24	217.50
340.63	218.96
341.01	221.89
341.39	221.77
341.78	223.04
342.16	224.04
342.54	224.84
342.93	213.19
343.31	223.97
343.69	224.49
344.07	224.93
344.46	225.37
344.84	225.77
345.22	226.00
345.60	226.23
345.99	226.42
346.37	226.56
346.75	226.69
347.13	226.78
347.52	226.84
347.90	226.93
348.28	226.95
348.66	227.01
349.05	227.00
349.43	227.06
349.81	227.11
350.19	227.14
350.57	227.20
350.96	227.27
351.34	227.35
351.72	227.44
352.10	227.53
352.48	227.62
352.87	227.65
353.25	227.75
353.63	227.84
354.01	227.94
354.39	228.03
354.77	228.06
355.15	228.18
355.54	228.26
355.92	228.29
356.30	228.35
356.68	228.49
357.06	228.59
357.44	228.62
357.82	228.69
358.20	228.78
358.58	228.83
358.97	228.91
359.35	229.00
359.73	229.08
360.11	229.12
360.49	229.14
360.87	229.18
361.25	229.23
361.63	229.30
362.01	229.30
362.39	229.32
362.77	229.36
363.15	229.36
363.53	229.40
363.91	229.48
364.29	229.50
364.67	229.42
365.05	229.43
365.43	229.44
365.81	229.45
366.19	229.46
366.57	229.48
366.95	229.47
367.33	229.45
367.71	229.46
368.09	229.48
368.47	229.47
368.85	229.44
369.23	229.42
369.61	229.36
369.99	229.37
370.37	229.35
370.75	229.38
371.13	229.33
371.51	229.25
371.89	229.19
372.27	229.14
372.65	229.08
373.03	229.02
373.41	228.98
373.78	228.89
374.16	228.80
374.54	228.72
374.92	228.63
375.30	228.53
375.68	228.41
376.06	228.32
376.44	228.24
376.82	228.17
377.19	228.10
377.57	228.00
377.95	227.87
378.33	227.80
378.71	227.69
379.09	227.60
379.47	227.55
379.84	227.45
380.22	227.36
380.60	227.29
380.98	227.23
381.36	227.16
381.73	227.11
382.11	227.04
382.49	226.99
382.87	226.92
383.25	226.85
383.62	226.92
384.00	226.85
384.38	226.79
384.76	226.77
385.13	226.72
385.51	226.68
385.89	226.63
386.27	226.58
386.64	226.50
387.02	226.46
387.40	226.40
387.78	226.37
388.15	226.33
388.53	226.30
388.91	226.25
389.29	226.22
389.66	226.20
390.04	226.20
390.42	226.17
390.79	226.16
391.17	226.16
391.55	226.01
391.92	226.04
392.30	226.05
392.68	226.05
393.05	226.08
393.43	226.10
393.81	226.09
394.18	226.08
394.56	226.11
394.94	226.12
395.31	226.16
395.69	226.21
396.06	226.26
396.44	226.26
396.82	226.30
397.19	226.40
397.57	226.44
397.95	226.50
398.32	226.52
398.70	226.60
399.07	226.65
399.45	226.74
399.82	226.76
400.20	226.83
400.58	226.91
400.95	226.95
401.33	227.06
401.70	227.22
402.08	227.34
402.45	227.44
402.83	227.59
403.20	227.70
403.58	227.80
403.95	227.93
404.33	228.09
404.71	228.22
405.08	228.37
405.46	228.50
405.83	228.63
406.21	228.79
406.58	228.97
406.96	229.16
407.33	229.30
407.70	229.53
408.08	229.80
408.45	230.02
408.83	230.23
409.20	230.44
409.58	230.62
409.95	230.88
410.33	231.16
410.70	231.42
411.08	231.71
411.45	232.03
411.82	232.34
412.20	232.69
412.57	233.13
412.95	233.40
413.32	233.81
413.69	234.23
414.07	234.66
414.44	235.08
414.82	235.60
415.19	236.17
415.56	236.73
415.94	237.24
416.31	237.88
416.68	238.52
417.06	239.26
417.43	239.95
417.81	240.70
418.18	241.45
418.55	242.28
418.93	243.13
419.30	244.03
419.67	244.96
420.04	245.92
420.42	246.83
420.79	248.03
421.16	249.15
421.54	250.33
421.91	251.54
422.28	252.82
422.66	254.08
423.03	255.37
423.40	256.69
423.77	258.13
424.15	259.54
424.52	261.04
424.89	262.63
425.26	264.19
425.64	265.65
426.01	267.25
426.38	268.86
426.75	270.56
427.13	272.27
427.50	274.06
427.87	275.94
428.24	277.83
428.61	279.57
428.99	281.50
429.36	283.58
429.73	285.63
430.10	287.66
430.47	289.74
430.85	291.85
431.22	294.08
431.59	296.44
431.96	298.69
432.33	301.16
432.70	303.53
433.08	306.32
433.45	308.95
433.82	311.57
434.19	314.49
434.56	317.26
434.93	319.91
435.30	322.55
435.68	325.42
436.05	328.25
436.42	331.02
436.79	333.58
437.16	336.29
437.53	339.10
437.90	341.92
438.27	344.67
438.64	347.49
439.01	350.07
439.38	352.30
439.75	354.50
440.13	356.98
440.50	359.30
440.87	361.12
441.24	363.08
441.61	365.22
441.98	366.70
442.35	368.55
442.72	370.41
443.09	372.16
443.46	373.18
443.83	373.76
444.20	374.31
444.57	375.11
444.94	375.42
445.31	375.77
445.68	376.11
446.05	376.18
446.42	375.81
446.79	375.41
447.16	374.96
447.53	374.60
447.90	373.43
448.27	372.25
448.64	370.67
449.01	369.48
449.37	367.51
449.74	365.63
450.11	363.36
450.48	360.90
450.85	358.42
451.22	356.27
451.59	354.26
451.96	352.32
452.33	349.72
452.70	347.38
453.07	344.55
453.43	341.61
453.80	338.86
454.17	336.21
454.54	333.66
454.91	330.95
455.28	328.27
455.65	325.84
456.02	323.43
456.38	321.32
456.75	318.70
457.12	316.48
457.49	314.27
457.86	312.12
458.23	310.26
458.59	308.20
458.96	306.13
459.33	304.29
459.70	302.44
460.07	300.98
460.43	299.25
460.80	297.67
461.17	296.30
461.54	294.83
461.91	293.42
462.27	291.98
462.64	290.73
463.01	289.44
463.38	288.14
463.74	286.76
464.11	285.67
464.48	284.64
464.85	283.52
465.21	282.65
465.58	281.74
465.95	280.63
466.32	279.71
466.68	278.83
467.05	277.95
467.42	277.05
467.78	276.09
468.15	275.23
468.52	274.54
468.88	273.64
469.25	272.82
469.62	272.18
469.98	271.51
470.35	270.89
470.72	270.24
471.08	269.54
471.45	269.01
471.82	268.40
472.18	267.82
472.55	267.40
472.92	266.87
473.28	266.40
473.65	265.96
474.02	265.58
474.38	265.18
474.75	264.84
475.11	264.48
475.48	264.24
475.85	264.01
476.21	263.78
476.58	263.60
476.94	263.46
477.31	263.32
477.67	263.17
478.04	263.07
478.41	263.01
478.77	263.06
479.14	262.98
479.50	262.98
479.87	263.02
480.23	263.08
480.60	263.12
480.96	263.20
481.33	263.44
481.69	263.59
482.06	263.80
482.42	264.01
482.79	264.23
483.15	264.51
483.52	264.87
483.88	265.25
484.25	265.63
484.61	266.10
484.98	266.55
485.34	267.06
485.71	267.64
486.07	268.25
486.44	268.82
486.80	269.51
487.17	270.26
487.53	271.10
487.90	271.95
488.26	272.91
488.62	273.94
488.99	274.88
489.35	275.89
489.72	277.00
490.08	278.23
490.44	279.49
490.81	280.85
491.17	282.19
491.54	283.66
491.90	285.17
492.26	286.77
492.63	288.45
492.99	290.27
493.36	292.16
493.72	294.20
494.08	296.33
494.45	298.54
494.81	300.88
495.17	303.33
495.54	305.90
495.90	308.55
496.26	311.30
496.63	314.28
496.99	317.43
497.35	320.69
497.72	324.06
498.08	327.59
498.44	331.22
498.80	335.09
499.17	339.13
499.53	343.34
499.89	347.70
500.26	352.17
500.62	356.82
500.98	361.76
501.34	366.82
501.71	372.14
502.07	377.65
502.43	383.26
502.79	389.05
503.16	395.16
503.52	401.48
503.88	407.92
504.24	414.57
504.60	421.43
504.97	428.54
505.33	435.84
505.69	443.53
506.05	451.39
506.41	459.34
506.78	467.51
507.14	475.97
507.50	484.72
507.86	493.85
508.22	503.07
508.59	512.37
508.95	521.94
509.31	531.76
509.67	541.88
510.03	552.17
510.39	562.74
510.75	573.54
511.12	584.46
511.48	595.77
511.84	607.21
512.20	618.70
512.56	630.65
512.92	642.82
513.28	655.17
513.64	667.63
514.00	680.34
514.37	693.36
514.73	706.47
515.09	719.53
515.45	732.73
515.81	746.36
516.17	760.30
516.53	774.42
516.89	788.58
517.25	802.70
517.61	817.23
517.97	831.67
518.33	846.04
518.69	860.83
519.05	875.86
519.41	891.02
519.77	906.58
520.13	922.06
520.49	937.57
520.85	952.98
521.21	968.76
521.57	984.98
521.93	1000.68
522.29	1017.09
522.65	1033.37
523.01	1049.68
523.37	1065.70
523.73	1081.77
524.09	1097.92
524.45	1114.26
524.81	1130.90
525.17	1147.60
525.53	1164.47
525.89	1181.36
526.25	1198.17
526.61	1214.44
526.97	1231.20
527.33	1247.65
527.68	1264.26
528.04	1280.62
528.40	1297.22
528.76	1314.12
529.12	1330.61
529.48	1347.43
529.84	1363.34
530.20	1379.93
530.56	1396.92
530.91	1414.41
531.27	1431.20
531.63	1447.68
531.99	1464.33
532.35	1480.18
532.71	1496.04
533.07	1512.30
533.42	1528.19
533.78	1544.13
534.14	1560.39
534.50	1575.60
534.86	1591.60
535.21	1606.71
535.57	1622.63
535.93	1638.14
536.29	1653.06
536.65	1668.08
537.00	1682.82
537.36	1698.17
537.72	1712.67
538.08	1727.09
538.44	1740.66
538.79	1754.46
539.15	1768.04
539.51	1781.60
539.87	1796.07
540.22	1809.92
540.58	1823.55
540.94	1836.94
541.29	1849.97
541.65	1862.63
542.01	1875.95
542.37	1888.06
542.72	1900.53
543.08	1912.27
543.44	1924.56
543.79	1935.68
544.15	1946.81
544.51	1958.40
544.87	1969.33
545.22	1980.08
545.58	1990.07
545.94	1999.84
546.29	2009.76
546.65	2019.60
547.01	2028.85
547.36	2037.48
547.72	2045.84
548.07	2053.65
548.43	2061.75
548.79	2069.75
549.14	2077.35
549.50	2084.75
549.86	2092.51
550.21	2099.76
550.57	2106.93
550.92	2113.55
551.28	2120.58
551.64	2127.60
551.99	2134.14
552.35	2140.25
552.70	2146.50
553.06	2152.53
553.41	2158.91
553.77	2164.96
554.13	2171.17
554.48	2177.35
554.84	2182.83
555.19	2188.19
555.55	2193.48
555.90	2197.88
556.26	2202.68
556.61	2207.41
556.97	2211.52
557.32	2215.68
557.68	2219.74
558.03	2224.11
558.39	2227.91
558.74	2232.54
559.10	2236.36
559.45	2239.97
559.81	2244.31
560.16	2248.14
560.52	2251.44
560.87	2254.92
561.23	2257.67
561.58	2260.50
561.94	2262.92
562.29	2265.28
562.64	2267.91
563.00	2270.33
563.35	2273.88
563.71	2277.08
564.06	2280.20
564.42	2283.17
564.77	2285.63
565.12	2287.83
565.48	2289.72
565.83	2291.49
566.19	2292.86
566.54	2293.92
566.89	2295.01
567.25	2295.55
567.60	2296.83
567.96	2298.51
568.31	2299.40
568.66	2300.36
569.02	2300.99
569.37	2301.35
569.72	2302.24
570.08	2302.25
570.43	2302.54
570.78	2301.89
571.14	2300.18
571.49	2298.98
571.84	2298.69
572.20	2297.62
572.55	2296.84
572.90	2295.38
573.26	2293.93
573.61	2292.13
573.96	2290.24
574.31	2287.28
574.67	2284.37
575.02	2280.71
575.37	2277.25
575.72	2273.36
576.08	2270.06
576.43	2266.66
576.78	2262.98
577.13	2259.81
577.49	2256.79
577.84	2253.13
578.19	2249.50
578.54	2245.93
578.90	2241.48
579.25	2235.79
579.60	2230.76
579.95	2225.55
580.30	2220.38
580.66	2215.32
581.01	2210.30
581.36	2205.34
581.71	2201.23
582.06	2196.58
582.42	2192.02
582.77	2186.93
583.12	2182.30
583.47	2177.59
583.82	2172.62
584.17	2167.27
584.53	2161.69
584.88	2156.02
585.23	2150.26
585.58	2144.74
585.93	2139.27
586.28	2134.62
586.63	2129.61
586.98	2124.48
587.34	2119.78
587.69	2114.90
588.04	2109.57
588.39	2103.94
588.74	2097.54
589.09	2091.40
589.44	2084.73
589.79	2078.76
590.14	2073.10
590.49	2066.55
590.84	2060.13
591.19	2054.04
591.54	2047.55
591.89	2040.20
592.25	2033.31
592.60	2026.30
592.95	2018.66
593.30	2011.40
593.65	2003.79
594.00	1996.72
594.35	1989.63
594.70	1981.72
595.05	1974.50
595.40	1967.31
595.75	1959.90
596.10	1953.60
596.45	1946.84
596.80	1940.62
597.15	1934.12
597.50	1926.77
597.85	1920.33
598.19	1913.58
598.54	1906.49
598.89	1899.97
599.24	1894.15
599.59	1887.58
599.94	1881.33
600.29	1875.10
600.64	1868.49
600.99	1861.04
601.34	1854.28
601.69	1847.35
602.04	1840.48
602.39	1833.20
602.74	1826.28
603.08	1819.49
603.43	1812.77
603.78	1805.43
604.13	1798.31
604.48	1790.85
604.83	1784.20
605.18	1777.21
605.53	1769.23
605.87	1761.23
606.22	1754.06
606.57	1746.07
606.92	1738.74
607.27	1731.30
607.62	1724.26
607.96	1716.82
608.31	1710.19
608.66	1702.59
609.01	1694.91
609.36	1687.18
609.70	1679.14
610.05	1671.03
610.40	1663.29
610.75	1654.95
611.10	1647.27
611.44	1638.79
611.79	1630.73
612.14	1621.92
612.49	1612.82
612.83	1604.55
613.18	1596.44
613.53	1588.33
613.88	1579.86
614.22	1571.51
614.57	1563.02
614.92	1555.04
615.27	1547.61
615.61	1539.31
615.96	1531.21
616.31	1523.61
616.65	1516.31
617.00	1508.67
617.35	1501.08
617.70	1492.70
618.04	1484.27
618.39	1476.20
618.74	1468.60
619.08	1460.46
619.43	1453.04
619.78	1446.18
620.12	1438.94
620.47	1431.29
620.82	1423.05
621.16	1415.61
621.51	1408.05
621.85	1400.45
622.20	1391.91
622.55	1383.58
622.89	1375.78
623.24	1368.15
623.59	1360.76
623.93	1353.15
624.28	1346.00
624.62	1338.37
624.97	1331.34
625.32	1324.62
625.66	1317.48
626.01	1310.28
626.35	1302.85
626.70	1295.11
627.04	1287.31
627.39	1279.54
627.73	1272.27
628.08	1265.31
628.43	1257.99
628.77	1250.62
629.12	1243.18
629.46	1236.11
629.81	1228.63
630.15	1221.36
630.50	1214.03
630.84	1205.77
631.19	1197.91
631.53	1190.41
631.88	1182.96
632.22	1175.27
632.57	1167.91
632.91	1160.38
633.26	1152.98
633.60	1145.54
633.95	1138.46
634.29	1131.49
634.64	1124.82
634.98	1117.52
635.32	1110.55
635.67	1103.95
636.01	1097.39
636.36	1090.48
636.70	1083.91
637.05	1077.37
637.39	1070.84
637.73	1064.24
638.08	1058.50
638.42	1052.52
638.77	1046.05
639.11	1039.37
639.45	1033.01
639.80	1026.39
640.14	1019.90
640.49	1013.33
640.83	1007.02
641.17	1000.63
641.52	994.21
641.86	987.83
642.20	981.90
642.55	975.58
642.89	969.02
643.23	962.44
643.58	956.70
643.92	950.50
644.26	944.29
644.61	938.37
644.95	932.37
645.29	925.60
645.64	918.82
645.98	912.49
646.32	906.72
646.66	900.66
647.01	894.76
647.35	889.03
647.69	883.17
648.04	877.68
648.38	871.93
648.72	865.91
649.06	859.82
649.41	853.96
649.75	847.93
650.09	842.09
650.43	836.27
650.78	830.08
651.12	824.03
651.46	818.43
651.80	812.60
652.14	807.23
652.49	801.97
652.83	796.83
653.17	791.14
653.51	785.31
653.85	779.99
654.20	774.42
654.54	768.46
654.88	762.79
655.22	756.91
655.56	751.22
655.90	745.79
656.25	740.54
656.59	735.21
656.93	730.10
657.27	724.86
657.61	719.45
657.95	714.37
658.29	709.41
658.64	704.17
658.98	698.87
659.32	693.38
659.66	688.14
660.00	682.86
660.34	677.87
660.68	673.03
661.02	668.01
661.36	663.34
661.70	658.81
662.05	654.47
662.39	650.09
662.73	645.67
663.07	641.29
663.41	636.82
663.75	632.25
664.09	627.74
664.43	623.36
664.77	619.24
665.11	614.94
665.45	610.74
665.79	606.63
666.13	602.52
666.47	598.50
666.81	594.28
667.15	590.17
667.49	586.31
667.83	582.59
668.17	578.55
668.51	574.42
668.85	570.47
669.19	566.60
669.53	562.79
669.87	558.87
670.21	555.23
670.55	551.61
670.89	548.26
671.23	544.82
671.57	541.36
671.91	537.78
672.25	534.32
672.58	530.88
672.92	527.51
673.26	524.37
673.60	521.16
673.94	518.02
674.28	515.10
674.62	512.11
674.96	508.91
675.30	506.03
675.64	503.09
675.97	500.27
676.31	497.43
676.65	494.50
676.99	491.83
677.33	488.89
677.67	486.11
678.01	483.05
678.34	480.07
678.68	477.18
679.02	474.38
679.36	471.66
679.70	468.95
680.04	466.20
680.37	463.31
680.71	460.52
681.05	457.91
681.39	455.14
681.73	452.55
682.06	450.09
682.40	447.56
682.74	445.06
683.08	442.51
683.42	439.89
683.75	437.40
684.09	434.80
684.43	432.36
684.77	429.86
685.10	427.51
685.44	425.17
685.78	422.89
686.12	420.67
686.45	418.36
686.79	415.99
687.13	413.80
687.46	411.62
687.80	409.51
688.14	407.30
688.48	405.26
688.81	402.96
689.15	400.76
689.49	398.63
689.82	396.56
690.16	394.45
690.50	392.47
690.83	390.51
691.17	388.61
691.51	386.73
691.84	384.88
692.18	382.92
692.52	380.96
692.85	379.01
693.19	377.11
693.52	375.28
693.86	373.54
694.20	371.76
694.53	369.95
694.87	368.13
695.21	366.42
695.54	364.62
695.88	362.94
696.21	361.23
696.55	359.49
696.88	357.82
697.22	356.19
697.56	354.58
697.89	352.97
698.23	351.29
698.56	349.66
698.90	348.03
699.23	346.40
699.57	344.82
699.90	343.31
700.24	341.74
700.58	340.20
700.91	338.67
701.25	337.21
701.58	335.87
701.92	334.50
702.25	333.03
702.59	331.66
702.92	330.32
703.26	328.98
703.59	327.69
703.93	326.53
704.26	325.32
704.60	324.01
704.93	322.72
705.26	321.49
705.60	320.30
705.93	319.18
706.27	318.15
706.60	317.11
706.94	315.99
707.27	314.92
707.61	313.86
707.94	312.82
708.27	311.74
708.61	310.69
708.94	309.69
709.28	308.76
709.61	307.78
709.94	306.85
710.28	305.84
710.61	304.90
710.95	303.81
711.28	302.86
711.61	301.91
711.95	301.02
712.28	300.08
712.61	299.09
712.95	298.15
713.28	297.24
713.61	296.37
713.95	295.48
714.28	294.63
714.61	293.76
714.95	292.89
715.28	292.01
715.61	291.06
715.95	290.17
716.28	289.32
716.61	288.53
716.95	287.70
717.28	286.99
717.61	286.24
717.94	285.46
718.28	284.65
718.61	283.95
718.94	283.24
719.27	282.59
719.61	281.95
719.94	281.32
720.27	280.62
720.60	279.94
720.94	279.36
721.27	278.76
721.60	278.17
721.93	277.59
722.27	277.05
722.60	276.52
722.93	275.95
723.26	275.41
723.59	274.83
723.93	274.31
724.26	273.76
724.59	273.16
724.92	272.65
725.25	272.17
725.59	271.60
725.92	271.08
726.25	270.55
726.58	270.07
726.91	269.52
727.24	269.04
727.57	268.59
727.91	268.02
728.24	267.55
728.57	267.05
728.90	266.57
729.23	266.09
729.56	265.66
729.89	265.19
730.22	264.66
730.55	264.18
730.89	263.67
731.22	263.16
731.55	262.74
731.88	262.30
732.21	261.89
732.54	261.49
732.87	261.04
733.20	260.63
733.53	260.23
733.86	259.87
734.19	259.45
734.52	259.08
734.85	258.78
735.18	258.37
735.51	257.99
735.84	257.63
736.17	257.30
736.50	256.90
736.83	256.70
737.16	256.37
737.49	256.03
737.82	255.71
738.15	255.40
738.48	255.05
738.81	254.73
739.14	254.38
739.47	254.05
739.80	253.77
740.13	253.48
740.46	253.14
740.79	252.81
741.12	252.51
741.45	252.15
741.78	251.78
742.11	251.48
742.44	251.19
742.77	250.89
743.10	250.56
743.43	250.29
743.75	249.87
744.08	249.73
744.41	249.49
744.74	249.18
745.07	248.88
745.40	248.61
745.73	248.38
746.06	248.09
746.39	247.82
746.71	247.54
747.04	247.22
747.37	246.96
747.70	246.73
748.03	246.45
748.36	246.25
748.68	246.05
749.01	245.81
749.34	245.61
749.67	245.41
750.00	245.23
750.33	245.08
750.65	244.89
750.98	244.54
751.31	244.34
751.64	244.15
751.97	244.03
752.29	243.83
752.62	243.59
752.95	243.43
753.28	243.23
753.60	243.03
753.93	242.90
754.26	242.75
754.59	242.51
754.91	242.33
755.24	242.12
755.57	241.92
755.90	241.74
756.22	241.50
756.55	241.29
756.88	241.07
757.20	240.78
757.53	240.57
757.86	240.45
758.19	240.28
758.51	240.15
758.84	239.91
759.17	239.76
759.49	239.59
759.82	239.45
760.15	239.32
760.47	239.17
760.80	239.00
761.13	238.85
761.45	238.71
761.78	238.60
762.11	238.47
762.43	238.36
762.76	238.22
763.08	238.12
763.41	238.01
763.74	237.86
764.06	237.76
764.39	237.64
764.71	237.46
765.04	237.29
765.37	237.13
765.69	237.04
766.02	236.89
766.34	236.81
766.67	236.66
767.00	236.53
767.32	236.46
767.65	236.39
767.97	236.24
768.30	236.11
768.62	235.98
768.95	235.87
769.27	235.73
769.60	235.63
769.92	235.50
770.25	235.36
770.57	235.23
770.90	235.15
771.22	235.03
771.55	234.93
771.87	234.90
772.20	234.82
772.52	234.75
772.85	234.81
773.17	234.72
773.50	234.65
773.82	234.55
774.15	234.40
774.47	234.27
774.80	234.18
775.12	234.15
775.45	234.07
775.77	233.99
776.09	233.91
776.42	233.85
776.74	233.82
777.07	233.74
777.39	233.66
777.72	233.58
778.04	233.57
778.36	233.51
778.69	233.40
779.01	233.35
779.33	233.25
779.66	233.05
779.98	232.97
780.31	232.91
780.63	232.89
780.95	232.89
781.28	232.86
781.60	232.80
781.92	232.74
782.25	232.68
782.57	232.62
782.89	232.55
783.22	232.48
783.54	232.40
783.86	232.36
784.19	232.32
784.51	232.28
784.83	232.16
785.16	232.11
785.48	232.06
785.80	232.01
786.12	231.95
786.45	231.90
786.77	231.87
787.09	231.82
