SpectraSuite Data File
++++++++++++++++++++++++++++++++++++
Date: Fri Feb 01 17:30:03 EST 2013
User: group
Dark Spectrum Present: No
Reference Spectrum Present: No
Number of Sampled Component Spectra: 1
Spectrometers: USB2E7196
Integration Time (usec): 35000 (USB2E7196)
Spectra Averaged: 100 (USB2E7196)
Boxcar Smoothing: 10 (USB2E7196)
Correct for Electrical Dark: No (USB2E7196)
Strobe/Lamp Enabled: No (USB2E7196)
Correct for Detector Non-linearity: No (USB2E7196)
Correct for Stray Light: No (USB2E7196)
Number of Pixels in Processed Spectrum: 2048
>>>>>Begin Processed Spectral Data<<<<<
339.09	0.00
339.48	213.10
339.86	214.46
340.24	215.56
340.63	217.43
341.01	220.31
341.39	220.32
341.78	220.93
342.16	222.40
342.54	222.44
342.93	211.50
343.31	222.19
343.69	222.73
344.07	223.21
344.46	223.63
344.84	224.00
345.22	224.25
345.60	224.45
345.99	224.66
346.37	224.81
346.75	224.92
347.13	224.95
347.52	225.02
347.90	225.09
348.28	225.11
348.66	225.16
349.05	225.14
349.43	225.18
349.81	225.23
350.19	225.26
350.57	225.30
350.96	225.38
351.34	225.49
351.72	225.57
352.10	225.66
352.48	225.76
352.87	225.83
353.25	225.88
353.63	225.97
354.01	226.01
354.39	226.08
354.77	226.18
355.15	226.32
355.54	226.38
355.92	226.41
356.30	226.48
356.68	226.61
357.06	226.68
357.44	226.74
357.82	226.78
358.20	226.89
358.58	226.95
358.97	227.02
359.35	227.06
359.73	227.12
360.11	227.16
360.49	227.21
360.87	227.23
361.25	227.30
361.63	227.39
362.01	227.46
362.39	227.46
362.77	227.48
363.15	227.47
363.53	227.47
363.91	227.51
364.29	227.49
364.67	227.38
365.05	227.41
365.43	227.43
365.81	227.47
366.19	227.49
366.57	227.53
366.95	227.49
367.33	227.45
367.71	227.45
368.09	227.47
368.47	227.44
368.85	227.42
369.23	227.39
369.61	227.30
369.99	227.29
370.37	227.27
370.75	227.28
371.13	227.27
371.51	227.23
371.89	227.21
372.27	227.19
372.65	227.15
373.03	227.08
373.41	227.00
373.78	226.93
374.16	226.81
374.54	226.72
374.92	226.68
375.30	226.65
375.68	226.58
376.06	226.49
376.44	226.46
376.82	226.39
377.19	226.34
377.57	226.29
377.95	226.20
378.33	226.14
378.71	226.03
379.09	225.94
379.47	225.88
379.84	225.75
380.22	225.69
380.60	225.63
380.98	225.57
381.36	225.53
381.73	225.47
382.11	225.41
382.49	225.35
382.87	225.28
383.25	225.19
383.62	225.26
384.00	225.20
384.38	225.15
384.76	225.12
385.13	225.08
385.51	225.02
385.89	224.98
386.27	224.94
386.64	224.93
387.02	224.88
387.40	224.83
387.78	224.82
388.15	224.79
388.53	224.73
388.91	224.71
389.29	224.67
389.66	224.67
390.04	224.66
390.42	224.67
390.79	224.66
391.17	224.65
391.55	224.52
391.92	224.51
392.30	224.52
392.68	224.52
393.05	224.53
393.43	224.56
393.81	224.55
394.18	224.57
394.56	224.58
394.94	224.62
395.31	224.62
395.69	224.72
396.06	224.76
396.44	224.81
396.82	224.83
397.19	224.89
397.57	224.90
397.95	224.97
398.32	224.97
398.70	225.04
399.07	225.11
399.45	225.17
399.82	225.24
400.20	225.28
400.58	225.33
400.95	225.33
401.33	225.45
401.70	225.60
402.08	225.67
402.45	225.71
402.83	225.81
403.20	225.90
403.58	225.95
403.95	226.09
404.33	226.19
404.71	226.33
405.08	226.51
405.46	226.66
405.83	226.80
406.21	226.97
406.58	227.13
406.96	227.29
407.33	227.47
407.70	227.67
408.08	227.91
408.45	228.14
408.83	228.38
409.20	228.59
409.58	228.72
409.95	229.01
410.33	229.28
410.70	229.54
411.08	229.87
411.45	230.19
411.82	230.49
412.20	230.89
412.57	231.29
412.95	231.57
413.32	231.96
413.69	232.38
414.07	232.77
414.44	233.27
414.82	233.74
415.19	234.28
415.56	234.83
415.94	235.43
416.31	236.06
416.68	236.74
417.06	237.48
417.43	238.21
417.81	239.00
418.18	239.83
418.55	240.69
418.93	241.60
419.30	242.56
419.67	243.53
420.04	244.51
420.42	245.54
420.79	246.81
421.16	248.01
421.54	249.25
421.91	250.50
422.28	251.77
422.66	253.15
423.03	254.49
423.40	255.85
423.77	257.30
424.15	258.75
424.52	260.28
424.89	261.94
425.26	263.54
425.64	265.03
426.01	266.65
426.38	268.38
426.75	270.09
427.13	271.84
427.50	273.72
427.87	275.66
428.24	277.58
428.61	279.35
428.99	281.40
429.36	283.54
429.73	285.70
430.10	287.79
430.47	289.95
430.85	292.12
431.22	294.46
431.59	296.91
431.96	299.31
432.33	301.86
432.70	304.33
433.08	307.25
433.45	309.99
433.82	312.70
434.19	315.74
434.56	318.67
434.93	321.44
435.30	324.17
435.68	327.16
436.05	330.12
436.42	333.05
436.79	335.64
437.16	338.45
437.53	341.43
437.90	344.34
438.27	347.20
438.64	350.18
439.01	352.92
439.38	355.29
439.75	357.52
440.13	360.15
440.50	362.58
440.87	364.49
441.24	366.58
441.61	368.83
441.98	370.34
442.35	372.18
442.72	374.10
443.09	376.03
443.46	377.11
443.83	377.76
444.20	378.28
444.57	379.21
444.94	379.58
445.31	379.95
445.68	380.42
446.05	380.53
446.42	380.15
446.79	379.73
447.16	379.32
447.53	379.00
447.90	377.84
448.27	376.67
448.64	375.08
449.01	373.87
449.37	371.94
449.74	370.00
450.11	367.78
450.48	365.25
450.85	362.62
451.22	360.42
451.59	358.35
451.96	356.36
452.33	353.64
452.70	351.21
453.07	348.31
453.43	345.25
453.80	342.45
454.17	339.69
454.54	337.10
454.91	334.26
455.28	331.52
455.65	328.93
456.02	326.38
456.38	324.12
456.75	321.36
457.12	318.98
457.49	316.66
457.86	314.36
458.23	312.45
458.59	310.32
458.96	308.12
459.33	306.19
459.70	304.24
460.07	302.68
460.43	300.87
460.80	299.14
461.17	297.65
461.54	296.06
461.91	294.58
462.27	293.03
462.64	291.71
463.01	290.29
463.38	288.92
463.74	287.52
464.11	286.31
464.48	285.23
464.85	284.08
465.21	283.19
465.58	282.25
465.95	281.12
466.32	280.17
466.68	279.21
467.05	278.24
467.42	277.35
467.78	276.38
468.15	275.45
468.52	274.80
468.88	273.93
469.25	273.10
469.62	272.46
469.98	271.77
470.35	271.12
470.72	270.50
471.08	269.82
471.45	269.21
471.82	268.67
472.18	268.05
472.55	267.58
472.92	267.03
473.28	266.56
473.65	266.09
474.02	265.62
474.38	265.26
474.75	264.98
475.11	264.59
475.48	264.33
475.85	264.05
476.21	263.77
476.58	263.59
476.94	263.42
477.31	263.19
477.67	262.99
478.04	262.86
478.41	262.78
478.77	262.80
479.14	262.74
479.50	262.76
479.87	262.82
480.23	262.90
480.60	262.95
480.96	262.98
481.33	263.18
481.69	263.37
482.06	263.55
482.42	263.70
482.79	263.95
483.15	264.23
483.52	264.65
483.88	264.99
484.25	265.34
484.61	265.77
484.98	266.26
485.34	266.82
485.71	267.39
486.07	267.97
486.44	268.54
486.80	269.23
487.17	269.96
487.53	270.76
487.90	271.59
488.26	272.53
488.62	273.53
488.99	274.48
489.35	275.53
489.72	276.65
490.08	277.84
490.44	279.06
490.81	280.39
491.17	281.73
491.54	283.16
491.90	284.68
492.26	286.29
492.63	288.00
492.99	289.79
493.36	291.67
493.72	293.72
494.08	295.80
494.45	298.02
494.81	300.37
495.17	302.77
495.54	305.35
495.90	308.00
496.26	310.79
496.63	313.70
496.99	316.76
497.35	319.98
497.72	323.33
498.08	326.82
498.44	330.49
498.80	334.39
499.17	338.39
499.53	342.56
499.89	346.92
500.26	351.39
500.62	355.99
500.98	360.97
501.34	365.94
501.71	371.22
502.07	376.59
502.43	382.12
502.79	387.90
503.16	393.85
503.52	400.03
503.88	406.33
504.24	412.86
504.60	419.65
504.97	426.67
505.33	433.90
505.69	441.52
506.05	449.13
506.41	456.92
506.78	464.95
507.14	473.18
507.50	481.72
507.86	490.50
508.22	499.52
508.59	508.47
508.95	517.84
509.31	527.44
509.67	537.39
510.03	547.47
510.39	557.83
510.75	568.40
511.12	579.03
511.48	590.04
511.84	601.21
512.20	612.53
512.56	624.20
512.92	636.03
513.28	648.07
513.64	660.22
514.00	672.60
514.37	685.25
514.73	698.04
515.09	710.73
515.45	723.69
515.81	736.93
516.17	750.59
516.53	764.40
516.89	778.17
517.25	791.84
517.61	805.77
517.97	819.73
518.33	833.72
518.69	848.17
519.05	862.76
519.41	877.42
519.77	892.38
520.13	907.30
520.49	922.30
520.85	937.15
521.21	952.34
521.57	968.01
521.93	983.24
522.29	999.04
522.65	1014.83
523.01	1030.57
523.37	1046.19
523.73	1061.90
524.09	1077.45
524.45	1093.33
524.81	1109.60
525.17	1125.85
525.53	1142.30
525.89	1158.73
526.25	1175.12
526.61	1191.06
526.97	1207.47
527.33	1223.57
527.68	1239.71
528.04	1255.77
528.40	1271.91
528.76	1288.61
529.12	1304.78
529.48	1321.20
529.84	1336.82
530.20	1352.94
530.56	1369.43
530.91	1386.27
531.27	1402.63
531.63	1418.76
531.99	1434.81
532.35	1450.36
532.71	1465.97
533.07	1481.75
533.42	1497.32
533.78	1513.10
534.14	1529.00
534.50	1544.01
534.86	1559.41
535.21	1574.38
535.57	1589.84
535.93	1604.96
536.29	1619.36
536.65	1634.11
537.00	1648.63
537.36	1663.67
537.72	1677.89
538.08	1692.17
538.44	1705.79
538.79	1719.45
539.15	1732.74
539.51	1746.17
539.87	1760.28
540.22	1773.82
540.58	1787.40
540.94	1800.29
541.29	1812.74
541.65	1825.24
542.01	1838.33
542.37	1850.66
542.72	1862.83
543.08	1874.60
543.44	1886.81
543.79	1898.12
544.15	1909.04
544.51	1920.57
544.87	1931.56
545.22	1942.42
545.58	1952.62
545.94	1962.41
546.29	1972.20
546.65	1982.25
547.01	1991.79
547.36	2000.48
547.72	2009.09
548.07	2017.19
548.43	2025.49
548.79	2033.65
549.14	2041.43
549.50	2048.76
549.86	2056.49
550.21	2064.03
550.57	2071.24
550.92	2078.21
551.28	2085.42
551.64	2092.72
551.99	2099.33
552.35	2105.69
552.70	2112.00
553.06	2118.22
553.41	2124.78
553.77	2130.92
554.13	2137.17
554.48	2143.46
554.84	2149.50
555.19	2154.91
555.55	2160.30
555.90	2165.26
556.26	2170.48
556.61	2175.43
556.97	2180.25
557.32	2184.65
557.68	2188.99
558.03	2193.67
558.39	2197.66
558.74	2202.54
559.10	2206.79
559.45	2210.91
559.81	2215.40
560.16	2219.57
560.52	2223.23
560.87	2226.93
561.23	2229.99
561.58	2233.28
561.94	2236.16
562.29	2238.66
562.64	2241.95
563.00	2244.87
563.35	2248.70
563.71	2252.14
564.06	2255.66
564.42	2258.92
564.77	2261.99
565.12	2264.93
565.48	2267.41
565.83	2269.68
566.19	2271.54
566.54	2272.71
566.89	2274.20
567.25	2275.41
567.60	2277.05
567.96	2279.25
568.31	2280.67
568.66	2282.39
569.02	2283.42
569.37	2284.25
569.72	2285.61
570.08	2286.23
570.43	2286.66
570.78	2286.57
571.14	2285.65
571.49	2284.66
571.84	2284.45
572.20	2283.84
572.55	2283.02
572.90	2281.66
573.26	2280.74
573.61	2279.20
573.96	2278.03
574.31	2275.69
574.67	2273.09
575.02	2270.05
575.37	2266.83
575.72	2263.45
576.08	2260.32
576.43	2257.32
576.78	2254.17
577.13	2251.21
577.49	2248.24
577.84	2245.19
578.19	2241.72
578.54	2238.42
578.90	2234.78
579.25	2229.84
579.60	2225.22
579.95	2220.74
580.30	2216.08
580.66	2211.21
581.01	2206.70
581.36	2202.08
581.71	2198.25
582.06	2194.11
582.42	2190.13
582.77	2185.35
583.12	2181.12
583.47	2176.93
583.82	2172.31
584.17	2167.36
584.53	2162.24
584.88	2156.92
585.23	2151.56
585.58	2146.37
585.93	2141.24
586.28	2136.42
586.63	2131.54
586.98	2126.61
587.34	2121.91
587.69	2117.40
588.04	2112.60
588.39	2107.24
588.74	2100.96
589.09	2095.01
589.44	2088.53
589.79	2082.44
590.14	2076.89
590.49	2070.44
590.84	2064.07
591.19	2058.24
591.54	2051.82
591.89	2044.83
592.25	2038.39
592.60	2031.35
592.95	2024.03
593.30	2016.92
593.65	2009.59
594.00	2002.85
594.35	1995.75
594.70	1987.90
595.05	1981.03
595.40	1973.85
595.75	1966.59
596.10	1960.66
596.45	1954.07
596.80	1948.06
597.15	1941.73
597.50	1935.11
597.85	1928.77
598.19	1922.27
598.54	1915.50
598.89	1909.03
599.24	1903.19
599.59	1896.78
599.94	1890.50
600.29	1884.30
600.64	1877.63
600.99	1870.50
601.34	1863.63
601.69	1856.71
602.04	1850.09
602.39	1842.63
602.74	1835.85
603.08	1829.18
603.43	1822.39
603.78	1815.13
604.13	1807.96
604.48	1800.84
604.83	1793.90
605.18	1787.18
605.53	1779.39
605.87	1771.42
606.22	1764.32
606.57	1756.39
606.92	1748.84
607.27	1741.97
607.62	1735.15
607.96	1728.12
608.31	1721.69
608.66	1714.30
609.01	1706.90
609.36	1699.40
609.70	1691.43
610.05	1683.51
610.40	1675.86
610.75	1667.61
611.10	1659.95
611.44	1651.39
611.79	1643.21
612.14	1634.53
612.49	1625.24
612.83	1616.78
613.18	1608.35
613.53	1600.08
613.88	1591.51
614.22	1583.23
614.57	1574.37
614.92	1566.30
615.27	1558.66
615.61	1550.23
615.96	1542.05
616.31	1534.36
616.65	1526.75
617.00	1519.33
617.35	1511.47
617.70	1503.01
618.04	1494.50
618.39	1486.12
618.74	1478.66
619.08	1470.26
619.43	1462.57
619.78	1455.53
620.12	1448.23
620.47	1440.69
620.82	1432.43
621.16	1424.83
621.51	1417.11
621.85	1409.37
622.20	1400.77
622.55	1392.25
622.89	1384.25
623.24	1376.45
623.59	1368.86
623.93	1361.36
624.28	1353.92
624.62	1346.41
624.97	1339.16
625.32	1332.21
625.66	1325.08
626.01	1317.75
626.35	1310.47
626.70	1302.60
627.04	1294.84
627.39	1286.96
627.73	1279.49
628.08	1272.61
628.43	1265.36
628.77	1258.07
629.12	1250.51
629.46	1243.27
629.81	1235.71
630.15	1228.27
630.50	1220.77
630.84	1212.55
631.19	1204.44
631.53	1196.64
631.88	1188.87
632.22	1181.24
632.57	1173.76
632.91	1166.16
633.26	1158.69
633.60	1151.01
633.95	1143.65
634.29	1136.45
634.64	1129.77
634.98	1122.34
635.32	1115.04
635.67	1108.19
636.01	1101.40
636.36	1094.58
636.70	1087.93
637.05	1081.36
637.39	1074.95
637.73	1068.40
638.08	1062.43
638.42	1056.43
638.77	1050.07
639.11	1043.56
639.45	1037.03
639.80	1030.46
640.14	1024.00
640.49	1017.38
640.83	1011.05
641.17	1004.97
641.52	998.67
641.86	992.18
642.20	986.30
642.55	979.84
642.89	973.51
643.23	966.80
643.58	960.99
643.92	954.78
644.26	948.74
644.61	942.63
644.95	936.62
645.29	930.03
645.64	923.36
645.98	916.97
646.32	910.83
646.66	904.84
647.01	898.98
647.35	893.34
647.69	887.46
648.04	881.87
648.38	875.98
648.72	870.06
649.06	863.98
649.41	858.01
649.75	852.21
650.09	846.27
650.43	840.50
650.78	834.31
651.12	828.31
651.46	822.51
651.80	816.78
652.14	811.31
652.49	805.93
652.83	800.65
653.17	795.04
653.51	789.48
653.85	783.95
654.20	778.28
654.54	772.26
654.88	766.39
655.22	760.49
655.56	754.76
655.90	749.23
656.25	743.95
656.59	738.66
656.93	733.45
657.27	728.25
657.61	722.85
657.95	717.71
658.29	712.61
658.64	707.32
658.98	702.01
659.32	696.57
659.66	691.35
660.00	686.06
660.34	681.00
660.68	676.03
661.02	670.98
661.36	666.24
661.70	661.67
662.05	657.37
662.39	653.08
662.73	648.61
663.07	644.17
663.41	639.73
663.75	635.25
664.09	630.65
664.43	626.19
664.77	622.09
665.11	617.83
665.45	613.61
665.79	609.54
666.13	605.41
666.47	601.26
666.81	597.14
667.15	593.05
667.49	589.15
667.83	585.28
668.17	581.34
668.51	577.31
668.85	573.28
669.19	569.42
669.53	565.63
669.87	561.78
670.21	558.07
670.55	554.38
670.89	550.91
671.23	547.53
671.57	544.00
671.91	540.45
672.25	536.92
672.58	533.49
672.92	530.02
673.26	526.79
673.60	523.64
673.94	520.43
674.28	517.48
674.62	514.56
674.96	511.45
675.30	508.56
675.64	505.66
675.97	502.83
676.31	499.98
676.65	497.00
676.99	494.31
677.33	491.41
677.67	488.57
678.01	485.52
678.34	482.51
678.68	479.56
679.02	476.74
679.36	473.96
679.70	471.17
680.04	468.43
680.37	465.59
680.71	462.70
681.05	460.15
681.39	457.38
681.73	454.65
682.06	452.12
682.40	449.59
682.74	446.95
683.08	444.35
683.42	441.68
683.75	439.18
684.09	436.54
684.43	434.00
684.77	431.54
685.10	429.12
685.44	426.77
685.78	424.50
686.12	422.16
686.45	419.84
686.79	417.52
687.13	415.26
687.46	413.05
687.80	410.88
688.14	408.57
688.48	406.52
688.81	404.26
689.15	402.06
689.49	399.80
689.82	397.70
690.16	395.58
690.50	393.55
690.83	391.49
691.17	389.47
691.51	387.54
691.84	385.64
692.18	383.74
692.52	381.74
692.85	379.77
693.19	377.88
693.52	376.02
693.86	374.17
694.20	372.33
694.53	370.48
694.87	368.61
695.21	366.75
695.54	364.84
695.88	363.09
696.21	361.37
696.55	359.72
696.88	358.00
697.22	356.33
697.56	354.68
697.89	353.02
698.23	351.43
698.56	349.78
698.90	348.17
699.23	346.50
699.57	344.92
699.90	343.35
700.24	341.79
700.58	340.25
700.91	338.74
701.25	337.27
701.58	335.89
701.92	334.53
702.25	333.20
702.59	331.87
702.92	330.52
703.26	329.16
703.59	327.82
703.93	326.64
704.26	325.42
704.60	324.13
704.93	322.87
705.26	321.59
705.60	320.39
705.93	319.22
706.27	318.18
706.60	317.14
706.94	316.06
707.27	314.92
707.61	313.84
707.94	312.81
708.27	311.73
708.61	310.63
708.94	309.63
709.28	308.61
709.61	307.60
709.94	306.66
710.28	305.60
710.61	304.61
710.95	303.52
711.28	302.54
711.61	301.56
711.95	300.64
712.28	299.70
712.61	298.76
712.95	297.79
713.28	296.85
713.61	295.91
713.95	294.98
714.28	294.12
714.61	293.30
714.95	292.42
715.28	291.56
715.61	290.67
715.95	289.79
716.28	288.94
716.61	288.12
716.95	287.27
717.28	286.56
717.61	285.77
717.94	285.03
718.28	284.22
718.61	283.52
718.94	282.81
719.27	282.13
719.61	281.45
719.94	280.81
720.27	280.09
720.60	279.45
720.94	278.83
721.27	278.23
721.60	277.61
721.93	277.05
722.27	276.49
722.60	275.95
722.93	275.37
723.26	274.82
723.59	274.25
723.93	273.65
724.26	273.08
724.59	272.50
724.92	271.95
725.25	271.45
725.59	270.93
725.92	270.39
726.25	269.91
726.58	269.39
726.91	268.88
727.24	268.39
727.57	267.86
727.91	267.37
728.24	266.86
728.57	266.32
728.90	265.84
729.23	265.33
729.56	264.87
729.89	264.34
730.22	263.82
730.55	263.32
730.89	262.90
731.22	262.46
731.55	262.02
731.88	261.58
732.21	261.11
732.54	260.62
732.87	260.19
733.20	259.75
733.53	259.39
733.86	258.97
734.19	258.59
734.52	258.19
734.85	257.85
735.18	257.44
735.51	257.08
735.84	256.64
736.17	256.27
736.50	255.83
736.83	255.62
737.16	255.30
737.49	254.96
737.82	254.57
738.15	254.21
738.48	253.86
738.81	253.52
739.14	253.23
739.47	252.91
739.80	252.58
740.13	252.26
740.46	251.91
740.79	251.58
741.12	251.24
741.45	250.96
741.78	250.59
742.11	250.33
742.44	250.00
742.77	249.72
743.10	249.42
743.43	249.15
743.75	248.75
744.08	248.60
744.41	248.32
744.74	248.08
745.07	247.78
745.40	247.57
745.73	247.33
746.06	247.05
746.39	246.78
746.71	246.51
747.04	246.27
747.37	245.98
747.70	245.73
748.03	245.51
748.36	245.31
748.68	245.08
749.01	244.82
749.34	244.60
749.67	244.39
750.00	244.19
750.33	243.98
750.65	243.76
750.98	243.40
751.31	243.20
751.64	242.95
751.97	242.86
752.29	242.63
752.62	242.37
752.95	242.16
753.28	241.98
753.60	241.80
753.93	241.63
754.26	241.45
754.59	241.27
754.91	241.03
755.24	240.81
755.57	240.61
755.90	240.40
756.22	240.21
756.55	239.99
756.88	239.77
757.20	239.59
757.53	239.40
757.86	239.23
758.19	239.08
758.51	238.93
758.84	238.67
759.17	238.45
759.49	238.32
759.82	238.20
760.15	238.02
760.47	237.85
760.80	237.64
761.13	237.55
761.45	237.38
761.78	237.23
762.11	237.09
762.43	236.94
762.76	236.82
763.08	236.70
763.41	236.58
763.74	236.46
764.06	236.31
764.39	236.16
764.71	236.03
765.04	235.87
765.37	235.70
765.69	235.54
766.02	235.43
766.34	235.26
766.67	235.05
767.00	234.94
767.32	234.86
767.65	234.83
767.97	234.65
768.30	234.51
768.62	234.40
768.95	234.26
769.27	234.09
769.60	233.96
769.92	233.83
770.25	233.68
770.57	233.54
770.90	233.41
771.22	233.28
771.55	233.15
771.87	233.03
772.20	232.96
772.52	232.97
772.85	232.97
773.17	232.87
773.50	232.79
773.82	232.69
774.15	232.53
774.47	232.36
774.80	232.26
775.12	232.17
775.45	232.06
775.77	231.97
776.09	231.91
776.42	231.84
776.74	231.78
777.07	231.73
777.39	231.68
777.72	231.63
778.04	231.60
778.36	231.56
778.69	231.50
779.01	231.43
779.33	231.26
779.66	231.07
779.98	231.02
780.31	230.96
780.63	230.92
780.95	230.91
781.28	230.85
781.60	230.81
781.92	230.74
782.25	230.70
782.57	230.65
782.89	230.59
783.22	230.52
783.54	230.44
783.86	230.34
784.19	230.26
784.51	230.21
784.83	230.10
785.16	229.99
785.48	229.91
785.80	229.83
786.12	229.82
786.45	229.80
786.77	229.77
787.09	229.74
