SpectraSuite Data File
++++++++++++++++++++++++++++++++++++
Date: Fri Feb 01 15:11:56 EST 2013
User: group
Dark Spectrum Present: No
Reference Spectrum Present: No
Number of Sampled Component Spectra: 1
Spectrometers: USB2E7196
Integration Time (usec): 35000 (USB2E7196)
Spectra Averaged: 100 (USB2E7196)
Boxcar Smoothing: 10 (USB2E7196)
Correct for Electrical Dark: No (USB2E7196)
Strobe/Lamp Enabled: No (USB2E7196)
Correct for Detector Non-linearity: No (USB2E7196)
Correct for Stray Light: No (USB2E7196)
Number of Pixels in Processed Spectrum: 2048
>>>>>Begin Processed Spectral Data<<<<<
339.09	0.00
339.48	215.03
339.86	216.71
340.24	217.96
340.63	219.34
341.01	222.26
341.39	221.75
341.78	223.28
342.16	224.36
342.54	224.74
342.93	213.46
343.31	224.24
343.69	224.77
344.07	225.21
344.46	225.63
344.84	226.01
345.22	226.24
345.60	226.48
345.99	226.69
346.37	226.82
346.75	226.93
347.13	227.01
347.52	227.05
347.90	227.10
348.28	227.15
348.66	227.15
349.05	227.13
349.43	227.15
349.81	227.18
350.19	227.25
350.57	227.30
350.96	227.38
351.34	227.47
351.72	227.57
352.10	227.69
352.48	227.77
352.87	227.81
353.25	227.88
353.63	227.93
354.01	228.01
354.39	228.07
354.77	228.15
355.15	228.25
355.54	228.36
355.92	228.39
356.30	228.43
356.68	228.58
357.06	228.65
357.44	228.72
357.82	228.78
358.20	228.83
358.58	228.86
358.97	228.91
359.35	228.98
359.73	229.04
360.11	229.09
360.49	229.14
360.87	229.19
361.25	229.22
361.63	229.31
362.01	229.34
362.39	229.36
362.77	229.41
363.15	229.44
363.53	229.47
363.91	229.49
364.29	229.52
364.67	229.40
365.05	229.44
365.43	229.45
365.81	229.46
366.19	229.55
366.57	229.61
366.95	229.60
367.33	229.57
367.71	229.58
368.09	229.55
368.47	229.52
368.85	229.49
369.23	229.48
369.61	229.43
369.99	229.40
370.37	229.38
370.75	229.37
371.13	229.32
371.51	229.23
371.89	229.20
372.27	229.16
372.65	229.16
373.03	229.08
373.41	229.03
373.78	228.96
374.16	228.82
374.54	228.74
374.92	228.63
375.30	228.55
375.68	228.44
376.06	228.39
376.44	228.28
376.82	228.22
377.19	228.15
377.57	228.09
377.95	228.01
378.33	227.94
378.71	227.81
379.09	227.68
379.47	227.62
379.84	227.53
380.22	227.46
380.60	227.36
380.98	227.28
381.36	227.18
381.73	227.11
382.11	227.06
382.49	226.94
382.87	226.89
383.25	226.80
383.62	226.86
384.00	226.80
384.38	226.78
384.76	226.75
385.13	226.73
385.51	226.66
385.89	226.60
386.27	226.56
386.64	226.53
387.02	226.53
387.40	226.46
387.78	226.40
388.15	226.36
388.53	226.28
388.91	226.27
389.29	226.25
389.66	226.24
390.04	226.19
390.42	226.21
390.79	226.20
391.17	226.19
391.55	226.09
391.92	226.09
392.30	226.10
392.68	226.08
393.05	226.08
393.43	226.11
393.81	226.12
394.18	226.13
394.56	226.14
394.94	226.18
395.31	226.21
395.69	226.26
396.06	226.32
396.44	226.40
396.82	226.45
397.19	226.55
397.57	226.61
397.95	226.69
398.32	226.72
398.70	226.84
399.07	226.97
399.45	227.05
399.82	227.09
400.20	227.14
400.58	227.20
400.95	227.25
401.33	227.36
401.70	227.50
402.08	227.63
402.45	227.77
402.83	227.91
403.20	228.08
403.58	228.21
403.95	228.36
404.33	228.52
404.71	228.65
405.08	228.84
405.46	228.93
405.83	229.08
406.21	229.26
406.58	229.41
406.96	229.54
407.33	229.73
407.70	229.96
408.08	230.30
408.45	230.55
408.83	230.81
409.20	230.98
409.58	231.22
409.95	231.45
410.33	231.70
410.70	231.95
411.08	232.21
411.45	232.51
411.82	232.77
412.20	233.16
412.57	233.59
412.95	233.91
413.32	234.35
413.69	234.81
414.07	235.26
414.44	235.74
414.82	236.21
415.19	236.75
415.56	237.27
415.94	237.79
416.31	238.42
416.68	239.03
417.06	239.76
417.43	240.42
417.81	241.19
418.18	241.98
418.55	242.81
418.93	243.69
419.30	244.60
419.67	245.55
420.04	246.47
420.42	247.46
420.79	248.60
421.16	249.75
421.54	250.92
421.91	252.15
422.28	253.42
422.66	254.76
423.03	256.08
423.40	257.44
423.77	258.85
424.15	260.30
424.52	261.78
424.89	263.41
425.26	264.94
425.64	266.39
426.01	267.98
426.38	269.65
426.75	271.33
427.13	273.05
427.50	274.89
427.87	276.76
428.24	278.62
428.61	280.38
428.99	282.33
429.36	284.41
429.73	286.47
430.10	288.47
430.47	290.54
430.85	292.64
431.22	294.87
431.59	297.23
431.96	299.46
432.33	301.98
432.70	304.40
433.08	307.24
433.45	309.89
433.82	312.51
434.19	315.40
434.56	318.25
434.93	320.92
435.30	323.53
435.68	326.44
436.05	329.27
436.42	332.05
436.79	334.55
437.16	337.23
437.53	340.05
437.90	342.87
438.27	345.63
438.64	348.49
439.01	351.09
439.38	353.37
439.75	355.57
440.13	358.06
440.50	360.36
440.87	362.21
441.24	364.16
441.61	366.33
441.98	367.83
442.35	369.61
442.72	371.47
443.09	373.31
443.46	374.31
443.83	374.92
444.20	375.44
444.57	376.25
444.94	376.54
445.31	376.89
445.68	377.23
446.05	377.29
446.42	376.91
446.79	376.52
447.16	376.08
447.53	375.77
447.90	374.58
448.27	373.42
448.64	371.81
449.01	370.70
449.37	368.72
449.74	366.79
450.11	364.53
450.48	362.05
450.85	359.45
451.22	357.27
451.59	355.23
451.96	353.30
452.33	350.71
452.70	348.36
453.07	345.51
453.43	342.61
453.80	339.87
454.17	337.17
454.54	334.61
454.91	331.82
455.28	329.12
455.65	326.62
456.02	324.14
456.38	321.97
456.75	319.28
457.12	317.02
457.49	314.78
457.86	312.58
458.23	310.68
458.59	308.68
458.96	306.55
459.33	304.68
459.70	302.82
460.07	301.33
460.43	299.60
460.80	297.98
461.17	296.57
461.54	295.04
461.91	293.58
462.27	292.11
462.64	290.86
463.01	289.48
463.38	288.19
463.74	286.83
464.11	285.72
464.48	284.68
464.85	283.55
465.21	282.73
465.58	281.83
465.95	280.75
466.32	279.80
466.68	278.93
467.05	278.04
467.42	277.13
467.78	276.17
468.15	275.29
468.52	274.62
468.88	273.72
469.25	272.93
469.62	272.35
469.98	271.69
470.35	271.08
470.72	270.49
471.08	269.80
471.45	269.24
471.82	268.67
472.18	268.08
472.55	267.62
472.92	267.06
473.28	266.58
473.65	266.18
474.02	265.79
474.38	265.44
474.75	265.12
475.11	264.76
475.48	264.51
475.85	264.30
476.21	264.04
476.58	263.87
476.94	263.73
477.31	263.50
477.67	263.30
478.04	263.18
478.41	263.13
478.77	263.19
479.14	263.13
479.50	263.12
479.87	263.22
480.23	263.28
480.60	263.35
480.96	263.45
481.33	263.63
481.69	263.80
482.06	263.98
482.42	264.16
482.79	264.42
483.15	264.74
483.52	265.11
483.88	265.49
484.25	265.88
484.61	266.27
484.98	266.72
485.34	267.28
485.71	267.87
486.07	268.45
486.44	269.00
486.80	269.69
487.17	270.44
487.53	271.22
487.90	272.11
488.26	273.09
488.62	274.09
488.99	275.05
489.35	276.12
489.72	277.22
490.08	278.45
490.44	279.69
490.81	281.01
491.17	282.34
491.54	283.78
491.90	285.30
492.26	286.96
492.63	288.71
492.99	290.54
493.36	292.44
493.72	294.46
494.08	296.54
494.45	298.82
494.81	301.16
495.17	303.57
495.54	306.05
495.90	308.67
496.26	311.42
496.63	314.35
496.99	317.39
497.35	320.64
497.72	323.98
498.08	327.50
498.44	331.17
498.80	335.08
499.17	339.13
499.53	343.28
499.89	347.65
500.26	352.15
500.62	356.75
500.98	361.66
501.34	366.72
501.71	372.03
502.07	377.43
502.43	383.03
502.79	388.84
503.16	394.98
503.52	401.26
503.88	407.70
504.24	414.33
504.60	421.25
504.97	428.34
505.33	435.65
505.69	443.34
506.05	451.05
506.41	458.96
506.78	467.12
507.14	475.55
507.50	484.24
507.86	493.16
508.22	502.33
508.59	511.53
508.95	521.16
509.31	531.01
509.67	541.04
510.03	551.29
510.39	561.82
510.75	572.61
511.12	583.55
511.48	594.77
511.84	606.21
512.20	617.68
512.56	629.69
512.92	641.87
513.28	654.23
513.64	666.77
514.00	679.43
514.37	692.34
514.73	705.42
515.09	718.50
515.45	731.85
515.81	745.43
516.17	759.48
516.53	773.58
516.89	787.75
517.25	801.98
517.61	816.43
517.97	830.89
518.33	845.29
518.69	860.11
519.05	875.16
519.41	890.43
519.77	905.99
520.13	921.43
520.49	936.82
520.85	952.35
521.21	968.18
521.57	984.53
521.93	1000.37
522.29	1016.88
522.65	1033.23
523.01	1049.57
523.37	1065.68
523.73	1081.87
524.09	1098.00
524.45	1114.40
524.81	1131.12
525.17	1148.11
525.53	1165.14
525.89	1182.11
526.25	1198.85
526.61	1215.30
526.97	1232.11
527.33	1248.74
527.68	1265.49
528.04	1282.06
528.40	1298.70
528.76	1315.81
529.12	1332.47
529.48	1349.37
529.84	1365.40
530.20	1382.12
530.56	1399.15
530.91	1416.64
531.27	1433.52
531.63	1450.13
531.99	1466.73
532.35	1482.70
532.71	1498.61
533.07	1514.94
533.42	1530.92
533.78	1547.12
534.14	1563.47
534.50	1578.83
534.86	1594.72
535.21	1609.89
535.57	1625.90
535.93	1641.40
536.29	1656.23
536.65	1671.34
537.00	1686.24
537.36	1701.62
537.72	1716.09
538.08	1730.60
538.44	1744.55
538.79	1758.53
539.15	1772.32
539.51	1786.20
539.87	1800.67
540.22	1814.51
540.58	1828.39
540.94	1841.82
541.29	1854.84
541.65	1867.63
542.01	1881.03
542.37	1893.24
542.72	1905.71
543.08	1917.59
543.44	1930.11
543.79	1941.41
544.15	1952.51
544.51	1964.31
544.87	1975.30
545.22	1986.12
545.58	1996.41
545.94	2006.15
546.29	2015.99
546.65	2025.76
547.01	2035.00
547.36	2043.76
547.72	2052.23
548.07	2060.00
548.43	2068.19
548.79	2076.28
549.14	2083.79
549.50	2091.08
549.86	2099.09
550.21	2106.41
550.57	2113.65
550.92	2120.15
551.28	2127.22
551.64	2134.25
551.99	2140.52
552.35	2146.82
552.70	2152.95
553.06	2158.90
553.41	2165.28
553.77	2171.48
554.13	2177.64
554.48	2183.84
554.84	2189.19
555.19	2194.51
555.55	2199.61
555.90	2204.10
556.26	2208.91
556.61	2213.70
556.97	2217.89
557.32	2221.93
557.68	2226.12
558.03	2230.31
558.39	2234.16
558.74	2238.68
559.10	2242.57
559.45	2246.24
559.81	2250.53
560.16	2254.36
560.52	2257.64
560.87	2261.12
561.23	2263.60
561.58	2266.52
561.94	2268.89
562.29	2271.36
562.64	2273.99
563.00	2276.68
563.35	2280.16
563.71	2283.32
564.06	2286.44
564.42	2289.28
564.77	2291.76
565.12	2293.82
565.48	2295.65
565.83	2297.34
566.19	2298.57
566.54	2299.36
566.89	2300.52
567.25	2300.90
567.60	2302.22
567.96	2303.71
568.31	2304.39
568.66	2305.35
569.02	2305.77
569.37	2306.04
569.72	2306.85
570.08	2306.92
570.43	2306.81
570.78	2306.09
571.14	2304.43
571.49	2303.10
571.84	2302.81
572.20	2301.38
572.55	2300.38
572.90	2298.69
573.26	2297.13
573.61	2295.38
573.96	2293.58
574.31	2290.31
574.67	2287.15
575.02	2283.49
575.37	2280.01
575.72	2275.93
576.08	2272.50
576.43	2269.07
576.78	2265.28
577.13	2262.00
577.49	2258.79
577.84	2255.13
578.19	2251.42
578.54	2247.66
578.90	2243.15
579.25	2237.43
579.60	2232.46
579.95	2227.35
580.30	2222.35
580.66	2217.17
581.01	2212.10
581.36	2206.94
581.71	2202.82
582.06	2198.38
582.42	2193.82
582.77	2188.53
583.12	2184.05
583.47	2179.17
583.82	2174.08
584.17	2168.65
584.53	2163.09
584.88	2157.29
585.23	2151.44
585.58	2145.75
585.93	2140.18
586.28	2135.47
586.63	2130.25
586.98	2125.15
587.34	2120.46
587.69	2115.54
588.04	2110.06
588.39	2104.21
588.74	2097.73
589.09	2091.48
589.44	2084.54
589.79	2078.39
590.14	2072.66
590.49	2065.84
590.84	2059.44
591.19	2053.44
591.54	2046.93
591.89	2039.24
592.25	2032.31
592.60	2024.96
592.95	2017.18
593.30	2009.70
593.65	2002.01
594.00	1995.02
594.35	1987.73
594.70	1979.46
595.05	1972.05
595.40	1964.89
595.75	1957.53
596.10	1951.22
596.45	1944.21
596.80	1937.91
597.15	1931.18
597.50	1923.85
597.85	1917.51
598.19	1910.80
598.54	1903.47
598.89	1896.80
599.24	1891.01
599.59	1884.22
599.94	1878.15
600.29	1871.88
600.64	1865.33
600.99	1857.64
601.34	1850.42
601.69	1843.38
602.04	1836.43
602.39	1829.01
602.74	1822.01
603.08	1815.06
603.43	1808.28
603.78	1801.20
604.13	1793.95
604.48	1786.64
604.83	1779.99
605.18	1772.85
605.53	1764.75
605.87	1756.74
606.22	1749.51
606.57	1741.53
606.92	1734.36
607.27	1727.09
607.62	1720.14
607.96	1712.83
608.31	1706.25
608.66	1698.78
609.01	1691.07
609.36	1683.54
609.70	1675.60
610.05	1667.51
610.40	1659.93
610.75	1651.55
611.10	1643.82
611.44	1635.51
611.79	1627.49
612.14	1618.75
612.49	1609.80
612.83	1601.52
613.18	1593.44
613.53	1585.48
613.88	1576.98
614.22	1568.57
614.57	1560.00
614.92	1551.93
615.27	1544.28
615.61	1536.01
615.96	1528.04
616.31	1520.53
616.65	1513.10
617.00	1505.47
617.35	1497.77
617.70	1489.38
618.04	1480.78
618.39	1472.46
618.74	1464.88
619.08	1456.56
619.43	1449.01
619.78	1442.00
620.12	1434.86
620.47	1427.28
620.82	1419.10
621.16	1411.72
621.51	1404.21
621.85	1396.66
622.20	1388.20
622.55	1379.85
622.89	1372.02
623.24	1364.40
623.59	1357.10
623.93	1349.66
624.28	1342.49
624.62	1334.96
624.97	1327.85
625.32	1321.39
625.66	1314.48
626.01	1307.31
626.35	1299.88
626.70	1292.15
627.04	1284.41
627.39	1276.63
627.73	1269.20
628.08	1262.20
628.43	1254.81
628.77	1247.45
629.12	1239.78
629.46	1232.53
629.81	1225.18
630.15	1218.03
630.50	1210.66
630.84	1202.46
631.19	1194.59
631.53	1187.13
631.88	1179.76
632.22	1172.17
632.57	1164.79
632.91	1157.26
633.26	1149.80
633.60	1142.51
633.95	1135.50
634.29	1128.57
634.64	1121.93
634.98	1114.68
635.32	1107.60
635.67	1101.02
636.01	1094.42
636.36	1087.70
636.70	1081.33
637.05	1074.84
637.39	1068.43
637.73	1061.92
638.08	1056.03
638.42	1050.01
638.77	1043.58
639.11	1036.94
639.45	1030.57
639.80	1023.95
640.14	1017.61
640.49	1011.14
640.83	1004.85
641.17	998.52
641.52	992.24
641.86	985.78
642.20	979.93
642.55	973.71
642.89	967.30
643.23	960.78
643.58	954.97
643.92	948.68
644.26	942.60
644.61	936.50
644.95	930.43
645.29	923.70
645.64	917.03
645.98	910.74
646.32	905.01
646.66	899.03
647.01	893.15
647.35	887.38
647.69	881.52
648.04	875.98
648.38	870.24
648.72	864.21
649.06	858.16
649.41	852.26
649.75	846.20
650.09	840.19
650.43	834.32
650.78	828.15
651.12	822.17
651.46	816.46
651.80	810.71
652.14	805.35
652.49	800.16
652.83	794.89
653.17	789.13
653.51	783.32
653.85	777.88
654.20	772.26
654.54	766.36
654.88	760.76
655.22	754.89
655.56	749.20
655.90	743.73
656.25	738.55
656.59	733.26
656.93	728.24
657.27	723.15
657.61	717.79
657.95	712.77
658.29	707.83
658.64	702.60
658.98	697.30
659.32	691.89
659.66	686.63
660.00	681.39
660.34	676.51
660.68	671.59
661.02	666.61
661.36	661.93
661.70	657.35
662.05	652.94
662.39	648.64
662.73	644.17
663.07	639.87
663.41	635.38
663.75	630.84
664.09	626.23
664.43	621.87
664.77	617.80
665.11	613.56
665.45	609.40
665.79	605.37
666.13	601.33
666.47	597.25
666.81	593.12
667.15	588.99
667.49	585.09
667.83	581.37
668.17	577.45
668.51	573.39
668.85	569.44
669.19	565.60
669.53	561.79
669.87	557.94
670.21	554.18
670.55	550.55
670.89	547.20
671.23	543.82
671.57	540.30
671.91	536.76
672.25	533.29
672.58	529.84
672.92	526.44
673.26	523.24
673.60	520.15
673.94	517.06
674.28	514.20
674.62	511.23
674.96	508.07
675.30	505.14
675.64	502.20
675.97	499.47
676.31	496.59
676.65	493.63
676.99	490.90
677.33	488.05
677.67	485.26
678.01	482.21
678.34	479.20
678.68	476.36
679.02	473.58
679.36	470.79
679.70	468.09
680.04	465.34
680.37	462.46
680.71	459.66
681.05	457.02
681.39	454.33
681.73	451.71
682.06	449.22
682.40	446.69
682.74	444.17
683.08	441.55
683.42	438.96
683.75	436.48
684.09	433.99
684.43	431.56
684.77	429.09
685.10	426.75
685.44	424.50
685.78	422.21
686.12	419.91
686.45	417.64
686.79	415.35
687.13	413.12
687.46	411.00
687.80	408.86
688.14	406.69
688.48	404.56
688.81	402.31
689.15	400.15
689.49	397.99
689.82	395.93
690.16	393.86
690.50	391.93
690.83	389.96
691.17	387.99
691.51	386.07
691.84	384.25
692.18	382.35
692.52	380.37
692.85	378.44
693.19	376.61
693.52	374.81
693.86	372.98
694.20	371.23
694.53	369.44
694.87	367.61
695.21	365.82
695.54	364.06
695.88	362.34
696.21	360.61
696.55	358.98
696.88	357.31
697.22	355.71
697.56	354.07
697.89	352.44
698.23	350.87
698.56	349.25
698.90	347.64
699.23	346.00
699.57	344.43
699.90	342.94
700.24	341.36
700.58	339.83
700.91	338.32
701.25	336.85
701.58	335.50
701.92	334.08
702.25	332.70
702.59	331.39
702.92	330.05
703.26	328.79
703.59	327.50
703.93	326.31
704.26	325.08
704.60	323.85
704.93	322.57
705.26	321.28
705.60	320.14
705.93	319.02
706.27	317.99
706.60	316.98
706.94	315.89
707.27	314.78
707.61	313.71
707.94	312.73
708.27	311.66
708.61	310.57
708.94	309.59
709.28	308.60
709.61	307.62
709.94	306.72
710.28	305.66
710.61	304.70
710.95	303.61
711.28	302.67
711.61	301.70
711.95	300.83
712.28	299.89
712.61	298.93
712.95	297.98
713.28	297.13
713.61	296.27
713.95	295.39
714.28	294.58
714.61	293.71
714.95	292.85
715.28	291.99
715.61	291.12
715.95	290.29
716.28	289.48
716.61	288.62
716.95	287.81
717.28	287.10
717.61	286.32
717.94	285.62
718.28	284.85
718.61	284.15
718.94	283.43
719.27	282.77
719.61	282.12
719.94	281.49
720.27	280.72
720.60	280.00
720.94	279.36
721.27	278.75
721.60	278.20
721.93	277.61
722.27	277.03
722.60	276.49
722.93	275.90
723.26	275.37
723.59	274.86
723.93	274.31
724.26	273.75
724.59	273.22
724.92	272.69
725.25	272.16
725.59	271.63
725.92	271.17
726.25	270.65
726.58	270.15
726.91	269.62
727.24	269.18
727.57	268.74
727.91	268.25
728.24	267.81
728.57	267.33
728.90	266.89
729.23	266.45
729.56	266.05
729.89	265.60
730.22	265.12
730.55	264.62
730.89	264.17
731.22	263.74
731.55	263.30
731.88	262.87
732.21	262.46
732.54	262.03
732.87	261.61
733.20	261.25
733.53	260.85
733.86	260.49
734.19	260.11
734.52	259.71
734.85	259.39
735.18	258.98
735.51	258.65
735.84	258.28
736.17	257.93
736.50	257.49
736.83	257.30
737.16	256.97
737.49	256.65
737.82	256.32
738.15	255.99
738.48	255.70
738.81	255.41
739.14	255.08
739.47	254.78
739.80	254.45
740.13	254.14
740.46	253.84
740.79	253.53
741.12	253.26
741.45	252.95
741.78	252.61
742.11	252.31
742.44	251.93
742.77	251.65
743.10	251.32
743.43	251.05
743.75	250.64
744.08	250.48
744.41	250.19
744.74	249.92
745.07	249.63
745.40	249.36
745.73	249.14
746.06	248.87
746.39	248.61
746.71	248.36
747.04	248.08
747.37	247.78
747.70	247.51
748.03	247.20
748.36	247.02
748.68	246.77
749.01	246.52
749.34	246.31
749.67	246.08
750.00	245.87
750.33	245.73
750.65	245.49
750.98	245.17
751.31	244.98
751.64	244.79
751.97	244.63
752.29	244.40
752.62	244.13
752.95	243.91
753.28	243.65
753.60	243.42
753.93	243.23
754.26	243.04
754.59	242.82
754.91	242.60
755.24	242.39
755.57	242.20
755.90	242.01
756.22	241.82
756.55	241.59
756.88	241.37
757.20	241.11
757.53	240.91
757.86	240.74
758.19	240.56
758.51	240.37
758.84	240.14
759.17	239.96
759.49	239.79
759.82	239.68
760.15	239.55
760.47	239.42
760.80	239.25
761.13	239.14
761.45	238.99
761.78	238.87
762.11	238.70
762.43	238.53
762.76	238.40
763.08	238.22
763.41	238.09
763.74	237.99
764.06	237.85
764.39	237.71
764.71	237.57
765.04	237.42
765.37	237.33
765.69	237.19
766.02	237.09
766.34	236.93
766.67	236.78
767.00	236.68
767.32	236.63
767.65	236.58
767.97	236.46
768.30	236.35
768.62	236.26
768.95	236.18
769.27	236.08
769.60	235.97
769.92	235.89
770.25	235.77
770.57	235.65
770.90	235.56
771.22	235.47
771.55	235.37
771.87	235.29
772.20	235.17
772.52	235.18
772.85	235.19
773.17	235.14
773.50	235.06
773.82	234.97
774.15	234.81
774.47	234.67
774.80	234.59
775.12	234.50
775.45	234.39
775.77	234.29
776.09	234.23
776.42	234.14
776.74	234.12
777.07	234.05
777.39	234.00
777.72	233.91
778.04	233.86
778.36	233.80
778.69	233.74
779.01	233.66
779.33	233.54
779.66	233.37
779.98	233.30
780.31	233.22
780.63	233.17
780.95	233.17
781.28	233.07
781.60	233.00
781.92	232.92
782.25	232.87
782.57	232.83
782.89	232.75
783.22	232.70
783.54	232.61
783.86	232.59
784.19	232.51
784.51	232.50
784.83	232.45
785.16	232.37
785.48	232.29
785.80	232.26
786.12	232.21
786.45	232.17
786.77	232.13
787.09	232.08
