SpectraSuite Data File
++++++++++++++++++++++++++++++++++++
Date: Fri Feb 01 14:58:03 EST 2013
User: group
Dark Spectrum Present: No
Reference Spectrum Present: No
Number of Sampled Component Spectra: 1
Spectrometers: USB2E7196
Integration Time (usec): 35000 (USB2E7196)
Spectra Averaged: 100 (USB2E7196)
Boxcar Smoothing: 10 (USB2E7196)
Correct for Electrical Dark: No (USB2E7196)
Strobe/Lamp Enabled: No (USB2E7196)
Correct for Detector Non-linearity: No (USB2E7196)
Correct for Stray Light: No (USB2E7196)
Number of Pixels in Processed Spectrum: 2048
>>>>>Begin Processed Spectral Data<<<<<
339.09	0.00
339.48	215.37
339.86	216.59
340.24	217.05
340.63	219.40
341.01	221.55
341.39	221.80
341.78	223.38
342.16	224.56
342.54	225.46
342.93	213.22
343.31	224.02
343.69	224.57
344.07	225.01
344.46	225.48
344.84	225.85
345.22	226.09
345.60	226.34
345.99	226.49
346.37	226.61
346.75	226.67
347.13	226.71
347.52	226.77
347.90	226.80
348.28	226.82
348.66	226.83
349.05	226.82
349.43	226.86
349.81	226.89
350.19	226.94
350.57	226.97
350.96	227.07
351.34	227.14
351.72	227.19
352.10	227.32
352.48	227.39
352.87	227.44
353.25	227.53
353.63	227.60
354.01	227.69
354.39	227.76
354.77	227.85
355.15	227.97
355.54	228.03
355.92	228.09
356.30	228.19
356.68	228.35
357.06	228.46
357.44	228.52
357.82	228.59
358.20	228.66
358.58	228.74
358.97	228.74
359.35	228.83
359.73	228.92
360.11	228.96
360.49	229.01
360.87	229.05
361.25	229.10
361.63	229.18
362.01	229.18
362.39	229.21
362.77	229.22
363.15	229.25
363.53	229.34
363.91	229.37
364.29	229.41
364.67	229.32
365.05	229.33
365.43	229.38
365.81	229.40
366.19	229.44
366.57	229.46
366.95	229.51
367.33	229.46
367.71	229.45
368.09	229.45
368.47	229.45
368.85	229.41
369.23	229.42
369.61	229.38
369.99	229.44
370.37	229.44
370.75	229.47
371.13	229.42
371.51	229.33
371.89	229.32
372.27	229.28
372.65	229.23
373.03	229.18
373.41	229.08
373.78	229.02
374.16	228.94
374.54	228.89
374.92	228.85
375.30	228.77
375.68	228.67
376.06	228.60
376.44	228.52
376.82	228.47
377.19	228.37
377.57	228.23
377.95	228.09
378.33	227.99
378.71	227.88
379.09	227.85
379.47	227.77
379.84	227.68
380.22	227.56
380.60	227.47
380.98	227.41
381.36	227.33
381.73	227.22
382.11	227.16
382.49	227.09
382.87	227.00
383.25	226.96
383.62	226.95
384.00	226.86
384.38	226.80
384.76	226.75
385.13	226.76
385.51	226.74
385.89	226.69
386.27	226.65
386.64	226.62
387.02	226.50
387.40	226.44
387.78	226.41
388.15	226.38
388.53	226.33
388.91	226.28
389.29	226.25
389.66	226.27
390.04	226.19
390.42	226.17
390.79	226.15
391.17	226.13
391.55	226.06
391.92	226.05
392.30	226.04
392.68	226.03
393.05	225.99
393.43	226.00
393.81	226.00
394.18	226.02
394.56	226.04
394.94	226.12
395.31	226.14
395.69	226.20
396.06	226.28
396.44	226.33
396.82	226.38
397.19	226.49
397.57	226.55
397.95	226.64
398.32	226.69
398.70	226.77
399.07	226.86
399.45	226.94
399.82	227.00
400.20	227.08
400.58	227.17
400.95	227.25
401.33	227.36
401.70	227.55
402.08	227.67
402.45	227.75
402.83	227.89
403.20	228.03
403.58	228.14
403.95	228.25
404.33	228.38
404.71	228.52
405.08	228.72
405.46	228.87
405.83	229.03
406.21	229.20
406.58	229.40
406.96	229.59
407.33	229.79
407.70	230.02
408.08	230.29
408.45	230.54
408.83	230.76
409.20	230.99
409.58	231.15
409.95	231.38
410.33	231.67
410.70	231.94
411.08	232.24
411.45	232.54
411.82	232.85
412.20	233.24
412.57	233.65
412.95	233.93
413.32	234.33
413.69	234.74
414.07	235.18
414.44	235.62
414.82	236.08
415.19	236.58
415.56	237.14
415.94	237.66
416.31	238.29
416.68	238.93
417.06	239.64
417.43	240.33
417.81	241.12
418.18	241.94
418.55	242.74
418.93	243.61
419.30	244.49
419.67	245.44
420.04	246.38
420.42	247.35
420.79	248.53
421.16	249.68
421.54	250.81
421.91	252.04
422.28	253.31
422.66	254.65
423.03	255.99
423.40	257.30
423.77	258.72
424.15	260.11
424.52	261.58
424.89	263.20
425.26	264.79
425.64	266.20
426.01	267.73
426.38	269.38
426.75	271.02
427.13	272.78
427.50	274.57
427.87	276.42
428.24	278.33
428.61	280.04
428.99	281.99
429.36	284.10
429.73	286.14
430.10	288.17
430.47	290.20
430.85	292.33
431.22	294.57
431.59	296.93
431.96	299.18
432.33	301.67
432.70	304.05
433.08	306.85
433.45	309.51
433.82	312.13
434.19	315.00
434.56	317.81
434.93	320.43
435.30	323.07
435.68	325.97
436.05	328.78
436.42	331.62
436.79	334.12
437.16	336.84
437.53	339.66
437.90	342.46
438.27	345.21
438.64	348.02
439.01	350.63
439.38	352.89
439.75	355.08
440.13	357.62
440.50	359.93
440.87	361.73
441.24	363.66
441.61	365.82
441.98	367.32
442.35	369.11
442.72	371.00
443.09	372.81
443.46	373.81
443.83	374.39
444.20	374.88
444.57	375.74
444.94	376.08
445.31	376.42
445.68	376.73
446.05	376.82
446.42	376.46
446.79	376.01
447.16	375.57
447.53	375.27
447.90	374.10
448.27	372.95
448.64	371.39
449.01	370.28
449.37	368.31
449.74	366.44
450.11	364.24
450.48	361.76
450.85	359.23
451.22	357.10
451.59	355.12
451.96	353.18
452.33	350.57
452.70	348.21
453.07	345.42
453.43	342.56
453.80	339.82
454.17	337.17
454.54	334.65
454.91	331.95
455.28	329.26
455.65	326.78
456.02	324.32
456.38	322.21
456.75	319.54
457.12	317.31
457.49	315.06
457.86	312.89
458.23	311.02
458.59	308.98
458.96	306.88
459.33	305.03
459.70	303.16
460.07	301.68
460.43	299.97
460.80	298.33
461.17	296.87
461.54	295.34
461.91	293.87
462.27	292.39
462.64	291.13
463.01	289.77
463.38	288.44
463.74	287.08
464.11	285.90
464.48	284.91
464.85	283.74
465.21	282.91
465.58	281.94
465.95	280.85
466.32	279.94
466.68	279.05
467.05	278.11
467.42	277.25
467.78	276.29
468.15	275.37
468.52	274.67
468.88	273.80
469.25	273.02
469.62	272.40
469.98	271.78
470.35	271.10
470.72	270.48
471.08	269.83
471.45	269.27
471.82	268.66
472.18	267.99
472.55	267.61
472.92	267.07
473.28	266.62
473.65	266.15
474.02	265.67
474.38	265.28
474.75	264.92
475.11	264.49
475.48	264.21
475.85	263.99
476.21	263.73
476.58	263.53
476.94	263.37
477.31	263.16
477.67	262.95
478.04	262.88
478.41	262.80
478.77	262.81
479.14	262.75
479.50	262.75
479.87	262.82
480.23	262.86
480.60	262.88
480.96	262.91
481.33	263.10
481.69	263.27
482.06	263.43
482.42	263.64
482.79	263.93
483.15	264.20
483.52	264.56
483.88	264.92
484.25	265.29
484.61	265.67
484.98	266.11
485.34	266.69
485.71	267.22
486.07	267.80
486.44	268.33
486.80	269.05
487.17	269.81
487.53	270.62
487.90	271.45
488.26	272.39
488.62	273.37
488.99	274.33
489.35	275.38
489.72	276.50
490.08	277.70
490.44	278.92
490.81	280.26
491.17	281.57
491.54	283.02
491.90	284.58
492.26	286.22
492.63	287.93
492.99	289.67
493.36	291.54
493.72	293.59
494.08	295.71
494.45	297.95
494.81	300.32
495.17	302.73
495.54	305.29
495.90	307.93
496.26	310.77
496.63	313.74
496.99	316.79
497.35	320.04
497.72	323.39
498.08	326.94
498.44	330.61
498.80	334.55
499.17	338.58
499.53	342.74
499.89	347.12
500.26	351.65
500.62	356.29
500.98	361.28
501.34	366.34
501.71	371.67
502.07	377.09
502.43	382.66
502.79	388.48
503.16	394.53
503.52	400.81
503.88	407.15
504.24	413.76
504.60	420.70
504.97	427.82
505.33	435.15
505.69	442.76
506.05	450.46
506.41	458.30
506.78	466.47
507.14	474.90
507.50	483.66
507.86	492.62
508.22	501.77
508.59	510.94
508.95	520.46
509.31	530.19
509.67	540.28
510.03	550.52
510.39	561.08
510.75	571.82
511.12	582.71
511.48	594.05
511.84	605.49
512.20	616.99
512.56	628.86
512.92	641.09
513.28	653.39
513.64	665.91
514.00	678.69
514.37	691.56
514.73	704.67
515.09	717.65
515.45	731.01
515.81	744.57
516.17	758.54
516.53	772.66
516.89	786.90
517.25	801.04
517.61	815.49
517.97	829.89
518.33	844.36
518.69	859.18
519.05	874.15
519.41	889.37
519.77	905.01
520.13	920.53
520.49	935.94
520.85	951.50
521.21	967.15
521.57	983.41
521.93	999.31
522.29	1015.75
522.65	1032.04
523.01	1048.32
523.37	1064.44
523.73	1080.73
524.09	1096.95
524.45	1113.42
524.81	1130.09
525.17	1146.96
525.53	1163.94
525.89	1180.85
526.25	1197.74
526.61	1214.22
526.97	1230.97
527.33	1247.46
527.68	1264.17
528.04	1280.69
528.40	1297.41
528.76	1314.70
529.12	1331.36
529.48	1348.26
529.84	1364.35
530.20	1381.07
530.56	1398.12
530.91	1415.53
531.27	1432.30
531.63	1448.75
531.99	1465.28
532.35	1481.35
532.71	1497.30
533.07	1513.69
533.42	1529.74
533.78	1545.87
534.14	1562.33
534.50	1577.80
534.86	1593.86
535.21	1608.99
535.57	1625.11
535.93	1640.61
536.29	1655.43
536.65	1670.58
537.00	1685.46
537.36	1700.86
537.72	1715.52
538.08	1729.96
538.44	1743.93
538.79	1757.96
539.15	1771.90
539.51	1785.73
539.87	1800.23
540.22	1814.11
540.58	1827.99
540.94	1841.50
541.29	1854.62
541.65	1867.39
542.01	1880.83
542.37	1893.01
542.72	1905.59
543.08	1917.46
543.44	1929.90
543.79	1941.11
544.15	1952.17
544.51	1963.75
544.87	1974.78
545.22	1985.48
545.58	1995.79
545.94	2005.56
546.29	2015.51
546.65	2025.21
547.01	2034.48
547.36	2043.36
547.72	2051.81
548.07	2059.62
548.43	2067.70
548.79	2075.67
549.14	2083.13
549.50	2090.45
549.86	2098.38
550.21	2105.74
550.57	2112.74
550.92	2119.26
551.28	2126.49
551.64	2133.49
551.99	2140.16
552.35	2146.15
552.70	2152.30
553.06	2158.35
553.41	2164.85
553.77	2170.68
554.13	2176.83
554.48	2182.92
554.84	2188.07
555.19	2193.44
555.55	2198.58
555.90	2203.01
556.26	2207.85
556.61	2212.47
556.97	2216.59
557.32	2220.49
557.68	2224.65
558.03	2228.94
558.39	2232.70
558.74	2237.15
559.10	2240.90
559.45	2244.29
559.81	2248.75
560.16	2252.59
560.52	2255.54
560.87	2258.77
561.23	2261.45
561.58	2264.24
561.94	2266.73
562.29	2269.09
562.64	2271.68
563.00	2274.12
563.35	2277.62
563.71	2280.57
564.06	2283.86
564.42	2286.66
564.77	2289.04
565.12	2291.01
565.48	2292.69
565.83	2294.35
566.19	2295.50
566.54	2296.51
566.89	2297.68
567.25	2297.97
567.60	2299.15
567.96	2300.79
568.31	2301.39
568.66	2302.42
569.02	2302.98
569.37	2303.13
569.72	2303.80
570.08	2303.69
570.43	2303.61
570.78	2302.65
571.14	2301.02
571.49	2299.46
571.84	2298.94
572.20	2297.53
572.55	2296.33
572.90	2294.68
573.26	2293.18
573.61	2291.36
573.96	2289.20
574.31	2285.88
574.67	2282.74
575.02	2278.87
575.37	2275.27
575.72	2271.39
576.08	2267.91
576.43	2264.32
576.78	2260.46
577.13	2257.23
577.49	2254.08
577.84	2250.44
578.19	2246.81
578.54	2242.85
578.90	2238.37
579.25	2232.74
579.60	2227.67
579.95	2222.66
580.30	2217.56
580.66	2212.26
581.01	2207.11
581.36	2202.13
581.71	2197.82
582.06	2193.39
582.42	2188.83
582.77	2183.54
583.12	2178.75
583.47	2173.85
583.82	2168.75
584.17	2163.46
584.53	2157.86
584.88	2152.04
585.23	2146.17
585.58	2140.51
585.93	2135.11
586.28	2130.34
586.63	2125.13
586.98	2120.10
587.34	2115.28
587.69	2110.28
588.04	2105.00
588.39	2099.19
588.74	2092.64
589.09	2086.48
589.44	2079.33
589.79	2073.29
590.14	2067.59
590.49	2060.98
590.84	2054.37
591.19	2048.17
591.54	2041.71
591.89	2034.10
592.25	2027.14
592.60	2019.70
592.95	2011.94
593.30	2004.41
593.65	1996.59
594.00	1989.43
594.35	1981.91
594.70	1973.75
595.05	1966.34
595.40	1958.96
595.75	1951.46
596.10	1945.11
596.45	1938.25
596.80	1932.05
597.15	1925.17
597.50	1917.92
597.85	1911.46
598.19	1904.81
598.54	1897.72
598.89	1890.91
599.24	1884.99
599.59	1878.15
599.94	1871.90
600.29	1865.53
600.64	1858.98
600.99	1851.44
601.34	1844.47
601.69	1837.61
602.04	1830.56
602.39	1823.21
602.74	1816.29
603.08	1809.62
603.43	1802.89
603.78	1795.47
604.13	1788.16
604.48	1780.75
604.83	1773.93
605.18	1766.90
605.53	1758.87
605.87	1750.77
606.22	1743.51
606.57	1735.62
606.92	1728.43
607.27	1721.35
607.62	1714.43
607.96	1706.96
608.31	1700.42
608.66	1692.79
609.01	1685.20
609.36	1677.72
609.70	1669.78
610.05	1661.64
610.40	1653.92
610.75	1645.60
611.10	1638.08
611.44	1629.90
611.79	1622.22
612.14	1613.45
612.49	1604.41
612.83	1596.16
613.18	1588.04
613.53	1580.02
613.88	1571.46
614.22	1563.22
614.57	1554.67
614.92	1546.66
615.27	1539.28
615.61	1530.92
615.96	1522.96
616.31	1515.42
616.65	1508.04
617.00	1500.39
617.35	1492.78
617.70	1484.32
618.04	1475.73
618.39	1467.59
618.74	1459.92
619.08	1451.59
619.43	1444.16
619.78	1437.20
620.12	1429.92
620.47	1422.47
620.82	1414.33
621.16	1406.96
621.51	1399.44
621.85	1391.92
622.20	1383.47
622.55	1375.15
622.89	1367.42
623.24	1359.91
623.59	1352.64
623.93	1345.16
624.28	1337.97
624.62	1330.47
624.97	1323.44
625.32	1316.87
625.66	1309.76
626.01	1302.58
626.35	1295.13
626.70	1287.41
627.04	1279.73
627.39	1272.05
627.73	1264.72
628.08	1257.85
628.43	1250.51
628.77	1243.12
629.12	1235.51
629.46	1228.41
629.81	1221.05
630.15	1213.93
630.50	1206.60
630.84	1198.37
631.19	1190.59
631.53	1183.27
631.88	1175.88
632.22	1168.37
632.57	1161.10
632.91	1153.64
633.26	1146.28
633.60	1139.03
633.95	1132.09
634.29	1125.11
634.64	1118.53
634.98	1111.25
635.32	1104.18
635.67	1097.74
636.01	1091.14
636.36	1084.41
636.70	1077.95
637.05	1071.39
637.39	1064.93
637.73	1058.43
638.08	1052.59
638.42	1046.74
638.77	1040.28
639.11	1033.63
639.45	1027.28
639.80	1020.69
640.14	1014.29
640.49	1007.89
640.83	1001.60
641.17	995.34
641.52	989.07
641.86	982.69
642.20	976.86
642.55	970.58
642.89	964.14
643.23	957.75
643.58	951.99
643.92	945.69
644.26	939.70
644.61	933.67
644.95	927.64
645.29	921.04
645.64	914.23
645.98	907.94
646.32	902.24
646.66	896.23
647.01	890.41
647.35	884.84
647.69	878.96
648.04	873.54
648.38	867.75
648.72	861.71
649.06	855.67
649.41	849.81
649.75	843.80
650.09	837.86
650.43	832.05
650.78	825.86
651.12	820.00
651.46	814.21
651.80	808.46
652.14	803.11
652.49	797.83
652.83	792.72
653.17	787.08
653.51	781.32
653.85	775.93
654.20	770.34
654.54	764.35
654.88	758.64
655.22	752.78
655.56	747.11
655.90	741.75
656.25	736.53
656.59	731.17
656.93	726.11
657.27	720.95
657.61	715.45
657.95	710.44
658.29	705.39
658.64	700.23
658.98	695.01
659.32	689.56
659.66	684.32
660.00	679.01
660.34	674.04
660.68	669.14
661.02	664.16
661.36	659.47
661.70	655.01
662.05	650.71
662.39	646.34
662.73	641.92
663.07	637.55
663.41	633.06
663.75	628.69
664.09	624.18
664.43	619.83
664.77	615.74
665.11	611.58
665.45	607.53
665.79	603.49
666.13	599.43
666.47	595.38
666.81	591.31
667.15	587.25
667.49	583.42
667.83	579.69
668.17	575.79
668.51	571.74
668.85	567.74
669.19	563.95
669.53	560.16
669.87	556.35
670.21	552.71
670.55	549.19
670.89	545.78
671.23	542.38
671.57	538.95
671.91	535.56
672.25	532.09
672.58	528.61
672.92	525.28
673.26	522.18
673.60	519.10
673.94	515.94
674.28	513.08
674.62	510.22
674.96	507.13
675.30	504.19
675.64	501.32
675.97	498.68
676.31	495.85
676.65	492.91
676.99	490.20
677.33	487.37
677.67	484.55
678.01	481.50
678.34	478.61
678.68	475.79
679.02	472.89
679.36	470.14
679.70	467.41
680.04	464.68
680.37	461.77
680.71	458.99
681.05	456.47
681.39	453.81
681.73	451.16
682.06	448.67
682.40	446.17
682.74	443.63
683.08	441.08
683.42	438.48
683.75	436.06
684.09	433.54
684.43	431.03
684.77	428.59
685.10	426.32
685.44	423.98
685.78	421.70
686.12	419.55
686.45	417.24
686.79	415.01
687.13	412.79
687.46	410.65
687.80	408.50
688.14	406.27
688.48	404.18
688.81	401.86
689.15	399.74
689.49	397.60
689.82	395.54
690.16	393.40
690.50	391.45
690.83	389.54
691.17	387.58
691.51	385.69
691.84	383.87
692.18	381.87
692.52	379.87
692.85	377.92
693.19	376.05
693.52	374.27
693.86	372.47
694.20	370.74
694.53	368.96
694.87	367.13
695.21	365.40
695.54	363.60
695.88	361.93
696.21	360.17
696.55	358.51
696.88	356.86
697.22	355.24
697.56	353.63
697.89	351.96
698.23	350.38
698.56	348.81
698.90	347.18
699.23	345.56
699.57	344.07
699.90	342.53
700.24	340.98
700.58	339.44
700.91	337.95
701.25	336.51
701.58	335.17
701.92	333.84
702.25	332.46
702.59	331.11
702.92	329.79
703.26	328.49
703.59	327.22
703.93	326.07
704.26	324.81
704.60	323.51
704.93	322.24
705.26	320.98
705.60	319.82
705.93	318.72
706.27	317.73
706.60	316.67
706.94	315.62
707.27	314.49
707.61	313.51
707.94	312.48
708.27	311.37
708.61	310.31
708.94	309.32
709.28	308.37
709.61	307.39
709.94	306.44
710.28	305.46
710.61	304.50
710.95	303.44
711.28	302.57
711.61	301.68
711.95	300.76
712.28	299.84
712.61	298.91
712.95	298.00
713.28	297.10
713.61	296.21
713.95	295.37
714.28	294.60
714.61	293.72
714.95	292.92
715.28	292.11
715.61	291.20
715.95	290.36
716.28	289.52
716.61	288.73
716.95	287.96
717.28	287.24
717.61	286.50
717.94	285.78
718.28	284.96
718.61	284.20
718.94	283.57
719.27	282.93
719.61	282.29
719.94	281.62
720.27	280.90
720.60	280.21
720.94	279.58
721.27	278.93
721.60	278.33
721.93	277.71
722.27	277.13
722.60	276.61
722.93	276.00
723.26	275.47
723.59	274.91
723.93	274.37
724.26	273.82
724.59	273.25
724.92	272.69
725.25	272.21
725.59	271.71
725.92	271.18
726.25	270.65
726.58	270.09
726.91	269.59
727.24	269.11
727.57	268.71
727.91	268.16
728.24	267.71
728.57	267.25
728.90	266.82
729.23	266.32
729.56	265.87
729.89	265.43
730.22	264.92
730.55	264.41
730.89	263.93
731.22	263.45
731.55	263.01
731.88	262.60
732.21	262.20
732.54	261.76
732.87	261.34
733.20	260.96
733.53	260.60
733.86	260.22
734.19	259.78
734.52	259.35
734.85	259.08
735.18	258.65
735.51	258.26
735.84	257.85
736.17	257.53
736.50	257.13
736.83	256.88
737.16	256.56
737.49	256.23
737.82	255.91
738.15	255.60
738.48	255.25
738.81	254.94
739.14	254.59
739.47	254.29
739.80	253.95
740.13	253.61
740.46	253.31
740.79	253.01
741.12	252.75
741.45	252.49
741.78	252.11
742.11	251.86
742.44	251.53
742.77	251.26
743.10	250.93
743.43	250.65
743.75	250.28
744.08	250.14
744.41	249.84
744.74	249.56
745.07	249.26
745.40	249.02
745.73	248.77
746.06	248.49
746.39	248.21
746.71	247.99
747.04	247.73
747.37	247.47
747.70	247.20
748.03	246.97
748.36	246.75
748.68	246.56
749.01	246.29
749.34	246.09
749.67	245.89
750.00	245.70
750.33	245.56
750.65	245.37
750.98	245.00
751.31	244.83
751.64	244.67
751.97	244.56
752.29	244.33
752.62	244.10
752.95	243.95
753.28	243.77
753.60	243.55
753.93	243.39
754.26	243.20
754.59	243.02
754.91	242.82
755.24	242.62
755.57	242.42
755.90	242.23
756.22	242.06
756.55	241.86
756.88	241.62
757.20	241.41
757.53	241.21
757.86	241.08
758.19	240.96
758.51	240.78
758.84	240.59
759.17	240.46
759.49	240.29
759.82	240.14
760.15	239.99
760.47	239.86
760.80	239.71
761.13	239.60
761.45	239.46
761.78	239.32
762.11	239.20
762.43	239.02
762.76	238.87
763.08	238.74
763.41	238.60
763.74	238.51
764.06	238.34
764.39	238.22
764.71	238.06
765.04	237.92
765.37	237.78
765.69	237.64
766.02	237.48
766.34	237.38
766.67	237.24
767.00	237.13
767.32	237.05
767.65	236.96
767.97	236.80
768.30	236.65
768.62	236.51
768.95	236.36
769.27	236.25
769.60	236.18
769.92	236.06
770.25	235.98
770.57	235.83
770.90	235.74
771.22	235.59
771.55	235.50
771.87	235.36
772.20	235.25
772.52	235.20
772.85	235.22
773.17	235.10
773.50	234.96
773.82	234.80
774.15	234.64
774.47	234.48
774.80	234.36
775.12	234.27
775.45	234.19
775.77	234.13
776.09	234.07
776.42	233.98
776.74	233.89
777.07	233.75
777.39	233.67
777.72	233.57
778.04	233.49
778.36	233.43
778.69	233.37
779.01	233.28
779.33	233.15
779.66	232.96
779.98	232.89
780.31	232.85
780.63	232.84
780.95	232.81
781.28	232.75
781.60	232.71
781.92	232.64
782.25	232.57
782.57	232.51
782.89	232.45
783.22	232.39
783.54	232.31
783.86	232.28
784.19	232.23
784.51	232.20
784.83	232.12
785.16	232.02
785.48	232.00
785.80	232.00
786.12	231.94
786.45	231.90
786.77	231.86
787.09	231.82
