SpectraSuite Data File
++++++++++++++++++++++++++++++++++++
Date: Fri Feb 01 16:32:01 EST 2013
User: group
Dark Spectrum Present: No
Reference Spectrum Present: No
Number of Sampled Component Spectra: 1
Spectrometers: USB2E7196
Integration Time (usec): 35000 (USB2E7196)
Spectra Averaged: 100 (USB2E7196)
Boxcar Smoothing: 10 (USB2E7196)
Correct for Electrical Dark: No (USB2E7196)
Strobe/Lamp Enabled: No (USB2E7196)
Correct for Detector Non-linearity: No (USB2E7196)
Correct for Stray Light: No (USB2E7196)
Number of Pixels in Processed Spectrum: 2048
>>>>>Begin Processed Spectral Data<<<<<
339.09	0.00
339.48	213.75
339.86	215.81
340.24	216.86
340.63	218.11
341.01	220.92
341.39	220.99
341.78	222.00
342.16	223.42
342.54	224.36
342.93	212.44
343.31	223.18
343.69	223.74
344.07	224.19
344.46	224.62
344.84	225.02
345.22	225.26
345.60	225.51
345.99	225.69
346.37	225.83
346.75	225.90
347.13	226.00
347.52	226.04
347.90	226.12
348.28	226.16
348.66	226.17
349.05	226.16
349.43	226.18
349.81	226.21
350.19	226.26
350.57	226.33
350.96	226.41
351.34	226.51
351.72	226.58
352.10	226.69
352.48	226.75
352.87	226.78
353.25	226.82
353.63	226.88
354.01	226.95
354.39	227.01
354.77	227.10
355.15	227.18
355.54	227.24
355.92	227.28
356.30	227.34
356.68	227.46
357.06	227.49
357.44	227.54
357.82	227.59
358.20	227.65
358.58	227.72
358.97	227.76
359.35	227.80
359.73	227.89
360.11	227.91
360.49	227.94
360.87	228.02
361.25	228.11
361.63	228.20
362.01	228.26
362.39	228.29
362.77	228.31
363.15	228.35
363.53	228.38
363.91	228.40
364.29	228.41
364.67	228.38
365.05	228.42
365.43	228.40
365.81	228.42
366.19	228.47
366.57	228.47
366.95	228.47
367.33	228.46
367.71	228.41
368.09	228.44
368.47	228.44
368.85	228.40
369.23	228.39
369.61	228.29
369.99	228.31
370.37	228.30
370.75	228.32
371.13	228.25
371.51	228.22
371.89	228.19
372.27	228.18
372.65	228.12
373.03	228.06
373.41	228.04
373.78	227.98
374.16	227.89
374.54	227.83
374.92	227.78
375.30	227.72
375.68	227.64
376.06	227.58
376.44	227.52
376.82	227.46
377.19	227.38
377.57	227.35
377.95	227.24
378.33	227.16
378.71	227.04
379.09	227.01
379.47	226.95
379.84	226.90
380.22	226.78
380.60	226.71
380.98	226.67
381.36	226.60
381.73	226.51
382.11	226.45
382.49	226.40
382.87	226.30
383.25	226.26
383.62	226.33
384.00	226.26
384.38	226.21
384.76	226.17
385.13	226.18
385.51	226.12
385.89	226.08
386.27	226.05
386.64	226.05
387.02	226.00
387.40	225.96
387.78	225.96
388.15	225.96
388.53	225.90
388.91	225.84
389.29	225.81
389.66	225.82
390.04	225.80
390.42	225.79
390.79	225.83
391.17	225.77
391.55	225.67
391.92	225.63
392.30	225.62
392.68	225.64
393.05	225.61
393.43	225.61
393.81	225.62
394.18	225.60
394.56	225.56
394.94	225.59
395.31	225.59
395.69	225.62
396.06	225.65
396.44	225.71
396.82	225.77
397.19	225.86
397.57	225.89
397.95	225.94
398.32	225.97
398.70	226.01
399.07	226.10
399.45	226.14
399.82	226.22
400.20	226.28
400.58	226.34
400.95	226.36
401.33	226.47
401.70	226.61
402.08	226.69
402.45	226.80
402.83	226.90
403.20	226.99
403.58	227.04
403.95	227.18
404.33	227.31
404.71	227.41
405.08	227.55
405.46	227.67
405.83	227.83
406.21	227.95
406.58	228.07
406.96	228.25
407.33	228.40
407.70	228.58
408.08	228.84
408.45	229.04
408.83	229.28
409.20	229.49
409.58	229.62
409.95	229.90
410.33	230.16
410.70	230.39
411.08	230.69
411.45	231.02
411.82	231.29
412.20	231.61
412.57	232.08
412.95	232.37
413.32	232.76
413.69	233.14
414.07	233.55
414.44	234.04
414.82	234.49
415.19	235.05
415.56	235.60
415.94	236.15
416.31	236.77
416.68	237.34
417.06	238.06
417.43	238.78
417.81	239.52
418.18	240.26
418.55	241.11
418.93	241.98
419.30	242.85
419.67	243.77
420.04	244.71
420.42	245.65
420.79	246.83
421.16	247.97
421.54	249.18
421.91	250.40
422.28	251.64
422.66	252.96
423.03	254.25
423.40	255.57
423.77	256.99
424.15	258.40
424.52	259.93
424.89	261.56
425.26	263.10
425.64	264.55
426.01	266.16
426.38	267.80
426.75	269.47
427.13	271.19
427.50	273.00
427.87	274.92
428.24	276.74
428.61	278.45
428.99	280.40
429.36	282.45
429.73	284.50
430.10	286.51
430.47	288.56
430.85	290.70
431.22	292.94
431.59	295.28
431.96	297.52
432.33	300.00
432.70	302.32
433.08	305.12
433.45	307.74
433.82	310.32
434.19	313.19
434.56	315.98
434.93	318.66
435.30	321.28
435.68	324.09
436.05	326.94
436.42	329.79
436.79	332.31
437.16	335.03
437.53	337.90
437.90	340.75
438.27	343.49
438.64	346.30
439.01	348.89
439.38	351.12
439.75	353.30
440.13	355.79
440.50	358.14
440.87	359.97
441.24	361.92
441.61	364.12
441.98	365.57
442.35	367.39
442.72	369.23
443.09	371.05
443.46	372.09
443.83	372.69
444.20	373.21
444.57	374.02
444.94	374.31
445.31	374.65
445.68	374.96
446.05	375.04
446.42	374.68
446.79	374.25
447.16	373.81
447.53	373.48
447.90	372.31
448.27	371.10
448.64	369.57
449.01	368.42
449.37	366.43
449.74	364.60
450.11	362.33
450.48	359.82
450.85	357.29
451.22	355.11
451.59	353.07
451.96	351.07
452.33	348.48
452.70	346.11
453.07	343.28
453.43	340.38
453.80	337.63
454.17	334.92
454.54	332.38
454.91	329.69
455.28	327.00
455.65	324.50
456.02	322.11
456.38	319.93
456.75	317.28
457.12	315.05
457.49	312.80
457.86	310.68
458.23	308.84
458.59	306.81
458.96	304.77
459.33	302.93
459.70	301.09
460.07	299.60
460.43	297.90
460.80	296.27
461.17	294.83
461.54	293.30
461.91	291.88
462.27	290.47
462.64	289.21
463.01	287.90
463.38	286.62
463.74	285.24
464.11	284.07
464.48	283.08
464.85	281.96
465.21	281.10
465.58	280.16
465.95	279.07
466.32	278.15
466.68	277.22
467.05	276.34
467.42	275.46
467.78	274.55
468.15	273.69
468.52	273.06
468.88	272.23
469.25	271.51
469.62	270.90
469.98	270.21
470.35	269.60
470.72	269.00
471.08	268.36
471.45	267.82
471.82	267.28
472.18	266.67
472.55	266.25
472.92	265.80
473.28	265.35
473.65	264.97
474.02	264.56
474.38	264.27
474.75	263.94
475.11	263.60
475.48	263.35
475.85	263.13
476.21	262.90
476.58	262.70
476.94	262.57
477.31	262.45
477.67	262.30
478.04	262.16
478.41	262.14
478.77	262.20
479.14	262.17
479.50	262.22
479.87	262.33
480.23	262.43
480.60	262.46
480.96	262.61
481.33	262.85
481.69	263.03
482.06	263.20
482.42	263.44
482.79	263.74
483.15	264.02
483.52	264.43
483.88	264.80
484.25	265.25
484.61	265.70
484.98	266.16
485.34	266.76
485.71	267.39
486.07	267.96
486.44	268.52
486.80	269.24
487.17	269.96
487.53	270.73
487.90	271.59
488.26	272.52
488.62	273.48
488.99	274.42
489.35	275.48
489.72	276.62
490.08	277.82
490.44	279.03
490.81	280.45
491.17	281.76
491.54	283.23
491.90	284.73
492.26	286.32
492.63	288.06
492.99	289.78
493.36	291.64
493.72	293.68
494.08	295.82
494.45	298.08
494.81	300.47
495.17	302.95
495.54	305.51
495.90	308.24
496.26	311.05
496.63	314.05
496.99	317.14
497.35	320.42
497.72	323.83
498.08	327.39
498.44	331.01
498.80	334.93
499.17	338.94
499.53	343.13
499.89	347.53
500.26	352.03
500.62	356.73
500.98	361.68
501.34	366.79
501.71	372.10
502.07	377.53
502.43	383.17
502.79	388.97
503.16	395.05
503.52	401.29
503.88	407.67
504.24	414.27
504.60	421.17
504.97	428.27
505.33	435.60
505.69	443.28
506.05	451.07
506.41	458.94
506.78	467.15
507.14	475.58
507.50	484.28
507.86	493.27
508.22	502.50
508.59	511.75
508.95	521.32
509.31	531.11
509.67	541.27
510.03	551.50
510.39	562.04
510.75	572.87
511.12	583.75
511.48	595.08
511.84	606.48
512.20	617.98
512.56	629.89
512.92	642.03
513.28	654.43
513.64	666.86
514.00	679.66
514.37	692.54
514.73	705.57
515.09	718.53
515.45	731.83
515.81	745.37
516.17	759.35
516.53	773.45
516.89	787.61
517.25	801.65
517.61	816.06
517.97	830.50
518.33	844.79
518.69	859.55
519.05	874.46
519.41	889.62
519.77	905.06
520.13	920.48
520.49	935.85
520.85	951.15
521.21	966.78
521.57	982.86
521.93	998.56
522.29	1014.83
522.65	1031.06
523.01	1047.16
523.37	1063.10
523.73	1079.21
524.09	1095.12
524.45	1111.33
524.81	1127.87
525.17	1144.62
525.53	1161.40
525.89	1178.22
526.25	1194.98
526.61	1211.27
526.97	1227.97
527.33	1244.41
527.68	1260.90
528.04	1277.24
528.40	1293.79
528.76	1310.80
529.12	1327.32
529.48	1344.17
529.84	1360.22
530.20	1376.82
530.56	1393.74
530.91	1411.15
531.27	1427.70
531.63	1444.23
531.99	1460.72
532.35	1476.64
532.71	1492.35
533.07	1508.46
533.42	1524.29
533.78	1540.27
534.14	1556.46
534.50	1571.66
534.86	1587.38
535.21	1602.46
535.57	1618.26
535.93	1633.61
536.29	1648.33
536.65	1663.22
537.00	1677.81
537.36	1693.03
537.72	1707.52
538.08	1721.84
538.44	1735.51
538.79	1749.38
539.15	1762.88
539.51	1776.56
539.87	1790.82
540.22	1804.44
540.58	1818.17
540.94	1831.26
541.29	1844.06
541.65	1856.70
542.01	1869.86
542.37	1882.12
542.72	1894.55
543.08	1906.32
543.44	1918.61
543.79	1929.62
544.15	1940.59
544.51	1952.14
544.87	1962.90
545.22	1973.52
545.58	1983.72
545.94	1993.41
546.29	2003.25
546.65	2012.98
547.01	2022.17
547.36	2030.87
547.72	2039.25
548.07	2046.98
548.43	2055.22
548.79	2063.16
549.14	2070.53
549.50	2077.70
549.86	2085.26
550.21	2092.50
550.57	2099.47
550.92	2105.88
551.28	2112.92
551.64	2119.84
551.99	2126.30
552.35	2132.48
552.70	2138.70
553.06	2144.67
553.41	2151.02
553.77	2156.84
554.13	2162.98
554.48	2169.10
554.84	2174.48
555.19	2179.90
555.55	2185.19
555.90	2189.61
556.26	2194.43
556.61	2199.30
556.97	2203.66
557.32	2207.93
557.68	2212.02
558.03	2216.42
558.39	2220.27
558.74	2225.02
559.10	2229.08
559.45	2232.76
559.81	2236.93
560.16	2240.63
560.52	2243.86
560.87	2247.12
561.23	2249.96
561.58	2252.78
561.94	2255.29
562.29	2257.74
562.64	2260.35
563.00	2262.77
563.35	2266.27
563.71	2269.36
564.06	2272.51
564.42	2275.40
564.77	2277.84
565.12	2280.09
565.48	2282.08
565.83	2284.06
566.19	2285.41
566.54	2286.22
566.89	2287.41
567.25	2288.14
567.60	2289.59
567.96	2291.30
568.31	2292.32
568.66	2293.45
569.02	2294.15
569.37	2294.54
569.72	2295.51
570.08	2295.71
570.43	2295.86
570.78	2295.48
571.14	2294.04
571.49	2292.72
571.84	2292.41
572.20	2291.40
572.55	2290.44
572.90	2288.84
573.26	2287.54
573.61	2285.86
573.96	2284.16
574.31	2281.23
574.67	2278.37
575.02	2274.74
575.37	2271.34
575.72	2267.64
576.08	2264.21
576.43	2260.94
576.78	2257.28
577.13	2254.09
577.49	2251.13
577.84	2247.71
578.19	2243.96
578.54	2240.53
578.90	2236.41
579.25	2230.93
579.60	2225.88
579.95	2220.98
580.30	2216.03
580.66	2210.90
581.01	2205.98
581.36	2201.27
581.71	2197.29
582.06	2192.89
582.42	2188.55
582.77	2183.50
583.12	2179.01
583.47	2174.54
583.82	2169.58
584.17	2164.41
584.53	2158.93
584.88	2153.36
585.23	2147.60
585.58	2142.18
585.93	2136.60
586.28	2131.88
586.63	2126.90
586.98	2121.93
587.34	2117.27
587.69	2112.50
588.04	2107.23
588.39	2101.65
588.74	2095.11
589.09	2088.88
589.44	2082.03
589.79	2076.04
590.14	2070.48
590.49	2063.91
590.84	2057.57
591.19	2051.69
591.54	2045.28
591.89	2038.05
592.25	2031.27
592.60	2024.23
592.95	2016.78
593.30	2009.61
593.65	2002.08
594.00	1995.01
594.35	1987.89
594.70	1979.87
595.05	1972.78
595.40	1965.58
595.75	1958.13
596.10	1952.08
596.45	1945.43
596.80	1939.53
597.15	1932.93
597.50	1925.84
597.85	1919.53
598.19	1912.79
598.54	1905.69
598.89	1899.06
599.24	1893.16
599.59	1886.54
599.94	1880.41
600.29	1874.09
600.64	1867.49
600.99	1860.12
601.34	1853.40
601.69	1846.51
602.04	1839.78
602.39	1832.50
602.74	1825.69
603.08	1819.02
603.43	1812.23
603.78	1804.74
604.13	1797.43
604.48	1790.18
604.83	1783.35
605.18	1776.32
605.53	1768.46
605.87	1760.55
606.22	1753.37
606.57	1745.49
606.92	1738.21
607.27	1731.10
607.62	1724.14
607.96	1716.94
608.31	1710.28
608.66	1702.75
609.01	1695.24
609.36	1687.62
609.70	1679.51
610.05	1671.47
610.40	1663.70
610.75	1655.38
611.10	1647.90
611.44	1639.54
611.79	1631.55
612.14	1622.84
612.49	1613.67
612.83	1605.36
613.18	1597.26
613.53	1589.20
613.88	1580.68
614.22	1572.39
614.57	1563.80
614.92	1555.81
615.27	1548.29
615.61	1539.97
615.96	1532.00
616.31	1524.34
616.65	1517.00
617.00	1509.53
617.35	1501.93
617.70	1493.62
618.04	1485.12
618.39	1476.97
618.74	1469.35
619.08	1461.08
619.43	1453.46
619.78	1446.48
620.12	1439.24
620.47	1431.62
620.82	1423.50
621.16	1415.98
621.51	1408.37
621.85	1400.65
622.20	1392.07
622.55	1383.73
622.89	1375.98
623.24	1368.28
623.59	1360.92
623.93	1353.36
624.28	1346.10
624.62	1338.50
624.97	1331.30
625.32	1324.56
625.66	1317.59
626.01	1310.41
626.35	1302.92
626.70	1295.30
627.04	1287.55
627.39	1279.79
627.73	1272.35
628.08	1265.42
628.43	1258.13
628.77	1250.65
629.12	1243.07
629.46	1236.00
629.81	1228.58
630.15	1221.29
630.50	1213.86
630.84	1205.66
631.19	1197.74
631.53	1190.25
631.88	1182.69
632.22	1175.11
632.57	1167.80
632.91	1160.09
633.26	1152.57
633.60	1145.25
633.95	1138.13
634.29	1131.16
634.64	1124.45
634.98	1117.12
635.32	1109.86
635.67	1103.31
636.01	1096.77
636.36	1089.98
636.70	1083.42
637.05	1076.74
637.39	1070.29
637.73	1063.76
638.08	1057.82
638.42	1051.85
638.77	1045.37
639.11	1038.79
639.45	1032.43
639.80	1025.76
640.14	1019.35
640.49	1012.89
640.83	1006.55
641.17	1000.16
641.52	993.83
641.86	987.40
642.20	981.58
642.55	975.27
642.89	968.79
643.23	962.15
643.58	956.35
643.92	950.12
644.26	944.08
644.61	938.02
644.95	931.95
645.29	925.35
645.64	918.49
645.98	912.13
646.32	906.31
646.66	900.18
647.01	894.40
647.35	888.70
647.69	882.83
648.04	877.30
648.38	871.63
648.72	865.65
649.06	859.61
649.41	853.72
649.75	847.75
650.09	841.83
650.43	836.14
650.78	830.04
651.12	824.14
651.46	818.44
651.80	812.72
652.14	807.37
652.49	802.00
652.83	796.91
653.17	791.23
653.51	785.49
653.85	780.18
654.20	774.57
654.54	768.61
654.88	762.90
655.22	757.01
655.56	751.31
655.90	745.83
656.25	740.57
656.59	735.23
656.93	730.16
657.27	724.97
657.61	719.51
657.95	714.41
658.29	709.40
658.64	704.12
658.98	698.85
659.32	693.36
659.66	688.21
660.00	682.90
660.34	677.97
660.68	673.02
661.02	667.97
661.36	663.31
661.70	658.79
662.05	654.39
662.39	650.17
662.73	645.62
663.07	641.31
663.41	636.83
663.75	632.30
664.09	627.80
664.43	623.38
664.77	619.22
665.11	614.97
665.45	610.70
665.79	606.60
666.13	602.43
666.47	598.36
666.81	594.20
667.15	590.09
667.49	586.23
667.83	582.44
668.17	578.52
668.51	574.35
668.85	570.35
669.19	566.55
669.53	562.57
669.87	558.78
670.21	555.01
670.55	551.36
670.89	547.96
671.23	544.50
671.57	540.95
671.91	537.42
672.25	533.89
672.58	530.40
672.92	526.97
673.26	523.80
673.60	520.65
673.94	517.47
674.28	514.57
674.62	511.51
674.96	508.42
675.30	505.50
675.64	502.59
675.97	499.76
676.31	496.84
676.65	493.93
676.99	491.20
677.33	488.32
677.67	485.53
678.01	482.48
678.34	479.51
678.68	476.61
679.02	473.78
679.36	471.04
679.70	468.38
680.04	465.69
680.37	462.83
680.71	460.07
681.05	457.47
681.39	454.70
681.73	452.05
682.06	449.48
682.40	446.87
682.74	444.36
683.08	441.84
683.42	439.26
683.75	436.78
684.09	434.18
684.43	431.72
684.77	429.25
685.10	426.90
685.44	424.57
685.78	422.35
686.12	420.11
686.45	417.80
686.79	415.42
687.13	413.22
687.46	411.03
687.80	408.83
688.14	406.63
688.48	404.57
688.81	402.35
689.15	400.20
689.49	398.13
689.82	396.00
690.16	393.92
690.50	391.98
690.83	390.04
691.17	388.08
691.51	386.16
691.84	384.27
692.18	382.32
692.52	380.38
692.85	378.48
693.19	376.62
693.52	374.80
693.86	373.00
694.20	371.24
694.53	369.47
694.87	367.62
695.21	365.84
695.54	364.05
695.88	362.33
696.21	360.61
696.55	358.91
696.88	357.27
697.22	355.61
697.56	354.00
697.89	352.36
698.23	350.75
698.56	349.15
698.90	347.62
699.23	346.01
699.57	344.45
699.90	342.85
700.24	341.29
700.58	339.75
700.91	338.25
701.25	336.78
701.58	335.38
701.92	333.99
702.25	332.61
702.59	331.24
702.92	329.91
703.26	328.61
703.59	327.33
703.93	326.16
704.26	324.91
704.60	323.63
704.93	322.36
705.26	321.09
705.60	319.92
705.93	318.70
706.27	317.68
706.60	316.60
706.94	315.50
707.27	314.35
707.61	313.32
707.94	312.31
708.27	311.20
708.61	310.13
708.94	309.13
709.28	308.13
709.61	307.14
709.94	306.18
710.28	305.14
710.61	304.14
710.95	303.03
711.28	302.11
711.61	301.12
711.95	300.17
712.28	299.25
712.61	298.25
712.95	297.32
713.28	296.43
713.61	295.54
713.95	294.70
714.28	293.88
714.61	293.00
714.95	292.14
715.28	291.27
715.61	290.43
715.95	289.59
716.28	288.71
716.61	287.88
716.95	287.03
717.28	286.27
717.61	285.47
717.94	284.76
718.28	283.93
718.61	283.24
718.94	282.55
719.27	281.91
719.61	281.28
719.94	280.66
720.27	279.90
720.60	279.20
720.94	278.54
721.27	277.96
721.60	277.37
721.93	276.76
722.27	276.21
722.60	275.64
722.93	275.07
723.26	274.58
723.59	274.02
723.93	273.49
724.26	272.95
724.59	272.39
724.92	271.88
725.25	271.38
725.59	270.84
725.92	270.31
726.25	269.78
726.58	269.28
726.91	268.78
727.24	268.31
727.57	267.86
727.91	267.36
728.24	266.88
728.57	266.39
728.90	265.95
729.23	265.44
729.56	265.01
729.89	264.54
730.22	264.05
730.55	263.56
730.89	263.13
731.22	262.68
731.55	262.25
731.88	261.80
732.21	261.39
732.54	260.96
732.87	260.52
733.20	260.10
733.53	259.71
733.86	259.32
734.19	258.95
734.52	258.58
734.85	258.29
735.18	257.88
735.51	257.53
735.84	257.17
736.17	256.83
736.50	256.42
736.83	256.20
737.16	255.87
737.49	255.56
737.82	255.21
738.15	254.91
738.48	254.60
738.81	254.26
739.14	253.92
739.47	253.63
739.80	253.37
740.13	253.10
740.46	252.77
740.79	252.46
741.12	252.14
741.45	251.77
741.78	251.44
742.11	251.13
742.44	250.79
742.77	250.47
743.10	250.15
743.43	249.87
743.75	249.49
744.08	249.33
744.41	249.04
744.74	248.79
745.07	248.48
745.40	248.22
745.73	248.00
746.06	247.72
746.39	247.45
746.71	247.15
747.04	246.86
747.37	246.61
747.70	246.34
748.03	246.09
748.36	245.91
748.68	245.64
749.01	245.41
749.34	245.18
749.67	244.93
750.00	244.69
750.33	244.51
750.65	244.27
750.98	243.93
751.31	243.69
751.64	243.47
751.97	243.33
752.29	243.12
752.62	242.87
752.95	242.64
753.28	242.42
753.60	242.24
753.93	242.08
754.26	241.86
754.59	241.62
754.91	241.39
755.24	241.20
755.57	241.00
755.90	240.80
756.22	240.58
756.55	240.41
756.88	240.24
757.20	239.99
757.53	239.79
757.86	239.61
758.19	239.44
758.51	239.27
758.84	239.01
759.17	238.83
759.49	238.69
759.82	238.58
760.15	238.44
760.47	238.27
760.80	238.08
761.13	237.95
761.45	237.80
761.78	237.65
762.11	237.51
762.43	237.38
762.76	237.25
763.08	237.16
763.41	237.07
763.74	236.93
764.06	236.79
764.39	236.66
764.71	236.53
765.04	236.42
765.37	236.27
765.69	236.18
766.02	236.02
766.34	235.87
766.67	235.75
767.00	235.65
767.32	235.61
767.65	235.58
767.97	235.46
768.30	235.37
768.62	235.27
768.95	235.13
769.27	234.99
769.60	234.90
769.92	234.79
770.25	234.63
770.57	234.53
770.90	234.43
771.22	234.36
771.55	234.25
771.87	234.16
772.20	234.08
772.52	234.06
772.85	234.10
773.17	234.00
773.50	233.89
773.82	233.77
774.15	233.62
774.47	233.41
774.80	233.31
775.12	233.23
775.45	233.17
775.77	233.12
776.09	233.03
776.42	232.94
776.74	232.88
777.07	232.81
777.39	232.72
777.72	232.66
778.04	232.59
778.36	232.51
778.69	232.44
779.01	232.36
779.33	232.20
779.66	232.02
779.98	231.93
780.31	231.84
780.63	231.80
780.95	231.75
781.28	231.73
781.60	231.65
781.92	231.59
782.25	231.51
782.57	231.44
782.89	231.40
783.22	231.36
783.54	231.28
783.86	231.26
784.19	231.20
784.51	231.17
784.83	231.10
785.16	231.08
785.48	231.02
785.80	231.02
786.12	230.99
786.45	230.95
786.77	230.97
787.09	230.94
