SpectraSuite Data File
++++++++++++++++++++++++++++++++++++
Date: Fri Feb 01 17:29:23 EST 2013
User: group
Dark Spectrum Present: No
Reference Spectrum Present: No
Number of Sampled Component Spectra: 1
Spectrometers: USB2E7196
Integration Time (usec): 35000 (USB2E7196)
Spectra Averaged: 100 (USB2E7196)
Boxcar Smoothing: 10 (USB2E7196)
Correct for Electrical Dark: No (USB2E7196)
Strobe/Lamp Enabled: No (USB2E7196)
Correct for Detector Non-linearity: No (USB2E7196)
Correct for Stray Light: No (USB2E7196)
Number of Pixels in Processed Spectrum: 2048
>>>>>Begin Processed Spectral Data<<<<<
339.09	0.00
339.48	212.51
339.86	214.56
340.24	215.53
340.63	217.25
341.01	220.08
341.39	219.53
341.78	221.16
342.16	222.30
342.54	222.69
342.93	211.39
343.31	222.07
343.69	222.64
344.07	223.09
344.46	223.53
344.84	223.90
345.22	224.14
345.60	224.40
345.99	224.57
346.37	224.71
346.75	224.81
347.13	224.85
347.52	224.93
347.90	225.02
348.28	225.05
348.66	225.07
349.05	225.07
349.43	225.04
349.81	225.05
350.19	225.09
350.57	225.14
350.96	225.23
351.34	225.30
351.72	225.38
352.10	225.46
352.48	225.50
352.87	225.56
353.25	225.62
353.63	225.69
354.01	225.80
354.39	225.88
354.77	225.94
355.15	226.04
355.54	226.09
355.92	226.13
356.30	226.16
356.68	226.32
357.06	226.40
357.44	226.47
357.82	226.52
358.20	226.59
358.58	226.67
358.97	226.71
359.35	226.76
359.73	226.83
360.11	226.91
360.49	227.01
360.87	227.07
361.25	227.13
361.63	227.17
362.01	227.20
362.39	227.19
362.77	227.26
363.15	227.25
363.53	227.29
363.91	227.32
364.29	227.38
364.67	227.30
365.05	227.32
365.43	227.33
365.81	227.38
366.19	227.45
366.57	227.45
366.95	227.42
367.33	227.40
367.71	227.40
368.09	227.37
368.47	227.33
368.85	227.30
369.23	227.31
369.61	227.28
369.99	227.28
370.37	227.31
370.75	227.32
371.13	227.27
371.51	227.22
371.89	227.14
372.27	227.12
372.65	227.08
373.03	227.04
373.41	227.00
373.78	226.92
374.16	226.81
374.54	226.77
374.92	226.76
375.30	226.71
375.68	226.66
376.06	226.59
376.44	226.55
376.82	226.52
377.19	226.41
377.57	226.32
377.95	226.21
378.33	226.14
378.71	226.03
379.09	225.97
379.47	225.91
379.84	225.87
380.22	225.78
380.60	225.74
380.98	225.67
381.36	225.60
381.73	225.54
382.11	225.50
382.49	225.46
382.87	225.39
383.25	225.35
383.62	225.40
384.00	225.39
384.38	225.32
384.76	225.29
385.13	225.30
385.51	225.27
385.89	225.22
386.27	225.16
386.64	225.14
387.02	225.11
387.40	225.09
387.78	225.03
388.15	224.98
388.53	224.92
388.91	224.90
389.29	224.86
389.66	224.87
390.04	224.80
390.42	224.79
390.79	224.77
391.17	224.77
391.55	224.63
391.92	224.58
392.30	224.59
392.68	224.56
393.05	224.52
393.43	224.54
393.81	224.54
394.18	224.50
394.56	224.51
394.94	224.54
395.31	224.56
395.69	224.65
396.06	224.72
396.44	224.74
396.82	224.75
397.19	224.82
397.57	224.86
397.95	224.93
398.32	224.92
398.70	224.97
399.07	225.00
399.45	225.05
399.82	225.11
400.20	225.16
400.58	225.24
400.95	225.27
401.33	225.33
401.70	225.47
402.08	225.59
402.45	225.67
402.83	225.78
403.20	225.87
403.58	225.93
403.95	226.05
404.33	226.17
404.71	226.28
405.08	226.45
405.46	226.56
405.83	226.69
406.21	226.82
406.58	226.97
406.96	227.15
407.33	227.31
407.70	227.47
408.08	227.73
408.45	227.90
408.83	228.15
409.20	228.38
409.58	228.55
409.95	228.78
410.33	229.05
410.70	229.28
411.08	229.55
411.45	229.87
411.82	230.16
412.20	230.52
412.57	230.95
412.95	231.26
413.32	231.66
413.69	232.06
414.07	232.53
414.44	233.02
414.82	233.49
415.19	234.06
415.56	234.63
415.94	235.19
416.31	235.89
416.68	236.51
417.06	237.26
417.43	237.99
417.81	238.81
418.18	239.58
418.55	240.48
418.93	241.42
419.30	242.36
419.67	243.32
420.04	244.29
420.42	245.35
420.79	246.60
421.16	247.81
421.54	249.05
421.91	250.33
422.28	251.63
422.66	253.05
423.03	254.43
423.40	255.87
423.77	257.31
424.15	258.79
424.52	260.35
424.89	261.97
425.26	263.59
425.64	265.09
426.01	266.79
426.38	268.51
426.75	270.25
427.13	272.03
427.50	273.88
427.87	275.86
428.24	277.80
428.61	279.61
428.99	281.60
429.36	283.83
429.73	285.98
430.10	288.09
430.47	290.22
430.85	292.43
431.22	294.73
431.59	297.24
431.96	299.53
432.33	302.14
432.70	304.65
433.08	307.60
433.45	310.33
433.82	313.06
434.19	316.04
434.56	318.92
434.93	321.67
435.30	324.42
435.68	327.40
436.05	330.34
436.42	333.20
436.79	335.86
437.16	338.63
437.53	341.53
437.90	344.44
438.27	347.28
438.64	350.23
439.01	352.90
439.38	355.21
439.75	357.51
440.13	360.12
440.50	362.54
440.87	364.45
441.24	366.50
441.61	368.74
441.98	370.37
442.35	372.29
442.72	374.29
443.09	376.19
443.46	377.26
443.83	377.85
444.20	378.43
444.57	379.32
444.94	379.63
445.31	380.03
445.68	380.41
446.05	380.51
446.42	380.11
446.79	379.71
447.16	379.25
447.53	378.97
447.90	377.73
448.27	376.54
448.64	374.90
449.01	373.78
449.37	371.74
449.74	369.74
450.11	367.37
450.48	364.81
450.85	362.21
451.22	359.99
451.59	357.94
451.96	355.93
452.33	353.23
452.70	350.75
453.07	347.84
453.43	344.86
453.80	341.98
454.17	339.18
454.54	336.55
454.91	333.75
455.28	330.94
455.65	328.38
456.02	325.80
456.38	323.59
456.75	320.76
457.12	318.38
457.49	315.99
457.86	313.75
458.23	311.78
458.59	309.62
458.96	307.46
459.33	305.50
459.70	303.52
460.07	301.96
460.43	300.22
460.80	298.48
461.17	296.96
461.54	295.41
461.91	293.95
462.27	292.42
462.64	291.10
463.01	289.66
463.38	288.28
463.74	286.89
464.11	285.67
464.48	284.60
464.85	283.47
465.21	282.64
465.58	281.68
465.95	280.51
466.32	279.55
466.68	278.58
467.05	277.67
467.42	276.75
467.78	275.74
468.15	274.80
468.52	274.13
468.88	273.25
469.25	272.44
469.62	271.79
469.98	271.12
470.35	270.49
470.72	269.90
471.08	269.26
471.45	268.68
471.82	268.08
472.18	267.47
472.55	267.02
472.92	266.48
473.28	266.00
473.65	265.61
474.02	265.20
474.38	264.81
474.75	264.44
475.11	264.09
475.48	263.85
475.85	263.66
476.21	263.43
476.58	263.24
476.94	263.09
477.31	262.93
477.67	262.77
478.04	262.66
478.41	262.61
478.77	262.62
479.14	262.58
479.50	262.62
479.87	262.71
480.23	262.77
480.60	262.84
480.96	262.95
481.33	263.17
481.69	263.36
482.06	263.60
482.42	263.82
482.79	264.11
483.15	264.40
483.52	264.75
483.88	265.11
484.25	265.49
484.61	265.92
484.98	266.39
485.34	266.98
485.71	267.57
486.07	268.14
486.44	268.75
486.80	269.46
487.17	270.16
487.53	270.95
487.90	271.84
488.26	272.75
488.62	273.76
488.99	274.75
489.35	275.79
489.72	276.90
490.08	278.11
490.44	279.35
490.81	280.73
491.17	282.04
491.54	283.53
491.90	285.08
492.26	286.73
492.63	288.44
492.99	290.20
493.36	292.10
493.72	294.14
494.08	296.20
494.45	298.42
494.81	300.78
495.17	303.21
495.54	305.72
495.90	308.38
496.26	311.13
496.63	313.99
496.99	317.06
497.35	320.28
497.72	323.68
498.08	327.14
498.44	330.72
498.80	334.63
499.17	338.60
499.53	342.73
499.89	347.06
500.26	351.51
500.62	356.09
500.98	360.96
501.34	365.98
501.71	371.26
502.07	376.65
502.43	382.18
502.79	387.86
503.16	393.88
503.52	400.07
503.88	406.39
504.24	412.95
504.60	419.71
504.97	426.77
505.33	433.92
505.69	441.50
506.05	449.16
506.41	456.90
506.78	464.93
507.14	473.18
507.50	481.67
507.86	490.54
508.22	499.53
508.59	508.54
508.95	517.88
509.31	527.45
509.67	537.31
510.03	547.36
510.39	557.73
510.75	568.26
511.12	578.97
511.48	589.95
511.84	601.08
512.20	612.38
512.56	623.98
512.92	635.81
513.28	647.92
513.64	660.07
514.00	672.43
514.37	685.05
514.73	697.85
515.09	710.62
515.45	723.49
515.81	736.81
516.17	750.45
516.53	764.24
516.89	778.12
517.25	791.90
517.61	806.06
517.97	820.18
518.33	834.17
518.69	848.60
519.05	863.29
519.41	878.03
519.77	893.15
520.13	908.19
520.49	923.24
520.85	938.01
521.21	953.24
521.57	969.11
521.93	984.41
522.29	1000.27
522.65	1015.96
523.01	1031.74
523.37	1047.24
523.73	1062.89
524.09	1078.53
524.45	1094.23
524.81	1110.53
525.17	1126.63
525.53	1142.89
525.89	1159.31
526.25	1175.60
526.61	1191.43
526.97	1207.67
527.33	1223.69
527.68	1239.72
528.04	1255.67
528.40	1271.85
528.76	1288.51
529.12	1304.71
529.48	1321.10
529.84	1336.58
530.20	1352.82
530.56	1369.31
530.91	1386.20
531.27	1402.65
531.63	1418.68
531.99	1434.96
532.35	1450.46
532.71	1466.08
533.07	1482.00
533.42	1497.59
533.78	1513.22
534.14	1529.17
534.50	1544.22
534.86	1559.73
535.21	1574.67
535.57	1590.27
535.93	1605.38
536.29	1619.82
536.65	1634.50
537.00	1648.90
537.36	1664.09
537.72	1678.25
538.08	1692.49
538.44	1706.11
538.79	1719.61
539.15	1732.90
539.51	1746.17
539.87	1760.16
540.22	1773.62
540.58	1787.16
540.94	1800.22
541.29	1812.73
541.65	1825.17
542.01	1838.24
542.37	1850.32
542.72	1862.62
543.08	1874.41
543.44	1886.82
543.79	1898.04
544.15	1908.88
544.51	1920.40
544.87	1931.18
545.22	1942.07
545.58	1952.26
545.94	1962.14
546.29	1972.08
546.65	1982.11
547.01	1991.58
547.36	2000.38
547.72	2008.96
548.07	2017.05
548.43	2025.25
548.79	2033.52
549.14	2041.29
549.50	2048.69
549.86	2056.44
550.21	2063.91
550.57	2071.22
550.92	2078.02
551.28	2085.21
551.64	2092.45
551.99	2099.20
552.35	2105.70
552.70	2112.07
553.06	2118.43
553.41	2124.91
553.77	2131.08
554.13	2137.43
554.48	2143.82
554.84	2149.72
555.19	2155.27
555.55	2160.81
555.90	2165.56
556.26	2170.85
556.61	2175.80
556.97	2180.58
557.32	2185.23
557.68	2189.72
558.03	2194.11
558.39	2198.02
558.74	2203.04
559.10	2207.35
559.45	2211.36
559.81	2215.80
560.16	2219.99
560.52	2223.41
560.87	2227.03
561.23	2230.04
561.58	2233.19
561.94	2236.10
562.29	2238.64
562.64	2241.77
563.00	2244.56
563.35	2248.63
563.71	2252.09
564.06	2255.66
564.42	2258.95
564.77	2261.73
565.12	2264.58
565.48	2267.20
565.83	2269.63
566.19	2271.39
566.54	2272.63
566.89	2274.24
567.25	2275.38
567.60	2277.13
567.96	2279.41
568.31	2280.83
568.66	2282.47
569.02	2283.56
569.37	2284.33
569.72	2285.76
570.08	2286.44
570.43	2286.81
570.78	2286.52
571.14	2285.31
571.49	2284.42
571.84	2284.45
572.20	2283.92
572.55	2283.07
572.90	2281.63
573.26	2280.57
573.61	2279.11
573.96	2277.99
574.31	2275.62
574.67	2273.08
575.02	2269.72
575.37	2266.56
575.72	2263.31
576.08	2260.33
576.43	2257.38
576.78	2254.25
577.13	2251.36
577.49	2248.50
577.84	2245.54
578.19	2242.27
578.54	2239.20
578.90	2235.47
579.25	2230.30
579.60	2225.57
579.95	2221.09
580.30	2216.56
580.66	2211.85
581.01	2207.30
581.36	2202.52
581.71	2198.59
582.06	2194.62
582.42	2190.56
582.77	2185.63
583.12	2181.41
583.47	2177.07
583.82	2172.44
584.17	2167.39
584.53	2162.20
584.88	2156.82
585.23	2151.45
585.58	2146.13
585.93	2140.95
586.28	2136.26
586.63	2131.41
586.98	2126.65
587.34	2122.14
587.69	2117.45
588.04	2112.62
588.39	2107.23
588.74	2101.05
589.09	2095.14
589.44	2088.51
589.79	2082.68
590.14	2077.43
590.49	2070.90
590.84	2064.63
591.19	2059.04
591.54	2052.70
591.89	2045.71
592.25	2039.18
592.60	2032.12
592.95	2024.92
593.30	2017.75
593.65	2010.34
594.00	2003.45
594.35	1996.33
594.70	1988.33
595.05	1981.47
595.40	1974.09
595.75	1966.70
596.10	1960.65
596.45	1954.21
596.80	1948.19
597.15	1941.83
597.50	1934.94
597.85	1928.60
598.19	1922.12
598.54	1915.04
598.89	1908.63
599.24	1902.82
599.59	1896.44
599.94	1890.28
600.29	1884.08
600.64	1877.54
600.99	1870.33
601.34	1863.72
601.69	1856.86
602.04	1850.26
602.39	1842.94
602.74	1836.25
603.08	1829.59
603.43	1822.96
603.78	1815.64
604.13	1808.48
604.48	1801.34
604.83	1794.53
605.18	1787.87
605.53	1780.11
605.87	1772.13
606.22	1764.95
606.57	1757.02
606.92	1749.52
607.27	1742.45
607.62	1735.62
607.96	1728.60
608.31	1722.10
608.66	1714.64
609.01	1707.15
609.36	1699.47
609.70	1691.49
610.05	1683.54
610.40	1675.96
610.75	1667.53
611.10	1659.86
611.44	1651.40
611.79	1643.25
612.14	1634.52
612.49	1625.10
612.83	1616.49
613.18	1608.25
613.53	1600.05
613.88	1591.34
614.22	1583.12
614.57	1574.39
614.92	1566.16
615.27	1558.58
615.61	1550.17
615.96	1541.83
616.31	1534.07
616.65	1526.73
617.00	1519.07
617.35	1511.26
617.70	1502.99
618.04	1494.52
618.39	1486.08
618.74	1478.49
619.08	1470.11
619.43	1462.38
619.78	1455.36
620.12	1448.21
620.47	1440.61
620.82	1432.38
621.16	1424.92
621.51	1417.08
621.85	1409.24
622.20	1400.70
622.55	1392.10
622.89	1384.11
623.24	1376.39
623.59	1368.90
623.93	1361.26
624.28	1353.95
624.62	1346.47
624.97	1339.06
625.32	1332.10
625.66	1325.05
626.01	1317.80
626.35	1310.47
626.70	1302.76
627.04	1295.01
627.39	1287.10
627.73	1279.61
628.08	1272.61
628.43	1265.35
628.77	1258.02
629.12	1250.55
629.46	1243.32
629.81	1235.65
630.15	1228.33
630.50	1220.92
630.84	1212.68
631.19	1204.58
631.53	1196.95
631.88	1189.09
632.22	1181.44
632.57	1174.05
632.91	1166.41
633.26	1158.84
633.60	1151.28
633.95	1143.91
634.29	1136.86
634.64	1130.08
634.98	1122.69
635.32	1115.41
635.67	1108.64
636.01	1101.83
636.36	1094.90
636.70	1088.20
637.05	1081.68
637.39	1075.19
637.73	1068.68
638.08	1062.73
638.42	1056.72
638.77	1050.21
639.11	1043.70
639.45	1037.20
639.80	1030.50
640.14	1024.09
640.49	1017.60
640.83	1011.22
641.17	1004.96
641.52	998.57
641.86	992.09
642.20	986.14
642.55	979.76
642.89	973.37
643.23	966.75
643.58	960.97
643.92	954.86
644.26	948.74
644.61	942.58
644.95	936.54
645.29	929.98
645.64	923.17
645.98	916.79
646.32	910.76
646.66	904.75
647.01	898.98
647.35	893.27
647.69	887.26
648.04	881.65
648.38	875.95
648.72	870.06
649.06	864.00
649.41	858.03
649.75	852.04
650.09	846.04
650.43	840.28
650.78	834.14
651.12	828.05
651.46	822.34
651.80	816.74
652.14	811.30
652.49	805.86
652.83	800.81
653.17	795.25
653.51	789.67
653.85	784.21
654.20	778.55
654.54	772.46
654.88	766.75
655.22	760.81
655.56	755.01
655.90	749.39
656.25	744.16
656.59	738.86
656.93	733.83
657.27	728.72
657.61	723.30
657.95	718.20
658.29	713.14
658.64	707.84
658.98	702.36
659.32	696.81
659.66	691.62
660.00	686.25
660.34	681.28
660.68	676.29
661.02	671.25
661.36	666.51
661.70	662.03
662.05	657.63
662.39	653.28
662.73	648.89
663.07	644.51
663.41	640.01
663.75	635.53
664.09	630.96
664.43	626.49
664.77	622.41
665.11	618.15
665.45	614.00
665.79	609.97
666.13	605.83
666.47	601.78
666.81	597.55
667.15	593.38
667.49	589.34
667.83	585.45
668.17	581.49
668.51	577.44
668.85	573.34
669.19	569.54
669.53	565.74
669.87	561.81
670.21	558.04
670.55	554.41
670.89	550.97
671.23	547.53
671.57	543.96
671.91	540.43
672.25	536.86
672.58	533.32
672.92	529.83
673.26	526.60
673.60	523.37
673.94	520.34
674.28	517.34
674.62	514.41
674.96	511.31
675.30	508.42
675.64	505.48
675.97	502.69
676.31	499.73
676.65	496.74
676.99	494.03
677.33	491.12
677.67	488.27
678.01	485.16
678.34	482.17
678.68	479.28
679.02	476.42
679.36	473.64
679.70	470.86
680.04	468.08
680.37	465.27
680.71	462.43
681.05	459.74
681.39	457.04
681.73	454.37
682.06	451.84
682.40	449.26
682.74	446.70
683.08	444.10
683.42	441.48
683.75	439.02
684.09	436.36
684.43	433.92
684.77	431.41
685.10	429.00
685.44	426.65
685.78	424.32
686.12	421.99
686.45	419.67
686.79	417.39
687.13	415.17
687.46	412.93
687.80	410.78
688.14	408.48
688.48	406.44
688.81	404.18
689.15	401.98
689.49	399.74
689.82	397.62
690.16	395.48
690.50	393.52
690.83	391.51
691.17	389.49
691.51	387.59
691.84	385.74
692.18	383.85
692.52	381.85
692.85	379.89
693.19	378.01
693.52	376.12
693.86	374.24
694.20	372.42
694.53	370.68
694.87	368.80
695.21	367.02
695.54	365.08
695.88	363.30
696.21	361.57
696.55	359.95
696.88	358.23
697.22	356.56
697.56	354.89
697.89	353.23
698.23	351.69
698.56	350.06
698.90	348.49
699.23	346.81
699.57	345.22
699.90	343.63
700.24	342.08
700.58	340.57
700.91	339.11
701.25	337.66
701.58	336.24
701.92	334.88
702.25	333.49
702.59	332.20
702.92	330.88
703.26	329.56
703.59	328.21
703.93	327.00
704.26	325.79
704.60	324.49
704.93	323.18
705.26	321.87
705.60	320.63
705.93	319.38
706.27	318.33
706.60	317.23
706.94	316.18
707.27	315.03
707.61	313.89
707.94	312.78
708.27	311.62
708.61	310.53
708.94	309.47
709.28	308.51
709.61	307.51
709.94	306.49
710.28	305.43
710.61	304.43
710.95	303.28
711.28	302.31
711.61	301.37
711.95	300.48
712.28	299.54
712.61	298.59
712.95	297.66
713.28	296.74
713.61	295.87
713.95	294.93
714.28	294.07
714.61	293.22
714.95	292.41
715.28	291.59
715.61	290.67
715.95	289.81
716.28	288.93
716.61	288.01
716.95	287.19
717.28	286.40
717.61	285.63
717.94	284.89
718.28	284.05
718.61	283.26
718.94	282.50
719.27	281.81
719.61	281.11
719.94	280.40
720.27	279.67
720.60	278.98
720.94	278.33
721.27	277.71
721.60	277.12
721.93	276.52
722.27	275.94
722.60	275.42
722.93	274.82
723.26	274.24
723.59	273.70
723.93	273.14
724.26	272.60
724.59	272.00
724.92	271.45
725.25	270.96
725.59	270.47
725.92	269.94
726.25	269.41
726.58	268.92
726.91	268.44
727.24	267.98
727.57	267.47
727.91	266.96
728.24	266.49
728.57	265.98
728.90	265.47
729.23	264.95
729.56	264.50
729.89	264.03
730.22	263.53
730.55	263.08
730.89	262.63
731.22	262.19
731.55	261.74
731.88	261.31
732.21	260.85
732.54	260.38
732.87	259.97
733.20	259.58
733.53	259.18
733.86	258.83
734.19	258.39
734.52	257.99
734.85	257.67
735.18	257.24
735.51	256.87
735.84	256.47
736.17	256.12
736.50	255.71
736.83	255.51
737.16	255.19
737.49	254.86
737.82	254.51
738.15	254.16
738.48	253.85
738.81	253.55
739.14	253.24
739.47	252.95
739.80	252.63
740.13	252.29
740.46	251.96
740.79	251.59
741.12	251.29
741.45	251.01
741.78	250.63
742.11	250.31
742.44	250.01
742.77	249.74
743.10	249.45
743.43	249.14
743.75	248.72
744.08	248.57
744.41	248.25
744.74	248.00
745.07	247.72
745.40	247.50
745.73	247.25
746.06	246.99
746.39	246.71
746.71	246.45
747.04	246.20
747.37	245.92
747.70	245.68
748.03	245.47
748.36	245.23
748.68	245.03
749.01	244.83
749.34	244.60
749.67	244.37
750.00	244.13
750.33	243.98
750.65	243.77
750.98	243.43
751.31	243.18
751.64	242.95
751.97	242.79
752.29	242.52
752.62	242.24
752.95	241.98
753.28	241.75
753.60	241.56
753.93	241.36
754.26	241.15
754.59	240.93
754.91	240.70
755.24	240.47
755.57	240.26
755.90	240.06
756.22	239.85
756.55	239.63
756.88	239.42
757.20	239.17
757.53	238.98
757.86	238.79
758.19	238.68
758.51	238.49
758.84	238.26
759.17	238.11
759.49	237.97
759.82	237.86
760.15	237.75
760.47	237.56
760.80	237.40
761.13	237.28
761.45	237.11
761.78	236.94
762.11	236.81
762.43	236.67
762.76	236.50
763.08	236.36
763.41	236.23
763.74	236.10
764.06	235.94
764.39	235.79
764.71	235.61
765.04	235.43
765.37	235.27
765.69	235.13
766.02	234.99
766.34	234.83
766.67	234.68
767.00	234.58
767.32	234.51
767.65	234.45
767.97	234.34
768.30	234.26
768.62	234.17
768.95	234.06
769.27	233.97
769.60	233.88
769.92	233.76
770.25	233.63
770.57	233.52
770.90	233.43
771.22	233.32
771.55	233.28
771.87	233.21
772.20	233.13
772.52	233.15
772.85	233.19
773.17	233.12
773.50	233.02
773.82	232.87
774.15	232.74
774.47	232.61
774.80	232.52
775.12	232.43
775.45	232.33
775.77	232.22
776.09	232.14
776.42	232.07
776.74	232.02
777.07	231.96
777.39	231.88
777.72	231.81
778.04	231.75
778.36	231.68
778.69	231.61
779.01	231.56
779.33	231.38
779.66	231.19
779.98	231.14
780.31	231.05
780.63	231.06
780.95	231.01
781.28	230.95
781.60	230.86
781.92	230.77
782.25	230.75
782.57	230.68
782.89	230.62
783.22	230.52
783.54	230.48
783.86	230.43
784.19	230.41
784.51	230.38
784.83	230.31
785.16	230.25
785.48	230.20
785.80	230.17
786.12	230.13
786.45	230.09
786.77	230.01
787.09	230.00
