SpectraSuite Data File
++++++++++++++++++++++++++++++++++++
Date: Fri Feb 01 16:22:42 EST 2013
User: group
Dark Spectrum Present: No
Reference Spectrum Present: No
Number of Sampled Component Spectra: 1
Spectrometers: USB2E7196
Integration Time (usec): 35000 (USB2E7196)
Spectra Averaged: 100 (USB2E7196)
Boxcar Smoothing: 10 (USB2E7196)
Correct for Electrical Dark: No (USB2E7196)
Strobe/Lamp Enabled: No (USB2E7196)
Correct for Detector Non-linearity: No (USB2E7196)
Correct for Stray Light: No (USB2E7196)
Number of Pixels in Processed Spectrum: 2048
>>>>>Begin Processed Spectral Data<<<<<
339.09	0.00
339.48	214.00
339.86	215.65
340.24	216.97
340.63	218.40
341.01	221.38
341.39	220.77
341.78	221.97
342.16	223.53
342.54	223.73
342.93	212.52
343.31	223.26
343.69	223.80
344.07	224.25
344.46	224.64
344.84	225.00
345.22	225.24
345.60	225.48
345.99	225.67
346.37	225.82
346.75	225.93
347.13	225.98
347.52	226.02
347.90	226.06
348.28	226.03
348.66	226.06
349.05	226.06
349.43	226.07
349.81	226.07
350.19	226.14
350.57	226.22
350.96	226.28
351.34	226.35
351.72	226.47
352.10	226.58
352.48	226.64
352.87	226.70
353.25	226.75
353.63	226.83
354.01	226.93
354.39	226.96
354.77	227.02
355.15	227.13
355.54	227.20
355.92	227.27
356.30	227.37
356.68	227.51
357.06	227.55
357.44	227.59
357.82	227.65
358.20	227.69
358.58	227.70
358.97	227.76
359.35	227.85
359.73	227.88
360.11	227.93
360.49	228.03
360.87	228.08
361.25	228.14
361.63	228.20
362.01	228.22
362.39	228.26
362.77	228.31
363.15	228.30
363.53	228.32
363.91	228.34
364.29	228.35
364.67	228.29
365.05	228.32
365.43	228.34
365.81	228.37
366.19	228.40
366.57	228.46
366.95	228.43
367.33	228.41
367.71	228.40
368.09	228.39
368.47	228.39
368.85	228.36
369.23	228.35
369.61	228.28
369.99	228.29
370.37	228.27
370.75	228.30
371.13	228.28
371.51	228.23
371.89	228.22
372.27	228.20
372.65	228.14
373.03	228.10
373.41	228.05
373.78	228.00
374.16	227.93
374.54	227.85
374.92	227.79
375.30	227.70
375.68	227.63
376.06	227.58
376.44	227.52
376.82	227.48
377.19	227.42
377.57	227.36
377.95	227.25
378.33	227.19
378.71	227.06
379.09	227.01
379.47	226.96
379.84	226.87
380.22	226.78
380.60	226.69
380.98	226.59
381.36	226.52
381.73	226.46
382.11	226.40
382.49	226.32
382.87	226.29
383.25	226.25
383.62	226.31
384.00	226.21
384.38	226.15
384.76	226.10
385.13	226.09
385.51	226.06
385.89	226.05
386.27	225.97
386.64	225.96
387.02	225.90
387.40	225.88
387.78	225.84
388.15	225.83
388.53	225.81
388.91	225.82
389.29	225.76
389.66	225.72
390.04	225.69
390.42	225.71
390.79	225.68
391.17	225.66
391.55	225.58
391.92	225.58
392.30	225.57
392.68	225.56
393.05	225.52
393.43	225.51
393.81	225.52
394.18	225.52
394.56	225.53
394.94	225.58
395.31	225.58
395.69	225.63
396.06	225.67
396.44	225.71
396.82	225.77
397.19	225.89
397.57	225.92
397.95	225.98
398.32	225.98
398.70	226.04
399.07	226.14
399.45	226.16
399.82	226.24
400.20	226.29
400.58	226.36
400.95	226.40
401.33	226.48
401.70	226.58
402.08	226.67
402.45	226.75
402.83	226.86
403.20	226.96
403.58	227.05
403.95	227.17
404.33	227.28
404.71	227.37
405.08	227.52
405.46	227.68
405.83	227.80
406.21	227.95
406.58	228.12
406.96	228.25
407.33	228.41
407.70	228.58
408.08	228.86
408.45	229.09
408.83	229.34
409.20	229.58
409.58	229.74
409.95	229.99
410.33	230.25
410.70	230.46
411.08	230.74
411.45	231.05
411.82	231.35
412.20	231.74
412.57	232.14
412.95	232.44
413.32	232.84
413.69	233.28
414.07	233.68
414.44	234.14
414.82	234.62
415.19	235.20
415.56	235.77
415.94	236.27
416.31	236.90
416.68	237.48
417.06	238.21
417.43	238.88
417.81	239.66
418.18	240.44
418.55	241.29
418.93	242.18
419.30	243.04
419.67	243.98
420.04	244.89
420.42	245.88
420.79	247.07
421.16	248.18
421.54	249.37
421.91	250.59
422.28	251.83
422.66	253.13
423.03	254.39
423.40	255.71
423.77	257.15
424.15	258.55
424.52	260.07
424.89	261.65
425.26	263.22
425.64	264.66
426.01	266.27
426.38	267.92
426.75	269.58
427.13	271.35
427.50	273.12
427.87	275.03
428.24	276.92
428.61	278.66
428.99	280.63
429.36	282.73
429.73	284.82
430.10	286.85
430.47	288.90
430.85	291.02
431.22	293.27
431.59	295.59
431.96	297.87
432.33	300.35
432.70	302.71
433.08	305.58
433.45	308.25
433.82	310.84
434.19	313.77
434.56	316.60
434.93	319.23
435.30	321.87
435.68	324.76
436.05	327.54
436.42	330.33
436.79	332.81
437.16	335.49
437.53	338.32
437.90	341.11
438.27	343.84
438.64	346.62
439.01	349.21
439.38	351.49
439.75	353.64
440.13	356.13
440.50	358.46
440.87	360.24
441.24	362.15
441.61	364.27
441.98	365.70
442.35	367.43
442.72	369.25
443.09	371.05
443.46	371.96
443.83	372.58
444.20	373.06
444.57	373.91
444.94	374.17
445.31	374.50
445.68	374.84
446.05	374.91
446.42	374.58
446.79	374.12
447.16	373.67
447.53	373.33
447.90	372.14
448.27	370.99
448.64	369.40
449.01	368.23
449.37	366.24
449.74	364.34
450.11	362.11
450.48	359.62
450.85	357.04
451.22	354.96
451.59	352.94
451.96	350.98
452.33	348.38
452.70	346.04
453.07	343.17
453.43	340.30
453.80	337.54
454.17	334.87
454.54	332.35
454.91	329.62
455.28	326.96
455.65	324.53
456.02	322.07
456.38	319.90
456.75	317.26
457.12	315.05
457.49	312.85
457.86	310.72
458.23	308.89
458.59	306.88
458.96	304.77
459.33	302.94
459.70	301.07
460.07	299.57
460.43	297.86
460.80	296.26
461.17	294.81
461.54	293.34
461.91	291.90
462.27	290.47
462.64	289.24
463.01	287.84
463.38	286.54
463.74	285.15
464.11	284.01
464.48	283.00
464.85	281.85
465.21	281.00
465.58	280.07
465.95	278.98
466.32	278.07
466.68	277.21
467.05	276.29
467.42	275.45
467.78	274.52
468.15	273.63
468.52	273.00
468.88	272.18
469.25	271.41
469.62	270.77
469.98	270.08
470.35	269.45
470.72	268.90
471.08	268.22
471.45	267.73
471.82	267.21
472.18	266.63
472.55	266.24
472.92	265.72
473.28	265.30
473.65	264.86
474.02	264.48
474.38	264.12
474.75	263.84
475.11	263.51
475.48	263.27
475.85	263.06
476.21	262.81
476.58	262.63
476.94	262.53
477.31	262.39
477.67	262.29
478.04	262.22
478.41	262.16
478.77	262.21
479.14	262.21
479.50	262.26
479.87	262.36
480.23	262.45
480.60	262.54
480.96	262.63
481.33	262.87
481.69	263.07
482.06	263.25
482.42	263.46
482.79	263.71
483.15	264.05
483.52	264.48
483.88	264.86
484.25	265.25
484.61	265.69
484.98	266.17
485.34	266.75
485.71	267.31
486.07	267.95
486.44	268.53
486.80	269.21
487.17	269.93
487.53	270.76
487.90	271.65
488.26	272.61
488.62	273.60
488.99	274.61
489.35	275.66
489.72	276.80
490.08	277.98
490.44	279.21
490.81	280.57
491.17	281.92
491.54	283.38
491.90	284.96
492.26	286.54
492.63	288.31
492.99	290.06
493.36	291.96
493.72	293.99
494.08	296.12
494.45	298.37
494.81	300.70
495.17	303.12
495.54	305.66
495.90	308.32
496.26	311.13
496.63	314.06
496.99	317.16
497.35	320.44
497.72	323.88
498.08	327.44
498.44	331.04
498.80	334.94
499.17	339.01
499.53	343.17
499.89	347.59
500.26	352.03
500.62	356.71
500.98	361.65
501.34	366.75
501.71	372.04
502.07	377.47
502.43	383.15
502.79	388.98
503.16	395.05
503.52	401.34
503.88	407.75
504.24	414.40
504.60	421.32
504.97	428.42
505.33	435.78
505.69	443.52
506.05	451.33
506.41	459.28
506.78	467.44
507.14	475.87
507.50	484.62
507.86	493.69
508.22	502.88
508.59	512.13
508.95	521.69
509.31	531.52
509.67	541.67
510.03	551.98
510.39	562.54
510.75	573.37
511.12	584.30
511.48	595.59
511.84	607.00
512.20	618.49
512.56	630.46
512.92	642.65
513.28	654.91
513.64	667.48
514.00	680.11
514.37	693.13
514.73	706.23
515.09	719.24
515.45	732.48
515.81	746.09
516.17	760.08
516.53	774.27
516.89	788.45
517.25	802.57
517.61	816.94
517.97	831.38
518.33	845.74
518.69	860.51
519.05	875.53
519.41	890.70
519.77	906.25
520.13	921.72
520.49	937.06
520.85	952.37
521.21	967.99
521.57	984.23
521.93	999.89
522.29	1016.30
522.65	1032.47
523.01	1048.69
523.37	1064.62
523.73	1080.75
524.09	1096.73
524.45	1112.92
524.81	1129.51
525.17	1146.32
525.53	1163.13
525.89	1180.05
526.25	1196.78
526.61	1213.06
526.97	1229.78
527.33	1246.14
527.68	1262.59
528.04	1279.00
528.40	1295.60
528.76	1312.53
529.12	1329.12
529.48	1345.92
529.84	1361.74
530.20	1378.39
530.56	1395.31
530.91	1412.72
531.27	1429.29
531.63	1445.75
531.99	1462.33
532.35	1478.22
532.71	1493.92
533.07	1510.21
533.42	1525.85
533.78	1541.86
534.14	1558.06
534.50	1573.26
534.86	1589.12
535.21	1604.35
535.57	1620.13
535.93	1635.62
536.29	1650.37
536.65	1665.23
537.00	1680.02
537.36	1695.15
537.72	1709.41
538.08	1723.68
538.44	1737.39
538.79	1751.34
539.15	1764.91
539.51	1778.59
539.87	1792.83
540.22	1806.58
540.58	1820.25
540.94	1833.59
541.29	1846.41
541.65	1859.04
542.01	1872.17
542.37	1884.45
542.72	1896.75
543.08	1908.53
543.44	1920.81
543.79	1931.99
544.15	1942.97
544.51	1954.41
544.87	1965.38
545.22	1976.20
545.58	1986.52
545.94	1996.14
546.29	2005.83
546.65	2015.54
547.01	2024.66
547.36	2033.47
547.72	2041.93
548.07	2049.64
548.43	2057.85
548.79	2065.91
549.14	2073.32
549.50	2080.56
549.86	2088.07
550.21	2095.27
550.57	2102.30
550.92	2108.79
551.28	2115.75
551.64	2122.70
551.99	2129.04
552.35	2135.26
552.70	2141.43
553.06	2147.32
553.41	2153.69
553.77	2159.85
554.13	2165.95
554.48	2172.16
554.84	2177.51
555.19	2182.60
555.55	2187.79
555.90	2192.13
556.26	2196.82
556.61	2201.62
556.97	2205.93
557.32	2209.96
557.68	2214.02
558.03	2218.31
558.39	2221.99
558.74	2226.70
559.10	2230.56
559.45	2234.22
559.81	2238.45
560.16	2242.29
560.52	2245.44
560.87	2248.80
561.23	2251.41
561.58	2254.29
561.94	2256.81
562.29	2259.13
562.64	2261.90
563.00	2264.40
563.35	2268.01
563.71	2271.16
564.06	2274.37
564.42	2277.17
564.77	2279.80
565.12	2282.27
565.48	2284.20
565.83	2286.13
566.19	2287.36
566.54	2288.35
566.89	2289.49
567.25	2290.13
567.60	2291.36
567.96	2293.13
568.31	2294.11
568.66	2295.11
569.02	2295.64
569.37	2295.91
569.72	2296.89
570.08	2297.13
570.43	2297.37
570.78	2296.81
571.14	2295.28
571.49	2293.93
571.84	2293.79
572.20	2292.80
572.55	2291.69
572.90	2290.24
573.26	2288.99
573.61	2287.43
573.96	2285.75
574.31	2283.11
574.67	2280.10
575.02	2276.60
575.37	2273.29
575.72	2269.57
576.08	2266.33
576.43	2263.16
576.78	2259.50
577.13	2256.25
577.49	2253.23
577.84	2249.65
578.19	2245.95
578.54	2242.47
578.90	2238.36
579.25	2232.87
579.60	2227.89
579.95	2222.96
580.30	2218.01
580.66	2212.71
581.01	2207.77
581.36	2202.81
581.71	2198.58
582.06	2194.30
582.42	2189.88
582.77	2184.72
583.12	2180.12
583.47	2175.53
583.82	2170.64
584.17	2165.57
584.53	2160.21
584.88	2154.68
585.23	2149.03
585.58	2143.69
585.93	2138.21
586.28	2133.42
586.63	2128.34
586.98	2123.36
587.34	2118.78
587.69	2113.91
588.04	2108.82
588.39	2103.15
588.74	2096.84
589.09	2090.78
589.44	2083.89
589.79	2077.88
590.14	2072.31
590.49	2065.74
590.84	2059.32
591.19	2053.31
591.54	2046.88
591.89	2039.60
592.25	2032.78
592.60	2025.62
592.95	2017.88
593.30	2010.61
593.65	2003.17
594.00	1996.14
594.35	1989.09
594.70	1980.96
595.05	1973.82
595.40	1966.54
595.75	1959.09
596.10	1952.89
596.45	1946.07
596.80	1940.06
597.15	1933.55
597.50	1926.42
597.85	1920.05
598.19	1913.48
598.54	1906.36
598.89	1899.77
599.24	1893.96
599.59	1887.25
599.94	1881.00
600.29	1874.89
600.64	1868.41
600.99	1860.97
601.34	1854.17
601.69	1847.14
602.04	1840.36
602.39	1832.98
602.74	1826.21
603.08	1819.53
603.43	1812.81
603.78	1805.58
604.13	1798.41
604.48	1791.13
604.83	1784.31
605.18	1777.38
605.53	1769.37
605.87	1761.51
606.22	1754.27
606.57	1746.26
606.92	1738.98
607.27	1731.83
607.62	1724.90
607.96	1717.63
608.31	1710.98
608.66	1703.53
609.01	1695.97
609.36	1688.45
609.70	1680.48
610.05	1672.52
610.40	1664.82
610.75	1656.43
611.10	1648.81
611.44	1640.31
611.79	1632.33
612.14	1623.73
612.49	1614.58
612.83	1606.24
613.18	1598.06
613.53	1589.89
613.88	1581.36
614.22	1573.09
614.57	1564.53
614.92	1556.45
615.27	1548.79
615.61	1540.41
615.96	1532.31
616.31	1524.79
616.65	1517.44
617.00	1509.83
617.35	1502.09
617.70	1493.77
618.04	1485.31
618.39	1476.98
618.74	1469.42
619.08	1461.07
619.43	1453.44
619.78	1446.52
620.12	1439.32
620.47	1431.77
620.82	1423.68
621.16	1416.22
621.51	1408.64
621.85	1400.89
622.20	1392.37
622.55	1384.02
622.89	1376.30
623.24	1368.71
623.59	1361.12
623.93	1353.61
624.28	1346.50
624.62	1339.01
624.97	1331.78
625.32	1325.12
625.66	1318.18
626.01	1310.92
626.35	1303.50
626.70	1295.71
627.04	1287.90
627.39	1280.10
627.73	1272.72
628.08	1265.83
628.43	1258.55
628.77	1251.06
629.12	1243.57
629.46	1236.51
629.81	1229.10
630.15	1221.74
630.50	1214.33
630.84	1206.19
631.19	1198.16
631.53	1190.44
631.88	1182.78
632.22	1175.18
632.57	1167.83
632.91	1160.25
633.26	1152.86
633.60	1145.43
633.95	1138.29
634.29	1131.27
634.64	1124.64
634.98	1117.30
635.32	1110.09
635.67	1103.46
636.01	1096.85
636.36	1090.17
636.70	1083.51
637.05	1076.97
637.39	1070.56
637.73	1064.03
638.08	1058.06
638.42	1052.03
638.77	1045.58
639.11	1039.11
639.45	1032.75
639.80	1026.05
640.14	1019.67
640.49	1013.22
640.83	1006.95
641.17	1000.83
641.52	994.49
641.86	987.97
642.20	982.03
642.55	975.64
642.89	969.14
643.23	962.58
643.58	956.73
643.92	950.58
644.26	944.46
644.61	938.40
644.95	932.37
645.29	925.83
645.64	919.13
645.98	912.89
646.32	907.04
646.66	900.96
647.01	895.15
647.35	889.43
647.69	883.57
648.04	877.97
648.38	872.10
648.72	866.11
649.06	860.06
649.41	854.24
649.75	848.34
650.09	842.47
650.43	836.79
650.78	830.60
651.12	824.69
651.46	818.99
651.80	813.29
652.14	807.87
652.49	802.48
652.83	797.28
653.17	791.65
653.51	785.87
653.85	780.42
654.20	774.78
654.54	768.79
654.88	762.93
655.22	757.09
655.56	751.46
655.90	746.02
656.25	740.80
656.59	735.40
656.93	730.22
657.27	725.02
657.61	719.50
657.95	714.38
658.29	709.25
658.64	704.04
658.98	698.69
659.32	693.20
659.66	688.03
660.00	682.70
660.34	677.72
660.68	672.79
661.02	667.82
661.36	663.11
661.70	658.53
662.05	654.22
662.39	649.88
662.73	645.34
663.07	640.98
663.41	636.55
663.75	632.12
664.09	627.65
664.43	623.25
664.77	619.11
665.11	614.93
665.45	610.73
665.79	606.66
666.13	602.50
666.47	598.37
666.81	594.20
667.15	590.12
667.49	586.15
667.83	582.38
668.17	578.47
668.51	574.36
668.85	570.37
669.19	566.54
669.53	562.74
669.87	558.92
670.21	555.13
670.55	551.47
670.89	547.98
671.23	544.49
671.57	540.96
671.91	537.43
672.25	533.81
672.58	530.31
672.92	526.88
673.26	523.73
673.60	520.58
673.94	517.45
674.28	514.53
674.62	511.67
674.96	508.49
675.30	505.55
675.64	502.60
675.97	499.83
676.31	496.93
676.65	493.98
676.99	491.30
677.33	488.53
677.67	485.68
678.01	482.63
678.34	479.74
678.68	476.86
679.02	474.07
679.36	471.33
679.70	468.61
680.04	465.80
680.37	462.89
680.71	460.14
681.05	457.52
681.39	454.80
681.73	452.11
682.06	449.60
682.40	447.07
682.74	444.59
683.08	442.02
683.42	439.43
683.75	436.96
684.09	434.33
684.43	431.86
684.77	429.41
685.10	427.07
685.44	424.76
685.78	422.46
686.12	420.20
686.45	417.92
686.79	415.62
687.13	413.45
687.46	411.33
687.80	409.15
688.14	406.93
688.48	404.83
688.81	402.56
689.15	400.42
689.49	398.26
689.82	396.14
690.16	394.05
690.50	392.07
690.83	390.09
691.17	388.11
691.51	386.19
691.84	384.32
692.18	382.38
692.52	380.34
692.85	378.43
693.19	376.59
693.52	374.75
693.86	372.93
694.20	371.16
694.53	369.33
694.87	367.49
695.21	365.74
695.54	363.97
695.88	362.28
696.21	360.53
696.55	358.85
696.88	357.19
697.22	355.52
697.56	353.94
697.89	352.28
698.23	350.70
698.56	349.08
698.90	347.53
699.23	345.90
699.57	344.36
699.90	342.89
700.24	341.32
700.58	339.80
700.91	338.36
701.25	336.90
701.58	335.58
701.92	334.24
702.25	332.85
702.59	331.44
702.92	330.12
703.26	328.83
703.59	327.56
703.93	326.40
704.26	325.20
704.60	323.84
704.93	322.59
705.26	321.34
705.60	320.15
705.93	318.98
706.27	317.94
706.60	316.90
706.94	315.79
707.27	314.65
707.61	313.63
707.94	312.58
708.27	311.51
708.61	310.42
708.94	309.39
709.28	308.41
709.61	307.47
709.94	306.51
710.28	305.51
710.61	304.50
710.95	303.44
711.28	302.54
711.61	301.65
711.95	300.74
712.28	299.79
712.61	298.80
712.95	297.85
713.28	296.99
713.61	296.06
713.95	295.17
714.28	294.33
714.61	293.44
714.95	292.56
715.28	291.66
715.61	290.79
715.95	289.93
716.28	289.07
716.61	288.22
716.95	287.38
717.28	286.61
717.61	285.85
717.94	285.06
718.28	284.22
718.61	283.50
718.94	282.80
719.27	282.14
719.61	281.49
719.94	280.82
720.27	280.07
720.60	279.40
720.94	278.75
721.27	278.11
721.60	277.50
721.93	276.92
722.27	276.40
722.60	275.81
722.93	275.22
723.26	274.68
723.59	274.10
723.93	273.56
724.26	273.01
724.59	272.43
724.92	271.93
725.25	271.42
725.59	270.86
725.92	270.32
726.25	269.77
726.58	269.31
726.91	268.80
727.24	268.30
727.57	267.83
727.91	267.31
728.24	266.89
728.57	266.41
728.90	265.96
729.23	265.43
729.56	265.00
729.89	264.55
730.22	264.05
730.55	263.59
730.89	263.14
731.22	262.67
731.55	262.24
731.88	261.79
732.21	261.34
732.54	260.90
732.87	260.47
733.20	260.10
733.53	259.67
733.86	259.29
734.19	258.88
734.52	258.49
734.85	258.18
735.18	257.74
735.51	257.40
735.84	257.05
736.17	256.70
736.50	256.31
736.83	256.07
737.16	255.74
737.49	255.42
737.82	255.05
738.15	254.72
738.48	254.37
738.81	254.03
739.14	253.72
739.47	253.41
739.80	253.11
740.13	252.82
740.46	252.51
740.79	252.18
741.12	251.89
741.45	251.60
741.78	251.27
742.11	251.01
742.44	250.66
742.77	250.35
743.10	250.09
743.43	249.79
743.75	249.40
744.08	249.25
744.41	249.01
744.74	248.75
745.07	248.47
745.40	248.25
745.73	248.05
746.06	247.78
746.39	247.55
746.71	247.28
747.04	246.99
747.37	246.73
747.70	246.52
748.03	246.30
748.36	246.08
748.68	245.85
749.01	245.60
749.34	245.42
749.67	245.21
750.00	244.99
750.33	244.84
750.65	244.62
750.98	244.26
751.31	244.01
751.64	243.82
751.97	243.65
752.29	243.44
752.62	243.17
752.95	242.99
753.28	242.76
753.60	242.54
753.93	242.38
754.26	242.18
754.59	241.93
754.91	241.74
755.24	241.52
755.57	241.33
755.90	241.15
756.22	240.89
756.55	240.65
756.88	240.44
757.20	240.18
757.53	240.00
757.86	239.88
758.19	239.78
758.51	239.58
758.84	239.39
759.17	239.23
759.49	239.10
759.82	238.97
760.15	238.83
760.47	238.69
760.80	238.51
761.13	238.39
761.45	238.24
761.78	238.08
762.11	237.93
762.43	237.77
762.76	237.60
763.08	237.51
763.41	237.40
763.74	237.27
764.06	237.16
764.39	237.03
764.71	236.89
765.04	236.71
765.37	236.58
765.69	236.44
766.02	236.26
766.34	236.11
766.67	235.97
767.00	235.88
767.32	235.80
767.65	235.76
767.97	235.63
768.30	235.54
768.62	235.42
768.95	235.28
769.27	235.18
769.60	235.07
769.92	234.93
770.25	234.80
770.57	234.70
770.90	234.58
771.22	234.46
771.55	234.33
771.87	234.22
772.20	234.12
772.52	234.11
772.85	234.14
773.17	234.03
773.50	233.94
773.82	233.81
774.15	233.67
774.47	233.51
774.80	233.45
775.12	233.30
775.45	233.20
775.77	233.11
776.09	233.01
776.42	232.94
776.74	232.90
777.07	232.83
777.39	232.70
777.72	232.61
778.04	232.55
778.36	232.49
778.69	232.40
779.01	232.34
779.33	232.17
779.66	232.00
779.98	231.94
780.31	231.85
780.63	231.83
780.95	231.81
781.28	231.75
781.60	231.64
781.92	231.62
782.25	231.58
782.57	231.54
782.89	231.46
783.22	231.42
783.54	231.33
783.86	231.29
784.19	231.23
784.51	231.20
784.83	231.13
785.16	231.08
785.48	231.05
785.80	231.00
786.12	230.98
786.45	230.93
786.77	230.88
787.09	230.84
