SpectraSuite Data File
++++++++++++++++++++++++++++++++++++
Date: Fri Feb 01 16:53:34 EST 2013
User: group
Dark Spectrum Present: No
Reference Spectrum Present: No
Number of Sampled Component Spectra: 1
Spectrometers: USB2E7196
Integration Time (usec): 35000 (USB2E7196)
Spectra Averaged: 100 (USB2E7196)
Boxcar Smoothing: 10 (USB2E7196)
Correct for Electrical Dark: No (USB2E7196)
Strobe/Lamp Enabled: No (USB2E7196)
Correct for Detector Non-linearity: No (USB2E7196)
Correct for Stray Light: No (USB2E7196)
Number of Pixels in Processed Spectrum: 2048
>>>>>Begin Processed Spectral Data<<<<<
339.09	0.00
339.48	213.25
339.86	215.15
340.24	216.53
340.63	217.00
341.01	220.57
341.39	220.27
341.78	221.80
342.16	222.58
342.54	223.35
342.93	211.75
343.31	222.43
343.69	222.95
344.07	223.40
344.46	223.82
344.84	224.20
345.22	224.42
345.60	224.65
345.99	224.81
346.37	224.95
346.75	225.04
347.13	225.13
347.52	225.18
347.90	225.23
348.28	225.24
348.66	225.32
349.05	225.31
349.43	225.33
349.81	225.40
350.19	225.42
350.57	225.46
350.96	225.52
351.34	225.62
351.72	225.77
352.10	225.84
352.48	225.91
352.87	225.95
353.25	226.01
353.63	226.10
354.01	226.17
354.39	226.22
354.77	226.30
355.15	226.39
355.54	226.46
355.92	226.49
356.30	226.58
356.68	226.72
357.06	226.78
357.44	226.83
357.82	226.87
358.20	226.92
358.58	226.97
358.97	227.04
359.35	227.10
359.73	227.13
360.11	227.18
360.49	227.25
360.87	227.34
361.25	227.41
361.63	227.47
362.01	227.52
362.39	227.57
362.77	227.60
363.15	227.62
363.53	227.64
363.91	227.68
364.29	227.71
364.67	227.62
365.05	227.66
365.43	227.66
365.81	227.69
366.19	227.78
366.57	227.79
366.95	227.81
367.33	227.80
367.71	227.77
368.09	227.81
368.47	227.79
368.85	227.74
369.23	227.71
369.61	227.64
369.99	227.63
370.37	227.60
370.75	227.63
371.13	227.57
371.51	227.51
371.89	227.48
372.27	227.44
372.65	227.42
373.03	227.34
373.41	227.32
373.78	227.27
374.16	227.17
374.54	227.15
374.92	227.07
375.30	227.00
375.68	226.94
376.06	226.84
376.44	226.75
376.82	226.70
377.19	226.65
377.57	226.60
377.95	226.50
378.33	226.44
378.71	226.30
379.09	226.25
379.47	226.21
379.84	226.13
380.22	226.03
380.60	225.91
380.98	225.83
381.36	225.74
381.73	225.64
382.11	225.59
382.49	225.49
382.87	225.42
383.25	225.37
383.62	225.43
384.00	225.37
384.38	225.32
384.76	225.31
385.13	225.33
385.51	225.27
385.89	225.21
386.27	225.19
386.64	225.12
387.02	225.08
387.40	225.02
387.78	224.98
388.15	224.96
388.53	224.97
388.91	224.96
389.29	224.94
389.66	224.95
390.04	224.91
390.42	224.89
390.79	224.88
391.17	224.83
391.55	224.70
391.92	224.69
392.30	224.70
392.68	224.66
393.05	224.61
393.43	224.62
393.81	224.63
394.18	224.62
394.56	224.65
394.94	224.66
395.31	224.67
395.69	224.76
396.06	224.78
396.44	224.79
396.82	224.81
397.19	224.91
397.57	224.94
397.95	224.99
398.32	225.03
398.70	225.09
399.07	225.19
399.45	225.24
399.82	225.29
400.20	225.34
400.58	225.37
400.95	225.40
401.33	225.49
401.70	225.68
402.08	225.76
402.45	225.82
402.83	225.95
403.20	226.07
403.58	226.16
403.95	226.29
404.33	226.43
404.71	226.57
405.08	226.72
405.46	226.82
405.83	226.99
406.21	227.15
406.58	227.31
406.96	227.44
407.33	227.64
407.70	227.83
408.08	228.10
408.45	228.36
408.83	228.61
409.20	228.82
409.58	228.97
409.95	229.27
410.33	229.51
410.70	229.73
411.08	230.01
411.45	230.28
411.82	230.59
412.20	230.91
412.57	231.32
412.95	231.60
413.32	232.02
413.69	232.41
414.07	232.82
414.44	233.31
414.82	233.79
415.19	234.34
415.56	234.90
415.94	235.43
416.31	236.06
416.68	236.67
417.06	237.38
417.43	238.06
417.81	238.79
418.18	239.62
418.55	240.46
418.93	241.34
419.30	242.26
419.67	243.17
420.04	244.15
420.42	245.15
420.79	246.37
421.16	247.51
421.54	248.69
421.91	249.90
422.28	251.18
422.66	252.53
423.03	253.81
423.40	255.13
423.77	256.57
424.15	257.96
424.52	259.47
424.89	261.06
425.26	262.61
425.64	264.06
426.01	265.64
426.38	267.30
426.75	268.97
427.13	270.65
427.50	272.47
427.87	274.34
428.24	276.15
428.61	277.85
428.99	279.78
429.36	281.89
429.73	283.97
430.10	285.91
430.47	287.95
430.85	290.07
431.22	292.27
431.59	294.60
431.96	296.87
432.33	299.29
432.70	301.64
433.08	304.39
433.45	306.98
433.82	309.57
434.19	312.43
434.56	315.22
434.93	317.83
435.30	320.42
435.68	323.26
436.05	326.12
436.42	328.91
436.79	331.41
437.16	334.04
437.53	336.83
437.90	339.65
438.27	342.38
438.64	345.17
439.01	347.78
439.38	350.03
439.75	352.18
440.13	354.63
440.50	356.97
440.87	358.89
441.24	360.85
441.61	363.01
441.98	364.50
442.35	366.28
442.72	368.15
443.09	369.94
443.46	370.94
443.83	371.47
444.20	371.97
444.57	372.78
444.94	373.10
445.31	373.41
445.68	373.74
446.05	373.79
446.42	373.42
446.79	373.00
447.16	372.56
447.53	372.22
447.90	371.09
448.27	369.96
448.64	368.30
449.01	367.16
449.37	365.20
449.74	363.33
450.11	361.07
450.48	358.56
450.85	356.07
451.22	353.94
451.59	351.97
451.96	350.04
452.33	347.50
452.70	345.14
453.07	342.35
453.43	339.47
453.80	336.73
454.17	334.05
454.54	331.49
454.91	328.83
455.28	326.19
455.65	323.72
456.02	321.27
456.38	319.20
456.75	316.57
457.12	314.36
457.49	312.12
457.86	309.96
458.23	308.18
458.59	306.14
458.96	304.09
459.33	302.24
459.70	300.38
460.07	298.83
460.43	297.15
460.80	295.55
461.17	294.11
461.54	292.62
461.91	291.20
462.27	289.81
462.64	288.52
463.01	287.17
463.38	285.90
463.74	284.54
464.11	283.36
464.48	282.32
464.85	281.21
465.21	280.34
465.58	279.49
465.95	278.42
466.32	277.55
466.68	276.63
467.05	275.75
467.42	274.85
467.78	273.98
468.15	273.14
468.52	272.50
468.88	271.66
469.25	270.92
469.62	270.33
469.98	269.68
470.35	269.03
470.72	268.45
471.08	267.79
471.45	267.28
471.82	266.75
472.18	266.18
472.55	265.75
472.92	265.22
473.28	264.75
473.65	264.29
474.02	263.87
474.38	263.53
474.75	263.19
475.11	262.89
475.48	262.62
475.85	262.41
476.21	262.16
476.58	262.01
476.94	261.89
477.31	261.73
477.67	261.58
478.04	261.52
478.41	261.49
478.77	261.55
479.14	261.51
479.50	261.55
479.87	261.64
480.23	261.75
480.60	261.85
480.96	261.94
481.33	262.18
481.69	262.38
482.06	262.58
482.42	262.81
482.79	263.08
483.15	263.42
483.52	263.80
483.88	264.16
484.25	264.55
484.61	264.95
484.98	265.42
485.34	266.00
485.71	266.60
486.07	267.21
486.44	267.76
486.80	268.46
487.17	269.18
487.53	269.98
487.90	270.80
488.26	271.77
488.62	272.76
488.99	273.73
489.35	274.76
489.72	275.90
490.08	277.10
490.44	278.32
490.81	279.64
491.17	280.95
491.54	282.42
491.90	284.00
492.26	285.65
492.63	287.39
492.99	289.18
493.36	291.06
493.72	293.08
494.08	295.20
494.45	297.43
494.81	299.79
495.17	302.20
495.54	304.74
495.90	307.40
496.26	310.18
496.63	313.09
496.99	316.20
497.35	319.42
497.72	322.80
498.08	326.30
498.44	329.98
498.80	333.89
499.17	337.92
499.53	342.04
499.89	346.41
500.26	350.87
500.62	355.49
500.98	360.44
501.34	365.51
501.71	370.81
502.07	376.21
502.43	381.74
502.79	387.52
503.16	393.60
503.52	399.86
503.88	406.22
504.24	412.84
504.60	419.69
504.97	426.83
505.33	434.11
505.69	441.82
506.05	449.56
506.41	457.42
506.78	465.50
507.14	473.83
507.50	482.50
507.86	491.47
508.22	500.59
508.59	509.79
508.95	519.29
509.31	529.00
509.67	539.02
510.03	549.30
510.39	559.85
510.75	570.51
511.12	581.33
511.48	592.60
511.84	603.99
512.20	615.37
512.56	627.12
512.92	639.18
513.28	651.41
513.64	663.78
514.00	676.39
514.37	689.18
514.73	702.13
515.09	715.05
515.45	728.16
515.81	741.59
516.17	755.30
516.53	769.30
516.89	783.30
517.25	797.33
517.61	811.58
517.97	825.80
518.33	840.09
518.69	854.63
519.05	869.35
519.41	884.30
519.77	899.66
520.13	915.01
520.49	930.20
520.85	945.37
521.21	960.81
521.57	976.72
521.93	992.26
522.29	1008.37
522.65	1024.34
523.01	1040.27
523.37	1056.07
523.73	1072.13
524.09	1087.94
524.45	1104.03
524.81	1120.36
525.17	1136.86
525.53	1153.53
525.89	1170.23
526.25	1186.89
526.61	1203.03
526.97	1219.54
527.33	1235.82
527.68	1252.01
528.04	1268.27
528.40	1284.53
528.76	1301.34
529.12	1317.69
529.48	1334.34
529.84	1350.20
530.20	1366.59
530.56	1383.44
530.91	1400.61
531.27	1417.13
531.63	1433.32
531.99	1449.57
532.35	1465.37
532.71	1480.96
533.07	1496.89
533.42	1512.57
533.78	1528.43
534.14	1544.49
534.50	1559.50
534.86	1575.12
535.21	1590.17
535.57	1605.83
535.93	1621.11
536.29	1635.65
536.65	1650.47
537.00	1664.96
537.36	1680.00
537.72	1694.19
538.08	1708.46
538.44	1721.98
538.79	1735.57
539.15	1749.02
539.51	1762.55
539.87	1776.61
540.22	1790.10
540.58	1803.70
540.94	1816.81
541.29	1829.32
541.65	1841.77
542.01	1854.81
542.37	1866.81
542.72	1878.86
543.08	1890.52
543.44	1902.75
543.79	1913.81
544.15	1924.62
544.51	1936.08
544.87	1946.95
545.22	1957.70
545.58	1967.62
545.94	1977.21
546.29	1986.93
546.65	1996.74
547.01	2005.91
547.36	2014.48
547.72	2022.96
548.07	2030.73
548.43	2038.63
548.79	2046.46
549.14	2053.82
549.50	2061.07
549.86	2068.62
550.21	2075.96
550.57	2082.99
550.92	2089.35
551.28	2096.29
551.64	2103.43
551.99	2109.92
552.35	2115.90
552.70	2121.99
553.06	2127.95
553.41	2134.32
553.77	2140.29
554.13	2146.27
554.48	2152.40
554.84	2158.03
555.19	2163.23
555.55	2168.44
555.90	2172.94
556.26	2178.06
556.61	2182.84
556.97	2187.20
557.32	2191.48
557.68	2195.71
558.03	2200.02
558.39	2203.85
558.74	2208.63
559.10	2212.52
559.45	2216.18
559.81	2220.42
560.16	2224.33
560.52	2227.71
560.87	2231.19
561.23	2233.87
561.58	2236.69
561.94	2239.27
562.29	2241.61
562.64	2244.48
563.00	2247.00
563.35	2250.53
563.71	2253.51
564.06	2256.85
564.42	2259.86
564.77	2262.65
565.12	2265.02
565.48	2266.99
565.83	2269.06
566.19	2270.32
566.54	2271.14
566.89	2272.52
567.25	2273.36
567.60	2274.56
567.96	2276.39
568.31	2277.13
568.66	2278.36
569.02	2279.14
569.37	2279.50
569.72	2280.54
570.08	2280.70
570.43	2280.93
570.78	2280.62
571.14	2279.47
571.49	2278.15
571.84	2277.86
572.20	2276.75
572.55	2275.78
572.90	2274.38
573.26	2273.13
573.61	2271.58
573.96	2270.13
574.31	2267.47
574.67	2264.58
575.02	2261.23
575.37	2257.86
575.72	2254.40
576.08	2251.19
576.43	2248.11
576.78	2244.72
577.13	2241.60
577.49	2238.62
577.84	2235.33
578.19	2231.59
578.54	2228.08
578.90	2224.19
579.25	2218.78
579.60	2214.03
579.95	2209.29
580.30	2204.62
580.66	2199.72
581.01	2195.01
581.36	2190.23
581.71	2185.92
582.06	2181.74
582.42	2177.57
582.77	2172.63
583.12	2168.39
583.47	2163.89
583.82	2159.17
584.17	2154.25
584.53	2148.88
584.88	2143.46
585.23	2137.92
585.58	2132.79
585.93	2127.46
586.28	2122.80
586.63	2117.91
586.98	2112.92
587.34	2108.26
587.69	2103.39
588.04	2098.26
588.39	2092.76
588.74	2086.33
589.09	2080.47
589.44	2073.86
589.79	2067.87
590.14	2062.36
590.49	2055.69
590.84	2049.42
591.19	2043.42
591.54	2036.97
591.89	2029.85
592.25	2023.39
592.60	2016.20
592.95	2008.77
593.30	2001.64
593.65	1994.16
594.00	1987.43
594.35	1980.22
594.70	1972.42
595.05	1965.39
595.40	1958.18
595.75	1950.83
596.10	1944.89
596.45	1938.25
596.80	1932.31
597.15	1925.98
597.50	1919.11
597.85	1912.86
598.19	1906.36
598.54	1899.58
598.89	1893.07
599.24	1887.18
599.59	1880.62
599.94	1874.48
600.29	1868.19
600.64	1861.60
600.99	1854.28
601.34	1847.41
601.69	1840.66
602.04	1833.87
602.39	1826.60
602.74	1819.86
603.08	1813.16
603.43	1806.54
603.78	1799.20
604.13	1792.02
604.48	1784.70
604.83	1777.83
605.18	1771.14
605.53	1763.32
605.87	1755.22
606.22	1748.07
606.57	1740.22
606.92	1732.83
607.27	1725.97
607.62	1719.06
607.96	1712.00
608.31	1705.60
608.66	1698.18
609.01	1690.87
609.36	1683.42
609.70	1675.52
610.05	1667.61
610.40	1659.96
610.75	1651.71
611.10	1644.23
611.44	1635.87
611.79	1628.00
612.14	1619.41
612.49	1610.26
612.83	1601.91
613.18	1593.94
613.53	1585.88
613.88	1577.52
614.22	1569.20
614.57	1560.41
614.92	1552.54
615.27	1544.96
615.61	1536.65
615.96	1528.55
616.31	1520.69
616.65	1513.33
617.00	1505.77
617.35	1497.98
617.70	1489.77
618.04	1481.27
618.39	1472.96
618.74	1465.44
619.08	1457.14
619.43	1449.53
619.78	1442.57
620.12	1435.42
620.47	1427.97
620.82	1419.83
621.16	1412.35
621.51	1404.96
621.85	1397.39
622.20	1388.81
622.55	1380.52
622.89	1372.65
623.24	1365.03
623.59	1357.72
623.93	1350.22
624.28	1343.00
624.62	1335.60
624.97	1328.47
625.32	1321.76
625.66	1314.90
626.01	1307.71
626.35	1300.31
626.70	1292.55
627.04	1284.84
627.39	1277.04
627.73	1269.47
628.08	1262.62
628.43	1255.48
628.77	1248.01
629.12	1240.53
629.46	1233.48
629.81	1225.92
630.15	1218.69
630.50	1211.37
630.84	1203.16
631.19	1195.22
631.53	1187.70
631.88	1180.09
632.22	1172.49
632.57	1165.17
632.91	1157.70
633.26	1150.20
633.60	1142.79
633.95	1135.68
634.29	1128.74
634.64	1122.06
634.98	1114.76
635.32	1107.56
635.67	1100.77
636.01	1094.12
636.36	1087.28
636.70	1080.70
637.05	1074.26
637.39	1067.79
637.73	1061.24
638.08	1055.35
638.42	1049.37
638.77	1042.93
639.11	1036.41
639.45	1030.00
639.80	1023.30
640.14	1016.81
640.49	1010.32
640.83	1004.03
641.17	997.88
641.52	991.39
641.86	984.91
642.20	979.08
642.55	972.78
642.89	966.46
643.23	959.97
643.58	954.34
643.92	948.14
644.26	942.09
644.61	936.06
644.95	930.10
645.29	923.58
645.64	916.85
645.98	910.51
646.32	904.63
646.66	898.61
647.01	892.83
647.35	887.12
647.69	881.26
648.04	875.79
648.38	870.01
648.72	864.13
649.06	858.12
649.41	852.22
649.75	846.32
650.09	840.37
650.43	834.54
650.78	828.36
651.12	822.47
651.46	816.74
651.80	811.07
652.14	805.66
652.49	800.32
652.83	795.13
653.17	789.50
653.51	783.81
653.85	778.44
654.20	772.87
654.54	766.84
654.88	761.15
655.22	755.24
655.56	749.57
655.90	744.09
656.25	738.88
656.59	733.56
656.93	728.49
657.27	723.36
657.61	717.99
657.95	712.88
658.29	707.82
658.64	702.54
658.98	697.22
659.32	691.75
659.66	686.57
660.00	681.35
660.34	676.41
660.68	671.54
661.02	666.52
661.36	661.75
661.70	657.36
662.05	653.05
662.39	648.71
662.73	644.23
663.07	639.94
663.41	635.45
663.75	631.00
664.09	626.37
664.43	621.90
664.77	617.74
665.11	613.51
665.45	609.36
665.79	605.29
666.13	601.20
666.47	597.11
666.81	592.93
667.15	588.78
667.49	584.84
667.83	580.98
668.17	577.02
668.51	572.96
668.85	568.88
669.19	564.97
669.53	561.16
669.87	557.36
670.21	553.61
670.55	549.94
670.89	546.48
671.23	543.07
671.57	539.59
671.91	536.16
672.25	532.71
672.58	529.16
672.92	525.71
673.26	522.52
673.60	519.37
673.94	516.22
674.28	513.27
674.62	510.40
674.96	507.27
675.30	504.41
675.64	501.52
675.97	498.70
676.31	495.85
676.65	492.94
676.99	490.19
677.33	487.35
677.67	484.60
678.01	481.57
678.34	478.64
678.68	475.76
679.02	472.89
679.36	470.04
679.70	467.33
680.04	464.64
680.37	461.79
680.71	459.01
681.05	456.38
681.39	453.68
681.73	451.00
682.06	448.52
682.40	445.96
682.74	443.42
683.08	440.91
683.42	438.32
683.75	435.84
684.09	433.27
684.43	430.78
684.77	428.26
685.10	425.92
685.44	423.56
685.78	421.25
686.12	418.97
686.45	416.66
686.79	414.42
687.13	412.16
687.46	409.94
687.80	407.78
688.14	405.61
688.48	403.60
688.81	401.35
689.15	399.18
689.49	397.03
689.82	394.92
690.16	392.82
690.50	390.86
690.83	388.91
691.17	386.97
691.51	385.07
691.84	383.27
692.18	381.37
692.52	379.45
692.85	377.56
693.19	375.74
693.52	373.94
693.86	372.10
694.20	370.35
694.53	368.63
694.87	366.79
695.21	364.99
695.54	363.13
695.88	361.40
696.21	359.73
696.55	358.05
696.88	356.40
697.22	354.74
697.56	353.15
697.89	351.49
698.23	349.86
698.56	348.28
698.90	346.69
699.23	345.04
699.57	343.48
699.90	341.93
700.24	340.42
700.58	338.92
700.91	337.48
701.25	336.06
701.58	334.66
701.92	333.32
702.25	331.94
702.59	330.58
702.92	329.30
703.26	327.96
703.59	326.72
703.93	325.54
704.26	324.32
704.60	323.02
704.93	321.75
705.26	320.48
705.60	319.28
705.93	318.14
706.27	317.15
706.60	316.09
706.94	315.02
707.27	313.83
707.61	312.74
707.94	311.66
708.27	310.60
708.61	309.53
708.94	308.49
709.28	307.52
709.61	306.60
709.94	305.63
710.28	304.61
710.61	303.59
710.95	302.47
711.28	301.56
711.61	300.61
711.95	299.71
712.28	298.80
712.61	297.85
712.95	296.91
713.28	295.99
713.61	295.12
713.95	294.25
714.28	293.45
714.61	292.59
714.95	291.77
715.28	290.88
715.61	289.99
715.95	289.17
716.28	288.30
716.61	287.42
716.95	286.56
717.28	285.81
717.61	285.05
717.94	284.33
718.28	283.52
718.61	282.80
718.94	282.07
719.27	281.38
719.61	280.71
719.94	280.03
720.27	279.32
720.60	278.62
720.94	277.94
721.27	277.30
721.60	276.74
721.93	276.13
722.27	275.59
722.60	275.02
722.93	274.41
723.26	273.92
723.59	273.32
723.93	272.79
724.26	272.21
724.59	271.64
724.92	271.14
725.25	270.63
725.59	270.06
725.92	269.56
726.25	269.05
726.58	268.53
726.91	268.02
727.24	267.52
727.57	267.04
727.91	266.52
728.24	266.07
728.57	265.53
728.90	265.04
729.23	264.52
729.56	264.11
729.89	263.63
730.22	263.12
730.55	262.68
730.89	262.21
731.22	261.77
731.55	261.33
731.88	260.85
732.21	260.38
732.54	259.97
732.87	259.53
733.20	259.09
733.53	258.69
733.86	258.33
734.19	257.93
734.52	257.56
734.85	257.26
735.18	256.83
735.51	256.49
735.84	256.14
736.17	255.77
736.50	255.35
736.83	255.13
737.16	254.80
737.49	254.47
737.82	254.14
738.15	253.79
738.48	253.45
738.81	253.18
739.14	252.88
739.47	252.61
739.80	252.32
740.13	252.06
740.46	251.77
740.79	251.45
741.12	251.15
741.45	250.87
741.78	250.55
742.11	250.33
742.44	250.01
742.77	249.74
743.10	249.48
743.43	249.21
743.75	248.84
744.08	248.70
744.41	248.46
744.74	248.22
745.07	247.96
745.40	247.73
745.73	247.51
746.06	247.27
746.39	247.00
746.71	246.77
747.04	246.52
747.37	246.26
747.70	246.01
748.03	245.79
748.36	245.55
748.68	245.32
749.01	245.05
749.34	244.85
749.67	244.62
750.00	244.44
750.33	244.29
750.65	244.11
750.98	243.78
751.31	243.55
751.64	243.37
751.97	243.22
752.29	242.99
752.62	242.71
752.95	242.51
753.28	242.30
753.60	242.07
753.93	241.86
754.26	241.71
754.59	241.49
754.91	241.28
755.24	241.09
755.57	240.87
755.90	240.66
756.22	240.46
756.55	240.25
756.88	240.03
757.20	239.79
757.53	239.58
757.86	239.38
758.19	239.21
758.51	239.02
758.84	238.75
759.17	238.61
759.49	238.48
759.82	238.34
760.15	238.17
760.47	238.02
760.80	237.83
761.13	237.67
761.45	237.52
761.78	237.34
762.11	237.19
762.43	237.05
762.76	236.90
763.08	236.75
763.41	236.60
763.74	236.45
764.06	236.29
764.39	236.15
764.71	236.01
765.04	235.88
765.37	235.72
765.69	235.62
766.02	235.50
766.34	235.34
766.67	235.17
767.00	235.06
767.32	234.97
767.65	234.95
767.97	234.83
768.30	234.69
768.62	234.59
768.95	234.45
769.27	234.33
769.60	234.23
769.92	234.11
770.25	234.00
770.57	233.86
770.90	233.74
771.22	233.61
771.55	233.52
771.87	233.40
772.20	233.31
772.52	233.33
772.85	233.33
773.17	233.21
773.50	233.11
773.82	232.99
774.15	232.85
774.47	232.67
774.80	232.55
775.12	232.45
775.45	232.37
775.77	232.30
776.09	232.22
776.42	232.14
776.74	232.10
777.07	232.03
777.39	232.00
777.72	231.93
778.04	231.91
778.36	231.83
778.69	231.78
779.01	231.71
779.33	231.56
779.66	231.37
779.98	231.32
780.31	231.26
780.63	231.26
780.95	231.19
781.28	231.15
781.60	231.07
781.92	231.03
782.25	230.97
782.57	230.91
782.89	230.83
783.22	230.79
783.54	230.72
783.86	230.67
784.19	230.63
784.51	230.58
784.83	230.50
785.16	230.44
785.48	230.37
785.80	230.32
786.12	230.30
786.45	230.26
786.77	230.23
787.09	230.17
