SpectraSuite Data File
++++++++++++++++++++++++++++++++++++
Date: Fri Feb 01 15:24:16 EST 2013
User: group
Dark Spectrum Present: No
Reference Spectrum Present: No
Number of Sampled Component Spectra: 1
Spectrometers: USB2E7196
Integration Time (usec): 35000 (USB2E7196)
Spectra Averaged: 100 (USB2E7196)
Boxcar Smoothing: 10 (USB2E7196)
Correct for Electrical Dark: No (USB2E7196)
Strobe/Lamp Enabled: No (USB2E7196)
Correct for Detector Non-linearity: No (USB2E7196)
Correct for Stray Light: No (USB2E7196)
Number of Pixels in Processed Spectrum: 2048
>>>>>Begin Processed Spectral Data<<<<<
339.09	0.00
339.48	215.06
339.86	216.52
340.24	218.37
340.63	219.28
341.01	222.18
341.39	222.05
341.78	223.70
342.16	224.58
342.54	225.42
342.93	213.52
343.31	224.30
343.69	224.84
344.07	225.31
344.46	225.71
344.84	226.11
345.22	226.35
345.60	226.60
345.99	226.77
346.37	226.91
346.75	227.00
347.13	227.07
347.52	227.08
347.90	227.18
348.28	227.21
348.66	227.26
349.05	227.26
349.43	227.27
349.81	227.34
350.19	227.37
350.57	227.42
350.96	227.50
351.34	227.58
351.72	227.69
352.10	227.80
352.48	227.89
352.87	227.94
353.25	228.01
353.63	228.08
354.01	228.16
354.39	228.29
354.77	228.35
355.15	228.51
355.54	228.60
355.92	228.64
356.30	228.72
356.68	228.86
357.06	228.96
357.44	229.06
357.82	229.14
358.20	229.22
358.58	229.30
358.97	229.38
359.35	229.50
359.73	229.58
360.11	229.63
360.49	229.68
360.87	229.71
361.25	229.79
361.63	229.87
362.01	229.92
362.39	229.89
362.77	229.97
363.15	229.93
363.53	229.92
363.91	229.93
364.29	229.98
364.67	229.88
365.05	229.88
365.43	229.90
365.81	229.86
366.19	229.89
366.57	229.92
366.95	229.89
367.33	229.84
367.71	229.80
368.09	229.77
368.47	229.75
368.85	229.72
369.23	229.68
369.61	229.61
369.99	229.63
370.37	229.59
370.75	229.57
371.13	229.49
371.51	229.43
371.89	229.41
372.27	229.31
372.65	229.27
373.03	229.21
373.41	229.11
373.78	229.04
374.16	228.89
374.54	228.81
374.92	228.75
375.30	228.67
375.68	228.58
376.06	228.51
376.44	228.42
376.82	228.39
377.19	228.33
377.57	228.22
377.95	228.07
378.33	228.00
378.71	227.87
379.09	227.83
379.47	227.79
379.84	227.68
380.22	227.61
380.60	227.52
380.98	227.43
381.36	227.37
381.73	227.29
382.11	227.26
382.49	227.16
382.87	227.03
383.25	226.95
383.62	226.97
384.00	226.88
384.38	226.85
384.76	226.78
385.13	226.73
385.51	226.70
385.89	226.65
386.27	226.60
386.64	226.59
387.02	226.54
387.40	226.47
387.78	226.46
388.15	226.46
388.53	226.42
388.91	226.41
389.29	226.38
389.66	226.34
390.04	226.29
390.42	226.29
390.79	226.32
391.17	226.33
391.55	226.24
391.92	226.22
392.30	226.21
392.68	226.20
393.05	226.21
393.43	226.22
393.81	226.26
394.18	226.28
394.56	226.30
394.94	226.35
395.31	226.37
395.69	226.41
396.06	226.44
396.44	226.48
396.82	226.51
397.19	226.63
397.57	226.70
397.95	226.78
398.32	226.81
398.70	226.89
399.07	226.97
399.45	227.05
399.82	227.18
400.20	227.24
400.58	227.32
400.95	227.37
401.33	227.46
401.70	227.61
402.08	227.69
402.45	227.80
402.83	227.92
403.20	228.05
403.58	228.16
403.95	228.31
404.33	228.45
404.71	228.60
405.08	228.76
405.46	228.92
405.83	229.07
406.21	229.24
406.58	229.43
406.96	229.59
407.33	229.81
407.70	229.99
408.08	230.28
408.45	230.51
408.83	230.76
409.20	230.95
409.58	231.13
409.95	231.41
410.33	231.66
410.70	231.90
411.08	232.20
411.45	232.49
411.82	232.79
412.20	233.18
412.57	233.59
412.95	233.90
413.32	234.31
413.69	234.70
414.07	235.14
414.44	235.58
414.82	236.06
415.19	236.58
415.56	237.12
415.94	237.65
416.31	238.30
416.68	238.92
417.06	239.68
417.43	240.35
417.81	241.07
418.18	241.86
418.55	242.69
418.93	243.57
419.30	244.49
419.67	245.40
420.04	246.33
420.42	247.32
420.79	248.51
421.16	249.65
421.54	250.86
421.91	252.07
422.28	253.30
422.66	254.62
423.03	255.93
423.40	257.27
423.77	258.66
424.15	260.08
424.52	261.54
424.89	263.12
425.26	264.70
425.64	266.21
426.01	267.82
426.38	269.45
426.75	271.12
427.13	272.81
427.50	274.62
427.87	276.49
428.24	278.37
428.61	280.06
428.99	281.96
429.36	284.07
429.73	286.14
430.10	288.17
430.47	290.20
430.85	292.36
431.22	294.58
431.59	296.97
431.96	299.22
432.33	301.75
432.70	304.15
433.08	306.94
433.45	309.59
433.82	312.18
434.19	315.14
434.56	317.94
434.93	320.63
435.30	323.27
435.68	326.17
436.05	328.98
436.42	331.83
436.79	334.40
437.16	337.11
437.53	339.97
437.90	342.81
438.27	345.58
438.64	348.39
439.01	351.03
439.38	353.27
439.75	355.42
440.13	357.87
440.50	360.16
440.87	362.02
441.24	363.92
441.61	366.09
441.98	367.56
442.35	369.39
442.72	371.27
443.09	373.09
443.46	374.05
443.83	374.67
444.20	375.16
444.57	376.01
444.94	376.32
445.31	376.65
445.68	377.01
446.05	377.11
446.42	376.68
446.79	376.24
447.16	375.83
447.53	375.53
447.90	374.40
448.27	373.31
448.64	371.74
449.01	370.62
449.37	368.67
449.74	366.79
450.11	364.51
450.48	362.04
450.85	359.49
451.22	357.37
451.59	355.32
451.96	353.42
452.33	350.81
452.70	348.43
453.07	345.58
453.43	342.69
453.80	339.90
454.17	337.30
454.54	334.77
454.91	332.04
455.28	329.40
455.65	326.93
456.02	324.42
456.38	322.29
456.75	319.61
457.12	317.31
457.49	315.04
457.86	312.92
458.23	311.07
458.59	309.03
458.96	307.00
459.33	305.18
459.70	303.28
460.07	301.72
460.43	299.99
460.80	298.37
461.17	296.90
461.54	295.38
461.91	293.90
462.27	292.43
462.64	291.17
463.01	289.73
463.38	288.43
463.74	287.07
464.11	285.90
464.48	284.86
464.85	283.75
465.21	282.91
465.58	281.97
465.95	280.82
466.32	279.89
466.68	278.92
467.05	277.99
467.42	277.10
467.78	276.18
468.15	275.30
468.52	274.63
468.88	273.75
469.25	272.98
469.62	272.31
469.98	271.64
470.35	270.99
470.72	270.42
471.08	269.74
471.45	269.18
471.82	268.61
472.18	267.97
472.55	267.53
472.92	266.96
473.28	266.48
473.65	266.00
474.02	265.55
474.38	265.16
474.75	264.84
475.11	264.47
475.48	264.21
475.85	263.97
476.21	263.70
476.58	263.51
476.94	263.35
477.31	263.22
477.67	263.03
478.04	262.90
478.41	262.80
478.77	262.82
479.14	262.74
479.50	262.76
479.87	262.85
480.23	262.95
480.60	263.01
480.96	263.09
481.33	263.34
481.69	263.53
482.06	263.72
482.42	263.93
482.79	264.18
483.15	264.49
483.52	264.88
483.88	265.24
484.25	265.66
484.61	266.09
484.98	266.56
485.34	267.12
485.71	267.72
486.07	268.35
486.44	268.89
486.80	269.62
487.17	270.31
487.53	271.13
487.90	271.93
488.26	272.89
488.62	273.87
488.99	274.85
489.35	275.88
489.72	276.99
490.08	278.20
490.44	279.45
490.81	280.79
491.17	282.12
491.54	283.62
491.90	285.13
492.26	286.76
492.63	288.47
492.99	290.28
493.36	292.18
493.72	294.20
494.08	296.32
494.45	298.59
494.81	301.00
495.17	303.45
495.54	306.05
495.90	308.71
496.26	311.52
496.63	314.47
496.99	317.60
497.35	320.87
497.72	324.26
498.08	327.78
498.44	331.46
498.80	335.40
499.17	339.44
499.53	343.71
499.89	348.09
500.26	352.62
500.62	357.30
500.98	362.29
501.34	367.40
501.71	372.76
502.07	378.22
502.43	383.82
502.79	389.58
503.16	395.64
503.52	401.88
503.88	408.33
504.24	414.96
504.60	421.86
504.97	429.00
505.33	436.35
505.69	444.06
506.05	451.84
506.41	459.72
506.78	467.87
507.14	476.27
507.50	484.96
507.86	493.95
508.22	503.16
508.59	512.28
508.95	521.79
509.31	531.63
509.67	541.68
510.03	551.94
510.39	562.60
510.75	573.41
511.12	584.42
511.48	595.70
511.84	607.13
512.20	618.60
512.56	630.61
512.92	642.77
513.28	655.02
513.64	667.54
514.00	680.21
514.37	693.21
514.73	706.27
515.09	719.32
515.45	732.68
515.81	746.30
516.17	760.35
516.53	774.53
516.89	788.67
517.25	802.94
517.61	817.44
517.97	831.79
518.33	846.31
518.69	861.21
519.05	876.24
519.41	891.40
519.77	907.03
520.13	922.39
520.49	937.85
520.85	953.42
521.21	969.15
521.57	985.48
521.93	1001.20
522.29	1017.68
522.65	1033.99
523.01	1050.21
523.37	1066.27
523.73	1082.47
524.09	1098.61
524.45	1114.99
524.81	1131.65
525.17	1148.52
525.53	1165.59
525.89	1182.37
526.25	1199.13
526.61	1215.45
526.97	1232.40
527.33	1248.80
527.68	1265.53
528.04	1282.06
528.40	1298.70
528.76	1315.82
529.12	1332.43
529.48	1349.45
529.84	1365.53
530.20	1382.26
530.56	1399.44
530.91	1416.86
531.27	1433.77
531.63	1450.34
531.99	1466.93
532.35	1482.94
532.71	1498.72
533.07	1514.92
533.42	1530.96
533.78	1547.00
534.14	1563.28
534.50	1578.68
534.86	1594.69
535.21	1610.04
535.57	1626.02
535.93	1641.61
536.29	1656.43
536.65	1671.69
537.00	1686.55
537.36	1701.89
537.72	1716.48
538.08	1730.95
538.44	1744.74
538.79	1758.55
539.15	1772.42
539.51	1786.21
539.87	1800.57
540.22	1814.44
540.58	1828.32
540.94	1841.77
541.29	1854.90
541.65	1867.83
542.01	1881.14
542.37	1893.49
542.72	1905.78
543.08	1917.54
543.44	1930.01
543.79	1941.32
544.15	1952.25
544.51	1963.81
544.87	1974.95
545.22	1985.76
545.58	1995.97
545.94	2005.95
546.29	2015.88
546.65	2025.51
547.01	2034.77
547.36	2043.66
547.72	2052.26
548.07	2060.28
548.43	2068.46
548.79	2076.48
549.14	2084.05
549.50	2091.46
549.86	2099.24
550.21	2106.74
550.57	2114.05
550.92	2120.68
551.28	2127.72
551.64	2134.81
551.99	2141.28
552.35	2147.24
552.70	2153.37
553.06	2159.31
553.41	2165.61
553.77	2171.72
554.13	2177.89
554.48	2184.14
554.84	2189.55
555.19	2194.86
555.55	2199.85
555.90	2204.31
556.26	2209.03
556.61	2213.72
556.97	2217.76
557.32	2222.00
557.68	2226.11
558.03	2230.45
558.39	2234.15
558.74	2238.77
559.10	2242.49
559.45	2246.31
559.81	2250.81
560.16	2254.68
560.52	2257.93
560.87	2261.32
561.23	2263.88
561.58	2267.01
561.94	2269.52
562.29	2271.94
562.64	2274.51
563.00	2277.25
563.35	2280.69
563.71	2283.89
564.06	2287.01
564.42	2289.90
564.77	2292.28
565.12	2294.48
565.48	2296.22
565.83	2297.86
566.19	2299.05
566.54	2300.10
566.89	2301.16
567.25	2301.59
567.60	2302.89
567.96	2304.47
568.31	2305.33
568.66	2306.33
569.02	2306.62
569.37	2306.86
569.72	2307.52
570.08	2307.57
570.43	2307.44
570.78	2306.84
571.14	2305.25
571.49	2304.01
571.84	2303.57
572.20	2302.35
572.55	2301.16
572.90	2299.68
573.26	2298.30
573.61	2296.65
573.96	2294.91
574.31	2291.79
574.67	2288.68
575.02	2284.88
575.37	2281.51
575.72	2277.50
576.08	2274.09
576.43	2270.78
576.78	2267.01
577.13	2263.95
577.49	2260.83
577.84	2257.24
578.19	2253.38
578.54	2249.60
578.90	2245.27
579.25	2239.71
579.60	2234.50
579.95	2229.49
580.30	2224.28
580.66	2219.10
581.01	2214.12
581.36	2209.02
581.71	2204.70
582.06	2200.06
582.42	2195.47
582.77	2190.00
583.12	2185.30
583.47	2180.45
583.82	2175.32
584.17	2170.15
584.53	2164.53
584.88	2158.86
585.23	2153.04
585.58	2147.58
585.93	2142.06
586.28	2137.16
586.63	2132.02
586.98	2127.06
587.34	2122.25
587.69	2117.27
588.04	2111.76
588.39	2105.92
588.74	2099.34
589.09	2093.19
589.44	2086.42
589.79	2080.48
590.14	2074.85
590.49	2068.37
590.84	2062.10
591.19	2055.96
591.54	2049.31
591.89	2041.65
592.25	2034.73
592.60	2027.40
592.95	2019.68
593.30	2012.28
593.65	2004.66
594.00	1997.61
594.35	1990.26
594.70	1982.13
595.05	1974.77
595.40	1967.62
595.75	1960.08
596.10	1953.72
596.45	1946.89
596.80	1940.63
597.15	1933.80
597.50	1926.63
597.85	1920.13
598.19	1913.34
598.54	1906.22
598.89	1899.56
599.24	1893.75
599.59	1887.02
599.94	1880.81
600.29	1874.50
600.64	1867.95
600.99	1860.48
601.34	1853.50
601.69	1846.46
602.04	1839.42
602.39	1832.10
602.74	1825.22
603.08	1818.56
603.43	1811.91
603.78	1804.58
604.13	1797.51
604.48	1790.12
604.83	1783.37
605.18	1776.27
605.53	1768.22
605.87	1760.23
606.22	1752.95
606.57	1744.92
606.92	1737.66
607.27	1730.47
607.62	1723.51
607.96	1716.15
608.31	1709.42
608.66	1701.69
609.01	1694.05
609.36	1686.61
609.70	1678.65
610.05	1670.52
610.40	1662.56
610.75	1654.17
611.10	1646.54
611.44	1638.06
611.79	1630.13
612.14	1621.30
612.49	1612.25
612.83	1603.93
613.18	1595.72
613.53	1587.64
613.88	1579.13
614.22	1570.81
614.57	1562.22
614.92	1554.04
615.27	1546.47
615.61	1538.04
615.96	1530.14
616.31	1522.54
616.65	1515.15
617.00	1507.47
617.35	1499.79
617.70	1491.56
618.04	1482.91
618.39	1474.54
618.74	1466.86
619.08	1458.52
619.43	1451.01
619.78	1443.96
620.12	1436.90
620.47	1429.39
620.82	1421.24
621.16	1413.75
621.51	1406.06
621.85	1398.44
622.20	1389.95
622.55	1381.63
622.89	1373.83
623.24	1366.23
623.59	1358.98
623.93	1351.42
624.28	1344.16
624.62	1336.65
624.97	1329.45
625.32	1322.84
625.66	1315.89
626.01	1308.69
626.35	1301.22
626.70	1293.39
627.04	1285.73
627.39	1277.79
627.73	1270.42
628.08	1263.47
628.43	1256.16
628.77	1248.82
629.12	1241.20
629.46	1234.09
629.81	1226.61
630.15	1219.44
630.50	1212.04
630.84	1203.81
631.19	1196.01
631.53	1188.58
631.88	1181.04
632.22	1173.47
632.57	1166.24
632.91	1158.68
633.26	1151.32
633.60	1144.17
633.95	1137.14
634.29	1130.08
634.64	1123.49
634.98	1116.13
635.32	1109.05
635.67	1102.50
636.01	1095.87
636.36	1089.16
636.70	1082.67
637.05	1076.21
637.39	1069.81
637.73	1063.25
638.08	1057.43
638.42	1051.40
638.77	1044.95
639.11	1038.30
639.45	1031.97
639.80	1025.24
640.14	1018.78
640.49	1012.25
640.83	1005.88
641.17	999.61
641.52	993.38
641.86	986.96
642.20	981.10
642.55	974.76
642.89	968.29
643.23	961.76
643.58	955.95
643.92	949.76
644.26	943.65
644.61	937.58
644.95	931.59
645.29	924.92
645.64	918.20
645.98	911.91
646.32	906.10
646.66	900.08
647.01	894.34
647.35	888.83
647.69	882.99
648.04	877.47
648.38	871.66
648.72	865.55
649.06	859.46
649.41	853.59
649.75	847.56
650.09	841.63
650.43	835.82
650.78	829.64
651.12	823.64
651.46	817.91
651.80	812.14
652.14	806.72
652.49	801.42
652.83	796.23
653.17	790.43
653.51	784.71
653.85	779.26
654.20	773.65
654.54	767.56
654.88	761.81
655.22	755.91
655.56	750.34
655.90	744.94
656.25	739.68
656.59	734.31
656.93	729.25
657.27	724.09
657.61	718.63
657.95	713.53
658.29	708.49
658.64	703.25
658.98	697.95
659.32	692.47
659.66	687.18
660.00	681.86
660.34	677.03
660.68	672.13
661.02	667.12
661.36	662.34
661.70	657.82
662.05	653.44
662.39	649.08
662.73	644.56
663.07	640.21
663.41	635.75
663.75	631.23
664.09	626.70
664.43	622.35
664.77	618.30
665.11	614.01
665.45	609.87
665.79	605.77
666.13	601.68
666.47	597.63
666.81	593.46
667.15	589.34
667.49	585.40
667.83	581.63
668.17	577.69
668.51	573.59
668.85	569.59
669.19	565.81
669.53	562.04
669.87	558.13
670.21	554.38
670.55	550.70
670.89	547.30
671.23	543.87
671.57	540.37
671.91	536.83
672.25	533.39
672.58	529.90
672.92	526.53
673.26	523.34
673.60	520.21
673.94	517.14
674.28	514.27
674.62	511.34
674.96	508.19
675.30	505.32
675.64	502.37
675.97	499.61
676.31	496.78
676.65	493.81
676.99	491.16
677.33	488.35
677.67	485.63
678.01	482.61
678.34	479.69
678.68	476.84
679.02	474.02
679.36	471.28
679.70	468.57
680.04	465.83
680.37	462.94
680.71	460.19
681.05	457.59
681.39	454.90
681.73	452.30
682.06	449.83
682.40	447.26
682.74	444.83
683.08	442.32
683.42	439.74
683.75	437.31
684.09	434.79
684.43	432.32
684.77	429.86
685.10	427.50
685.44	425.15
685.78	422.85
686.12	420.66
686.45	418.43
686.79	416.15
687.13	413.93
687.46	411.87
687.80	409.73
688.14	407.55
688.48	405.48
688.81	403.22
689.15	401.08
689.49	398.97
689.82	396.89
690.16	394.80
690.50	392.82
690.83	390.84
691.17	388.86
691.51	387.01
691.84	385.17
692.18	383.24
692.52	381.24
692.85	379.33
693.19	377.46
693.52	375.61
693.86	373.78
694.20	372.01
694.53	370.17
694.87	368.32
695.21	366.53
695.54	364.72
695.88	363.01
696.21	361.27
696.55	359.61
696.88	357.91
697.22	356.24
697.56	354.60
697.89	352.92
698.23	351.32
698.56	349.67
698.90	348.06
699.23	346.43
699.57	344.91
699.90	343.30
700.24	341.72
700.58	340.16
700.91	338.62
701.25	337.17
701.58	335.81
701.92	334.45
702.25	333.02
702.59	331.63
702.92	330.28
703.26	328.96
703.59	327.66
703.93	326.48
704.26	325.23
704.60	323.91
704.93	322.67
705.26	321.43
705.60	320.29
705.93	319.14
706.27	318.11
706.60	317.08
706.94	316.03
707.27	314.89
707.61	313.83
707.94	312.86
708.27	311.81
708.61	310.71
708.94	309.69
709.28	308.72
709.61	307.73
709.94	306.80
710.28	305.80
710.61	304.81
710.95	303.71
711.28	302.79
711.61	301.83
711.95	300.92
712.28	299.94
712.61	298.95
712.95	298.00
713.28	297.11
713.61	296.16
713.95	295.32
714.28	294.47
714.61	293.61
714.95	292.72
715.28	291.82
715.61	290.92
715.95	290.10
716.28	289.29
716.61	288.54
716.95	287.71
717.28	286.96
717.61	286.23
717.94	285.52
718.28	284.75
718.61	284.08
718.94	283.41
719.27	282.75
719.61	282.11
719.94	281.47
720.27	280.78
720.60	280.14
720.94	279.50
721.27	278.94
721.60	278.41
721.93	277.84
722.27	277.31
722.60	276.78
722.93	276.21
723.26	275.70
723.59	275.10
723.93	274.58
724.26	274.02
724.59	273.48
724.92	273.00
725.25	272.52
725.59	272.00
725.92	271.48
726.25	271.01
726.58	270.53
726.91	270.04
727.24	269.56
727.57	269.12
727.91	268.62
728.24	268.17
728.57	267.67
728.90	267.27
729.23	266.77
729.56	266.38
729.89	265.93
730.22	265.41
730.55	264.97
730.89	264.53
731.22	264.08
731.55	263.63
731.88	263.20
732.21	262.76
732.54	262.32
732.87	261.88
733.20	261.48
733.53	261.08
733.86	260.73
734.19	260.34
734.52	259.91
734.85	259.60
735.18	259.16
735.51	258.81
735.84	258.37
736.17	258.06
736.50	257.60
736.83	257.37
737.16	257.04
737.49	256.69
737.82	256.32
738.15	256.02
738.48	255.67
738.81	255.33
739.14	254.97
739.47	254.62
739.80	254.32
740.13	253.98
740.46	253.65
740.79	253.28
741.12	252.95
741.45	252.65
741.78	252.30
742.11	252.03
742.44	251.69
742.77	251.42
743.10	251.07
743.43	250.76
743.75	250.32
744.08	250.19
744.41	249.88
744.74	249.60
745.07	249.29
745.40	249.06
745.73	248.81
746.06	248.53
746.39	248.30
746.71	248.01
747.04	247.75
747.37	247.47
747.70	247.20
748.03	246.93
748.36	246.70
748.68	246.44
749.01	246.15
749.34	245.94
749.67	245.69
750.00	245.49
750.33	245.36
750.65	245.17
750.98	244.82
751.31	244.60
751.64	244.41
751.97	244.25
752.29	244.00
752.62	243.75
752.95	243.54
753.28	243.33
753.60	243.15
753.93	242.96
754.26	242.80
754.59	242.58
754.91	242.37
755.24	242.18
755.57	242.00
755.90	241.81
756.22	241.58
756.55	241.39
756.88	241.20
757.20	240.97
757.53	240.79
757.86	240.63
758.19	240.51
758.51	240.33
758.84	240.13
759.17	239.99
759.49	239.83
759.82	239.73
760.15	239.56
760.47	239.41
760.80	239.28
761.13	239.12
761.45	239.00
761.78	238.90
762.11	238.79
762.43	238.66
762.76	238.56
763.08	238.49
763.41	238.36
763.74	238.22
764.06	238.08
764.39	237.94
764.71	237.78
765.04	237.62
765.37	237.47
765.69	237.36
766.02	237.22
766.34	237.14
766.67	236.99
767.00	236.91
767.32	236.84
767.65	236.78
767.97	236.69
768.30	236.60
768.62	236.49
768.95	236.38
769.27	236.27
769.60	236.15
769.92	236.02
770.25	235.90
770.57	235.80
770.90	235.74
771.22	235.64
771.55	235.59
771.87	235.54
772.20	235.46
772.52	235.42
772.85	235.45
773.17	235.33
773.50	235.23
773.82	235.14
774.15	235.01
774.47	234.85
774.80	234.75
775.12	234.67
775.45	234.58
775.77	234.51
776.09	234.43
776.42	234.35
776.74	234.32
777.07	234.25
777.39	234.20
777.72	234.06
778.04	234.01
778.36	233.90
778.69	233.84
779.01	233.78
779.33	233.67
779.66	233.49
779.98	233.42
780.31	233.38
780.63	233.33
780.95	233.28
781.28	233.23
781.60	233.17
781.92	233.05
782.25	233.00
782.57	232.90
782.89	232.81
783.22	232.76
783.54	232.65
783.86	232.59
784.19	232.48
784.51	232.50
784.83	232.40
785.16	232.36
785.48	232.30
785.80	232.26
786.12	232.17
786.45	232.10
786.77	232.05
787.09	231.98
