SpectraSuite Data File
++++++++++++++++++++++++++++++++++++
Date: Fri Feb 01 16:06:12 EST 2013
User: group
Dark Spectrum Present: No
Reference Spectrum Present: No
Number of Sampled Component Spectra: 1
Spectrometers: USB2E7196
Integration Time (usec): 35000 (USB2E7196)
Spectra Averaged: 100 (USB2E7196)
Boxcar Smoothing: 10 (USB2E7196)
Correct for Electrical Dark: No (USB2E7196)
Strobe/Lamp Enabled: No (USB2E7196)
Correct for Detector Non-linearity: No (USB2E7196)
Correct for Stray Light: No (USB2E7196)
Number of Pixels in Processed Spectrum: 2048
>>>>>Begin Processed Spectral Data<<<<<
339.09	0.00
339.48	215.05
339.86	216.55
340.24	218.32
340.63	219.13
341.01	221.93
341.39	221.57
341.78	223.28
342.16	224.45
342.54	224.70
342.93	213.22
343.31	223.98
343.69	224.48
344.07	224.94
344.46	225.32
344.84	225.71
345.22	225.96
345.60	226.24
345.99	226.40
346.37	226.55
346.75	226.65
347.13	226.70
347.52	226.75
347.90	226.84
348.28	226.89
348.66	226.93
349.05	226.93
349.43	226.95
349.81	227.02
350.19	227.04
350.57	227.09
350.96	227.20
351.34	227.30
351.72	227.39
352.10	227.49
352.48	227.58
352.87	227.62
353.25	227.68
353.63	227.71
354.01	227.80
354.39	227.83
354.77	227.91
355.15	228.01
355.54	228.09
355.92	228.08
356.30	228.16
356.68	228.27
357.06	228.36
357.44	228.41
357.82	228.47
358.20	228.57
358.58	228.63
358.97	228.66
359.35	228.74
359.73	228.84
360.11	228.88
360.49	228.91
360.87	228.93
361.25	228.97
361.63	229.02
362.01	229.06
362.39	229.14
362.77	229.16
363.15	229.19
363.53	229.18
363.91	229.25
364.29	229.27
364.67	229.18
365.05	229.19
365.43	229.22
365.81	229.23
366.19	229.26
366.57	229.31
366.95	229.30
367.33	229.29
367.71	229.30
368.09	229.30
368.47	229.29
368.85	229.28
369.23	229.28
369.61	229.21
369.99	229.18
370.37	229.14
370.75	229.18
371.13	229.11
371.51	229.04
371.89	229.00
372.27	228.94
372.65	228.91
373.03	228.84
373.41	228.78
373.78	228.72
374.16	228.63
374.54	228.54
374.92	228.48
375.30	228.38
375.68	228.29
376.06	228.22
376.44	228.15
376.82	228.10
377.19	228.01
377.57	227.96
377.95	227.87
378.33	227.80
378.71	227.64
379.09	227.59
379.47	227.57
379.84	227.47
380.22	227.37
380.60	227.28
380.98	227.23
381.36	227.16
381.73	227.07
382.11	227.02
382.49	226.94
382.87	226.87
383.25	226.83
383.62	226.86
384.00	226.79
384.38	226.71
384.76	226.68
385.13	226.70
385.51	226.66
385.89	226.60
386.27	226.55
386.64	226.51
387.02	226.48
387.40	226.42
387.78	226.39
388.15	226.39
388.53	226.37
388.91	226.28
389.29	226.27
389.66	226.27
390.04	226.22
390.42	226.24
390.79	226.22
391.17	226.22
391.55	226.10
391.92	226.13
392.30	226.18
392.68	226.17
393.05	226.11
393.43	226.15
393.81	226.21
394.18	226.22
394.56	226.24
394.94	226.28
395.31	226.30
395.69	226.35
396.06	226.40
396.44	226.45
396.82	226.52
397.19	226.60
397.57	226.60
397.95	226.67
398.32	226.66
398.70	226.73
399.07	226.77
399.45	226.83
399.82	226.88
400.20	226.92
400.58	226.99
400.95	227.05
401.33	227.13
401.70	227.23
402.08	227.32
402.45	227.45
402.83	227.56
403.20	227.68
403.58	227.79
403.95	227.93
404.33	228.05
404.71	228.19
405.08	228.35
405.46	228.52
405.83	228.68
406.21	228.87
406.58	229.05
406.96	229.20
407.33	229.37
407.70	229.60
408.08	229.87
408.45	230.12
408.83	230.37
409.20	230.59
409.58	230.80
409.95	231.05
410.33	231.33
410.70	231.57
411.08	231.87
411.45	232.19
411.82	232.50
412.20	232.88
412.57	233.31
412.95	233.61
413.32	234.07
413.69	234.48
414.07	234.94
414.44	235.39
414.82	235.88
415.19	236.44
415.56	236.97
415.94	237.48
416.31	238.09
416.68	238.70
417.06	239.37
417.43	240.02
417.81	240.80
418.18	241.58
418.55	242.38
418.93	243.26
419.30	244.13
419.67	245.03
420.04	245.97
420.42	246.88
420.79	248.06
421.16	249.15
421.54	250.34
421.91	251.53
422.28	252.80
422.66	254.09
423.03	255.42
423.40	256.75
423.77	258.21
424.15	259.61
424.52	261.12
424.89	262.75
425.26	264.33
425.64	265.74
426.01	267.31
426.38	268.97
426.75	270.63
427.13	272.36
427.50	274.18
427.87	276.06
428.24	277.96
428.61	279.72
428.99	281.66
429.36	283.75
429.73	285.81
430.10	287.82
430.47	289.93
430.85	292.01
431.22	294.27
431.59	296.61
431.96	298.87
432.33	301.33
432.70	303.68
433.08	306.48
433.45	309.14
433.82	311.75
434.19	314.66
434.56	317.47
434.93	320.12
435.30	322.70
435.68	325.54
436.05	328.36
436.42	331.13
436.79	333.67
437.16	336.30
437.53	339.17
437.90	341.98
438.27	344.72
438.64	347.54
439.01	350.06
439.38	352.28
439.75	354.44
440.13	356.92
440.50	359.29
440.87	361.12
441.24	363.07
441.61	365.18
441.98	366.62
442.35	368.39
442.72	370.22
443.09	372.03
443.46	373.03
443.83	373.61
444.20	374.11
444.57	374.91
444.94	375.24
445.31	375.51
445.68	375.84
446.05	375.90
446.42	375.51
446.79	375.12
447.16	374.72
447.53	374.37
447.90	373.21
448.27	372.05
448.64	370.44
449.01	369.24
449.37	367.28
449.74	365.41
450.11	363.18
450.48	360.72
450.85	358.20
451.22	356.08
451.59	354.08
451.96	352.14
452.33	349.53
452.70	347.20
453.07	344.39
453.43	341.51
453.80	338.75
454.17	336.05
454.54	333.51
454.91	330.79
455.28	328.11
455.65	325.61
456.02	323.12
456.38	321.01
456.75	318.38
457.12	316.14
457.49	313.92
457.86	311.73
458.23	309.86
458.59	307.85
458.96	305.78
459.33	303.89
459.70	302.04
460.07	300.52
460.43	298.77
460.80	297.12
461.17	295.71
461.54	294.23
461.91	292.82
462.27	291.36
462.64	290.08
463.01	288.74
463.38	287.44
463.74	286.10
464.11	284.92
464.48	283.92
464.85	282.82
465.21	281.95
465.58	281.04
465.95	279.94
466.32	279.00
466.68	278.08
467.05	277.23
467.42	276.33
467.78	275.40
468.15	274.55
468.52	273.93
468.88	273.08
469.25	272.30
469.62	271.72
469.98	271.06
470.35	270.45
470.72	269.85
471.08	269.21
471.45	268.65
471.82	268.12
472.18	267.54
472.55	267.11
472.92	266.59
473.28	266.11
473.65	265.72
474.02	265.28
474.38	264.95
474.75	264.63
475.11	264.27
475.48	264.04
475.85	263.78
476.21	263.50
476.58	263.30
476.94	263.19
477.31	262.98
477.67	262.87
478.04	262.74
478.41	262.70
478.77	262.75
479.14	262.70
479.50	262.75
479.87	262.80
480.23	262.91
480.60	262.99
480.96	263.11
481.33	263.29
481.69	263.50
482.06	263.68
482.42	263.91
482.79	264.19
483.15	264.49
483.52	264.93
483.88	265.32
484.25	265.71
484.61	266.09
484.98	266.57
485.34	267.11
485.71	267.73
486.07	268.35
486.44	268.91
486.80	269.66
487.17	270.37
487.53	271.18
487.90	272.02
488.26	272.98
488.62	273.96
488.99	274.97
489.35	276.04
489.72	277.17
490.08	278.34
490.44	279.58
490.81	280.92
491.17	282.29
491.54	283.77
491.90	285.33
492.26	287.01
492.63	288.73
492.99	290.52
493.36	292.40
493.72	294.47
494.08	296.59
494.45	298.77
494.81	301.12
495.17	303.56
495.54	306.13
495.90	308.80
496.26	311.60
496.63	314.54
496.99	317.66
497.35	320.89
497.72	324.27
498.08	327.77
498.44	331.44
498.80	335.31
499.17	339.33
499.53	343.50
499.89	347.89
500.26	352.42
500.62	357.10
500.98	362.12
501.34	367.19
501.71	372.54
502.07	378.01
502.43	383.63
502.79	389.45
503.16	395.56
503.52	401.90
503.88	408.34
504.24	414.98
504.60	421.82
504.97	428.95
505.33	436.32
505.69	444.09
506.05	451.86
506.41	459.80
506.78	467.97
507.14	476.42
507.50	485.15
507.86	494.22
508.22	503.40
508.59	512.51
508.95	522.17
509.31	531.94
509.67	542.09
510.03	552.41
510.39	562.94
510.75	573.74
511.12	584.65
511.48	595.97
511.84	607.39
512.20	618.95
512.56	630.89
512.92	643.08
513.28	655.46
513.64	668.01
514.00	680.69
514.37	693.62
514.73	706.69
515.09	719.69
515.45	733.01
515.81	746.70
516.17	760.69
516.53	774.73
516.89	788.94
517.25	803.05
517.61	817.48
517.97	832.03
518.33	846.40
518.69	861.17
519.05	876.11
519.41	891.32
519.77	906.87
520.13	922.38
520.49	937.77
520.85	953.13
521.21	968.83
521.57	985.11
521.93	1000.92
522.29	1017.35
522.65	1033.62
523.01	1049.73
523.37	1065.72
523.73	1081.92
524.09	1098.04
524.45	1114.34
524.81	1131.02
525.17	1147.82
525.53	1164.73
525.89	1181.64
526.25	1198.56
526.61	1214.96
526.97	1231.70
527.33	1248.15
527.68	1264.62
528.04	1281.21
528.40	1297.75
528.76	1314.74
529.12	1331.22
529.48	1348.07
529.84	1364.15
530.20	1380.66
530.56	1397.59
530.91	1414.92
531.27	1431.64
531.63	1448.01
531.99	1464.65
532.35	1480.54
532.71	1496.39
533.07	1512.43
533.42	1528.28
533.78	1544.13
534.14	1560.39
534.50	1575.68
534.86	1591.46
535.21	1606.77
535.57	1622.48
535.93	1637.95
536.29	1652.70
536.65	1667.75
537.00	1682.51
537.36	1697.56
537.72	1712.10
538.08	1726.63
538.44	1740.38
538.79	1754.20
539.15	1767.76
539.51	1781.21
539.87	1795.47
540.22	1809.15
540.58	1822.96
540.94	1836.21
541.29	1849.16
541.65	1861.79
542.01	1874.88
542.37	1887.26
542.72	1899.58
543.08	1911.39
543.44	1923.80
543.79	1935.05
544.15	1946.01
544.51	1957.43
544.87	1968.35
545.22	1979.04
545.58	1989.21
545.94	1998.91
546.29	2008.85
546.65	2018.78
547.01	2028.09
547.36	2036.80
547.72	2045.20
548.07	2053.05
548.43	2061.09
548.79	2069.09
549.14	2076.57
549.50	2083.97
549.86	2091.59
550.21	2098.83
550.57	2105.87
550.92	2112.31
551.28	2119.31
551.64	2126.33
551.99	2132.89
552.35	2139.00
552.70	2145.24
553.06	2151.08
553.41	2157.48
553.77	2163.30
554.13	2169.36
554.48	2175.55
554.84	2181.04
555.19	2186.29
555.55	2191.31
555.90	2195.81
556.26	2200.79
556.61	2205.61
556.97	2209.88
557.32	2213.97
557.68	2218.03
558.03	2222.34
558.39	2226.10
558.74	2230.78
559.10	2234.58
559.45	2238.24
559.81	2242.62
560.16	2246.45
560.52	2249.75
560.87	2253.14
561.23	2255.88
561.58	2258.93
561.94	2261.39
562.29	2263.70
562.64	2266.50
563.00	2269.20
563.35	2272.79
563.71	2275.61
564.06	2278.69
564.42	2281.51
564.77	2284.05
565.12	2286.37
565.48	2288.33
565.83	2290.10
566.19	2291.31
566.54	2292.28
566.89	2293.43
567.25	2294.05
567.60	2295.24
567.96	2296.86
568.31	2297.66
568.66	2298.75
569.02	2299.18
569.37	2299.47
569.72	2300.49
570.08	2300.67
570.43	2300.74
570.78	2300.29
571.14	2298.84
571.49	2297.47
571.84	2297.20
572.20	2296.07
572.55	2295.13
572.90	2293.59
573.26	2292.27
573.61	2290.66
573.96	2288.98
574.31	2285.90
574.67	2282.89
575.02	2279.42
575.37	2276.01
575.72	2272.22
576.08	2268.94
576.43	2265.66
576.78	2262.16
577.13	2258.96
577.49	2255.85
577.84	2252.37
578.19	2248.60
578.54	2245.11
578.90	2240.88
579.25	2235.27
579.60	2230.38
579.95	2225.24
580.30	2220.21
580.66	2215.11
581.01	2210.16
581.36	2205.37
581.71	2201.22
582.06	2196.90
582.42	2192.46
582.77	2187.33
583.12	2182.85
583.47	2178.21
583.82	2173.27
584.17	2167.97
584.53	2162.43
584.88	2156.85
585.23	2151.04
585.58	2145.59
585.93	2140.10
586.28	2135.41
586.63	2130.41
586.98	2125.37
587.34	2120.77
587.69	2115.93
588.04	2110.71
588.39	2105.06
588.74	2098.49
589.09	2092.45
589.44	2085.60
589.79	2079.56
590.14	2074.06
590.49	2067.42
590.84	2060.93
591.19	2054.90
591.54	2048.48
591.89	2041.30
592.25	2034.56
592.60	2027.41
592.95	2019.89
593.30	2012.58
593.65	2004.98
594.00	1997.97
594.35	1990.60
594.70	1982.57
595.05	1975.35
595.40	1968.05
595.75	1960.54
596.10	1954.26
596.45	1947.59
596.80	1941.41
597.15	1934.77
597.50	1927.67
597.85	1921.36
598.19	1914.81
598.54	1907.76
598.89	1901.00
599.24	1894.91
599.59	1888.25
599.94	1881.98
600.29	1875.53
600.64	1868.93
600.99	1861.63
601.34	1854.93
601.69	1848.03
602.04	1841.18
602.39	1833.75
602.74	1826.93
603.08	1820.08
603.43	1813.49
603.78	1805.99
604.13	1798.77
604.48	1791.51
604.83	1784.60
605.18	1777.60
605.53	1769.55
605.87	1761.49
606.22	1754.34
606.57	1746.41
606.92	1738.88
607.27	1731.83
607.62	1724.95
607.96	1717.73
608.31	1711.08
608.66	1703.29
609.01	1695.74
609.36	1688.18
609.70	1680.15
610.05	1672.09
610.40	1664.49
610.75	1656.04
611.10	1648.42
611.44	1640.10
611.79	1632.14
612.14	1623.48
612.49	1614.29
612.83	1606.01
613.18	1598.09
613.53	1589.96
613.88	1581.46
614.22	1573.31
614.57	1564.64
614.92	1556.61
615.27	1548.98
615.61	1540.69
615.96	1532.73
616.31	1525.14
616.65	1517.79
617.00	1510.27
617.35	1502.70
617.70	1494.47
618.04	1485.99
618.39	1477.79
618.74	1470.17
619.08	1461.85
619.43	1454.16
619.78	1447.33
620.12	1440.07
620.47	1432.37
620.82	1424.23
621.16	1416.74
621.51	1409.04
621.85	1401.39
622.20	1392.83
622.55	1384.49
622.89	1376.55
623.24	1368.83
623.59	1361.34
623.93	1353.80
624.28	1346.63
624.62	1339.05
624.97	1331.80
625.32	1324.95
625.66	1317.97
626.01	1310.75
626.35	1303.22
626.70	1295.57
627.04	1287.79
627.39	1279.98
627.73	1272.54
628.08	1265.65
628.43	1258.41
628.77	1250.99
629.12	1243.42
629.46	1236.31
629.81	1228.85
630.15	1221.61
630.50	1214.30
630.84	1206.06
631.19	1198.09
631.53	1190.55
631.88	1183.01
632.22	1175.38
632.57	1168.21
632.91	1160.71
633.26	1153.29
633.60	1145.96
633.95	1138.84
634.29	1131.85
634.64	1125.12
634.98	1117.80
635.32	1110.58
635.67	1103.93
636.01	1097.33
636.36	1090.57
636.70	1083.92
637.05	1077.30
637.39	1070.88
637.73	1064.41
638.08	1058.62
638.42	1052.72
638.77	1046.28
639.11	1039.64
639.45	1033.11
639.80	1026.37
640.14	1019.85
640.49	1013.28
640.83	1006.88
641.17	1000.56
641.52	994.05
641.86	987.60
642.20	981.70
642.55	975.34
642.89	968.95
643.23	962.39
643.58	956.53
643.92	950.41
644.26	944.42
644.61	938.36
644.95	932.30
645.29	925.64
645.64	918.82
645.98	912.53
646.32	906.73
646.66	900.83
647.01	895.08
647.35	889.42
647.69	883.61
648.04	878.13
648.38	872.37
648.72	866.45
649.06	860.41
649.41	854.57
649.75	848.68
650.09	842.70
650.43	836.93
650.78	830.75
651.12	824.75
651.46	819.02
651.80	813.26
652.14	807.85
652.49	802.55
652.83	797.37
653.17	791.68
653.51	785.91
653.85	780.49
654.20	774.83
654.54	768.82
654.88	763.05
655.22	757.14
655.56	751.45
655.90	746.00
656.25	740.80
656.59	735.46
656.93	730.42
657.27	725.29
657.61	719.92
657.95	714.91
658.29	709.88
658.64	704.61
658.98	699.31
659.32	693.83
659.66	688.62
660.00	683.28
660.34	678.28
660.68	673.46
661.02	668.50
661.36	663.78
661.70	659.35
662.05	655.02
662.39	650.68
662.73	646.21
663.07	641.88
663.41	637.42
663.75	632.91
664.09	628.32
664.43	623.93
664.77	619.84
665.11	615.57
665.45	611.46
665.79	607.36
666.13	603.22
666.47	599.14
666.81	595.00
667.15	590.97
667.49	587.07
667.83	583.20
668.17	579.24
668.51	575.19
668.85	571.13
669.19	567.27
669.53	563.51
669.87	559.68
670.21	555.91
670.55	552.30
670.89	548.83
671.23	545.36
671.57	541.82
671.91	538.23
672.25	534.73
672.58	531.19
672.92	527.78
673.26	524.66
673.60	521.48
673.94	518.36
674.28	515.41
674.62	512.47
674.96	509.31
675.30	506.37
675.64	503.41
675.97	500.63
676.31	497.74
676.65	494.79
676.99	492.04
677.33	489.16
677.67	486.27
678.01	483.23
678.34	480.28
678.68	477.38
679.02	474.58
679.36	471.77
679.70	469.08
680.04	466.31
680.37	463.39
680.71	460.62
681.05	457.96
681.39	455.22
681.73	452.53
682.06	450.03
682.40	447.45
682.74	444.93
683.08	442.34
683.42	439.80
683.75	437.27
684.09	434.67
684.43	432.22
684.77	429.84
685.10	427.50
685.44	425.20
685.78	422.93
686.12	420.66
686.45	418.37
686.79	416.00
687.13	413.83
687.46	411.66
687.80	409.46
688.14	407.22
688.48	405.13
688.81	402.87
689.15	400.74
689.49	398.63
689.82	396.53
690.16	394.47
690.50	392.51
690.83	390.58
691.17	388.67
691.51	386.76
691.84	384.91
692.18	382.93
692.52	380.97
692.85	379.02
693.19	377.13
693.52	375.30
693.86	373.50
694.20	371.69
694.53	369.88
694.87	368.03
695.21	366.28
695.54	364.48
695.88	362.79
696.21	361.00
696.55	359.27
696.88	357.59
697.22	355.95
697.56	354.33
697.89	352.67
698.23	351.05
698.56	349.43
698.90	347.83
699.23	346.27
699.57	344.68
699.90	343.16
700.24	341.66
700.58	340.14
700.91	338.64
701.25	337.21
701.58	335.87
701.92	334.55
702.25	333.19
702.59	331.86
702.92	330.52
703.26	329.23
703.59	327.96
703.93	326.76
704.26	325.53
704.60	324.20
704.93	322.91
705.26	321.65
705.60	320.49
705.93	319.33
706.27	318.27
706.60	317.21
706.94	316.09
707.27	314.94
707.61	313.88
707.94	312.86
708.27	311.81
708.61	310.72
708.94	309.73
709.28	308.72
709.61	307.74
709.94	306.78
710.28	305.80
710.61	304.84
710.95	303.76
711.28	302.83
711.61	301.87
711.95	301.01
712.28	300.11
712.61	299.13
712.95	298.15
713.28	297.26
713.61	296.39
713.95	295.54
714.28	294.69
714.61	293.86
714.95	293.02
715.28	292.12
715.61	291.23
715.95	290.34
716.28	289.51
716.61	288.68
716.95	287.86
717.28	287.11
717.61	286.34
717.94	285.63
718.28	284.78
718.61	284.10
718.94	283.37
719.27	282.65
719.61	282.01
719.94	281.35
720.27	280.63
720.60	279.95
720.94	279.30
721.27	278.74
721.60	278.14
721.93	277.53
722.27	277.00
722.60	276.44
722.93	275.84
723.26	275.28
723.59	274.70
723.93	274.17
724.26	273.59
724.59	273.02
724.92	272.48
725.25	272.02
725.59	271.46
725.92	270.97
726.25	270.45
726.58	269.96
726.91	269.44
727.24	268.96
727.57	268.48
727.91	267.97
728.24	267.50
728.57	267.00
728.90	266.54
729.23	266.03
729.56	265.64
729.89	265.18
730.22	264.71
730.55	264.26
730.89	263.81
731.22	263.40
731.55	262.93
731.88	262.49
732.21	262.05
732.54	261.63
732.87	261.20
733.20	260.82
733.53	260.41
733.86	260.04
734.19	259.63
734.52	259.25
734.85	258.94
735.18	258.49
735.51	258.14
735.84	257.76
736.17	257.45
736.50	257.03
736.83	256.82
737.16	256.48
737.49	256.17
737.82	255.84
738.15	255.48
738.48	255.16
738.81	254.86
739.14	254.51
739.47	254.19
739.80	253.87
740.13	253.55
740.46	253.24
740.79	252.92
741.12	252.66
741.45	252.33
741.78	251.98
742.11	251.71
742.44	251.37
742.77	251.12
743.10	250.79
743.43	250.46
743.75	250.06
744.08	249.93
744.41	249.63
744.74	249.35
745.07	249.09
745.40	248.85
745.73	248.62
746.06	248.38
746.39	248.15
746.71	247.89
747.04	247.62
747.37	247.38
747.70	247.17
748.03	246.89
748.36	246.69
748.68	246.50
749.01	246.24
749.34	246.02
749.67	245.76
750.00	245.53
750.33	245.38
750.65	245.18
750.98	244.81
751.31	244.63
751.64	244.41
751.97	244.25
752.29	244.03
752.62	243.75
752.95	243.58
753.28	243.36
753.60	243.16
753.93	242.98
754.26	242.79
754.59	242.56
754.91	242.35
755.24	242.12
755.57	241.89
755.90	241.68
756.22	241.46
756.55	241.26
756.88	241.08
757.20	240.86
757.53	240.66
757.86	240.50
758.19	240.33
758.51	240.20
758.84	239.98
759.17	239.80
759.49	239.64
759.82	239.47
760.15	239.33
760.47	239.17
760.80	238.98
761.13	238.85
761.45	238.68
761.78	238.55
762.11	238.42
762.43	238.25
762.76	238.14
763.08	238.04
763.41	237.94
763.74	237.74
764.06	237.57
764.39	237.43
764.71	237.29
765.04	237.11
765.37	236.90
765.69	236.75
766.02	236.63
766.34	236.53
766.67	236.36
767.00	236.18
767.32	236.10
767.65	236.06
767.97	235.91
768.30	235.82
768.62	235.69
768.95	235.56
769.27	235.48
769.60	235.38
769.92	235.23
770.25	235.10
770.57	235.06
770.90	234.96
771.22	234.86
771.55	234.76
771.87	234.68
772.20	234.63
772.52	234.60
772.85	234.64
773.17	234.53
773.50	234.43
773.82	234.37
774.15	234.22
774.47	234.07
774.80	233.98
775.12	233.85
775.45	233.75
775.77	233.66
776.09	233.57
776.42	233.50
776.74	233.41
777.07	233.32
777.39	233.24
777.72	233.17
778.04	233.12
778.36	233.07
778.69	232.98
779.01	232.89
779.33	232.78
779.66	232.59
779.98	232.50
780.31	232.46
780.63	232.44
780.95	232.43
781.28	232.37
781.60	232.32
781.92	232.31
782.25	232.28
782.57	232.22
782.89	232.18
783.22	232.10
783.54	232.10
783.86	232.07
784.19	232.03
784.51	232.00
784.83	231.92
785.16	231.87
785.48	231.83
785.80	231.79
786.12	231.77
786.45	231.75
786.77	231.75
787.09	231.69
