SpectraSuite Data File
++++++++++++++++++++++++++++++++++++
Date: Fri Feb 01 15:19:10 EST 2013
User: group
Dark Spectrum Present: No
Reference Spectrum Present: No
Number of Sampled Component Spectra: 1
Spectrometers: USB2E7196
Integration Time (usec): 35000 (USB2E7196)
Spectra Averaged: 100 (USB2E7196)
Boxcar Smoothing: 10 (USB2E7196)
Correct for Electrical Dark: No (USB2E7196)
Strobe/Lamp Enabled: No (USB2E7196)
Correct for Detector Non-linearity: No (USB2E7196)
Correct for Stray Light: No (USB2E7196)
Number of Pixels in Processed Spectrum: 2048
>>>>>Begin Processed Spectral Data<<<<<
339.09	0.00
339.48	215.27
339.86	217.10
340.24	217.92
340.63	218.86
341.01	222.12
341.39	221.35
341.78	223.30
342.16	224.80
342.54	225.13
342.93	213.38
343.31	224.18
343.69	224.69
344.07	225.10
344.46	225.51
344.84	225.91
345.22	226.12
345.60	226.38
345.99	226.55
346.37	226.67
346.75	226.77
347.13	226.86
347.52	226.90
347.90	226.96
348.28	226.99
348.66	227.03
349.05	227.05
349.43	227.08
349.81	227.16
350.19	227.19
350.57	227.26
350.96	227.34
351.34	227.42
351.72	227.51
352.10	227.64
352.48	227.70
352.87	227.76
353.25	227.87
353.63	227.95
354.01	228.03
354.39	228.09
354.77	228.15
355.15	228.26
355.54	228.33
355.92	228.39
356.30	228.47
356.68	228.61
357.06	228.67
357.44	228.77
357.82	228.81
358.20	228.84
358.58	228.94
358.97	228.97
359.35	229.05
359.73	229.14
360.11	229.20
360.49	229.29
360.87	229.33
361.25	229.38
361.63	229.47
362.01	229.53
362.39	229.59
362.77	229.64
363.15	229.63
363.53	229.65
363.91	229.65
364.29	229.68
364.67	229.63
365.05	229.67
365.43	229.66
365.81	229.69
366.19	229.77
366.57	229.79
366.95	229.76
367.33	229.72
367.71	229.71
368.09	229.70
368.47	229.67
368.85	229.65
369.23	229.63
369.61	229.52
369.99	229.51
370.37	229.46
370.75	229.49
371.13	229.44
371.51	229.38
371.89	229.35
372.27	229.30
372.65	229.21
373.03	229.16
373.41	229.08
373.78	229.01
374.16	228.87
374.54	228.75
374.92	228.70
375.30	228.63
375.68	228.54
376.06	228.45
376.44	228.38
376.82	228.30
377.19	228.24
377.57	228.20
377.95	228.09
378.33	227.98
378.71	227.82
379.09	227.75
379.47	227.68
379.84	227.58
380.22	227.48
380.60	227.40
380.98	227.29
381.36	227.23
381.73	227.11
382.11	227.07
382.49	227.02
382.87	226.90
383.25	226.83
383.62	226.84
384.00	226.78
384.38	226.69
384.76	226.68
385.13	226.63
385.51	226.55
385.89	226.48
386.27	226.41
386.64	226.38
387.02	226.33
387.40	226.31
387.78	226.30
388.15	226.25
388.53	226.22
388.91	226.19
389.29	226.18
389.66	226.17
390.04	226.16
390.42	226.13
390.79	226.15
391.17	226.17
391.55	226.09
391.92	226.11
392.30	226.10
392.68	226.06
393.05	226.08
393.43	226.10
393.81	226.10
394.18	226.15
394.56	226.18
394.94	226.23
395.31	226.22
395.69	226.26
396.06	226.32
396.44	226.35
396.82	226.41
397.19	226.48
397.57	226.55
397.95	226.62
398.32	226.65
398.70	226.72
399.07	226.79
399.45	226.88
399.82	226.95
400.20	227.05
400.58	227.13
400.95	227.17
401.33	227.31
401.70	227.53
402.08	227.62
402.45	227.73
402.83	227.88
403.20	228.00
403.58	228.11
403.95	228.27
404.33	228.44
404.71	228.55
405.08	228.73
405.46	228.87
405.83	229.00
406.21	229.20
406.58	229.38
406.96	229.56
407.33	229.73
407.70	229.91
408.08	230.18
408.45	230.44
408.83	230.68
409.20	230.87
409.58	231.04
409.95	231.34
410.33	231.62
410.70	231.87
411.08	232.19
411.45	232.50
411.82	232.80
412.20	233.15
412.57	233.58
412.95	233.90
413.32	234.31
413.69	234.74
414.07	235.17
414.44	235.60
414.82	236.08
415.19	236.62
415.56	237.16
415.94	237.72
416.31	238.33
416.68	238.95
417.06	239.70
417.43	240.39
417.81	241.13
418.18	241.89
418.55	242.71
418.93	243.56
419.30	244.46
419.67	245.40
420.04	246.38
420.42	247.38
420.79	248.55
421.16	249.70
421.54	250.89
421.91	252.12
422.28	253.38
422.66	254.72
423.03	256.01
423.40	257.34
423.77	258.72
424.15	260.17
424.52	261.63
424.89	263.20
425.26	264.75
425.64	266.19
426.01	267.76
426.38	269.39
426.75	271.07
427.13	272.78
427.50	274.58
427.87	276.43
428.24	278.31
428.61	280.05
428.99	281.98
429.36	284.08
429.73	286.13
430.10	288.16
430.47	290.19
430.85	292.30
431.22	294.55
431.59	296.96
431.96	299.18
432.33	301.67
432.70	304.05
433.08	306.81
433.45	309.44
433.82	312.05
434.19	314.92
434.56	317.72
434.93	320.39
435.30	322.99
435.68	325.87
436.05	328.75
436.42	331.55
436.79	334.09
437.16	336.81
437.53	339.68
437.90	342.50
438.27	345.31
438.64	348.17
439.01	350.81
439.38	353.02
439.75	355.21
440.13	357.77
440.50	360.11
440.87	362.03
441.24	364.07
441.61	366.29
441.98	367.84
442.35	369.64
442.72	371.52
443.09	373.33
443.46	374.32
443.83	374.87
444.20	375.37
444.57	376.18
444.94	376.45
445.31	376.80
445.68	377.20
446.05	377.24
446.42	376.85
446.79	376.41
447.16	375.99
447.53	375.71
447.90	374.52
448.27	373.41
448.64	371.82
449.01	370.63
449.37	368.65
449.74	366.75
450.11	364.50
450.48	362.04
450.85	359.54
451.22	357.44
451.59	355.40
451.96	353.46
452.33	350.87
452.70	348.52
453.07	345.65
453.43	342.77
453.80	339.98
454.17	337.30
454.54	334.74
454.91	332.00
455.28	329.29
455.65	326.81
456.02	324.34
456.38	322.16
456.75	319.46
457.12	317.17
457.49	314.98
457.86	312.82
458.23	310.92
458.59	308.85
458.96	306.72
459.33	304.84
459.70	302.98
460.07	301.47
460.43	299.72
460.80	298.10
461.17	296.63
461.54	295.11
461.91	293.65
462.27	292.23
462.64	290.92
463.01	289.56
463.38	288.21
463.74	286.79
464.11	285.64
464.48	284.63
464.85	283.50
465.21	282.59
465.58	281.62
465.95	280.51
466.32	279.59
466.68	278.70
467.05	277.78
467.42	276.84
467.78	275.84
468.15	274.93
468.52	274.21
468.88	273.28
469.25	272.47
469.62	271.83
469.98	271.13
470.35	270.55
470.72	269.92
471.08	269.27
471.45	268.72
471.82	268.14
472.18	267.51
472.55	267.07
472.92	266.51
473.28	266.09
473.65	265.62
474.02	265.14
474.38	264.72
474.75	264.42
475.11	264.13
475.48	263.88
475.85	263.69
476.21	263.48
476.58	263.33
476.94	263.21
477.31	263.08
477.67	262.94
478.04	262.80
478.41	262.72
478.77	262.73
479.14	262.69
479.50	262.67
479.87	262.74
480.23	262.81
480.60	262.90
480.96	262.96
481.33	263.18
481.69	263.44
482.06	263.65
482.42	263.87
482.79	264.09
483.15	264.45
483.52	264.81
483.88	265.16
484.25	265.53
484.61	265.95
484.98	266.37
485.34	266.91
485.71	267.47
486.07	268.12
486.44	268.71
486.80	269.43
487.17	270.19
487.53	270.97
487.90	271.87
488.26	272.84
488.62	273.83
488.99	274.80
489.35	275.82
489.72	276.97
490.08	278.18
490.44	279.44
490.81	280.78
491.17	282.13
491.54	283.65
491.90	285.26
492.26	286.89
492.63	288.65
492.99	290.43
493.36	292.35
493.72	294.41
494.08	296.53
494.45	298.79
494.81	301.18
495.17	303.62
495.54	306.16
495.90	308.81
496.26	311.59
496.63	314.52
496.99	317.61
497.35	320.82
497.72	324.18
498.08	327.65
498.44	331.30
498.80	335.21
499.17	339.18
499.53	343.32
499.89	347.73
500.26	352.22
500.62	356.88
500.98	361.86
501.34	366.87
501.71	372.17
502.07	377.56
502.43	383.18
502.79	389.02
503.16	395.06
503.52	401.31
503.88	407.72
504.24	414.38
504.60	421.24
504.97	428.37
505.33	435.76
505.69	443.52
506.05	451.30
506.41	459.19
506.78	467.38
507.14	475.81
507.50	484.49
507.86	493.48
508.22	502.68
508.59	511.88
508.95	521.45
509.31	531.26
509.67	541.34
510.03	551.57
510.39	562.11
510.75	572.92
511.12	583.92
511.48	595.20
511.84	606.61
512.20	618.13
512.56	630.06
512.92	642.21
513.28	654.49
513.64	666.93
514.00	679.66
514.37	692.54
514.73	705.57
515.09	718.71
515.45	732.03
515.81	745.52
516.17	759.49
516.53	773.65
516.89	787.76
517.25	801.95
517.61	816.43
517.97	830.88
518.33	845.32
518.69	860.08
519.05	875.13
519.41	890.36
519.77	906.00
520.13	921.49
520.49	936.86
520.85	952.22
521.21	968.00
521.57	984.25
521.93	1000.12
522.29	1016.60
522.65	1032.80
523.01	1049.08
523.37	1065.33
523.73	1081.54
524.09	1097.63
524.45	1114.13
524.81	1130.87
525.17	1147.82
525.53	1164.79
525.89	1181.67
526.25	1198.61
526.61	1215.14
526.97	1231.91
527.33	1248.47
527.68	1265.23
528.04	1281.80
528.40	1298.59
528.76	1315.70
529.12	1332.44
529.48	1349.38
529.84	1365.53
530.20	1382.11
530.56	1399.20
530.91	1416.62
531.27	1433.42
531.63	1450.00
531.99	1466.61
532.35	1482.61
532.71	1498.52
533.07	1514.94
533.42	1530.99
533.78	1547.05
534.14	1563.27
534.50	1578.66
534.86	1594.52
535.21	1609.69
535.57	1625.73
535.93	1641.35
536.29	1656.29
536.65	1671.56
537.00	1686.56
537.36	1701.84
537.72	1716.56
538.08	1730.95
538.44	1744.80
538.79	1758.93
539.15	1772.88
539.51	1786.68
539.87	1801.13
540.22	1814.93
540.58	1828.73
540.94	1842.21
541.29	1855.25
541.65	1868.05
542.01	1881.50
542.37	1893.86
542.72	1906.38
543.08	1918.17
543.44	1930.57
543.79	1941.82
544.15	1952.68
544.51	1964.12
544.87	1975.18
545.22	1985.98
545.58	1996.32
545.94	2006.15
546.29	2015.92
546.65	2025.70
547.01	2034.88
547.36	2043.71
547.72	2052.18
548.07	2060.02
548.43	2068.24
548.79	2076.35
549.14	2083.88
549.50	2091.38
549.86	2099.13
550.21	2106.49
550.57	2113.80
550.92	2120.31
551.28	2127.41
551.64	2134.49
551.99	2141.11
552.35	2147.36
552.70	2153.55
553.06	2159.60
553.41	2166.03
553.77	2172.10
554.13	2178.20
554.48	2184.48
554.84	2189.84
555.19	2195.30
555.55	2200.39
555.90	2204.76
556.26	2209.53
556.61	2214.23
556.97	2218.25
557.32	2222.41
557.68	2226.48
558.03	2230.72
558.39	2234.61
558.74	2239.23
559.10	2242.98
559.45	2246.64
559.81	2250.94
560.16	2254.71
560.52	2257.79
560.87	2261.07
561.23	2263.82
561.58	2266.72
561.94	2269.14
562.29	2271.60
562.64	2274.13
563.00	2276.84
563.35	2280.31
563.71	2283.29
564.06	2286.50
564.42	2289.38
564.77	2291.84
565.12	2294.08
565.48	2295.82
565.83	2297.50
566.19	2298.73
566.54	2299.68
566.89	2300.76
567.25	2301.26
567.60	2302.54
567.96	2304.10
568.31	2304.94
568.66	2305.77
569.02	2306.20
569.37	2306.40
569.72	2307.10
570.08	2307.26
570.43	2307.06
570.78	2306.40
571.14	2304.81
571.49	2303.47
571.84	2303.00
572.20	2301.69
572.55	2300.54
572.90	2299.01
573.26	2297.59
573.61	2295.78
573.96	2293.92
574.31	2290.86
574.67	2287.70
575.02	2284.04
575.37	2280.62
575.72	2276.69
576.08	2273.38
576.43	2270.07
576.78	2266.38
577.13	2263.20
577.49	2260.00
577.84	2256.50
578.19	2252.74
578.54	2248.96
578.90	2244.61
579.25	2239.00
579.60	2233.96
579.95	2228.81
580.30	2223.75
580.66	2218.45
581.01	2213.39
581.36	2208.43
581.71	2204.14
582.06	2199.61
582.42	2195.20
582.77	2189.88
583.12	2185.06
583.47	2180.12
583.82	2174.87
584.17	2169.65
584.53	2164.06
584.88	2158.29
585.23	2152.39
585.58	2146.78
585.93	2141.37
586.28	2136.52
586.63	2131.34
586.98	2126.39
587.34	2121.70
587.69	2116.50
588.04	2111.15
588.39	2105.37
588.74	2098.86
589.09	2092.58
589.44	2085.62
589.79	2079.48
590.14	2073.92
590.49	2067.39
590.84	2061.11
591.19	2055.18
591.54	2048.61
591.89	2040.97
592.25	2033.94
592.60	2026.84
592.95	2019.11
593.30	2011.77
593.65	2003.98
594.00	1996.89
594.35	1989.51
594.70	1981.41
595.05	1974.24
595.40	1966.98
595.75	1959.59
596.10	1953.26
596.45	1946.44
596.80	1940.24
597.15	1933.38
597.50	1926.07
597.85	1919.68
598.19	1912.93
598.54	1905.69
598.89	1899.04
599.24	1893.11
599.59	1886.40
599.94	1880.01
600.29	1873.78
600.64	1867.17
600.99	1859.69
601.34	1852.81
601.69	1845.75
602.04	1838.75
602.39	1831.40
602.74	1824.56
603.08	1817.79
603.43	1810.99
603.78	1803.75
604.13	1796.55
604.48	1789.33
604.83	1782.64
605.18	1775.55
605.53	1767.52
605.87	1759.34
606.22	1752.03
606.57	1744.15
606.92	1736.88
607.27	1729.62
607.62	1722.50
607.96	1715.07
608.31	1708.46
608.66	1700.72
609.01	1693.15
609.36	1685.67
609.70	1677.62
610.05	1669.46
610.40	1661.63
610.75	1653.23
611.10	1645.52
611.44	1637.11
611.79	1629.08
612.14	1620.21
612.49	1611.10
612.83	1602.68
613.18	1594.70
613.53	1586.59
613.88	1577.99
614.22	1569.69
614.57	1561.15
614.92	1553.20
615.27	1545.64
615.61	1537.30
615.96	1529.43
616.31	1521.83
616.65	1514.45
617.00	1506.94
617.35	1499.29
617.70	1490.86
618.04	1482.37
618.39	1474.07
618.74	1466.54
619.08	1458.26
619.43	1450.74
619.78	1443.81
620.12	1436.65
620.47	1429.11
620.82	1420.82
621.16	1413.56
621.51	1406.02
621.85	1398.40
622.20	1389.88
622.55	1381.67
622.89	1373.84
623.24	1366.25
623.59	1358.85
623.93	1351.27
624.28	1343.99
624.62	1336.49
624.97	1329.32
625.32	1322.65
625.66	1315.61
626.01	1308.23
626.35	1300.73
626.70	1293.01
627.04	1285.17
627.39	1277.42
627.73	1269.96
628.08	1263.12
628.43	1255.67
628.77	1248.23
629.12	1240.73
629.46	1233.56
629.81	1226.00
630.15	1218.71
630.50	1211.36
630.84	1203.21
631.19	1195.33
631.53	1187.84
631.88	1180.27
632.22	1172.71
632.57	1165.42
632.91	1157.97
633.26	1150.69
633.60	1143.34
633.95	1136.31
634.29	1129.34
634.64	1122.69
634.98	1115.32
635.32	1108.20
635.67	1101.71
636.01	1095.04
636.36	1088.25
636.70	1081.82
637.05	1075.35
637.39	1068.99
637.73	1062.40
638.08	1056.53
638.42	1050.57
638.77	1044.10
639.11	1037.50
639.45	1031.14
639.80	1024.49
640.14	1018.01
640.49	1011.37
640.83	1005.09
641.17	998.73
641.52	992.49
641.86	986.05
642.20	980.32
642.55	974.04
642.89	967.51
643.23	961.03
643.58	955.20
643.92	948.92
644.26	942.67
644.61	936.66
644.95	930.63
645.29	924.02
645.64	917.27
645.98	910.96
646.32	905.15
646.66	899.11
647.01	893.29
647.35	887.56
647.69	881.82
648.04	876.32
648.38	870.51
648.72	864.45
649.06	858.43
649.41	852.51
649.75	846.50
650.09	840.55
650.43	834.77
650.78	828.60
651.12	822.63
651.46	817.01
651.80	811.18
652.14	805.72
652.49	800.27
652.83	795.05
653.17	789.36
653.51	783.60
653.85	778.27
654.20	772.63
654.54	766.65
654.88	761.02
655.22	755.06
655.56	749.46
655.90	744.06
656.25	738.77
656.59	733.39
656.93	728.32
657.27	723.19
657.61	717.71
657.95	712.61
658.29	707.54
658.64	702.33
658.98	697.13
659.32	691.67
659.66	686.53
660.00	681.26
660.34	676.36
660.68	671.44
661.02	666.40
661.36	661.70
661.70	657.25
662.05	652.81
662.39	648.60
662.73	644.18
663.07	639.80
663.41	635.35
663.75	630.86
664.09	626.36
664.43	622.00
664.77	617.93
665.11	613.70
665.45	609.64
665.79	605.58
666.13	601.42
666.47	597.50
666.81	593.37
667.15	589.29
667.49	585.39
667.83	581.65
668.17	577.69
668.51	573.66
668.85	569.67
669.19	565.88
669.53	562.01
669.87	558.12
670.21	554.44
670.55	550.79
670.89	547.40
671.23	544.01
671.57	540.50
671.91	536.96
672.25	533.55
672.58	530.07
672.92	526.73
673.26	523.65
673.60	520.45
673.94	517.32
674.28	514.48
674.62	511.57
674.96	508.44
675.30	505.57
675.64	502.68
675.97	499.97
676.31	497.11
676.65	494.21
676.99	491.50
677.33	488.63
677.67	485.83
678.01	482.80
678.34	479.76
678.68	476.89
679.02	474.08
679.36	471.29
679.70	468.54
680.04	465.76
680.37	462.83
680.71	460.06
681.05	457.49
681.39	454.72
681.73	452.04
682.06	449.54
682.40	446.97
682.74	444.44
683.08	441.85
683.42	439.26
683.75	436.78
684.09	434.27
684.43	431.86
684.77	429.41
685.10	427.05
685.44	424.83
685.78	422.59
686.12	420.40
686.45	418.15
686.79	415.84
687.13	413.63
687.46	411.52
687.80	409.28
688.14	407.03
688.48	404.96
688.81	402.70
689.15	400.56
689.49	398.42
689.82	396.33
690.16	394.23
690.50	392.26
690.83	390.25
691.17	388.22
691.51	386.30
691.84	384.46
692.18	382.59
692.52	380.60
692.85	378.63
693.19	376.68
693.52	374.82
693.86	373.03
694.20	371.26
694.53	369.45
694.87	367.66
695.21	365.88
695.54	364.08
695.88	362.36
696.21	360.58
696.55	358.91
696.88	357.23
697.22	355.60
697.56	353.94
697.89	352.33
698.23	350.72
698.56	349.07
698.90	347.49
699.23	345.80
699.57	344.19
699.90	342.67
700.24	341.19
700.58	339.68
700.91	338.17
701.25	336.71
701.58	335.34
701.92	333.99
702.25	332.60
702.59	331.25
702.92	329.98
703.26	328.72
703.59	327.46
703.93	326.29
704.26	325.06
704.60	323.83
704.93	322.57
705.26	321.36
705.60	320.22
705.93	319.05
706.27	318.06
706.60	317.05
706.94	315.99
707.27	314.88
707.61	313.82
707.94	312.82
708.27	311.78
708.61	310.69
708.94	309.71
709.28	308.75
709.61	307.79
709.94	306.83
710.28	305.83
710.61	304.84
710.95	303.80
711.28	302.91
711.61	301.98
711.95	301.08
712.28	300.17
712.61	299.22
712.95	298.28
713.28	297.39
713.61	296.50
713.95	295.62
714.28	294.78
714.61	293.94
714.95	293.11
715.28	292.21
715.61	291.35
715.95	290.46
716.28	289.61
716.61	288.81
716.95	287.99
717.28	287.25
717.61	286.51
717.94	285.76
718.28	284.95
718.61	284.21
718.94	283.54
719.27	282.85
719.61	282.23
719.94	281.58
720.27	280.89
720.60	280.22
720.94	279.58
721.27	278.96
721.60	278.36
721.93	277.79
722.27	277.28
722.60	276.75
722.93	276.20
723.26	275.65
723.59	275.07
723.93	274.54
724.26	274.01
724.59	273.45
724.92	272.96
725.25	272.45
725.59	271.93
725.92	271.39
726.25	270.87
726.58	270.36
726.91	269.87
727.24	269.38
727.57	268.90
727.91	268.39
728.24	267.96
728.57	267.45
728.90	266.99
729.23	266.45
729.56	266.02
729.89	265.57
730.22	265.10
730.55	264.61
730.89	264.13
731.22	263.64
731.55	263.17
731.88	262.70
732.21	262.28
732.54	261.83
732.87	261.39
733.20	260.97
733.53	260.58
733.86	260.19
734.19	259.78
734.52	259.40
734.85	259.08
735.18	258.64
735.51	258.27
735.84	257.85
736.17	257.54
736.50	257.12
736.83	256.84
737.16	256.49
737.49	256.19
737.82	255.84
738.15	255.56
738.48	255.18
738.81	254.82
739.14	254.46
739.47	254.18
739.80	253.90
740.13	253.60
740.46	253.24
740.79	252.90
741.12	252.63
741.45	252.30
741.78	251.95
742.11	251.64
742.44	251.30
742.77	251.04
743.10	250.70
743.43	250.43
743.75	250.07
744.08	249.93
744.41	249.62
744.74	249.33
745.07	249.01
745.40	248.80
745.73	248.61
746.06	248.36
746.39	248.10
746.71	247.84
747.04	247.57
747.37	247.34
747.70	247.09
748.03	246.82
748.36	246.62
748.68	246.39
749.01	246.17
749.34	245.97
749.67	245.76
750.00	245.56
750.33	245.39
750.65	245.17
750.98	244.85
751.31	244.67
751.64	244.50
751.97	244.35
752.29	244.16
752.62	243.90
752.95	243.71
753.28	243.49
753.60	243.29
753.93	243.15
754.26	242.97
754.59	242.77
754.91	242.57
755.24	242.35
755.57	242.15
755.90	241.99
756.22	241.81
756.55	241.61
756.88	241.44
757.20	241.20
757.53	241.02
757.86	240.84
758.19	240.67
758.51	240.50
758.84	240.34
759.17	240.16
759.49	240.03
759.82	239.92
760.15	239.77
760.47	239.62
760.80	239.44
761.13	239.30
761.45	239.13
761.78	238.99
762.11	238.88
762.43	238.75
762.76	238.60
763.08	238.50
763.41	238.36
763.74	238.23
764.06	238.08
764.39	237.93
764.71	237.81
765.04	237.67
765.37	237.56
765.69	237.41
766.02	237.29
766.34	237.18
766.67	237.01
767.00	236.91
767.32	236.86
767.65	236.77
767.97	236.66
768.30	236.58
768.62	236.46
768.95	236.34
769.27	236.25
769.60	236.15
769.92	236.01
770.25	235.86
770.57	235.74
770.90	235.66
771.22	235.56
771.55	235.45
771.87	235.35
772.20	235.22
772.52	235.21
772.85	235.17
773.17	235.01
773.50	234.91
773.82	234.81
774.15	234.64
774.47	234.48
774.80	234.38
775.12	234.28
775.45	234.18
775.77	234.10
776.09	234.02
776.42	233.92
776.74	233.84
777.07	233.77
777.39	233.69
777.72	233.59
778.04	233.53
778.36	233.43
778.69	233.37
779.01	233.31
779.33	233.12
779.66	232.98
779.98	232.92
780.31	232.88
780.63	232.81
780.95	232.75
781.28	232.70
781.60	232.61
781.92	232.55
782.25	232.49
782.57	232.42
782.89	232.32
783.22	232.27
783.54	232.20
783.86	232.16
784.19	232.10
784.51	232.07
784.83	231.98
785.16	231.93
785.48	231.85
785.80	231.77
786.12	231.74
786.45	231.70
786.77	231.64
787.09	231.60
