SpectraSuite Data File
++++++++++++++++++++++++++++++++++++
Date: Fri Feb 01 16:44:18 EST 2013
User: group
Dark Spectrum Present: No
Reference Spectrum Present: No
Number of Sampled Component Spectra: 1
Spectrometers: USB2E7196
Integration Time (usec): 35000 (USB2E7196)
Spectra Averaged: 100 (USB2E7196)
Boxcar Smoothing: 10 (USB2E7196)
Correct for Electrical Dark: No (USB2E7196)
Strobe/Lamp Enabled: No (USB2E7196)
Correct for Detector Non-linearity: No (USB2E7196)
Correct for Stray Light: No (USB2E7196)
Number of Pixels in Processed Spectrum: 2048
>>>>>Begin Processed Spectral Data<<<<<
339.09	0.00
339.48	213.77
339.86	214.83
340.24	216.20
340.63	217.44
341.01	220.81
341.39	220.08
341.78	221.26
342.16	223.25
342.54	223.54
342.93	211.79
343.31	222.50
343.69	223.01
344.07	223.49
344.46	223.91
344.84	224.31
345.22	224.53
345.60	224.78
345.99	224.97
346.37	225.09
346.75	225.17
347.13	225.24
347.52	225.26
347.90	225.36
348.28	225.38
348.66	225.43
349.05	225.42
349.43	225.43
349.81	225.48
350.19	225.55
350.57	225.59
350.96	225.59
351.34	225.68
351.72	225.76
352.10	225.82
352.48	225.90
352.87	225.91
353.25	225.96
353.63	226.01
354.01	226.08
354.39	226.13
354.77	226.22
355.15	226.32
355.54	226.43
355.92	226.45
356.30	226.53
356.68	226.68
357.06	226.78
357.44	226.85
357.82	226.92
358.20	226.94
358.58	227.06
358.97	227.16
359.35	227.23
359.73	227.33
360.11	227.41
360.49	227.46
360.87	227.54
361.25	227.64
361.63	227.75
362.01	227.80
362.39	227.86
362.77	227.89
363.15	227.95
363.53	227.98
363.91	228.03
364.29	228.04
364.67	227.97
365.05	227.99
365.43	228.03
365.81	228.08
366.19	228.15
366.57	228.19
366.95	228.20
367.33	228.20
367.71	228.19
368.09	228.21
368.47	228.18
368.85	228.17
369.23	228.13
369.61	228.08
369.99	228.09
370.37	228.07
370.75	228.12
371.13	228.06
371.51	227.99
371.89	227.98
372.27	227.97
372.65	227.94
373.03	227.91
373.41	227.87
373.78	227.78
374.16	227.68
374.54	227.60
374.92	227.56
375.30	227.49
375.68	227.42
376.06	227.35
376.44	227.32
376.82	227.28
377.19	227.25
377.57	227.17
377.95	227.07
378.33	226.98
378.71	226.85
379.09	226.77
379.47	226.71
379.84	226.63
380.22	226.56
380.60	226.46
380.98	226.39
381.36	226.30
381.73	226.24
382.11	226.21
382.49	226.13
382.87	226.06
383.25	226.03
383.62	226.09
384.00	226.00
384.38	225.95
384.76	225.93
385.13	225.90
385.51	225.86
385.89	225.80
386.27	225.77
386.64	225.74
387.02	225.70
387.40	225.65
387.78	225.58
388.15	225.52
388.53	225.50
388.91	225.45
389.29	225.40
389.66	225.39
390.04	225.35
390.42	225.34
390.79	225.29
391.17	225.24
391.55	225.07
391.92	225.07
392.30	225.03
392.68	224.96
393.05	224.93
393.43	224.92
393.81	224.95
394.18	224.96
394.56	224.95
394.94	224.97
395.31	225.00
395.69	225.06
396.06	225.09
396.44	225.11
396.82	225.12
397.19	225.18
397.57	225.17
397.95	225.22
398.32	225.25
398.70	225.31
399.07	225.36
399.45	225.41
399.82	225.46
400.20	225.48
400.58	225.55
400.95	225.59
401.33	225.68
401.70	225.82
402.08	225.89
402.45	225.98
402.83	226.09
403.20	226.17
403.58	226.22
403.95	226.30
404.33	226.44
404.71	226.58
405.08	226.75
405.46	226.92
405.83	227.05
406.21	227.20
406.58	227.38
406.96	227.55
407.33	227.74
407.70	227.94
408.08	228.22
408.45	228.43
408.83	228.62
409.20	228.85
409.58	229.00
409.95	229.25
410.33	229.52
410.70	229.76
411.08	230.06
411.45	230.40
411.82	230.73
412.20	231.05
412.57	231.47
412.95	231.74
413.32	232.15
413.69	232.54
414.07	232.97
414.44	233.41
414.82	233.89
415.19	234.43
415.56	234.98
415.94	235.54
416.31	236.18
416.68	236.84
417.06	237.52
417.43	238.22
417.81	238.97
418.18	239.76
418.55	240.66
418.93	241.52
419.30	242.42
419.67	243.38
420.04	244.36
420.42	245.36
420.79	246.55
421.16	247.69
421.54	248.92
421.91	250.15
422.28	251.43
422.66	252.74
423.03	254.04
423.40	255.37
423.77	256.76
424.15	258.18
424.52	259.67
424.89	261.26
425.26	262.83
425.64	264.30
426.01	265.85
426.38	267.48
426.75	269.11
427.13	270.78
427.50	272.55
427.87	274.38
428.24	276.22
428.61	277.96
428.99	279.85
429.36	281.91
429.73	283.90
430.10	285.85
430.47	287.85
430.85	289.98
431.22	292.15
431.59	294.49
431.96	296.72
432.33	299.19
432.70	301.54
433.08	304.29
433.45	306.88
433.82	309.45
434.19	312.29
434.56	315.06
434.93	317.67
435.30	320.28
435.68	323.14
436.05	325.96
436.42	328.74
436.79	331.26
437.16	333.91
437.53	336.74
437.90	339.55
438.27	342.27
438.64	345.04
439.01	347.62
439.38	349.81
439.75	351.95
440.13	354.38
440.50	356.68
440.87	358.51
441.24	360.45
441.61	362.57
441.98	364.00
442.35	365.79
442.72	367.69
443.09	369.45
443.46	370.43
443.83	370.95
444.20	371.46
444.57	372.26
444.94	372.56
445.31	372.90
445.68	373.23
446.05	373.32
446.42	372.93
446.79	372.55
447.16	372.14
447.53	371.83
447.90	370.70
448.27	369.53
448.64	368.00
449.01	366.88
449.37	364.98
449.74	363.12
450.11	360.92
450.48	358.46
450.85	355.94
451.22	353.80
451.59	351.86
451.96	349.93
452.33	347.40
452.70	345.07
453.07	342.30
453.43	339.47
453.80	336.74
454.17	334.10
454.54	331.57
454.91	328.89
455.28	326.22
455.65	323.74
456.02	321.36
456.38	319.24
456.75	316.61
457.12	314.36
457.49	312.15
457.86	310.03
458.23	308.16
458.59	306.16
458.96	304.15
459.33	302.32
459.70	300.46
460.07	298.95
460.43	297.25
460.80	295.63
461.17	294.19
461.54	292.75
461.91	291.34
462.27	289.93
462.64	288.67
463.01	287.38
463.38	286.12
463.74	284.78
464.11	283.63
464.48	282.62
464.85	281.50
465.21	280.69
465.58	279.79
465.95	278.74
466.32	277.89
466.68	276.98
467.05	276.07
467.42	275.22
467.78	274.30
468.15	273.45
468.52	272.77
468.88	271.93
469.25	271.11
469.62	270.49
469.98	269.82
470.35	269.22
470.72	268.61
471.08	267.96
471.45	267.43
471.82	266.88
472.18	266.32
472.55	265.92
472.92	265.38
473.28	264.93
473.65	264.47
474.02	264.00
474.38	263.65
474.75	263.35
475.11	263.00
475.48	262.74
475.85	262.54
476.21	262.31
476.58	262.13
476.94	262.05
477.31	261.92
477.67	261.78
478.04	261.69
478.41	261.66
478.77	261.71
479.14	261.67
479.50	261.67
479.87	261.72
480.23	261.81
480.60	261.94
480.96	262.05
481.33	262.30
481.69	262.52
482.06	262.74
482.42	262.95
482.79	263.27
483.15	263.60
483.52	264.00
483.88	264.42
484.25	264.82
484.61	265.24
484.98	265.73
485.34	266.28
485.71	266.87
486.07	267.48
486.44	268.05
486.80	268.72
487.17	269.49
487.53	270.35
487.90	271.20
488.26	272.11
488.62	273.07
488.99	274.04
489.35	275.07
489.72	276.21
490.08	277.39
490.44	278.58
490.81	279.91
491.17	281.25
491.54	282.70
491.90	284.27
492.26	285.89
492.63	287.62
492.99	289.41
493.36	291.25
493.72	293.31
494.08	295.47
494.45	297.76
494.81	300.12
495.17	302.49
495.54	305.10
495.90	307.78
496.26	310.58
496.63	313.54
496.99	316.66
497.35	319.89
497.72	323.35
498.08	326.87
498.44	330.54
498.80	334.50
499.17	338.56
499.53	342.71
499.89	347.07
500.26	351.54
500.62	356.24
500.98	361.23
501.34	366.31
501.71	371.58
502.07	377.01
502.43	382.59
502.79	388.39
503.16	394.37
503.52	400.60
503.88	406.95
504.24	413.55
504.60	420.34
504.97	427.48
505.33	434.72
505.69	442.42
506.05	450.20
506.41	457.98
506.78	466.08
507.14	474.51
507.50	483.19
507.86	492.14
508.22	501.21
508.59	510.39
508.95	519.90
509.31	529.71
509.67	539.73
510.03	549.96
510.39	560.51
510.75	571.23
511.12	582.17
511.48	593.50
511.84	604.91
512.20	616.40
512.56	628.25
512.92	640.35
513.28	652.67
513.64	665.07
514.00	677.73
514.37	690.57
514.73	703.58
515.09	716.56
515.45	729.86
515.81	743.45
516.17	757.37
516.53	771.41
516.89	785.52
517.25	799.62
517.61	813.98
517.97	828.34
518.33	842.67
518.69	857.29
519.05	872.14
519.41	887.21
519.77	902.75
520.13	918.09
520.49	933.35
520.85	948.53
521.21	964.11
521.57	980.16
521.93	995.82
522.29	1011.99
522.65	1028.19
523.01	1044.20
523.37	1060.17
523.73	1076.14
524.09	1092.15
524.45	1108.22
524.81	1124.71
525.17	1141.34
525.53	1158.07
525.89	1174.94
526.25	1191.74
526.61	1208.10
526.97	1224.73
527.33	1241.00
527.68	1257.40
528.04	1273.80
528.40	1290.28
528.76	1307.23
529.12	1323.70
529.48	1340.47
529.84	1356.33
530.20	1372.80
530.56	1389.59
530.91	1406.77
531.27	1423.39
531.63	1439.69
531.99	1456.13
532.35	1472.02
532.71	1487.76
533.07	1503.92
533.42	1519.58
533.78	1535.48
534.14	1551.50
534.50	1566.66
534.86	1582.35
535.21	1597.50
535.57	1613.28
535.93	1628.53
536.29	1643.13
536.65	1658.01
537.00	1672.50
537.36	1687.61
537.72	1701.91
538.08	1716.23
538.44	1729.87
538.79	1743.63
539.15	1756.98
539.51	1770.54
539.87	1784.70
540.22	1798.23
540.58	1811.66
540.94	1824.79
541.29	1837.26
541.65	1849.76
542.01	1862.80
542.37	1875.00
542.72	1887.22
543.08	1898.80
543.44	1911.06
543.79	1922.15
544.15	1933.10
544.51	1944.62
544.87	1955.48
545.22	1966.17
545.58	1976.24
545.94	1985.90
546.29	1995.64
546.65	2005.47
547.01	2014.63
547.36	2023.13
547.72	2031.57
548.07	2039.61
548.43	2047.68
548.79	2055.65
549.14	2063.17
549.50	2070.34
549.86	2077.76
550.21	2084.98
550.57	2092.12
550.92	2098.77
551.28	2105.75
551.64	2112.63
551.99	2118.92
552.35	2125.11
552.70	2131.24
553.06	2137.29
553.41	2143.59
553.77	2149.59
554.13	2155.64
554.48	2161.80
554.84	2167.49
555.19	2172.67
555.55	2177.69
555.90	2182.19
556.26	2187.10
556.61	2191.72
556.97	2196.21
557.32	2200.42
557.68	2204.51
558.03	2208.83
558.39	2212.32
558.74	2216.91
559.10	2220.85
559.45	2224.61
559.81	2228.66
560.16	2232.53
560.52	2235.80
560.87	2239.20
561.23	2241.87
561.58	2244.77
561.94	2247.21
562.29	2249.44
562.64	2252.43
563.00	2255.02
563.35	2258.50
563.71	2261.61
564.06	2264.84
564.42	2267.65
564.77	2270.22
565.12	2272.85
565.48	2274.77
565.83	2276.83
566.19	2278.40
566.54	2279.16
566.89	2280.39
567.25	2281.22
567.60	2282.38
567.96	2284.17
568.31	2285.04
568.66	2286.15
569.02	2286.74
569.37	2287.27
569.72	2288.06
570.08	2288.05
570.43	2288.08
570.78	2287.73
571.14	2286.22
571.49	2284.94
571.84	2284.53
572.20	2283.62
572.55	2282.27
572.90	2280.69
573.26	2279.50
573.61	2277.59
573.96	2276.18
574.31	2273.35
574.67	2270.46
575.02	2266.94
575.37	2263.44
575.72	2259.82
576.08	2256.53
576.43	2253.23
576.78	2249.57
577.13	2246.45
577.49	2243.31
577.84	2239.93
578.19	2236.16
578.54	2232.87
578.90	2228.81
579.25	2223.42
579.60	2218.59
579.95	2213.84
580.30	2208.82
580.66	2203.71
581.01	2198.80
581.36	2193.91
581.71	2189.82
582.06	2185.59
582.42	2181.25
582.77	2176.18
583.12	2171.74
583.47	2167.25
583.82	2162.39
584.17	2157.26
584.53	2152.01
584.88	2146.49
585.23	2140.92
585.58	2135.40
585.93	2129.95
586.28	2125.17
586.63	2120.40
586.98	2115.26
587.34	2110.57
587.69	2105.90
588.04	2100.65
588.39	2095.23
588.74	2088.78
589.09	2082.71
589.44	2075.97
589.79	2069.91
590.14	2064.37
590.49	2057.79
590.84	2051.34
591.19	2045.50
591.54	2039.22
591.89	2031.89
592.25	2025.30
592.60	2018.13
592.95	2010.77
593.30	2003.52
593.65	1996.00
594.00	1988.92
594.35	1981.79
594.70	1973.76
595.05	1966.75
595.40	1959.54
595.75	1952.09
596.10	1946.05
596.45	1939.48
596.80	1933.45
597.15	1927.16
597.50	1920.37
597.85	1913.97
598.19	1907.43
598.54	1900.51
598.89	1893.86
599.24	1888.08
599.59	1881.66
599.94	1875.52
600.29	1869.21
600.64	1862.65
600.99	1855.44
601.34	1848.72
601.69	1841.80
602.04	1835.15
602.39	1827.83
602.74	1821.22
603.08	1814.60
603.43	1807.95
603.78	1800.70
604.13	1793.55
604.48	1786.48
604.83	1779.43
605.18	1772.73
605.53	1764.83
605.87	1756.84
606.22	1749.76
606.57	1741.88
606.92	1734.34
607.27	1727.33
607.62	1720.71
607.96	1713.61
608.31	1707.06
608.66	1699.56
609.01	1692.20
609.36	1684.77
609.70	1676.82
610.05	1668.84
610.40	1661.20
610.75	1653.02
611.10	1645.36
611.44	1636.91
611.79	1628.71
612.14	1620.14
612.49	1610.96
612.83	1602.62
613.18	1594.50
613.53	1586.28
613.88	1577.70
614.22	1569.63
614.57	1560.91
614.92	1552.74
615.27	1545.27
615.61	1536.97
615.96	1528.87
616.31	1521.14
616.65	1513.67
617.00	1506.07
617.35	1498.40
617.70	1490.22
618.04	1481.67
618.39	1473.50
618.74	1465.92
619.08	1457.70
619.43	1450.11
619.78	1443.23
620.12	1436.10
620.47	1428.57
620.82	1420.52
621.16	1413.15
621.51	1405.49
621.85	1397.92
622.20	1389.56
622.55	1381.07
622.89	1373.22
623.24	1365.59
623.59	1358.09
623.93	1350.64
624.28	1343.54
624.62	1336.02
624.97	1328.81
625.32	1321.92
625.66	1314.92
626.01	1307.84
626.35	1300.49
626.70	1292.70
627.04	1284.86
627.39	1277.17
627.73	1269.88
628.08	1262.95
628.43	1255.79
628.77	1248.55
629.12	1241.08
629.46	1233.87
629.81	1226.39
630.15	1219.22
630.50	1211.87
630.84	1203.75
631.19	1195.75
631.53	1188.04
631.88	1180.50
632.22	1172.91
632.57	1165.79
632.91	1158.20
633.26	1150.76
633.60	1143.28
633.95	1136.19
634.29	1129.16
634.64	1122.40
634.98	1115.03
635.32	1107.97
635.67	1101.31
636.01	1094.57
636.36	1087.82
636.70	1081.26
637.05	1074.87
637.39	1068.41
637.73	1061.97
638.08	1056.17
638.42	1050.31
638.77	1043.94
639.11	1037.33
639.45	1030.97
639.80	1024.33
640.14	1017.94
640.49	1011.44
640.83	1005.21
641.17	999.12
641.52	992.84
641.86	986.39
642.20	980.55
642.55	974.08
642.89	967.69
643.23	961.07
643.58	955.26
643.92	949.24
644.26	943.20
644.61	937.10
644.95	931.22
645.29	924.64
645.64	917.96
645.98	911.71
646.32	905.78
646.66	899.69
647.01	893.81
647.35	888.15
647.69	882.27
648.04	876.74
648.38	870.93
648.72	865.07
649.06	859.01
649.41	853.07
649.75	847.23
650.09	841.26
650.43	835.59
650.78	829.38
651.12	823.30
651.46	817.50
651.80	811.84
652.14	806.33
652.49	800.95
652.83	795.66
653.17	790.09
653.51	784.47
653.85	779.07
654.20	773.46
654.54	767.43
654.88	761.72
655.22	755.80
655.56	750.03
655.90	744.49
656.25	739.37
656.59	734.03
656.93	728.89
657.27	723.73
657.61	718.24
657.95	713.22
658.29	708.14
658.64	702.90
658.98	697.54
659.32	692.04
659.66	686.80
660.00	681.57
660.34	676.55
660.68	671.60
661.02	666.54
661.36	661.87
661.70	657.43
662.05	653.14
662.39	648.84
662.73	644.43
663.07	640.09
663.41	635.61
663.75	631.20
664.09	626.67
664.43	622.24
664.77	618.16
665.11	613.93
665.45	609.78
665.79	605.76
666.13	601.67
666.47	597.57
666.81	593.47
667.15	589.37
667.49	585.46
667.83	581.68
668.17	577.80
668.51	573.78
668.85	569.77
669.19	565.89
669.53	562.08
669.87	558.24
670.21	554.50
670.55	550.85
670.89	547.36
671.23	543.94
671.57	540.48
671.91	536.94
672.25	533.42
672.58	529.97
672.92	526.52
673.26	523.32
673.60	520.15
673.94	517.03
674.28	514.08
674.62	511.16
674.96	508.00
675.30	505.11
675.64	502.17
675.97	499.33
676.31	496.42
676.65	493.47
676.99	490.78
677.33	487.92
677.67	485.10
678.01	482.12
678.34	479.11
678.68	476.22
679.02	473.38
679.36	470.60
679.70	467.84
680.04	465.08
680.37	462.22
680.71	459.43
681.05	456.84
681.39	454.12
681.73	451.46
682.06	448.97
682.40	446.38
682.74	443.84
683.08	441.32
683.42	438.70
683.75	436.20
684.09	433.57
684.43	431.13
684.77	428.69
685.10	426.32
685.44	424.06
685.78	421.82
686.12	419.58
686.45	417.28
686.79	414.99
687.13	412.78
687.46	410.61
687.80	408.49
688.14	406.22
688.48	404.12
688.81	401.87
689.15	399.69
689.49	397.56
689.82	395.45
690.16	393.27
690.50	391.36
690.83	389.44
691.17	387.43
691.51	385.44
691.84	383.53
692.18	381.62
692.52	379.62
692.85	377.63
693.19	375.78
693.52	373.95
693.86	372.11
694.20	370.30
694.53	368.51
694.87	366.62
695.21	364.85
695.54	363.03
695.88	361.31
696.21	359.62
696.55	357.93
696.88	356.26
697.22	354.59
697.56	352.91
697.89	351.24
698.23	349.69
698.56	348.13
698.90	346.61
699.23	344.98
699.57	343.43
699.90	341.93
700.24	340.37
700.58	338.87
700.91	337.40
701.25	335.97
701.58	334.61
701.92	333.26
702.25	331.88
702.59	330.56
702.92	329.26
703.26	327.90
703.59	326.61
703.93	325.42
704.26	324.25
704.60	322.99
704.93	321.72
705.26	320.43
705.60	319.24
705.93	318.01
706.27	316.97
706.60	315.92
706.94	314.77
707.27	313.67
707.61	312.59
707.94	311.56
708.27	310.48
708.61	309.36
708.94	308.37
709.28	307.37
709.61	306.38
709.94	305.41
710.28	304.38
710.61	303.40
710.95	302.29
711.28	301.36
711.61	300.41
711.95	299.52
712.28	298.58
712.61	297.64
712.95	296.75
713.28	295.81
713.61	294.89
713.95	294.02
714.28	293.16
714.61	292.26
714.95	291.44
715.28	290.59
715.61	289.76
715.95	288.87
716.28	288.04
716.61	287.22
716.95	286.37
717.28	285.63
717.61	284.87
717.94	284.17
718.28	283.38
718.61	282.63
718.94	281.95
719.27	281.32
719.61	280.66
719.94	280.00
720.27	279.30
720.60	278.67
720.94	278.05
721.27	277.42
721.60	276.84
721.93	276.21
722.27	275.67
722.60	275.10
722.93	274.53
723.26	273.98
723.59	273.40
723.93	272.86
724.26	272.31
724.59	271.74
724.92	271.19
725.25	270.67
725.59	270.16
725.92	269.63
726.25	269.12
726.58	268.64
726.91	268.14
727.24	267.63
727.57	267.17
727.91	266.67
728.24	266.23
728.57	265.75
728.90	265.29
729.23	264.79
729.56	264.35
729.89	263.91
730.22	263.42
730.55	262.97
730.89	262.51
731.22	262.07
731.55	261.65
731.88	261.21
732.21	260.79
732.54	260.32
732.87	259.89
733.20	259.44
733.53	259.00
733.86	258.63
734.19	258.25
734.52	257.85
734.85	257.55
735.18	257.14
735.51	256.79
735.84	256.42
736.17	256.08
736.50	255.67
736.83	255.42
737.16	255.12
737.49	254.78
737.82	254.46
738.15	254.16
738.48	253.82
738.81	253.49
739.14	253.15
739.47	252.87
739.80	252.58
740.13	252.32
740.46	252.01
740.79	251.69
741.12	251.41
741.45	251.13
741.78	250.75
742.11	250.49
742.44	250.18
742.77	249.87
743.10	249.57
743.43	249.32
743.75	248.94
744.08	248.79
744.41	248.51
744.74	248.22
745.07	247.91
745.40	247.67
745.73	247.47
746.06	247.22
746.39	246.96
746.71	246.67
747.04	246.38
747.37	246.13
747.70	245.88
748.03	245.62
748.36	245.37
748.68	245.17
749.01	244.90
749.34	244.70
749.67	244.46
750.00	244.25
750.33	244.09
750.65	243.87
750.98	243.49
751.31	243.28
751.64	243.09
751.97	242.96
752.29	242.78
752.62	242.52
752.95	242.31
753.28	242.07
753.60	241.88
753.93	241.69
754.26	241.51
754.59	241.27
754.91	241.06
755.24	240.87
755.57	240.66
755.90	240.46
756.22	240.22
756.55	240.04
756.88	239.81
757.20	239.59
757.53	239.41
757.86	239.30
758.19	239.15
758.51	238.98
758.84	238.74
759.17	238.53
759.49	238.37
759.82	238.25
760.15	238.10
760.47	237.96
760.80	237.79
761.13	237.67
761.45	237.54
761.78	237.38
762.11	237.26
762.43	237.11
762.76	236.99
763.08	236.90
763.41	236.78
763.74	236.65
764.06	236.47
764.39	236.33
764.71	236.15
765.04	236.02
765.37	235.88
765.69	235.73
766.02	235.61
766.34	235.49
766.67	235.32
767.00	235.23
767.32	235.17
767.65	235.12
767.97	234.97
768.30	234.83
768.62	234.71
768.95	234.56
769.27	234.43
769.60	234.31
769.92	234.14
770.25	234.01
770.57	233.92
770.90	233.81
771.22	233.68
771.55	233.60
771.87	233.48
772.20	233.36
772.52	233.34
772.85	233.37
773.17	233.24
773.50	233.13
773.82	233.00
774.15	232.84
774.47	232.69
774.80	232.58
775.12	232.51
775.45	232.43
775.77	232.34
776.09	232.28
776.42	232.22
776.74	232.17
777.07	232.07
777.39	231.97
777.72	231.87
778.04	231.81
778.36	231.73
778.69	231.63
779.01	231.57
779.33	231.43
779.66	231.23
779.98	231.19
780.31	231.11
780.63	231.08
780.95	231.02
781.28	230.94
781.60	230.88
781.92	230.82
782.25	230.77
782.57	230.70
782.89	230.64
783.22	230.58
783.54	230.51
783.86	230.48
784.19	230.43
784.51	230.41
784.83	230.38
785.16	230.31
785.48	230.32
785.80	230.29
786.12	230.26
786.45	230.25
786.77	230.23
787.09	230.21
