SpectraSuite Data File
++++++++++++++++++++++++++++++++++++
Date: Fri Feb 01 15:15:24 EST 2013
User: group
Dark Spectrum Present: No
Reference Spectrum Present: No
Number of Sampled Component Spectra: 1
Spectrometers: USB2E7196
Integration Time (usec): 35000 (USB2E7196)
Spectra Averaged: 100 (USB2E7196)
Boxcar Smoothing: 10 (USB2E7196)
Correct for Electrical Dark: No (USB2E7196)
Strobe/Lamp Enabled: No (USB2E7196)
Correct for Detector Non-linearity: No (USB2E7196)
Correct for Stray Light: No (USB2E7196)
Number of Pixels in Processed Spectrum: 2048
>>>>>Begin Processed Spectral Data<<<<<
339.09	0.00
339.48	214.89
339.86	216.31
340.24	218.33
340.63	219.64
341.01	222.15
341.39	222.09
341.78	223.67
342.16	225.05
342.54	225.00
342.93	213.59
343.31	224.39
343.69	224.94
344.07	225.41
344.46	225.81
344.84	226.18
345.22	226.41
345.60	226.70
345.99	226.87
346.37	226.99
346.75	227.10
347.13	227.17
347.52	227.22
347.90	227.33
348.28	227.36
348.66	227.37
349.05	227.36
349.43	227.36
349.81	227.39
350.19	227.40
350.57	227.42
350.96	227.49
351.34	227.56
351.72	227.63
352.10	227.73
352.48	227.79
352.87	227.84
353.25	227.91
353.63	227.92
354.01	227.95
354.39	228.02
354.77	228.08
355.15	228.14
355.54	228.22
355.92	228.21
356.30	228.25
356.68	228.37
357.06	228.44
357.44	228.50
357.82	228.55
358.20	228.65
358.58	228.71
358.97	228.77
359.35	228.81
359.73	228.89
360.11	228.92
360.49	228.98
360.87	229.01
361.25	229.08
361.63	229.15
362.01	229.21
362.39	229.24
362.77	229.26
363.15	229.27
363.53	229.29
363.91	229.32
364.29	229.32
364.67	229.24
365.05	229.26
365.43	229.28
365.81	229.30
366.19	229.33
366.57	229.34
366.95	229.35
367.33	229.34
367.71	229.32
368.09	229.31
368.47	229.28
368.85	229.24
369.23	229.23
369.61	229.17
369.99	229.15
370.37	229.09
370.75	229.13
371.13	229.07
371.51	229.03
371.89	229.01
372.27	229.01
372.65	228.98
373.03	228.93
373.41	228.85
373.78	228.76
374.16	228.61
374.54	228.51
374.92	228.44
375.30	228.39
375.68	228.30
376.06	228.27
376.44	228.21
376.82	228.15
377.19	228.06
377.57	228.00
377.95	227.91
378.33	227.85
378.71	227.73
379.09	227.68
379.47	227.61
379.84	227.49
380.22	227.40
380.60	227.29
380.98	227.21
381.36	227.16
381.73	227.11
382.11	227.09
382.49	227.05
382.87	226.95
383.25	226.86
383.62	226.92
384.00	226.81
384.38	226.78
384.76	226.75
385.13	226.73
385.51	226.65
385.89	226.61
386.27	226.57
386.64	226.52
387.02	226.47
387.40	226.42
387.78	226.41
388.15	226.38
388.53	226.34
388.91	226.30
389.29	226.25
389.66	226.25
390.04	226.23
390.42	226.25
390.79	226.27
391.17	226.27
391.55	226.15
391.92	226.18
392.30	226.17
392.68	226.16
393.05	226.19
393.43	226.20
393.81	226.20
394.18	226.19
394.56	226.23
394.94	226.28
395.31	226.29
395.69	226.34
396.06	226.37
396.44	226.42
396.82	226.44
397.19	226.53
397.57	226.59
397.95	226.66
398.32	226.66
398.70	226.71
399.07	226.78
399.45	226.83
399.82	226.92
400.20	227.00
400.58	227.07
400.95	227.07
401.33	227.20
401.70	227.36
402.08	227.45
402.45	227.56
402.83	227.67
403.20	227.79
403.58	227.90
403.95	228.04
404.33	228.18
404.71	228.36
405.08	228.56
405.46	228.68
405.83	228.81
406.21	228.95
406.58	229.14
406.96	229.31
407.33	229.51
407.70	229.66
408.08	229.88
408.45	230.15
408.83	230.42
409.20	230.60
409.58	230.78
409.95	231.06
410.33	231.31
410.70	231.56
411.08	231.88
411.45	232.21
411.82	232.54
412.20	232.89
412.57	233.29
412.95	233.60
413.32	234.04
413.69	234.48
414.07	234.93
414.44	235.38
414.82	235.88
415.19	236.42
415.56	237.01
415.94	237.59
416.31	238.20
416.68	238.80
417.06	239.56
417.43	240.23
417.81	241.02
418.18	241.81
418.55	242.66
418.93	243.52
419.30	244.43
419.67	245.36
420.04	246.33
420.42	247.36
420.79	248.52
421.16	249.64
421.54	250.85
421.91	252.05
422.28	253.32
422.66	254.63
423.03	255.91
423.40	257.24
423.77	258.63
424.15	260.06
424.52	261.58
424.89	263.19
425.26	264.76
425.64	266.20
426.01	267.77
426.38	269.39
426.75	271.04
427.13	272.74
427.50	274.56
427.87	276.43
428.24	278.26
428.61	280.02
428.99	281.98
429.36	284.08
429.73	286.19
430.10	288.18
430.47	290.25
430.85	292.40
431.22	294.59
431.59	297.03
431.96	299.28
432.33	301.79
432.70	304.17
433.08	306.99
433.45	309.64
433.82	312.27
434.19	315.22
434.56	318.03
434.93	320.69
435.30	323.29
435.68	326.20
436.05	329.06
436.42	331.85
436.79	334.34
437.16	337.02
437.53	339.84
437.90	342.69
438.27	345.46
438.64	348.32
439.01	350.95
439.38	353.16
439.75	355.34
440.13	357.82
440.50	360.19
440.87	362.07
441.24	364.03
441.61	366.20
441.98	367.66
442.35	369.52
442.72	371.43
443.09	373.22
443.46	374.17
443.83	374.75
444.20	375.32
444.57	376.19
444.94	376.46
445.31	376.80
445.68	377.16
446.05	377.22
446.42	376.76
446.79	376.36
447.16	375.92
447.53	375.58
447.90	374.39
448.27	373.18
448.64	371.56
449.01	370.34
449.37	368.32
449.74	366.43
450.11	364.12
450.48	361.60
450.85	359.07
451.22	356.97
451.59	354.93
451.96	352.95
452.33	350.33
452.70	347.98
453.07	345.15
453.43	342.22
453.80	339.44
454.17	336.81
454.54	334.25
454.91	331.50
455.28	328.81
455.65	326.36
456.02	323.93
456.38	321.79
456.75	319.13
457.12	316.91
457.49	314.68
457.86	312.55
458.23	310.69
458.59	308.69
458.96	306.60
459.33	304.73
459.70	302.83
460.07	301.28
460.43	299.55
460.80	297.93
461.17	296.47
461.54	294.94
461.91	293.50
462.27	292.04
462.64	290.81
463.01	289.46
463.38	288.10
463.74	286.72
464.11	285.55
464.48	284.55
464.85	283.45
465.21	282.63
465.58	281.67
465.95	280.59
466.32	279.65
466.68	278.73
467.05	277.83
467.42	276.96
467.78	276.07
468.15	275.19
468.52	274.50
468.88	273.63
469.25	272.89
469.62	272.26
469.98	271.58
470.35	270.91
470.72	270.29
471.08	269.63
471.45	269.10
471.82	268.53
472.18	267.91
472.55	267.45
472.92	266.88
473.28	266.39
473.65	265.91
474.02	265.47
474.38	265.10
474.75	264.76
475.11	264.42
475.48	264.13
475.85	263.88
476.21	263.63
476.58	263.46
476.94	263.32
477.31	263.15
477.67	262.97
478.04	262.88
478.41	262.81
478.77	262.89
479.14	262.80
479.50	262.79
479.87	262.86
480.23	262.93
480.60	262.99
480.96	263.06
481.33	263.31
481.69	263.50
482.06	263.73
482.42	263.94
482.79	264.15
483.15	264.48
483.52	264.87
483.88	265.22
484.25	265.58
484.61	266.01
484.98	266.44
485.34	267.03
485.71	267.59
486.07	268.18
486.44	268.72
486.80	269.42
487.17	270.17
487.53	270.99
487.90	271.83
488.26	272.74
488.62	273.74
488.99	274.64
489.35	275.66
489.72	276.76
490.08	277.92
490.44	279.15
490.81	280.52
491.17	281.89
491.54	283.38
491.90	284.92
492.26	286.55
492.63	288.29
492.99	290.10
493.36	292.02
493.72	294.10
494.08	296.21
494.45	298.45
494.81	300.80
495.17	303.24
495.54	305.84
495.90	308.57
496.26	311.32
496.63	314.31
496.99	317.42
497.35	320.65
497.72	324.07
498.08	327.58
498.44	331.19
498.80	335.04
499.17	339.05
499.53	343.18
499.89	347.55
500.26	352.04
500.62	356.60
500.98	361.51
501.34	366.56
501.71	371.87
502.07	377.32
502.43	382.91
502.79	388.71
503.16	394.76
503.52	401.03
503.88	407.48
504.24	414.08
504.60	420.98
504.97	428.08
505.33	435.36
505.69	443.08
506.05	450.82
506.41	458.70
506.78	466.89
507.14	475.36
507.50	484.06
507.86	493.04
508.22	502.30
508.59	511.53
508.95	521.09
509.31	530.85
509.67	540.98
510.03	551.25
510.39	561.82
510.75	572.65
511.12	583.56
511.48	594.83
511.84	606.34
512.20	617.81
512.56	629.76
512.92	641.94
513.28	654.24
513.64	666.71
514.00	679.46
514.37	692.36
514.73	705.46
515.09	718.49
515.45	731.86
515.81	745.53
516.17	759.54
516.53	773.68
516.89	787.90
517.25	802.02
517.61	816.48
517.97	830.93
518.33	845.44
518.69	860.28
519.05	875.32
519.41	890.55
519.77	906.20
520.13	921.64
520.49	937.12
520.85	952.59
521.21	968.39
521.57	984.60
521.93	1000.49
522.29	1017.01
522.65	1033.40
523.01	1049.60
523.37	1065.56
523.73	1081.80
524.09	1097.89
524.45	1114.23
524.81	1130.97
525.17	1148.00
525.53	1164.94
525.89	1181.86
526.25	1198.78
526.61	1215.18
526.97	1232.00
527.33	1248.50
527.68	1265.40
528.04	1281.86
528.40	1298.54
528.76	1315.75
529.12	1332.49
529.48	1349.40
529.84	1365.35
530.20	1382.06
530.56	1399.30
530.91	1416.77
531.27	1433.47
531.63	1450.02
531.99	1466.68
532.35	1482.68
532.71	1498.48
533.07	1514.99
533.42	1530.78
533.78	1546.81
534.14	1563.20
534.50	1578.61
534.86	1594.62
535.21	1609.74
535.57	1625.76
535.93	1641.33
536.29	1656.15
536.65	1671.26
537.00	1686.18
537.36	1701.57
537.72	1716.06
538.08	1730.49
538.44	1744.39
538.79	1758.53
539.15	1772.44
539.51	1786.44
539.87	1800.86
540.22	1814.80
540.58	1828.55
540.94	1842.22
541.29	1855.15
541.65	1867.89
542.01	1881.17
542.37	1893.45
542.72	1905.97
543.08	1917.87
543.44	1930.39
543.79	1941.60
544.15	1952.69
544.51	1964.29
544.87	1975.33
545.22	1986.14
545.58	1996.14
545.94	2006.15
546.29	2015.90
546.65	2025.70
547.01	2034.83
547.36	2043.59
547.72	2052.06
548.07	2059.85
548.43	2067.90
548.79	2076.03
549.14	2083.45
549.50	2090.81
549.86	2098.76
550.21	2106.03
550.57	2113.12
550.92	2119.66
551.28	2126.89
551.64	2134.02
551.99	2140.49
552.35	2146.73
552.70	2152.99
553.06	2159.19
553.41	2165.36
553.77	2171.46
554.13	2177.51
554.48	2183.61
554.84	2188.94
555.19	2194.20
555.55	2199.29
555.90	2203.67
556.26	2208.53
556.61	2213.44
556.97	2217.57
557.32	2221.45
557.68	2225.63
558.03	2230.10
558.39	2233.91
558.74	2238.54
559.10	2242.27
559.45	2245.91
559.81	2250.16
560.16	2253.88
560.52	2256.93
560.87	2260.42
561.23	2262.97
561.58	2266.03
561.94	2268.64
562.29	2271.14
562.64	2273.79
563.00	2276.53
563.35	2280.15
563.71	2283.13
564.06	2286.16
564.42	2289.06
564.77	2291.54
565.12	2293.62
565.48	2295.33
565.83	2297.04
566.19	2298.15
566.54	2299.08
566.89	2300.26
567.25	2300.82
567.60	2302.06
567.96	2303.79
568.31	2304.57
568.66	2305.71
569.02	2306.15
569.37	2306.43
569.72	2307.08
570.08	2307.16
570.43	2307.09
570.78	2306.17
571.14	2304.66
571.49	2303.38
571.84	2302.92
572.20	2301.69
572.55	2300.67
572.90	2299.20
573.26	2297.70
573.61	2295.98
573.96	2294.11
574.31	2290.93
574.67	2287.67
575.02	2284.05
575.37	2280.50
575.72	2276.54
576.08	2273.08
576.43	2269.68
576.78	2265.88
577.13	2262.80
577.49	2259.46
577.84	2255.76
578.19	2252.15
578.54	2248.40
578.90	2244.04
579.25	2238.42
579.60	2233.41
579.95	2228.28
580.30	2223.20
580.66	2218.01
581.01	2212.96
581.36	2207.98
581.71	2203.73
582.06	2199.32
582.42	2194.70
582.77	2189.50
583.12	2184.86
583.47	2180.19
583.82	2175.00
584.17	2169.54
584.53	2163.83
584.88	2158.22
585.23	2152.35
585.58	2146.71
585.93	2141.12
586.28	2136.25
586.63	2131.16
586.98	2125.84
587.34	2121.07
587.69	2115.97
588.04	2110.55
588.39	2104.72
588.74	2098.07
589.09	2091.77
589.44	2084.86
589.79	2078.86
590.14	2073.15
590.49	2066.50
590.84	2059.89
591.19	2053.88
591.54	2047.41
591.89	2039.85
592.25	2033.00
592.60	2025.76
592.95	2018.08
593.30	2010.81
593.65	2003.18
594.00	1996.11
594.35	1988.89
594.70	1980.88
595.05	1973.53
595.40	1966.21
595.75	1958.68
596.10	1952.39
596.45	1945.62
596.80	1939.27
597.15	1932.57
597.50	1925.38
597.85	1918.91
598.19	1912.18
598.54	1905.01
598.89	1898.30
599.24	1892.43
599.59	1885.65
599.94	1879.46
600.29	1873.17
600.64	1866.36
600.99	1858.80
601.34	1851.74
601.69	1844.87
602.04	1837.69
602.39	1830.41
602.74	1823.49
603.08	1816.79
603.43	1810.13
603.78	1802.75
604.13	1795.63
604.48	1788.24
604.83	1781.40
605.18	1774.19
605.53	1766.21
605.87	1758.15
606.22	1750.98
606.57	1743.10
606.92	1735.68
607.27	1728.34
607.62	1721.35
607.96	1714.11
608.31	1707.54
608.66	1699.86
609.01	1692.22
609.36	1684.88
609.70	1676.74
610.05	1668.64
610.40	1660.88
610.75	1652.47
611.10	1644.84
611.44	1636.44
611.79	1628.47
612.14	1619.69
612.49	1610.67
612.83	1602.36
613.18	1594.17
613.53	1585.98
613.88	1577.41
614.22	1569.26
614.57	1560.59
614.92	1552.54
615.27	1544.93
615.61	1536.55
615.96	1528.75
616.31	1521.12
616.65	1513.69
617.00	1506.29
617.35	1498.60
617.70	1490.28
618.04	1481.80
618.39	1473.52
618.74	1465.99
619.08	1457.67
619.43	1450.22
619.78	1443.41
620.12	1436.19
620.47	1428.76
620.82	1420.66
621.16	1413.25
621.51	1405.52
621.85	1398.10
622.20	1389.53
622.55	1381.29
622.89	1373.50
623.24	1365.91
623.59	1358.59
623.93	1351.00
624.28	1343.68
624.62	1336.15
624.97	1328.88
625.32	1322.15
625.66	1315.21
626.01	1307.80
626.35	1300.30
626.70	1292.45
627.04	1284.59
627.39	1276.73
627.73	1269.26
628.08	1262.35
628.43	1254.96
628.77	1247.62
629.12	1240.00
629.46	1232.93
629.81	1225.51
630.15	1218.20
630.50	1210.84
630.84	1202.55
631.19	1194.70
631.53	1187.23
631.88	1179.79
632.22	1172.25
632.57	1165.00
632.91	1157.44
633.26	1150.12
633.60	1142.88
633.95	1135.86
634.29	1128.90
634.64	1122.37
634.98	1115.00
635.32	1107.86
635.67	1101.41
636.01	1094.85
636.36	1088.00
636.70	1081.54
637.05	1074.93
637.39	1068.61
637.73	1061.93
638.08	1056.09
638.42	1050.16
638.77	1043.67
639.11	1037.05
639.45	1030.70
639.80	1024.01
640.14	1017.54
640.49	1011.10
640.83	1004.75
641.17	998.47
641.52	992.17
641.86	985.70
642.20	979.92
642.55	973.57
642.89	967.09
643.23	960.59
643.58	954.85
643.92	948.60
644.26	942.46
644.61	936.43
644.95	930.48
645.29	923.84
645.64	917.01
645.98	910.76
646.32	904.95
646.66	898.94
647.01	893.16
647.35	887.58
647.69	881.77
648.04	876.35
648.38	870.62
648.72	864.63
649.06	858.50
649.41	852.57
649.75	846.64
650.09	840.73
650.43	834.88
650.78	828.80
651.12	822.87
651.46	817.23
651.80	811.39
652.14	805.98
652.49	800.69
652.83	795.60
653.17	789.85
653.51	784.14
653.85	778.72
654.20	773.09
654.54	767.10
654.88	761.45
655.22	755.52
655.56	749.81
655.90	744.31
656.25	739.15
656.59	733.78
656.93	728.69
657.27	723.54
657.61	718.15
657.95	713.06
658.29	707.95
658.64	702.71
658.98	697.48
659.32	692.04
659.66	686.79
660.00	681.42
660.34	676.49
660.68	671.63
661.02	666.60
661.36	661.85
661.70	657.39
662.05	652.93
662.39	648.62
662.73	644.14
663.07	639.83
663.41	635.37
663.75	630.94
664.09	626.43
664.43	622.08
664.77	617.95
665.11	613.66
665.45	609.61
665.79	605.58
666.13	601.48
666.47	597.36
666.81	593.25
667.15	589.20
667.49	585.34
667.83	581.53
668.17	577.61
668.51	573.57
668.85	569.48
669.19	565.63
669.53	561.80
669.87	557.93
670.21	554.16
670.55	550.57
670.89	547.14
671.23	543.70
671.57	540.14
671.91	536.62
672.25	533.14
672.58	529.62
672.92	526.25
673.26	523.14
673.60	520.03
673.94	516.93
674.28	514.02
674.62	511.09
674.96	507.95
675.30	505.04
675.64	502.09
675.97	499.38
676.31	496.51
676.65	493.50
676.99	490.79
677.33	488.00
677.67	485.11
678.01	482.09
678.34	479.07
678.68	476.23
679.02	473.41
679.36	470.70
679.70	467.99
680.04	465.21
680.37	462.30
680.71	459.51
681.05	456.88
681.39	454.18
681.73	451.49
682.06	448.98
682.40	446.46
682.74	443.99
683.08	441.42
683.42	438.91
683.75	436.50
684.09	434.01
684.43	431.54
684.77	429.13
685.10	426.80
685.44	424.52
685.78	422.21
686.12	419.99
686.45	417.71
686.79	415.39
687.13	413.23
687.46	411.08
687.80	408.98
688.14	406.81
688.48	404.79
688.81	402.56
689.15	400.42
689.49	398.34
689.82	396.24
690.16	394.14
690.50	392.18
690.83	390.21
691.17	388.23
691.51	386.31
691.84	384.49
692.18	382.56
692.52	380.65
692.85	378.72
693.19	376.82
693.52	374.99
693.86	373.23
694.20	371.43
694.53	369.63
694.87	367.78
695.21	365.97
695.54	364.12
695.88	362.44
696.21	360.73
696.55	359.01
696.88	357.38
697.22	355.81
697.56	354.20
697.89	352.57
698.23	350.99
698.56	349.43
698.90	347.86
699.23	346.20
699.57	344.63
699.90	343.13
700.24	341.64
700.58	340.08
700.91	338.56
701.25	337.11
701.58	335.75
701.92	334.40
702.25	333.01
702.59	331.67
702.92	330.34
703.26	329.05
703.59	327.78
703.93	326.58
704.26	325.29
704.60	324.03
704.93	322.78
705.26	321.48
705.60	320.29
705.93	319.11
706.27	318.13
706.60	317.05
706.94	315.98
707.27	314.86
707.61	313.83
707.94	312.84
708.27	311.78
708.61	310.71
708.94	309.72
709.28	308.78
709.61	307.84
709.94	306.92
710.28	305.86
710.61	304.91
710.95	303.84
711.28	302.96
711.61	301.97
711.95	301.03
712.28	300.12
712.61	299.16
712.95	298.26
713.28	297.35
713.61	296.51
713.95	295.60
714.28	294.77
714.61	293.94
714.95	293.09
715.28	292.23
715.61	291.36
715.95	290.50
716.28	289.68
716.61	288.84
716.95	288.03
717.28	287.28
717.61	286.56
717.94	285.82
718.28	285.01
718.61	284.33
718.94	283.64
719.27	282.96
719.61	282.31
719.94	281.62
720.27	280.92
720.60	280.25
720.94	279.64
721.27	279.05
721.60	278.46
721.93	277.85
722.27	277.29
722.60	276.77
722.93	276.18
723.26	275.59
723.59	274.98
723.93	274.43
724.26	273.91
724.59	273.33
724.92	272.81
725.25	272.28
725.59	271.74
725.92	271.25
726.25	270.74
726.58	270.25
726.91	269.76
727.24	269.26
727.57	268.77
727.91	268.25
728.24	267.81
728.57	267.33
728.90	266.88
729.23	266.37
729.56	265.94
729.89	265.48
730.22	265.01
730.55	264.56
730.89	264.08
731.22	263.64
731.55	263.19
731.88	262.77
732.21	262.38
732.54	261.92
732.87	261.46
733.20	261.09
733.53	260.71
733.86	260.33
734.19	259.91
734.52	259.53
734.85	259.25
735.18	258.82
735.51	258.43
735.84	258.06
736.17	257.75
736.50	257.34
736.83	257.09
737.16	256.79
737.49	256.49
737.82	256.12
738.15	255.78
738.48	255.43
738.81	255.10
739.14	254.74
739.47	254.43
739.80	254.13
740.13	253.79
740.46	253.45
740.79	253.09
741.12	252.79
741.45	252.45
741.78	252.07
742.11	251.81
742.44	251.51
742.77	251.21
743.10	250.90
743.43	250.59
743.75	250.23
744.08	250.07
744.41	249.78
744.74	249.54
745.07	249.24
745.40	249.00
745.73	248.75
746.06	248.52
746.39	248.26
746.71	248.00
747.04	247.73
747.37	247.49
747.70	247.28
748.03	247.02
748.36	246.82
748.68	246.60
749.01	246.29
749.34	246.00
749.67	245.73
750.00	245.50
750.33	245.35
750.65	245.11
750.98	244.74
751.31	244.51
751.64	244.28
751.97	244.14
752.29	243.89
752.62	243.67
752.95	243.43
753.28	243.25
753.60	243.05
753.93	242.90
754.26	242.69
754.59	242.47
754.91	242.26
755.24	242.06
755.57	241.86
755.90	241.70
756.22	241.55
756.55	241.36
756.88	241.17
757.20	240.88
757.53	240.72
757.86	240.55
758.19	240.38
758.51	240.20
758.84	239.97
759.17	239.82
759.49	239.64
759.82	239.53
760.15	239.36
760.47	239.21
760.80	239.03
761.13	238.89
761.45	238.75
761.78	238.65
762.11	238.53
762.43	238.37
762.76	238.21
763.08	238.10
763.41	238.02
763.74	237.85
764.06	237.74
764.39	237.58
764.71	237.45
765.04	237.29
765.37	237.18
765.69	237.06
766.02	236.93
766.34	236.80
766.67	236.63
767.00	236.53
767.32	236.44
767.65	236.38
767.97	236.28
768.30	236.18
768.62	236.05
768.95	235.88
769.27	235.79
769.60	235.71
769.92	235.60
770.25	235.45
770.57	235.33
770.90	235.27
771.22	235.16
771.55	235.06
771.87	234.98
772.20	234.89
772.52	234.88
772.85	234.90
773.17	234.79
773.50	234.71
773.82	234.59
774.15	234.45
774.47	234.31
774.80	234.19
775.12	234.08
775.45	234.00
775.77	233.97
776.09	233.86
776.42	233.79
776.74	233.72
777.07	233.65
777.39	233.62
777.72	233.51
778.04	233.48
778.36	233.42
778.69	233.38
779.01	233.33
779.33	233.20
779.66	233.02
779.98	232.97
780.31	232.91
780.63	232.85
780.95	232.79
781.28	232.70
781.60	232.68
781.92	232.60
782.25	232.53
782.57	232.47
782.89	232.41
783.22	232.33
783.54	232.25
783.86	232.20
784.19	232.15
784.51	232.12
784.83	232.02
785.16	231.96
785.48	231.89
785.80	231.84
786.12	231.79
786.45	231.75
786.77	231.71
787.09	231.66
