SpectraSuite Data File
++++++++++++++++++++++++++++++++++++
Date: Fri Feb 01 15:47:48 EST 2013
User: group
Dark Spectrum Present: No
Reference Spectrum Present: No
Number of Sampled Component Spectra: 1
Spectrometers: USB2E7196
Integration Time (usec): 35000 (USB2E7196)
Spectra Averaged: 100 (USB2E7196)
Boxcar Smoothing: 10 (USB2E7196)
Correct for Electrical Dark: No (USB2E7196)
Strobe/Lamp Enabled: No (USB2E7196)
Correct for Detector Non-linearity: No (USB2E7196)
Correct for Stray Light: No (USB2E7196)
Number of Pixels in Processed Spectrum: 2048
>>>>>Begin Processed Spectral Data<<<<<
339.09	0.00
339.48	214.50
339.86	216.55
340.24	217.61
340.63	218.97
341.01	221.50
341.39	221.32
341.78	222.81
342.16	224.25
342.54	224.30
342.93	213.09
343.31	223.86
343.69	224.42
344.07	224.89
344.46	225.33
344.84	225.72
345.22	225.99
345.60	226.25
345.99	226.45
346.37	226.57
346.75	226.69
347.13	226.78
347.52	226.84
347.90	226.90
348.28	226.94
348.66	226.95
349.05	226.97
349.43	226.99
349.81	227.05
350.19	227.12
350.57	227.18
350.96	227.24
351.34	227.33
351.72	227.40
352.10	227.48
352.48	227.54
352.87	227.58
353.25	227.65
353.63	227.74
354.01	227.80
354.39	227.89
354.77	227.97
355.15	228.04
355.54	228.11
355.92	228.14
356.30	228.22
356.68	228.34
357.06	228.39
357.44	228.43
357.82	228.51
358.20	228.57
358.58	228.62
358.97	228.67
359.35	228.74
359.73	228.81
360.11	228.87
360.49	228.96
360.87	229.02
361.25	229.04
361.63	229.09
362.01	229.15
362.39	229.18
362.77	229.22
363.15	229.26
363.53	229.24
363.91	229.30
364.29	229.32
364.67	229.26
365.05	229.28
365.43	229.30
365.81	229.30
366.19	229.33
366.57	229.38
366.95	229.38
367.33	229.33
367.71	229.27
368.09	229.23
368.47	229.18
368.85	229.16
369.23	229.16
369.61	229.12
369.99	229.12
370.37	229.07
370.75	229.08
371.13	229.01
371.51	228.99
371.89	228.95
372.27	228.89
372.65	228.82
373.03	228.76
373.41	228.73
373.78	228.66
374.16	228.55
374.54	228.46
374.92	228.41
375.30	228.39
375.68	228.35
376.06	228.32
376.44	228.22
376.82	228.14
377.19	228.07
377.57	227.99
377.95	227.86
378.33	227.81
378.71	227.64
379.09	227.60
379.47	227.51
379.84	227.42
380.22	227.33
380.60	227.26
380.98	227.25
381.36	227.16
381.73	227.07
382.11	227.03
382.49	226.95
382.87	226.86
383.25	226.79
383.62	226.83
384.00	226.74
384.38	226.71
384.76	226.70
385.13	226.68
385.51	226.63
385.89	226.59
386.27	226.52
386.64	226.53
387.02	226.48
387.40	226.46
387.78	226.45
388.15	226.42
388.53	226.39
388.91	226.29
389.29	226.27
389.66	226.29
390.04	226.26
390.42	226.28
390.79	226.29
391.17	226.27
391.55	226.17
391.92	226.17
392.30	226.21
392.68	226.17
393.05	226.17
393.43	226.18
393.81	226.20
394.18	226.22
394.56	226.24
394.94	226.28
395.31	226.32
395.69	226.34
396.06	226.40
396.44	226.44
396.82	226.50
397.19	226.58
397.57	226.59
397.95	226.68
398.32	226.70
398.70	226.74
399.07	226.83
399.45	226.88
399.82	226.95
400.20	226.98
400.58	227.05
400.95	227.07
401.33	227.18
401.70	227.32
402.08	227.42
402.45	227.50
402.83	227.62
403.20	227.70
403.58	227.82
403.95	227.94
404.33	228.06
404.71	228.22
405.08	228.39
405.46	228.54
405.83	228.68
406.21	228.84
406.58	228.99
406.96	229.17
407.33	229.35
407.70	229.53
408.08	229.82
408.45	230.05
408.83	230.30
409.20	230.51
409.58	230.72
409.95	230.99
410.33	231.26
410.70	231.47
411.08	231.78
411.45	232.08
411.82	232.35
412.20	232.70
412.57	233.09
412.95	233.38
413.32	233.83
413.69	234.21
414.07	234.65
414.44	235.11
414.82	235.57
415.19	236.14
415.56	236.73
415.94	237.21
416.31	237.86
416.68	238.49
417.06	239.18
417.43	239.85
417.81	240.61
418.18	241.39
418.55	242.22
418.93	243.08
419.30	244.00
419.67	244.95
420.04	245.91
420.42	246.89
420.79	248.09
421.16	249.21
421.54	250.45
421.91	251.66
422.28	252.94
422.66	254.26
423.03	255.54
423.40	256.86
423.77	258.29
424.15	259.71
424.52	261.23
424.89	262.83
425.26	264.36
425.64	265.78
426.01	267.37
426.38	269.10
426.75	270.80
427.13	272.52
427.50	274.29
427.87	276.21
428.24	278.05
428.61	279.78
428.99	281.70
429.36	283.76
429.73	285.85
430.10	287.91
430.47	289.94
430.85	292.04
431.22	294.26
431.59	296.69
431.96	298.93
432.33	301.38
432.70	303.81
433.08	306.68
433.45	309.38
433.82	312.00
434.19	314.83
434.56	317.68
434.93	320.32
435.30	322.99
435.68	325.89
436.05	328.72
436.42	331.54
436.79	334.06
437.16	336.76
437.53	339.61
437.90	342.37
438.27	345.12
438.64	347.95
439.01	350.56
439.38	352.75
439.75	354.94
440.13	357.42
440.50	359.72
440.87	361.54
441.24	363.46
441.61	365.63
441.98	367.15
442.35	368.93
442.72	370.80
443.09	372.63
443.46	373.65
443.83	374.26
444.20	374.76
444.57	375.63
444.94	375.96
445.31	376.28
445.68	376.67
446.05	376.74
446.42	376.38
446.79	375.96
447.16	375.56
447.53	375.23
447.90	374.07
448.27	372.90
448.64	371.32
449.01	370.20
449.37	368.18
449.74	366.24
450.11	363.98
450.48	361.49
450.85	358.95
451.22	356.76
451.59	354.77
451.96	352.82
452.33	350.21
452.70	347.81
453.07	344.97
453.43	342.02
453.80	339.26
454.17	336.55
454.54	334.00
454.91	331.25
455.28	328.57
455.65	326.11
456.02	323.66
456.38	321.51
456.75	318.78
457.12	316.53
457.49	314.35
457.86	312.14
458.23	310.29
458.59	308.23
458.96	306.14
459.33	304.28
459.70	302.40
460.07	300.93
460.43	299.23
460.80	297.62
461.17	296.20
461.54	294.72
461.91	293.35
462.27	291.87
462.64	290.62
463.01	289.24
463.38	287.95
463.74	286.60
464.11	285.45
464.48	284.50
464.85	283.41
465.21	282.54
465.58	281.69
465.95	280.56
466.32	279.66
466.68	278.77
467.05	277.85
467.42	276.97
467.78	275.98
468.15	275.11
468.52	274.44
468.88	273.60
469.25	272.84
469.62	272.18
469.98	271.52
470.35	270.88
470.72	270.30
471.08	269.61
471.45	269.06
471.82	268.49
472.18	267.85
472.55	267.39
472.92	266.86
473.28	266.36
473.65	265.95
474.02	265.48
474.38	265.08
474.75	264.75
475.11	264.38
475.48	264.11
475.85	263.85
476.21	263.59
476.58	263.41
476.94	263.26
477.31	263.09
477.67	262.94
478.04	262.85
478.41	262.83
478.77	262.91
479.14	262.87
479.50	262.91
479.87	263.00
480.23	263.10
480.60	263.18
480.96	263.27
481.33	263.49
481.69	263.69
482.06	263.91
482.42	264.10
482.79	264.36
483.15	264.68
483.52	265.07
483.88	265.42
484.25	265.81
484.61	266.20
484.98	266.65
485.34	267.24
485.71	267.80
486.07	268.38
486.44	268.92
486.80	269.60
487.17	270.32
487.53	271.16
487.90	272.02
488.26	272.93
488.62	273.92
488.99	274.89
489.35	275.97
489.72	277.10
490.08	278.35
490.44	279.62
490.81	280.98
491.17	282.32
491.54	283.82
491.90	285.35
492.26	287.08
492.63	288.79
492.99	290.55
493.36	292.43
493.72	294.48
494.08	296.59
494.45	298.84
494.81	301.24
495.17	303.62
495.54	306.21
495.90	308.92
496.26	311.74
496.63	314.70
496.99	317.83
497.35	321.10
497.72	324.48
498.08	328.01
498.44	331.73
498.80	335.65
499.17	339.67
499.53	343.88
499.89	348.21
500.26	352.77
500.62	357.45
500.98	362.48
501.34	367.58
501.71	372.89
502.07	378.34
502.43	383.94
502.79	389.79
503.16	395.88
503.52	402.11
503.88	408.51
504.24	415.20
504.60	422.10
504.97	429.21
505.33	436.53
505.69	444.21
506.05	451.94
506.41	459.87
506.78	468.02
507.14	476.43
507.50	485.20
507.86	494.17
508.22	503.36
508.59	512.51
508.95	522.06
509.31	531.92
509.67	542.02
510.03	552.32
510.39	562.85
510.75	573.55
511.12	584.52
511.48	595.86
511.84	607.24
512.20	618.76
512.56	630.75
512.92	642.96
513.28	655.27
513.64	667.80
514.00	680.51
514.37	693.56
514.73	706.70
515.09	719.69
515.45	733.01
515.81	746.58
516.17	760.57
516.53	774.70
516.89	788.81
517.25	802.99
517.61	817.43
517.97	831.92
518.33	846.40
518.69	861.12
519.05	876.08
519.41	891.25
519.77	906.74
520.13	922.17
520.49	937.48
520.85	952.93
521.21	968.64
521.57	984.89
521.93	1000.57
522.29	1016.97
522.65	1033.25
523.01	1049.48
523.37	1065.60
523.73	1081.73
524.09	1097.84
524.45	1114.11
524.81	1130.72
525.17	1147.53
525.53	1164.45
525.89	1181.36
526.25	1198.31
526.61	1214.70
526.97	1231.45
527.33	1247.95
527.68	1264.52
528.04	1281.04
528.40	1297.67
528.76	1314.71
529.12	1331.30
529.48	1348.07
529.84	1363.99
530.20	1380.52
530.56	1397.49
530.91	1414.84
531.27	1431.67
531.63	1448.08
531.99	1464.72
532.35	1480.75
532.71	1496.45
533.07	1512.69
533.42	1528.63
533.78	1544.62
534.14	1560.94
534.50	1576.26
534.86	1592.06
535.21	1607.29
535.57	1623.29
535.93	1638.81
536.29	1653.58
536.65	1668.59
537.00	1683.48
537.36	1698.74
537.72	1713.44
538.08	1728.03
538.44	1741.87
538.79	1755.81
539.15	1769.58
539.51	1783.31
539.87	1797.68
540.22	1811.52
540.58	1825.31
540.94	1838.74
541.29	1851.63
541.65	1864.35
542.01	1877.75
542.37	1890.18
542.72	1902.50
543.08	1914.22
543.44	1926.57
543.79	1937.82
544.15	1948.77
544.51	1960.34
544.87	1971.49
545.22	1982.24
545.58	1992.37
545.94	2002.09
546.29	2011.89
546.65	2021.70
547.01	2030.97
547.36	2039.59
547.72	2048.14
548.07	2055.84
548.43	2063.97
548.79	2072.04
549.14	2079.52
549.50	2086.62
549.86	2094.23
550.21	2101.64
550.57	2108.75
550.92	2115.31
551.28	2122.29
551.64	2129.31
551.99	2135.85
552.35	2141.85
552.70	2147.86
553.06	2153.80
553.41	2160.18
553.77	2166.07
554.13	2172.19
554.48	2178.34
554.84	2183.84
555.19	2189.16
555.55	2194.41
555.90	2198.73
556.26	2203.40
556.61	2208.05
556.97	2212.31
557.32	2216.37
557.68	2220.47
558.03	2224.64
558.39	2228.35
558.74	2233.05
559.10	2236.95
559.45	2240.50
559.81	2244.81
560.16	2248.75
560.52	2251.96
560.87	2255.22
561.23	2258.11
561.58	2261.12
561.94	2263.50
562.29	2265.67
562.64	2268.27
563.00	2270.87
563.35	2274.38
563.71	2277.74
564.06	2281.02
564.42	2283.91
564.77	2286.44
565.12	2288.79
565.48	2290.83
565.83	2292.77
566.19	2293.98
566.54	2295.00
566.89	2296.07
567.25	2296.55
567.60	2297.85
567.96	2299.52
568.31	2300.50
568.66	2301.26
569.02	2301.73
569.37	2302.07
569.72	2303.08
570.08	2303.18
570.43	2303.22
570.78	2302.56
571.14	2301.01
571.49	2299.69
571.84	2299.50
572.20	2298.37
572.55	2297.30
572.90	2295.77
573.26	2294.31
573.61	2292.65
573.96	2290.81
574.31	2287.97
574.67	2285.04
575.02	2281.44
575.37	2277.98
575.72	2274.13
576.08	2271.10
576.43	2267.72
576.78	2264.16
577.13	2260.98
577.49	2257.88
577.84	2254.32
578.19	2250.68
578.54	2246.99
578.90	2242.62
579.25	2236.95
579.60	2232.01
579.95	2226.92
580.30	2221.98
580.66	2216.81
581.01	2211.89
581.36	2206.99
581.71	2202.81
582.06	2198.30
582.42	2193.82
582.77	2188.57
583.12	2183.96
583.47	2179.01
583.82	2173.93
584.17	2168.66
584.53	2163.19
584.88	2157.66
585.23	2151.72
585.58	2146.20
585.93	2140.73
586.28	2135.98
586.63	2130.90
586.98	2125.83
587.34	2121.14
587.69	2116.15
588.04	2110.82
588.39	2105.15
588.74	2098.66
589.09	2092.49
589.44	2085.80
589.79	2079.86
590.14	2074.31
590.49	2067.77
590.84	2061.51
591.19	2055.57
591.54	2049.05
591.89	2041.66
592.25	2034.80
592.60	2027.76
592.95	2020.09
593.30	2012.68
593.65	2005.08
594.00	1998.12
594.35	1990.79
594.70	1982.84
595.05	1975.52
595.40	1968.20
595.75	1960.75
596.10	1954.53
596.45	1947.74
596.80	1941.49
597.15	1934.65
597.50	1927.44
597.85	1921.09
598.19	1914.34
598.54	1907.09
598.89	1900.48
599.24	1894.51
599.59	1887.66
599.94	1881.41
600.29	1875.11
600.64	1868.57
600.99	1861.11
601.34	1854.13
601.69	1847.28
602.04	1840.38
602.39	1833.05
602.74	1826.20
603.08	1819.42
603.43	1812.69
603.78	1805.44
604.13	1798.17
604.48	1790.83
604.83	1783.97
605.18	1776.80
605.53	1768.74
605.87	1760.79
606.22	1753.57
606.57	1745.57
606.92	1738.42
607.27	1731.20
607.62	1724.37
607.96	1717.06
608.31	1710.39
608.66	1702.67
609.01	1695.13
609.36	1687.47
609.70	1679.46
610.05	1671.42
610.40	1663.63
610.75	1655.32
611.10	1647.57
611.44	1639.21
611.79	1631.38
612.14	1622.73
612.49	1613.65
612.83	1605.39
613.18	1597.31
613.53	1589.18
613.88	1580.64
614.22	1572.31
614.57	1563.76
614.92	1555.69
615.27	1548.03
615.61	1539.75
615.96	1531.78
616.31	1524.10
616.65	1516.69
617.00	1509.05
617.35	1501.48
617.70	1493.06
618.04	1484.50
618.39	1476.35
618.74	1468.76
619.08	1460.39
619.43	1453.00
619.78	1446.10
620.12	1438.88
620.47	1431.38
620.82	1423.15
621.16	1415.85
621.51	1408.32
621.85	1400.64
622.20	1392.06
622.55	1383.83
622.89	1376.03
623.24	1368.60
623.59	1361.16
623.93	1353.62
624.28	1346.46
624.62	1338.89
624.97	1331.85
625.32	1325.06
625.66	1318.02
626.01	1310.86
626.35	1303.36
626.70	1295.44
627.04	1287.62
627.39	1279.88
627.73	1272.53
628.08	1265.62
628.43	1258.26
628.77	1250.82
629.12	1243.34
629.46	1236.22
629.81	1228.80
630.15	1221.58
630.50	1214.04
630.84	1205.83
631.19	1198.00
631.53	1190.56
631.88	1182.99
632.22	1175.40
632.57	1168.11
632.91	1160.62
633.26	1153.23
633.60	1145.90
633.95	1138.82
634.29	1131.85
634.64	1125.15
634.98	1117.71
635.32	1110.60
635.67	1104.03
636.01	1097.38
636.36	1090.52
636.70	1083.98
637.05	1077.28
637.39	1070.85
637.73	1064.30
638.08	1058.46
638.42	1052.38
638.77	1045.82
639.11	1039.20
639.45	1032.72
639.80	1026.06
640.14	1019.57
640.49	1012.94
640.83	1006.68
641.17	1000.32
641.52	994.05
641.86	987.67
642.20	981.82
642.55	975.54
642.89	968.98
643.23	962.40
643.58	956.70
643.92	950.46
644.26	944.35
644.61	938.21
644.95	932.23
645.29	925.63
645.64	918.96
645.98	912.65
646.32	906.84
646.66	900.80
647.01	894.98
647.35	889.22
647.69	883.44
648.04	877.85
648.38	872.15
648.72	866.03
649.06	859.90
649.41	854.03
649.75	847.99
650.09	842.06
650.43	836.28
650.78	830.08
651.12	824.11
651.46	818.51
651.80	812.75
652.14	807.37
652.49	802.04
652.83	796.79
653.17	791.09
653.51	785.31
653.85	779.99
654.20	774.26
654.54	768.25
654.88	762.47
655.22	756.60
655.56	750.91
655.90	745.57
656.25	740.36
656.59	735.07
656.93	730.02
657.27	724.87
657.61	719.53
657.95	714.37
658.29	709.26
658.64	703.99
658.98	698.66
659.32	693.08
659.66	687.80
660.00	682.46
660.34	677.49
660.68	672.66
661.02	667.60
661.36	663.01
661.70	658.54
662.05	654.16
662.39	649.80
662.73	645.33
663.07	640.83
663.41	636.34
663.75	631.79
664.09	627.20
664.43	622.82
664.77	618.67
665.11	614.50
665.45	610.45
665.79	606.35
666.13	602.28
666.47	598.29
666.81	594.15
667.15	590.08
667.49	586.17
667.83	582.39
668.17	578.41
668.51	574.29
668.85	570.29
669.19	566.44
669.53	562.65
669.87	558.80
670.21	555.12
670.55	551.48
670.89	548.03
671.23	544.63
671.57	541.17
671.91	537.59
672.25	534.06
672.58	530.57
672.92	527.19
673.26	523.99
673.60	520.79
673.94	517.69
674.28	514.85
674.62	511.95
674.96	508.77
675.30	505.89
675.64	502.96
675.97	500.20
676.31	497.34
676.65	494.37
676.99	491.64
677.33	488.81
677.67	486.01
678.01	482.99
678.34	479.94
678.68	476.99
679.02	474.15
679.36	471.42
679.70	468.67
680.04	465.92
680.37	463.05
680.71	460.30
681.05	457.68
681.39	454.90
681.73	452.22
682.06	449.70
682.40	447.16
682.74	444.67
683.08	442.11
683.42	439.54
683.75	437.08
684.09	434.57
684.43	432.13
684.77	429.65
685.10	427.25
685.44	424.97
685.78	422.70
686.12	420.48
686.45	418.19
686.79	415.87
687.13	413.61
687.46	411.46
687.80	409.29
688.14	407.10
688.48	405.07
688.81	402.80
689.15	400.65
689.49	398.47
689.82	396.39
690.16	394.31
690.50	392.37
690.83	390.36
691.17	388.36
691.51	386.41
691.84	384.54
692.18	382.63
692.52	380.64
692.85	378.72
693.19	376.81
693.52	375.01
693.86	373.22
694.20	371.45
694.53	369.63
694.87	367.78
695.21	366.00
695.54	364.16
695.88	362.46
696.21	360.73
696.55	359.10
696.88	357.40
697.22	355.77
697.56	354.13
697.89	352.52
698.23	350.93
698.56	349.34
698.90	347.77
699.23	346.15
699.57	344.61
699.90	343.06
700.24	341.54
700.58	340.00
700.91	338.53
701.25	337.14
701.58	335.78
701.92	334.44
702.25	333.06
702.59	331.70
702.92	330.43
703.26	329.15
703.59	327.93
703.93	326.76
704.26	325.51
704.60	324.20
704.93	322.91
705.26	321.67
705.60	320.50
705.93	319.33
706.27	318.28
706.60	317.26
706.94	316.22
707.27	315.07
707.61	313.97
707.94	312.88
708.27	311.76
708.61	310.70
708.94	309.71
709.28	308.75
709.61	307.83
709.94	306.82
710.28	305.75
710.61	304.73
710.95	303.66
711.28	302.76
711.61	301.80
711.95	300.91
712.28	299.95
712.61	298.98
712.95	298.02
713.28	297.13
713.61	296.21
713.95	295.31
714.28	294.51
714.61	293.66
714.95	292.85
715.28	292.01
715.61	291.11
715.95	290.23
716.28	289.36
716.61	288.49
716.95	287.69
717.28	286.96
717.61	286.18
717.94	285.42
718.28	284.61
718.61	283.91
718.94	283.18
719.27	282.53
719.61	281.90
719.94	281.29
720.27	280.57
720.60	279.89
720.94	279.25
721.27	278.63
721.60	278.02
721.93	277.40
722.27	276.86
722.60	276.32
722.93	275.71
723.26	275.17
723.59	274.59
723.93	274.04
724.26	273.51
724.59	272.91
724.92	272.42
725.25	271.90
725.59	271.39
725.92	270.88
726.25	270.36
726.58	269.83
726.91	269.31
727.24	268.84
727.57	268.36
727.91	267.86
728.24	267.41
728.57	266.95
728.90	266.51
729.23	265.98
729.56	265.59
729.89	265.16
730.22	264.67
730.55	264.21
730.89	263.78
731.22	263.34
731.55	262.93
731.88	262.46
732.21	262.02
732.54	261.58
732.87	261.16
733.20	260.79
733.53	260.39
733.86	260.01
734.19	259.65
734.52	259.27
734.85	258.96
735.18	258.53
735.51	258.19
735.84	257.79
736.17	257.49
736.50	257.04
736.83	256.79
737.16	256.47
737.49	256.13
737.82	255.77
738.15	255.40
738.48	255.07
738.81	254.76
739.14	254.43
739.47	254.11
739.80	253.82
740.13	253.51
740.46	253.21
740.79	252.92
741.12	252.61
741.45	252.30
741.78	251.97
742.11	251.72
742.44	251.37
742.77	251.12
743.10	250.80
743.43	250.54
743.75	250.18
744.08	250.00
744.41	249.75
744.74	249.47
745.07	249.23
745.40	249.02
745.73	248.77
746.06	248.52
746.39	248.24
746.71	247.97
747.04	247.69
747.37	247.40
747.70	247.13
748.03	246.88
748.36	246.68
748.68	246.45
749.01	246.16
749.34	246.00
749.67	245.74
750.00	245.54
750.33	245.39
750.65	245.16
750.98	244.89
751.31	244.67
751.64	244.49
751.97	244.34
752.29	244.11
752.62	243.91
752.95	243.72
753.28	243.55
753.60	243.36
753.93	243.21
754.26	243.05
754.59	242.83
754.91	242.61
755.24	242.39
755.57	242.20
755.90	242.03
756.22	241.76
756.55	241.58
756.88	241.38
757.20	241.14
757.53	240.96
757.86	240.78
758.19	240.64
758.51	240.47
758.84	240.24
759.17	240.07
759.49	239.89
759.82	239.77
760.15	239.60
760.47	239.43
760.80	239.27
761.13	239.13
761.45	238.97
761.78	238.85
762.11	238.71
762.43	238.56
762.76	238.41
763.08	238.33
763.41	238.20
763.74	238.04
764.06	237.86
764.39	237.73
764.71	237.57
765.04	237.41
765.37	237.26
765.69	237.15
766.02	237.02
766.34	236.90
766.67	236.73
767.00	236.62
767.32	236.56
767.65	236.50
767.97	236.37
768.30	236.28
768.62	236.15
768.95	236.03
769.27	235.89
769.60	235.80
769.92	235.64
770.25	235.53
770.57	235.42
770.90	235.34
771.22	235.21
771.55	235.11
771.87	235.03
772.20	234.92
772.52	234.88
772.85	234.89
773.17	234.77
773.50	234.68
773.82	234.55
774.15	234.39
774.47	234.22
774.80	234.11
775.12	234.02
775.45	233.93
775.77	233.85
776.09	233.78
776.42	233.72
776.74	233.69
777.07	233.59
777.39	233.53
777.72	233.44
778.04	233.35
778.36	233.31
778.69	233.21
779.01	233.16
779.33	233.00
779.66	232.82
779.98	232.77
780.31	232.72
780.63	232.67
780.95	232.62
781.28	232.60
781.60	232.54
781.92	232.44
782.25	232.41
782.57	232.38
782.89	232.32
783.22	232.23
783.54	232.15
783.86	232.12
784.19	232.08
784.51	232.06
784.83	232.05
785.16	231.97
785.48	231.93
785.80	231.87
786.12	231.82
786.45	231.80
786.77	231.74
787.09	231.70
