SpectraSuite Data File
++++++++++++++++++++++++++++++++++++
Date: Fri Feb 01 16:17:16 EST 2013
User: group
Dark Spectrum Present: No
Reference Spectrum Present: No
Number of Sampled Component Spectra: 1
Spectrometers: USB2E7196
Integration Time (usec): 35000 (USB2E7196)
Spectra Averaged: 100 (USB2E7196)
Boxcar Smoothing: 10 (USB2E7196)
Correct for Electrical Dark: No (USB2E7196)
Strobe/Lamp Enabled: No (USB2E7196)
Correct for Detector Non-linearity: No (USB2E7196)
Correct for Stray Light: No (USB2E7196)
Number of Pixels in Processed Spectrum: 2048
>>>>>Begin Processed Spectral Data<<<<<
339.09	0.00
339.48	213.85
339.86	215.99
340.24	216.87
340.63	218.51
341.01	221.32
341.39	221.19
341.78	222.18
342.16	223.57
342.54	223.95
342.93	212.37
343.31	223.14
343.69	223.68
344.07	224.11
344.46	224.53
344.84	224.89
345.22	225.11
345.60	225.32
345.99	225.49
346.37	225.58
346.75	225.65
347.13	225.68
347.52	225.73
347.90	225.80
348.28	225.85
348.66	225.85
349.05	225.87
349.43	225.88
349.81	225.91
350.19	225.97
350.57	226.05
350.96	226.11
351.34	226.17
351.72	226.26
352.10	226.39
352.48	226.43
352.87	226.49
353.25	226.54
353.63	226.62
354.01	226.73
354.39	226.83
354.77	226.94
355.15	227.04
355.54	227.10
355.92	227.13
356.30	227.16
356.68	227.32
357.06	227.39
357.44	227.47
357.82	227.52
358.20	227.59
358.58	227.65
358.97	227.71
359.35	227.79
359.73	227.88
360.11	227.88
360.49	227.98
360.87	228.03
361.25	228.09
361.63	228.13
362.01	228.17
362.39	228.20
362.77	228.24
363.15	228.30
363.53	228.35
363.91	228.38
364.29	228.43
364.67	228.34
365.05	228.38
365.43	228.42
365.81	228.47
366.19	228.55
366.57	228.60
366.95	228.62
367.33	228.56
367.71	228.57
368.09	228.64
368.47	228.62
368.85	228.60
369.23	228.62
369.61	228.59
369.99	228.59
370.37	228.54
370.75	228.56
371.13	228.49
371.51	228.43
371.89	228.39
372.27	228.36
372.65	228.35
373.03	228.28
373.41	228.23
373.78	228.15
374.16	228.02
374.54	227.92
374.92	227.87
375.30	227.83
375.68	227.69
376.06	227.62
376.44	227.57
376.82	227.52
377.19	227.45
377.57	227.38
377.95	227.25
378.33	227.20
378.71	227.10
379.09	227.04
379.47	227.03
379.84	226.94
380.22	226.88
380.60	226.78
380.98	226.73
381.36	226.66
381.73	226.59
382.11	226.56
382.49	226.51
382.87	226.41
383.25	226.32
383.62	226.39
384.00	226.29
384.38	226.22
384.76	226.20
385.13	226.18
385.51	226.11
385.89	226.07
386.27	226.03
386.64	225.98
387.02	225.93
387.40	225.86
387.78	225.82
388.15	225.79
388.53	225.75
388.91	225.73
389.29	225.69
389.66	225.69
390.04	225.67
390.42	225.65
390.79	225.64
391.17	225.63
391.55	225.51
391.92	225.50
392.30	225.52
392.68	225.46
393.05	225.43
393.43	225.47
393.81	225.49
394.18	225.49
394.56	225.50
394.94	225.54
395.31	225.54
395.69	225.63
396.06	225.67
396.44	225.73
396.82	225.74
397.19	225.81
397.57	225.85
397.95	225.84
398.32	225.84
398.70	225.93
399.07	226.01
399.45	226.10
399.82	226.16
400.20	226.16
400.58	226.22
400.95	226.28
401.33	226.37
401.70	226.51
402.08	226.58
402.45	226.62
402.83	226.70
403.20	226.77
403.58	226.84
403.95	226.93
404.33	227.04
404.71	227.15
405.08	227.35
405.46	227.45
405.83	227.63
406.21	227.79
406.58	227.94
406.96	228.10
407.33	228.25
407.70	228.45
408.08	228.74
408.45	228.98
408.83	229.21
409.20	229.39
409.58	229.53
409.95	229.81
410.33	230.13
410.70	230.41
411.08	230.70
411.45	231.02
411.82	231.37
412.20	231.69
412.57	232.11
412.95	232.37
413.32	232.77
413.69	233.20
414.07	233.64
414.44	234.09
414.82	234.56
415.19	235.09
415.56	235.63
415.94	236.19
416.31	236.78
416.68	237.39
417.06	238.11
417.43	238.84
417.81	239.58
418.18	240.36
418.55	241.19
418.93	242.08
419.30	242.95
419.67	243.87
420.04	244.88
420.42	245.90
420.79	247.09
421.16	248.26
421.54	249.44
421.91	250.65
422.28	251.90
422.66	253.22
423.03	254.57
423.40	255.90
423.77	257.28
424.15	258.74
424.52	260.26
424.89	261.89
425.26	263.46
425.64	264.92
426.01	266.50
426.38	268.18
426.75	269.83
427.13	271.61
427.50	273.42
427.87	275.31
428.24	277.16
428.61	278.87
428.99	280.82
429.36	282.87
429.73	284.95
430.10	287.02
430.47	289.08
430.85	291.14
431.22	293.40
431.59	295.80
431.96	298.06
432.33	300.51
432.70	302.86
433.08	305.67
433.45	308.32
433.82	310.93
434.19	313.79
434.56	316.64
434.93	319.23
435.30	321.83
435.68	324.70
436.05	327.51
436.42	330.31
436.79	332.83
437.16	335.53
437.53	338.35
437.90	341.12
438.27	343.85
438.64	346.66
439.01	349.25
439.38	351.45
439.75	353.58
440.13	356.09
440.50	358.44
440.87	360.24
441.24	362.13
441.61	364.29
441.98	365.76
442.35	367.47
442.72	369.34
443.09	371.13
443.46	372.10
443.83	372.71
444.20	373.22
444.57	373.99
444.94	374.28
445.31	374.61
445.68	374.93
446.05	375.04
446.42	374.69
446.79	374.26
447.16	373.85
447.53	373.53
447.90	372.34
448.27	371.14
448.64	369.59
449.01	368.47
449.37	366.47
449.74	364.59
450.11	362.38
450.48	359.90
450.85	357.39
451.22	355.21
451.59	353.17
451.96	351.24
452.33	348.65
452.70	346.30
453.07	343.50
453.43	340.60
453.80	337.79
454.17	335.10
454.54	332.56
454.91	329.82
455.28	327.14
455.65	324.67
456.02	322.25
456.38	320.08
456.75	317.42
457.12	315.18
457.49	312.96
457.86	310.78
458.23	308.96
458.59	306.89
458.96	304.83
459.33	302.97
459.70	301.12
460.07	299.67
460.43	297.99
460.80	296.38
461.17	295.01
461.54	293.53
461.91	292.10
462.27	290.65
462.64	289.40
463.01	288.06
463.38	286.76
463.74	285.38
464.11	284.19
464.48	283.20
464.85	282.10
465.21	281.25
465.58	280.34
465.95	279.23
466.32	278.35
466.68	277.47
467.05	276.59
467.42	275.70
467.78	274.79
468.15	273.93
468.52	273.25
468.88	272.37
469.25	271.61
469.62	271.05
469.98	270.41
470.35	269.84
470.72	269.28
471.08	268.64
471.45	268.11
471.82	267.61
472.18	267.04
472.55	266.63
472.92	266.13
473.28	265.71
473.65	265.28
474.02	264.87
474.38	264.50
474.75	264.18
475.11	263.84
475.48	263.56
475.85	263.34
476.21	263.11
476.58	262.91
476.94	262.80
477.31	262.61
477.67	262.44
478.04	262.36
478.41	262.30
478.77	262.35
479.14	262.30
479.50	262.31
479.87	262.39
480.23	262.50
480.60	262.58
480.96	262.65
481.33	262.87
481.69	263.08
482.06	263.29
482.42	263.52
482.79	263.76
483.15	264.10
483.52	264.48
483.88	264.84
484.25	265.25
484.61	265.69
484.98	266.17
485.34	266.72
485.71	267.29
486.07	267.91
486.44	268.49
486.80	269.21
487.17	269.95
487.53	270.79
487.90	271.64
488.26	272.58
488.62	273.63
488.99	274.58
489.35	275.62
489.72	276.77
490.08	277.94
490.44	279.19
490.81	280.52
491.17	281.83
491.54	283.28
491.90	284.81
492.26	286.44
492.63	288.13
492.99	289.95
493.36	291.83
493.72	293.88
494.08	295.97
494.45	298.20
494.81	300.54
495.17	302.90
495.54	305.46
495.90	308.13
496.26	310.92
496.63	313.88
496.99	316.99
497.35	320.20
497.72	323.60
498.08	327.16
498.44	330.86
498.80	334.85
499.17	338.87
499.53	343.04
499.89	347.47
500.26	352.00
500.62	356.63
500.98	361.58
501.34	366.63
501.71	372.01
502.07	377.48
502.43	383.14
502.79	388.97
503.16	395.05
503.52	401.32
503.88	407.70
504.24	414.37
504.60	421.21
504.97	428.33
505.33	435.68
505.69	443.35
506.05	451.10
506.41	459.00
506.78	467.20
507.14	475.65
507.50	484.36
507.86	493.37
508.22	502.62
508.59	511.87
508.95	521.46
509.31	531.27
509.67	541.35
510.03	551.62
510.39	562.23
510.75	573.00
511.12	583.97
511.48	595.25
511.84	606.60
512.20	618.22
512.56	630.18
512.92	642.32
513.28	654.72
513.64	667.26
514.00	679.97
514.37	692.95
514.73	705.97
515.09	718.96
515.45	732.35
515.81	745.94
516.17	759.89
516.53	774.05
516.89	788.23
517.25	802.37
517.61	816.86
517.97	831.24
518.33	845.74
518.69	860.57
519.05	875.55
519.41	890.84
519.77	906.32
520.13	921.75
520.49	937.11
520.85	952.43
521.21	968.05
521.57	984.23
521.93	1000.01
522.29	1016.42
522.65	1032.69
523.01	1048.77
523.37	1064.85
523.73	1080.96
524.09	1097.01
524.45	1113.30
524.81	1130.00
525.17	1146.60
525.53	1163.48
525.89	1180.31
526.25	1197.00
526.61	1213.31
526.97	1229.98
527.33	1246.34
527.68	1262.91
528.04	1279.41
528.40	1295.94
528.76	1312.92
529.12	1329.46
529.48	1346.34
529.84	1362.27
530.20	1378.79
530.56	1395.76
530.91	1412.96
531.27	1429.60
531.63	1446.02
531.99	1462.47
532.35	1478.20
532.71	1494.07
533.07	1510.27
533.42	1526.16
533.78	1542.13
534.14	1558.42
534.50	1573.68
534.86	1589.46
535.21	1604.58
535.57	1620.44
535.93	1635.92
536.29	1650.67
536.65	1665.61
537.00	1680.16
537.36	1695.46
537.72	1709.83
538.08	1724.24
538.44	1737.90
538.79	1751.75
539.15	1765.29
539.51	1778.99
539.87	1793.46
540.22	1807.22
540.58	1820.92
540.94	1834.01
541.29	1846.86
541.65	1859.47
542.01	1872.73
542.37	1885.04
542.72	1897.37
543.08	1908.96
543.44	1921.32
543.79	1932.51
544.15	1943.45
544.51	1954.99
544.87	1965.84
545.22	1976.68
545.58	1986.69
545.94	1996.51
546.29	2006.34
546.65	2016.13
547.01	2025.33
547.36	2033.89
547.72	2042.16
548.07	2049.86
548.43	2058.05
548.79	2066.04
549.14	2073.64
549.50	2080.74
549.86	2088.43
550.21	2095.79
550.57	2103.00
550.92	2109.47
551.28	2116.28
551.64	2123.26
551.99	2129.85
552.35	2136.12
552.70	2142.32
553.06	2148.44
553.41	2154.76
553.77	2160.69
554.13	2166.54
554.48	2172.67
554.84	2178.18
555.19	2183.62
555.55	2188.97
555.90	2193.50
556.26	2198.38
556.61	2203.05
556.97	2207.33
557.32	2211.46
557.68	2215.53
558.03	2219.90
558.39	2223.49
558.74	2228.35
559.10	2232.27
559.45	2235.74
559.81	2239.77
560.16	2243.49
560.52	2246.72
560.87	2250.09
561.23	2252.87
561.58	2256.17
561.94	2258.68
562.29	2261.00
562.64	2263.55
563.00	2265.98
563.35	2269.48
563.71	2272.58
564.06	2275.56
564.42	2278.56
564.77	2281.09
565.12	2283.55
565.48	2285.40
565.83	2287.42
566.19	2288.71
566.54	2289.58
566.89	2290.91
567.25	2291.68
567.60	2293.17
567.96	2294.88
568.31	2295.82
568.66	2297.02
569.02	2297.57
569.37	2297.94
569.72	2298.85
570.08	2299.02
570.43	2299.12
570.78	2298.56
571.14	2297.15
571.49	2296.01
571.84	2295.70
572.20	2294.71
572.55	2293.58
572.90	2292.06
573.26	2290.81
573.61	2289.31
573.96	2287.80
574.31	2284.84
574.67	2281.97
575.02	2278.28
575.37	2274.88
575.72	2271.07
576.08	2267.68
576.43	2264.35
576.78	2260.77
577.13	2257.55
577.49	2254.58
577.84	2251.08
578.19	2247.30
578.54	2243.66
578.90	2239.50
579.25	2233.98
579.60	2229.01
579.95	2224.06
580.30	2219.08
580.66	2213.86
581.01	2208.84
581.36	2203.85
581.71	2199.60
582.06	2195.08
582.42	2190.66
582.77	2185.47
583.12	2180.97
583.47	2176.33
583.82	2171.34
584.17	2166.13
584.53	2160.90
584.88	2155.36
585.23	2149.69
585.58	2144.32
585.93	2138.82
586.28	2133.96
586.63	2129.02
586.98	2123.96
587.34	2119.32
587.69	2114.45
588.04	2109.11
588.39	2103.54
588.74	2097.10
589.09	2091.08
589.44	2084.21
589.79	2078.25
590.14	2072.77
590.49	2066.18
590.84	2059.79
591.19	2053.84
591.54	2047.42
591.89	2039.96
592.25	2033.18
592.60	2026.11
592.95	2018.56
593.30	2011.14
593.65	2003.69
594.00	1996.57
594.35	1989.32
594.70	1981.23
595.05	1974.26
595.40	1967.13
595.75	1959.50
596.10	1953.30
596.45	1946.60
596.80	1940.68
597.15	1934.07
597.50	1926.96
597.85	1920.66
598.19	1914.09
598.54	1906.93
598.89	1900.27
599.24	1894.39
599.59	1887.61
599.94	1881.38
600.29	1875.00
600.64	1868.55
600.99	1861.15
601.34	1854.42
601.69	1847.54
602.04	1840.65
602.39	1833.15
602.74	1826.34
603.08	1819.68
603.43	1812.99
603.78	1805.76
604.13	1798.45
604.48	1791.18
604.83	1784.24
605.18	1777.32
605.53	1769.38
605.87	1761.32
606.22	1754.14
606.57	1746.10
606.92	1738.86
607.27	1731.73
607.62	1724.96
607.96	1717.80
608.31	1711.21
608.66	1703.63
609.01	1695.95
609.36	1688.41
609.70	1680.40
610.05	1672.46
610.40	1664.79
610.75	1656.42
611.10	1648.72
611.44	1640.25
611.79	1632.33
612.14	1623.68
612.49	1614.48
612.83	1606.05
613.18	1598.04
613.53	1589.92
613.88	1581.50
614.22	1573.26
614.57	1564.68
614.92	1556.55
615.27	1548.91
615.61	1540.61
615.96	1532.43
616.31	1524.86
616.65	1517.51
617.00	1509.95
617.35	1502.10
617.70	1493.75
618.04	1485.22
618.39	1476.98
618.74	1469.53
619.08	1461.18
619.43	1453.65
619.78	1446.66
620.12	1439.42
620.47	1431.92
620.82	1423.77
621.16	1416.31
621.51	1408.72
621.85	1400.95
622.20	1392.47
622.55	1384.07
622.89	1376.20
623.24	1368.79
623.59	1361.41
623.93	1353.85
624.28	1346.69
624.62	1339.25
624.97	1332.16
625.32	1325.45
625.66	1318.40
626.01	1311.26
626.35	1303.88
626.70	1296.09
627.04	1288.40
627.39	1280.65
627.73	1273.22
628.08	1266.36
628.43	1259.06
628.77	1251.65
629.12	1244.17
629.46	1236.99
629.81	1229.54
630.15	1222.24
630.50	1214.70
630.84	1206.43
631.19	1198.57
631.53	1191.02
631.88	1183.44
632.22	1175.82
632.57	1168.56
632.91	1161.02
633.26	1153.48
633.60	1146.01
633.95	1138.89
634.29	1131.81
634.64	1125.14
634.98	1117.84
635.32	1110.53
635.67	1103.96
636.01	1097.38
636.36	1090.52
636.70	1083.99
637.05	1077.56
637.39	1071.04
637.73	1064.51
638.08	1058.74
638.42	1052.72
638.77	1046.23
639.11	1039.61
639.45	1033.16
639.80	1026.44
640.14	1020.13
640.49	1013.65
640.83	1007.37
641.17	1001.11
641.52	994.71
641.86	988.26
642.20	982.35
642.55	976.10
642.89	969.60
643.23	962.96
643.58	957.23
643.92	951.10
644.26	945.03
644.61	939.01
644.95	932.99
645.29	926.35
645.64	919.51
645.98	913.14
646.32	907.26
646.66	901.19
647.01	895.39
647.35	889.57
647.69	883.63
648.04	878.00
648.38	872.15
648.72	866.19
649.06	860.05
649.41	854.17
649.75	848.23
650.09	842.23
650.43	836.45
650.78	830.28
651.12	824.21
651.46	818.47
651.80	812.72
652.14	807.32
652.49	801.94
652.83	796.90
653.17	791.23
653.51	785.55
653.85	780.16
654.20	774.47
654.54	768.43
654.88	762.71
655.22	756.83
655.56	751.12
655.90	745.71
656.25	740.50
656.59	735.14
656.93	730.07
657.27	724.93
657.61	719.48
657.95	714.37
658.29	709.27
658.64	703.99
658.98	698.68
659.32	693.18
659.66	688.02
660.00	682.68
660.34	677.72
660.68	672.83
661.02	667.81
661.36	663.17
661.70	658.68
662.05	654.33
662.39	650.03
662.73	645.58
663.07	641.13
663.41	636.69
663.75	632.20
664.09	627.61
664.43	623.23
664.77	619.10
665.11	614.91
665.45	610.81
665.79	606.73
666.13	602.58
666.47	598.56
666.81	594.33
667.15	590.16
667.49	586.32
667.83	582.51
668.17	578.58
668.51	574.50
668.85	570.47
669.19	566.66
669.53	562.82
669.87	558.98
670.21	555.36
670.55	551.69
670.89	548.26
671.23	544.84
671.57	541.29
671.91	537.75
672.25	534.20
672.58	530.69
672.92	527.29
673.26	524.16
673.60	520.92
673.94	517.82
674.28	514.92
674.62	511.94
674.96	508.78
675.30	505.88
675.64	502.94
675.97	500.17
676.31	497.28
676.65	494.33
676.99	491.61
677.33	488.71
677.67	485.92
678.01	482.82
678.34	479.82
678.68	476.96
679.02	474.16
679.36	471.39
679.70	468.68
680.04	465.88
680.37	463.05
680.71	460.24
681.05	457.61
681.39	454.88
681.73	452.21
682.06	449.69
682.40	447.07
682.74	444.52
683.08	441.95
683.42	439.33
683.75	436.84
684.09	434.29
684.43	431.82
684.77	429.34
685.10	427.06
685.44	424.75
685.78	422.44
686.12	420.17
686.45	417.85
686.79	415.49
687.13	413.34
687.46	411.13
687.80	409.01
688.14	406.79
688.48	404.71
688.81	402.45
689.15	400.30
689.49	398.17
689.82	396.08
690.16	394.00
690.50	392.01
690.83	390.05
691.17	388.05
691.51	386.14
691.84	384.27
692.18	382.27
692.52	380.27
692.85	378.37
693.19	376.51
693.52	374.69
693.86	372.86
694.20	371.00
694.53	369.19
694.87	367.34
695.21	365.53
695.54	363.70
695.88	361.95
696.21	360.20
696.55	358.49
696.88	356.80
697.22	355.17
697.56	353.55
697.89	351.92
698.23	350.36
698.56	348.71
698.90	347.11
699.23	345.48
699.57	343.94
699.90	342.34
700.24	340.77
700.58	339.26
700.91	337.80
701.25	336.33
701.58	335.00
701.92	333.62
702.25	332.26
702.59	330.90
702.92	329.58
703.26	328.30
703.59	327.04
703.93	325.87
704.26	324.59
704.60	323.34
704.93	322.05
705.26	320.78
705.60	319.63
705.93	318.48
706.27	317.49
706.60	316.44
706.94	315.43
707.27	314.34
707.61	313.27
707.94	312.24
708.27	311.19
708.61	310.07
708.94	309.08
709.28	308.10
709.61	307.18
709.94	306.27
710.28	305.29
710.61	304.33
710.95	303.22
711.28	302.32
711.61	301.39
711.95	300.42
712.28	299.51
712.61	298.54
712.95	297.64
713.28	296.74
713.61	295.82
713.95	294.92
714.28	294.06
714.61	293.17
714.95	292.33
715.28	291.47
715.61	290.58
715.95	289.72
716.28	288.89
716.61	288.05
716.95	287.20
717.28	286.42
717.61	285.65
717.94	284.98
718.28	284.21
718.61	283.50
718.94	282.84
719.27	282.16
719.61	281.51
719.94	280.82
720.27	280.10
720.60	279.46
720.94	278.84
721.27	278.24
721.60	277.70
721.93	277.08
722.27	276.51
722.60	275.98
722.93	275.42
723.26	274.89
723.59	274.30
723.93	273.74
724.26	273.18
724.59	272.61
724.92	272.05
725.25	271.51
725.59	270.97
725.92	270.50
726.25	269.98
726.58	269.47
726.91	268.98
727.24	268.49
727.57	268.04
727.91	267.50
728.24	267.05
728.57	266.57
728.90	266.14
729.23	265.68
729.56	265.25
729.89	264.74
730.22	264.25
730.55	263.80
730.89	263.36
731.22	262.89
731.55	262.47
731.88	262.00
732.21	261.53
732.54	261.04
732.87	260.59
733.20	260.18
733.53	259.80
733.86	259.42
734.19	259.00
734.52	258.59
734.85	258.29
735.18	257.85
735.51	257.45
735.84	257.07
736.17	256.72
736.50	256.29
736.83	256.07
737.16	255.71
737.49	255.39
737.82	255.05
738.15	254.72
738.48	254.37
738.81	254.08
739.14	253.78
739.47	253.47
739.80	253.12
740.13	252.82
740.46	252.47
740.79	252.12
741.12	251.80
741.45	251.45
741.78	251.10
742.11	250.82
742.44	250.50
742.77	250.18
743.10	249.86
743.43	249.57
743.75	249.19
744.08	249.05
744.41	248.74
744.74	248.48
745.07	248.18
745.40	247.95
745.73	247.68
746.06	247.41
746.39	247.15
746.71	246.91
747.04	246.64
747.37	246.38
747.70	246.13
748.03	245.92
748.36	245.72
748.68	245.49
749.01	245.26
749.34	245.04
749.67	244.81
750.00	244.58
750.33	244.45
750.65	244.27
750.98	243.93
751.31	243.71
751.64	243.50
751.97	243.38
752.29	243.14
752.62	242.87
752.95	242.69
753.28	242.46
753.60	242.25
753.93	242.07
754.26	241.91
754.59	241.73
754.91	241.51
755.24	241.31
755.57	241.12
755.90	240.90
756.22	240.70
756.55	240.53
756.88	240.37
757.20	240.14
757.53	239.90
757.86	239.71
758.19	239.58
758.51	239.41
758.84	239.21
759.17	239.04
759.49	238.91
759.82	238.82
760.15	238.73
760.47	238.59
760.80	238.42
761.13	238.29
761.45	238.11
761.78	237.98
762.11	237.86
762.43	237.71
762.76	237.62
763.08	237.49
763.41	237.36
763.74	237.21
764.06	237.07
764.39	236.98
764.71	236.86
765.04	236.75
765.37	236.61
765.69	236.45
766.02	236.33
766.34	236.22
766.67	236.04
767.00	235.91
767.32	235.85
767.65	235.81
767.97	235.69
768.30	235.61
768.62	235.49
768.95	235.37
769.27	235.26
769.60	235.14
769.92	235.06
770.25	234.92
770.57	234.79
770.90	234.66
771.22	234.53
771.55	234.43
771.87	234.30
772.20	234.20
772.52	234.20
772.85	234.23
773.17	234.12
773.50	234.03
773.82	233.94
774.15	233.77
774.47	233.63
774.80	233.52
775.12	233.44
775.45	233.37
775.77	233.28
776.09	233.21
776.42	233.11
776.74	233.02
777.07	232.93
777.39	232.88
777.72	232.82
778.04	232.75
778.36	232.67
778.69	232.61
779.01	232.55
779.33	232.39
779.66	232.21
779.98	232.14
780.31	232.05
780.63	231.99
780.95	231.95
781.28	231.84
781.60	231.75
781.92	231.66
782.25	231.56
782.57	231.50
782.89	231.41
783.22	231.34
783.54	231.26
783.86	231.25
784.19	231.20
784.51	231.16
784.83	231.10
785.16	231.03
785.48	230.99
785.80	230.94
786.12	230.89
786.45	230.84
786.77	230.79
787.09	230.74
