SpectraSuite Data File
++++++++++++++++++++++++++++++++++++
Date: Fri Feb 01 15:50:38 EST 2013
User: group
Dark Spectrum Present: No
Reference Spectrum Present: No
Number of Sampled Component Spectra: 1
Spectrometers: USB2E7196
Integration Time (usec): 35000 (USB2E7196)
Spectra Averaged: 100 (USB2E7196)
Boxcar Smoothing: 10 (USB2E7196)
Correct for Electrical Dark: No (USB2E7196)
Strobe/Lamp Enabled: No (USB2E7196)
Correct for Detector Non-linearity: No (USB2E7196)
Correct for Stray Light: No (USB2E7196)
Number of Pixels in Processed Spectrum: 2048
>>>>>Begin Processed Spectral Data<<<<<
339.09	0.00
339.48	215.38
339.86	216.27
340.24	217.65
340.63	219.78
341.01	222.17
341.39	222.54
341.78	223.43
342.16	224.34
342.54	225.09
342.93	213.35
343.31	224.10
343.69	224.59
344.07	225.07
344.46	225.47
344.84	225.81
345.22	226.02
345.60	226.23
345.99	226.42
346.37	226.51
346.75	226.60
347.13	226.65
347.52	226.69
347.90	226.77
348.28	226.82
348.66	226.82
349.05	226.81
349.43	226.84
349.81	226.88
350.19	226.90
350.57	226.96
350.96	227.03
351.34	227.13
351.72	227.24
352.10	227.33
352.48	227.40
352.87	227.43
353.25	227.48
353.63	227.53
354.01	227.56
354.39	227.66
354.77	227.71
355.15	227.82
355.54	227.89
355.92	227.90
356.30	227.95
356.68	228.09
357.06	228.15
357.44	228.18
357.82	228.22
358.20	228.27
358.58	228.32
358.97	228.38
359.35	228.46
359.73	228.52
360.11	228.54
360.49	228.61
360.87	228.64
361.25	228.72
361.63	228.80
362.01	228.84
362.39	228.84
362.77	228.89
363.15	228.91
363.53	228.93
363.91	228.95
364.29	228.98
364.67	228.92
365.05	228.92
365.43	228.98
365.81	229.00
366.19	229.08
366.57	229.10
366.95	229.09
367.33	229.04
367.71	229.02
368.09	229.04
368.47	229.03
368.85	229.00
369.23	228.98
369.61	228.92
369.99	228.92
370.37	228.91
370.75	228.93
371.13	228.89
371.51	228.84
371.89	228.81
372.27	228.76
372.65	228.72
373.03	228.70
373.41	228.63
373.78	228.59
374.16	228.47
374.54	228.40
374.92	228.35
375.30	228.30
375.68	228.26
376.06	228.19
376.44	228.12
376.82	228.09
377.19	228.01
377.57	227.97
377.95	227.86
378.33	227.80
378.71	227.66
379.09	227.60
379.47	227.53
379.84	227.43
380.22	227.38
380.60	227.29
380.98	227.23
381.36	227.16
381.73	227.07
382.11	227.04
382.49	226.98
382.87	226.89
383.25	226.83
383.62	226.85
384.00	226.79
384.38	226.75
384.76	226.71
385.13	226.71
385.51	226.66
385.89	226.65
386.27	226.60
386.64	226.58
387.02	226.51
387.40	226.46
387.78	226.47
388.15	226.41
388.53	226.40
388.91	226.37
389.29	226.35
389.66	226.35
390.04	226.30
390.42	226.29
390.79	226.31
391.17	226.31
391.55	226.21
391.92	226.20
392.30	226.22
392.68	226.18
393.05	226.17
393.43	226.14
393.81	226.14
394.18	226.16
394.56	226.15
394.94	226.25
395.31	226.24
395.69	226.33
396.06	226.39
396.44	226.39
396.82	226.39
397.19	226.49
397.57	226.53
397.95	226.61
398.32	226.65
398.70	226.72
399.07	226.79
399.45	226.81
399.82	226.90
400.20	226.94
400.58	227.01
400.95	227.08
401.33	227.23
401.70	227.38
402.08	227.44
402.45	227.60
402.83	227.69
403.20	227.86
403.58	227.94
403.95	228.06
404.33	228.24
404.71	228.39
405.08	228.55
405.46	228.69
405.83	228.86
406.21	229.01
406.58	229.13
406.96	229.31
407.33	229.52
407.70	229.72
408.08	230.00
408.45	230.23
408.83	230.47
409.20	230.68
409.58	230.85
409.95	231.13
410.33	231.40
410.70	231.66
411.08	231.95
411.45	232.26
411.82	232.56
412.20	232.86
412.57	233.28
412.95	233.58
413.32	233.96
413.69	234.35
414.07	234.79
414.44	235.27
414.82	235.74
415.19	236.29
415.56	236.81
415.94	237.38
416.31	238.00
416.68	238.62
417.06	239.32
417.43	240.05
417.81	240.83
418.18	241.58
418.55	242.43
418.93	243.27
419.30	244.18
419.67	245.10
420.04	246.10
420.42	247.07
420.79	248.26
421.16	249.40
421.54	250.59
421.91	251.82
422.28	253.07
422.66	254.43
423.03	255.72
423.40	257.03
423.77	258.44
424.15	259.88
424.52	261.33
424.89	262.94
425.26	264.52
425.64	265.94
426.01	267.53
426.38	269.14
426.75	270.82
427.13	272.52
427.50	274.32
427.87	276.17
428.24	278.05
428.61	279.79
428.99	281.75
429.36	283.82
429.73	285.87
430.10	287.94
430.47	289.97
430.85	292.10
431.22	294.39
431.59	296.75
431.96	299.03
432.33	301.52
432.70	303.89
433.08	306.61
433.45	309.25
433.82	311.87
434.19	314.79
434.56	317.62
434.93	320.24
435.30	322.86
435.68	325.72
436.05	328.52
436.42	331.32
436.79	333.85
437.16	336.58
437.53	339.38
437.90	342.19
438.27	344.94
438.64	347.75
439.01	350.30
439.38	352.53
439.75	354.63
440.13	357.15
440.50	359.45
440.87	361.32
441.24	363.27
441.61	365.43
441.98	366.93
442.35	368.69
442.72	370.58
443.09	372.37
443.46	373.41
443.83	374.03
444.20	374.55
444.57	375.41
444.94	375.72
445.31	376.07
445.68	376.36
446.05	376.41
446.42	376.03
446.79	375.61
447.16	375.15
447.53	374.86
447.90	373.65
448.27	372.53
448.64	370.92
449.01	369.75
449.37	367.75
449.74	365.79
450.11	363.61
450.48	361.12
450.85	358.65
451.22	356.47
451.59	354.45
451.96	352.49
452.33	349.82
452.70	347.45
453.07	344.61
453.43	341.72
453.80	339.01
454.17	336.36
454.54	333.83
454.91	331.14
455.28	328.48
455.65	326.03
456.02	323.59
456.38	321.47
456.75	318.84
457.12	316.63
457.49	314.44
457.86	312.27
458.23	310.40
458.59	308.33
458.96	306.24
459.33	304.38
459.70	302.53
460.07	301.04
460.43	299.31
460.80	297.70
461.17	296.27
461.54	294.73
461.91	293.27
462.27	291.83
462.64	290.52
463.01	289.18
463.38	287.90
463.74	286.51
464.11	285.35
464.48	284.30
464.85	283.22
465.21	282.35
465.58	281.40
465.95	280.33
466.32	279.43
466.68	278.55
467.05	277.66
467.42	276.72
467.78	275.77
468.15	274.88
468.52	274.20
468.88	273.35
469.25	272.59
469.62	272.00
469.98	271.29
470.35	270.69
470.72	270.07
471.08	269.40
471.45	268.86
471.82	268.29
472.18	267.70
472.55	267.21
472.92	266.66
473.28	266.21
473.65	265.74
474.02	265.28
474.38	264.93
474.75	264.58
475.11	264.26
475.48	264.00
475.85	263.83
476.21	263.61
476.58	263.41
476.94	263.26
477.31	263.08
477.67	262.92
478.04	262.80
478.41	262.72
478.77	262.80
479.14	262.74
479.50	262.77
479.87	262.85
480.23	262.94
480.60	263.01
480.96	263.09
481.33	263.30
481.69	263.51
482.06	263.70
482.42	263.91
482.79	264.17
483.15	264.46
483.52	264.80
483.88	265.13
484.25	265.51
484.61	265.92
484.98	266.41
485.34	266.99
485.71	267.57
486.07	268.21
486.44	268.75
486.80	269.45
487.17	270.16
487.53	270.95
487.90	271.79
488.26	272.73
488.62	273.68
488.99	274.66
489.35	275.70
489.72	276.84
490.08	278.07
490.44	279.34
490.81	280.70
491.17	282.08
491.54	283.58
491.90	285.12
492.26	286.78
492.63	288.47
492.99	290.26
493.36	292.18
493.72	294.21
494.08	296.35
494.45	298.61
494.81	300.96
495.17	303.44
495.54	306.03
495.90	308.74
496.26	311.61
496.63	314.59
496.99	317.71
497.35	320.93
497.72	324.33
498.08	327.84
498.44	331.53
498.80	335.44
499.17	339.49
499.53	343.70
499.89	348.08
500.26	352.61
500.62	357.26
500.98	362.25
501.34	367.36
501.71	372.73
502.07	378.18
502.43	383.81
502.79	389.58
503.16	395.69
503.52	401.95
503.88	408.37
504.24	415.00
504.60	421.86
504.97	429.00
505.33	436.33
505.69	444.02
506.05	451.81
506.41	459.67
506.78	467.82
507.14	476.33
507.50	485.06
507.86	494.10
508.22	503.30
508.59	512.50
508.95	522.06
509.31	531.83
509.67	541.95
510.03	552.24
510.39	562.81
510.75	573.59
511.12	584.50
511.48	595.80
511.84	607.31
512.20	618.88
512.56	630.81
512.92	642.99
513.28	655.31
513.64	667.79
514.00	680.43
514.37	693.39
514.73	706.36
515.09	719.48
515.45	732.78
515.81	746.35
516.17	760.34
516.53	774.46
516.89	788.67
517.25	802.83
517.61	817.22
517.97	831.65
518.33	846.10
518.69	860.97
519.05	875.92
519.41	891.00
519.77	906.50
520.13	922.00
520.49	937.31
520.85	952.71
521.21	968.41
521.57	984.81
521.93	1000.54
522.29	1016.99
522.65	1033.11
523.01	1049.31
523.37	1065.38
523.73	1081.53
524.09	1097.55
524.45	1113.84
524.81	1130.50
525.17	1147.34
525.53	1164.34
525.89	1181.16
526.25	1197.89
526.61	1214.26
526.97	1231.03
527.33	1247.58
527.68	1264.07
528.04	1280.55
528.40	1297.29
528.76	1314.31
529.12	1330.77
529.48	1347.59
529.84	1363.56
530.20	1380.17
530.56	1397.08
530.91	1414.46
531.27	1431.23
531.63	1447.72
531.99	1464.28
532.35	1480.13
532.71	1495.91
533.07	1512.10
533.42	1527.99
533.78	1544.09
534.14	1560.41
534.50	1575.72
534.86	1591.49
535.21	1606.78
535.57	1622.82
535.93	1638.15
536.29	1653.05
536.65	1668.10
537.00	1682.96
537.36	1698.15
537.72	1712.77
538.08	1727.23
538.44	1740.93
538.79	1754.83
539.15	1768.50
539.51	1782.14
539.87	1796.56
540.22	1810.34
540.58	1824.10
540.94	1837.41
541.29	1850.29
541.65	1862.85
542.01	1876.14
542.37	1888.39
542.72	1900.78
543.08	1912.35
543.44	1924.75
543.79	1935.86
544.15	1946.93
544.51	1958.45
544.87	1969.49
545.22	1980.21
545.58	1990.44
545.94	2000.33
546.29	2010.08
546.65	2019.91
547.01	2029.11
547.36	2037.78
547.72	2046.19
548.07	2054.03
548.43	2062.19
548.79	2070.24
549.14	2077.89
549.50	2085.23
549.86	2092.98
550.21	2100.37
550.57	2107.67
550.92	2114.23
551.28	2121.34
551.64	2128.33
551.99	2134.74
552.35	2140.83
552.70	2146.95
553.06	2153.03
553.41	2159.28
553.77	2165.31
554.13	2171.48
554.48	2177.67
554.84	2183.02
555.19	2188.38
555.55	2193.55
555.90	2197.99
556.26	2202.90
556.61	2207.44
556.97	2211.72
557.32	2215.76
557.68	2219.67
558.03	2223.92
558.39	2227.60
558.74	2232.17
559.10	2235.99
559.45	2239.67
559.81	2244.17
560.16	2248.19
560.52	2251.23
560.87	2254.75
561.23	2257.40
561.58	2260.25
561.94	2262.84
562.29	2265.25
562.64	2267.85
563.00	2270.30
563.35	2273.89
563.71	2276.76
564.06	2280.15
564.42	2282.88
564.77	2285.50
565.12	2287.81
565.48	2289.69
565.83	2291.65
566.19	2292.94
566.54	2293.92
566.89	2295.06
567.25	2295.49
567.60	2296.62
567.96	2298.30
568.31	2299.09
568.66	2300.14
569.02	2300.72
569.37	2300.99
569.72	2301.99
570.08	2302.28
570.43	2302.38
570.78	2301.67
571.14	2300.23
571.49	2298.91
571.84	2298.64
572.20	2297.46
572.55	2296.52
572.90	2294.84
573.26	2293.47
573.61	2291.81
573.96	2290.02
574.31	2287.09
574.67	2284.05
575.02	2280.50
575.37	2277.21
575.72	2273.33
576.08	2270.08
576.43	2266.77
576.78	2263.17
577.13	2259.99
577.49	2256.86
577.84	2253.42
578.19	2249.77
578.54	2246.14
578.90	2241.89
579.25	2236.30
579.60	2231.27
579.95	2226.36
580.30	2221.49
580.66	2216.26
581.01	2211.35
581.36	2206.56
581.71	2202.41
582.06	2197.96
582.42	2193.37
582.77	2188.08
583.12	2183.58
583.47	2178.78
583.82	2173.73
584.17	2168.53
584.53	2162.93
584.88	2157.20
585.23	2151.28
585.58	2145.77
585.93	2140.31
586.28	2135.42
586.63	2130.30
586.98	2125.24
587.34	2120.39
587.69	2115.51
588.04	2110.13
588.39	2104.34
588.74	2097.74
589.09	2091.54
589.44	2084.78
589.79	2078.90
590.14	2073.26
590.49	2066.61
590.84	2060.29
591.19	2054.37
591.54	2047.69
591.89	2040.19
592.25	2033.37
592.60	2026.14
592.95	2018.62
593.30	2011.24
593.65	2003.63
594.00	1996.59
594.35	1989.47
594.70	1981.44
595.05	1974.30
595.40	1967.08
595.75	1959.65
596.10	1953.34
596.45	1946.57
596.80	1940.45
597.15	1933.76
597.50	1926.58
597.85	1920.25
598.19	1913.49
598.54	1906.33
598.89	1899.89
599.24	1894.02
599.59	1887.37
599.94	1881.29
600.29	1874.88
600.64	1868.36
600.99	1861.01
601.34	1854.25
601.69	1847.18
602.04	1840.40
602.39	1832.94
602.74	1826.13
603.08	1819.33
603.43	1812.63
603.78	1805.42
604.13	1798.17
604.48	1790.80
604.83	1783.99
605.18	1776.92
605.53	1769.05
605.87	1761.02
606.22	1753.78
606.57	1745.96
606.92	1738.66
607.27	1731.41
607.62	1724.55
607.96	1717.23
608.31	1710.57
608.66	1702.98
609.01	1695.38
609.36	1687.66
609.70	1679.67
610.05	1671.45
610.40	1663.79
610.75	1655.44
611.10	1647.76
611.44	1639.34
611.79	1631.34
612.14	1622.68
612.49	1613.52
612.83	1605.05
613.18	1596.88
613.53	1588.65
613.88	1580.04
614.22	1571.75
614.57	1563.22
614.92	1555.08
615.27	1547.45
615.61	1539.12
615.96	1531.02
616.31	1523.41
616.65	1516.11
617.00	1508.54
617.35	1500.96
617.70	1492.61
618.04	1484.16
618.39	1475.78
618.74	1468.17
619.08	1459.97
619.43	1452.48
619.78	1445.65
620.12	1438.41
620.47	1430.85
620.82	1422.71
621.16	1415.28
621.51	1407.73
621.85	1400.16
622.20	1391.63
622.55	1383.34
622.89	1375.49
623.24	1367.88
623.59	1360.54
623.93	1352.95
624.28	1345.82
624.62	1338.33
624.97	1331.15
625.32	1324.43
625.66	1317.43
626.01	1310.22
626.35	1302.69
626.70	1294.79
627.04	1286.98
627.39	1279.24
627.73	1271.86
628.08	1264.98
628.43	1257.74
628.77	1250.27
629.12	1242.56
629.46	1235.47
629.81	1228.10
630.15	1220.84
630.50	1213.41
630.84	1205.17
631.19	1197.21
631.53	1189.68
631.88	1182.13
632.22	1174.57
632.57	1167.25
632.91	1159.80
633.26	1152.39
633.60	1145.10
633.95	1138.16
634.29	1131.15
634.64	1124.44
634.98	1117.11
635.32	1109.94
635.67	1103.33
636.01	1096.76
636.36	1089.96
636.70	1083.43
637.05	1076.87
637.39	1070.49
637.73	1064.04
638.08	1058.20
638.42	1052.22
638.77	1045.70
639.11	1039.11
639.45	1032.69
639.80	1025.97
640.14	1019.54
640.49	1013.02
640.83	1006.76
641.17	1000.39
641.52	994.08
641.86	987.78
642.20	981.90
642.55	975.60
642.89	969.09
643.23	962.59
643.58	956.93
643.92	950.67
644.26	944.53
644.61	938.42
644.95	932.33
645.29	925.70
645.64	918.93
645.98	912.69
646.32	906.87
646.66	900.74
647.01	895.03
647.35	889.23
647.69	883.42
648.04	877.77
648.38	872.03
648.72	866.02
649.06	859.90
649.41	854.06
649.75	848.07
650.09	842.15
650.43	836.29
650.78	830.14
651.12	824.24
651.46	818.56
651.80	812.79
652.14	807.49
652.49	802.11
652.83	797.05
653.17	791.22
653.51	785.45
653.85	780.16
654.20	774.43
654.54	768.46
654.88	762.76
655.22	756.91
655.56	751.17
655.90	745.75
656.25	740.45
656.59	735.09
656.93	730.00
657.27	724.77
657.61	719.37
657.95	714.17
658.29	709.04
658.64	703.75
658.98	698.54
659.32	693.03
659.66	687.82
660.00	682.42
660.34	677.56
660.68	672.65
661.02	667.57
661.36	662.87
661.70	658.41
662.05	654.01
662.39	649.66
662.73	645.24
663.07	640.80
663.41	636.38
663.75	631.86
664.09	627.30
664.43	622.93
664.77	618.80
665.11	614.55
665.45	610.44
665.79	606.31
666.13	602.13
666.47	598.02
666.81	593.90
667.15	589.76
667.49	585.86
667.83	582.03
668.17	578.12
668.51	574.04
668.85	570.03
669.19	566.21
669.53	562.37
669.87	558.48
670.21	554.72
670.55	551.09
670.89	547.71
671.23	544.31
671.57	540.80
671.91	537.27
672.25	533.81
672.58	530.30
672.92	526.96
673.26	523.83
673.60	520.70
673.94	517.55
674.28	514.71
674.62	511.80
674.96	508.68
675.30	505.72
675.64	502.86
675.97	500.09
676.31	497.14
676.65	494.25
676.99	491.59
677.33	488.77
677.67	485.90
678.01	482.85
678.34	479.84
678.68	476.96
679.02	474.16
679.36	471.37
679.70	468.68
680.04	465.90
680.37	463.00
680.71	460.19
681.05	457.62
681.39	454.90
681.73	452.18
682.06	449.72
682.40	447.20
682.74	444.67
683.08	442.08
683.42	439.57
683.75	437.05
684.09	434.50
684.43	432.04
684.77	429.65
685.10	427.28
685.44	425.02
685.78	422.77
686.12	420.50
686.45	418.28
686.79	415.99
687.13	413.85
687.46	411.71
687.80	409.60
688.14	407.40
688.48	405.28
688.81	403.06
689.15	400.87
689.49	398.77
689.82	396.65
690.16	394.59
690.50	392.58
690.83	390.63
691.17	388.61
691.51	386.72
691.84	384.86
692.18	382.97
692.52	380.99
692.85	379.07
693.19	377.20
693.52	375.35
693.86	373.51
694.20	371.73
694.53	369.94
694.87	368.05
695.21	366.23
695.54	364.44
695.88	362.67
696.21	360.93
696.55	359.23
696.88	357.57
697.22	355.91
697.56	354.33
697.89	352.68
698.23	351.10
698.56	349.52
698.90	347.92
699.23	346.24
699.57	344.71
699.90	343.18
700.24	341.64
700.58	340.10
700.91	338.62
701.25	337.17
701.58	335.78
701.92	334.45
702.25	333.09
702.59	331.72
702.92	330.40
703.26	329.14
703.59	327.85
703.93	326.63
704.26	325.39
704.60	324.08
704.93	322.85
705.26	321.63
705.60	320.37
705.93	319.17
706.27	318.12
706.60	317.04
706.94	315.89
707.27	314.74
707.61	313.67
707.94	312.65
708.27	311.54
708.61	310.47
708.94	309.43
709.28	308.46
709.61	307.51
709.94	306.57
710.28	305.53
710.61	304.52
710.95	303.47
711.28	302.56
711.61	301.60
711.95	300.64
712.28	299.69
712.61	298.76
712.95	297.85
713.28	296.99
713.61	296.09
713.95	295.25
714.28	294.43
714.61	293.58
714.95	292.74
715.28	291.90
715.61	291.03
715.95	290.20
716.28	289.33
716.61	288.51
716.95	287.73
717.28	287.03
717.61	286.31
717.94	285.59
718.28	284.76
718.61	284.05
718.94	283.37
719.27	282.69
719.61	282.05
719.94	281.43
720.27	280.69
720.60	280.05
720.94	279.41
721.27	278.83
721.60	278.30
721.93	277.69
722.27	277.14
722.60	276.59
722.93	276.02
723.26	275.45
723.59	274.87
723.93	274.27
724.26	273.71
724.59	273.13
724.92	272.59
725.25	272.11
725.59	271.61
725.92	271.11
726.25	270.62
726.58	270.11
726.91	269.65
727.24	269.20
727.57	268.71
727.91	268.23
728.24	267.75
728.57	267.21
728.90	266.75
729.23	266.22
729.56	265.80
729.89	265.33
730.22	264.86
730.55	264.42
730.89	263.99
731.22	263.55
731.55	263.14
731.88	262.73
732.21	262.27
732.54	261.82
732.87	261.34
733.20	260.91
733.53	260.51
733.86	260.06
734.19	259.66
734.52	259.30
734.85	258.95
735.18	258.50
735.51	258.16
735.84	257.79
736.17	257.47
736.50	257.05
736.83	256.82
737.16	256.52
737.49	256.17
737.82	255.80
738.15	255.43
738.48	255.05
738.81	254.74
739.14	254.40
739.47	254.11
739.80	253.84
740.13	253.55
740.46	253.21
740.79	252.89
741.12	252.60
741.45	252.23
741.78	251.90
742.11	251.67
742.44	251.34
742.77	251.04
743.10	250.71
743.43	250.40
743.75	249.99
744.08	249.80
744.41	249.57
744.74	249.32
745.07	249.09
745.40	248.86
745.73	248.61
746.06	248.36
746.39	248.06
746.71	247.77
747.04	247.50
747.37	247.28
747.70	247.02
748.03	246.75
748.36	246.59
748.68	246.32
749.01	246.04
749.34	245.82
749.67	245.57
750.00	245.38
750.33	245.23
750.65	245.04
750.98	244.71
751.31	244.46
751.64	244.24
751.97	244.02
752.29	243.82
752.62	243.55
752.95	243.33
753.28	243.14
753.60	242.91
753.93	242.73
754.26	242.53
754.59	242.34
754.91	242.15
755.24	241.91
755.57	241.73
755.90	241.57
756.22	241.36
756.55	241.18
756.88	240.96
757.20	240.72
757.53	240.51
757.86	240.34
758.19	240.19
758.51	240.03
758.84	239.82
759.17	239.61
759.49	239.46
759.82	239.35
760.15	239.19
760.47	239.06
760.80	238.89
761.13	238.76
761.45	238.57
761.78	238.42
762.11	238.28
762.43	238.12
762.76	237.98
763.08	237.86
763.41	237.71
763.74	237.56
764.06	237.46
764.39	237.34
764.71	237.20
765.04	237.06
765.37	236.92
765.69	236.83
766.02	236.73
766.34	236.62
766.67	236.49
767.00	236.38
767.32	236.33
767.65	236.28
767.97	236.18
768.30	236.08
768.62	235.97
768.95	235.85
769.27	235.79
769.60	235.69
769.92	235.60
770.25	235.49
770.57	235.41
770.90	235.29
771.22	235.20
771.55	235.09
771.87	234.97
772.20	234.86
772.52	234.84
772.85	234.86
773.17	234.78
773.50	234.67
773.82	234.58
774.15	234.42
774.47	234.30
774.80	234.19
775.12	234.10
775.45	234.01
775.77	233.96
776.09	233.86
776.42	233.79
776.74	233.72
777.07	233.63
777.39	233.55
777.72	233.47
778.04	233.40
778.36	233.33
778.69	233.29
779.01	233.27
779.33	233.09
779.66	232.91
779.98	232.83
780.31	232.80
780.63	232.78
780.95	232.75
781.28	232.68
781.60	232.61
781.92	232.56
782.25	232.52
782.57	232.42
782.89	232.35
783.22	232.32
783.54	232.23
783.86	232.21
784.19	232.16
784.51	232.14
784.83	232.08
785.16	232.01
785.48	231.96
785.80	231.89
786.12	231.87
786.45	231.84
786.77	231.78
787.09	231.73
