SpectraSuite Data File
++++++++++++++++++++++++++++++++++++
Date: Fri Feb 01 17:06:23 EST 2013
User: group
Dark Spectrum Present: No
Reference Spectrum Present: No
Number of Sampled Component Spectra: 1
Spectrometers: USB2E7196
Integration Time (usec): 35000 (USB2E7196)
Spectra Averaged: 100 (USB2E7196)
Boxcar Smoothing: 10 (USB2E7196)
Correct for Electrical Dark: No (USB2E7196)
Strobe/Lamp Enabled: No (USB2E7196)
Correct for Detector Non-linearity: No (USB2E7196)
Correct for Stray Light: No (USB2E7196)
Number of Pixels in Processed Spectrum: 2048
>>>>>Begin Processed Spectral Data<<<<<
339.09	0.00
339.48	213.35
339.86	214.66
340.24	216.04
340.63	217.43
341.01	220.34
341.39	220.47
341.78	221.20
342.16	222.80
342.54	223.15
342.93	211.59
343.31	222.30
343.69	222.84
344.07	223.27
344.46	223.69
344.84	224.07
345.22	224.30
345.60	224.54
345.99	224.73
346.37	224.86
346.75	224.93
347.13	225.02
347.52	225.08
347.90	225.16
348.28	225.21
348.66	225.24
349.05	225.27
349.43	225.30
349.81	225.36
350.19	225.37
350.57	225.41
350.96	225.48
351.34	225.53
351.72	225.58
352.10	225.71
352.48	225.76
352.87	225.84
353.25	225.89
353.63	225.95
354.01	226.02
354.39	226.10
354.77	226.19
355.15	226.29
355.54	226.35
355.92	226.39
356.30	226.47
356.68	226.60
357.06	226.66
357.44	226.70
357.82	226.75
358.20	226.89
358.58	226.96
358.97	227.02
359.35	227.13
359.73	227.24
360.11	227.28
360.49	227.36
360.87	227.40
361.25	227.47
361.63	227.52
362.01	227.57
362.39	227.57
362.77	227.62
363.15	227.68
363.53	227.72
363.91	227.74
364.29	227.75
364.67	227.67
365.05	227.69
365.43	227.71
365.81	227.74
366.19	227.74
366.57	227.80
366.95	227.82
367.33	227.78
367.71	227.77
368.09	227.82
368.47	227.82
368.85	227.82
369.23	227.81
369.61	227.80
369.99	227.81
370.37	227.84
370.75	227.88
371.13	227.80
371.51	227.73
371.89	227.72
372.27	227.73
372.65	227.72
373.03	227.68
373.41	227.63
373.78	227.58
374.16	227.49
374.54	227.40
374.92	227.33
375.30	227.27
375.68	227.18
376.06	227.09
376.44	227.02
376.82	226.95
377.19	226.89
377.57	226.80
377.95	226.70
378.33	226.61
378.71	226.49
379.09	226.42
379.47	226.37
379.84	226.30
380.22	226.21
380.60	226.08
380.98	226.03
381.36	225.96
381.73	225.87
382.11	225.81
382.49	225.78
382.87	225.72
383.25	225.68
383.62	225.75
384.00	225.69
384.38	225.61
384.76	225.58
385.13	225.58
385.51	225.51
385.89	225.47
386.27	225.45
386.64	225.40
387.02	225.39
387.40	225.33
387.78	225.27
388.15	225.26
388.53	225.24
388.91	225.22
389.29	225.20
389.66	225.21
390.04	225.16
390.42	225.14
390.79	225.11
391.17	225.07
391.55	224.92
391.92	224.87
392.30	224.89
392.68	224.86
393.05	224.83
393.43	224.85
393.81	224.87
394.18	224.86
394.56	224.87
394.94	224.88
395.31	224.90
395.69	224.96
396.06	224.97
396.44	225.04
396.82	225.07
397.19	225.15
397.57	225.15
397.95	225.21
398.32	225.21
398.70	225.26
399.07	225.31
399.45	225.35
399.82	225.43
400.20	225.47
400.58	225.53
400.95	225.57
401.33	225.65
401.70	225.80
402.08	225.86
402.45	225.97
402.83	226.09
403.20	226.20
403.58	226.29
403.95	226.40
404.33	226.49
404.71	226.61
405.08	226.78
405.46	226.91
405.83	227.04
406.21	227.15
406.58	227.31
406.96	227.47
407.33	227.65
407.70	227.84
408.08	228.11
408.45	228.32
408.83	228.54
409.20	228.73
409.58	228.87
409.95	229.13
410.33	229.38
410.70	229.60
411.08	229.89
411.45	230.17
411.82	230.45
412.20	230.79
412.57	231.19
412.95	231.47
413.32	231.84
413.69	232.27
414.07	232.71
414.44	233.15
414.82	233.62
415.19	234.18
415.56	234.71
415.94	235.24
416.31	235.84
416.68	236.44
417.06	237.15
417.43	237.82
417.81	238.58
418.18	239.36
418.55	240.15
418.93	241.04
419.30	241.94
419.67	242.92
420.04	243.88
420.42	244.84
420.79	246.01
421.16	247.15
421.54	248.35
421.91	249.59
422.28	250.86
422.66	252.16
423.03	253.47
423.40	254.78
423.77	256.21
424.15	257.67
424.52	259.14
424.89	260.76
425.26	262.31
425.64	263.74
426.01	265.31
426.38	267.00
426.75	268.67
427.13	270.38
427.50	272.17
427.87	274.01
428.24	275.89
428.61	277.59
428.99	279.53
429.36	281.62
429.73	283.65
430.10	285.65
430.47	287.76
430.85	289.86
431.22	292.13
431.59	294.48
431.96	296.70
432.33	299.21
432.70	301.52
433.08	304.29
433.45	306.94
433.82	309.52
434.19	312.37
434.56	315.12
434.93	317.76
435.30	320.32
435.68	323.15
436.05	325.95
436.42	328.73
436.79	331.26
437.16	333.91
437.53	336.68
437.90	339.48
438.27	342.13
438.64	344.93
439.01	347.49
439.38	349.69
439.75	351.76
440.13	354.24
440.50	356.53
440.87	358.38
441.24	360.29
441.61	362.44
441.98	363.94
442.35	365.70
442.72	367.56
443.09	369.35
443.46	370.40
443.83	371.01
444.20	371.51
444.57	372.38
444.94	372.66
445.31	373.04
445.68	373.42
446.05	373.52
446.42	373.16
446.79	372.72
447.16	372.33
447.53	372.08
447.90	370.96
448.27	369.89
448.64	368.36
449.01	367.30
449.37	365.39
449.74	363.49
450.11	361.30
450.48	358.80
450.85	356.32
451.22	354.20
451.59	352.19
451.96	350.31
452.33	347.74
452.70	345.43
453.07	342.64
453.43	339.73
453.80	337.02
454.17	334.37
454.54	331.86
454.91	329.18
455.28	326.53
455.65	324.07
456.02	321.61
456.38	319.46
456.75	316.76
457.12	314.50
457.49	312.30
457.86	310.16
458.23	308.38
458.59	306.35
458.96	304.28
459.33	302.46
459.70	300.58
460.07	299.04
460.43	297.32
460.80	295.71
461.17	294.29
461.54	292.79
461.91	291.37
462.27	289.92
462.64	288.63
463.01	287.29
463.38	286.02
463.74	284.69
464.11	283.55
464.48	282.57
464.85	281.47
465.21	280.67
465.58	279.77
465.95	278.66
466.32	277.83
466.68	276.93
467.05	276.02
467.42	275.15
467.78	274.24
468.15	273.38
468.52	272.73
468.88	271.86
469.25	271.13
469.62	270.52
469.98	269.88
470.35	269.27
470.72	268.69
471.08	268.02
471.45	267.48
471.82	266.92
472.18	266.31
472.55	265.90
472.92	265.33
473.28	264.87
473.65	264.46
474.02	263.98
474.38	263.63
474.75	263.38
475.11	263.06
475.48	262.82
475.85	262.62
476.21	262.39
476.58	262.27
476.94	262.15
477.31	261.99
477.67	261.88
478.04	261.79
478.41	261.73
478.77	261.80
479.14	261.74
479.50	261.78
479.87	261.86
480.23	261.93
480.60	262.02
480.96	262.13
481.33	262.31
481.69	262.53
482.06	262.76
482.42	262.94
482.79	263.18
483.15	263.49
483.52	263.88
483.88	264.27
484.25	264.64
484.61	265.09
484.98	265.56
485.34	266.10
485.71	266.71
486.07	267.34
486.44	267.88
486.80	268.63
487.17	269.36
487.53	270.19
487.90	271.06
488.26	272.07
488.62	273.07
488.99	274.10
489.35	275.16
489.72	276.28
490.08	277.49
490.44	278.75
490.81	280.11
491.17	281.45
491.54	282.89
491.90	284.44
492.26	286.06
492.63	287.77
492.99	289.55
493.36	291.43
493.72	293.46
494.08	295.58
494.45	297.77
494.81	300.12
495.17	302.52
495.54	305.08
495.90	307.70
496.26	310.48
496.63	313.38
496.99	316.43
497.35	319.65
497.72	323.05
498.08	326.52
498.44	330.16
498.80	334.05
499.17	338.07
499.53	342.20
499.89	346.51
500.26	351.01
500.62	355.62
500.98	360.50
501.34	365.54
501.71	370.79
502.07	376.19
502.43	381.75
502.79	387.51
503.16	393.54
503.52	399.73
503.88	406.04
504.24	412.65
504.60	419.49
504.97	426.59
505.33	433.85
505.69	441.53
506.05	449.21
506.41	457.00
506.78	465.06
507.14	473.41
507.50	482.01
507.86	490.92
508.22	500.03
508.59	509.13
508.95	518.58
509.31	528.31
509.67	538.33
510.03	548.55
510.39	558.97
510.75	569.61
511.12	580.40
511.48	591.57
511.84	602.78
512.20	614.12
512.56	625.81
512.92	637.68
513.28	649.85
513.64	662.12
514.00	674.67
514.37	687.40
514.73	700.26
515.09	713.07
515.45	726.17
515.81	739.49
516.17	753.23
516.53	767.15
516.89	780.99
517.25	794.85
517.61	808.94
517.97	823.07
518.33	837.19
518.69	851.78
519.05	866.48
519.41	881.34
519.77	896.58
520.13	911.79
520.49	926.96
520.85	941.91
521.21	957.28
521.57	973.19
521.93	988.61
522.29	1004.58
522.65	1020.58
523.01	1036.31
523.37	1052.01
523.73	1067.85
524.09	1083.51
524.45	1099.50
524.81	1115.80
525.17	1132.13
525.53	1148.67
525.89	1165.18
526.25	1181.58
526.61	1197.54
526.97	1213.97
527.33	1230.05
527.68	1246.16
528.04	1262.28
528.40	1278.42
528.76	1295.11
529.12	1311.21
529.48	1327.85
529.84	1343.44
530.20	1359.58
530.56	1376.27
530.91	1393.30
531.27	1409.63
531.63	1425.76
531.99	1442.04
532.35	1457.70
532.71	1473.36
533.07	1489.26
533.42	1504.88
533.78	1520.58
534.14	1536.55
534.50	1551.48
534.86	1566.83
535.21	1581.76
535.57	1597.24
535.93	1612.52
536.29	1627.05
536.65	1641.76
537.00	1656.00
537.36	1671.07
537.72	1685.18
538.08	1699.34
538.44	1712.84
538.79	1726.41
539.15	1739.50
539.51	1752.69
539.87	1766.58
540.22	1779.88
540.58	1793.14
540.94	1805.98
541.29	1818.36
541.65	1830.65
542.01	1843.53
542.37	1855.65
542.72	1867.76
543.08	1879.33
543.44	1891.35
543.79	1902.20
544.15	1912.84
544.51	1924.21
544.87	1934.75
545.22	1945.45
545.58	1955.42
545.94	1964.85
546.29	1974.63
546.65	1984.52
547.01	1993.84
547.36	2002.36
547.72	2010.80
548.07	2018.67
548.43	2026.73
548.79	2034.56
549.14	2041.99
549.50	2049.27
549.86	2056.74
550.21	2063.84
550.57	2070.84
550.92	2077.40
551.28	2084.32
551.64	2091.49
551.99	2097.89
552.35	2104.08
552.70	2110.16
553.06	2116.05
553.41	2122.39
553.77	2128.15
554.13	2134.10
554.48	2140.14
554.84	2145.81
555.19	2150.92
555.55	2156.20
555.90	2160.67
556.26	2165.82
556.61	2170.61
556.97	2174.90
557.32	2179.10
557.68	2183.33
558.03	2187.64
558.39	2191.32
558.74	2196.07
559.10	2199.87
559.45	2203.57
559.81	2207.90
560.16	2211.75
560.52	2215.09
560.87	2218.49
561.23	2221.32
561.58	2224.29
561.94	2226.93
562.29	2229.12
562.64	2231.91
563.00	2234.40
563.35	2238.07
563.71	2241.19
564.06	2244.39
564.42	2247.42
564.77	2250.28
565.12	2252.80
565.48	2254.96
565.83	2257.18
566.19	2258.66
566.54	2259.58
566.89	2260.95
567.25	2261.84
567.60	2263.23
567.96	2264.96
568.31	2266.13
568.66	2267.49
569.02	2268.28
569.37	2268.85
569.72	2270.06
570.08	2270.64
570.43	2270.98
570.78	2270.54
571.14	2269.18
571.49	2268.06
571.84	2267.82
572.20	2266.79
572.55	2265.90
572.90	2264.43
573.26	2263.20
573.61	2261.56
573.96	2260.24
574.31	2257.59
574.67	2254.80
575.02	2251.49
575.37	2248.38
575.72	2244.85
576.08	2241.62
576.43	2238.37
576.78	2234.81
577.13	2231.77
577.49	2228.58
577.84	2225.43
578.19	2221.89
578.54	2218.69
578.90	2214.82
579.25	2209.59
579.60	2205.00
579.95	2200.22
580.30	2195.55
580.66	2190.55
581.01	2185.78
581.36	2181.11
581.71	2177.17
582.06	2173.08
582.42	2168.97
582.77	2164.13
583.12	2159.77
583.47	2155.51
583.82	2150.96
584.17	2146.06
584.53	2140.81
584.88	2135.51
585.23	2129.99
585.58	2124.70
585.93	2119.34
586.28	2114.68
586.63	2109.89
586.98	2104.87
587.34	2100.29
587.69	2095.42
588.04	2090.47
588.39	2085.12
588.74	2078.75
589.09	2072.69
589.44	2066.00
589.79	2059.92
590.14	2054.28
590.49	2047.95
590.84	2041.51
591.19	2035.69
591.54	2029.30
591.89	2022.28
592.25	2015.76
592.60	2008.75
592.95	2001.55
593.30	1994.30
593.65	1986.79
594.00	1979.81
594.35	1972.67
594.70	1964.80
595.05	1957.99
595.40	1950.74
595.75	1943.51
596.10	1937.65
596.45	1931.06
596.80	1925.14
597.15	1918.83
597.50	1912.11
597.85	1905.75
598.19	1899.54
598.54	1892.62
598.89	1886.29
599.24	1880.36
599.59	1874.00
599.94	1867.79
600.29	1861.54
600.64	1855.14
600.99	1848.01
601.34	1841.42
601.69	1834.68
602.04	1828.06
602.39	1820.78
602.74	1814.14
603.08	1807.58
603.43	1800.89
603.78	1793.76
604.13	1786.60
604.48	1779.54
604.83	1772.77
605.18	1766.11
605.53	1758.15
605.87	1750.29
606.22	1742.98
606.57	1735.17
606.92	1727.77
607.27	1720.82
607.62	1714.11
607.96	1707.02
608.31	1700.65
608.66	1693.17
609.01	1685.96
609.36	1678.57
609.70	1670.73
610.05	1662.89
610.40	1655.33
610.75	1647.08
611.10	1639.58
611.44	1631.24
611.79	1623.24
612.14	1614.61
612.49	1605.38
612.83	1597.03
613.18	1588.89
613.53	1580.92
613.88	1572.51
614.22	1564.24
614.57	1555.69
614.92	1547.79
615.27	1540.40
615.61	1532.12
615.96	1524.18
616.31	1516.39
616.65	1508.98
617.00	1501.49
617.35	1493.82
617.70	1485.52
618.04	1477.07
618.39	1468.91
618.74	1461.40
619.08	1453.11
619.43	1445.52
619.78	1438.64
620.12	1431.59
620.47	1424.18
620.82	1416.11
621.16	1408.65
621.51	1401.17
621.85	1393.49
622.20	1384.93
622.55	1376.59
622.89	1368.70
623.24	1360.96
623.59	1353.46
623.93	1346.02
624.28	1338.77
624.62	1331.20
624.97	1324.10
625.32	1317.34
625.66	1310.20
626.01	1303.09
626.35	1295.84
626.70	1288.18
627.04	1280.60
627.39	1272.83
627.73	1265.43
628.08	1258.51
628.43	1251.39
628.77	1244.10
629.12	1236.69
629.46	1229.53
629.81	1222.01
630.15	1214.85
630.50	1207.59
630.84	1199.59
631.19	1191.63
631.53	1184.13
631.88	1176.70
632.22	1169.13
632.57	1161.98
632.91	1154.57
633.26	1147.22
633.60	1139.76
633.95	1132.51
634.29	1125.42
634.64	1118.75
634.98	1111.56
635.32	1104.43
635.67	1097.80
636.01	1091.14
636.36	1084.40
636.70	1077.92
637.05	1071.46
637.39	1065.03
637.73	1058.54
638.08	1052.68
638.42	1046.76
638.77	1040.41
639.11	1033.85
639.45	1027.41
639.80	1020.75
640.14	1014.37
640.49	1007.87
640.83	1001.64
641.17	995.63
641.52	989.37
641.86	982.95
642.20	977.10
642.55	970.81
642.89	964.35
643.23	957.80
643.58	952.07
643.92	945.99
644.26	940.02
644.61	933.99
644.95	928.06
645.29	921.55
645.64	914.92
645.98	908.62
646.32	902.75
646.66	896.78
647.01	891.05
647.35	885.40
647.69	879.58
648.04	874.10
648.38	868.34
648.72	862.40
649.06	856.42
649.41	850.49
649.75	844.65
650.09	838.84
650.43	833.10
650.78	826.89
651.12	820.89
651.46	815.15
651.80	809.53
652.14	804.15
652.49	798.84
652.83	793.62
653.17	787.96
653.51	782.42
653.85	777.07
654.20	771.48
654.54	765.51
654.88	759.77
655.22	753.85
655.56	748.12
655.90	742.59
656.25	737.34
656.59	732.00
656.93	726.88
657.27	721.76
657.61	716.37
657.95	711.33
658.29	706.30
658.64	701.10
658.98	695.74
659.32	690.28
659.66	685.09
660.00	679.84
660.34	675.00
660.68	670.00
661.02	665.00
661.36	660.33
661.70	655.86
662.05	651.57
662.39	647.37
662.73	643.00
663.07	638.66
663.41	634.33
663.75	629.92
664.09	625.41
664.43	621.07
664.77	616.99
665.11	612.86
665.45	608.76
665.79	604.66
666.13	600.54
666.47	596.46
666.81	592.36
667.15	588.28
667.49	584.32
667.83	580.53
668.17	576.57
668.51	572.46
668.85	568.47
669.19	564.57
669.53	560.73
669.87	556.92
670.21	553.27
670.55	549.59
670.89	546.14
671.23	542.72
671.57	539.15
671.91	535.68
672.25	532.12
672.58	528.60
672.92	525.21
673.26	522.04
673.60	518.93
673.94	515.86
674.28	512.95
674.62	510.03
674.96	506.97
675.30	504.12
675.64	501.29
675.97	498.49
676.31	495.72
676.65	492.81
676.99	490.05
677.33	487.16
677.67	484.30
678.01	481.30
678.34	478.37
678.68	475.54
679.02	472.74
679.36	469.98
679.70	467.31
680.04	464.63
680.37	461.84
680.71	459.04
681.05	456.37
681.39	453.65
681.73	450.96
682.06	448.39
682.40	445.86
682.74	443.32
683.08	440.73
683.42	438.12
683.75	435.61
684.09	433.04
684.43	430.59
684.77	428.14
685.10	425.75
685.44	423.40
685.78	421.09
686.12	418.81
686.45	416.53
686.79	414.19
687.13	411.93
687.46	409.73
687.80	407.57
688.14	405.37
688.48	403.31
688.81	401.17
689.15	399.07
689.49	396.89
689.82	394.77
690.16	392.71
690.50	390.70
690.83	388.77
691.17	386.82
691.51	384.94
691.84	383.11
692.18	381.22
692.52	379.33
692.85	377.36
693.19	375.47
693.52	373.64
693.86	371.84
694.20	370.06
694.53	368.33
694.87	366.48
695.21	364.69
695.54	362.83
695.88	361.07
696.21	359.35
696.55	357.69
696.88	356.01
697.22	354.35
697.56	352.72
697.89	351.09
698.23	349.52
698.56	347.91
698.90	346.36
699.23	344.75
699.57	343.15
699.90	341.64
700.24	340.14
700.58	338.61
700.91	337.11
701.25	335.67
701.58	334.30
701.92	332.93
702.25	331.57
702.59	330.23
702.92	328.90
703.26	327.57
703.59	326.27
703.93	325.05
704.26	323.81
704.60	322.54
704.93	321.28
705.26	320.02
705.60	318.83
705.93	317.62
706.27	316.57
706.60	315.55
706.94	314.49
707.27	313.34
707.61	312.26
707.94	311.24
708.27	310.12
708.61	309.01
708.94	308.00
709.28	307.00
709.61	306.04
709.94	305.07
710.28	304.05
710.61	303.09
710.95	302.07
711.28	301.14
711.61	300.21
711.95	299.27
712.28	298.33
712.61	297.34
712.95	296.45
713.28	295.56
713.61	294.67
713.95	293.79
714.28	292.94
714.61	292.09
714.95	291.25
715.28	290.47
715.61	289.58
715.95	288.74
716.28	287.93
716.61	287.09
716.95	286.26
717.28	285.53
717.61	284.75
717.94	284.02
718.28	283.22
718.61	282.48
718.94	281.80
719.27	281.16
719.61	280.54
719.94	279.88
720.27	279.14
720.60	278.46
720.94	277.85
721.27	277.25
721.60	276.70
721.93	276.08
722.27	275.53
722.60	275.04
722.93	274.44
723.26	273.89
723.59	273.33
723.93	272.80
724.26	272.25
724.59	271.71
724.92	271.17
725.25	270.72
725.59	270.22
725.92	269.67
726.25	269.13
726.58	268.64
726.91	268.12
727.24	267.65
727.57	267.20
727.91	266.67
728.24	266.23
728.57	265.77
728.90	265.36
729.23	264.81
729.56	264.35
729.89	263.93
730.22	263.45
730.55	262.96
730.89	262.54
731.22	262.14
731.55	261.69
731.88	261.25
732.21	260.81
732.54	260.34
732.87	259.97
733.20	259.61
733.53	259.21
733.86	258.88
734.19	258.51
734.52	258.12
734.85	257.78
735.18	257.37
735.51	256.96
735.84	256.56
736.17	256.23
736.50	255.87
736.83	255.61
737.16	255.27
737.49	254.99
737.82	254.58
738.15	254.21
738.48	253.87
738.81	253.53
739.14	253.21
739.47	252.93
739.80	252.62
740.13	252.29
740.46	251.91
740.79	251.58
741.12	251.27
741.45	250.93
741.78	250.60
742.11	250.30
742.44	249.97
742.77	249.67
743.10	249.37
743.43	249.01
743.75	248.62
744.08	248.47
744.41	248.16
744.74	247.94
745.07	247.66
745.40	247.42
745.73	247.25
746.06	246.95
746.39	246.70
746.71	246.39
747.04	246.15
747.37	245.95
747.70	245.69
748.03	245.44
748.36	245.23
748.68	244.99
749.01	244.74
749.34	244.54
749.67	244.31
750.00	244.11
750.33	243.95
750.65	243.74
750.98	243.41
751.31	243.19
751.64	242.95
751.97	242.82
752.29	242.59
752.62	242.28
752.95	242.06
753.28	241.85
753.60	241.70
753.93	241.53
754.26	241.32
754.59	241.08
754.91	240.88
755.24	240.66
755.57	240.46
755.90	240.28
756.22	240.08
756.55	239.88
756.88	239.67
757.20	239.43
757.53	239.26
757.86	239.07
758.19	238.91
758.51	238.76
758.84	238.53
759.17	238.40
759.49	238.25
759.82	238.16
760.15	238.02
760.47	237.85
760.80	237.65
761.13	237.52
761.45	237.40
761.78	237.26
762.11	237.14
762.43	237.02
762.76	236.89
763.08	236.76
763.41	236.64
763.74	236.53
764.06	236.41
764.39	236.30
764.71	236.19
765.04	236.09
765.37	235.95
765.69	235.84
766.02	235.68
766.34	235.58
766.67	235.42
767.00	235.32
767.32	235.23
767.65	235.20
767.97	235.11
768.30	235.01
768.62	234.90
768.95	234.75
769.27	234.63
769.60	234.53
769.92	234.38
770.25	234.29
770.57	234.15
770.90	234.07
771.22	233.93
771.55	233.82
771.87	233.73
772.20	233.61
772.52	233.61
772.85	233.67
773.17	233.53
773.50	233.43
773.82	233.28
774.15	233.15
774.47	232.98
774.80	232.85
775.12	232.77
775.45	232.67
775.77	232.61
776.09	232.55
776.42	232.46
776.74	232.41
777.07	232.32
777.39	232.25
777.72	232.16
778.04	232.09
778.36	232.01
778.69	231.95
779.01	231.88
779.33	231.68
779.66	231.47
779.98	231.41
780.31	231.33
780.63	231.34
780.95	231.28
781.28	231.19
781.60	231.11
781.92	231.04
782.25	230.96
782.57	230.88
782.89	230.82
783.22	230.76
783.54	230.69
783.86	230.65
784.19	230.59
784.51	230.60
784.83	230.52
785.16	230.43
785.48	230.38
785.80	230.35
786.12	230.34
786.45	230.29
786.77	230.27
787.09	230.24
