SpectraSuite Data File
++++++++++++++++++++++++++++++++++++
Date: Fri Feb 01 15:02:29 EST 2013
User: group
Dark Spectrum Present: No
Reference Spectrum Present: No
Number of Sampled Component Spectra: 1
Spectrometers: USB2E7196
Integration Time (usec): 35000 (USB2E7196)
Spectra Averaged: 100 (USB2E7196)
Boxcar Smoothing: 10 (USB2E7196)
Correct for Electrical Dark: No (USB2E7196)
Strobe/Lamp Enabled: No (USB2E7196)
Correct for Detector Non-linearity: No (USB2E7196)
Correct for Stray Light: No (USB2E7196)
Number of Pixels in Processed Spectrum: 2048
>>>>>Begin Processed Spectral Data<<<<<
339.09	0.00
339.48	215.03
339.86	217.16
340.24	217.89
340.63	219.44
341.01	221.62
341.39	222.54
341.78	223.89
342.16	224.59
342.54	224.96
342.93	213.44
343.31	224.22
343.69	224.76
344.07	225.19
344.46	225.65
344.84	226.02
345.22	226.28
345.60	226.49
345.99	226.67
346.37	226.79
346.75	226.90
347.13	226.94
347.52	226.99
347.90	227.02
348.28	227.06
348.66	227.11
349.05	227.12
349.43	227.16
349.81	227.21
350.19	227.26
350.57	227.33
350.96	227.41
351.34	227.49
351.72	227.57
352.10	227.69
352.48	227.73
352.87	227.78
353.25	227.84
353.63	227.95
354.01	227.98
354.39	228.08
354.77	228.17
355.15	228.30
355.54	228.36
355.92	228.44
356.30	228.54
356.68	228.67
357.06	228.73
357.44	228.75
357.82	228.83
358.20	228.91
358.58	228.98
358.97	229.05
359.35	229.14
359.73	229.20
360.11	229.25
360.49	229.31
360.87	229.37
361.25	229.45
361.63	229.52
362.01	229.58
362.39	229.58
362.77	229.61
363.15	229.61
363.53	229.63
363.91	229.64
364.29	229.61
364.67	229.51
365.05	229.53
365.43	229.62
365.81	229.64
366.19	229.68
366.57	229.73
366.95	229.73
367.33	229.70
367.71	229.67
368.09	229.66
368.47	229.67
368.85	229.60
369.23	229.56
369.61	229.48
369.99	229.45
370.37	229.42
370.75	229.39
371.13	229.34
371.51	229.25
371.89	229.20
372.27	229.15
372.65	229.09
373.03	229.03
373.41	228.95
373.78	228.86
374.16	228.72
374.54	228.64
374.92	228.54
375.30	228.49
375.68	228.42
376.06	228.37
376.44	228.25
376.82	228.22
377.19	228.13
377.57	228.04
377.95	227.94
378.33	227.87
378.71	227.76
379.09	227.71
379.47	227.71
379.84	227.61
380.22	227.52
380.60	227.42
380.98	227.34
381.36	227.26
381.73	227.18
382.11	227.13
382.49	227.03
382.87	226.95
383.25	226.85
383.62	226.88
384.00	226.78
384.38	226.76
384.76	226.69
385.13	226.68
385.51	226.61
385.89	226.56
386.27	226.51
386.64	226.46
387.02	226.37
387.40	226.28
387.78	226.24
388.15	226.20
388.53	226.17
388.91	226.15
389.29	226.11
389.66	226.10
390.04	226.09
390.42	226.06
390.79	226.05
391.17	226.04
391.55	225.96
391.92	225.96
392.30	225.95
392.68	225.97
393.05	225.97
393.43	226.00
393.81	226.01
394.18	226.02
394.56	226.06
394.94	226.13
395.31	226.18
395.69	226.23
396.06	226.27
396.44	226.33
396.82	226.34
397.19	226.43
397.57	226.48
397.95	226.55
398.32	226.59
398.70	226.71
399.07	226.80
399.45	226.85
399.82	226.94
400.20	226.98
400.58	227.09
400.95	227.16
401.33	227.28
401.70	227.47
402.08	227.60
402.45	227.69
402.83	227.84
403.20	227.99
403.58	228.14
403.95	228.31
404.33	228.46
404.71	228.61
405.08	228.82
405.46	228.97
405.83	229.14
406.21	229.31
406.58	229.47
406.96	229.65
407.33	229.86
407.70	230.08
408.08	230.37
408.45	230.58
408.83	230.84
409.20	231.11
409.58	231.30
409.95	231.54
410.33	231.84
410.70	232.07
411.08	232.32
411.45	232.62
411.82	232.93
412.20	233.28
412.57	233.78
412.95	234.07
413.32	234.50
413.69	234.91
414.07	235.37
414.44	235.84
414.82	236.31
415.19	236.86
415.56	237.39
415.94	237.96
416.31	238.59
416.68	239.19
417.06	239.88
417.43	240.54
417.81	241.32
418.18	242.08
418.55	242.92
418.93	243.80
419.30	244.74
419.67	245.70
420.04	246.67
420.42	247.61
420.79	248.80
421.16	249.93
421.54	251.13
421.91	252.34
422.28	253.62
422.66	254.97
423.03	256.27
423.40	257.58
423.77	259.00
424.15	260.38
424.52	261.87
424.89	263.46
425.26	264.99
425.64	266.43
426.01	268.06
426.38	269.68
426.75	271.41
427.13	273.10
427.50	274.89
427.87	276.73
428.24	278.61
428.61	280.34
428.99	282.28
429.36	284.34
429.73	286.39
430.10	288.40
430.47	290.49
430.85	292.57
431.22	294.87
431.59	297.22
431.96	299.48
432.33	301.95
432.70	304.31
433.08	307.14
433.45	309.80
433.82	312.42
434.19	315.32
434.56	318.09
434.93	320.73
435.30	323.31
435.68	326.23
436.05	329.07
436.42	331.89
436.79	334.41
437.16	337.12
437.53	339.96
437.90	342.77
438.27	345.49
438.64	348.31
439.01	350.87
439.38	353.17
439.75	355.37
440.13	357.86
440.50	360.21
440.87	362.03
441.24	364.00
441.61	366.09
441.98	367.64
442.35	369.42
442.72	371.32
443.09	373.14
443.46	374.13
443.83	374.71
444.20	375.17
444.57	376.04
444.94	376.37
445.31	376.74
445.68	377.07
446.05	377.12
446.42	376.76
446.79	376.31
447.16	375.81
447.53	375.51
447.90	374.35
448.27	373.18
448.64	371.64
449.01	370.47
449.37	368.56
449.74	366.61
450.11	364.38
450.48	361.89
450.85	359.35
451.22	357.24
451.59	355.23
451.96	353.28
452.33	350.68
452.70	348.28
453.07	345.43
453.43	342.55
453.80	339.83
454.17	337.14
454.54	334.58
454.91	331.86
455.28	329.14
455.65	326.71
456.02	324.26
456.38	322.08
456.75	319.40
457.12	317.15
457.49	314.93
457.86	312.79
458.23	310.94
458.59	308.89
458.96	306.76
459.33	304.90
459.70	303.05
460.07	301.51
460.43	299.75
460.80	298.12
461.17	296.71
461.54	295.16
461.91	293.75
462.27	292.34
462.64	291.07
463.01	289.72
463.38	288.39
463.74	287.05
464.11	285.88
464.48	284.87
464.85	283.72
465.21	282.84
465.58	281.87
465.95	280.73
466.32	279.86
466.68	278.96
467.05	278.08
467.42	277.18
467.78	276.23
468.15	275.37
468.52	274.67
468.88	273.78
469.25	273.00
469.62	272.35
469.98	271.64
470.35	271.00
470.72	270.41
471.08	269.72
471.45	269.13
471.82	268.59
472.18	267.98
472.55	267.54
472.92	267.03
473.28	266.56
473.65	266.13
474.02	265.69
474.38	265.30
474.75	264.90
475.11	264.52
475.48	264.26
475.85	264.03
476.21	263.82
476.58	263.63
476.94	263.46
477.31	263.30
477.67	263.19
478.04	263.04
478.41	262.97
478.77	262.98
479.14	262.91
479.50	262.87
479.87	262.94
480.23	263.00
480.60	263.04
480.96	263.12
481.33	263.28
481.69	263.41
482.06	263.58
482.42	263.78
482.79	264.06
483.15	264.38
483.52	264.74
483.88	265.06
484.25	265.40
484.61	265.86
484.98	266.29
485.34	266.79
485.71	267.40
486.07	267.99
486.44	268.58
486.80	269.27
487.17	269.98
487.53	270.75
487.90	271.61
488.26	272.54
488.62	273.49
488.99	274.48
489.35	275.57
489.72	276.68
490.08	277.84
490.44	279.05
490.81	280.36
491.17	281.71
491.54	283.17
491.90	284.72
492.26	286.34
492.63	288.08
492.99	289.86
493.36	291.76
493.72	293.81
494.08	295.91
494.45	298.16
494.81	300.56
495.17	303.01
495.54	305.54
495.90	308.20
496.26	311.02
496.63	313.99
496.99	317.07
497.35	320.35
497.72	323.76
498.08	327.29
498.44	330.97
498.80	334.87
499.17	338.94
499.53	343.13
499.89	347.48
500.26	351.97
500.62	356.63
500.98	361.56
501.34	366.58
501.71	371.87
502.07	377.36
502.43	382.96
502.79	388.82
503.16	394.88
503.52	401.15
503.88	407.54
504.24	414.16
504.60	421.01
504.97	428.10
505.33	435.41
505.69	443.09
506.05	450.83
506.41	458.70
506.78	466.89
507.14	475.36
507.50	484.03
507.86	493.06
508.22	502.16
508.59	511.36
508.95	520.98
509.31	530.81
509.67	540.85
510.03	551.14
510.39	561.65
510.75	572.45
511.12	583.39
511.48	594.65
511.84	606.05
512.20	617.66
512.56	629.57
512.92	641.72
513.28	654.01
513.64	666.57
514.00	679.26
514.37	692.09
514.73	705.07
515.09	718.18
515.45	731.45
515.81	745.19
516.17	759.11
516.53	773.25
516.89	787.42
517.25	801.61
517.61	816.00
517.97	830.45
518.33	844.87
518.69	859.77
519.05	874.78
519.41	890.01
519.77	905.50
520.13	921.04
520.49	936.50
520.85	951.95
521.21	967.66
521.57	983.90
521.93	999.79
522.29	1016.28
522.65	1032.46
523.01	1048.76
523.37	1064.71
523.73	1080.98
524.09	1097.13
524.45	1113.55
524.81	1130.29
525.17	1147.15
525.53	1164.13
525.89	1181.16
526.25	1198.00
526.61	1214.41
526.97	1231.23
527.33	1247.75
527.68	1264.39
528.04	1280.86
528.40	1297.68
528.76	1314.75
529.12	1331.55
529.48	1348.43
529.84	1364.56
530.20	1381.34
530.56	1398.39
530.91	1416.01
531.27	1432.81
531.63	1449.16
531.99	1465.67
532.35	1481.61
532.71	1497.66
533.07	1514.00
533.42	1529.92
533.78	1546.00
534.14	1562.47
534.50	1577.92
534.86	1593.86
535.21	1609.11
535.57	1625.19
535.93	1640.67
536.29	1655.52
536.65	1670.66
537.00	1685.53
537.36	1700.82
537.72	1715.54
538.08	1730.00
538.44	1743.67
538.79	1757.77
539.15	1771.66
539.51	1785.72
539.87	1800.16
540.22	1813.91
540.58	1827.70
540.94	1841.17
541.29	1854.14
541.65	1866.85
542.01	1880.19
542.37	1892.54
542.72	1905.12
543.08	1916.96
543.44	1929.37
543.79	1940.75
544.15	1951.73
544.51	1963.41
544.87	1974.60
545.22	1985.28
545.58	1995.60
545.94	2005.64
546.29	2015.55
546.65	2025.42
547.01	2034.55
547.36	2043.46
547.72	2051.97
548.07	2059.90
548.43	2068.01
548.79	2076.09
549.14	2083.65
549.50	2090.99
549.86	2098.96
550.21	2106.17
550.57	2113.40
550.92	2120.01
551.28	2127.08
551.64	2134.14
551.99	2140.65
552.35	2146.78
552.70	2152.98
553.06	2158.85
553.41	2165.28
553.77	2171.31
554.13	2177.44
554.48	2183.52
554.84	2188.71
555.19	2193.98
555.55	2199.12
555.90	2203.64
556.26	2208.47
556.61	2213.23
556.97	2217.36
557.32	2221.25
557.68	2225.57
558.03	2229.80
558.39	2233.51
558.74	2238.13
559.10	2242.01
559.45	2245.73
559.81	2250.05
560.16	2253.77
560.52	2257.08
560.87	2260.41
561.23	2262.95
561.58	2265.85
561.94	2268.37
562.29	2270.83
562.64	2273.48
563.00	2275.93
563.35	2279.33
563.71	2282.49
564.06	2285.59
564.42	2288.43
564.77	2290.84
565.12	2292.76
565.48	2294.58
565.83	2296.38
566.19	2297.38
566.54	2298.29
566.89	2299.31
567.25	2299.69
567.60	2300.95
567.96	2302.41
568.31	2303.02
568.66	2303.98
569.02	2304.42
569.37	2304.67
569.72	2305.40
570.08	2305.32
570.43	2305.26
570.78	2304.51
571.14	2302.80
571.49	2301.35
571.84	2300.90
572.20	2299.70
572.55	2298.68
572.90	2296.94
573.26	2295.36
573.61	2293.67
573.96	2291.50
574.31	2288.16
574.67	2284.85
575.02	2281.05
575.37	2277.57
575.72	2273.68
576.08	2270.35
576.43	2266.83
576.78	2262.95
577.13	2259.71
577.49	2256.62
577.84	2253.20
578.19	2249.37
578.54	2245.60
578.90	2241.19
579.25	2235.50
579.60	2230.20
579.95	2225.03
580.30	2220.01
580.66	2214.74
581.01	2209.73
581.36	2204.67
581.71	2200.47
582.06	2195.92
582.42	2191.30
582.77	2185.96
583.12	2181.19
583.47	2176.08
583.82	2170.84
584.17	2165.46
584.53	2159.78
584.88	2154.00
585.23	2147.88
585.58	2142.34
585.93	2136.68
586.28	2131.89
586.63	2126.77
586.98	2121.72
587.34	2116.95
587.69	2111.89
588.04	2106.54
588.39	2100.64
588.74	2094.21
589.09	2087.98
589.44	2081.19
589.79	2075.22
590.14	2069.46
590.49	2062.83
590.84	2056.44
591.19	2050.37
591.54	2043.79
591.89	2036.20
592.25	2029.13
592.60	2021.94
592.95	2014.21
593.30	2006.75
593.65	1998.93
594.00	1991.75
594.35	1984.36
594.70	1976.10
595.05	1968.68
595.40	1961.28
595.75	1953.72
596.10	1947.34
596.45	1940.47
596.80	1934.14
597.15	1927.24
597.50	1920.06
597.85	1913.50
598.19	1906.81
598.54	1899.68
598.89	1893.10
599.24	1887.30
599.59	1880.56
599.94	1874.26
600.29	1867.77
600.64	1861.10
600.99	1853.61
601.34	1846.63
601.69	1839.63
602.04	1832.70
602.39	1825.42
602.74	1818.55
603.08	1811.85
603.43	1805.02
603.78	1797.76
604.13	1790.60
604.48	1783.36
604.83	1776.52
605.18	1769.45
605.53	1761.40
605.87	1753.36
606.22	1746.00
606.57	1737.92
606.92	1730.73
607.27	1723.40
607.62	1716.57
607.96	1709.29
608.31	1702.55
608.66	1695.01
609.01	1687.58
609.36	1680.05
609.70	1672.04
610.05	1663.92
610.40	1656.19
610.75	1648.00
611.10	1640.31
611.44	1632.00
611.79	1624.12
612.14	1615.42
612.49	1606.42
612.83	1598.02
613.18	1590.02
613.53	1581.90
613.88	1573.44
614.22	1565.19
614.57	1556.81
614.92	1548.76
615.27	1541.09
615.61	1532.88
615.96	1524.92
616.31	1517.31
616.65	1509.91
617.00	1502.37
617.35	1494.77
617.70	1486.47
618.04	1477.91
618.39	1469.70
618.74	1462.03
619.08	1453.73
619.43	1446.18
619.78	1439.30
620.12	1432.19
620.47	1424.64
620.82	1416.52
621.16	1409.13
621.51	1401.50
621.85	1393.86
622.20	1385.46
622.55	1377.26
622.89	1369.40
623.24	1361.86
623.59	1354.48
623.93	1347.06
624.28	1339.85
624.62	1332.35
624.97	1325.16
625.32	1318.52
625.66	1311.55
626.01	1304.38
626.35	1296.92
626.70	1289.17
627.04	1281.38
627.39	1273.72
627.73	1266.38
628.08	1259.54
628.43	1252.28
628.77	1244.97
629.12	1237.40
629.46	1230.16
629.81	1222.85
630.15	1215.69
630.50	1208.30
630.84	1200.15
631.19	1192.32
631.53	1184.88
631.88	1177.36
632.22	1169.85
632.57	1162.57
632.91	1155.09
633.26	1147.72
633.60	1140.46
633.95	1133.53
634.29	1126.57
634.64	1119.86
634.98	1112.48
635.32	1105.48
635.67	1098.93
636.01	1092.31
636.36	1085.60
636.70	1079.13
637.05	1072.57
637.39	1066.18
637.73	1059.65
638.08	1053.87
638.42	1047.88
638.77	1041.38
639.11	1034.76
639.45	1028.38
639.80	1021.72
640.14	1015.31
640.49	1008.89
640.83	1002.61
641.17	996.32
641.52	990.08
641.86	983.73
642.20	977.95
642.55	971.65
642.89	965.17
643.23	958.65
643.58	952.90
643.92	946.67
644.26	940.64
644.61	934.66
644.95	928.64
645.29	921.95
645.64	915.26
645.98	909.04
646.32	903.37
646.66	897.40
647.01	891.69
647.35	886.05
647.69	880.13
648.04	874.59
648.38	868.82
648.72	862.74
649.06	856.65
649.41	850.80
649.75	844.81
650.09	838.87
650.43	833.15
650.78	827.02
651.12	821.16
651.46	815.36
651.80	809.58
652.14	804.24
652.49	798.89
652.83	793.73
653.17	788.01
653.51	782.20
653.85	776.76
654.20	771.09
654.54	765.05
654.88	759.42
655.22	753.60
655.56	747.95
655.90	742.60
656.25	737.36
656.59	732.07
656.93	726.98
657.27	721.86
657.61	716.45
657.95	711.37
658.29	706.35
658.64	701.31
658.98	696.06
659.32	690.60
659.66	685.46
660.00	680.15
660.34	675.19
660.68	670.35
661.02	665.36
661.36	660.68
661.70	656.27
662.05	651.91
662.39	647.61
662.73	643.27
663.07	638.87
663.41	634.47
663.75	629.97
664.09	625.44
664.43	621.09
664.77	616.99
665.11	612.70
665.45	608.50
665.79	604.39
666.13	600.30
666.47	596.29
666.81	592.15
667.15	588.08
667.49	584.31
667.83	580.52
668.17	576.61
668.51	572.52
668.85	568.47
669.19	564.62
669.53	560.70
669.87	556.71
670.21	552.99
670.55	549.36
670.89	545.96
671.23	542.54
671.57	539.06
671.91	535.47
672.25	532.07
672.58	528.63
672.92	525.25
673.26	522.10
673.60	518.91
673.94	515.79
674.28	512.86
674.62	509.91
674.96	506.85
675.30	503.95
675.64	501.06
675.97	498.36
676.31	495.50
676.65	492.61
676.99	489.98
677.33	487.21
677.67	484.41
678.01	481.42
678.34	478.47
678.68	475.55
679.02	472.82
679.36	470.09
679.70	467.40
680.04	464.61
680.37	461.77
680.71	459.05
681.05	456.47
681.39	453.77
681.73	451.13
682.06	448.64
682.40	446.18
682.74	443.69
683.08	441.16
683.42	438.63
683.75	436.18
684.09	433.67
684.43	431.22
684.77	428.79
685.10	426.44
685.44	424.16
685.78	421.96
686.12	419.76
686.45	417.45
686.79	415.11
687.13	412.94
687.46	410.77
687.80	408.59
688.14	406.45
688.48	404.47
688.81	402.21
689.15	400.04
689.49	397.89
689.82	395.80
690.16	393.70
690.50	391.74
690.83	389.84
691.17	387.86
691.51	385.96
691.84	384.10
692.18	382.15
692.52	380.15
692.85	378.24
693.19	376.35
693.52	374.58
693.86	372.87
694.20	371.14
694.53	369.41
694.87	367.62
695.21	365.82
695.54	363.92
695.88	362.23
696.21	360.53
696.55	358.82
696.88	357.18
697.22	355.55
697.56	353.96
697.89	352.29
698.23	350.69
698.56	349.10
698.90	347.51
699.23	345.90
699.57	344.39
699.90	342.88
700.24	341.37
700.58	339.84
700.91	338.30
701.25	336.83
701.58	335.43
701.92	334.04
702.25	332.68
702.59	331.38
702.92	330.07
703.26	328.77
703.59	327.52
703.93	326.35
704.26	325.10
704.60	323.82
704.93	322.58
705.26	321.33
705.60	320.13
705.93	318.99
706.27	317.96
706.60	316.90
706.94	315.85
707.27	314.67
707.61	313.59
707.94	312.57
708.27	311.51
708.61	310.46
708.94	309.50
709.28	308.53
709.61	307.55
709.94	306.61
710.28	305.59
710.61	304.63
710.95	303.55
711.28	302.65
711.61	301.70
711.95	300.75
712.28	299.80
712.61	298.85
712.95	297.94
713.28	297.11
713.61	296.24
713.95	295.32
714.28	294.54
714.61	293.68
714.95	292.83
715.28	292.01
715.61	291.13
715.95	290.26
716.28	289.40
716.61	288.62
716.95	287.83
717.28	287.07
717.61	286.35
717.94	285.64
718.28	284.82
718.61	284.13
718.94	283.43
719.27	282.81
719.61	282.15
719.94	281.51
720.27	280.77
720.60	280.09
720.94	279.43
721.27	278.85
721.60	278.29
721.93	277.72
722.27	277.17
722.60	276.64
722.93	276.10
723.26	275.57
723.59	275.00
723.93	274.42
724.26	273.92
724.59	273.34
724.92	272.80
725.25	272.34
725.59	271.78
725.92	271.32
726.25	270.78
726.58	270.30
726.91	269.80
727.24	269.33
727.57	268.87
727.91	268.40
728.24	267.91
728.57	267.40
728.90	266.92
729.23	266.40
729.56	265.96
729.89	265.44
730.22	264.96
730.55	264.50
730.89	264.07
731.22	263.57
731.55	263.12
731.88	262.69
732.21	262.21
732.54	261.80
732.87	261.38
733.20	261.01
733.53	260.62
733.86	260.26
734.19	259.84
734.52	259.46
734.85	259.15
735.18	258.74
735.51	258.41
735.84	258.04
736.17	257.69
736.50	257.30
736.83	257.07
737.16	256.77
737.49	256.45
737.82	256.10
738.15	255.82
738.48	255.49
738.81	255.15
739.14	254.85
739.47	254.52
739.80	254.20
740.13	253.89
740.46	253.58
740.79	253.24
741.12	252.96
741.45	252.65
741.78	252.31
742.11	252.01
742.44	251.68
742.77	251.40
743.10	251.13
743.43	250.82
743.75	250.43
744.08	250.24
744.41	249.95
744.74	249.68
745.07	249.38
745.40	249.11
745.73	248.89
746.06	248.65
746.39	248.44
746.71	248.15
747.04	247.90
747.37	247.65
747.70	247.42
748.03	247.15
748.36	246.91
748.68	246.69
749.01	246.44
749.34	246.24
749.67	246.02
750.00	245.81
750.33	245.66
750.65	245.48
750.98	245.14
751.31	244.92
751.64	244.71
751.97	244.56
752.29	244.35
752.62	244.11
752.95	243.90
753.28	243.61
753.60	243.45
753.93	243.26
754.26	243.05
754.59	242.84
754.91	242.63
755.24	242.44
755.57	242.21
755.90	242.02
756.22	241.83
756.55	241.61
756.88	241.43
757.20	241.19
757.53	240.98
757.86	240.82
758.19	240.67
758.51	240.52
758.84	240.33
759.17	240.20
759.49	240.04
759.82	239.92
760.15	239.84
760.47	239.66
760.80	239.49
761.13	239.36
761.45	239.18
761.78	239.07
762.11	238.96
762.43	238.85
762.76	238.72
763.08	238.59
763.41	238.48
763.74	238.32
764.06	238.20
764.39	238.07
764.71	237.96
765.04	237.83
765.37	237.70
765.69	237.54
766.02	237.40
766.34	237.28
766.67	237.13
767.00	237.00
767.32	236.96
767.65	236.90
767.97	236.78
768.30	236.72
768.62	236.58
768.95	236.45
769.27	236.31
769.60	236.25
769.92	236.13
770.25	236.01
770.57	235.89
770.90	235.79
771.22	235.68
771.55	235.55
771.87	235.46
772.20	235.35
772.52	235.32
772.85	235.34
773.17	235.24
773.50	235.15
773.82	235.05
774.15	234.87
774.47	234.71
774.80	234.61
775.12	234.52
775.45	234.45
775.77	234.38
776.09	234.33
776.42	234.26
776.74	234.19
777.07	234.13
777.39	234.04
777.72	233.94
778.04	233.89
778.36	233.81
778.69	233.74
779.01	233.70
779.33	233.54
779.66	233.35
779.98	233.29
780.31	233.20
780.63	233.16
780.95	233.11
781.28	233.05
781.60	232.96
781.92	232.86
782.25	232.78
782.57	232.69
782.89	232.61
783.22	232.50
783.54	232.39
783.86	232.34
784.19	232.30
784.51	232.28
784.83	232.23
785.16	232.16
785.48	232.10
785.80	232.03
786.12	231.99
786.45	231.98
786.77	231.94
787.09	231.91
