SpectraSuite Data File
++++++++++++++++++++++++++++++++++++
Date: Fri Feb 01 16:35:09 EST 2013
User: group
Dark Spectrum Present: No
Reference Spectrum Present: No
Number of Sampled Component Spectra: 1
Spectrometers: USB2E7196
Integration Time (usec): 35000 (USB2E7196)
Spectra Averaged: 100 (USB2E7196)
Boxcar Smoothing: 10 (USB2E7196)
Correct for Electrical Dark: No (USB2E7196)
Strobe/Lamp Enabled: No (USB2E7196)
Correct for Detector Non-linearity: No (USB2E7196)
Correct for Stray Light: No (USB2E7196)
Number of Pixels in Processed Spectrum: 2048
>>>>>Begin Processed Spectral Data<<<<<
339.09	0.00
339.48	213.88
339.86	214.99
340.24	216.48
340.63	217.93
341.01	220.69
341.39	220.84
341.78	222.09
342.16	223.94
342.54	223.29
342.93	212.20
343.31	222.90
343.69	223.44
344.07	223.91
344.46	224.33
344.84	224.71
345.22	224.95
345.60	225.20
345.99	225.39
346.37	225.50
346.75	225.62
347.13	225.67
347.52	225.74
347.90	225.77
348.28	225.79
348.66	225.81
349.05	225.78
349.43	225.83
349.81	225.86
350.19	225.94
350.57	225.98
350.96	226.01
351.34	226.11
351.72	226.17
352.10	226.27
352.48	226.33
352.87	226.37
353.25	226.42
353.63	226.48
354.01	226.53
354.39	226.58
354.77	226.66
355.15	226.77
355.54	226.82
355.92	226.89
356.30	226.96
356.68	227.12
357.06	227.19
357.44	227.27
357.82	227.33
358.20	227.38
358.58	227.44
358.97	227.57
359.35	227.66
359.73	227.75
360.11	227.81
360.49	227.90
360.87	227.98
361.25	228.05
361.63	228.14
362.01	228.19
362.39	228.24
362.77	228.28
363.15	228.30
363.53	228.34
363.91	228.39
364.29	228.42
364.67	228.36
365.05	228.38
365.43	228.39
365.81	228.43
366.19	228.49
366.57	228.54
366.95	228.53
367.33	228.50
367.71	228.49
368.09	228.52
368.47	228.49
368.85	228.45
369.23	228.43
369.61	228.40
369.99	228.42
370.37	228.41
370.75	228.43
371.13	228.38
371.51	228.34
371.89	228.30
372.27	228.29
372.65	228.25
373.03	228.20
373.41	228.15
373.78	228.09
374.16	227.99
374.54	227.94
374.92	227.82
375.30	227.78
375.68	227.71
376.06	227.63
376.44	227.57
376.82	227.51
377.19	227.46
377.57	227.34
377.95	227.22
378.33	227.13
378.71	227.02
379.09	226.95
379.47	226.90
379.84	226.81
380.22	226.72
380.60	226.61
380.98	226.56
381.36	226.50
381.73	226.46
382.11	226.44
382.49	226.36
382.87	226.32
383.25	226.25
383.62	226.34
384.00	226.28
384.38	226.22
384.76	226.19
385.13	226.18
385.51	226.16
385.89	226.09
386.27	226.06
386.64	226.00
387.02	225.97
387.40	225.94
387.78	225.91
388.15	225.88
388.53	225.85
388.91	225.77
389.29	225.72
389.66	225.69
390.04	225.61
390.42	225.61
390.79	225.60
391.17	225.55
391.55	225.42
391.92	225.41
392.30	225.44
392.68	225.40
393.05	225.41
393.43	225.43
393.81	225.45
394.18	225.46
394.56	225.46
394.94	225.46
395.31	225.46
395.69	225.52
396.06	225.53
396.44	225.55
396.82	225.59
397.19	225.67
397.57	225.67
397.95	225.74
398.32	225.75
398.70	225.78
399.07	225.86
399.45	225.88
399.82	225.92
400.20	225.93
400.58	226.03
400.95	226.04
401.33	226.09
401.70	226.27
402.08	226.34
402.45	226.46
402.83	226.57
403.20	226.68
403.58	226.77
403.95	226.89
404.33	227.03
404.71	227.14
405.08	227.33
405.46	227.50
405.83	227.65
406.21	227.80
406.58	227.98
406.96	228.12
407.33	228.29
407.70	228.50
408.08	228.79
408.45	229.01
408.83	229.22
409.20	229.43
409.58	229.56
409.95	229.81
410.33	230.08
410.70	230.34
411.08	230.65
411.45	230.93
411.82	231.21
412.20	231.57
412.57	232.00
412.95	232.25
413.32	232.62
413.69	233.02
414.07	233.42
414.44	233.87
414.82	234.40
415.19	234.96
415.56	235.44
415.94	235.97
416.31	236.59
416.68	237.22
417.06	237.93
417.43	238.65
417.81	239.43
418.18	240.21
418.55	241.04
418.93	241.91
419.30	242.80
419.67	243.77
420.04	244.72
420.42	245.69
420.79	246.88
421.16	248.01
421.54	249.20
421.91	250.43
422.28	251.73
422.66	253.01
423.03	254.33
423.40	255.71
423.77	257.13
424.15	258.56
424.52	260.06
424.89	261.69
425.26	263.19
425.64	264.66
426.01	266.24
426.38	267.89
426.75	269.57
427.13	271.30
427.50	273.14
427.87	275.00
428.24	276.85
428.61	278.59
428.99	280.51
429.36	282.57
429.73	284.60
430.10	286.58
430.47	288.63
430.85	290.72
431.22	292.92
431.59	295.23
431.96	297.39
432.33	299.85
432.70	302.16
433.08	304.97
433.45	307.56
433.82	310.15
434.19	312.97
434.56	315.72
434.93	318.36
435.30	320.92
435.68	323.79
436.05	326.60
436.42	329.38
436.79	331.94
437.16	334.64
437.53	337.47
437.90	340.24
438.27	343.01
438.64	345.78
439.01	348.38
439.38	350.63
439.75	352.79
440.13	355.25
440.50	357.57
440.87	359.39
441.24	361.30
441.61	363.50
441.98	364.97
442.35	366.78
442.72	368.59
443.09	370.35
443.46	371.29
443.83	371.90
444.20	372.44
444.57	373.21
444.94	373.50
445.31	373.85
445.68	374.19
446.05	374.27
446.42	373.91
446.79	373.46
447.16	373.01
447.53	372.68
447.90	371.53
448.27	370.43
448.64	368.83
449.01	367.71
449.37	365.68
449.74	363.84
450.11	361.60
450.48	359.15
450.85	356.66
451.22	354.57
451.59	352.54
451.96	350.58
452.33	348.02
452.70	345.66
453.07	342.82
453.43	339.96
453.80	337.16
454.17	334.50
454.54	331.98
454.91	329.29
455.28	326.66
455.65	324.23
456.02	321.77
456.38	319.66
456.75	317.03
457.12	314.79
457.49	312.59
457.86	310.41
458.23	308.59
458.59	306.58
458.96	304.50
459.33	302.63
459.70	300.77
460.07	299.27
460.43	297.59
460.80	296.03
461.17	294.56
461.54	293.09
461.91	291.69
462.27	290.28
462.64	289.07
463.01	287.77
463.38	286.43
463.74	285.09
464.11	283.93
464.48	282.91
464.85	281.86
465.21	280.98
465.58	280.11
465.95	279.03
466.32	278.11
466.68	277.23
467.05	276.39
467.42	275.55
467.78	274.64
468.15	273.75
468.52	273.07
468.88	272.24
469.25	271.47
469.62	270.90
469.98	270.23
470.35	269.58
470.72	268.96
471.08	268.39
471.45	267.89
471.82	267.40
472.18	266.84
472.55	266.38
472.92	265.90
473.28	265.47
473.65	265.05
474.02	264.63
474.38	264.27
474.75	263.96
475.11	263.64
475.48	263.37
475.85	263.16
476.21	262.93
476.58	262.79
476.94	262.65
477.31	262.47
477.67	262.34
478.04	262.25
478.41	262.19
478.77	262.22
479.14	262.16
479.50	262.15
479.87	262.21
480.23	262.29
480.60	262.34
480.96	262.39
481.33	262.55
481.69	262.78
482.06	262.95
482.42	263.15
482.79	263.39
483.15	263.70
483.52	264.05
483.88	264.41
484.25	264.79
484.61	265.25
484.98	265.66
485.34	266.18
485.71	266.78
486.07	267.40
486.44	267.93
486.80	268.61
487.17	269.31
487.53	270.08
487.90	270.94
488.26	271.85
488.62	272.85
488.99	273.84
489.35	274.83
489.72	275.98
490.08	277.18
490.44	278.42
490.81	279.77
491.17	281.15
491.54	282.67
491.90	284.18
492.26	285.78
492.63	287.55
492.99	289.40
493.36	291.29
493.72	293.32
494.08	295.46
494.45	297.71
494.81	300.10
495.17	302.54
495.54	305.11
495.90	307.82
496.26	310.64
496.63	313.61
496.99	316.77
497.35	320.05
497.72	323.45
498.08	326.96
498.44	330.65
498.80	334.62
499.17	338.67
499.53	342.81
499.89	347.25
500.26	351.77
500.62	356.44
500.98	361.39
501.34	366.49
501.71	371.81
502.07	377.29
502.43	382.90
502.79	388.74
503.16	394.79
503.52	401.08
503.88	407.47
504.24	414.11
504.60	421.00
504.97	428.09
505.33	435.43
505.69	443.15
506.05	450.99
506.41	458.80
506.78	466.93
507.14	475.38
507.50	484.07
507.86	493.09
508.22	502.31
508.59	511.56
508.95	521.14
509.31	531.00
509.67	541.08
510.03	551.40
510.39	562.02
510.75	572.78
511.12	583.69
511.48	594.98
511.84	606.47
512.20	617.94
512.56	629.88
512.92	642.03
513.28	654.39
513.64	666.75
514.00	679.52
514.37	692.39
514.73	705.47
515.09	718.51
515.45	731.77
515.81	745.36
516.17	759.34
516.53	773.42
516.89	787.50
517.25	801.62
517.61	816.02
517.97	830.34
518.33	844.78
518.69	859.55
519.05	874.45
519.41	889.59
519.77	905.14
520.13	920.56
520.49	935.97
520.85	951.23
521.21	966.86
521.57	983.01
521.93	998.74
522.29	1014.96
522.65	1031.10
523.01	1047.19
523.37	1063.09
523.73	1079.18
524.09	1095.22
524.45	1111.43
524.81	1128.07
525.17	1144.70
525.53	1161.55
525.89	1178.35
526.25	1195.17
526.61	1211.54
526.97	1228.20
527.33	1244.54
527.68	1260.97
528.04	1277.32
528.40	1293.75
528.76	1310.88
529.12	1327.30
529.48	1344.11
529.84	1360.11
530.20	1376.60
530.56	1393.54
530.91	1410.86
531.27	1427.49
531.63	1443.81
531.99	1460.35
532.35	1476.16
532.71	1491.95
533.07	1508.03
533.42	1523.90
533.78	1539.81
534.14	1556.04
534.50	1571.24
534.86	1587.03
535.21	1602.21
535.57	1618.00
535.93	1633.48
536.29	1648.00
536.65	1662.95
537.00	1677.53
537.36	1692.64
537.72	1707.11
538.08	1721.40
538.44	1734.94
538.79	1748.47
539.15	1761.81
539.51	1775.25
539.87	1789.33
540.22	1802.76
540.58	1816.34
540.94	1829.34
541.29	1841.84
541.65	1854.16
542.01	1867.16
542.37	1879.32
542.72	1891.49
543.08	1903.12
543.44	1915.30
543.79	1926.45
544.15	1937.24
544.51	1948.70
544.87	1959.52
545.22	1970.31
545.58	1980.46
545.94	1990.25
546.29	2000.22
546.65	2010.29
547.01	2019.54
547.36	2028.38
547.72	2037.02
548.07	2044.99
548.43	2053.13
548.79	2061.14
549.14	2068.72
549.50	2076.05
549.86	2083.72
550.21	2091.02
550.57	2098.23
550.92	2104.96
551.28	2111.97
551.64	2119.15
551.99	2125.67
552.35	2132.03
552.70	2138.07
553.06	2144.01
553.41	2150.34
553.77	2156.37
554.13	2162.30
554.48	2168.43
554.84	2173.83
555.19	2179.04
555.55	2184.06
555.90	2188.61
556.26	2193.57
556.61	2198.23
556.97	2202.61
557.32	2206.69
557.68	2210.75
558.03	2215.00
558.39	2218.49
558.74	2223.04
559.10	2226.82
559.45	2230.47
559.81	2234.57
560.16	2238.47
560.52	2241.73
560.87	2245.07
561.23	2247.68
561.58	2250.63
561.94	2253.26
562.29	2255.50
562.64	2258.33
563.00	2260.92
563.35	2264.44
563.71	2267.62
564.06	2270.94
564.42	2273.74
564.77	2276.42
565.12	2278.87
565.48	2280.68
565.83	2282.67
566.19	2284.16
566.54	2285.11
566.89	2286.37
567.25	2287.04
567.60	2288.23
567.96	2290.06
568.31	2290.90
568.66	2292.08
569.02	2292.69
569.37	2293.07
569.72	2294.14
570.08	2294.31
570.43	2294.46
570.78	2294.01
571.14	2292.67
571.49	2291.29
571.84	2290.92
572.20	2289.77
572.55	2288.66
572.90	2287.22
573.26	2285.98
573.61	2284.23
573.96	2282.64
574.31	2279.64
574.67	2276.70
575.02	2273.12
575.37	2269.72
575.72	2266.20
576.08	2262.83
576.43	2259.60
576.78	2255.95
577.13	2252.68
577.49	2249.52
577.84	2246.13
578.19	2242.46
578.54	2238.70
578.90	2234.64
579.25	2229.32
579.60	2224.51
579.95	2219.74
580.30	2214.75
580.66	2209.71
581.01	2204.81
581.36	2199.91
581.71	2195.98
582.06	2191.67
582.42	2187.48
582.77	2182.26
583.12	2177.77
583.47	2173.31
583.82	2168.40
584.17	2163.20
584.53	2157.88
584.88	2152.32
585.23	2146.68
585.58	2141.03
585.93	2135.72
586.28	2130.75
586.63	2125.70
586.98	2120.59
587.34	2115.87
587.69	2111.08
588.04	2105.81
588.39	2100.30
588.74	2093.94
589.09	2087.77
589.44	2081.24
589.79	2075.09
590.14	2069.51
590.49	2062.89
590.84	2056.41
591.19	2050.40
591.54	2044.06
591.89	2036.89
592.25	2030.30
592.60	2023.10
592.95	2015.84
593.30	2008.57
593.65	2001.10
594.00	1994.20
594.35	1986.96
594.70	1978.87
595.05	1971.89
595.40	1964.69
595.75	1957.38
596.10	1951.30
596.45	1944.65
596.80	1938.36
597.15	1931.80
597.50	1925.03
597.85	1918.63
598.19	1912.05
598.54	1905.16
598.89	1898.56
599.24	1892.59
599.59	1886.07
599.94	1879.87
600.29	1873.60
600.64	1866.96
600.99	1859.75
601.34	1853.00
601.69	1846.02
602.04	1839.39
602.39	1832.03
602.74	1825.28
603.08	1818.49
603.43	1811.73
603.78	1804.34
604.13	1797.20
604.48	1790.17
604.83	1783.13
605.18	1776.26
605.53	1768.34
605.87	1760.20
606.22	1752.88
606.57	1744.78
606.92	1737.18
607.27	1730.08
607.62	1723.05
607.96	1715.88
608.31	1709.35
608.66	1701.76
609.01	1694.35
609.36	1686.67
609.70	1678.58
610.05	1670.57
610.40	1662.92
610.75	1654.52
611.10	1646.93
611.44	1638.43
611.79	1630.17
612.14	1621.60
612.49	1612.38
612.83	1604.02
613.18	1596.06
613.53	1588.05
613.88	1579.67
614.22	1571.52
614.57	1562.83
614.92	1554.87
615.27	1547.39
615.61	1539.12
615.96	1530.98
616.31	1523.35
616.65	1516.05
617.00	1508.56
617.35	1500.81
617.70	1492.58
618.04	1484.12
618.39	1475.92
618.74	1468.43
619.08	1460.24
619.43	1452.63
619.78	1445.65
620.12	1438.51
620.47	1430.99
620.82	1422.85
621.16	1415.40
621.51	1407.70
621.85	1400.14
622.20	1391.68
622.55	1383.24
622.89	1375.32
623.24	1367.68
623.59	1360.14
623.93	1352.61
624.28	1345.38
624.62	1337.93
624.97	1330.67
625.32	1323.95
625.66	1316.83
626.01	1309.69
626.35	1302.34
626.70	1294.54
627.04	1287.00
627.39	1279.28
627.73	1271.78
628.08	1264.90
628.43	1257.69
628.77	1250.44
629.12	1242.96
629.46	1235.84
629.81	1228.39
630.15	1221.23
630.50	1213.86
630.84	1205.80
631.19	1197.89
631.53	1190.32
631.88	1182.66
632.22	1175.08
632.57	1167.69
632.91	1160.16
633.26	1152.72
633.60	1145.19
633.95	1137.98
634.29	1130.91
634.64	1124.19
634.98	1116.97
635.32	1109.85
635.67	1103.20
636.01	1096.55
636.36	1089.70
636.70	1083.05
637.05	1076.58
637.39	1070.14
637.73	1063.76
638.08	1057.88
638.42	1051.88
638.77	1045.48
639.11	1039.02
639.45	1032.53
639.80	1025.93
640.14	1019.65
640.49	1013.13
640.83	1006.90
641.17	1000.83
641.52	994.44
641.86	987.92
642.20	981.97
642.55	975.51
642.89	969.05
643.23	962.47
643.58	956.71
643.92	950.64
644.26	944.56
644.61	938.40
644.95	932.28
645.29	925.71
645.64	918.98
645.98	912.59
646.32	906.72
646.66	900.71
647.01	895.00
647.35	889.25
647.69	883.31
648.04	877.69
648.38	871.89
648.72	866.01
649.06	860.01
649.41	854.06
649.75	848.19
650.09	842.25
650.43	836.47
650.78	830.29
651.12	824.29
651.46	818.50
651.80	812.86
652.14	807.54
652.49	802.18
652.83	797.02
653.17	791.45
653.51	785.73
653.85	780.27
654.20	774.63
654.54	768.67
654.88	762.99
655.22	757.21
655.56	751.49
655.90	745.95
656.25	740.70
656.59	735.41
656.93	730.28
657.27	725.13
657.61	719.71
657.95	714.63
658.29	709.53
658.64	704.26
658.98	698.84
659.32	693.33
659.66	688.12
660.00	682.88
660.34	677.87
660.68	672.92
661.02	667.94
661.36	663.21
661.70	658.70
662.05	654.28
662.39	649.97
662.73	645.43
663.07	641.10
663.41	636.63
663.75	632.16
664.09	627.62
664.43	623.28
664.77	619.19
665.11	614.97
665.45	610.79
665.79	606.73
666.13	602.65
666.47	598.52
666.81	594.41
667.15	590.23
667.49	586.27
667.83	582.41
668.17	578.46
668.51	574.33
668.85	570.25
669.19	566.38
669.53	562.54
669.87	558.79
670.21	555.04
670.55	551.39
670.89	547.93
671.23	544.52
671.57	541.00
671.91	537.45
672.25	533.86
672.58	530.38
672.92	526.94
673.26	523.73
673.60	520.58
673.94	517.45
674.28	514.49
674.62	511.59
674.96	508.46
675.30	505.59
675.64	502.72
675.97	499.92
676.31	497.14
676.65	494.13
676.99	491.34
677.33	488.43
677.67	485.61
678.01	482.57
678.34	479.56
678.68	476.60
679.02	473.75
679.36	471.02
679.70	468.27
680.04	465.51
680.37	462.68
680.71	459.85
681.05	457.22
681.39	454.52
681.73	451.81
682.06	449.32
682.40	446.71
682.74	444.12
683.08	441.56
683.42	438.92
683.75	436.49
684.09	433.94
684.43	431.53
684.77	429.09
685.10	426.70
685.44	424.34
685.78	422.09
686.12	419.81
686.45	417.54
686.79	415.26
687.13	413.08
687.46	410.90
687.80	408.77
688.14	406.46
688.48	404.43
688.81	402.26
689.15	400.07
689.49	397.91
689.82	395.83
690.16	393.76
690.50	391.78
690.83	389.80
691.17	387.80
691.51	385.89
691.84	384.00
692.18	382.08
692.52	380.16
692.85	378.21
693.19	376.31
693.52	374.41
693.86	372.53
694.20	370.71
694.53	368.96
694.87	367.07
695.21	365.34
695.54	363.45
695.88	361.65
696.21	359.89
696.55	358.21
696.88	356.52
697.22	354.84
697.56	353.20
697.89	351.56
698.23	349.92
698.56	348.29
698.90	346.75
699.23	345.15
699.57	343.57
699.90	342.03
700.24	340.52
700.58	339.07
700.91	337.63
701.25	336.16
701.58	334.78
701.92	333.41
702.25	332.03
702.59	330.66
702.92	329.35
703.26	328.09
703.59	326.83
703.93	325.60
704.26	324.39
704.60	323.11
704.93	321.83
705.26	320.61
705.60	319.42
705.93	318.21
706.27	317.16
706.60	316.13
706.94	315.05
707.27	313.90
707.61	312.75
707.94	311.71
708.27	310.63
708.61	309.53
708.94	308.56
709.28	307.56
709.61	306.65
709.94	305.71
710.28	304.71
710.61	303.69
710.95	302.68
711.28	301.74
711.61	300.83
711.95	299.91
712.28	298.97
712.61	298.00
712.95	297.09
713.28	296.22
713.61	295.27
713.95	294.38
714.28	293.58
714.61	292.75
714.95	291.92
715.28	291.14
715.61	290.27
715.95	289.38
716.28	288.54
716.61	287.68
716.95	286.83
717.28	286.08
717.61	285.39
717.94	284.65
718.28	283.85
718.61	283.09
718.94	282.36
719.27	281.74
719.61	281.07
719.94	280.41
720.27	279.70
720.60	279.08
720.94	278.47
721.27	277.89
721.60	277.32
721.93	276.73
722.27	276.16
722.60	275.59
722.93	275.05
723.26	274.54
723.59	273.99
723.93	273.48
724.26	272.92
724.59	272.32
724.92	271.76
725.25	271.27
725.59	270.77
725.92	270.30
726.25	269.78
726.58	269.28
726.91	268.76
727.24	268.28
727.57	267.81
727.91	267.29
728.24	266.81
728.57	266.36
728.90	265.89
729.23	265.40
729.56	265.01
729.89	264.53
730.22	264.03
730.55	263.55
730.89	263.10
731.22	262.65
731.55	262.26
731.88	261.84
732.21	261.41
732.54	260.99
732.87	260.57
733.20	260.13
733.53	259.75
733.86	259.38
734.19	258.98
734.52	258.59
734.85	258.30
735.18	257.85
735.51	257.47
735.84	257.10
736.17	256.72
736.50	256.28
736.83	256.07
737.16	255.73
737.49	255.41
737.82	255.10
738.15	254.80
738.48	254.43
738.81	254.11
739.14	253.79
739.47	253.45
739.80	253.13
740.13	252.85
740.46	252.56
740.79	252.24
741.12	251.94
741.45	251.62
741.78	251.25
742.11	250.99
742.44	250.63
742.77	250.34
743.10	250.06
743.43	249.77
743.75	249.37
744.08	249.19
744.41	248.90
744.74	248.59
745.07	248.29
745.40	248.05
745.73	247.80
746.06	247.52
746.39	247.24
746.71	246.95
747.04	246.66
747.37	246.38
747.70	246.14
748.03	245.90
748.36	245.66
748.68	245.39
749.01	245.15
749.34	244.97
749.67	244.75
750.00	244.53
750.33	244.41
750.65	244.18
750.98	243.84
751.31	243.64
751.64	243.46
751.97	243.29
752.29	243.04
752.62	242.77
752.95	242.59
753.28	242.40
753.60	242.20
753.93	242.03
754.26	241.82
754.59	241.61
754.91	241.37
755.24	241.15
755.57	240.99
755.90	240.79
756.22	240.58
756.55	240.35
756.88	240.13
757.20	239.87
757.53	239.68
757.86	239.53
758.19	239.32
758.51	239.12
758.84	238.90
759.17	238.75
759.49	238.62
759.82	238.50
760.15	238.36
760.47	238.22
760.80	238.03
761.13	237.94
761.45	237.78
761.78	237.67
762.11	237.55
762.43	237.42
762.76	237.29
763.08	237.16
763.41	237.06
763.74	236.96
764.06	236.83
764.39	236.73
764.71	236.58
765.04	236.47
765.37	236.36
765.69	236.24
766.02	236.13
766.34	236.00
766.67	235.83
767.00	235.72
767.32	235.67
767.65	235.67
767.97	235.53
768.30	235.42
768.62	235.29
768.95	235.18
769.27	235.04
769.60	234.94
769.92	234.80
770.25	234.66
770.57	234.53
770.90	234.45
771.22	234.33
771.55	234.26
771.87	234.13
772.20	234.03
772.52	234.03
772.85	234.02
773.17	233.93
773.50	233.83
773.82	233.72
774.15	233.58
774.47	233.39
774.80	233.30
775.12	233.23
775.45	233.14
775.77	233.07
776.09	232.99
776.42	232.93
776.74	232.88
777.07	232.83
777.39	232.78
777.72	232.66
778.04	232.62
778.36	232.56
778.69	232.52
779.01	232.47
779.33	232.29
779.66	232.14
779.98	232.07
780.31	232.01
780.63	232.00
780.95	231.97
781.28	231.92
781.60	231.84
781.92	231.76
782.25	231.71
782.57	231.61
782.89	231.55
783.22	231.42
783.54	231.39
783.86	231.32
784.19	231.23
784.51	231.21
784.83	231.11
785.16	231.01
785.48	230.94
785.80	230.85
786.12	230.81
786.45	230.74
786.77	230.73
787.09	230.65
