SpectraSuite Data File
++++++++++++++++++++++++++++++++++++
Date: Fri Feb 01 17:11:08 EST 2013
User: group
Dark Spectrum Present: No
Reference Spectrum Present: No
Number of Sampled Component Spectra: 1
Spectrometers: USB2E7196
Integration Time (usec): 35000 (USB2E7196)
Spectra Averaged: 100 (USB2E7196)
Boxcar Smoothing: 10 (USB2E7196)
Correct for Electrical Dark: No (USB2E7196)
Strobe/Lamp Enabled: No (USB2E7196)
Correct for Detector Non-linearity: No (USB2E7196)
Correct for Stray Light: No (USB2E7196)
Number of Pixels in Processed Spectrum: 2048
>>>>>Begin Processed Spectral Data<<<<<
339.09	0.00
339.48	213.31
339.86	214.85
340.24	216.18
340.63	217.61
341.01	220.22
341.39	220.39
341.78	221.19
342.16	222.64
342.54	223.74
342.93	211.71
343.31	222.41
343.69	222.98
344.07	223.45
344.46	223.89
344.84	224.24
345.22	224.49
345.60	224.72
345.99	224.91
346.37	225.04
346.75	225.12
347.13	225.13
347.52	225.19
347.90	225.27
348.28	225.30
348.66	225.35
349.05	225.36
349.43	225.39
349.81	225.40
350.19	225.41
350.57	225.46
350.96	225.50
351.34	225.59
351.72	225.63
352.10	225.69
352.48	225.73
352.87	225.82
353.25	225.89
353.63	225.94
354.01	226.03
354.39	226.13
354.77	226.20
355.15	226.36
355.54	226.42
355.92	226.50
356.30	226.57
356.68	226.70
357.06	226.78
357.44	226.83
357.82	226.92
358.20	227.00
358.58	227.08
358.97	227.16
359.35	227.24
359.73	227.36
360.11	227.43
360.49	227.51
360.87	227.54
361.25	227.62
361.63	227.73
362.01	227.77
362.39	227.80
362.77	227.85
363.15	227.87
363.53	227.90
363.91	227.91
364.29	227.96
364.67	227.90
365.05	227.91
365.43	227.94
365.81	227.94
366.19	227.98
366.57	228.00
366.95	228.01
367.33	227.96
367.71	227.95
368.09	227.97
368.47	227.97
368.85	227.95
369.23	227.94
369.61	227.83
369.99	227.87
370.37	227.86
370.75	227.87
371.13	227.83
371.51	227.75
371.89	227.75
372.27	227.69
372.65	227.63
373.03	227.58
373.41	227.53
373.78	227.50
374.16	227.41
374.54	227.34
374.92	227.26
375.30	227.22
375.68	227.13
376.06	227.05
376.44	226.96
376.82	226.92
377.19	226.84
377.57	226.82
377.95	226.69
378.33	226.61
378.71	226.52
379.09	226.46
379.47	226.42
379.84	226.34
380.22	226.28
380.60	226.20
380.98	226.11
381.36	226.06
381.73	225.99
382.11	225.96
382.49	225.88
382.87	225.83
383.25	225.76
383.62	225.82
384.00	225.76
384.38	225.69
384.76	225.61
385.13	225.59
385.51	225.51
385.89	225.46
386.27	225.43
386.64	225.36
387.02	225.30
387.40	225.25
387.78	225.17
388.15	225.15
388.53	225.10
388.91	225.08
389.29	225.03
389.66	224.99
390.04	224.96
390.42	224.97
390.79	224.94
391.17	224.92
391.55	224.79
391.92	224.77
392.30	224.79
392.68	224.77
393.05	224.76
393.43	224.77
393.81	224.76
394.18	224.74
394.56	224.75
394.94	224.80
395.31	224.82
395.69	224.88
396.06	224.90
396.44	224.93
396.82	224.96
397.19	225.06
397.57	225.09
397.95	225.13
398.32	225.13
398.70	225.18
399.07	225.27
399.45	225.32
399.82	225.38
400.20	225.43
400.58	225.49
400.95	225.49
401.33	225.58
401.70	225.73
402.08	225.85
402.45	225.93
402.83	226.02
403.20	226.13
403.58	226.21
403.95	226.33
404.33	226.48
404.71	226.60
405.08	226.78
405.46	226.94
405.83	227.07
406.21	227.24
406.58	227.40
406.96	227.55
407.33	227.72
407.70	227.89
408.08	228.17
408.45	228.40
408.83	228.68
409.20	228.87
409.58	229.08
409.95	229.27
410.33	229.53
410.70	229.77
411.08	230.06
411.45	230.37
411.82	230.64
412.20	230.99
412.57	231.41
412.95	231.66
413.32	232.04
413.69	232.44
414.07	232.91
414.44	233.41
414.82	233.89
415.19	234.45
415.56	235.00
415.94	235.53
416.31	236.18
416.68	236.81
417.06	237.57
417.43	238.25
417.81	239.06
418.18	239.88
418.55	240.75
418.93	241.64
419.30	242.54
419.67	243.53
420.04	244.49
420.42	245.50
420.79	246.73
421.16	247.89
421.54	249.15
421.91	250.34
422.28	251.59
422.66	252.92
423.03	254.24
423.40	255.61
423.77	257.03
424.15	258.46
424.52	259.97
424.89	261.56
425.26	263.15
425.64	264.57
426.01	266.13
426.38	267.79
426.75	269.46
427.13	271.18
427.50	273.00
427.87	274.90
428.24	276.79
428.61	278.53
428.99	280.51
429.36	282.57
429.73	284.69
430.10	286.72
430.47	288.74
430.85	290.87
431.22	293.08
431.59	295.44
431.96	297.69
432.33	300.15
432.70	302.56
433.08	305.31
433.45	307.95
433.82	310.56
434.19	313.46
434.56	316.28
434.93	319.00
435.30	321.61
435.68	324.53
436.05	327.34
436.42	330.10
436.79	332.63
437.16	335.36
437.53	338.17
437.90	340.96
438.27	343.75
438.64	346.57
439.01	349.16
439.38	351.44
439.75	353.60
440.13	356.11
440.50	358.45
440.87	360.34
441.24	362.31
441.61	364.54
441.98	366.08
442.35	367.90
442.72	369.76
443.09	371.57
443.46	372.53
443.83	373.13
444.20	373.70
444.57	374.54
444.94	374.81
445.31	375.13
445.68	375.51
446.05	375.60
446.42	375.20
446.79	374.85
447.16	374.41
447.53	374.15
447.90	373.00
448.27	371.80
448.64	370.22
449.01	369.11
449.37	367.08
449.74	365.15
450.11	362.92
450.48	360.42
450.85	357.88
451.22	355.74
451.59	353.75
451.96	351.80
452.33	349.18
452.70	346.82
453.07	343.99
453.43	341.09
453.80	338.33
454.17	335.67
454.54	333.12
454.91	330.37
455.28	327.63
455.65	325.13
456.02	322.72
456.38	320.56
456.75	317.85
457.12	315.61
457.49	313.39
457.86	311.23
458.23	309.37
458.59	307.33
458.96	305.21
459.33	303.32
459.70	301.43
460.07	299.92
460.43	298.21
460.80	296.59
461.17	295.14
461.54	293.65
461.91	292.24
462.27	290.78
462.64	289.54
463.01	288.22
463.38	286.90
463.74	285.49
464.11	284.35
464.48	283.34
464.85	282.23
465.21	281.36
465.58	280.39
465.95	279.32
466.32	278.39
466.68	277.52
467.05	276.61
467.42	275.73
467.78	274.81
468.15	273.93
468.52	273.28
468.88	272.41
469.25	271.58
469.62	270.97
469.98	270.28
470.35	269.62
470.72	269.02
471.08	268.38
471.45	267.89
471.82	267.36
472.18	266.76
472.55	266.33
472.92	265.81
473.28	265.37
473.65	264.89
474.02	264.48
474.38	264.09
474.75	263.78
475.11	263.43
475.48	263.14
475.85	262.94
476.21	262.67
476.58	262.50
476.94	262.40
477.31	262.20
477.67	262.10
478.04	262.01
478.41	261.94
478.77	261.98
479.14	261.89
479.50	261.88
479.87	261.99
480.23	262.09
480.60	262.15
480.96	262.23
481.33	262.45
481.69	262.66
482.06	262.90
482.42	263.05
482.79	263.30
483.15	263.61
483.52	263.99
483.88	264.35
484.25	264.73
484.61	265.16
484.98	265.59
485.34	266.13
485.71	266.73
486.07	267.33
486.44	267.89
486.80	268.60
487.17	269.35
487.53	270.14
487.90	270.97
488.26	271.93
488.62	272.93
488.99	273.89
489.35	274.96
489.72	276.08
490.08	277.32
490.44	278.58
490.81	279.95
491.17	281.28
491.54	282.76
491.90	284.30
492.26	285.93
492.63	287.68
492.99	289.42
493.36	291.32
493.72	293.35
494.08	295.45
494.45	297.70
494.81	300.04
495.17	302.52
495.54	305.09
495.90	307.76
496.26	310.55
496.63	313.49
496.99	316.61
497.35	319.82
497.72	323.24
498.08	326.77
498.44	330.44
498.80	334.32
499.17	338.35
499.53	342.56
499.89	346.95
500.26	351.47
500.62	356.16
500.98	361.09
501.34	366.15
501.71	371.43
502.07	376.87
502.43	382.49
502.79	388.22
503.16	394.26
503.52	400.49
503.88	406.79
504.24	413.40
504.60	420.20
504.97	427.36
505.33	434.57
505.69	442.22
506.05	449.92
506.41	457.80
506.78	465.93
507.14	474.25
507.50	482.82
507.86	491.76
508.22	500.87
508.59	509.98
508.95	519.47
509.31	529.19
509.67	539.16
510.03	549.28
510.39	559.76
510.75	570.40
511.12	581.16
511.48	592.39
511.84	603.71
512.20	615.10
512.56	626.83
512.92	638.91
513.28	651.07
513.64	663.29
514.00	675.81
514.37	688.54
514.73	701.42
515.09	714.27
515.45	727.30
515.81	740.64
516.17	754.34
516.53	768.20
516.89	782.17
517.25	796.13
517.61	810.32
517.97	824.46
518.33	838.68
518.69	853.15
519.05	867.81
519.41	882.68
519.77	897.87
520.13	912.99
520.49	928.09
520.85	943.11
521.21	958.48
521.57	974.35
521.93	989.75
522.29	1005.85
522.65	1021.88
523.01	1037.77
523.37	1053.52
523.73	1069.34
524.09	1085.20
524.45	1101.13
524.81	1117.44
525.17	1133.89
525.53	1150.32
525.89	1166.85
526.25	1183.47
526.61	1199.46
526.97	1215.93
527.33	1232.10
527.68	1248.35
528.04	1264.50
528.40	1280.73
528.76	1297.59
529.12	1313.83
529.48	1330.48
529.84	1346.12
530.20	1362.47
530.56	1379.06
530.91	1396.12
531.27	1412.67
531.63	1428.83
531.99	1445.04
532.35	1460.66
532.71	1476.29
533.07	1492.36
533.42	1508.08
533.78	1523.82
534.14	1539.81
534.50	1554.86
534.86	1570.36
535.21	1585.26
535.57	1600.75
535.93	1616.02
536.29	1630.52
536.65	1645.28
537.00	1659.64
537.36	1674.67
537.72	1688.67
538.08	1702.87
538.44	1716.32
538.79	1729.84
539.15	1742.98
539.51	1756.32
539.87	1770.40
540.22	1783.76
540.58	1797.11
540.94	1809.87
541.29	1822.31
541.65	1834.73
542.01	1847.62
542.37	1859.80
542.72	1872.11
543.08	1883.85
543.44	1896.06
543.79	1907.22
544.15	1918.00
544.51	1929.47
544.87	1940.18
545.22	1950.99
545.58	1961.08
545.94	1970.82
546.29	1980.77
546.65	1990.69
547.01	2000.09
547.36	2008.77
547.72	2017.38
548.07	2025.48
548.43	2033.79
548.79	2041.67
549.14	2049.34
549.50	2056.61
549.86	2064.10
550.21	2071.25
550.57	2078.37
550.92	2085.03
551.28	2091.85
551.64	2099.13
551.99	2105.69
552.35	2111.97
552.70	2118.12
553.06	2124.24
553.41	2130.61
553.77	2136.48
554.13	2142.61
554.48	2148.80
554.84	2154.58
555.19	2159.80
555.55	2164.95
555.90	2169.49
556.26	2174.84
556.61	2179.59
556.97	2184.22
557.32	2188.61
557.68	2193.03
558.03	2197.42
558.39	2201.13
558.74	2206.05
559.10	2209.89
559.45	2213.63
559.81	2218.07
560.16	2222.12
560.52	2225.46
560.87	2228.96
561.23	2231.99
561.58	2235.07
561.94	2237.81
562.29	2240.12
562.64	2242.96
563.00	2245.72
563.35	2249.32
563.71	2252.52
564.06	2255.85
564.42	2258.87
564.77	2261.64
565.12	2264.31
565.48	2266.40
565.83	2268.66
566.19	2270.26
566.54	2271.28
566.89	2272.74
567.25	2273.70
567.60	2275.12
567.96	2277.12
568.31	2278.16
568.66	2279.37
569.02	2280.21
569.37	2280.62
569.72	2281.75
570.08	2282.24
570.43	2282.55
570.78	2282.28
571.14	2281.09
571.49	2279.89
571.84	2279.64
572.20	2278.81
572.55	2277.84
572.90	2276.37
573.26	2275.22
573.61	2273.47
573.96	2272.18
574.31	2269.38
574.67	2266.57
575.02	2263.07
575.37	2259.80
575.72	2256.39
576.08	2253.19
576.43	2250.05
576.78	2246.86
577.13	2243.72
577.49	2240.68
577.84	2237.41
578.19	2233.88
578.54	2230.49
578.90	2226.76
579.25	2221.53
579.60	2216.82
579.95	2212.22
580.30	2207.59
580.66	2202.55
581.01	2197.89
581.36	2193.25
581.71	2189.45
582.06	2185.37
582.42	2181.46
582.77	2176.45
583.12	2172.25
583.47	2167.98
583.82	2163.29
584.17	2158.16
584.53	2153.11
584.88	2147.74
585.23	2142.34
585.58	2137.03
585.93	2131.64
586.28	2126.87
586.63	2122.01
586.98	2117.06
587.34	2112.37
587.69	2107.47
588.04	2102.58
588.39	2097.23
588.74	2090.73
589.09	2084.79
589.44	2078.14
589.79	2071.99
590.14	2066.61
590.49	2060.04
590.84	2053.58
591.19	2047.76
591.54	2041.57
591.89	2034.44
592.25	2028.18
592.60	2021.08
592.95	2013.97
593.30	2006.84
593.65	1999.47
594.00	1992.64
594.35	1985.53
594.70	1977.65
595.05	1970.95
595.40	1963.84
595.75	1956.40
596.10	1950.59
596.45	1943.99
596.80	1937.86
597.15	1931.55
597.50	1924.89
597.85	1918.62
598.19	1912.30
598.54	1905.52
598.89	1898.92
599.24	1892.98
599.59	1886.41
599.94	1880.15
600.29	1873.72
600.64	1867.30
600.99	1860.06
601.34	1853.42
601.69	1846.58
602.04	1839.88
602.39	1832.56
602.74	1825.67
603.08	1819.21
603.43	1812.39
603.78	1805.21
604.13	1798.11
604.48	1791.05
604.83	1784.05
605.18	1777.37
605.53	1769.56
605.87	1761.31
606.22	1754.05
606.57	1746.18
606.92	1738.62
607.27	1731.76
607.62	1724.94
607.96	1717.74
608.31	1711.44
608.66	1703.92
609.01	1696.44
609.36	1688.91
609.70	1680.94
610.05	1672.96
610.40	1665.27
610.75	1657.05
611.10	1649.35
611.44	1640.95
611.79	1632.75
612.14	1624.12
612.49	1614.84
612.83	1606.33
613.18	1598.29
613.53	1590.23
613.88	1581.77
614.22	1573.55
614.57	1564.74
614.92	1556.75
615.27	1549.27
615.61	1540.72
615.96	1532.52
616.31	1524.89
616.65	1517.43
617.00	1509.88
617.35	1502.20
617.70	1493.91
618.04	1485.50
618.39	1477.26
618.74	1469.70
619.08	1461.38
619.43	1453.60
619.78	1446.68
620.12	1439.63
620.47	1432.19
620.82	1424.07
621.16	1416.55
621.51	1408.95
621.85	1401.34
622.20	1392.86
622.55	1384.34
622.89	1376.53
623.24	1368.82
623.59	1361.31
623.93	1353.90
624.28	1346.66
624.62	1339.24
624.97	1332.12
625.32	1325.23
625.66	1318.21
626.01	1311.08
626.35	1303.96
626.70	1296.32
627.04	1288.62
627.39	1280.71
627.73	1273.25
628.08	1266.37
628.43	1259.18
628.77	1251.99
629.12	1244.48
629.46	1237.21
629.81	1229.76
630.15	1222.45
630.50	1215.06
630.84	1207.01
631.19	1198.98
631.53	1191.40
631.88	1183.77
632.22	1176.03
632.57	1168.72
632.91	1161.12
633.26	1153.66
633.60	1146.21
633.95	1139.02
634.29	1131.89
634.64	1125.19
634.98	1117.87
635.32	1110.66
635.67	1103.96
636.01	1097.10
636.36	1090.37
636.70	1083.83
637.05	1077.27
637.39	1070.90
637.73	1064.51
638.08	1058.54
638.42	1052.59
638.77	1046.17
639.11	1039.61
639.45	1033.14
639.80	1026.49
640.14	1020.12
640.49	1013.58
640.83	1007.15
641.17	1001.04
641.52	994.65
641.86	988.21
642.20	982.40
642.55	976.00
642.89	969.59
643.23	963.04
643.58	957.20
643.92	951.06
644.26	945.17
644.61	938.99
644.95	932.99
645.29	926.49
645.64	919.68
645.98	913.27
646.32	907.29
646.66	901.37
647.01	895.52
647.35	889.76
647.69	883.84
648.04	878.21
648.38	872.39
648.72	866.47
649.06	860.39
649.41	854.40
649.75	848.54
650.09	842.51
650.43	836.74
650.78	830.59
651.12	824.58
651.46	818.76
651.80	813.18
652.14	807.68
652.49	802.25
652.83	797.14
653.17	791.56
653.51	785.91
653.85	780.51
654.20	774.94
654.54	769.06
654.88	763.26
655.22	757.33
655.56	751.55
655.90	746.02
656.25	740.78
656.59	735.42
656.93	730.30
657.27	725.24
657.61	719.79
657.95	714.69
658.29	709.61
658.64	704.37
658.98	698.93
659.32	693.44
659.66	688.25
660.00	682.93
660.34	677.94
660.68	673.05
661.02	668.01
661.36	663.29
661.70	658.78
662.05	654.48
662.39	650.32
662.73	645.87
663.07	641.54
663.41	637.12
663.75	632.70
664.09	628.15
664.43	623.75
664.77	619.69
665.11	615.47
665.45	611.39
665.79	607.29
666.13	603.23
666.47	599.21
666.81	595.08
667.15	590.94
667.49	586.97
667.83	583.11
668.17	579.14
668.51	575.10
668.85	571.00
669.19	567.13
669.53	563.24
669.87	559.42
670.21	555.73
670.55	552.05
670.89	548.59
671.23	545.19
671.57	541.66
671.91	538.11
672.25	534.57
672.58	531.01
672.92	527.57
673.26	524.37
673.60	521.14
673.94	518.02
674.28	515.11
674.62	512.26
674.96	509.14
675.30	506.25
675.64	503.28
675.97	500.50
676.31	497.63
676.65	494.72
676.99	492.03
677.33	489.13
677.67	486.37
678.01	483.36
678.34	480.36
678.68	477.47
679.02	474.67
679.36	471.89
679.70	469.15
680.04	466.42
680.37	463.55
680.71	460.77
681.05	458.10
681.39	455.39
681.73	452.68
682.06	450.16
682.40	447.63
682.74	445.05
683.08	442.44
683.42	439.90
683.75	437.40
684.09	434.76
684.43	432.27
684.77	429.79
685.10	427.41
685.44	425.02
685.78	422.70
686.12	420.38
686.45	418.10
686.79	415.85
687.13	413.62
687.46	411.43
687.80	409.25
688.14	407.02
688.48	404.93
688.81	402.69
689.15	400.51
689.49	398.26
689.82	396.19
690.16	394.08
690.50	392.05
690.83	390.07
691.17	388.09
691.51	386.18
691.84	384.33
692.18	382.39
692.52	380.45
692.85	378.50
693.19	376.62
693.52	374.72
693.86	372.84
694.20	371.06
694.53	369.29
694.87	367.44
695.21	365.64
695.54	363.76
695.88	361.98
696.21	360.25
696.55	358.58
696.88	356.90
697.22	355.22
697.56	353.61
697.89	351.93
698.23	350.38
698.56	348.75
698.90	347.13
699.23	345.48
699.57	343.93
699.90	342.36
700.24	340.85
700.58	339.38
700.91	337.96
701.25	336.50
701.58	335.11
701.92	333.75
702.25	332.36
702.59	331.04
702.92	329.75
703.26	328.40
703.59	327.15
703.93	325.95
704.26	324.74
704.60	323.44
704.93	322.18
705.26	320.90
705.60	319.71
705.93	318.55
706.27	317.52
706.60	316.46
706.94	315.40
707.27	314.27
707.61	313.14
707.94	312.09
708.27	311.00
708.61	309.93
708.94	308.91
709.28	307.96
709.61	307.01
709.94	306.05
710.28	305.09
710.61	304.05
710.95	302.99
711.28	302.09
711.61	301.19
711.95	300.27
712.28	299.31
712.61	298.34
712.95	297.38
713.28	296.48
713.61	295.57
713.95	294.69
714.28	293.86
714.61	293.00
714.95	292.14
715.28	291.31
715.61	290.41
715.95	289.56
716.28	288.67
716.61	287.82
716.95	286.99
717.28	286.23
717.61	285.49
717.94	284.76
718.28	283.95
718.61	283.18
718.94	282.51
719.27	281.88
719.61	281.24
719.94	280.57
720.27	279.88
720.60	279.21
720.94	278.56
721.27	277.95
721.60	277.36
721.93	276.74
722.27	276.16
722.60	275.61
722.93	275.03
723.26	274.50
723.59	273.89
723.93	273.32
724.26	272.76
724.59	272.19
724.92	271.65
725.25	271.12
725.59	270.57
725.92	270.01
726.25	269.48
726.58	268.97
726.91	268.52
727.24	268.02
727.57	267.56
727.91	267.02
728.24	266.53
728.57	266.01
728.90	265.53
729.23	265.05
729.56	264.62
729.89	264.15
730.22	263.65
730.55	263.18
730.89	262.75
731.22	262.29
731.55	261.83
731.88	261.38
732.21	260.94
732.54	260.51
732.87	260.10
733.20	259.66
733.53	259.26
733.86	258.85
734.19	258.44
734.52	258.03
734.85	257.72
735.18	257.29
735.51	256.94
735.84	256.60
736.17	256.25
736.50	255.83
736.83	255.61
737.16	255.27
737.49	254.95
737.82	254.57
738.15	254.21
738.48	253.90
738.81	253.58
739.14	253.27
739.47	252.95
739.80	252.65
740.13	252.37
740.46	252.01
740.79	251.63
741.12	251.29
741.45	250.99
741.78	250.63
742.11	250.35
742.44	250.02
742.77	249.69
743.10	249.34
743.43	249.02
743.75	248.62
744.08	248.48
744.41	248.20
744.74	247.93
745.07	247.64
745.40	247.41
745.73	247.19
746.06	246.91
746.39	246.65
746.71	246.40
747.04	246.09
747.37	245.81
747.70	245.61
748.03	245.37
748.36	245.16
748.68	244.94
749.01	244.68
749.34	244.43
749.67	244.22
750.00	244.03
750.33	243.87
750.65	243.63
750.98	243.28
751.31	243.07
751.64	242.87
751.97	242.75
752.29	242.48
752.62	242.23
752.95	241.99
753.28	241.81
753.60	241.57
753.93	241.43
754.26	241.30
754.59	241.09
754.91	240.92
755.24	240.72
755.57	240.53
755.90	240.37
756.22	240.17
756.55	239.97
756.88	239.76
757.20	239.53
757.53	239.36
757.86	239.20
758.19	239.05
758.51	238.87
758.84	238.63
759.17	238.47
759.49	238.31
759.82	238.21
760.15	238.05
760.47	237.90
760.80	237.71
761.13	237.56
761.45	237.41
761.78	237.24
762.11	237.09
762.43	236.94
762.76	236.78
763.08	236.67
763.41	236.55
763.74	236.43
764.06	236.26
764.39	236.10
764.71	235.94
765.04	235.79
765.37	235.65
765.69	235.53
766.02	235.45
766.34	235.34
766.67	235.20
767.00	235.09
767.32	235.02
767.65	234.96
767.97	234.80
768.30	234.67
768.62	234.56
768.95	234.41
769.27	234.32
769.60	234.24
769.92	234.13
770.25	234.02
770.57	233.88
770.90	233.81
771.22	233.74
771.55	233.63
771.87	233.52
772.20	233.44
772.52	233.44
772.85	233.45
773.17	233.34
773.50	233.23
773.82	233.14
774.15	232.99
774.47	232.85
774.80	232.79
775.12	232.73
775.45	232.64
775.77	232.57
776.09	232.47
776.42	232.37
776.74	232.30
777.07	232.19
777.39	232.11
777.72	232.03
778.04	231.95
778.36	231.88
778.69	231.86
779.01	231.78
779.33	231.61
779.66	231.43
779.98	231.35
780.31	231.26
780.63	231.23
780.95	231.19
781.28	231.12
781.60	231.01
781.92	230.94
782.25	230.89
782.57	230.86
782.89	230.79
783.22	230.74
783.54	230.65
783.86	230.59
784.19	230.54
784.51	230.52
784.83	230.46
785.16	230.39
785.48	230.31
785.80	230.26
786.12	230.23
786.45	230.17
786.77	230.13
787.09	230.10
