SpectraSuite Data File
++++++++++++++++++++++++++++++++++++
Date: Fri Feb 01 16:47:29 EST 2013
User: group
Dark Spectrum Present: No
Reference Spectrum Present: No
Number of Sampled Component Spectra: 1
Spectrometers: USB2E7196
Integration Time (usec): 35000 (USB2E7196)
Spectra Averaged: 100 (USB2E7196)
Boxcar Smoothing: 10 (USB2E7196)
Correct for Electrical Dark: No (USB2E7196)
Strobe/Lamp Enabled: No (USB2E7196)
Correct for Detector Non-linearity: No (USB2E7196)
Correct for Stray Light: No (USB2E7196)
Number of Pixels in Processed Spectrum: 2048
>>>>>Begin Processed Spectral Data<<<<<
339.09	0.00
339.48	213.32
339.86	214.64
340.24	216.41
340.63	217.71
341.01	220.23
341.39	220.20
341.78	222.04
342.16	222.95
342.54	223.15
342.93	211.81
343.31	222.51
343.69	223.06
344.07	223.52
344.46	223.93
344.84	224.28
345.22	224.51
345.60	224.76
345.99	224.91
346.37	225.02
346.75	225.11
347.13	225.18
347.52	225.24
347.90	225.30
348.28	225.32
348.66	225.37
349.05	225.35
349.43	225.42
349.81	225.44
350.19	225.49
350.57	225.53
350.96	225.63
351.34	225.71
351.72	225.78
352.10	225.86
352.48	225.90
352.87	225.99
353.25	226.08
353.63	226.14
354.01	226.23
354.39	226.34
354.77	226.43
355.15	226.55
355.54	226.62
355.92	226.64
356.30	226.73
356.68	226.85
357.06	226.94
357.44	226.98
357.82	227.05
358.20	227.15
358.58	227.23
358.97	227.29
359.35	227.38
359.73	227.46
360.11	227.56
360.49	227.65
360.87	227.68
361.25	227.73
361.63	227.85
362.01	227.90
362.39	227.93
362.77	227.96
363.15	227.96
363.53	228.00
363.91	228.05
364.29	228.08
364.67	227.99
365.05	228.00
365.43	228.05
365.81	228.09
366.19	228.12
366.57	228.16
366.95	228.19
367.33	228.14
367.71	228.15
368.09	228.15
368.47	228.14
368.85	228.14
369.23	228.13
369.61	228.03
369.99	228.03
370.37	227.98
370.75	228.01
371.13	227.96
371.51	227.87
371.89	227.86
372.27	227.82
372.65	227.77
373.03	227.71
373.41	227.61
373.78	227.56
374.16	227.44
374.54	227.36
374.92	227.29
375.30	227.27
375.68	227.20
376.06	227.15
376.44	227.08
376.82	227.01
377.19	226.94
377.57	226.85
377.95	226.75
378.33	226.71
378.71	226.58
379.09	226.51
379.47	226.50
379.84	226.43
380.22	226.34
380.60	226.25
380.98	226.18
381.36	226.14
381.73	226.06
382.11	226.06
382.49	225.99
382.87	225.88
383.25	225.82
383.62	225.85
384.00	225.75
384.38	225.69
384.76	225.66
385.13	225.65
385.51	225.63
385.89	225.56
386.27	225.48
386.64	225.47
387.02	225.43
387.40	225.37
387.78	225.31
388.15	225.28
388.53	225.26
388.91	225.22
389.29	225.17
389.66	225.15
390.04	225.06
390.42	225.04
390.79	225.03
391.17	224.98
391.55	224.85
391.92	224.83
392.30	224.84
392.68	224.80
393.05	224.78
393.43	224.76
393.81	224.79
394.18	224.79
394.56	224.76
394.94	224.78
395.31	224.80
395.69	224.86
396.06	224.88
396.44	224.89
396.82	224.91
397.19	224.98
397.57	225.02
397.95	225.09
398.32	225.10
398.70	225.13
399.07	225.21
399.45	225.26
399.82	225.33
400.20	225.42
400.58	225.51
400.95	225.53
401.33	225.62
401.70	225.73
402.08	225.81
402.45	225.93
402.83	226.07
403.20	226.15
403.58	226.22
403.95	226.33
404.33	226.49
404.71	226.62
405.08	226.78
405.46	226.91
405.83	227.05
406.21	227.18
406.58	227.38
406.96	227.52
407.33	227.68
407.70	227.87
408.08	228.11
408.45	228.32
408.83	228.56
409.20	228.78
409.58	228.99
409.95	229.24
410.33	229.49
410.70	229.71
411.08	229.98
411.45	230.28
411.82	230.60
412.20	230.92
412.57	231.33
412.95	231.63
413.32	232.01
413.69	232.41
414.07	232.87
414.44	233.30
414.82	233.79
415.19	234.36
415.56	234.90
415.94	235.45
416.31	236.09
416.68	236.70
417.06	237.41
417.43	238.11
417.81	238.88
418.18	239.70
418.55	240.56
418.93	241.45
419.30	242.38
419.67	243.31
420.04	244.29
420.42	245.31
420.79	246.51
421.16	247.67
421.54	248.86
421.91	250.09
422.28	251.37
422.66	252.70
423.03	253.99
423.40	255.31
423.77	256.69
424.15	258.07
424.52	259.57
424.89	261.18
425.26	262.70
425.64	264.15
426.01	265.69
426.38	267.35
426.75	269.00
427.13	270.68
427.50	272.51
427.87	274.37
428.24	276.14
428.61	277.84
428.99	279.73
429.36	281.85
429.73	283.85
430.10	285.86
430.47	287.89
430.85	289.99
431.22	292.23
431.59	294.60
431.96	296.84
432.33	299.30
432.70	301.61
433.08	304.40
433.45	307.00
433.82	309.58
434.19	312.44
434.56	315.19
434.93	317.81
435.30	320.37
435.68	323.23
436.05	326.05
436.42	328.81
436.79	331.32
437.16	333.97
437.53	336.80
437.90	339.53
438.27	342.24
438.64	345.02
439.01	347.55
439.38	349.71
439.75	351.85
440.13	354.28
440.50	356.57
440.87	358.38
441.24	360.33
441.61	362.46
441.98	363.90
442.35	365.72
442.72	367.55
443.09	369.31
443.46	370.32
443.83	370.93
444.20	371.42
444.57	372.26
444.94	372.57
445.31	372.93
445.68	373.26
446.05	373.34
446.42	372.97
446.79	372.58
447.16	372.19
447.53	371.88
447.90	370.77
448.27	369.65
448.64	368.10
449.01	366.95
449.37	365.00
449.74	363.12
450.11	360.89
450.48	358.46
450.85	355.99
451.22	353.89
451.59	351.87
451.96	349.94
452.33	347.36
452.70	344.98
453.07	342.14
453.43	339.30
453.80	336.57
454.17	333.98
454.54	331.47
454.91	328.76
455.28	326.15
455.65	323.68
456.02	321.27
456.38	319.17
456.75	316.52
457.12	314.31
457.49	312.11
457.86	309.95
458.23	308.15
458.59	306.15
458.96	304.04
459.33	302.23
459.70	300.40
460.07	298.93
460.43	297.25
460.80	295.68
461.17	294.28
461.54	292.80
461.91	291.35
462.27	289.93
462.64	288.71
463.01	287.37
463.38	286.11
463.74	284.75
464.11	283.60
464.48	282.62
464.85	281.52
465.21	280.67
465.58	279.79
465.95	278.71
466.32	277.81
466.68	276.93
467.05	276.05
467.42	275.19
467.78	274.25
468.15	273.39
468.52	272.74
468.88	271.89
469.25	271.15
469.62	270.51
469.98	269.86
470.35	269.24
470.72	268.64
471.08	267.95
471.45	267.42
471.82	266.90
472.18	266.33
472.55	265.94
472.92	265.47
473.28	265.02
473.65	264.57
474.02	264.12
474.38	263.80
474.75	263.47
475.11	263.14
475.48	262.90
475.85	262.66
476.21	262.42
476.58	262.27
476.94	262.12
477.31	262.00
477.67	261.82
478.04	261.71
478.41	261.67
478.77	261.75
479.14	261.72
479.50	261.70
479.87	261.77
480.23	261.86
480.60	261.90
480.96	262.03
481.33	262.24
481.69	262.47
482.06	262.64
482.42	262.87
482.79	263.15
483.15	263.45
483.52	263.85
483.88	264.20
484.25	264.58
484.61	264.97
484.98	265.41
485.34	266.00
485.71	266.61
486.07	267.19
486.44	267.76
486.80	268.46
487.17	269.23
487.53	270.03
487.90	270.86
488.26	271.82
488.62	272.77
488.99	273.72
489.35	274.76
489.72	275.85
490.08	277.01
490.44	278.25
490.81	279.58
491.17	280.94
491.54	282.42
491.90	283.93
492.26	285.61
492.63	287.33
492.99	289.09
493.36	290.95
493.72	293.03
494.08	295.16
494.45	297.41
494.81	299.78
495.17	302.17
495.54	304.75
495.90	307.40
496.26	310.20
496.63	313.16
496.99	316.24
497.35	319.55
497.72	322.98
498.08	326.50
498.44	330.23
498.80	334.15
499.17	338.21
499.53	342.43
499.89	346.81
500.26	351.33
500.62	355.98
500.98	361.00
501.34	366.04
501.71	371.32
502.07	376.70
502.43	382.31
502.79	388.17
503.16	394.26
503.52	400.52
503.88	406.90
504.24	413.55
504.60	420.44
504.97	427.53
505.33	434.79
505.69	442.47
506.05	450.17
506.41	458.03
506.78	466.15
507.14	474.56
507.50	483.20
507.86	492.18
508.22	501.41
508.59	510.58
508.95	520.11
509.31	529.88
509.67	539.97
510.03	550.13
510.39	560.62
510.75	571.36
511.12	582.24
511.48	593.52
511.84	604.89
512.20	616.35
512.56	628.19
512.92	640.34
513.28	652.58
513.64	665.02
514.00	677.70
514.37	690.61
514.73	703.59
515.09	716.58
515.45	729.86
515.81	743.36
516.17	757.20
516.53	771.25
516.89	785.39
517.25	799.51
517.61	813.94
517.97	828.32
518.33	842.72
518.69	857.41
519.05	872.23
519.41	887.24
519.77	902.63
520.13	918.06
520.49	933.27
520.85	948.49
521.21	964.02
521.57	980.08
521.93	995.69
522.29	1011.83
522.65	1027.91
523.01	1043.88
523.37	1059.77
523.73	1075.76
524.09	1091.67
524.45	1107.83
524.81	1124.13
525.17	1140.78
525.53	1157.53
525.89	1174.18
526.25	1190.85
526.61	1207.17
526.97	1223.70
527.33	1240.07
527.68	1256.46
528.04	1272.84
528.40	1289.38
528.76	1306.20
529.12	1322.70
529.48	1339.44
529.84	1355.28
530.20	1371.79
530.56	1388.59
530.91	1405.80
531.27	1422.43
531.63	1438.80
531.99	1455.15
532.35	1471.04
532.71	1486.74
533.07	1502.80
533.42	1518.59
533.78	1534.54
534.14	1550.41
534.50	1565.68
534.86	1581.30
535.21	1596.39
535.57	1612.13
535.93	1627.36
536.29	1642.00
536.65	1656.72
537.00	1671.26
537.36	1686.56
537.72	1700.86
538.08	1715.10
538.44	1728.67
538.79	1742.49
539.15	1755.92
539.51	1769.55
539.87	1783.83
540.22	1797.32
540.58	1810.94
540.94	1824.01
541.29	1836.67
541.65	1849.37
542.01	1862.39
542.37	1874.67
542.72	1886.85
543.08	1898.41
543.44	1910.81
543.79	1922.05
544.15	1932.89
544.51	1944.37
544.87	1954.97
545.22	1965.73
545.58	1975.89
545.94	1985.57
546.29	1995.23
546.65	2004.99
547.01	2014.17
547.36	2022.72
547.72	2031.18
548.07	2038.90
548.43	2046.91
548.79	2054.69
549.14	2062.09
549.50	2069.29
549.86	2076.63
550.21	2083.80
550.57	2091.01
550.92	2097.38
551.28	2104.18
551.64	2111.23
551.99	2117.58
552.35	2123.79
552.70	2129.84
553.06	2135.92
553.41	2142.23
553.77	2148.25
554.13	2154.25
554.48	2160.28
554.84	2165.80
555.19	2170.95
555.55	2176.19
555.90	2180.75
556.26	2185.88
556.61	2190.69
556.97	2195.16
557.32	2199.44
557.68	2203.57
558.03	2207.75
558.39	2211.26
558.74	2215.88
559.10	2219.79
559.45	2223.39
559.81	2227.68
560.16	2231.46
560.52	2234.48
560.87	2237.85
561.23	2240.39
561.58	2243.32
561.94	2245.89
562.29	2248.11
562.64	2250.91
563.00	2253.48
563.35	2256.90
563.71	2259.83
564.06	2262.96
564.42	2265.74
564.77	2268.39
565.12	2270.92
565.48	2273.00
565.83	2275.25
566.19	2276.77
566.54	2277.61
566.89	2278.86
567.25	2279.50
567.60	2280.80
567.96	2282.70
568.31	2283.61
568.66	2284.84
569.02	2285.55
569.37	2285.87
569.72	2286.91
570.08	2287.14
570.43	2287.19
570.78	2286.80
571.14	2285.30
571.49	2283.94
571.84	2283.70
572.20	2282.59
572.55	2281.66
572.90	2280.00
573.26	2278.60
573.61	2276.87
573.96	2275.51
574.31	2272.72
574.67	2269.92
575.02	2266.45
575.37	2263.07
575.72	2259.44
576.08	2256.08
576.43	2252.85
576.78	2249.36
577.13	2246.13
577.49	2243.10
577.84	2239.61
578.19	2235.73
578.54	2232.52
578.90	2228.54
579.25	2223.14
579.60	2218.30
579.95	2213.36
580.30	2208.52
580.66	2203.41
581.01	2198.61
581.36	2193.66
581.71	2189.75
582.06	2185.44
582.42	2181.20
582.77	2176.15
583.12	2171.76
583.47	2167.18
583.82	2162.40
584.17	2157.34
584.53	2152.06
584.88	2146.48
585.23	2140.92
585.58	2135.66
585.93	2130.10
586.28	2125.39
586.63	2120.45
586.98	2115.43
587.34	2110.68
587.69	2105.90
588.04	2100.86
588.39	2095.33
588.74	2088.93
589.09	2082.69
589.44	2076.01
589.79	2069.84
590.14	2064.26
590.49	2057.73
590.84	2051.53
591.19	2045.48
591.54	2039.11
591.89	2031.99
592.25	2025.40
592.60	2018.45
592.95	2011.17
593.30	2003.94
593.65	1996.44
594.00	1989.49
594.35	1982.44
594.70	1974.47
595.05	1967.61
595.40	1960.41
595.75	1953.10
596.10	1947.12
596.45	1940.58
596.80	1934.52
597.15	1928.18
597.50	1921.39
597.85	1915.05
598.19	1908.60
598.54	1901.69
598.89	1895.14
599.24	1889.18
599.59	1882.71
599.94	1876.35
600.29	1869.98
600.64	1863.48
600.99	1856.17
601.34	1849.36
601.69	1842.41
602.04	1835.66
602.39	1828.26
602.74	1821.52
603.08	1814.71
603.43	1807.97
603.78	1800.70
604.13	1793.47
604.48	1786.24
604.83	1779.28
605.18	1772.45
605.53	1764.35
605.87	1756.31
606.22	1749.13
606.57	1741.27
606.92	1733.94
607.27	1727.01
607.62	1720.17
607.96	1713.10
608.31	1706.81
608.66	1699.34
609.01	1691.88
609.36	1684.46
609.70	1676.51
610.05	1668.50
610.40	1660.97
610.75	1652.65
611.10	1645.15
611.44	1636.82
611.79	1628.93
612.14	1620.37
612.49	1611.19
612.83	1602.81
613.18	1594.83
613.53	1586.64
613.88	1578.12
614.22	1569.79
614.57	1560.95
614.92	1552.95
615.27	1545.41
615.61	1536.93
615.96	1528.85
616.31	1521.24
616.65	1513.76
617.00	1506.15
617.35	1498.49
617.70	1490.21
618.04	1481.81
618.39	1473.45
618.74	1466.00
619.08	1457.71
619.43	1450.19
619.78	1443.20
620.12	1436.23
620.47	1428.61
620.82	1420.45
621.16	1413.05
621.51	1405.44
621.85	1398.00
622.20	1389.55
622.55	1381.17
622.89	1373.17
623.24	1365.58
623.59	1358.17
623.93	1350.75
624.28	1343.54
624.62	1336.14
624.97	1328.94
625.32	1322.09
625.66	1315.09
626.01	1307.87
626.35	1300.56
626.70	1292.72
627.04	1285.16
627.39	1277.29
627.73	1269.90
628.08	1263.05
628.43	1255.90
628.77	1248.61
629.12	1241.14
629.46	1234.09
629.81	1226.57
630.15	1219.45
630.50	1212.13
630.84	1203.98
631.19	1196.05
631.53	1188.56
631.88	1180.91
632.22	1173.33
632.57	1166.07
632.91	1158.60
633.26	1151.13
633.60	1143.48
633.95	1136.38
634.29	1129.21
634.64	1122.55
634.98	1115.26
635.32	1108.11
635.67	1101.39
636.01	1094.76
636.36	1087.95
636.70	1081.31
637.05	1074.82
637.39	1068.43
637.73	1061.89
638.08	1056.06
638.42	1050.01
638.77	1043.58
639.11	1037.10
639.45	1030.72
639.80	1024.02
640.14	1017.55
640.49	1011.10
640.83	1004.92
641.17	998.67
641.52	992.36
641.86	985.97
642.20	980.14
642.55	973.82
642.89	967.40
643.23	960.80
643.58	955.02
643.92	948.83
644.26	942.83
644.61	936.77
644.95	930.78
645.29	924.12
645.64	917.44
645.98	911.12
646.32	905.23
646.66	899.19
647.01	893.46
647.35	887.84
647.69	881.95
648.04	876.36
648.38	870.61
648.72	864.78
649.06	858.62
649.41	852.72
649.75	846.88
650.09	840.91
650.43	835.21
650.78	828.98
651.12	823.10
651.46	817.38
651.80	811.72
652.14	806.33
652.49	800.96
652.83	795.84
653.17	790.20
653.51	784.49
653.85	778.99
654.20	773.37
654.54	767.28
654.88	761.53
655.22	755.73
655.56	749.97
655.90	744.43
656.25	739.25
656.59	733.83
656.93	728.68
657.27	723.62
657.61	718.12
657.95	713.10
658.29	707.94
658.64	702.62
658.98	697.24
659.32	691.77
659.66	686.65
660.00	681.31
660.34	676.37
660.68	671.45
661.02	666.50
661.36	661.76
661.70	657.32
662.05	652.98
662.39	648.62
662.73	644.18
663.07	639.78
663.41	635.33
663.75	630.87
664.09	626.27
664.43	621.74
664.77	617.64
665.11	613.42
665.45	609.31
665.79	605.30
666.13	601.10
666.47	596.99
666.81	592.84
667.15	588.71
667.49	584.81
667.83	580.96
668.17	576.97
668.51	572.92
668.85	568.90
669.19	565.07
669.53	561.24
669.87	557.43
670.21	553.73
670.55	550.11
670.89	546.73
671.23	543.37
671.57	539.94
671.91	536.46
672.25	532.94
672.58	529.46
672.92	526.01
673.26	522.90
673.60	519.76
673.94	516.66
674.28	513.76
674.62	510.76
674.96	507.66
675.30	504.83
675.64	501.91
675.97	499.11
676.31	496.21
676.65	493.27
676.99	490.58
677.33	487.73
677.67	484.92
678.01	481.86
678.34	478.91
678.68	476.00
679.02	473.16
679.36	470.38
679.70	467.65
680.04	464.90
680.37	462.04
680.71	459.25
681.05	456.57
681.39	453.83
681.73	451.19
682.06	448.75
682.40	446.22
682.74	443.67
683.08	441.19
683.42	438.62
683.75	436.16
684.09	433.59
684.43	431.16
684.77	428.72
685.10	426.40
685.44	424.06
685.78	421.83
686.12	419.54
686.45	417.25
686.79	414.90
687.13	412.67
687.46	410.48
687.80	408.32
688.14	406.10
688.48	404.06
688.81	401.85
689.15	399.65
689.49	397.53
689.82	395.47
690.16	393.33
690.50	391.34
690.83	389.39
691.17	387.43
691.51	385.51
691.84	383.66
692.18	381.79
692.52	379.82
692.85	377.86
693.19	376.04
693.52	374.20
693.86	372.44
694.20	370.64
694.53	368.91
694.87	367.04
695.21	365.26
695.54	363.44
695.88	361.68
696.21	359.96
696.55	358.22
696.88	356.49
697.22	354.81
697.56	353.21
697.89	351.59
698.23	349.97
698.56	348.32
698.90	346.77
699.23	345.09
699.57	343.55
699.90	341.99
700.24	340.41
700.58	338.91
700.91	337.40
701.25	336.02
701.58	334.65
701.92	333.31
702.25	331.98
702.59	330.65
702.92	329.34
703.26	328.04
703.59	326.76
703.93	325.58
704.26	324.36
704.60	323.05
704.93	321.75
705.26	320.49
705.60	319.37
705.93	318.15
706.27	317.13
706.60	316.04
706.94	314.99
707.27	313.87
707.61	312.77
707.94	311.74
708.27	310.62
708.61	309.51
708.94	308.50
709.28	307.50
709.61	306.54
709.94	305.60
710.28	304.56
710.61	303.60
710.95	302.55
711.28	301.63
711.61	300.66
711.95	299.74
712.28	298.81
712.61	297.80
712.95	296.88
713.28	295.98
713.61	295.08
713.95	294.20
714.28	293.35
714.61	292.53
714.95	291.69
715.28	290.83
715.61	289.95
715.95	289.07
716.28	288.22
716.61	287.33
716.95	286.49
717.28	285.77
717.61	285.01
717.94	284.30
718.28	283.49
718.61	282.80
718.94	282.10
719.27	281.48
719.61	280.85
719.94	280.19
720.27	279.47
720.60	278.83
720.94	278.17
721.27	277.59
721.60	276.99
721.93	276.36
722.27	275.85
722.60	275.32
722.93	274.79
723.26	274.27
723.59	273.75
723.93	273.18
724.26	272.59
724.59	272.02
724.92	271.44
725.25	270.97
725.59	270.47
725.92	269.96
726.25	269.41
726.58	268.94
726.91	268.49
727.24	268.01
727.57	267.51
727.91	267.05
728.24	266.58
728.57	266.10
728.90	265.64
729.23	265.15
729.56	264.72
729.89	264.23
730.22	263.73
730.55	263.28
730.89	262.84
731.22	262.46
731.55	262.03
731.88	261.63
732.21	261.17
732.54	260.73
732.87	260.31
733.20	259.93
733.53	259.56
733.86	259.13
734.19	258.72
734.52	258.37
734.85	258.05
735.18	257.63
735.51	257.24
735.84	256.89
736.17	256.54
736.50	256.12
736.83	255.89
737.16	255.53
737.49	255.18
737.82	254.84
738.15	254.49
738.48	254.16
738.81	253.84
739.14	253.52
739.47	253.17
739.80	252.88
740.13	252.54
740.46	252.17
740.79	251.85
741.12	251.56
741.45	251.22
741.78	250.84
742.11	250.54
742.44	250.20
742.77	249.91
743.10	249.56
743.43	249.26
743.75	248.86
744.08	248.73
744.41	248.45
744.74	248.17
745.07	247.84
745.40	247.59
745.73	247.32
746.06	247.06
746.39	246.78
746.71	246.49
747.04	246.21
747.37	245.95
747.70	245.69
748.03	245.42
748.36	245.20
748.68	244.98
749.01	244.73
749.34	244.52
749.67	244.28
750.00	244.05
750.33	243.88
750.65	243.66
750.98	243.28
751.31	243.08
751.64	242.85
751.97	242.72
752.29	242.44
752.62	242.21
752.95	241.98
753.28	241.76
753.60	241.54
753.93	241.36
754.26	241.18
754.59	240.94
754.91	240.72
755.24	240.50
755.57	240.30
755.90	240.10
756.22	239.90
756.55	239.66
756.88	239.47
757.20	239.21
757.53	239.01
757.86	238.85
758.19	238.67
758.51	238.53
758.84	238.29
759.17	238.14
759.49	237.98
759.82	237.83
760.15	237.68
760.47	237.51
760.80	237.36
761.13	237.21
761.45	237.07
761.78	236.92
762.11	236.81
762.43	236.63
762.76	236.50
763.08	236.38
763.41	236.33
763.74	236.19
764.06	236.06
764.39	235.95
764.71	235.81
765.04	235.69
765.37	235.54
765.69	235.44
766.02	235.33
766.34	235.21
766.67	235.07
767.00	235.01
767.32	234.94
767.65	234.88
767.97	234.72
768.30	234.64
768.62	234.54
768.95	234.39
769.27	234.33
769.60	234.24
769.92	234.12
770.25	233.93
770.57	233.86
770.90	233.78
771.22	233.67
771.55	233.55
771.87	233.45
772.20	233.36
772.52	233.35
772.85	233.39
773.17	233.28
773.50	233.21
773.82	233.11
774.15	233.00
774.47	232.87
774.80	232.83
775.12	232.72
775.45	232.65
775.77	232.58
776.09	232.50
776.42	232.41
776.74	232.35
777.07	232.30
777.39	232.24
777.72	232.17
778.04	232.11
778.36	232.07
778.69	231.99
779.01	231.94
779.33	231.79
779.66	231.62
779.98	231.57
780.31	231.49
780.63	231.47
780.95	231.46
781.28	231.34
781.60	231.28
781.92	231.26
782.25	231.22
782.57	231.18
782.89	231.12
783.22	231.05
783.54	231.00
783.86	230.94
784.19	230.87
784.51	230.81
784.83	230.73
785.16	230.66
785.48	230.62
785.80	230.55
786.12	230.52
786.45	230.47
786.77	230.44
787.09	230.39
